SpectraSuite Data File
++++++++++++++++++++++++++++++++++++
Date: Fri Oct 25 11:34:42 EDT 2013
User: price-jones
Dark Spectrum Present: No
Reference Spectrum Present: No
Number of Sampled Component Spectra: 1
Spectrometers: USB2+H05261
Integration Time (usec): 100000 (USB2+H05261)
Spectra Averaged: 1 (USB2+H05261)
Boxcar Smoothing: 0 (USB2+H05261)
Correct for Electrical Dark: No (USB2+H05261)
Strobe/Lamp Enabled: No (USB2+H05261)
Correct for Detector Non-linearity: No (USB2+H05261)
Correct for Stray Light: No (USB2+H05261)
Number of Pixels in Processed Spectrum: 2048
>>>>>Begin Processed Spectral Data<<<<<
365.73	287.89
365.92	287.89
366.12	287.89
366.32	187.24
366.52	201.29
366.72	208.31
366.91	140.43
367.11	145.11
367.31	149.79
367.51	156.82
367.70	224.69
367.90	175.54
368.10	168.52
368.30	215.33
368.49	161.50
368.69	227.03
368.89	156.82
369.09	236.39
369.28	170.86
369.48	238.73
369.68	196.60
369.87	250.44
370.07	294.91
370.27	269.16
370.47	351.08
370.66	507.90
370.86	503.22
371.06	526.62
371.25	596.84
371.45	533.64
371.65	613.22
371.84	566.41
372.04	575.77
372.24	561.73
372.44	620.24
372.63	634.29
372.83	603.86
373.03	629.60
373.22	526.62
373.42	606.20
373.62	629.60
373.81	580.45
374.01	582.79
374.21	615.56
374.40	617.90
374.60	627.26
374.79	599.18
374.99	650.67
375.19	578.11
375.38	660.03
375.58	653.01
375.78	748.97
375.97	692.80
376.17	650.67
376.37	601.52
376.56	681.10
376.76	727.91
376.95	779.40
377.15	669.39
377.35	653.01
377.54	636.63
377.74	631.94
377.93	685.78
378.13	716.20
378.33	720.88
378.52	678.76
378.72	711.52
378.91	697.48
379.11	779.40
379.31	692.80
379.50	627.26
379.70	723.23
379.89	713.86
380.09	669.39
380.28	699.82
380.48	763.01
380.68	685.78
380.87	760.67
381.07	795.78
381.26	765.36
381.46	748.97
381.65	866.00
381.85	847.27
382.04	748.97
382.24	730.25
382.43	854.30
382.63	704.50
382.83	763.01
383.02	683.44
383.22	774.72
383.41	727.91
383.61	819.19
383.80	763.01
384.00	765.36
384.19	730.25
384.39	875.36
384.58	805.14
384.78	795.78
384.97	713.86
385.17	816.85
385.36	805.14
385.56	807.48
385.75	741.95
385.95	887.06
386.14	835.57
386.34	812.17
386.53	823.87
386.72	891.74
386.92	917.49
387.11	809.83
387.31	882.38
387.50	837.91
387.70	938.55
387.89	795.78
388.09	866.00
388.28	912.81
388.48	875.36
388.67	833.23
388.86	964.30
389.06	889.40
389.25	891.74
389.45	940.90
389.64	858.98
389.84	898.77
390.03	877.70
390.22	1018.13
390.42	954.94
390.61	1057.92
390.81	966.64
391.00	884.72
391.19	870.68
391.39	922.17
391.58	917.49
391.78	980.68
391.97	997.07
392.16	994.73
392.36	1022.81
392.55	1015.79
392.75	1048.56
392.94	1036.86
393.13	999.41
393.33	1015.79
393.52	1128.14
393.71	1081.33
393.91	1118.78
394.10	1029.84
394.29	1032.18
394.49	1039.20
394.68	1121.12
394.88	1107.07
395.07	994.73
395.26	1076.65
395.46	1146.86
395.65	1123.46
395.84	1177.29
396.04	1158.57
396.23	1107.07
396.42	1184.31
396.62	1125.80
396.81	1064.94
397.00	1181.97
397.19	1196.01
397.39	1160.91
397.58	1100.05
397.77	1107.07
397.97	1205.38
398.16	1205.38
398.35	1160.91
398.55	1228.78
398.74	1200.69
398.93	1238.14
399.12	1170.27
399.32	1233.46
399.51	1153.88
399.70	1320.06
399.90	1289.64
400.09	1282.61
400.28	1231.12
400.47	1273.25
400.67	1401.98
400.86	1413.68
401.05	1390.28
401.24	1387.94
401.44	1411.34
401.63	1343.47
401.82	1406.66
402.01	1411.34
402.21	1432.41
402.40	1502.62
402.59	1359.85
402.78	1469.86
402.97	1561.14
403.17	1540.07
403.36	1521.35
403.55	1472.20
403.74	1479.22
403.93	1558.80
404.13	1500.28
404.32	1427.73
404.51	1509.65
404.70	1577.52
404.89	1572.84
405.09	1645.40
405.28	1563.48
405.47	1568.16
405.66	1652.42
405.85	1687.53
406.05	1668.80
406.24	1631.35
406.43	1666.46
406.62	1753.06
406.81	1741.36
407.00	1708.59
407.20	1659.44
407.39	1671.14
407.58	1783.49
407.77	1755.40
407.96	1830.30
408.15	1769.44
408.34	1788.17
408.54	1872.43
408.73	1820.94
408.92	1842.00
409.11	1774.13
409.30	1879.45
409.49	1799.87
409.68	1898.17
409.87	1928.60
410.07	1912.22
410.26	1942.64
410.45	1996.48
410.64	2010.52
410.83	1959.03
411.02	2115.84
411.21	2115.84
411.40	2141.59
411.59	2090.10
411.78	2033.93
411.98	2078.40
412.17	2078.40
412.36	2148.61
412.55	2183.72
412.74	2050.31
412.93	2235.21
413.12	2214.15
413.31	2375.64
413.50	2172.02
413.69	2296.07
413.88	2300.75
414.07	2377.98
414.26	2342.88
414.45	2438.84
414.64	2331.17
414.83	2471.61
415.02	2511.39
415.22	2495.01
415.41	2579.27
415.60	2483.31
415.79	2644.81
415.98	2527.78
416.17	2569.91
416.36	2593.31
416.55	2523.10
416.74	2696.30
416.93	2665.87
417.12	2663.53
417.31	2761.83
417.50	2801.62
417.69	2768.85
417.88	2836.73
418.07	2731.41
418.26	2822.69
418.45	2874.18
418.64	3009.93
418.83	2801.62
419.02	2998.23
419.21	2958.44
419.39	2913.97
419.58	2928.01
419.77	2876.52
419.96	2939.71
420.15	2939.71
420.34	3133.98
420.53	2995.89
420.72	3098.87
420.91	3054.40
421.10	3159.72
421.29	3143.34
421.48	2942.05
421.67	3166.74
421.86	3239.30
422.05	3180.79
422.24	3056.74
422.43	3187.81
422.61	3185.47
422.80	3225.26
422.99	3323.56
423.18	3138.66
423.37	3211.22
423.56	3311.86
423.75	3290.79
423.94	3164.40
424.13	3087.17
424.32	3197.17
424.50	3325.90
424.69	3433.57
424.88	3356.33
425.07	3103.55
425.26	3208.87
425.45	3328.24
425.64	3243.98
425.83	3302.50
426.01	3353.99
426.20	3260.37
426.39	3398.46
426.58	3337.60
426.77	3288.45
426.96	3311.86
427.15	3335.26
427.33	3433.57
427.52	3475.70
427.71	3365.69
427.90	3400.80
428.09	3538.89
428.28	3473.36
428.46	3393.78
428.65	3557.61
428.84	3693.37
429.03	3695.71
429.22	3548.25
429.40	3625.49
429.59	3473.36
429.78	3471.01
429.97	3419.52
430.16	3550.59
430.34	3681.66
430.53	3660.60
430.72	3604.42
430.91	3625.49
431.10	3669.96
431.28	3754.22
431.47	3838.48
431.66	3852.52
431.85	3712.09
432.03	3894.65
432.22	3985.93
432.41	3852.52
432.60	3887.63
432.79	3988.27
432.97	3817.41
433.16	3967.21
433.35	3784.65
433.54	3983.59
433.72	3927.42
433.91	4053.81
434.10	3946.14
434.28	3976.57
434.47	4095.94
434.66	4011.68
434.85	4107.64
435.03	4198.92
435.22	4126.36
435.41	4175.52
435.59	4091.26
435.78	4138.07
435.97	4329.99
436.16	4173.18
436.34	4215.30
436.53	4198.92
436.72	4479.79
436.90	4208.28
437.09	4201.26
437.28	4262.12
437.46	4292.54
437.65	4311.27
437.84	4456.38
438.02	4435.32
438.21	4423.61
438.40	4404.89
438.58	4423.61
438.77	4561.70
438.96	4568.73
439.14	4688.09
439.33	4629.58
439.52	4552.34
439.70	4657.67
439.89	4573.41
440.08	4739.58
440.26	4873.00
440.45	4823.84
440.63	4807.46
440.82	4826.18
441.01	4823.84
441.19	4929.17
441.38	4978.32
441.57	4903.42
441.75	5107.05
441.94	5137.48
442.12	5121.09
442.31	5083.64
442.50	5221.74
442.68	5158.54
442.87	5259.18
443.05	5221.74
443.24	5149.18
443.43	5165.56
443.61	5404.30
443.80	5430.04
443.98	5348.12
444.17	5116.41
444.35	5301.31
444.54	5397.28
444.73	5322.38
444.91	5228.76
445.10	5348.12
445.28	5420.68
445.47	5371.53
445.65	5458.13
445.84	5385.57
446.02	5465.15
446.21	5345.78
446.39	5394.93
446.58	5582.18
446.77	5390.25
446.95	5289.61
447.14	5282.59
447.32	5514.30
447.51	5549.41
447.69	5427.70
447.88	5488.56
448.06	5446.43
448.25	5533.03
448.43	5554.09
448.62	5488.56
448.80	5481.53
448.99	5507.28
449.17	5650.05
449.36	5579.84
449.54	5717.93
449.73	5675.80
449.91	5781.12
450.10	5729.63
450.28	5874.74
450.46	5769.42
450.65	5823.25
450.83	5762.40
451.02	5734.31
451.20	5820.91
451.39	5823.25
451.57	5762.40
451.76	5996.45
451.94	5895.81
452.13	5984.75
452.31	5923.90
452.49	5902.83
452.68	5947.30
452.86	5907.51
453.05	5874.74
453.23	6122.84
453.42	6092.41
453.60	5849.00
453.78	6139.23
453.97	6029.22
454.15	5844.32
454.34	5963.68
454.52	6176.67
454.70	6061.99
454.89	6312.42
455.07	6092.41
455.26	6232.85
455.44	6274.98
455.62	6520.73
455.81	6354.55
455.99	6256.25
456.17	6478.60
456.36	6363.92
456.54	6565.20
456.73	6651.80
456.91	6752.45
457.09	6637.76
457.28	6612.01
457.46	6579.25
457.64	6717.34
457.83	6722.02
458.01	6682.23
458.19	6752.45
458.38	6684.57
458.56	6902.24
458.74	6672.87
458.93	6792.23
459.11	6825.00
459.29	6909.26
459.48	6937.35
459.66	6979.48
459.84	6846.07
460.03	7056.72
460.21	7101.19
460.39	6848.41
460.57	6977.14
460.76	7124.59
460.94	6993.52
461.12	7250.98
461.31	7255.66
461.49	7194.81
461.67	7138.63
461.85	7358.64
462.04	7131.61
462.22	7302.47
462.40	7218.21
462.59	7239.28
462.77	7297.79
462.95	7398.43
463.13	7267.36
463.32	7274.38
463.50	7618.44
463.68	7478.01
463.86	7433.54
464.05	7620.78
464.23	7370.35
464.41	7459.29
464.59	7337.58
464.78	7562.27
464.96	7588.02
465.14	7529.50
465.32	7625.47
465.50	7686.32
465.69	7726.11
465.87	7576.31
466.05	7669.94
466.23	7602.06
466.41	7740.15
466.60	7784.62
466.78	7779.94
466.96	7953.14
467.14	7510.78
467.32	7777.60
467.51	8006.97
467.69	7742.49
467.87	7812.71
468.05	7840.79
468.23	7845.48
468.41	7829.09
468.60	8030.38
468.78	8154.43
468.96	7999.95
469.14	8154.43
469.32	8182.51
469.50	7971.86
469.69	8383.80
469.87	8294.86
470.05	8332.31
470.23	8351.03
470.41	8243.37
470.59	8311.24
470.77	8430.61
470.95	8549.98
471.14	8503.17
471.32	8374.44
471.50	8528.91
471.68	8432.95
471.86	8582.74
472.04	8512.53
472.22	8706.79
472.40	8599.13
472.58	8840.20
472.77	8617.85
472.95	8945.53
473.13	9109.36
473.31	8795.73
473.49	8821.48
473.67	8812.12
473.85	9100.00
474.03	8947.87
474.21	9125.75
474.39	9305.97
474.57	9210.01
474.75	9420.66
474.93	9341.08
475.12	9212.35
475.30	9474.49
475.48	9385.55
475.66	9610.24
475.84	9462.79
476.02	9640.67
476.20	9708.54
476.38	9724.93
476.56	10068.98
476.74	10015.15
476.92	9865.36
477.10	10111.11
477.28	10057.28
477.46	10071.33
477.64	10417.72
477.82	10370.91
478.00	10452.83
478.18	10399.00
478.36	10305.38
478.54	10775.83
478.72	10719.65
478.90	10633.05
479.08	11091.80
479.26	10956.05
479.44	10834.34
479.62	11286.06
479.80	11307.13
479.98	11236.91
480.16	11609.06
480.34	11440.54
480.52	11623.10
480.70	11587.99
480.88	11400.75
481.06	11838.43
481.24	11660.55
481.41	12023.33
481.59	11833.75
481.77	12287.81
481.95	12154.40
482.13	12348.67
482.31	12161.42
482.49	12690.38
482.67	12479.74
482.85	12547.61
483.03	12903.37
483.21	13088.28
483.39	12966.57
483.57	13165.51
483.74	12971.25
483.92	13228.71
484.10	13348.08
484.28	13336.37
484.46	13731.92
484.64	13811.50
484.82	13523.62
485.00	13699.16
485.18	14188.33
485.35	14286.63
485.53	14134.50
485.71	14181.31
485.89	14434.08
486.07	14420.04
486.25	14520.68
486.43	14621.33
486.61	14843.68
486.78	15129.22
486.96	14981.77
487.14	15140.93
487.32	15239.23
487.50	15424.13
487.68	15517.75
487.85	15592.65
488.03	15599.67
488.21	15878.19
488.39	15913.30
488.57	16191.83
488.75	16018.63
488.92	16369.71
489.10	16559.29
489.28	16613.12
489.46	16681.00
489.64	16641.21
489.81	17205.28
489.99	17158.47
490.17	17015.69
490.35	17352.73
490.53	17102.29
490.70	17514.23
490.88	17640.62
491.06	17851.27
491.24	17989.36
491.41	18132.13
491.59	18001.06
491.77	18078.30
491.95	18188.30
492.13	18476.19
492.30	18483.21
492.48	18771.10
492.66	18246.82
492.84	18808.54
493.01	18845.99
493.19	18848.33
493.37	18960.68
493.54	19152.60
493.72	19517.73
493.90	19286.01
494.08	19721.35
494.25	19674.54
494.43	19566.88
494.61	20063.07
494.79	20091.16
494.96	19932.00
495.14	20105.20
495.32	20339.26
495.49	20315.85
495.67	20222.23
495.85	20549.90
496.02	20517.14
496.20	21095.25
496.38	21095.25
496.55	21032.05
496.73	21308.24
496.91	21312.92
497.09	21561.02
497.26	21504.84
497.44	21731.87
497.62	21916.78
497.79	22204.66
497.97	21837.20
498.14	21858.26
498.32	22485.53
498.50	22312.33
498.67	22640.00
498.85	22553.40
499.03	22525.32
499.20	22485.53
499.38	22796.82
499.56	23147.90
499.73	22843.63
499.91	23529.41
500.08	23293.01
500.26	23143.22
500.44	23318.76
500.61	23250.88
500.79	22974.70
500.97	23660.48
501.14	23931.98
501.32	23861.76
501.49	23943.68
501.67	23798.57
501.84	24004.53
502.02	23861.76
502.20	23978.79
502.37	24334.55
502.55	24049.00
502.72	24397.74
502.90	24493.71
503.07	24070.07
503.25	24592.01
503.43	24112.20
503.60	24893.94
503.78	24985.22
503.95	24694.99
504.13	25317.57
504.30	25071.82
504.48	24964.15
504.65	25209.91
504.83	25256.72
505.01	25497.80
505.18	25514.18
505.36	25727.17
505.53	25479.07
505.71	25689.72
505.88	25984.63
506.06	25514.18
506.23	26155.49
506.41	26026.76
506.58	26150.81
506.76	26319.32
506.93	26197.62
507.11	26501.89
507.28	26574.44
507.46	26162.51
507.63	26824.88
507.81	26726.58
507.98	26373.16
508.16	26867.01
508.33	27091.70
508.50	27262.56
508.68	26813.18
508.85	27545.76
509.03	26984.04
509.20	27353.84
509.38	27615.98
509.55	27431.08
509.73	27513.00
509.90	27461.51
510.08	28030.26
510.25	27513.00
510.42	27913.23
510.60	28105.15
510.77	28224.52
510.95	28393.04
511.12	28063.02
511.30	28147.28
511.47	28210.48
511.64	28107.49
511.82	28353.25
511.99	28568.58
512.17	28636.45
512.34	28456.23
512.51	28814.34
512.69	28725.39
512.86	28929.02
513.04	29158.39
513.21	29301.17
513.38	29235.63
513.56	29394.79
513.73	29401.81
513.90	29502.45
514.08	29291.80
514.25	29804.38
514.43	29462.66
514.60	30183.55
514.77	29680.33
514.95	30094.61
515.12	29947.15
515.29	29764.59
515.47	30078.22
515.64	29916.73
515.81	29596.07
515.99	30513.56
516.16	30560.37
516.33	30185.89
516.51	30527.61
516.68	30590.80
516.85	30405.90
517.03	30724.21
517.20	30452.71
517.37	31002.74
517.54	30675.06
517.72	30984.01
517.89	30764.00
518.06	30806.13
518.24	31143.17
518.41	31026.14
518.58	31433.39
518.75	31035.50
518.93	31222.75
519.10	31835.97
519.27	31674.47
519.45	31496.59
519.62	31896.82
519.79	31784.48
519.96	31721.28
520.14	31852.35
520.31	31388.92
520.48	31985.76
520.65	32009.17
520.83	32631.75
521.00	32563.87
521.17	32517.06
521.34	32339.18
521.52	32350.88
521.69	32425.78
521.86	32631.75
522.03	32645.79
522.20	33064.75
522.38	33191.14
522.55	32748.78
522.72	32961.76
522.89	33036.66
523.07	33020.28
523.24	33301.14
523.41	33661.58
523.58	32858.78
523.75	33706.05
523.92	33221.56
524.10	33493.07
524.27	33874.57
524.44	33352.63
524.61	34117.99
524.78	33823.08
524.96	34122.67
525.13	33703.71
525.30	33820.74
525.47	34211.61
525.64	33944.79
525.81	34349.70
525.98	34263.10
526.16	34174.16
526.33	34426.94
526.50	34792.06
526.67	34150.76
526.84	34284.17
527.01	34359.06
527.18	34644.61
527.36	34602.48
527.53	34965.26
527.70	35182.93
527.87	35117.40
528.04	34391.83
528.21	34359.06
528.38	35051.86
528.55	34993.35
528.72	34918.45
528.89	34815.47
529.07	35023.78
529.24	34890.37
529.41	35353.79
529.58	34979.31
529.75	35391.24
529.92	35400.60
530.09	35608.91
530.26	35360.81
530.43	35452.09
530.60	35187.61
530.77	35674.45
530.94	35524.65
531.11	35524.65
531.28	35831.26
531.46	36215.11
531.63	35580.82
531.80	35573.80
531.97	35974.03
532.14	35967.01
532.31	36062.97
532.48	36182.34
532.65	36591.94
532.82	36053.61
532.99	36423.42
533.16	35903.82
533.33	36561.51
533.50	36364.90
533.67	36404.69
533.84	36378.95
534.01	36165.96
534.18	36091.06
534.35	36994.51
534.52	37029.62
534.69	37254.31
534.86	37415.80
535.03	36643.43
535.20	37036.64
535.37	37090.47
535.54	37359.63
535.71	37062.38
535.88	37483.68
536.05	37612.41
536.22	37486.02
536.38	37415.80
536.55	37596.03
536.72	37546.87
536.89	36924.29
537.06	37151.32
537.23	37572.62
537.40	37741.14
537.57	37542.19
537.74	37577.30
537.91	37556.24
538.08	37572.62
538.25	37827.74
538.42	37897.95
538.59	38113.28
538.75	37699.01
538.92	38115.62
539.09	37984.55
539.26	38277.12
539.43	38010.30
539.60	37965.83
539.77	37865.19
539.94	38153.07
540.11	38181.16
540.28	38080.52
540.44	38520.54
540.61	38370.74
540.78	38450.32
540.95	38525.22
541.12	38534.58
541.29	38469.04
541.46	38164.78
541.62	38649.27
541.79	38682.03
541.96	38253.72
542.13	38492.45
542.30	39119.71
542.47	38799.06
542.63	39281.21
542.80	39033.11
542.97	39693.15
543.14	39517.60
543.31	39234.40
543.48	39220.36
543.64	39988.05
543.81	40016.14
543.98	39683.78
544.15	39716.55
544.32	39915.50
544.48	40261.90
544.65	40025.50
544.82	39995.07
544.99	39709.53
545.16	40268.92
545.32	39756.34
545.49	39892.09
545.66	40542.76
545.83	40196.36
546.00	40610.64
546.16	40203.38
546.33	39751.66
546.50	40505.31
546.67	40528.72
546.83	39866.34
547.00	40229.13
547.17	40399.99
547.34	40493.61
547.50	40224.45
547.67	40877.46
547.84	40514.67
548.00	40896.18
548.17	40971.08
548.34	40428.07
548.51	40601.27
548.67	40996.82
548.84	40751.07
549.01	41137.26
549.18	40666.81
549.34	41013.21
549.51	41120.87
549.68	40971.08
549.84	40535.74
550.01	41268.33
550.18	40959.38
550.34	40999.16
550.51	41258.96
550.68	41603.02
550.84	40942.99
551.01	41586.64
551.18	40978.10
551.34	41043.63
551.51	41572.60
551.68	41294.07
551.84	40753.41
552.01	41036.61
552.18	41291.73
552.34	41364.29
552.51	41390.03
552.68	41235.56
552.84	41134.92
553.01	41626.43
553.18	41425.14
553.34	41778.56
553.51	41701.32
553.67	41535.15
553.84	41738.77
554.01	41804.31
554.17	41935.38
554.34	42347.31
554.51	41706.01
554.67	42410.51
554.84	42075.81
555.00	42110.92
555.17	41907.29
555.33	41869.84
555.50	42373.06
555.67	42234.97
555.83	41762.18
556.00	42146.03
556.16	42763.93
556.33	42344.97
556.50	42230.29
556.66	41991.55
556.83	42333.27
556.99	42380.08
557.16	42756.91
557.32	42382.42
557.49	42927.77
557.65	42316.89
557.82	42513.49
557.98	42679.67
558.15	42883.30
558.32	42808.40
558.48	42759.25
558.65	42466.68
558.81	42738.18
558.98	42543.92
559.14	42405.83
559.31	42904.36
559.47	42422.21
559.64	43075.22
559.80	42958.19
559.97	43262.46
560.13	42904.36
560.30	42705.41
560.46	42925.42
560.63	43093.94
560.79	42895.00
560.96	43145.44
561.12	43171.18
561.29	43271.82
561.45	43466.09
561.61	43112.67
561.78	42892.66
561.94	43028.41
562.11	43016.71
562.27	42742.86
562.44	43033.09
562.60	43360.76
562.77	43700.14
562.93	42995.64
563.10	43283.53
563.26	43587.80
563.42	43482.47
563.59	42981.60
563.75	43428.64
563.92	43248.42
564.08	43442.68
564.24	43702.48
564.41	43557.37
564.57	43405.23
564.74	43505.88
564.90	43236.72
565.07	43246.08
565.23	43147.78
565.39	43690.78
565.56	43871.00
565.72	43407.58
565.88	44027.82
566.05	43564.39
566.21	43573.75
566.38	43210.97
566.54	43901.43
566.70	43882.70
566.87	43428.64
567.03	43606.52
567.19	43559.71
567.36	43620.56
567.52	43639.29
567.68	43981.01
567.85	44168.25
568.01	44069.95
568.17	43606.52
568.34	44072.29
568.50	43941.22
568.66	43648.65
568.83	43796.10
568.99	43496.52
569.15	43679.08
569.32	43477.79
569.48	43868.66
569.64	44140.16
569.81	43796.10
569.97	44048.88
570.13	44502.95
570.30	43962.28
570.46	44088.67
570.62	44294.64
570.78	43903.77
570.95	44224.42
571.11	44182.29
571.27	44041.86
571.43	43955.26
571.60	44091.01
571.76	44254.85
571.92	44257.19
572.09	43849.94
572.25	43779.72
572.41	43978.67
572.57	44486.56
572.74	44292.30
572.90	44381.24
573.06	44130.80
573.22	44545.08
573.38	44952.33
573.55	44584.86
573.71	44839.98
573.87	44048.88
574.03	44540.39
574.20	44449.11
574.36	44563.80
574.52	44177.61
574.68	44561.46
574.84	44254.85
575.01	44388.26
575.17	44701.89
575.33	44421.03
575.49	44306.34
575.65	44524.01
575.82	44442.09
575.98	44315.70
576.14	44582.52
576.30	44570.82
576.46	44966.37
576.62	44147.18
576.79	44486.56
576.95	44105.06
577.11	43899.09
577.27	44598.91
577.43	44423.37
577.59	44343.79
577.75	44542.74
577.92	44144.84
578.08	44046.54
578.24	44568.48
578.40	45165.32
578.56	44381.24
578.72	44128.46
578.88	44322.72
579.04	44437.41
579.21	44238.47
579.37	44439.75
579.53	44561.46
579.69	44327.41
579.85	44364.85
580.01	44713.59
580.17	44463.16
580.33	44397.62
580.49	44245.49
580.65	44797.85
580.82	44989.78
580.98	44163.57
581.14	44463.16
581.30	44664.44
581.46	44191.65
581.62	44353.15
581.78	44414.01
581.94	44615.29
582.10	44545.08
582.26	44882.11
582.42	44671.46
582.58	44603.59
582.74	44989.78
582.90	44961.69
583.06	44765.09
583.22	44816.58
583.38	44751.04
583.54	45280.00
583.70	44823.60
583.86	45375.97
584.02	44552.10
584.18	45001.48
584.34	45043.61
584.50	45457.88
584.66	44786.15
584.82	44919.56
584.98	44861.05
585.14	45153.62
585.30	44636.36
585.46	44917.22
585.62	44563.80
585.78	44954.67
585.94	44648.06
586.10	44783.81
586.26	44914.88
586.42	44870.41
586.58	44774.45
586.74	44680.83
586.90	44954.67
587.06	44524.01
587.22	44795.51
587.38	44964.03
587.54	45095.10
587.70	45095.10
587.86	44758.06
588.02	44687.85
588.18	44942.97
588.34	44921.90
588.49	45146.59
588.65	44460.82
588.81	44811.90
588.97	44835.30
589.13	45043.61
589.29	45069.36
589.45	45158.30
589.61	45010.84
589.77	45317.45
589.93	45003.82
590.08	45221.49
