SpectraSuite Data File
++++++++++++++++++++++++++++++++++++
Date: Fri Oct 25 10:47:23 EDT 2013
User: price-jones
Dark Spectrum Present: No
Reference Spectrum Present: No
Number of Sampled Component Spectra: 1
Spectrometers: USB2+H05261
Integration Time (usec): 100000 (USB2+H05261)
Spectra Averaged: 1 (USB2+H05261)
Boxcar Smoothing: 0 (USB2+H05261)
Correct for Electrical Dark: No (USB2+H05261)
Strobe/Lamp Enabled: No (USB2+H05261)
Correct for Detector Non-linearity: No (USB2+H05261)
Correct for Stray Light: No (USB2+H05261)
Number of Pixels in Processed Spectrum: 2048
>>>>>Begin Processed Spectral Data<<<<<
365.73	133.41
365.92	133.41
366.12	133.41
366.32	21.06
366.52	81.92
366.72	56.17
366.91	0.00
367.11	11.70
367.31	81.92
367.51	102.98
367.70	16.38
367.90	32.77
368.10	0.00
368.30	39.79
368.49	0.00
368.69	65.54
368.89	46.81
369.09	21.06
369.28	102.98
369.48	4.68
369.68	119.37
369.87	63.19
370.07	93.62
370.27	100.64
370.47	182.56
370.66	337.04
370.86	437.68
371.06	421.30
371.25	470.45
371.45	388.53
371.65	468.11
371.84	468.11
372.04	433.00
372.24	458.74
372.44	479.81
372.63	498.53
372.83	505.56
373.03	510.24
373.22	484.49
373.42	624.92
373.62	482.15
373.81	552.37
374.01	631.94
374.21	599.18
374.40	510.24
374.60	552.37
374.79	524.28
374.99	559.39
375.19	589.82
375.38	571.09
375.58	573.43
375.78	648.33
375.97	571.09
376.17	660.03
376.37	585.13
376.56	550.03
376.76	564.07
376.95	578.11
377.15	645.99
377.35	566.41
377.54	641.31
377.74	554.71
377.93	641.31
378.13	648.33
378.33	578.11
378.52	615.56
378.72	704.50
378.91	692.80
379.11	594.50
379.31	573.43
379.50	664.71
379.70	601.52
379.89	690.46
380.09	624.92
380.28	688.12
380.48	685.78
380.68	582.79
380.87	674.07
381.07	711.52
381.26	727.91
381.46	608.54
381.65	697.48
381.85	641.31
382.04	657.69
382.24	709.18
382.43	683.44
382.63	638.97
382.83	683.44
383.02	716.20
383.22	606.20
383.41	732.59
383.61	779.40
383.80	697.48
384.00	816.85
384.19	669.39
384.39	767.70
384.58	744.29
384.78	720.88
384.97	760.67
385.17	774.72
385.36	741.95
385.56	770.04
385.75	727.91
385.95	702.16
386.14	772.38
386.34	814.51
386.53	753.65
386.72	840.25
386.92	767.70
387.11	842.59
387.31	868.34
387.50	774.72
387.70	777.06
387.89	912.81
388.09	826.21
388.28	858.98
388.48	844.93
388.67	903.45
388.86	851.96
389.06	903.45
389.25	854.30
389.45	833.23
389.64	901.11
389.84	894.08
390.03	950.26
390.22	898.77
390.42	908.13
390.61	903.45
390.81	826.21
391.00	931.53
391.19	994.73
391.39	908.13
391.58	1004.09
391.78	976.00
391.97	976.00
392.16	894.08
392.36	997.07
392.55	905.79
392.75	919.83
392.94	908.13
393.13	903.45
393.33	908.13
393.52	968.98
393.71	1029.84
393.91	1027.50
394.10	1069.62
394.29	1057.92
394.49	1114.10
394.68	1034.52
394.88	1144.52
395.07	1046.22
395.26	1102.39
395.46	1107.07
395.65	1118.78
395.84	1203.04
396.04	1193.67
396.23	1188.99
396.42	1165.59
396.62	1132.82
396.81	1191.33
397.00	1149.20
397.19	1184.31
397.39	1263.89
397.58	1313.04
397.77	1238.14
397.97	1282.61
398.16	1226.44
398.35	1301.34
398.55	1362.19
398.74	1331.76
398.93	1348.15
399.12	1387.94
399.32	1322.40
399.51	1430.07
399.70	1383.26
399.90	1277.93
400.09	1416.02
400.28	1413.68
400.47	1334.11
400.67	1460.49
400.86	1467.52
401.05	1479.22
401.24	1511.99
401.44	1549.43
401.63	1392.62
401.82	1500.28
402.01	1481.56
402.21	1544.75
402.40	1549.43
402.59	1530.71
402.78	1610.29
402.97	1626.67
403.17	1591.56
403.36	1629.01
403.55	1603.27
403.74	1732.00
403.93	1769.44
404.13	1722.63
404.32	1598.59
404.51	1612.63
404.70	1785.83
404.89	1624.33
405.09	1734.34
405.28	1732.00
405.47	1827.96
405.66	1710.93
405.85	1804.55
406.05	1771.79
406.24	1781.15
406.43	1781.15
406.62	1872.43
406.81	1797.53
407.00	1895.83
407.20	1778.81
407.39	1834.98
407.58	1987.11
407.77	1898.17
407.96	1879.45
408.15	1970.73
408.34	2043.29
408.54	2078.40
408.73	1991.80
408.92	2038.61
409.11	2022.22
409.30	2040.95
409.49	2033.93
409.68	2047.97
409.87	2059.67
410.07	2038.61
410.26	2197.76
410.45	2167.34
410.64	2120.53
410.83	2225.85
411.02	2246.91
411.21	2335.85
411.40	2324.15
411.59	2406.07
411.78	2340.54
411.98	2172.02
412.17	2380.32
412.36	2314.79
412.55	2478.63
412.74	2420.11
412.93	2466.92
413.12	2537.14
413.31	2490.33
413.50	2459.90
413.69	2565.23
413.88	2586.29
414.07	2539.48
414.26	2600.34
414.45	2621.40
414.64	2602.68
414.83	2614.38
415.02	2698.64
415.22	2815.66
415.41	2715.02
415.60	2775.88
415.79	2796.94
415.98	2850.77
416.17	2944.39
416.36	2979.50
416.55	2841.41
416.74	2911.63
416.93	2949.08
417.12	2984.18
417.31	3066.10
417.50	3045.04
417.69	3157.38
417.88	3180.79
418.07	3103.55
418.26	3166.74
418.45	3105.89
418.64	3225.26
418.83	3101.21
419.02	3295.47
419.21	3201.85
419.39	3164.40
419.58	3302.50
419.77	3229.94
419.96	3272.07
420.15	3454.63
420.34	3377.39
420.53	3279.09
420.72	3485.06
420.91	3391.44
421.10	3524.85
421.29	3595.06
421.48	3541.23
421.67	3489.74
421.86	3370.37
422.05	3442.93
422.24	3529.53
422.43	3506.12
422.61	3475.70
422.80	3625.49
422.99	3501.44
423.18	3548.25
423.37	3644.21
423.56	3620.81
423.75	3653.58
423.94	3419.52
424.13	3405.48
424.32	3431.23
424.50	3466.33
424.69	3651.24
424.88	3517.83
425.07	3492.08
425.26	3496.76
425.45	3515.48
425.64	3571.66
425.83	3646.55
426.01	3658.26
426.20	3623.15
426.39	3646.55
426.58	3550.59
426.77	3705.07
426.96	3658.26
427.15	3651.24
427.33	3775.28
427.52	3665.28
427.71	3674.64
427.90	3655.92
428.09	3761.24
428.28	3808.05
428.46	3620.81
428.65	3819.75
428.84	3887.63
429.03	3810.39
429.22	3754.22
429.40	3775.28
429.59	3733.15
429.78	3716.77
429.97	3616.13
430.16	3786.99
430.34	3770.60
430.53	3899.33
430.72	3873.59
430.91	3920.40
431.10	4002.32
431.28	3960.19
431.47	4138.07
431.66	4166.15
431.85	4147.43
432.03	4231.69
432.22	4327.65
432.41	4306.59
432.60	4191.90
432.79	4287.86
432.97	4170.83
433.16	4229.35
433.35	4212.96
433.54	4224.67
433.72	4355.74
433.91	4215.30
434.10	4500.85
434.28	4430.63
434.47	4386.16
434.66	4472.76
434.85	4449.36
435.03	4531.28
435.22	4521.92
435.41	4510.21
435.59	4730.22
435.78	4636.60
435.97	4629.58
436.16	4542.98
436.34	4601.49
436.53	4587.45
436.72	4706.82
436.90	4603.83
437.09	4692.77
437.28	4608.51
437.46	4748.95
437.65	4807.46
437.84	4652.98
438.02	4561.70
438.21	4734.90
438.40	4699.80
438.58	4851.93
438.77	4880.02
438.96	4905.76
439.14	5078.96
439.33	5247.48
439.52	5064.92
439.70	5177.26
439.89	5205.35
440.08	5181.95
440.26	5217.05
440.45	5212.37
440.63	5252.16
440.82	5366.85
441.01	5296.63
441.19	5462.81
441.38	5451.11
441.57	5472.17
441.75	5544.73
441.94	5652.39
442.12	5619.63
442.31	5694.52
442.50	5701.54
442.68	5781.12
442.87	5825.59
443.05	5788.14
443.24	5944.96
443.43	5685.16
443.61	5921.56
443.80	5926.24
443.98	5731.97
444.17	5694.52
444.35	5863.04
444.54	5959.00
444.73	5753.04
444.91	5863.04
445.10	5891.13
445.28	5902.83
445.47	5851.34
445.65	5753.04
445.84	5949.64
446.02	5982.41
446.21	5956.66
446.39	5928.58
446.58	5977.73
446.77	6047.94
446.95	5863.04
447.14	6162.63
447.32	6209.44
447.51	6104.12
447.69	5942.62
447.88	6040.92
448.06	6083.05
448.25	6050.28
448.43	6019.86
448.62	6040.92
448.80	6090.07
448.99	6108.80
449.17	6169.65
449.36	6092.41
449.54	6216.46
449.73	6370.94
449.91	6331.15
450.10	6312.42
450.28	6408.39
450.46	6225.82
450.65	6537.12
450.83	6455.20
451.02	6499.67
451.20	6712.66
451.39	6502.01
451.57	6296.04
451.76	6633.08
451.94	6541.80
452.13	6888.20
452.31	6586.27
452.49	6555.84
452.68	6558.18
452.86	6459.88
453.05	6722.02
453.23	6569.88
453.42	6616.69
453.60	6544.14
453.78	6726.70
453.97	6583.93
454.15	6567.54
454.34	6712.66
454.52	6916.28
454.70	6913.94
454.89	6832.02
455.07	6876.49
455.26	6736.06
455.44	6897.56
455.62	6953.73
455.81	6925.65
455.99	6958.41
456.17	7028.63
456.36	7211.19
456.54	7012.24
456.73	7276.73
456.91	7356.30
457.09	7321.20
457.28	7398.43
457.46	7211.19
457.64	7396.09
457.83	7466.31
458.01	7234.60
458.19	7372.69
458.38	7332.90
458.56	7543.55
458.74	7620.78
458.93	7407.80
459.11	7761.22
459.29	7545.89
459.48	7646.53
459.66	7686.32
459.84	7822.07
460.03	7772.92
460.21	7749.51
460.39	7786.96
460.57	7751.85
460.76	7779.94
460.94	7932.08
461.12	7726.11
461.31	7833.77
461.49	7847.82
461.67	7714.41
461.85	8159.11
462.04	7882.92
462.22	8351.03
462.40	8081.87
462.59	8116.98
462.77	8016.33
462.95	8067.83
463.13	8124.00
463.32	8313.58
463.50	8168.47
463.68	8023.36
463.86	8168.47
464.05	8170.81
464.23	8124.00
464.41	8257.41
464.59	8081.87
464.78	8542.96
464.96	8519.55
465.14	8372.10
465.32	8439.97
465.50	8381.46
465.69	8470.40
465.87	8266.77
466.05	8341.67
466.23	8283.16
466.41	8404.86
466.60	8521.89
466.78	8353.37
466.96	8379.12
467.14	8505.51
467.32	8526.57
467.51	8690.41
467.69	8479.76
467.87	8475.08
468.05	8610.83
468.23	8734.88
468.41	8528.91
468.60	8678.71
468.78	8662.32
468.96	8629.56
469.14	9006.38
469.32	9088.30
469.50	8678.71
469.69	8819.14
469.87	9057.87
470.05	8915.10
470.23	8798.07
470.41	8882.33
470.59	9130.43
470.77	9081.28
470.95	9149.15
471.14	9420.66
471.32	9195.96
471.50	9434.70
471.68	9376.19
471.86	9399.59
472.04	9518.96
472.22	9591.52
472.40	9397.25
472.58	9495.55
472.77	9671.09
472.95	9551.73
473.13	9961.32
473.31	9544.70
473.49	9603.22
473.67	9769.40
473.85	9717.90
474.03	9820.89
474.21	9790.46
474.39	10171.97
474.57	10178.99
474.75	10141.54
474.93	10260.91
475.12	10176.65
475.30	10289.00
475.48	10267.93
475.66	10305.38
475.84	10270.27
476.02	10391.98
476.20	10562.84
476.38	10714.97
476.56	10904.56
476.74	11000.52
476.92	10853.06
477.10	10843.70
477.28	11021.58
477.46	11220.53
477.64	11122.23
477.82	11438.20
478.00	11590.33
478.18	11288.40
478.36	11658.21
478.54	11763.53
478.72	11770.55
478.90	11819.71
479.08	11770.55
479.26	12161.42
479.44	11885.24
479.62	12109.93
479.80	12201.21
479.98	12299.52
480.16	12519.53
480.34	12615.49
480.52	12367.39
480.70	12699.75
480.88	12486.76
481.06	12692.73
481.24	12952.52
481.41	13308.29
481.59	13184.24
481.77	12950.18
481.95	13411.27
482.13	13338.71
482.31	13540.00
482.49	13790.44
482.67	13741.29
482.85	13589.15
483.03	13865.33
483.21	13937.89
483.39	14047.90
483.57	14335.78
483.74	14136.84
483.92	14551.11
484.10	14537.07
484.28	14560.47
484.46	14707.93
484.64	15009.86
484.82	14480.89
485.00	14979.43
485.18	15290.72
485.35	15169.01
485.53	14862.40
485.71	14967.73
485.89	15089.43
486.07	15367.96
486.25	15286.04
486.43	15782.23
486.61	15859.47
486.78	16114.59
486.96	16175.44
487.14	16458.65
487.32	16463.33
487.50	16510.14
487.68	16772.28
487.85	16706.74
488.03	17078.89
488.21	17219.32
488.39	17132.72
488.57	17308.26
488.75	17270.81
488.92	17958.93
489.10	17862.97
489.28	17933.18
489.46	17954.25
489.64	17916.80
489.81	18651.73
489.99	18668.11
490.17	18888.12
490.35	18850.67
490.53	18661.09
490.70	18726.63
490.88	19033.24
491.06	19154.94
491.24	19372.61
491.41	18923.23
491.59	19058.98
491.77	19278.99
491.95	19386.66
492.13	19601.99
492.30	19910.94
492.48	20170.74
492.66	19990.52
492.84	20538.20
493.01	20496.07
493.19	20383.73
493.37	20596.71
493.54	20678.63
493.72	20634.16
493.90	21050.78
494.08	21013.33
494.25	21345.69
494.43	21378.45
494.61	21722.51
494.79	21708.47
494.96	21645.27
495.14	21940.18
495.32	22031.46
495.49	22005.72
495.67	22373.18
495.85	22478.50
496.02	22391.91
496.20	22740.64
496.38	22476.16
496.55	22609.58
496.73	22995.76
496.91	22876.40
497.09	23185.35
497.26	23295.35
497.44	23075.34
497.62	23491.96
497.79	23632.39
497.97	23407.70
498.14	23908.57
498.32	23632.39
498.50	23885.17
498.67	23798.57
498.85	24046.66
499.03	24346.25
499.20	24758.19
499.38	24540.52
499.56	24451.58
499.73	24587.33
499.91	24577.97
500.08	24950.11
500.26	24589.67
500.44	25078.84
500.61	24851.81
500.79	24776.91
500.97	25015.65
501.14	25322.26
501.32	25383.11
501.49	25521.20
501.67	25757.60
501.84	25769.30
502.02	25596.10
502.20	25827.81
502.37	25666.31
502.55	25507.16
502.72	26314.64
502.90	26277.19
503.07	25919.09
503.25	26087.61
503.43	26221.02
503.60	26221.02
503.78	26368.48
503.95	26417.63
504.13	26677.43
504.30	26497.20
504.48	26649.34
504.65	26757.00
504.83	27161.92
505.01	27637.05
505.18	27178.30
505.36	27456.82
505.53	27297.67
505.71	27494.27
505.88	27461.51
506.06	27669.81
506.23	27681.52
506.41	27510.66
506.58	27765.78
506.76	27843.01
506.93	28034.94
507.11	28290.06
507.28	27847.69
507.46	28177.71
507.63	28187.07
507.81	28547.51
507.98	28299.42
508.16	28350.91
508.33	28460.91
508.50	28807.31
508.68	28830.72
508.85	28947.75
509.03	28919.66
509.20	29214.57
509.38	29340.96
509.55	29446.28
509.73	29443.94
509.90	29436.92
510.08	29078.82
510.25	29142.01
510.42	29537.56
510.60	29567.99
510.77	29544.58
510.95	30108.65
511.12	29860.55
511.30	30064.18
511.47	30246.74
511.64	29963.54
511.82	30487.82
511.99	30515.90
512.17	30286.53
512.34	30160.14
512.51	30508.88
512.69	30359.09
512.86	31009.76
513.04	31047.21
513.21	30611.87
513.38	30539.31
513.56	30988.69
513.73	30705.49
513.90	31360.84
514.08	30850.60
514.25	31157.21
514.43	31356.16
514.60	31309.35
514.77	31592.55
514.95	31580.85
515.12	31402.97
515.29	31484.89
515.47	31772.77
515.64	31873.42
515.81	31936.61
515.99	31824.26
516.16	32027.89
516.33	31608.93
516.51	31927.25
516.68	31737.66
516.85	31798.52
517.03	31983.42
517.20	32294.71
517.37	32229.18
517.54	32435.14
517.72	32643.45
517.89	32161.30
518.06	32348.54
518.24	32275.99
518.41	32470.25
518.58	32519.40
518.75	32851.76
518.93	32926.66
519.10	32966.45
519.27	33062.41
519.45	33406.47
519.62	33364.34
519.79	33572.64
519.96	33064.75
520.14	33422.85
520.31	33380.72
520.48	33570.30
520.65	33553.92
520.83	33579.67
521.00	33886.28
521.17	34052.45
521.34	33926.07
521.52	34087.56
521.69	34047.77
521.86	34560.35
522.03	34171.82
522.20	34326.30
522.38	34288.85
522.55	34579.07
522.72	34398.85
522.89	34625.89
523.07	34225.65
523.24	34700.78
523.41	34822.49
523.58	34686.74
523.75	35402.94
523.92	34686.74
524.10	35276.55
524.27	35271.87
524.44	35700.19
524.61	35187.61
524.78	35136.12
524.96	35524.65
525.13	35433.37
525.30	35737.64
525.47	35892.12
525.64	35849.99
525.81	35557.42
525.98	35718.92
526.16	35550.40
526.33	35601.89
526.50	35969.35
526.67	35835.94
526.84	35454.44
527.01	35552.74
527.18	36002.12
527.36	36051.27
527.53	36346.18
527.70	36381.29
527.87	36563.85
528.04	36025.53
528.21	37071.75
528.38	36528.74
528.55	36790.88
528.72	36650.45
528.89	36863.44
529.07	36940.68
529.24	36877.48
529.41	36802.58
529.58	36910.25
529.75	36673.85
529.92	36680.88
530.09	37345.59
530.26	37214.52
530.43	36891.52
530.60	36779.18
530.77	37301.12
530.94	37376.01
531.11	37352.61
531.28	37198.13
531.46	37305.80
531.63	37406.44
531.80	37345.59
531.97	37408.78
532.14	37530.49
532.31	37312.82
532.48	37432.19
532.65	38218.61
532.82	37790.29
532.99	37738.80
533.16	37748.16
533.33	37839.44
533.50	37933.06
533.67	38300.53
533.84	38242.01
534.01	38274.78
534.18	38190.52
534.35	38401.17
534.52	37790.29
534.69	38422.23
534.86	38050.09
535.03	38429.26
535.20	38471.39
535.37	38857.57
535.54	38829.49
535.71	38288.82
535.88	38761.61
536.05	38667.99
536.22	38911.41
536.38	38836.51
536.55	38857.57
536.72	38892.68
536.89	38721.82
537.06	38850.55
537.23	39082.27
537.40	39372.49
537.57	39112.69
537.74	39524.63
537.91	39161.84
538.08	39105.67
538.25	38918.43
538.42	39548.03
538.59	39311.64
538.75	39491.86
538.92	39636.97
539.09	39744.64
539.26	39482.50
539.43	39440.37
539.60	39667.40
539.77	39185.25
539.94	39393.56
540.11	39587.82
540.28	39749.32
540.44	39627.61
540.61	39798.47
540.78	39210.99
540.95	39695.49
541.12	39754.00
541.29	39529.31
541.46	40336.79
541.62	39672.08
541.79	39791.45
541.96	39805.49
542.13	39552.71
542.30	40184.66
542.47	40449.14
542.63	40435.10
542.80	40708.94
542.97	40612.98
543.14	40533.40
543.31	40776.81
543.48	40685.53
543.64	41249.60
543.81	40935.97
543.98	40966.40
544.15	40797.88
544.32	41003.85
544.48	40973.42
544.65	41013.21
544.82	41132.57
544.99	40865.75
545.16	40832.99
545.32	41106.83
545.49	41235.56
545.66	41621.75
545.83	41200.45
546.00	41603.02
546.16	40928.95
546.33	41174.70
546.50	40641.06
546.67	41556.21
546.83	41048.32
547.00	41462.59
547.17	40938.31
547.34	41125.55
547.50	41607.70
547.67	41944.74
547.84	41165.34
548.00	41603.02
548.17	41645.15
548.34	41270.67
548.51	41851.12
548.67	41904.95
548.84	41982.19
549.01	41942.40
549.18	41663.88
549.34	42328.59
549.51	42241.99
549.68	42384.76
549.84	42368.38
550.01	42349.65
550.18	41909.63
550.34	42478.38
550.51	41876.86
550.68	41944.74
550.84	41860.48
551.01	42431.57
551.18	42164.75
551.34	42071.13
551.51	42525.19
551.68	42506.47
551.84	42693.71
552.01	42213.90
552.18	42726.48
552.34	42218.58
552.51	42932.45
552.68	42967.55
552.84	42801.38
553.01	43019.05
553.18	42784.99
553.34	42871.59
553.51	42429.23
553.67	42700.73
553.84	42710.10
554.01	43035.43
554.17	43278.85
554.34	43037.77
554.51	42932.45
554.67	43138.41
554.84	43107.99
555.00	42944.15
555.17	42560.30
555.33	43075.22
555.50	42761.59
555.67	43117.35
555.83	43271.82
556.00	43468.43
556.16	44133.14
556.33	42988.62
556.50	43318.64
556.66	43225.01
556.83	43306.93
556.99	43433.32
557.16	43831.21
557.32	43484.81
557.49	43587.80
557.65	43061.18
557.82	43178.20
557.98	43468.43
558.15	43278.85
558.32	43526.94
558.48	43428.64
558.65	43725.89
558.81	43246.08
558.98	43374.81
559.14	43519.92
559.31	43585.46
559.47	43475.45
559.64	43938.88
559.80	43728.23
559.97	43646.31
560.13	43693.12
560.30	43695.46
560.46	43430.98
560.63	43880.36
560.79	43826.53
560.96	43749.29
561.12	43707.16
561.29	43863.98
561.45	43639.29
561.61	44044.20
561.78	43910.79
561.94	43655.67
562.11	43803.13
562.27	43824.19
562.44	43910.79
562.60	44442.09
562.77	44498.26
562.93	43957.60
563.10	44156.55
563.26	43732.91
563.42	44151.87
563.59	44219.74
563.75	43985.69
563.92	44278.25
564.08	44006.75
564.24	44179.95
564.41	44500.61
564.57	43957.60
564.74	44245.49
564.90	44208.04
565.07	44247.83
565.23	44006.75
565.39	43922.49
565.56	44439.75
565.72	43945.90
565.88	44245.49
566.05	44402.30
566.21	44308.68
566.38	44268.89
566.54	44091.01
566.70	44313.36
566.87	44362.51
567.03	44243.15
567.19	44875.09
567.36	44617.63
567.52	43938.88
567.68	44177.61
567.85	44554.44
568.01	44383.58
568.17	44392.94
568.34	44444.43
568.50	44186.97
568.66	44552.10
568.83	44250.17
568.99	44027.82
569.15	44554.44
569.32	44460.82
569.48	44208.04
569.64	44802.53
569.81	44882.11
569.97	44224.42
570.13	44849.35
570.30	44289.96
570.46	44030.16
570.62	43744.61
570.78	44046.54
570.95	44432.73
571.11	44673.81
571.27	44641.04
571.43	44491.24
571.60	44568.48
571.76	44605.93
571.92	44243.15
572.09	44676.15
572.25	44367.20
572.41	44762.75
572.57	44839.98
572.74	44989.78
572.90	44907.86
573.06	44907.86
573.22	44835.30
573.38	44348.47
573.55	44423.37
573.71	44854.03
573.87	44645.72
574.03	44662.10
574.20	44615.29
574.36	44294.64
574.52	44765.09
574.68	44683.17
574.84	44524.01
575.01	44526.35
575.17	44594.23
575.33	44556.78
575.49	44790.83
575.65	44975.73
575.82	45130.21
575.98	44980.42
576.14	45048.29
576.30	44694.87
576.46	44678.49
576.62	44479.54
576.79	44715.93
576.95	44486.56
577.11	44811.90
577.27	45017.86
577.43	45404.05
577.59	44818.92
577.75	44973.39
577.92	44271.23
578.08	44343.79
578.24	44540.39
578.40	44797.85
578.56	44519.33
578.72	44659.76
578.88	44573.16
579.04	44737.00
579.21	44643.38
579.37	44708.91
579.53	44406.98
579.69	44493.58
579.85	44935.95
580.01	44968.71
580.17	44863.39
580.33	44790.83
580.49	44898.50
580.65	44900.84
580.82	45139.57
580.98	45034.25
581.14	44507.63
581.30	44978.07
581.46	45214.47
581.62	44615.29
581.78	44935.95
581.94	45237.87
582.10	45158.30
582.26	45137.23
582.42	44704.23
582.58	45170.00
582.74	44507.63
582.90	44814.24
583.06	45148.93
583.22	44914.88
583.38	45223.83
583.54	44900.84
583.70	44776.79
583.86	44594.23
584.02	44287.62
584.18	45013.18
584.34	44818.92
584.50	45048.29
584.66	44856.37
584.82	44957.01
584.98	45186.38
585.14	44538.05
585.30	44711.25
585.46	44683.17
585.62	44622.31
585.78	44938.29
585.94	44395.28
586.10	44776.79
586.26	45104.46
586.42	44748.70
586.58	45223.83
586.74	44875.09
586.90	44727.64
587.06	44779.13
587.22	45303.41
587.38	44598.91
587.54	44928.92
587.70	45382.99
587.86	45247.24
588.02	45340.86
588.18	45141.91
588.34	44905.52
588.49	44514.65
588.65	44584.86
588.81	44907.86
588.97	44870.41
589.13	44563.80
589.29	44863.39
589.45	45069.36
589.61	44910.20
589.77	45085.74
589.93	45083.40
590.08	45418.10
590.24	44903.18
