SpectraSuite Data File
++++++++++++++++++++++++++++++++++++
Date: Fri Oct 25 11:25:03 EDT 2013
User: price-jones
Dark Spectrum Present: No
Reference Spectrum Present: No
Number of Sampled Component Spectra: 1
Spectrometers: USB2+H05261
Integration Time (usec): 100000 (USB2+H05261)
Spectra Averaged: 1 (USB2+H05261)
Boxcar Smoothing: 0 (USB2+H05261)
Correct for Electrical Dark: No (USB2+H05261)
Strobe/Lamp Enabled: No (USB2+H05261)
Correct for Detector Non-linearity: No (USB2+H05261)
Correct for Stray Light: No (USB2+H05261)
Number of Pixels in Processed Spectrum: 2048
>>>>>Begin Processed Spectral Data<<<<<
365.73	210.65
365.92	210.65
366.12	210.65
366.32	147.45
366.52	156.82
366.72	100.64
366.91	145.11
367.11	84.26
367.31	145.11
367.51	91.28
367.70	177.88
367.90	126.39
368.10	117.03
368.30	154.48
368.49	140.43
368.69	168.52
368.89	131.07
369.09	163.84
369.28	168.52
369.48	170.86
369.68	166.18
369.87	220.01
370.07	173.20
370.27	203.63
370.47	283.20
370.66	498.53
370.86	643.65
371.06	683.44
371.25	772.38
371.45	634.29
371.65	723.23
371.84	690.46
372.04	699.82
372.24	732.59
372.44	678.76
372.63	744.29
372.83	732.59
373.03	791.10
373.22	819.19
373.42	755.99
373.62	760.67
373.81	823.87
374.01	819.19
374.21	748.97
374.40	730.25
374.60	786.42
374.79	849.61
374.99	788.76
375.19	828.55
375.38	760.67
375.58	788.76
375.78	866.00
375.97	903.45
376.17	884.72
376.37	866.00
376.56	830.89
376.76	833.23
376.95	866.00
377.15	866.00
377.35	891.74
377.54	847.27
377.74	894.08
377.93	905.79
378.13	1008.77
378.33	933.87
378.52	919.83
378.72	954.94
378.91	973.66
379.11	1004.09
379.31	1013.45
379.50	926.85
379.70	976.00
379.89	954.94
380.09	959.62
380.28	1032.18
380.48	976.00
380.68	964.30
380.87	1039.20
381.07	1025.15
381.26	1069.62
381.46	980.68
381.65	1039.20
381.85	1018.13
382.04	1055.58
382.24	1139.84
382.43	961.96
382.63	1018.13
382.83	1088.35
383.02	1104.73
383.22	1074.31
383.41	978.34
383.61	1132.82
383.80	1165.59
384.00	1055.58
384.19	1067.28
384.39	1076.65
384.58	1179.63
384.78	1064.94
384.97	1205.38
385.17	1137.50
385.36	1170.27
385.56	1219.42
385.75	1083.67
385.95	1231.12
386.14	1217.08
386.34	1097.71
386.53	1188.99
386.72	1153.88
386.92	1207.72
387.11	1151.54
387.31	1219.42
387.50	1275.59
387.70	1238.14
387.89	1224.10
388.09	1252.19
388.28	1231.12
388.48	1350.49
388.67	1296.66
388.86	1308.36
389.06	1343.47
389.25	1409.00
389.45	1366.87
389.64	1228.78
389.84	1383.26
390.03	1350.49
390.22	1362.19
390.42	1343.47
390.61	1401.98
390.81	1390.28
391.00	1430.07
391.19	1507.30
391.39	1394.96
391.58	1406.66
391.78	1526.03
391.97	1437.09
392.16	1476.88
392.36	1549.43
392.55	1467.52
392.75	1577.52
392.94	1540.07
393.13	1481.56
393.33	1547.09
393.52	1486.24
393.71	1542.41
393.91	1568.16
394.10	1600.93
394.29	1526.03
394.49	1563.48
394.68	1586.88
394.88	1612.63
395.07	1633.69
395.26	1666.46
395.46	1767.10
395.65	1666.46
395.84	1687.53
396.04	1792.85
396.23	1729.66
396.42	1760.08
396.62	1781.15
396.81	1757.74
397.00	1685.19
397.19	1764.76
397.39	1874.77
397.58	1849.02
397.77	1820.94
397.97	1715.61
398.16	1781.15
398.35	1879.45
398.55	1809.23
398.74	1827.96
398.93	1898.17
399.12	1968.39
399.32	1984.77
399.51	1834.98
399.70	1870.09
399.90	1940.30
400.09	1991.80
400.28	2101.80
400.47	1975.41
400.67	2052.65
400.86	1984.77
401.05	2024.56
401.24	2179.04
401.44	2162.66
401.63	2200.10
401.82	2305.43
402.01	2146.27
402.21	2200.10
402.40	2174.36
402.59	2289.04
402.78	2235.21
402.97	2275.00
403.17	2235.21
403.36	2200.10
403.55	2279.68
403.74	2436.50
403.93	2342.88
404.13	2345.22
404.32	2380.32
404.51	2319.47
404.70	2424.80
404.89	2331.17
405.09	2473.95
405.28	2473.95
405.47	2544.16
405.66	2541.82
405.85	2497.35
406.05	2525.44
406.24	2537.14
406.43	2588.63
406.62	2710.34
406.81	2693.96
407.00	2593.31
407.20	2492.67
407.39	2630.76
407.58	2731.41
407.77	2621.40
407.96	2719.70
408.15	2782.90
408.34	2736.09
408.54	2846.09
408.73	2806.30
408.92	2883.54
409.11	2904.60
409.30	2918.65
409.49	2918.65
409.68	2862.48
409.87	2923.33
410.07	3002.91
410.26	3023.97
410.45	2925.67
410.64	3002.91
410.83	3091.85
411.02	3101.21
411.21	3115.25
411.40	3007.59
411.59	3169.09
411.78	3220.58
411.98	3342.28
412.17	3316.54
412.36	3328.24
412.55	3335.26
412.74	3365.69
412.93	3351.65
413.12	3372.71
413.31	3590.38
413.50	3454.63
413.69	3456.97
413.88	3508.46
414.07	3517.83
414.26	3623.15
414.45	3632.51
414.64	3597.40
414.83	3744.86
415.02	3740.18
415.22	3936.78
415.41	3906.35
415.60	3798.69
415.79	3887.63
415.98	3904.01
416.17	3941.46
416.36	4074.87
416.55	3957.85
416.74	4128.70
416.93	4095.94
417.12	4100.62
417.31	4255.09
417.50	4180.20
417.69	4416.59
417.88	4409.57
418.07	4131.05
418.26	4184.88
418.45	4245.73
418.64	4383.82
418.83	4519.57
419.02	4372.12
419.21	4400.21
419.39	4524.26
419.58	4425.95
419.77	4503.19
419.96	4564.04
420.15	4596.81
420.34	4521.92
420.53	4580.43
420.72	4615.54
420.91	4865.97
421.10	4739.58
421.29	4767.67
421.48	4662.35
421.67	4753.63
421.86	4741.93
422.05	4865.97
422.24	4734.90
422.43	4819.16
422.61	4910.44
422.80	4910.44
422.99	4889.38
423.18	4826.18
423.37	5008.75
423.56	4877.68
423.75	4959.60
423.94	4816.82
424.13	4603.83
424.32	4842.57
424.50	5055.56
424.69	5102.37
424.88	5135.14
425.07	4983.00
425.26	4894.06
425.45	4947.89
425.64	4809.80
425.83	4917.47
426.01	4999.38
426.20	4959.60
426.39	5015.77
426.58	5121.09
426.77	4978.32
426.96	5093.01
427.15	5184.29
427.33	5247.48
427.52	5233.44
427.71	5240.46
427.90	5200.67
428.09	5177.26
428.28	5254.50
428.46	5427.70
428.65	5273.23
428.84	5479.19
429.03	5605.58
429.22	5261.52
429.40	5387.91
429.59	5397.28
429.78	5242.80
429.97	5362.17
430.16	5378.55
430.34	5558.77
430.53	5706.23
430.72	5502.60
430.91	5593.88
431.10	5551.75
431.28	5753.04
431.47	5764.74
431.66	5792.83
431.85	5755.38
432.03	5748.36
432.22	6101.78
432.41	6008.16
432.60	5834.96
432.79	5989.43
432.97	5907.51
433.16	6015.18
433.35	5944.96
433.54	6157.95
433.72	6181.35
433.91	6246.89
434.10	6087.73
434.28	6153.27
434.47	6256.25
434.66	6076.03
434.85	6394.34
435.03	6349.87
435.22	6251.57
435.41	6356.90
435.59	6396.68
435.78	6384.98
435.97	6457.54
436.16	6492.65
436.34	6530.09
436.53	6520.73
436.72	6483.28
436.90	6443.49
437.09	6665.85
437.28	6630.74
437.46	6478.60
437.65	6602.65
437.84	6691.59
438.02	6747.76
438.21	6581.59
438.40	6502.01
438.58	6916.28
438.77	7084.80
438.96	6895.22
439.14	7094.16
439.33	7204.17
439.52	7159.70
439.70	7129.27
439.89	7382.05
440.08	7438.22
440.26	7311.83
440.45	7311.83
440.63	7566.95
440.82	7665.25
441.01	7473.33
441.19	7583.34
441.38	7662.91
441.57	7808.03
441.75	7772.92
441.94	7957.82
442.12	7971.86
442.31	8070.17
442.50	7957.82
442.68	7981.23
442.87	8238.69
443.05	8126.34
443.24	8135.70
443.43	8149.75
443.61	8091.23
443.80	8297.20
443.98	8030.38
444.17	7740.15
444.35	7999.95
444.54	8374.44
444.73	8217.62
444.91	8088.89
445.10	8191.88
445.28	8234.00
445.47	8079.53
445.65	8414.23
445.84	8365.07
446.02	8224.64
446.21	8353.37
446.39	8465.72
446.58	8369.76
446.77	8526.57
446.95	8112.30
447.14	8367.42
447.32	8418.91
447.51	8390.82
447.69	8388.48
447.88	8521.89
448.06	8552.32
448.25	8454.02
448.43	8542.96
448.62	8723.18
448.80	8369.76
448.99	8645.94
449.17	8690.41
449.36	8669.34
449.54	8741.90
449.73	8952.55
449.91	8973.61
450.10	9060.21
450.28	8924.46
450.46	8926.80
450.65	8779.35
450.83	8975.95
451.02	8917.44
451.20	9177.24
451.39	9048.51
451.57	9174.90
451.76	8872.97
451.94	9179.58
452.13	9378.53
452.31	9191.28
452.49	9156.18
452.68	9467.47
452.86	9394.91
453.05	9551.73
453.23	9254.48
453.42	9195.96
453.60	9322.35
453.78	9448.74
453.97	9525.98
454.15	9193.62
454.34	9200.65
454.52	9537.68
454.70	9659.39
454.89	9659.39
455.07	9846.63
455.26	9823.23
455.44	9916.85
455.62	9921.53
455.81	9940.26
455.99	10155.58
456.17	10066.64
456.36	9921.53
456.54	10057.28
456.73	10178.99
456.91	10441.13
457.09	10153.24
457.28	10560.50
457.46	10162.61
457.64	10415.38
457.83	10354.53
458.01	10471.56
458.19	10736.04
458.38	10504.32
458.56	10729.02
458.74	10647.10
458.93	10600.29
459.11	10693.91
459.29	10829.66
459.48	10733.70
459.66	10707.95
459.84	10658.80
460.03	10874.13
460.21	11042.65
460.39	10836.68
460.57	11019.24
460.76	11211.17
460.94	11227.55
461.12	11021.58
461.31	11035.63
461.49	11232.23
461.67	11239.25
461.85	11321.17
462.04	11318.83
462.22	11690.98
462.40	11618.42
462.59	11494.37
462.77	11384.37
462.95	11606.72
463.13	11501.39
463.32	11690.98
463.50	11775.24
463.68	11939.07
463.86	11903.96
464.05	11604.38
464.23	11597.35
464.41	11707.36
464.59	11669.91
464.78	12028.01
464.96	11985.88
465.14	11648.85
465.32	12049.08
465.50	12166.10
465.69	12248.02
465.87	12035.03
466.05	11941.41
466.23	12060.78
466.41	12339.30
466.60	12395.48
466.78	12042.06
466.96	11967.16
467.14	12294.83
467.32	12226.96
467.51	12545.27
467.69	11932.05
467.87	12365.05
468.05	12535.91
468.23	12374.41
468.41	12456.33
468.60	12472.71
468.78	12830.82
468.96	12603.78
469.14	12652.94
469.32	12978.27
469.50	12657.62
469.69	12989.97
469.87	12982.95
470.05	13165.51
470.23	13078.91
470.41	13240.41
470.59	13158.49
470.77	13205.30
470.95	13181.90
471.14	13341.05
471.32	13425.31
471.50	13598.51
471.68	13614.90
471.86	13448.72
472.04	13783.41
472.22	13825.54
472.40	13547.02
472.58	14047.90
472.77	13668.73
472.95	14185.99
473.13	14485.58
473.31	14321.74
473.49	14174.28
473.67	14106.41
473.85	14125.13
474.03	14457.49
474.21	14689.20
474.39	14860.06
474.57	14689.20
474.75	14789.85
474.93	14829.63
475.12	14754.74
475.30	15044.96
475.48	14984.11
475.66	15442.85
475.84	15131.56
476.02	15218.16
476.20	15377.32
476.38	15531.80
476.56	15807.98
476.74	15878.19
476.92	16002.24
477.10	15770.53
477.28	16126.29
477.46	16133.31
477.64	16128.63
477.82	16528.86
478.00	17027.40
478.18	16648.23
478.36	17001.65
478.54	17006.33
478.72	16809.73
478.90	17121.02
479.08	17380.82
479.26	17680.41
479.44	17657.00
479.62	17888.71
479.80	17851.27
479.98	18015.10
480.16	18235.11
480.34	17839.56
480.52	18527.68
480.70	18600.24
480.88	18541.72
481.06	18836.63
481.24	18726.63
481.41	19176.01
481.59	19389.00
481.77	19424.11
481.95	19468.58
482.13	19566.88
482.31	19538.79
482.49	20297.13
482.67	20379.04
482.85	20236.27
483.03	20395.43
483.21	20610.76
483.39	20936.09
483.57	20844.81
483.74	21085.89
483.92	21443.99
484.10	21263.77
484.28	21443.99
484.46	22211.68
484.64	22251.47
484.82	21961.25
485.00	22464.46
485.18	22773.41
485.35	22909.16
485.53	22698.52
485.71	23103.43
485.89	23630.05
486.07	23026.19
486.25	23433.44
486.43	23335.14
486.61	23836.02
486.78	24121.56
486.96	24084.11
487.14	24437.53
487.32	24414.13
487.50	24767.55
487.68	24879.89
487.85	25626.53
488.03	25563.33
488.21	25528.22
488.39	25851.22
488.57	25727.17
488.75	26169.53
488.92	26244.43
489.10	26757.00
489.28	26693.81
489.46	26904.46
489.64	27009.78
489.81	27559.81
489.99	27440.44
490.17	27646.41
490.35	27964.72
490.53	28297.08
490.70	28360.27
490.88	28287.71
491.06	28926.68
491.24	28627.09
491.41	28919.66
491.59	29418.19
491.77	29202.86
491.95	29998.65
492.13	29935.45
492.30	29720.12
492.48	29560.97
492.66	30284.19
492.84	30036.09
493.01	30345.05
493.19	30904.43
493.37	31077.63
493.54	31587.87
493.72	31449.78
493.90	31208.70
494.08	31480.21
494.25	31955.33
494.43	32018.53
494.61	32233.86
494.79	32205.77
494.96	32423.44
495.14	32818.99
495.32	32659.84
495.49	33090.49
495.67	32926.66
495.85	33394.76
496.02	33717.76
496.20	34036.07
496.38	34059.48
496.55	34153.10
496.73	35101.01
496.91	33982.24
497.09	35000.37
497.26	35222.72
497.44	34684.40
497.62	35182.93
497.79	35714.23
497.97	35501.25
498.14	36081.70
498.32	36336.82
498.50	36058.29
498.67	36535.76
498.85	36311.07
499.03	36388.31
499.20	36666.83
499.38	36786.20
499.56	36968.76
499.73	37020.25
499.91	37324.52
500.08	37546.87
500.26	37385.38
500.44	37612.41
500.61	37586.66
500.79	37621.77
500.97	38059.45
501.14	38288.82
501.32	38092.22
501.49	38401.17
501.67	38487.77
501.84	38824.81
502.02	38614.16
502.20	38824.81
502.37	39042.48
502.55	39253.12
502.72	39168.87
502.90	39126.74
503.07	39510.58
503.25	39702.51
503.43	39555.05
503.60	39983.37
503.78	39931.88
503.95	40114.44
504.13	40430.41
504.30	40603.61
504.48	40318.07
504.65	40512.33
504.83	40774.47
505.01	40978.10
505.18	41247.26
505.36	41497.70
505.53	40989.80
505.71	41610.04
505.88	42003.25
506.06	41373.65
506.23	41911.97
506.41	41617.07
506.58	42129.64
506.76	41958.78
506.93	42593.07
507.11	41851.12
507.28	42721.80
507.46	42820.10
507.63	42665.63
507.81	43136.07
507.98	42883.30
508.16	43461.41
508.33	43056.50
508.50	43112.67
508.68	43540.99
508.85	43936.54
509.03	43388.85
509.20	43648.65
509.38	44306.34
509.55	44121.44
509.73	44399.96
509.90	44619.97
510.08	44388.26
510.25	44217.40
510.42	45104.46
510.60	44992.12
510.77	45380.65
510.95	45235.53
511.12	44652.74
511.30	45322.13
511.47	45516.40
511.64	45038.93
511.82	45705.98
511.99	45385.33
512.17	45780.88
512.34	45530.44
512.51	46321.54
512.69	46337.93
512.86	46349.63
513.04	46426.87
513.21	46445.59
513.38	46763.90
513.56	46913.70
513.73	46450.27
513.90	46951.15
514.08	47061.15
514.25	47009.66
514.43	47351.38
514.60	47239.03
514.77	47192.22
514.95	47693.10
515.12	47510.53
515.29	46993.28
515.47	47849.91
515.64	47873.32
515.81	47964.60
515.99	47730.54
516.16	48090.99
516.33	48451.43
516.51	48521.65
516.68	47966.94
516.85	48413.98
517.03	48582.50
517.20	48687.82
517.37	48720.59
517.54	48711.23
517.72	48767.40
517.89	48959.33
518.06	48692.50
518.24	48978.05
518.41	49350.20
518.58	49551.48
518.75	49263.60
518.93	49008.48
519.10	49287.00
519.27	49509.35
519.45	49492.97
519.62	49794.90
519.79	49752.77
519.96	49780.85
520.14	49956.39
520.31	49986.82
520.48	50134.28
520.65	50429.18
520.83	50813.03
521.00	50581.32
521.17	50578.98
521.34	50581.32
521.52	50850.48
521.69	50864.52
521.86	50504.08
522.03	50997.93
522.20	51634.56
522.38	51145.39
522.55	51377.10
522.72	50925.38
522.89	50932.40
523.07	51484.76
523.24	51456.68
523.41	51885.00
523.58	51449.66
523.75	51917.76
523.92	51723.50
524.10	51667.33
524.27	51945.85
524.44	51782.01
524.61	51885.00
524.78	51941.17
524.96	52243.10
525.13	51920.10
525.30	52299.27
525.47	52678.44
525.64	52170.54
525.81	52364.81
525.98	52409.28
526.16	52601.20
526.33	52636.31
526.50	52720.57
526.67	52683.12
526.84	52987.39
527.01	52818.87
527.18	52933.56
527.36	53123.14
527.53	52802.49
527.70	53020.16
527.87	53066.97
528.04	53116.12
528.21	53233.14
528.38	53305.70
528.55	53389.96
528.72	53165.27
528.89	53315.06
529.07	53340.81
529.24	53352.51
529.41	53668.48
529.58	53633.38
529.75	53647.42
529.92	53998.50
530.09	53794.87
530.26	53616.99
530.43	53968.07
530.60	53579.54
530.77	53616.99
530.94	53932.96
531.11	53748.06
531.28	53982.12
531.46	54160.00
531.63	54501.71
531.80	53923.60
531.97	54447.88
532.14	54447.88
532.31	54300.43
532.48	54614.06
532.65	54478.31
532.82	54569.59
532.99	54621.08
533.16	54527.46
533.33	54831.73
533.50	54878.54
533.67	54597.68
533.84	54681.94
534.01	54738.11
534.18	54862.16
534.35	55199.19
534.52	55016.63
534.69	55264.73
534.86	55112.59
535.03	55077.49
535.20	55262.39
535.37	55220.26
535.54	55351.33
535.71	55086.85
535.88	55370.05
536.05	55264.73
536.22	55461.33
536.38	55442.61
536.55	55540.91
536.72	55636.87
536.89	55489.42
537.06	55648.58
537.23	55657.94
537.40	55526.87
537.57	55819.44
537.74	55412.18
537.91	55903.70
538.08	55714.11
538.25	55475.38
538.42	55859.23
538.59	56156.47
538.75	55533.89
538.92	55873.27
539.09	56233.71
539.26	55943.48
539.43	56161.15
539.60	56254.78
539.77	56018.38
539.94	56619.90
540.11	56271.16
540.28	56296.91
540.44	56549.68
540.61	56308.61
540.78	56189.24
540.95	56165.84
541.12	56170.52
541.29	56367.12
541.46	56416.27
541.62	56442.02
541.79	56676.07
541.96	56376.48
542.13	56502.87
542.30	56406.91
542.47	56727.56
542.63	56549.68
542.80	56701.82
542.97	56900.76
543.14	57216.74
543.31	57050.56
543.48	57350.15
543.64	57394.62
543.81	57127.80
543.98	57315.04
544.15	57181.63
544.32	57509.30
544.48	57490.58
544.65	57148.86
544.82	57322.06
544.99	57289.29
545.16	57483.56
545.32	57263.55
545.49	57535.05
545.66	57708.25
545.83	57659.10
546.00	57537.39
546.16	57623.99
546.33	57542.07
546.50	57364.19
546.67	57689.52
546.83	57443.77
547.00	57846.34
547.17	57631.01
547.34	57645.05
547.50	57989.11
547.67	58082.73
547.84	58007.84
548.00	58145.93
548.17	58347.21
548.34	57979.75
548.51	58244.23
548.67	58300.40
548.84	57762.08
549.01	57946.98
549.18	58155.29
549.34	58225.51
549.51	58127.20
549.68	58492.33
549.84	58344.87
550.01	58328.49
550.18	58110.82
550.34	58211.46
550.51	58328.49
550.68	58288.70
550.84	58115.50
551.01	58328.49
551.18	58532.12
551.34	58625.74
551.51	58560.20
551.68	58679.57
551.84	58475.94
552.01	58405.73
552.18	58803.62
552.34	58370.62
552.51	58747.45
552.68	58550.84
552.84	58571.91
553.01	58908.94
553.18	58913.62
553.34	58700.64
553.51	58787.24
553.67	58646.80
553.84	59098.53
554.01	58876.18
554.17	58906.60
554.34	59253.00
554.51	58817.66
554.67	58852.77
554.84	59014.27
555.00	59065.76
555.17	59035.33
555.33	59061.08
555.50	58962.78
555.67	58808.30
555.83	58927.67
556.00	59016.61
556.16	59271.73
556.33	58967.46
556.50	58962.78
556.66	59325.56
556.83	58993.20
556.99	59416.84
557.16	59428.54
557.32	59414.50
557.49	59571.32
557.65	59194.49
557.82	59348.96
557.98	59199.17
558.15	59311.52
558.32	59423.86
558.48	59374.71
558.65	59545.57
558.81	59491.74
558.98	59316.20
559.14	59519.82
559.31	59590.04
559.47	59702.38
559.64	59587.70
559.80	59440.24
559.97	59714.09
560.13	59594.72
560.30	59695.36
560.46	59716.43
560.63	59833.46
560.79	59526.84
560.96	59803.03
561.12	59758.56
561.29	59845.16
561.45	59971.55
561.61	59772.60
561.78	59781.96
561.94	59746.86
562.11	59927.08
562.27	59812.39
562.44	59952.82
562.60	59964.52
562.77	59891.97
562.93	59700.04
563.10	59978.57
563.26	59760.90
563.42	60177.51
563.59	60074.53
563.75	60018.36
563.92	59964.52
564.08	59997.29
564.24	60210.28
564.41	59969.21
564.57	60320.29
564.74	60135.38
564.90	60142.41
565.07	59917.71
565.23	60058.15
565.39	60079.21
565.56	60179.85
565.72	60196.24
565.88	60175.17
566.05	60109.64
566.21	60095.60
566.38	60041.76
566.54	60252.41
566.70	60369.44
566.87	60467.74
567.03	59938.78
567.19	60317.95
567.36	60425.61
567.52	60151.77
567.68	60701.79
567.85	60327.31
568.01	60224.32
568.17	60193.90
568.34	60268.79
568.50	60207.94
568.66	60334.33
568.83	60404.55
568.99	60404.55
569.15	60116.66
569.32	60463.06
569.48	60233.69
569.64	60320.29
569.81	60282.84
569.97	60324.97
570.13	60390.50
570.30	60357.74
570.46	60491.15
570.62	60395.18
570.78	60409.23
570.95	60289.86
571.11	60486.46
571.27	60357.74
571.43	60477.10
571.60	60404.55
571.76	60561.36
571.92	60390.50
572.09	60680.73
572.25	60491.15
572.41	60385.82
572.57	60498.17
572.74	60659.66
572.90	60418.59
573.06	60512.21
573.22	60659.66
573.38	60652.64
573.55	60376.46
573.71	60879.67
573.87	60500.51
574.03	60495.83
574.20	60671.37
574.36	60587.11
574.52	60790.73
574.68	60795.42
574.84	60762.65
575.01	60736.90
575.17	60659.66
575.33	60652.64
575.49	60566.04
575.65	60472.42
575.82	60783.71
575.98	60886.70
576.14	60779.03
576.30	60743.92
576.46	60809.46
576.62	60659.66
576.79	60750.94
576.95	60650.30
577.11	60523.91
577.27	60879.67
577.43	60685.41
577.59	60795.42
577.75	60720.52
577.92	60774.35
578.08	60924.14
578.24	60753.29
578.40	60755.63
578.56	60797.76
578.72	60757.97
578.88	61085.64
579.04	60931.17
579.21	60690.09
579.37	60872.65
579.53	60987.34
579.69	60769.67
579.85	60800.10
580.01	60832.86
580.17	60748.60
580.33	60713.50
580.49	60786.05
580.65	60790.73
580.82	60650.30
580.98	60910.10
581.14	60872.65
581.30	61052.87
581.46	60750.94
581.62	60973.30
581.78	60818.82
581.94	60921.80
582.10	60830.52
582.26	60807.12
582.42	60954.57
582.58	60755.63
582.74	60926.49
582.90	60870.31
583.06	60842.23
583.22	60797.76
583.38	60720.52
583.54	60917.12
583.70	60879.67
583.86	60690.09
584.02	60687.75
584.18	61006.06
584.34	60837.54
584.50	60846.91
584.66	60989.68
584.82	60591.79
584.98	60982.66
585.14	61027.13
585.30	60769.67
585.46	61104.37
585.62	60982.66
585.78	61024.79
585.94	60837.54
586.10	60867.97
586.26	61118.41
586.42	61099.68
586.58	60938.19
586.74	60921.80
586.90	60954.57
587.06	60865.63
587.22	60996.70
587.38	60973.30
587.54	61071.60
587.70	61226.07
587.86	61090.32
588.02	60839.89
588.18	61097.34
588.34	61109.05
588.49	60928.83
