SpectraSuite Data File
++++++++++++++++++++++++++++++++++++
Date: Fri Oct 25 10:48:30 EDT 2013
User: price-jones
Dark Spectrum Present: No
Reference Spectrum Present: No
Number of Sampled Component Spectra: 1
Spectrometers: USB2+H05261
Integration Time (usec): 100000 (USB2+H05261)
Spectra Averaged: 1 (USB2+H05261)
Boxcar Smoothing: 0 (USB2+H05261)
Correct for Electrical Dark: No (USB2+H05261)
Strobe/Lamp Enabled: No (USB2+H05261)
Correct for Detector Non-linearity: No (USB2+H05261)
Correct for Stray Light: No (USB2+H05261)
Number of Pixels in Processed Spectrum: 2048
>>>>>Begin Processed Spectral Data<<<<<
365.73	198.95
365.92	198.95
366.12	198.95
366.32	91.28
366.52	126.39
366.72	77.24
366.91	65.54
367.11	9.36
367.31	28.09
367.51	65.54
367.70	49.15
367.90	11.70
368.10	72.56
368.30	63.19
368.49	95.96
368.69	9.36
368.89	58.51
369.09	135.75
369.28	128.73
369.48	58.51
369.68	142.77
369.87	107.66
370.07	60.85
370.27	138.09
370.47	217.67
370.66	365.12
370.86	400.23
371.06	475.13
371.25	540.66
371.45	451.72
371.65	468.11
371.84	435.34
372.04	517.26
372.24	528.96
372.44	550.03
372.63	491.51
372.83	533.64
373.03	533.64
373.22	564.07
373.42	585.13
373.62	540.66
373.81	608.54
374.01	533.64
374.21	585.13
374.40	526.62
374.60	650.67
374.79	613.22
374.99	634.29
375.19	559.39
375.38	622.58
375.58	674.07
375.78	650.67
375.97	587.47
376.17	748.97
376.37	650.67
376.56	664.71
376.76	617.90
376.95	601.52
377.15	657.69
377.35	631.94
377.54	613.22
377.74	617.90
377.93	631.94
378.13	702.16
378.33	758.33
378.52	688.12
378.72	653.01
378.91	624.92
379.11	674.07
379.31	669.39
379.50	688.12
379.70	739.61
379.89	753.65
380.09	692.80
380.28	716.20
380.48	634.29
380.68	727.91
380.87	720.88
381.07	816.85
381.26	760.67
381.46	648.33
381.65	725.57
381.85	744.29
382.04	711.52
382.24	786.42
382.43	692.80
382.63	697.48
382.83	713.86
383.02	718.54
383.22	763.01
383.41	697.48
383.61	713.86
383.80	809.83
384.00	863.66
384.19	809.83
384.39	734.93
384.58	788.76
384.78	837.91
384.97	802.80
385.17	812.17
385.36	788.76
385.56	812.17
385.75	863.66
385.95	858.98
386.14	887.06
386.34	919.83
386.53	816.85
386.72	798.12
386.92	915.15
387.11	922.17
387.31	882.38
387.50	880.04
387.70	905.79
387.89	826.21
388.09	938.55
388.28	954.94
388.48	961.96
388.67	964.30
388.86	964.30
389.06	999.41
389.25	884.72
389.45	924.51
389.64	954.94
389.84	1001.75
390.03	1032.18
390.22	1071.97
390.42	908.13
390.61	997.07
390.81	966.64
391.00	1060.26
391.19	1125.80
391.39	1064.94
391.58	1107.07
391.78	1076.65
391.97	1043.88
392.16	1020.47
392.36	1060.26
392.55	999.41
392.75	1050.90
392.94	1034.52
393.13	1008.77
393.33	1027.50
393.52	1069.62
393.71	1221.76
393.91	1076.65
394.10	1118.78
394.29	1043.88
394.49	1083.67
394.68	1217.08
394.88	1191.33
395.07	1270.91
395.26	1240.48
395.46	1261.55
395.65	1266.23
395.84	1172.61
396.04	1362.19
396.23	1128.14
396.42	1174.95
396.62	1181.97
396.81	1345.81
397.00	1299.00
397.19	1334.11
397.39	1376.24
397.58	1301.34
397.77	1446.45
397.97	1371.55
398.16	1523.69
398.35	1563.48
398.55	1469.86
398.74	1558.80
398.93	1556.46
399.12	1467.52
399.32	1446.45
399.51	1565.82
399.70	1549.43
399.90	1591.56
400.09	1605.61
400.28	1680.50
400.47	1678.16
400.67	1600.93
400.86	1582.20
401.05	1614.97
401.24	1776.47
401.44	1827.96
401.63	1792.85
401.82	1757.74
402.01	1729.66
402.21	1795.19
402.40	1792.85
402.59	1762.42
402.78	1741.36
402.97	1776.47
403.17	1912.22
403.36	1785.83
403.55	1858.39
403.74	1923.92
403.93	2026.90
404.13	1916.90
404.32	1886.47
404.51	1881.79
404.70	1919.24
404.89	1888.81
405.09	2022.22
405.28	1928.60
405.47	1921.58
405.66	2043.29
405.85	1949.67
406.05	2015.20
406.24	2015.20
406.43	2052.65
406.62	2069.03
406.81	2139.25
407.00	2235.21
407.20	2069.03
407.39	2108.82
407.58	2160.31
407.77	2139.25
407.96	2186.06
408.15	2207.13
408.34	2181.38
408.54	2246.91
408.73	2186.06
408.92	2368.62
409.11	2349.90
409.30	2373.30
409.49	2373.30
409.68	2237.55
409.87	2338.20
410.07	2497.35
410.26	2462.24
410.45	2438.84
410.64	2438.84
410.83	2595.65
411.02	2562.89
411.21	2614.38
411.40	2609.70
411.59	2693.96
411.78	2588.63
411.98	2640.12
412.17	2597.99
412.36	2590.97
412.55	2712.68
412.74	2871.84
412.93	2754.81
413.12	2799.28
413.31	2843.75
413.50	2803.96
413.69	2869.50
413.88	2899.92
414.07	2967.80
414.26	2864.82
414.45	2935.03
414.64	3035.67
414.83	3045.04
415.02	3096.53
415.22	2993.55
415.41	3187.81
415.60	3094.19
415.79	3098.87
415.98	3206.53
416.17	3286.11
416.36	3274.41
416.55	3220.58
416.74	3208.87
416.93	3318.88
417.12	3314.20
417.31	3389.10
417.50	3419.52
417.69	3471.01
417.88	3297.81
418.07	3391.44
418.26	3468.67
418.45	3576.34
418.64	3611.45
418.83	3590.38
419.02	3541.23
419.21	3552.93
419.39	3648.90
419.58	3545.91
419.77	3478.04
419.96	3775.28
420.15	3840.82
420.34	3712.09
420.53	3749.54
420.72	3791.67
420.91	3794.01
421.10	3922.74
421.29	3871.25
421.48	3831.46
421.67	3831.46
421.86	3950.82
422.05	3880.61
422.24	3794.01
422.43	3927.42
422.61	3852.52
422.80	3999.98
422.99	3960.19
423.18	4046.79
423.37	3981.25
423.56	4016.36
423.75	3967.21
423.94	3873.59
424.13	3782.31
424.32	3824.44
424.50	3943.80
424.69	4105.30
424.88	3927.42
425.07	3981.25
425.26	3892.31
425.45	3953.16
425.64	3843.16
425.83	4070.19
426.01	3988.27
426.20	3978.91
426.39	4109.98
426.58	3838.48
426.77	3908.69
426.96	4072.53
427.15	4100.62
427.33	4227.01
427.52	4245.73
427.71	4098.28
427.90	4128.70
428.09	4236.37
428.28	4156.79
428.46	4035.08
428.65	4212.96
428.84	4257.43
429.03	4482.13
429.22	4156.79
429.40	4217.65
429.59	4243.39
429.78	4009.34
429.97	4070.19
430.16	3943.80
430.34	4163.81
430.53	4072.53
430.72	4381.48
430.91	4149.77
431.10	4196.58
431.28	4627.24
431.47	4613.20
431.66	4692.77
431.85	4671.71
432.03	4767.67
432.22	4835.55
432.41	4601.49
432.60	4760.65
432.79	4795.76
432.97	4770.01
433.16	4793.42
433.35	4739.58
433.54	4697.46
433.72	4765.33
433.91	4802.78
434.10	4809.80
434.28	4753.63
434.47	4985.34
434.66	4966.62
434.85	4950.23
435.03	5100.03
435.22	4884.70
435.41	5186.63
435.59	5123.43
435.78	5191.31
435.97	5217.05
436.16	5177.26
436.34	5153.86
436.53	5172.58
436.72	5364.51
436.90	5039.17
437.09	5249.82
437.28	5259.18
437.46	5380.89
437.65	5291.95
437.84	5074.28
438.02	5226.42
438.21	5282.59
438.40	5107.05
438.58	5483.88
438.77	5387.91
438.96	5474.51
439.14	5528.35
439.33	5497.92
439.52	5617.29
439.70	5570.48
439.89	5713.25
440.08	5687.50
440.26	5888.79
440.45	5795.17
440.63	5841.98
440.82	5895.81
441.01	5902.83
441.19	6038.58
441.38	6092.41
441.57	6143.91
441.75	6310.08
441.94	6431.79
442.12	6368.60
442.31	6380.30
442.50	6459.88
442.68	6333.49
442.87	6370.94
443.05	6466.90
443.24	6471.58
443.43	6319.45
443.61	6504.35
443.80	6834.36
443.98	6410.73
444.17	6312.42
444.35	6619.04
444.54	6715.00
444.73	6509.03
444.91	6551.16
445.10	6408.39
445.28	6544.14
445.47	6441.15
445.65	6532.44
445.84	6583.93
446.02	6511.37
446.21	6544.14
446.39	6567.54
446.58	6848.41
446.77	6670.53
446.95	6633.08
447.14	6647.12
447.32	6789.89
447.51	6633.08
447.69	6537.12
447.88	6642.44
448.06	6834.36
448.25	6885.86
448.43	6843.73
448.62	6740.74
448.80	6806.28
448.99	6935.01
449.17	6974.80
449.36	6754.79
449.54	6906.92
449.73	7068.42
449.91	7302.47
450.10	7115.23
450.28	7286.09
450.46	7293.11
450.65	7232.26
450.83	7262.68
451.02	7220.55
451.20	7396.09
451.39	7243.96
451.57	7339.92
451.76	7129.27
451.94	7173.74
452.13	7353.96
452.31	7143.32
452.49	7323.54
452.68	7206.51
452.86	7332.90
453.05	7517.80
453.23	7585.68
453.42	7286.09
453.60	7288.43
453.78	7618.44
453.97	7403.11
454.15	7358.64
454.34	7311.83
454.52	7445.24
454.70	7562.27
454.89	7599.72
455.07	7655.89
455.26	7655.89
455.44	7641.85
455.62	7674.62
455.81	7728.45
455.99	7707.38
456.17	8070.17
456.36	7925.05
456.54	8098.25
456.73	8046.76
456.91	8067.83
457.09	8355.71
457.28	8404.86
457.46	7995.27
457.64	8203.58
457.83	8285.50
458.01	7943.78
458.19	8458.70
458.38	8280.82
458.56	8444.65
458.74	8271.45
458.93	8388.48
459.11	8383.80
459.29	8400.18
459.48	8346.35
459.66	8425.93
459.84	8533.59
460.03	8535.93
460.21	8456.36
460.39	8594.45
460.57	8571.04
460.76	8641.26
460.94	8931.48
461.12	8788.71
461.31	8706.79
461.49	8681.05
461.67	8645.94
461.85	8964.25
462.04	8915.10
462.22	9336.40
462.40	8908.08
462.59	8971.27
462.77	9006.38
462.95	9032.13
463.13	9013.40
463.32	9125.75
463.50	9085.96
463.68	9212.35
463.86	8994.68
464.05	8730.20
464.23	8964.25
464.41	9158.52
464.59	9011.06
464.78	9308.31
464.96	9217.03
465.14	9062.55
465.32	9298.95
465.50	9146.81
465.69	9430.02
465.87	9345.76
466.05	9366.82
466.23	9032.13
466.41	9474.49
466.60	9423.00
466.78	9128.09
466.96	9233.41
467.14	9242.78
467.32	9430.02
467.51	9535.34
467.69	9114.05
467.87	9640.67
468.05	9715.56
468.23	9537.68
468.41	9516.62
468.60	9408.95
468.78	9659.39
468.96	9427.68
469.14	9907.49
469.32	9664.07
469.50	9549.39
469.69	10010.47
469.87	10038.56
470.05	9919.19
470.23	10087.71
470.41	9631.30
470.59	9970.68
470.77	10003.45
470.95	10050.26
471.14	10349.85
471.32	9886.42
471.50	10359.21
471.68	10380.28
471.86	10523.05
472.04	10434.11
472.22	10576.88
472.40	10305.38
472.58	10572.20
472.77	10607.31
472.95	10656.46
473.13	10846.04
473.31	10796.89
473.49	10712.63
473.67	10644.76
473.85	10839.02
474.03	10958.39
474.21	11049.67
474.39	11103.50
474.57	11185.42
474.75	11220.53
474.93	11267.34
475.12	11316.49
475.30	11346.92
475.48	11314.15
475.66	11433.52
475.84	11276.70
476.02	11475.65
476.20	11470.97
476.38	11789.28
476.56	11861.84
476.74	11793.96
476.92	11880.56
477.10	11747.15
477.28	12142.70
477.46	12116.95
477.64	12147.38
477.82	12556.97
478.00	12571.02
478.18	12760.60
478.36	12716.13
478.54	12741.88
478.72	12774.64
478.90	12863.58
479.08	13156.15
479.26	13418.29
479.44	13401.91
479.62	13397.23
479.80	13467.44
479.98	13650.00
480.16	13701.50
480.34	13579.79
480.52	13818.52
480.70	13696.82
480.88	13867.67
481.06	13900.44
481.24	14087.68
481.41	14366.21
481.59	14457.49
481.77	14429.40
481.95	14312.38
482.13	14525.36
482.31	14551.11
482.49	15169.01
482.67	15056.67
482.85	15119.86
483.03	15318.81
483.21	15555.20
483.39	15707.34
483.57	15250.93
483.74	15775.21
483.92	15775.21
484.10	15604.35
484.28	15978.84
484.46	16180.12
484.64	16533.54
484.82	16074.80
485.00	16175.44
485.18	16830.79
485.35	16596.74
485.53	16259.70
485.71	16262.04
485.89	16638.87
486.07	16723.13
486.25	16645.89
486.43	17369.12
486.61	17139.74
486.78	17277.83
486.96	17268.47
487.14	17563.38
487.32	17914.46
487.50	18080.64
487.68	17774.03
487.85	18597.90
488.03	18640.03
488.21	18714.92
488.39	19051.96
488.57	18845.99
488.75	19363.25
488.92	19396.02
489.10	19494.32
489.28	19543.47
489.46	19733.06
489.64	19665.18
489.81	20343.94
489.99	20051.37
490.17	20545.22
490.35	20643.52
490.53	20357.98
490.70	20748.85
490.88	20540.54
491.06	21186.53
491.24	21362.07
491.41	21113.97
491.59	21373.77
491.77	20837.79
491.95	21455.69
492.13	21474.42
492.30	21855.92
492.48	22082.95
492.66	21750.60
492.84	22099.34
493.01	22389.56
493.19	22106.36
493.37	22537.02
493.54	22377.86
493.72	22775.75
493.90	22775.75
494.08	22993.42
494.25	23356.21
494.43	23520.04
494.61	23351.52
494.79	23913.25
494.96	23630.05
495.14	23634.73
495.32	23978.79
495.49	23697.92
495.67	24409.45
495.85	24191.78
496.02	24540.52
496.20	24383.70
496.38	24416.47
496.55	24442.21
496.73	25469.71
496.91	25081.18
497.09	25090.54
497.26	25130.33
497.44	25380.77
497.62	25476.73
497.79	25708.44
497.97	25429.92
498.14	25872.28
498.32	25607.80
498.50	25947.18
498.67	25951.86
498.85	26167.19
499.03	26560.40
499.20	26459.76
499.38	26272.51
499.56	26403.58
499.73	26726.58
499.91	26991.06
500.08	26757.00
500.26	26424.65
500.44	27269.58
500.61	26817.86
500.79	26560.40
500.97	27356.18
501.14	27578.53
501.32	27461.51
501.49	27337.46
501.67	27384.27
501.84	27637.05
502.02	27559.81
502.20	27786.84
502.37	28252.61
502.55	28046.64
502.72	28133.24
502.90	28512.41
503.07	28187.07
503.25	28577.94
503.43	28339.21
503.60	28638.80
503.78	28559.22
503.95	28821.36
504.13	28556.88
504.30	28828.38
504.48	28591.98
504.65	29263.72
504.83	29544.58
505.01	29450.96
505.18	29385.43
505.36	29958.86
505.53	29799.70
505.71	29984.60
505.88	30036.09
506.06	29715.44
506.23	30204.61
506.41	29869.92
506.58	29984.60
506.76	30094.61
506.93	30499.52
507.11	30288.87
507.28	30808.47
507.46	30441.01
507.63	30146.10
507.81	30707.83
507.98	30466.75
508.16	30675.06
508.33	30630.59
508.50	30852.94
508.68	31309.35
508.85	31239.13
509.03	31091.68
509.20	31290.62
509.38	31257.85
509.55	31489.57
509.73	31857.03
509.90	31768.09
510.08	31674.47
510.25	31564.46
510.42	32070.02
510.60	32130.87
510.77	32795.59
510.95	32460.89
511.12	32439.82
511.30	32535.79
511.47	32802.61
511.64	32767.50
511.82	32849.42
511.99	32428.12
512.17	33020.28
512.34	32545.15
512.51	33081.13
512.69	33223.90
512.86	33364.34
513.04	33333.91
513.21	33350.29
513.38	33149.01
513.56	33331.57
513.73	32994.53
513.90	33518.81
514.08	33275.40
514.25	33446.26
514.43	33394.76
514.60	33638.18
514.77	33376.04
514.95	33977.56
515.12	33818.40
515.29	33825.42
515.47	34330.98
515.64	34660.99
515.81	34363.75
515.99	33839.47
516.16	34185.86
516.33	34370.77
516.51	34040.75
516.68	33586.69
516.85	33259.01
517.03	33820.74
517.20	34424.60
517.37	34382.47
517.54	34534.60
517.72	34630.57
517.89	34747.59
518.06	34878.66
518.24	34646.95
518.41	34766.32
518.58	34913.77
518.75	34955.90
518.93	35604.23
519.10	35281.24
519.27	35826.58
519.45	35351.45
519.62	35512.95
519.79	36018.50
519.96	36013.82
520.14	35482.52
520.31	36025.53
520.48	35854.67
520.65	36154.26
520.83	36053.61
521.00	36254.90
521.17	36025.53
521.34	36669.17
521.52	36591.94
521.69	36910.25
521.86	36858.76
522.03	36552.15
522.20	36723.01
522.38	36584.91
522.55	36858.76
522.72	37001.53
522.89	36217.45
523.07	36793.22
523.24	37027.28
523.41	37354.95
523.58	37053.02
523.75	37621.77
523.92	37560.92
524.10	37361.97
524.27	37308.14
524.44	37724.75
524.61	37900.29
524.78	38071.15
524.96	37947.11
525.13	37930.72
525.30	38110.94
525.47	38405.85
525.64	38047.75
525.81	38033.71
525.98	37755.18
526.16	37895.61
526.33	37654.54
526.50	38330.95
526.67	37556.24
526.84	37659.22
527.01	38043.07
527.18	37916.68
527.36	38211.59
527.53	38529.90
527.70	39203.97
527.87	39299.94
528.04	38756.93
528.21	39133.76
528.38	38810.76
528.55	38916.09
528.72	39189.93
528.89	39105.67
529.07	39222.70
529.24	39086.95
529.41	39328.02
529.58	39477.82
529.75	38562.67
529.92	39335.04
530.09	39679.10
530.26	39290.57
530.43	39702.51
530.60	39475.48
530.77	39505.90
530.94	39945.92
531.11	39875.71
531.28	39985.71
531.46	39817.19
531.63	40088.70
531.80	39765.70
531.97	40030.18
532.14	39887.41
532.31	39744.64
532.48	39648.68
532.65	39976.35
532.82	40481.91
532.99	40252.53
533.16	39861.66
533.33	40460.84
533.50	40938.31
533.67	40678.51
533.84	40140.19
534.01	40540.42
534.18	40587.23
534.35	41144.28
534.52	40540.42
534.69	40552.12
534.86	40926.61
535.03	40842.35
535.20	40994.48
535.37	41265.99
535.54	41291.73
535.71	40748.73
535.88	41406.42
536.05	41443.87
536.22	41490.68
536.38	41614.72
536.55	41160.66
536.72	41205.13
536.89	40959.38
537.06	41303.43
537.23	41319.82
537.40	41490.68
537.57	41256.62
537.74	41556.21
537.91	41914.31
538.08	41748.14
538.25	41551.53
538.42	41523.44
538.59	42096.88
538.75	41486.00
538.92	42021.98
539.09	41844.10
539.26	41921.34
539.43	41968.15
539.60	42094.53
539.77	41841.76
539.94	42021.98
540.11	41406.42
540.28	41654.51
540.44	41944.74
540.61	42057.09
540.78	41986.87
540.95	41979.85
541.12	42251.35
541.29	42572.00
541.46	42450.30
541.62	42490.09
541.79	42490.09
541.96	42082.83
542.13	42440.93
542.30	42485.40
542.47	42611.79
542.63	42677.33
542.80	42462.00
542.97	43175.86
543.14	42974.58
543.31	43426.30
543.48	43459.07
543.64	43611.20
543.81	43730.57
543.98	43363.11
544.15	43007.34
544.32	43292.89
544.48	43772.70
544.65	43360.76
544.82	43761.00
544.99	43079.90
545.16	43306.93
545.32	43346.72
545.49	43620.56
545.66	43716.53
545.83	43580.78
546.00	43646.31
546.16	43758.66
546.33	43658.01
546.50	43538.65
546.67	43753.97
546.83	43377.15
547.00	43430.98
547.17	43477.79
547.34	43770.36
547.50	43688.44
547.67	43742.27
547.84	44402.30
548.00	44121.44
548.17	44362.51
548.34	43852.28
548.51	44355.49
548.67	44755.72
548.84	44463.16
549.01	43943.56
549.18	44264.21
549.34	44451.45
549.51	44505.29
549.68	44460.82
549.84	44758.06
550.01	44795.51
550.18	44797.85
550.34	44439.75
550.51	44191.65
550.68	44751.04
550.84	44250.17
551.01	44985.10
551.18	44514.65
551.34	44802.53
551.51	44797.85
551.68	44996.80
551.84	44933.60
552.01	44676.15
552.18	44645.72
552.34	44797.85
552.51	44957.01
552.68	45088.08
552.84	44982.76
553.01	45272.98
553.18	44830.62
553.34	44926.58
553.51	45249.58
553.67	44996.80
553.84	45481.29
554.01	45223.83
554.17	45485.97
554.34	45340.86
554.51	45401.71
554.67	45619.38
554.84	45139.57
555.00	45008.50
555.17	45354.90
555.33	45102.12
555.50	45249.58
555.67	45397.03
555.83	45588.95
556.00	45071.70
556.16	45635.77
556.33	45514.06
556.50	45434.48
556.66	45324.47
556.83	45378.31
556.99	45935.35
557.16	45500.01
557.32	45764.49
557.49	45263.62
557.65	45411.07
557.82	45385.33
557.98	45326.81
558.15	45301.07
558.32	45593.64
558.48	45544.48
558.65	45713.00
558.81	45521.08
558.98	45549.17
559.14	45935.35
559.31	45659.17
559.47	45965.78
559.64	45911.95
559.80	46246.65
559.97	46169.41
560.13	45565.55
560.30	45893.22
560.46	45832.37
560.63	45954.08
560.79	46099.19
560.96	46511.13
561.12	45708.32
561.29	45982.16
561.45	45862.80
561.61	45855.78
561.78	45766.84
561.94	45701.30
562.11	45907.27
562.27	45872.16
562.44	46230.26
562.60	46405.80
562.77	46667.94
562.93	45984.51
563.10	46174.09
563.26	46117.92
563.42	46305.16
563.59	46330.90
563.75	46061.74
563.92	46316.86
564.08	46401.12
564.24	46515.81
564.41	46820.08
564.57	46073.45
564.74	46274.73
564.90	46314.52
565.07	46586.02
565.23	46426.87
565.39	45961.10
565.56	46768.58
565.72	45839.39
565.88	46122.60
566.05	46485.38
566.21	46543.89
566.38	46466.66
566.54	46532.19
566.70	46579.00
566.87	46927.74
567.03	46721.77
567.19	46850.50
567.36	46522.83
567.52	46361.33
567.68	46344.95
567.85	46511.13
568.01	46263.03
568.17	46136.64
568.34	46768.58
568.50	46525.17
568.66	46384.74
568.83	46740.50
568.99	46546.23
569.15	46389.42
569.32	46312.18
569.48	46646.88
569.64	46419.84
569.81	46855.18
569.97	46405.80
570.13	46635.17
570.30	46038.34
570.46	46443.25
570.62	46251.33
570.78	46129.62
570.95	46574.32
571.11	46630.49
571.27	46754.54
571.43	46583.68
571.60	46857.52
571.76	46504.10
571.92	46351.97
572.09	46546.23
572.25	46600.07
572.41	46623.47
572.57	46581.34
572.74	47089.24
572.90	46902.00
573.06	46623.47
573.22	46997.96
573.38	46550.91
573.55	46539.21
573.71	46391.76
573.87	46401.12
574.03	46815.40
574.20	46834.12
574.36	46557.94
574.52	46672.62
574.68	46740.50
574.84	46747.52
575.01	46887.95
575.17	46494.74
575.33	45998.55
575.49	46412.82
575.65	47189.88
575.82	47199.24
575.98	46719.43
576.14	47187.54
576.30	46756.88
576.46	46869.23
576.62	46546.23
576.79	46469.00
576.95	46176.43
577.11	46387.08
577.27	46894.97
577.43	46616.45
577.59	46347.29
577.75	46808.37
577.92	46307.50
578.08	46124.94
578.24	46485.38
578.40	46710.07
578.56	46857.52
578.72	46499.42
578.88	46829.44
579.04	46700.71
579.21	46691.35
579.37	46391.76
579.53	46742.84
579.69	46791.99
579.85	47014.34
580.01	46916.04
580.17	47026.04
580.33	46986.25
580.49	46623.47
580.65	46946.47
580.82	46738.16
580.98	46803.69
581.14	46703.05
581.30	46817.74
581.46	46997.96
581.62	46401.12
581.78	46543.89
581.94	47377.12
582.10	46843.48
582.26	46878.59
582.42	46815.40
582.58	47084.56
582.74	46829.44
582.90	46869.23
583.06	47091.58
583.22	46946.47
583.38	47517.56
583.54	47037.75
583.70	46756.88
583.86	46979.23
584.02	46256.01
584.18	46405.80
584.34	46824.76
584.50	46843.48
584.66	46768.58
584.82	46581.34
584.98	46976.89
585.14	47021.36
585.30	46637.51
585.46	46532.19
585.62	46986.25
585.78	46876.25
585.94	46370.69
586.10	46752.20
586.26	46873.91
586.42	46787.31
586.58	47285.84
586.74	46721.77
586.90	46967.53
587.06	46829.44
587.22	46801.35
587.38	46642.20
587.54	47164.14
587.70	47119.66
587.86	46876.25
588.02	46852.84
588.18	46920.72
588.34	47004.98
588.49	46344.95
588.65	46719.43
588.81	46052.38
588.97	46667.94
589.13	46314.52
589.29	46438.57
589.45	46796.67
589.61	46836.46
589.77	47077.54
589.93	46696.03
