SpectraSuite Data File
++++++++++++++++++++++++++++++++++++
Date: Fri Oct 25 11:34:12 EDT 2013
User: price-jones
Dark Spectrum Present: No
Reference Spectrum Present: No
Number of Sampled Component Spectra: 1
Spectrometers: USB2+H05261
Integration Time (usec): 100000 (USB2+H05261)
Spectra Averaged: 1 (USB2+H05261)
Boxcar Smoothing: 0 (USB2+H05261)
Correct for Electrical Dark: No (USB2+H05261)
Strobe/Lamp Enabled: No (USB2+H05261)
Correct for Detector Non-linearity: No (USB2+H05261)
Correct for Stray Light: No (USB2+H05261)
Number of Pixels in Processed Spectrum: 2048
>>>>>Begin Processed Spectral Data<<<<<
365.73	227.03
365.92	227.03
366.12	227.03
366.32	248.10
366.52	182.56
366.72	201.29
366.91	140.43
367.11	173.20
367.31	184.90
367.51	138.09
367.70	210.65
367.90	238.73
368.10	187.24
368.30	154.48
368.49	156.82
368.69	184.90
368.89	238.73
369.09	224.69
369.28	152.13
369.48	180.22
369.68	238.73
369.87	220.01
370.07	217.67
370.27	250.44
370.47	301.93
370.66	463.43
370.86	505.56
371.06	543.00
371.25	472.79
371.45	571.09
371.65	550.03
371.84	512.58
372.04	606.20
372.24	662.37
372.44	592.16
372.63	571.09
372.83	606.20
373.03	557.05
373.22	559.39
373.42	596.84
373.62	568.75
373.81	538.32
374.01	634.29
374.21	683.44
374.40	645.99
374.60	650.67
374.79	587.47
374.99	645.99
375.19	699.82
375.38	669.39
375.58	699.82
375.78	627.26
375.97	739.61
376.17	706.84
376.37	587.47
376.56	650.67
376.76	599.18
376.95	608.54
377.15	706.84
377.35	702.16
377.54	674.07
377.74	725.57
377.93	699.82
378.13	767.70
378.33	667.05
378.52	671.73
378.72	678.76
378.91	763.01
379.11	755.99
379.31	709.18
379.50	690.46
379.70	716.20
379.89	713.86
380.09	676.41
380.28	737.27
380.48	758.33
380.68	741.95
380.87	732.59
381.07	631.94
381.26	786.42
381.46	805.14
381.65	751.31
381.85	709.18
382.04	765.36
382.24	828.55
382.43	758.33
382.63	758.33
382.83	758.33
383.02	709.18
383.22	770.04
383.41	826.21
383.61	842.59
383.80	814.51
384.00	837.91
384.19	833.23
384.39	765.36
384.58	795.78
384.78	795.78
384.97	744.29
385.17	772.38
385.36	851.96
385.56	854.30
385.75	807.48
385.95	910.47
386.14	898.77
386.34	884.72
386.53	770.04
386.72	830.89
386.92	816.85
387.11	919.83
387.31	884.72
387.50	866.00
387.70	875.36
387.89	924.51
388.09	896.43
388.28	866.00
388.48	814.51
388.67	964.30
388.86	884.72
389.06	924.51
389.25	1020.47
389.45	938.55
389.64	861.32
389.84	889.40
390.03	957.28
390.22	903.45
390.42	931.53
390.61	919.83
390.81	1027.50
391.00	987.71
391.19	971.32
391.39	1015.79
391.58	931.53
391.78	1025.15
391.97	1004.09
392.16	978.34
392.36	1064.94
392.55	1046.22
392.75	1046.22
392.94	1032.18
393.13	1069.62
393.33	959.62
393.52	1149.20
393.71	1095.37
393.91	1013.45
394.10	1107.07
394.29	1025.15
394.49	1062.60
394.68	1036.86
394.88	1111.75
395.07	1076.65
395.26	1128.14
395.46	1254.53
395.65	1116.44
395.84	1142.18
396.04	1291.98
396.23	1184.31
396.42	1128.14
396.62	1249.85
396.81	1193.67
397.00	1132.82
397.19	1139.84
397.39	1289.64
397.58	1196.01
397.77	1200.69
397.97	1228.78
398.16	1184.31
398.35	1263.89
398.55	1170.27
398.74	1289.64
398.93	1289.64
399.12	1259.21
399.32	1205.38
399.51	1322.40
399.70	1313.04
399.90	1296.66
400.09	1350.49
400.28	1345.81
400.47	1366.87
400.67	1275.59
400.86	1369.21
401.05	1401.98
401.24	1366.87
401.44	1327.08
401.63	1420.71
401.82	1514.33
402.01	1439.43
402.21	1425.39
402.40	1502.62
402.59	1448.79
402.78	1514.33
402.97	1390.28
403.17	1523.69
403.36	1519.01
403.55	1486.24
403.74	1598.59
403.93	1533.05
404.13	1593.90
404.32	1673.48
404.51	1488.58
404.70	1636.03
404.89	1570.50
405.09	1631.35
405.28	1561.14
405.47	1621.99
405.66	1748.38
405.85	1729.66
406.05	1689.87
406.24	1668.80
406.43	1764.76
406.62	1811.57
406.81	1881.79
407.00	1678.16
407.20	1760.08
407.39	1764.76
407.58	1776.47
407.77	1834.98
407.96	1891.15
408.15	1928.60
408.34	1799.87
408.54	1844.34
408.73	1858.39
408.92	1921.58
409.11	1942.64
409.30	2033.93
409.49	1930.94
409.68	2005.84
409.87	1942.64
410.07	2022.22
410.26	1991.80
410.45	1961.37
410.64	2097.12
410.83	1975.41
411.02	2134.57
411.21	2085.42
411.40	2150.95
411.59	2099.46
411.78	2111.16
411.98	2172.02
412.17	2129.89
412.36	2242.23
412.55	2237.55
412.74	2296.07
412.93	2258.62
413.12	2211.81
413.31	2324.15
413.50	2303.09
413.69	2420.11
413.88	2443.52
414.07	2490.33
414.26	2455.22
414.45	2307.77
414.64	2459.90
414.83	2424.80
415.02	2607.36
415.22	2569.91
415.41	2602.68
415.60	2649.49
415.79	2492.67
415.98	2644.81
416.17	2670.55
416.36	2642.46
416.55	2668.21
416.74	2820.35
416.93	2874.18
417.12	2843.75
417.31	2757.15
417.50	2785.24
417.69	2890.56
417.88	2792.26
418.07	2815.66
418.26	2902.26
418.45	2998.23
418.64	2958.44
418.83	2911.63
419.02	2949.08
419.21	2944.39
419.39	3059.08
419.58	3091.85
419.77	2967.80
419.96	3129.30
420.15	3094.19
420.34	3061.42
420.53	3138.66
420.72	3143.34
420.91	3297.81
421.10	3171.43
421.29	3276.75
421.48	3211.22
421.67	3281.43
421.86	3112.91
422.05	3356.33
422.24	3323.56
422.43	3222.92
422.61	3332.92
422.80	3293.13
422.99	3145.68
423.18	3433.57
423.37	3419.52
423.56	3346.97
423.75	3265.05
423.94	3253.34
424.13	3148.02
424.32	3157.38
424.50	3272.07
424.69	3557.61
424.88	3365.69
425.07	3384.41
425.26	3377.39
425.45	3459.31
425.64	3372.71
425.83	3330.58
426.01	3499.10
426.20	3407.82
426.39	3499.10
426.58	3400.80
426.77	3461.65
426.96	3452.29
427.15	3424.20
427.33	3534.21
427.52	3604.42
427.71	3606.77
427.90	3534.21
428.09	3557.61
428.28	3515.48
428.46	3611.45
428.65	3529.53
428.84	3728.47
429.03	3826.78
429.22	3637.19
429.40	3623.15
429.59	3569.32
429.78	3550.59
429.97	3529.53
430.16	3765.92
430.34	3829.12
430.53	3786.99
430.72	3791.67
430.91	3768.26
431.10	3889.97
431.28	3770.60
431.47	3915.72
431.66	3946.14
431.85	3882.95
432.03	3824.44
432.22	4079.55
432.41	3999.98
432.60	4032.74
432.79	4058.49
432.97	4018.70
433.16	4035.08
433.35	4021.04
433.54	4114.66
433.72	4049.13
433.91	4126.36
434.10	4142.75
434.28	4007.00
434.47	4109.98
434.66	4173.18
434.85	4177.86
435.03	4346.37
435.22	4252.75
435.41	4362.76
435.59	4334.67
435.78	4259.78
435.97	4285.52
436.16	4234.03
436.34	4271.48
436.53	4222.33
436.72	4437.66
436.90	4184.88
437.09	4519.57
437.28	4486.81
437.46	4334.67
437.65	4383.82
437.84	4566.39
438.02	4573.41
438.21	4451.70
438.40	4545.32
438.58	4571.07
438.77	4648.30
438.96	4781.71
439.14	4751.29
439.33	4720.86
439.52	4854.27
439.70	4809.80
439.89	5018.11
440.08	5001.72
440.26	4851.93
440.45	4784.06
440.63	4873.00
440.82	5062.58
441.01	5109.39
441.19	5046.20
441.38	5057.90
441.57	5064.92
441.75	5205.35
441.94	5320.04
442.12	5280.25
442.31	5200.67
442.50	5394.93
442.68	5179.61
442.87	5261.52
443.05	5284.93
443.24	5591.54
443.43	5303.65
443.61	5490.90
443.80	5563.45
443.98	5273.23
444.17	5322.38
444.35	5540.05
444.54	5603.24
444.73	5411.32
444.91	5303.65
445.10	5432.38
445.28	5392.59
445.47	5448.77
445.65	5476.85
445.84	5729.63
446.02	5638.35
446.21	5619.63
446.39	5661.76
446.58	5645.37
446.77	5694.52
446.95	5427.70
447.14	5556.43
447.32	5654.73
447.51	5572.82
447.69	5547.07
447.88	5610.26
448.06	5628.99
448.25	5563.45
448.43	5523.66
448.62	5729.63
448.80	5664.10
448.99	5673.46
449.17	5570.48
449.36	5837.30
449.54	5713.25
449.73	6050.28
449.91	6080.71
450.10	5954.32
450.28	5893.47
450.46	5827.93
450.65	5895.81
450.83	5816.23
451.02	6050.28
451.20	5900.49
451.39	5912.19
451.57	6113.48
451.76	5963.68
451.94	5937.94
452.13	5973.05
452.31	6171.99
452.49	6047.94
452.68	6258.59
452.86	6263.27
453.05	6232.85
453.23	6270.30
453.42	6202.42
453.60	6050.28
453.78	6125.18
453.97	6293.70
454.15	6200.08
454.34	6193.06
454.52	6429.45
454.70	6197.74
454.89	6445.84
455.07	6354.55
455.26	6523.07
455.44	6565.20
455.62	6544.14
455.81	6424.77
455.99	6658.82
456.17	6551.16
456.36	6511.37
456.54	6710.32
456.73	6752.45
456.91	6750.10
457.09	6836.70
457.28	6768.83
457.46	6722.02
457.64	6881.18
457.83	6773.51
458.01	6843.73
458.19	7014.59
458.38	7049.69
458.56	7136.29
458.74	7019.27
458.93	7037.99
459.11	6843.73
459.29	7091.82
459.48	7112.89
459.66	7063.74
459.84	7159.70
460.03	7267.36
460.21	7304.81
460.39	7077.78
460.57	7166.72
460.76	7325.88
460.94	7337.58
461.12	7152.68
461.31	7435.88
461.49	7412.48
461.67	7396.09
461.85	7433.54
462.04	7595.04
462.22	7817.39
462.40	7557.59
462.59	7557.59
462.77	7679.30
462.95	7630.15
463.13	7662.91
463.32	7625.47
463.50	7627.81
463.68	7660.57
463.86	7899.31
464.05	7655.89
464.23	7686.32
464.41	7859.52
464.59	7721.43
464.78	7941.44
464.96	7782.28
465.14	7602.06
465.32	7721.43
465.50	8060.80
465.69	8065.49
465.87	8077.19
466.05	7817.39
466.23	8086.55
466.41	7786.96
466.60	8166.13
466.78	8018.68
466.96	7957.82
467.14	8044.42
467.32	7990.59
467.51	8182.51
467.69	8013.99
467.87	8088.89
468.05	8203.58
468.23	8039.74
468.41	8046.76
468.60	8163.79
468.78	8135.70
468.96	8245.71
469.14	8238.69
469.32	8573.38
469.50	8273.79
469.69	8528.91
469.87	8566.36
470.05	8589.77
470.23	8622.53
470.41	8695.09
470.59	8655.30
470.77	8765.31
470.95	8760.63
471.14	8482.10
471.32	8631.90
471.50	8982.98
471.68	8870.63
471.86	9074.26
472.04	8898.72
472.22	9092.98
472.40	9097.66
472.58	8938.51
472.77	9100.00
472.95	9015.74
473.13	9390.23
473.31	9193.62
473.49	9060.21
473.67	9198.31
473.85	9413.63
474.03	9689.82
474.21	9371.50
474.39	9355.12
474.57	9680.46
474.75	9530.66
474.93	9841.95
475.12	9685.14
475.30	9731.95
475.48	9631.30
475.66	9710.88
475.84	9788.12
476.02	9762.37
476.20	9750.67
476.38	10031.54
476.56	10139.20
476.74	10338.15
476.92	10235.16
477.10	10162.61
477.28	10562.84
477.46	10342.83
477.64	10530.07
477.82	10642.42
478.00	10902.22
478.18	10927.96
478.36	10913.92
478.54	11066.05
478.72	11005.20
478.90	11110.52
479.08	11243.93
479.26	11335.21
479.44	11344.58
479.62	11499.05
479.80	11475.65
479.98	11604.38
480.16	11702.68
480.34	11913.33
480.52	12109.93
480.70	11878.22
480.88	11737.79
481.06	12067.80
481.24	12264.41
481.41	11868.86
481.59	12685.70
481.77	12475.06
481.95	12428.24
482.13	12496.12
482.31	12594.42
482.49	12929.12
482.67	13029.76
482.85	13174.88
483.03	13291.90
483.21	13245.09
483.39	13654.69
483.57	13177.22
483.74	13624.26
483.92	13916.83
484.10	13497.87
484.28	13738.94
484.46	14359.19
484.64	14307.69
484.82	14223.44
485.00	14380.25
485.18	14558.13
485.35	14834.32
485.53	14773.46
485.71	14857.72
485.89	15112.84
486.07	14834.32
486.25	14946.66
486.43	15257.95
486.61	15426.47
486.78	15440.51
486.96	15349.23
487.14	15840.75
487.32	15702.65
487.50	15889.90
487.68	15882.88
487.85	16130.97
488.03	16128.63
488.21	16606.10
488.39	16601.42
488.57	16397.79
488.75	16533.54
488.92	16786.32
489.10	17118.68
489.28	17137.40
489.46	17139.74
489.64	17376.14
489.81	17448.69
489.99	17404.22
490.17	17809.14
490.35	17848.93
490.53	17961.27
490.70	18417.68
490.88	18068.94
491.06	18342.78
491.24	18473.85
491.41	18555.77
491.59	18499.59
491.77	18511.30
491.95	18675.13
492.13	19157.28
492.30	19122.18
492.48	19274.31
492.66	19211.12
492.84	19641.78
493.01	19826.68
493.19	19744.76
493.37	19850.08
493.54	19967.11
493.72	19999.88
493.90	19861.79
494.08	20255.00
494.25	20308.83
494.43	20271.38
494.61	20627.14
494.79	20690.34
494.96	20348.62
495.14	21132.70
495.32	20968.86
495.49	21390.16
495.67	21392.50
495.85	21752.94
496.02	21605.49
496.20	21858.26
496.38	21738.90
496.55	21905.07
496.73	22417.65
496.91	22221.05
497.09	21846.56
497.26	22361.48
497.44	22380.20
497.62	22602.55
497.79	22635.32
497.97	22597.87
498.14	23110.45
498.32	22944.27
498.50	23058.96
498.67	23150.24
498.85	23021.51
499.03	23274.29
499.20	23611.32
499.38	23204.07
499.56	23765.80
499.73	23599.62
499.91	23763.46
500.08	24086.45
500.26	23983.47
500.44	24095.82
500.61	23969.43
500.79	24233.91
500.97	24123.90
501.14	24500.73
501.32	24882.24
501.49	24655.20
501.67	24816.70
501.84	25132.67
502.02	24545.20
502.20	24999.26
502.37	25104.59
502.55	25127.99
502.72	25233.32
502.90	25223.95
503.07	25348.00
503.25	25589.08
503.43	25507.16
503.60	25881.64
503.78	25968.24
503.95	25640.57
504.13	25853.56
504.30	25879.30
504.48	25879.30
504.65	26265.49
504.83	26499.55
505.01	26544.02
505.18	26600.19
505.36	26665.72
505.53	26581.46
505.71	26895.10
505.88	26838.92
506.06	26628.27
506.23	26991.06
506.41	26829.56
506.58	27058.93
506.76	27449.80
506.93	27466.19
507.11	27094.04
507.28	27601.94
507.46	27285.97
507.63	27311.71
507.81	27838.33
507.98	27388.95
508.16	27613.64
508.33	27873.44
508.50	28189.41
508.68	28013.87
508.85	28002.17
509.03	28229.20
509.20	28236.22
509.38	28510.07
509.55	28657.52
509.73	28737.10
509.90	28559.22
510.08	28870.51
510.25	28751.14
510.42	29046.05
510.60	29191.16
510.77	29209.89
510.95	29429.90
511.12	29249.67
511.30	28926.68
511.47	29109.24
511.64	29369.04
511.82	29450.96
511.99	29523.52
512.17	29467.34
512.34	29816.08
512.51	29797.36
512.69	29858.21
512.86	29518.84
513.04	30347.39
513.21	29979.92
513.38	30249.08
513.56	30480.80
513.73	30520.59
513.90	30352.07
514.08	30443.35
514.25	30948.90
514.43	30951.24
514.60	31021.46
514.77	31143.17
514.95	31234.45
515.12	30677.40
515.29	31105.72
515.47	30881.03
515.64	30934.86
515.81	30852.94
515.99	31405.31
516.16	31466.16
516.33	31648.72
516.51	31475.52
516.68	31903.84
516.85	31803.20
517.03	31498.93
517.20	31501.27
517.37	31419.35
517.54	31913.20
517.72	31931.93
517.89	32294.71
518.06	31793.84
518.24	32697.28
518.41	32346.20
518.58	32222.16
518.75	32257.26
518.93	32308.76
519.10	32404.72
519.27	32268.97
519.45	33022.62
519.62	32837.72
519.79	32919.63
519.96	32879.85
520.14	33179.43
520.31	33090.49
520.48	33308.16
520.65	33221.56
520.83	33464.98
521.00	33528.17
521.17	33551.58
521.34	33546.90
521.52	33802.02
521.69	33809.04
521.86	33893.30
522.03	33799.68
522.20	33858.19
522.38	34581.42
522.55	33851.17
522.72	34096.92
522.89	34174.16
523.07	34747.59
523.24	34235.02
523.41	34558.01
523.58	34227.99
523.75	34263.10
523.92	34689.08
524.10	34962.92
524.27	34380.13
524.44	34892.71
524.61	34649.29
524.78	34710.14
524.96	35070.59
525.13	35159.53
525.30	35054.20
525.47	35201.66
525.64	35047.18
525.81	35566.78
525.98	35332.73
526.16	35274.21
526.33	35306.98
526.50	35522.31
526.67	35271.87
526.84	35852.33
527.01	35629.98
527.18	35803.17
527.36	35826.58
527.53	35861.69
527.70	36243.20
527.87	36198.73
528.04	35936.59
528.21	35819.56
528.38	35651.04
528.55	36297.03
528.72	36395.33
528.89	36191.70
529.07	36392.99
529.24	36121.49
529.41	36605.98
529.58	36446.82
529.75	36254.90
529.92	36613.00
530.09	36715.98
530.26	36491.29
530.43	36627.04
530.60	36481.93
530.77	36912.59
530.94	37137.28
531.11	36769.82
531.28	36928.97
531.46	37125.58
531.63	37209.84
531.80	37345.59
531.97	37830.08
532.14	37504.74
532.31	37364.31
532.48	37874.55
532.65	37724.75
532.82	37443.89
532.99	37560.92
533.16	37649.86
533.33	37687.31
533.50	37787.95
533.67	37975.19
533.84	37598.37
534.01	37989.24
534.18	38078.18
534.35	38265.42
534.52	37979.87
534.69	38382.45
534.86	38766.29
535.03	38171.80
535.20	38373.08
535.37	38380.10
535.54	38590.75
535.71	38679.69
535.88	38485.43
536.05	38536.92
536.22	38667.99
536.38	38607.14
536.55	39068.22
536.72	38974.60
536.89	38565.01
537.06	38820.13
537.23	39175.89
537.40	38436.28
537.57	38576.71
537.74	38983.96
537.91	39138.44
538.08	39416.96
538.25	38256.06
538.42	39536.33
538.59	39688.46
538.75	39131.42
538.92	39555.05
539.09	39688.46
539.26	39243.76
539.43	39182.91
539.60	39519.95
539.77	39379.51
539.94	40189.34
540.11	39395.90
540.28	40201.04
540.44	39800.81
540.61	40006.78
540.78	39812.51
540.95	40034.86
541.12	39976.35
541.29	39655.70
541.46	39957.63
541.62	40238.49
541.79	40084.01
541.96	39917.84
542.13	40130.83
542.30	40044.23
542.47	40472.54
542.63	40327.43
542.80	40645.74
542.97	40751.07
543.14	40907.88
543.31	40912.56
543.48	40414.03
543.64	40800.22
543.81	41308.11
543.98	41001.50
544.15	40917.25
544.32	41074.06
544.48	41483.66
544.65	41350.24
544.82	41097.47
544.99	41090.44
545.16	41130.23
545.32	40940.65
545.49	41766.86
545.66	41617.07
545.83	41666.22
546.00	41586.64
546.16	41408.76
546.33	41420.46
546.50	41301.09
546.67	41720.05
546.83	41343.22
547.00	41514.08
547.17	41413.44
547.34	41525.78
547.50	41914.31
547.67	42267.73
547.84	41518.76
548.00	41659.20
548.17	42068.79
548.34	41923.68
548.51	42206.88
548.67	42148.37
548.84	42167.09
549.01	42078.15
549.18	42291.14
549.34	42307.52
549.51	42223.26
549.68	42251.35
549.84	42293.48
550.01	42007.94
550.18	42497.11
550.34	42267.73
550.51	42740.52
550.68	42536.90
550.84	42408.17
551.01	42761.59
551.18	42506.47
551.34	42459.66
551.51	42602.43
551.68	42906.70
551.84	42824.78
552.01	42506.47
552.18	42700.73
552.34	42326.25
552.51	42784.99
552.68	42747.54
552.84	43058.84
553.01	43421.62
553.18	42829.46
553.34	42934.79
553.51	43283.53
553.67	43372.47
553.84	43772.70
554.01	43461.41
554.17	43225.01
554.34	43131.39
554.51	43260.12
554.67	43714.19
554.84	43398.21
555.00	43309.27
555.17	43622.90
555.33	43690.78
555.50	43271.82
555.67	43625.25
555.83	43728.23
556.00	44212.72
556.16	44280.60
556.33	43885.04
556.50	44055.90
556.66	43566.73
556.83	43421.62
556.99	44027.82
557.16	43992.71
557.32	44032.50
557.49	44051.22
557.65	43442.68
557.82	44119.10
557.98	44030.16
558.15	43756.32
558.32	43966.96
558.48	44027.82
558.65	44006.75
558.81	43681.42
558.98	44250.17
559.14	44102.71
559.31	43999.73
559.47	44144.84
559.64	44472.52
559.80	44229.10
559.97	44261.87
560.13	44491.24
560.30	44060.58
560.46	44917.22
560.63	44374.22
560.79	44179.95
560.96	44715.93
561.12	44334.43
561.29	44741.68
561.45	44769.77
561.61	44861.05
561.78	44666.78
561.94	44479.54
562.11	44765.09
562.27	44425.71
562.44	44474.86
562.60	44575.50
562.77	44559.12
562.93	44992.12
563.10	45137.23
563.26	44935.95
563.42	45233.19
563.59	44577.84
563.75	44758.06
563.92	44875.09
564.08	44917.22
564.24	44978.07
564.41	45331.50
564.57	45193.40
564.74	44996.80
564.90	44245.49
565.07	44905.52
565.23	44804.88
565.39	45174.68
565.56	45212.13
565.72	44643.38
565.88	44985.10
566.05	45113.83
566.21	44942.97
566.38	45120.85
566.54	44928.92
566.70	44844.66
566.87	45331.50
567.03	44875.09
567.19	45240.21
567.36	45064.67
567.52	45268.30
567.68	45507.04
567.85	45280.00
568.01	45687.26
568.17	45228.51
568.34	45855.78
568.50	45354.90
568.66	45097.44
568.83	45055.31
568.99	45598.32
569.15	45724.71
569.32	45736.41
569.48	45324.47
569.64	45378.31
569.81	45752.79
569.97	45511.72
570.13	45923.65
570.30	45212.13
570.46	45415.76
570.62	45598.32
570.78	45193.40
570.95	45680.24
571.11	45738.75
571.27	45209.79
571.43	45326.81
571.60	45542.14
571.76	45607.68
571.92	45249.58
572.09	45708.32
572.25	45600.66
572.41	45165.32
572.57	45523.42
572.74	46059.40
572.90	45722.37
573.06	45614.70
573.22	45736.41
573.38	45638.11
573.55	45935.35
573.71	46103.87
573.87	45989.19
574.03	45544.48
574.20	45790.24
574.36	45958.76
574.52	45818.33
574.68	45879.18
574.84	46089.83
575.01	45975.14
575.17	46246.65
575.33	45900.25
575.49	45731.73
575.65	46113.23
575.82	46270.05
575.98	45673.21
576.14	46061.74
576.30	46195.15
576.46	45954.08
576.62	46005.57
576.79	45954.08
576.95	45696.62
577.11	45464.91
577.27	45738.75
577.43	45855.78
577.59	46036.00
577.75	46010.25
577.92	45916.63
578.08	45942.38
578.24	46038.34
578.40	46277.07
578.56	46253.67
578.72	46204.52
578.88	46209.20
579.04	46300.48
579.21	45811.31
579.37	46293.46
579.53	46136.64
579.69	45647.47
579.85	45595.98
580.01	46071.10
580.17	46113.23
580.33	45748.11
580.49	45839.39
580.65	46256.01
580.82	46134.30
580.98	46061.74
581.14	45645.13
581.30	45830.03
581.46	45958.76
581.62	45380.65
581.78	46314.52
581.94	46277.07
582.10	46124.94
582.26	46239.62
582.42	46164.73
582.58	45909.61
582.74	46478.36
582.90	46195.15
583.06	46274.73
583.22	45827.69
583.38	46391.76
583.54	46270.05
583.70	45984.51
583.86	46330.90
584.02	45806.62
584.18	46579.00
584.34	45921.31
584.50	46684.33
584.66	46188.13
584.82	46600.07
584.98	46452.61
585.14	46471.34
585.30	46251.33
585.46	46576.66
585.62	45979.82
585.78	46504.10
585.94	46174.09
586.10	46464.32
586.26	46024.29
586.42	46239.62
586.58	46234.94
586.74	45970.46
586.90	46272.39
587.06	46141.32
587.22	46574.32
587.38	46347.29
587.54	46396.44
587.70	46398.78
587.86	46134.30
588.02	46040.68
588.18	46277.07
588.34	46178.77
588.49	46447.93
588.65	46274.73
588.81	46251.33
588.97	46532.19
589.13	46609.43
589.29	46635.17
589.45	46618.79
589.61	46422.19
589.77	46852.84
589.93	46459.63
590.08	46960.51
