SpectraSuite Data File
++++++++++++++++++++++++++++++++++++
Date: Fri Oct 25 11:34:23 EDT 2013
User: price-jones
Dark Spectrum Present: No
Reference Spectrum Present: No
Number of Sampled Component Spectra: 1
Spectrometers: USB2+H05261
Integration Time (usec): 100000 (USB2+H05261)
Spectra Averaged: 1 (USB2+H05261)
Boxcar Smoothing: 0 (USB2+H05261)
Correct for Electrical Dark: No (USB2+H05261)
Strobe/Lamp Enabled: No (USB2+H05261)
Correct for Detector Non-linearity: No (USB2+H05261)
Correct for Stray Light: No (USB2+H05261)
Number of Pixels in Processed Spectrum: 2048
>>>>>Begin Processed Spectral Data<<<<<
365.73	301.93
365.92	301.93
366.12	301.93
366.32	201.29
366.52	187.24
366.72	156.82
366.91	161.50
367.11	222.35
367.31	145.11
367.51	168.52
367.70	168.52
367.90	224.69
368.10	222.35
368.30	168.52
368.49	175.54
368.69	203.63
368.89	201.29
369.09	229.37
369.28	238.73
369.48	243.42
369.68	229.37
369.87	241.08
370.07	250.44
370.27	264.48
370.47	381.51
370.66	461.09
370.86	500.87
371.06	528.96
371.25	589.82
371.45	559.39
371.65	617.90
371.84	667.05
372.04	496.19
372.24	517.26
372.44	547.69
372.63	620.24
372.83	578.11
373.03	582.79
373.22	582.79
373.42	599.18
373.62	606.20
373.81	575.77
374.01	624.92
374.21	685.78
374.40	610.88
374.60	690.46
374.79	608.54
374.99	641.31
375.19	720.88
375.38	655.35
375.58	620.24
375.78	716.20
375.97	629.60
376.17	645.99
376.37	685.78
376.56	660.03
376.76	681.10
376.95	610.88
377.15	720.88
377.35	662.37
377.54	664.71
377.74	620.24
377.93	660.03
378.13	690.46
378.33	727.91
378.52	702.16
378.72	732.59
378.91	753.65
379.11	723.23
379.31	692.80
379.50	716.20
379.70	784.08
379.89	727.91
380.09	636.63
380.28	739.61
380.48	763.01
380.68	753.65
380.87	697.48
381.07	676.41
381.26	704.50
381.46	690.46
381.65	760.67
381.85	737.27
382.04	676.41
382.24	786.42
382.43	734.93
382.63	779.40
382.83	786.42
383.02	793.44
383.22	791.10
383.41	760.67
383.61	807.48
383.80	882.38
384.00	847.27
384.19	866.00
384.39	858.98
384.58	840.25
384.78	833.23
384.97	779.40
385.17	875.36
385.36	842.59
385.56	924.51
385.75	929.19
385.95	802.80
386.14	868.34
386.34	837.91
386.53	910.47
386.72	854.30
386.92	924.51
387.11	842.59
387.31	936.21
387.50	866.00
387.70	887.06
387.89	894.08
388.09	858.98
388.28	884.72
388.48	901.11
388.67	943.24
388.86	875.36
389.06	875.36
389.25	1022.81
389.45	940.90
389.64	987.71
389.84	1015.79
390.03	954.94
390.22	959.62
390.42	875.36
390.61	957.28
390.81	1034.52
391.00	987.71
391.19	1015.79
391.39	1020.47
391.58	1034.52
391.78	985.37
391.97	1032.18
392.16	943.24
392.36	1006.43
392.55	1029.84
392.75	1022.81
392.94	992.39
393.13	1020.47
393.33	994.73
393.52	1027.50
393.71	1088.35
393.91	1146.86
394.10	1118.78
394.29	1064.94
394.49	1078.99
394.68	1118.78
394.88	1125.80
395.07	1109.41
395.26	1132.82
395.46	1163.25
395.65	1146.86
395.84	1160.91
396.04	1231.12
396.23	1142.18
396.42	1062.60
396.62	1261.55
396.81	1233.46
397.00	1198.35
397.19	1219.42
397.39	1214.74
397.58	1231.12
397.77	1184.31
397.97	1186.65
398.16	1303.68
398.35	1231.12
398.55	1268.57
398.74	1228.78
398.93	1329.42
399.12	1289.64
399.32	1240.48
399.51	1235.80
399.70	1327.08
399.90	1273.25
400.09	1362.19
400.28	1441.77
400.47	1299.00
400.67	1345.81
400.86	1329.42
401.05	1357.51
401.24	1366.87
401.44	1362.19
401.63	1357.51
401.82	1427.73
402.01	1460.49
402.21	1451.13
402.40	1460.49
402.59	1504.96
402.78	1509.65
402.97	1474.54
403.17	1427.73
403.36	1521.35
403.55	1598.59
403.74	1493.26
403.93	1607.95
404.13	1488.58
404.32	1586.88
404.51	1547.09
404.70	1591.56
404.89	1547.09
405.09	1621.99
405.28	1654.76
405.47	1680.50
405.66	1617.31
405.85	1673.48
406.05	1624.33
406.24	1636.03
406.43	1685.19
406.62	1746.04
406.81	1722.63
407.00	1760.08
407.20	1710.93
407.39	1685.19
407.58	1792.85
407.77	1837.32
407.96	1762.42
408.15	1804.55
408.34	1757.74
408.54	1846.68
408.73	1809.23
408.92	1811.57
409.11	1921.58
409.30	1977.75
409.49	1849.02
409.68	1954.35
409.87	1994.14
410.07	2001.16
410.26	1977.75
410.45	1982.43
410.64	1982.43
410.83	2026.90
411.02	2078.40
411.21	2155.63
411.40	2092.44
411.59	2157.97
411.78	2043.29
411.98	2017.54
412.17	2108.82
412.36	2200.10
412.55	2251.60
412.74	2310.11
412.93	2328.83
413.12	2251.60
413.31	2382.67
413.50	2373.30
413.69	2284.36
413.88	2422.45
414.07	2333.51
414.26	2427.14
414.45	2399.05
414.64	2389.69
414.83	2509.05
415.02	2558.21
415.22	2579.27
415.41	2626.08
415.60	2506.71
415.79	2546.50
415.98	2686.94
416.17	2679.91
416.36	2651.83
416.55	2731.41
416.74	2792.26
416.93	2736.09
417.12	2715.02
417.31	2822.69
417.50	2768.85
417.69	2818.00
417.88	2818.00
418.07	2904.60
418.26	2925.67
418.45	2836.73
418.64	3016.95
418.83	2965.46
419.02	2942.05
419.21	2958.44
419.39	2998.23
419.58	3026.31
419.77	2935.03
419.96	3075.46
420.15	2913.97
420.34	2995.89
420.53	2977.16
420.72	3028.65
420.91	3136.32
421.10	3014.61
421.29	3173.77
421.48	3084.83
421.67	3194.83
421.86	3131.64
422.05	3190.15
422.24	3276.75
422.43	3344.63
422.61	3124.62
422.80	3276.75
422.99	3311.86
423.18	3377.39
423.37	3330.58
423.56	3372.71
423.75	3164.40
423.94	3365.69
424.13	3059.08
424.32	3141.00
424.50	3461.65
424.69	3309.52
424.88	3412.50
425.07	3304.84
425.26	3309.52
425.45	3251.00
425.64	3236.96
425.83	3332.92
426.01	3368.03
426.20	3361.01
426.39	3389.10
426.58	3276.75
426.77	3349.31
426.96	3454.63
427.15	3332.92
427.33	3379.73
427.52	3431.23
427.71	3522.51
427.90	3564.64
428.09	3534.21
428.28	3534.21
428.46	3522.51
428.65	3693.37
428.84	3763.58
429.03	3676.98
429.22	3520.17
429.40	3662.94
429.59	3765.92
429.78	3449.95
429.97	3454.63
430.16	3747.20
430.34	3735.50
430.53	3770.60
430.72	3836.14
430.91	3569.32
431.10	3824.44
431.28	3805.71
431.47	3845.50
431.66	3967.21
431.85	3899.33
432.03	4067.85
432.22	4098.28
432.41	3901.67
432.60	3918.06
432.79	3913.38
432.97	3971.89
433.16	4128.70
433.35	4011.68
433.54	3950.82
433.72	3983.59
433.91	3969.55
434.10	4100.62
434.28	4053.81
434.47	4016.36
434.66	4149.77
434.85	4283.18
435.03	4264.46
435.22	4121.68
435.41	4250.41
435.59	4234.03
435.78	4269.14
435.97	4107.64
436.16	4180.20
436.34	4243.39
436.53	4329.99
436.72	4395.53
436.90	4264.46
437.09	4407.23
437.28	4355.74
437.46	4472.76
437.65	4428.29
437.84	4542.98
438.02	4381.48
438.21	4444.68
438.40	4517.23
438.58	4643.62
438.77	4669.37
438.96	4533.62
439.14	4699.80
439.33	4784.06
439.52	4823.84
439.70	4805.12
439.89	4905.76
440.08	4833.21
440.26	4732.56
440.45	4884.70
440.63	4985.34
440.82	4990.02
441.01	4945.55
441.19	4947.89
441.38	5018.11
441.57	5179.61
441.75	5107.05
441.94	5128.11
442.12	5266.21
442.31	5266.21
442.50	5221.74
442.68	5144.50
442.87	5483.88
443.05	5191.31
443.24	5394.93
443.43	5336.42
443.61	5289.61
443.80	5533.03
443.98	5280.25
444.17	5191.31
444.35	5331.74
444.54	5430.04
444.73	5390.25
444.91	5448.77
445.10	5472.17
445.28	5448.77
445.47	5516.64
445.65	5423.02
445.84	5472.17
446.02	5633.67
446.21	5631.33
446.39	5565.79
446.58	5671.12
446.77	5479.19
446.95	5565.79
447.14	5535.37
447.32	5479.19
447.51	5640.69
447.69	5523.66
447.88	5621.97
448.06	5591.54
448.25	5561.11
448.43	5568.13
448.62	5593.88
448.80	5537.71
448.99	5636.01
449.17	5699.20
449.36	5661.76
449.54	5689.84
449.73	5891.13
449.91	5973.05
450.10	5776.44
450.28	6024.54
450.46	5685.16
450.65	5799.85
450.83	5834.96
451.02	5973.05
451.20	5839.64
451.39	5982.41
451.57	5968.37
451.76	5949.64
451.94	5949.64
452.13	6120.50
452.31	6069.01
452.49	5841.98
452.68	6106.46
452.86	6022.20
453.05	6080.71
453.23	6190.72
453.42	6232.85
453.60	6090.07
453.78	6279.66
453.97	6286.68
454.15	6141.57
454.34	6171.99
454.52	6190.72
454.70	6317.11
454.89	6382.64
455.07	6333.49
455.26	6244.55
455.44	6408.39
455.62	6504.35
455.81	6420.09
455.99	6581.59
456.17	6689.25
456.36	6527.75
456.54	6560.52
456.73	6551.16
456.91	6890.54
457.09	6651.80
457.28	6766.49
457.46	6647.12
457.64	6602.65
457.83	6888.20
458.01	6715.00
458.19	6780.53
458.38	6841.39
458.56	6913.94
458.74	6977.14
458.93	6860.11
459.11	7056.72
459.29	7063.74
459.48	6963.09
459.66	7019.27
459.84	7101.19
460.03	7162.04
460.21	7321.20
460.39	7166.72
460.57	7054.37
460.76	7080.12
460.94	7159.70
461.12	7316.51
461.31	7293.11
461.49	7052.03
461.67	7215.87
461.85	7288.43
462.04	7428.86
462.22	7747.17
462.40	7499.08
462.59	7302.47
462.77	7307.15
462.95	7543.55
463.13	7548.23
463.32	7353.96
463.50	7499.08
463.68	7679.30
463.86	7604.40
464.05	7562.27
464.23	7637.17
464.41	7630.15
464.59	7370.35
464.78	7712.07
464.96	7705.04
465.14	7742.49
465.32	7655.89
465.50	7920.37
465.69	7836.11
465.87	8035.06
466.05	7754.19
466.23	7866.54
466.41	7922.71
466.60	8182.51
466.78	7826.75
466.96	7831.43
467.14	7866.54
467.32	8116.98
467.51	8114.64
467.69	7831.43
467.87	8056.12
468.05	7911.01
468.23	8009.31
468.41	7992.93
468.60	7929.74
468.78	8397.84
468.96	8079.53
469.14	8264.43
469.32	8290.18
469.50	8329.97
469.69	8358.05
469.87	8395.50
470.05	8397.84
470.23	8486.78
470.41	8390.82
470.59	8571.04
470.77	8606.15
470.95	8662.32
471.14	8683.39
471.32	8521.89
471.50	8812.12
471.68	8798.07
471.86	8613.17
472.04	8685.73
472.22	9011.06
472.40	8872.97
472.58	8732.54
472.77	8898.72
472.95	8978.30
473.13	9067.24
473.31	8947.87
473.49	9060.21
473.67	8992.34
473.85	9233.41
474.03	9441.72
474.21	9207.67
474.39	9357.46
474.57	9345.76
474.75	9614.92
474.93	9467.47
475.12	9565.77
475.30	9692.16
475.48	9458.10
475.66	9713.22
475.84	9984.73
476.02	9930.89
476.20	9771.74
476.38	10054.94
476.56	10043.24
476.74	10225.80
476.92	10293.68
477.10	10040.90
477.28	10153.24
477.46	10422.41
477.64	10307.72
477.82	10396.66
478.00	10710.29
478.18	10672.84
478.36	10785.19
478.54	10916.26
478.72	10918.60
478.90	11007.54
479.08	11239.25
479.26	11211.17
479.44	11304.79
479.62	11407.77
479.80	11398.41
479.98	11403.09
480.16	11915.67
480.34	11782.26
480.52	11873.54
480.70	11901.62
480.88	11742.47
481.06	12016.31
481.24	11976.52
481.41	12149.72
481.59	12526.55
481.77	12292.49
481.95	12505.48
482.13	12685.70
482.31	12571.02
482.49	12634.21
482.67	13081.25
482.85	12828.48
483.03	13235.73
483.21	13202.96
483.39	13394.89
483.57	13291.90
483.74	13413.61
483.92	13542.34
484.10	13610.22
484.28	13834.91
484.46	13947.25
484.64	14382.59
484.82	14167.26
485.00	14019.81
485.18	14335.78
485.35	14541.75
485.53	14553.45
485.71	14445.79
485.89	14684.52
486.07	14771.12
486.25	14827.29
486.43	14988.79
486.61	15169.01
486.78	15452.22
486.96	15304.76
487.14	15515.41
487.32	15571.58
487.50	15807.98
487.68	15805.64
487.85	15913.30
488.03	16035.01
488.21	16346.30
488.39	16327.58
488.57	16486.73
488.75	16568.65
488.92	16798.02
489.10	16926.75
489.28	17053.14
489.46	17116.34
489.64	17163.15
489.81	17568.06
489.99	17277.83
490.17	17575.08
490.35	17507.21
490.53	17912.12
490.70	18113.41
490.88	18162.56
491.06	18382.57
491.24	18338.10
491.41	18284.26
491.59	18155.54
491.77	18363.84
491.95	18661.09
492.13	18845.99
492.30	19084.73
492.48	18909.19
492.66	19044.94
492.84	19295.38
493.01	19562.20
493.19	19414.74
493.37	19601.99
493.54	19618.37
493.72	20018.60
493.90	19702.63
494.08	20079.46
494.25	20084.14
494.43	20086.48
494.61	20194.14
494.79	20365.00
494.96	20526.50
495.14	20755.87
495.32	20809.70
495.49	20620.12
495.67	21099.93
495.85	20816.72
496.02	21050.78
496.20	21404.20
496.38	21422.92
496.55	21553.99
496.73	21919.12
496.91	21715.49
497.09	22059.55
497.26	22375.52
497.44	21774.00
497.62	22300.62
497.79	22616.60
497.97	22298.28
498.14	22799.16
498.32	22403.61
498.50	22955.97
498.67	22778.09
498.85	23000.44
499.03	23084.70
499.20	23154.92
499.38	23335.14
499.56	23288.33
499.73	23625.37
499.91	23580.90
500.08	23737.71
500.26	23604.30
500.44	23569.19
500.61	23941.34
500.79	23894.53
500.97	24271.36
501.14	24140.29
501.32	24254.97
501.49	24343.91
501.67	24566.26
501.84	24512.43
502.02	24322.85
502.20	24704.35
502.37	24748.82
502.55	24807.34
502.72	24776.91
502.90	24893.94
503.07	24856.49
503.25	25198.21
503.43	24992.24
503.60	24821.38
503.78	25378.43
503.95	25413.54
504.13	25535.24
504.30	25738.87
504.48	25652.27
504.65	25883.98
504.83	26019.74
505.01	25986.97
505.18	26120.38
505.36	26064.21
505.53	26047.82
505.71	26429.33
505.88	26375.50
506.06	26141.44
506.23	26506.57
506.41	26391.88
506.58	26579.12
506.76	26974.67
506.93	26824.88
507.11	26796.79
507.28	27040.21
507.46	27164.26
507.63	27335.12
507.81	27339.80
507.98	27122.13
508.16	27419.38
508.33	27744.71
508.50	27676.83
508.68	27711.94
508.85	28290.06
509.03	27667.47
509.20	28074.73
509.38	28332.18
509.55	28037.28
509.73	28154.30
509.90	28348.57
510.08	28374.31
510.25	28486.66
510.42	28542.83
510.60	28819.02
510.77	28870.51
510.95	28542.83
511.12	28992.22
511.30	29212.23
511.47	28959.45
511.64	28975.83
511.82	29027.32
511.99	29064.77
512.17	29200.52
512.34	29041.37
512.51	29603.10
512.69	29895.66
512.86	29764.59
513.04	29764.59
513.21	29844.17
513.38	30005.67
513.56	30057.16
513.73	29656.93
513.90	30036.09
514.08	30099.29
514.25	30237.38
514.43	30213.98
514.60	30286.53
514.77	30553.35
514.95	30670.38
515.12	30555.69
515.29	30745.28
515.47	30581.44
515.64	31285.94
515.81	30621.23
515.99	31171.25
516.16	31171.25
516.33	31054.23
516.51	31473.18
516.68	31065.93
516.85	31072.95
517.03	31206.36
517.20	31604.25
517.37	31456.80
517.54	31473.18
517.72	31435.74
517.89	31632.34
518.06	31576.17
518.24	31857.03
518.41	31910.86
518.58	32020.87
518.75	31805.54
518.93	31887.46
519.10	31882.78
519.27	32341.52
519.45	32257.26
519.62	32603.66
519.79	32273.65
519.96	32589.62
520.14	32566.21
520.31	32840.06
520.48	32294.71
520.65	32430.46
520.83	33141.99
521.00	33158.37
521.17	33369.02
521.34	32952.40
521.52	33036.66
521.69	33369.02
521.86	33280.08
522.03	33638.18
522.20	33481.36
522.38	33582.01
522.55	33736.48
522.72	33600.73
522.89	34022.03
523.07	34338.00
523.24	33954.15
523.41	33872.23
523.58	33919.04
523.75	34279.49
523.92	34160.12
524.10	34099.26
524.27	34125.01
524.44	34274.80
524.61	34220.97
524.78	34583.76
524.96	34649.29
525.13	34387.15
525.30	35058.88
525.47	34724.19
525.64	34831.85
525.81	34976.97
525.98	35035.48
526.16	34817.81
526.33	34932.50
526.50	34946.54
526.67	35168.89
526.84	35412.31
527.01	35211.02
527.18	35393.58
527.36	35358.47
527.53	35711.89
527.70	35709.55
527.87	35541.03
528.04	35501.25
528.21	35480.18
528.38	35800.83
528.55	36039.57
528.72	35686.15
528.89	35810.20
529.07	35716.58
529.24	35796.15
529.41	35922.54
529.58	36034.89
529.75	36201.07
529.92	36046.59
530.09	36018.50
530.26	36392.99
530.43	36519.38
530.60	35896.80
530.77	36100.42
530.94	36290.01
531.11	36332.14
531.28	36657.47
531.46	36287.67
531.63	36645.77
531.80	36594.28
531.97	36652.79
532.14	36460.87
532.31	36849.39
532.48	36996.85
532.65	37254.31
532.82	36751.09
532.99	37174.73
533.16	36797.90
533.33	37289.42
533.50	37233.24
533.67	37441.55
533.84	36802.58
534.01	37429.85
534.18	37038.98
534.35	38075.84
534.52	37904.98
534.69	37942.42
534.86	37504.74
535.03	37734.12
535.20	37713.05
535.37	37909.66
535.54	38197.54
535.71	37853.48
535.88	38171.80
536.05	38146.05
536.22	38417.55
536.38	38300.53
536.55	38359.04
536.72	38504.15
536.89	38623.52
537.06	37904.98
537.23	38490.11
537.40	38213.93
537.57	38773.31
537.74	38665.65
537.91	39042.48
538.08	38670.33
538.25	38696.08
538.42	38728.84
538.59	38869.28
538.75	38646.93
538.92	39063.54
539.09	38965.24
539.26	38930.13
539.43	38916.09
539.60	39346.75
539.77	39210.99
539.94	39295.25
540.11	39328.02
540.28	39456.75
540.44	39068.22
540.61	38810.76
540.78	38794.38
540.95	39662.72
541.12	39126.74
541.29	39632.29
541.46	39772.72
541.62	39533.99
541.79	39999.76
541.96	38937.15
542.13	39267.17
542.30	39545.69
542.47	39842.94
542.63	39459.09
542.80	39728.25
542.97	40163.59
543.14	40294.66
543.31	40287.64
543.48	39772.72
543.64	41251.94
543.81	40346.15
543.98	40631.70
544.15	40320.41
544.32	40896.18
544.48	40882.14
544.65	40456.16
544.82	41106.83
544.99	40432.75
545.16	40631.70
545.32	40774.47
545.49	40980.44
545.66	41045.97
545.83	40872.78
546.00	40985.12
546.16	41205.13
546.33	41020.23
546.50	40877.46
546.67	41404.08
546.83	40779.15
547.00	40971.08
547.17	40931.29
547.34	41010.87
547.50	41163.00
547.67	41698.98
547.84	41310.46
548.00	40917.25
548.17	41977.51
548.34	41546.85
548.51	41689.62
548.67	41736.43
548.84	41876.86
549.01	41303.43
549.18	41656.85
549.34	41392.37
549.51	42014.96
549.68	41626.43
549.84	41687.28
550.01	42197.52
550.18	41675.58
550.34	42143.69
550.51	41937.72
550.68	42010.28
550.84	41593.66
551.01	42492.43
551.18	41743.45
551.34	41888.57
551.51	42380.08
551.68	42277.10
551.84	42136.66
552.01	42047.72
552.18	42597.75
552.34	41675.58
552.51	42586.05
552.68	42550.94
552.84	42426.89
553.01	42464.34
553.18	42511.15
553.34	42567.32
553.51	42787.33
553.67	42618.81
553.84	42597.75
554.01	42717.12
554.17	42763.93
554.34	42986.28
554.51	42686.69
554.67	42960.53
554.84	43112.67
555.00	43005.00
555.17	42955.85
555.33	43126.71
555.50	43339.70
555.67	42852.87
555.83	43110.33
556.00	42880.95
556.16	43545.67
556.33	43377.15
556.50	43381.83
556.66	43061.18
556.83	42967.55
556.99	43353.74
557.16	43889.73
557.32	43709.50
557.49	43419.28
557.65	43093.94
557.82	43271.82
557.98	43517.58
558.15	43697.80
558.32	43248.42
558.48	43173.52
558.65	43526.94
558.81	43732.91
558.98	43508.22
559.14	43765.68
559.31	43445.02
559.47	43597.16
559.64	43648.65
559.80	43700.14
559.97	43681.42
560.13	43356.08
560.30	43756.32
560.46	43779.72
560.63	43901.43
560.79	44418.69
560.96	43969.30
561.12	43952.92
561.29	43871.00
561.45	44428.05
561.61	43641.63
561.78	44194.00
561.94	44177.61
562.11	44404.64
562.27	44311.02
562.44	44329.75
562.60	44287.62
562.77	44306.34
562.93	44067.61
563.10	44437.41
563.26	43976.33
563.42	44631.68
563.59	44144.84
563.75	44392.94
563.92	44013.77
564.08	44308.68
564.24	44502.95
564.41	44425.71
564.57	44278.25
564.74	44451.45
564.90	44339.11
565.07	44439.75
565.23	44385.92
565.39	44266.55
565.56	44612.95
565.72	44601.25
565.88	44329.75
566.05	44568.48
566.21	44706.57
566.38	44339.11
566.54	44472.52
566.70	44615.29
566.87	44751.04
567.03	44652.74
567.19	44767.43
567.36	45036.59
567.52	44741.68
567.68	44935.95
567.85	44732.32
568.01	44961.69
568.17	44802.53
568.34	44830.62
568.50	44154.21
568.66	44718.28
568.83	44720.62
568.99	44509.97
569.15	44687.85
569.32	44964.03
569.48	44601.25
569.64	45085.74
569.81	44701.89
569.97	45123.19
570.13	45373.63
570.30	44608.27
570.46	44898.50
570.62	44905.52
570.78	45303.41
570.95	45081.06
571.11	45155.96
571.27	44854.03
571.43	44889.13
571.60	44893.82
571.76	44968.71
571.92	44725.30
572.09	45158.30
572.25	44767.43
572.41	44765.09
572.57	45464.91
572.74	45303.41
572.90	45308.09
573.06	45195.74
573.22	45448.52
573.38	45581.93
573.55	45207.45
573.71	45574.91
573.87	45464.91
574.03	45350.22
574.20	45446.18
574.36	45064.67
574.52	45354.90
574.68	45804.28
574.84	45340.86
575.01	45914.29
575.17	45696.62
575.33	45294.05
575.49	45268.30
575.65	45507.04
575.82	45226.17
575.98	45158.30
576.14	45567.89
576.30	45893.22
576.46	45219.15
576.62	45181.70
576.79	45581.93
576.95	45249.58
577.11	45127.87
577.27	45734.07
577.43	45392.35
577.59	45614.70
577.75	45324.47
577.92	44814.24
578.08	45069.36
578.24	45633.42
578.40	45574.91
578.56	45497.67
578.72	45827.69
578.88	45530.44
579.04	45518.74
579.21	45294.05
579.37	45507.04
579.53	45757.47
579.69	45415.76
579.85	45329.16
580.01	45656.83
580.17	45141.91
580.33	45364.26
580.49	45619.38
580.65	45713.00
580.82	45696.62
580.98	45235.53
581.14	45184.04
581.30	45656.83
581.46	45567.89
581.62	45064.67
581.78	45158.30
581.94	45593.64
582.10	45626.40
582.26	45982.16
582.42	44975.73
582.58	45729.39
582.74	46012.59
582.90	45268.30
583.06	45984.51
583.22	45904.93
583.38	45558.53
583.54	45799.60
583.70	45221.49
583.86	45879.18
584.02	45336.18
584.18	46124.94
584.34	45876.84
584.50	45949.40
584.66	45956.42
584.82	45633.42
584.98	46117.92
585.14	46141.32
585.30	45572.57
585.46	45724.71
585.62	45928.33
585.78	45628.74
585.94	45640.45
586.10	45668.53
586.26	45549.17
586.42	45553.85
586.58	45799.60
586.74	46061.74
586.90	45474.27
587.06	45694.28
587.22	45617.04
587.38	45544.48
587.54	46033.66
587.70	45998.55
587.86	45874.50
588.02	46162.39
588.18	45984.51
588.34	46021.95
588.49	45972.80
588.65	45680.24
588.81	45792.58
588.97	45893.22
589.13	45603.00
589.29	45804.28
589.45	46253.67
589.61	46047.70
589.77	46045.36
589.93	45851.09
590.08	46188.13
