SpectraSuite Data File
++++++++++++++++++++++++++++++++++++
Date: Fri Oct 25 11:23:38 EDT 2013
User: price-jones
Dark Spectrum Present: No
Reference Spectrum Present: No
Number of Sampled Component Spectra: 1
Spectrometers: USB2+H05261
Integration Time (usec): 100000 (USB2+H05261)
Spectra Averaged: 1 (USB2+H05261)
Boxcar Smoothing: 0 (USB2+H05261)
Correct for Electrical Dark: No (USB2+H05261)
Strobe/Lamp Enabled: No (USB2+H05261)
Correct for Detector Non-linearity: No (USB2+H05261)
Correct for Stray Light: No (USB2+H05261)
Number of Pixels in Processed Spectrum: 2048
>>>>>Begin Processed Spectral Data<<<<<
365.73	259.80
365.92	259.80
366.12	259.80
366.32	175.54
366.52	140.43
366.72	147.45
366.91	180.22
367.11	23.41
367.31	107.66
367.51	191.92
367.70	121.71
367.90	65.54
368.10	56.17
368.30	177.88
368.49	161.50
368.69	147.45
368.89	161.50
369.09	114.69
369.28	110.01
369.48	121.71
369.68	152.13
369.87	205.97
370.07	170.86
370.27	163.84
370.47	372.15
370.66	580.45
370.86	620.24
371.06	587.47
371.25	685.78
371.45	578.11
371.65	702.16
371.84	692.80
372.04	634.29
372.24	641.31
372.44	683.44
372.63	746.63
372.83	767.70
373.03	678.76
373.22	798.12
373.42	763.01
373.62	706.84
373.81	746.63
374.01	833.23
374.21	779.40
374.40	844.93
374.60	779.40
374.79	784.08
374.99	814.51
375.19	840.25
375.38	882.38
375.58	809.83
375.78	830.89
375.97	938.55
376.17	851.96
376.37	933.87
376.56	847.27
376.76	849.61
376.95	854.30
377.15	826.21
377.35	884.72
377.54	966.64
377.74	938.55
377.93	917.49
378.13	861.32
378.33	957.28
378.52	912.81
378.72	999.41
378.91	894.08
379.11	898.77
379.31	1001.75
379.50	938.55
379.70	978.34
379.89	1020.47
380.09	926.85
380.28	966.64
380.48	994.73
380.68	994.73
380.87	957.28
381.07	1050.90
381.26	1018.13
381.46	1050.90
381.65	1001.75
381.85	1093.03
382.04	999.41
382.24	1034.52
382.43	1001.75
382.63	1107.07
382.83	1053.24
383.02	1135.16
383.22	1142.18
383.41	1076.65
383.61	1125.80
383.80	1139.84
384.00	1146.86
384.19	1146.86
384.39	1235.80
384.58	1139.84
384.78	1050.90
384.97	1170.27
385.17	1118.78
385.36	1146.86
385.56	1196.01
385.75	1132.82
385.95	1217.08
386.14	1205.38
386.34	1228.78
386.53	1210.06
386.72	1224.10
386.92	1228.78
387.11	1249.85
387.31	1210.06
387.50	1268.57
387.70	1284.95
387.89	1256.87
388.09	1228.78
388.28	1219.42
388.48	1163.25
388.67	1207.72
388.86	1373.89
389.06	1357.51
389.25	1409.00
389.45	1416.02
389.64	1341.13
389.84	1376.24
390.03	1317.72
390.22	1416.02
390.42	1376.24
390.61	1383.26
390.81	1357.51
391.00	1439.43
391.19	1497.94
391.39	1420.71
391.58	1479.22
391.78	1497.94
391.97	1427.73
392.16	1409.00
392.36	1551.78
392.55	1544.75
392.75	1465.18
392.94	1497.94
393.13	1591.56
393.33	1556.46
393.52	1535.39
393.71	1645.40
393.91	1598.59
394.10	1570.50
394.29	1610.29
394.49	1671.14
394.68	1577.52
394.88	1607.95
395.07	1746.04
395.26	1696.89
395.46	1572.84
395.65	1675.82
395.84	1788.17
396.04	1844.34
396.23	1762.42
396.42	1739.02
396.62	1774.13
396.81	1732.00
397.00	1776.47
397.19	1771.79
397.39	1823.28
397.58	1788.17
397.77	1764.76
397.97	1746.04
398.16	1811.57
398.35	1984.77
398.55	1790.51
398.74	1849.02
398.93	1877.11
399.12	1870.09
399.32	1952.01
399.51	1930.94
399.70	2012.86
399.90	2019.88
400.09	2134.57
400.28	2115.84
400.47	2099.46
400.67	2183.72
400.86	2054.99
401.05	2106.48
401.24	2083.08
401.44	2139.25
401.63	2092.44
401.82	2223.51
402.01	2146.27
402.21	2143.93
402.40	2230.53
402.59	2209.47
402.78	2174.36
402.97	2300.75
403.17	2321.81
403.36	2223.51
403.55	2214.15
403.74	2380.32
403.93	2258.62
404.13	2342.88
404.32	2385.01
404.51	2445.86
404.70	2422.45
404.89	2509.05
405.09	2478.63
405.28	2431.82
405.47	2349.90
405.66	2502.03
405.85	2537.14
406.05	2541.82
406.24	2626.08
406.43	2495.01
406.62	2644.81
406.81	2827.37
407.00	2583.95
407.20	2551.18
407.39	2689.28
407.58	2729.06
407.77	2715.02
407.96	2813.32
408.15	2815.66
408.34	2773.53
408.54	2806.30
408.73	2862.48
408.92	2815.66
409.11	2911.63
409.30	2796.94
409.49	2925.67
409.68	2979.50
409.87	2946.73
410.07	3026.31
410.26	3119.93
410.45	2960.78
410.64	3005.25
410.83	3108.23
411.02	3061.42
411.21	2991.20
411.40	3201.85
411.59	3286.11
411.78	3176.11
411.98	3162.06
412.17	3344.63
412.36	3283.77
412.55	3309.52
412.74	3412.50
412.93	3459.31
413.12	3370.37
413.31	3449.95
413.50	3389.10
413.69	3421.86
413.88	3660.60
414.07	3676.98
414.26	3599.74
414.45	3751.88
414.64	3655.92
414.83	3665.28
415.02	3716.77
415.22	3838.48
415.41	3791.67
415.60	3796.35
415.79	3803.37
415.98	3939.12
416.17	4086.58
416.36	3983.59
416.55	4011.68
416.74	4126.36
416.93	3941.46
417.12	4002.32
417.31	4142.75
417.50	4128.70
417.69	4311.27
417.88	4280.84
418.07	4168.49
418.26	4355.74
418.45	4318.29
418.64	4496.17
418.83	4379.14
419.02	4465.74
419.21	4732.56
419.39	4655.33
419.58	4489.15
419.77	4542.98
419.96	4573.41
420.15	4528.94
420.34	4643.62
420.53	4638.94
420.72	4741.93
420.91	4634.26
421.10	4676.39
421.29	4830.87
421.48	4676.39
421.67	4777.03
421.86	4730.22
422.05	4884.70
422.24	4884.70
422.43	4856.61
422.61	4936.19
422.80	5060.24
422.99	4814.48
423.18	4887.04
423.37	4980.66
423.56	4997.04
423.75	4940.87
423.94	4971.30
424.13	4603.83
424.32	4903.42
424.50	5015.77
424.69	5048.54
424.88	5018.11
425.07	4952.57
425.26	4889.38
425.45	4917.47
425.64	4952.57
425.83	5011.09
426.01	5088.32
426.20	5027.47
426.39	5074.28
426.58	5149.18
426.77	5053.22
426.96	5095.35
427.15	5144.50
427.33	5198.33
427.52	5233.44
427.71	5343.44
427.90	5191.31
428.09	5327.06
428.28	5324.72
428.46	5254.50
428.65	5301.31
428.84	5544.73
429.03	5544.73
429.22	5369.19
429.40	5467.49
429.59	5523.66
429.78	5338.76
429.97	5210.03
430.16	5458.13
430.34	5621.97
430.53	5680.48
430.72	5659.42
430.91	5643.03
431.10	5818.57
431.28	5858.36
431.47	5636.01
431.66	5823.25
431.85	5797.51
432.03	6026.88
432.22	5907.51
432.41	5781.12
432.60	5802.19
432.79	6026.88
432.97	5893.47
433.16	5968.37
433.35	5926.24
433.54	6193.06
433.72	6040.92
433.91	6019.86
434.10	6164.97
434.28	5982.41
434.47	6160.29
434.66	6333.49
434.85	6462.22
435.03	6392.00
435.22	6291.36
435.41	6567.54
435.59	6293.70
435.78	6317.11
435.97	6597.97
436.16	6420.09
436.34	6422.43
436.53	6389.66
436.72	6696.27
436.90	6480.94
437.09	6689.25
437.28	6387.32
437.46	6619.04
437.65	6677.55
437.84	6754.79
438.02	6752.45
438.21	6803.94
438.40	6581.59
438.58	6967.77
438.77	7129.27
438.96	7049.69
439.14	7030.97
439.33	7187.79
439.52	7222.89
439.70	7180.76
439.89	7246.30
440.08	7318.86
440.26	7351.62
440.45	7384.39
440.63	7440.56
440.82	7630.15
441.01	7407.80
441.19	7700.36
441.38	7864.20
441.57	7822.07
441.75	8025.70
441.94	7903.99
442.12	8056.12
442.31	8013.99
442.50	7999.95
442.68	8126.34
442.87	8095.91
443.05	8028.04
443.24	8362.73
443.43	8243.37
443.61	8292.52
443.80	8468.06
443.98	7999.95
444.17	7882.92
444.35	8187.19
444.54	8170.81
444.73	8402.52
444.91	8248.05
445.10	8294.86
445.28	8346.35
445.47	8418.91
445.65	8262.09
445.84	8332.31
446.02	8528.91
446.21	8355.71
446.39	8454.02
446.58	8624.87
446.77	8538.27
446.95	8262.09
447.14	8449.33
447.32	8636.58
447.51	8589.77
447.69	8575.72
447.88	8409.54
448.06	8432.95
448.25	8575.72
448.43	8697.43
448.62	8599.13
448.80	8552.32
448.99	8746.58
449.17	8699.77
449.36	8734.88
449.54	9004.04
449.73	8950.21
449.91	8854.25
450.10	8982.98
450.28	9018.08
450.46	8997.02
450.65	8947.87
450.83	9125.75
451.02	8982.98
451.20	9135.11
451.39	9259.16
451.57	9280.22
451.76	9170.22
451.94	9224.05
452.13	9350.44
452.31	9441.72
452.49	8985.32
452.68	9621.94
452.86	9432.36
453.05	9350.44
453.23	9558.75
453.42	9331.72
453.60	9413.63
453.78	9497.89
453.97	9465.13
454.15	9640.67
454.34	9659.39
454.52	9561.09
454.70	9825.57
454.89	9839.61
455.07	9757.69
455.26	9799.82
455.44	9996.43
455.62	10078.35
455.81	9748.33
455.99	9865.36
456.17	10169.63
456.36	10068.98
456.54	10073.67
456.73	10396.66
456.91	10368.57
457.09	10452.83
457.28	10525.39
457.46	10195.37
457.64	10637.73
457.83	10719.65
458.01	10469.22
458.19	10501.98
458.38	10607.31
458.56	10611.99
458.74	10623.69
458.93	10775.83
459.11	10602.63
459.29	10663.48
459.48	10927.96
459.66	10899.87
459.84	10881.15
460.03	10841.36
460.21	11119.89
460.39	11098.82
460.57	11122.23
460.76	11047.33
460.94	11281.38
461.12	11037.97
461.31	11133.93
461.49	11346.92
461.67	11316.49
461.85	11489.69
462.04	11323.51
462.22	11602.04
462.40	11735.45
462.59	11683.95
462.77	11356.28
462.95	11716.72
463.13	11644.17
463.32	11637.14
463.50	11906.31
463.68	11903.96
463.86	11892.26
464.05	11648.85
464.23	11639.48
464.41	11939.07
464.59	11667.57
464.78	12128.66
464.96	12105.25
465.14	11831.41
465.32	12058.44
465.50	12264.41
465.69	12374.41
465.87	11910.99
466.05	12219.94
466.23	12226.96
466.41	12386.12
466.60	12369.73
466.78	12217.60
466.96	12212.92
467.14	12154.40
467.32	12362.71
467.51	12634.21
467.69	12271.43
467.87	12400.16
468.05	12599.10
468.23	12205.89
468.41	12259.73
468.60	12713.79
468.78	12865.92
468.96	12514.84
469.14	12919.76
469.32	13020.40
469.50	12643.57
469.69	13130.41
469.87	13076.57
470.05	13064.87
470.23	13095.30
470.41	13270.84
470.59	13245.09
470.77	13212.32
470.95	13207.64
471.14	13642.98
471.32	13074.23
471.50	13722.56
471.68	13549.36
471.86	13657.03
472.04	13752.99
472.22	13898.10
472.40	13757.67
472.58	13858.31
472.77	13830.23
472.95	14181.31
473.13	14703.25
473.31	14113.43
473.49	14317.06
473.67	14106.41
473.85	14363.87
474.03	15016.88
474.21	14600.26
474.39	14860.06
474.57	14939.64
474.75	15077.73
474.93	15080.07
475.12	15119.86
475.30	15309.44
475.48	15124.54
475.66	15328.17
475.84	15262.63
476.02	15529.45
476.20	15349.23
476.38	15693.29
476.56	15812.66
476.74	15889.90
476.92	16123.95
477.10	16023.31
477.28	16283.11
477.46	16257.36
477.64	16346.30
477.82	16428.22
478.00	17097.61
478.18	16868.24
478.36	16936.12
478.54	17149.11
478.72	17240.39
478.90	17322.30
479.08	17584.44
479.26	17823.18
479.44	17600.83
479.62	17790.41
479.80	18111.07
479.98	18253.84
480.16	18572.15
480.34	18253.84
480.52	18672.79
480.70	18445.76
480.88	18267.88
481.06	18590.88
481.24	18604.92
481.41	19040.26
481.59	19304.74
481.77	19454.53
481.95	19513.05
482.13	20074.77
482.31	19620.71
482.49	20299.47
482.67	20236.27
482.85	20453.94
483.03	20716.08
483.21	21050.78
483.39	20964.18
483.57	21163.12
483.74	21343.35
483.92	21474.42
484.10	21158.44
484.28	21708.47
484.46	21998.70
484.64	22434.03
484.82	22015.08
485.00	22492.55
485.18	22899.80
485.35	23026.19
485.53	23103.43
485.71	23096.41
485.89	23466.21
486.07	23424.08
486.25	23445.15
486.43	23653.45
486.61	23992.83
486.78	23997.51
486.96	24528.81
487.14	24545.20
487.32	24734.78
487.50	24812.02
487.68	25022.67
487.85	25582.06
488.03	25287.15
488.21	25998.67
488.39	25759.94
488.57	26286.56
488.75	26352.09
488.92	26309.96
489.10	27023.83
489.28	26789.77
489.46	27129.15
489.64	27005.10
489.81	27681.52
489.99	27349.16
490.17	27723.65
490.35	28238.56
490.53	28360.27
490.70	28287.71
490.88	28238.56
491.06	28994.56
491.24	29137.33
491.41	29151.37
491.59	29116.26
491.77	28961.79
491.95	29869.92
492.13	29809.06
492.30	30005.67
492.48	30071.20
492.66	30221.00
492.84	30490.16
493.01	30473.78
493.19	30380.15
493.37	31164.23
493.54	31316.37
493.72	31421.69
493.90	31398.29
494.08	31665.11
494.25	32561.53
494.43	32130.87
494.61	32453.87
494.79	32708.99
494.96	32730.05
495.14	32891.55
495.32	33174.75
495.49	33532.86
495.67	33577.33
495.85	33563.28
496.02	33867.55
496.20	34136.71
496.38	34085.22
496.55	34015.01
496.73	35108.04
496.91	34586.10
497.09	34824.83
497.26	34993.35
497.44	35409.96
497.62	35056.54
497.79	36142.55
497.97	35679.13
498.14	35957.65
498.32	36299.37
498.50	36002.12
498.67	36643.43
498.85	36240.86
499.03	37029.62
499.20	36720.66
499.38	36959.40
499.56	36870.46
499.73	37759.86
499.91	37542.19
500.08	37860.51
500.26	37415.80
500.44	38017.32
500.61	37574.96
500.79	37865.19
500.97	38337.98
501.14	38213.93
501.32	38794.38
501.49	38536.92
501.67	38932.47
501.84	39108.01
502.02	38754.59
502.20	39274.19
502.37	39124.40
502.55	39239.08
502.72	39454.41
502.90	39323.34
503.07	39459.09
503.25	39856.98
503.43	39892.09
503.60	40289.98
503.78	39835.92
503.95	40371.90
504.13	40470.20
504.30	40676.17
504.48	40491.27
504.65	40896.18
504.83	41324.50
505.01	40966.40
505.18	41137.26
505.36	41497.70
505.53	40994.48
505.71	41818.35
505.88	41869.84
506.06	41759.84
506.23	41897.93
506.41	41830.05
506.58	42302.84
506.76	42443.27
506.93	43122.03
507.11	42089.85
507.28	42895.00
507.46	42649.24
507.63	42829.46
507.81	43487.15
507.98	43250.76
508.16	43512.90
508.33	43641.63
508.50	43763.34
508.68	43948.24
508.85	44088.67
509.03	43894.41
509.20	44418.69
509.38	44519.33
509.55	44554.44
509.73	44652.74
509.90	44566.14
510.08	43983.35
510.25	44596.57
510.42	44994.46
510.60	44811.90
510.77	45450.86
510.95	45343.20
511.12	45088.08
511.30	45134.89
511.47	45455.54
511.64	45462.57
511.82	45879.18
511.99	45893.22
512.17	45935.35
512.34	45977.48
512.51	46611.77
512.69	46529.85
512.86	46548.57
513.04	46880.93
513.21	47056.47
513.38	46707.73
513.56	47239.03
513.73	47119.66
513.90	47512.88
514.08	47192.22
514.25	47349.04
514.43	47482.45
514.60	47274.14
514.77	47746.93
514.95	47978.64
515.12	47573.73
515.29	48142.48
515.47	48151.84
515.64	48170.57
515.81	48247.80
515.99	48280.57
516.16	48257.17
516.33	48713.57
516.51	48800.17
516.68	48388.24
516.85	48545.05
517.03	49200.40
517.20	48706.55
517.37	49167.63
517.54	48940.60
517.72	49090.40
517.89	49291.68
518.06	49265.94
518.24	49399.35
518.41	49570.21
518.58	49490.63
518.75	49322.11
518.93	49532.76
519.10	49581.91
519.27	49844.05
519.45	49691.91
519.62	50174.06
519.79	50017.25
519.96	49776.17
520.14	50223.22
520.31	50000.86
520.48	50447.91
520.65	50202.15
520.83	50574.30
521.00	50967.51
521.17	50499.40
521.34	50719.41
521.52	50918.35
521.69	51131.34
521.86	51107.94
522.03	51164.11
522.20	51662.64
522.38	51337.31
522.55	51391.14
522.72	51599.45
522.89	51276.46
523.07	51760.95
523.24	51639.24
523.41	51767.97
523.58	51875.63
523.75	52196.29
523.92	51882.66
524.10	52046.49
524.27	52189.27
524.44	51995.00
524.61	52072.24
524.78	52156.50
524.96	52493.54
525.13	52739.29
525.30	52793.12
525.47	52395.23
525.64	52743.97
525.81	52690.14
525.98	52765.04
526.16	52638.65
526.33	52708.86
526.50	53015.47
526.67	52638.65
526.84	52743.97
527.01	52575.45
527.18	53024.84
527.36	53263.57
527.53	52870.36
527.70	53336.13
527.87	53326.77
528.04	53378.26
528.21	53495.28
528.38	53495.28
528.55	53787.85
528.72	53504.65
528.89	53572.52
529.07	53661.46
529.24	53354.85
529.41	54026.59
529.58	53759.76
529.75	53661.46
529.92	53844.02
530.09	53886.15
530.26	54049.99
530.43	54115.53
530.60	53925.94
530.77	54035.95
530.94	54115.53
531.11	54195.10
531.28	54089.78
531.46	54333.20
531.63	54377.67
531.80	54396.39
531.97	54644.49
532.14	54588.31
532.31	54578.95
532.48	54700.66
532.65	54670.23
532.82	54705.34
532.99	54663.21
533.16	54602.36
533.33	54611.72
533.50	55023.65
533.67	54892.58
533.84	54548.53
534.01	54918.33
534.18	55196.85
534.35	55246.00
534.52	55000.25
534.69	55395.80
534.86	55348.99
535.03	55402.82
535.20	55145.36
535.37	55126.64
535.54	55774.97
535.71	55267.07
535.88	55618.15
536.05	55732.84
536.22	55868.59
536.38	55796.03
536.55	55377.08
536.72	55767.94
536.89	55590.06
537.06	55674.32
537.23	56006.68
537.40	55634.53
537.57	55906.04
537.74	55868.59
537.91	56168.18
538.08	55966.89
538.25	55695.39
538.42	56058.17
538.59	56116.68
538.75	55781.99
538.92	56037.11
539.09	56207.97
539.26	56292.22
539.43	56058.17
539.60	56444.36
539.77	56193.92
539.94	56346.06
540.11	56437.34
540.28	56514.58
540.44	56383.51
540.61	56435.00
540.78	56587.13
540.95	56357.76
541.12	56568.41
541.29	56580.11
541.46	56467.76
541.62	56444.36
541.79	56680.75
541.96	56446.70
542.13	56563.73
542.30	56743.95
542.47	56837.57
542.63	56783.74
542.80	57059.92
542.97	57045.88
543.14	57499.94
543.31	57048.22
543.48	57183.97
543.64	57483.56
543.81	57378.23
543.98	57382.91
544.15	57481.22
544.32	57492.92
544.48	57635.69
544.65	57521.01
544.82	57284.61
544.99	57485.90
545.16	57448.45
545.32	57544.41
545.49	57743.36
545.66	57996.13
545.83	57453.13
546.00	57858.04
546.16	57565.48
546.33	57712.93
546.50	57560.79
546.67	57565.48
546.83	57537.39
547.00	57773.78
547.17	57820.59
547.34	57846.34
547.50	57984.43
547.67	58181.04
547.84	58237.21
548.00	58085.07
548.17	58365.94
548.34	58061.67
548.51	58394.03
548.67	58234.87
548.84	58316.79
549.01	58204.44
549.18	58408.07
549.34	58588.29
549.51	58433.81
549.68	58710.00
549.84	58169.33
550.01	58487.65
550.18	58506.37
550.34	58702.98
550.51	58365.94
550.68	58583.61
550.84	58424.45
551.01	58553.18
551.18	58607.01
551.34	58609.35
551.51	58550.84
551.68	58824.68
551.84	58319.13
552.01	58438.50
552.18	58836.39
552.34	58447.86
552.51	58742.77
552.68	58583.61
552.84	58691.27
553.01	59032.99
553.18	58960.44
553.34	59082.14
553.51	58686.59
553.67	58803.62
553.84	59135.98
554.01	59143.00
554.17	59131.29
554.34	59042.35
554.51	59035.33
554.67	59098.53
554.84	58948.73
555.00	59229.60
555.17	59089.16
555.33	59023.63
555.50	59054.06
555.67	59082.14
555.83	58932.35
556.00	59128.95
556.16	59363.01
556.33	59128.95
556.50	59269.39
556.66	59437.90
556.83	59150.02
556.99	59435.56
557.16	59620.47
557.32	59416.84
557.49	59615.79
557.65	59559.61
557.82	59351.30
557.98	59269.39
558.15	59458.97
558.32	59412.16
558.48	59634.51
558.65	59444.93
558.81	59461.31
558.98	59681.32
559.14	59887.29
559.31	59709.41
559.47	59498.76
559.64	59817.07
559.80	59796.01
559.97	59854.52
560.13	59620.47
560.30	59831.11
560.46	59709.41
560.63	59826.43
560.79	59620.47
560.96	59959.84
561.12	59788.98
561.29	59948.14
561.45	59969.21
561.61	60044.10
561.78	59700.04
561.94	60046.44
562.11	59847.50
562.27	59849.84
562.44	59842.82
562.60	60016.02
562.77	60079.21
562.93	59898.99
563.10	60072.19
563.26	59725.79
563.42	60212.62
563.59	60135.38
563.75	59826.43
563.92	60114.32
564.08	60205.60
564.24	60111.98
564.41	60025.38
564.57	60327.31
564.74	60247.73
564.90	60013.68
565.07	60109.64
565.23	60278.16
565.39	60135.38
565.56	60434.97
565.72	60196.24
565.88	60203.26
566.05	60210.28
566.21	60371.78
566.38	60364.76
566.54	60177.51
566.70	60189.22
566.87	60360.08
567.03	60030.06
567.19	60554.34
567.36	60348.37
567.52	60224.32
567.68	60666.69
567.85	60441.99
568.01	60413.91
568.17	60348.37
568.34	60278.16
568.50	60458.38
568.66	60343.69
568.83	60449.02
568.99	60273.48
569.15	60299.22
569.32	60430.29
569.48	60399.86
569.64	60437.31
569.81	60441.99
569.97	60495.83
570.13	60463.06
570.30	60371.78
570.46	60591.79
570.62	60601.15
570.78	60449.02
570.95	60491.15
571.11	60753.29
571.27	60570.72
571.43	60797.76
571.60	60886.70
571.76	60701.79
571.92	60795.42
572.09	60858.61
572.25	60697.11
572.41	60542.64
572.57	60753.29
572.74	60865.63
572.90	60767.33
573.06	60584.77
573.22	60741.58
573.38	60832.86
573.55	60842.23
573.71	60692.43
573.87	60764.99
574.03	60556.68
574.20	60947.55
574.36	60842.23
574.52	60877.33
574.68	60966.27
574.84	60863.29
575.01	60783.71
575.17	60910.10
575.33	60797.76
575.49	60647.96
575.65	60886.70
575.82	60818.82
575.98	60807.12
576.14	61092.66
576.30	61134.79
576.46	60694.77
576.62	60804.78
576.79	60626.90
576.95	60837.54
577.11	60921.80
577.27	60921.80
577.43	60814.14
577.59	60781.37
577.75	60910.10
577.92	60736.90
578.08	60781.37
578.24	60907.76
578.40	60985.00
578.56	61125.43
578.72	60886.70
578.88	61062.24
579.04	61085.64
579.21	60865.63
579.37	60975.64
579.53	61080.96
579.69	60891.38
579.85	60940.53
580.01	60884.36
580.17	60963.93
580.33	60959.25
580.49	60963.93
580.65	60959.25
580.82	60921.80
580.98	60963.93
581.14	60680.73
581.30	61024.79
581.46	61041.17
581.62	60973.30
581.78	60977.98
581.94	61069.26
582.10	60949.89
582.26	61153.52
582.42	61003.72
582.58	60926.49
582.74	60961.59
582.90	60884.36
583.06	60886.70
583.22	60795.42
583.38	61031.81
583.54	61043.51
583.70	61073.94
583.86	60968.61
584.02	60867.97
584.18	61050.53
584.34	60954.57
584.50	61078.62
584.66	61111.39
584.82	60767.33
584.98	61069.26
585.14	61034.15
585.30	60975.64
585.46	61085.64
585.62	61160.54
585.78	61050.53
585.94	61041.17
586.10	61162.88
586.26	61132.45
586.42	61174.58
586.58	61188.63
586.74	61123.09
586.90	61055.21
587.06	60982.66
587.22	61109.05
587.38	60896.06
587.54	61212.03
587.70	61333.74
587.86	60935.85
588.02	60987.34
588.18	61553.75
588.34	61024.79
588.49	61123.09
