SpectraSuite Data File
++++++++++++++++++++++++++++++++++++
Date: Fri Oct 25 10:44:27 EDT 2013
User: price-jones
Dark Spectrum Present: No
Reference Spectrum Present: No
Number of Sampled Component Spectra: 1
Spectrometers: USB2+H05261
Integration Time (usec): 100000 (USB2+H05261)
Spectra Averaged: 1 (USB2+H05261)
Boxcar Smoothing: 0 (USB2+H05261)
Correct for Electrical Dark: No (USB2+H05261)
Strobe/Lamp Enabled: No (USB2+H05261)
Correct for Detector Non-linearity: No (USB2+H05261)
Correct for Stray Light: No (USB2+H05261)
Number of Pixels in Processed Spectrum: 2048
>>>>>Begin Processed Spectral Data<<<<<
365.73	91.28
365.92	91.28
366.12	91.28
366.32	114.69
366.52	16.38
366.72	25.75
366.91	0.00
367.11	0.00
367.31	28.09
367.51	25.75
367.70	51.49
367.90	0.00
368.10	0.00
368.30	37.45
368.49	11.70
368.69	2.34
368.89	11.70
369.09	35.11
369.28	14.04
369.48	65.54
369.68	11.70
369.87	84.26
370.07	100.64
370.27	145.11
370.47	222.35
370.66	414.27
370.86	367.46
371.06	512.58
371.25	517.26
371.45	411.93
371.65	397.89
371.84	444.70
372.04	421.30
372.24	472.79
372.44	547.69
372.63	482.15
372.83	594.50
373.03	547.69
373.22	491.51
373.42	496.19
373.62	521.94
373.81	526.62
374.01	538.32
374.21	533.64
374.40	543.00
374.60	528.96
374.79	573.43
374.99	615.56
375.19	575.77
375.38	641.31
375.58	634.29
375.78	669.39
375.97	631.94
376.17	629.60
376.37	627.26
376.56	613.22
376.76	648.33
376.95	648.33
377.15	617.90
377.35	702.16
377.54	681.10
377.74	685.78
377.93	690.46
378.13	620.24
378.33	683.44
378.52	613.22
378.72	657.69
378.91	667.05
379.11	664.71
379.31	674.07
379.50	688.12
379.70	753.65
379.89	709.18
380.09	582.79
380.28	624.92
380.48	734.93
380.68	784.08
380.87	732.59
381.07	669.39
381.26	713.86
381.46	751.31
381.65	765.36
381.85	671.73
382.04	688.12
382.24	760.67
382.43	765.36
382.63	688.12
382.83	758.33
383.02	706.84
383.22	784.08
383.41	678.76
383.61	767.70
383.80	758.33
384.00	748.97
384.19	837.91
384.39	765.36
384.58	854.30
384.78	854.30
384.97	823.87
385.17	861.32
385.36	837.91
385.56	741.95
385.75	844.93
385.95	837.91
386.14	847.27
386.34	866.00
386.53	901.11
386.72	774.72
386.92	950.26
387.11	795.78
387.31	887.06
387.50	798.12
387.70	830.89
387.89	863.66
388.09	837.91
388.28	926.85
388.48	954.94
388.67	945.58
388.86	983.02
389.06	957.28
389.25	1086.01
389.45	922.17
389.64	954.94
389.84	1022.81
390.03	1036.86
390.22	1022.81
390.42	1008.77
390.61	976.00
390.81	1067.28
391.00	1048.56
391.19	1048.56
391.39	1006.43
391.58	1104.73
391.78	1062.60
391.97	1036.86
392.16	1062.60
392.36	1057.92
392.55	1027.50
392.75	983.02
392.94	1034.52
393.13	1048.56
393.33	1121.12
393.52	1036.86
393.71	1078.99
393.91	1128.14
394.10	1200.69
394.29	1163.25
394.49	1198.35
394.68	1263.89
394.88	1219.42
395.07	1270.91
395.26	1275.59
395.46	1139.84
395.65	1341.13
395.84	1188.99
396.04	1343.47
396.23	1116.44
396.42	1235.80
396.62	1270.91
396.81	1214.74
397.00	1296.66
397.19	1313.04
397.39	1355.17
397.58	1406.66
397.77	1441.77
397.97	1371.55
398.16	1401.98
398.35	1514.33
398.55	1521.35
398.74	1617.31
398.93	1575.18
399.12	1476.88
399.32	1544.75
399.51	1554.12
399.70	1572.84
399.90	1519.01
400.09	1624.33
400.28	1687.53
400.47	1605.61
400.67	1575.18
400.86	1666.46
401.05	1671.14
401.24	1736.68
401.44	1710.93
401.63	1755.40
401.82	1739.02
402.01	1659.44
402.21	1909.88
402.40	1710.93
402.59	1703.91
402.78	1671.14
402.97	1767.10
403.17	1874.77
403.36	1853.70
403.55	1930.94
403.74	1975.41
403.93	1865.41
404.13	1909.88
404.32	1870.09
404.51	1987.11
404.70	1912.22
404.89	1914.56
405.09	1996.48
405.28	2019.88
405.47	1952.01
405.66	2104.14
405.85	1937.96
406.05	2047.97
406.24	2033.93
406.43	2078.40
406.62	2141.59
406.81	2101.80
407.00	2017.54
407.20	2043.29
407.39	2092.44
407.58	2200.10
407.77	2258.62
407.96	2277.34
408.15	2190.74
408.34	2265.64
408.54	2289.04
408.73	2328.83
408.92	2399.05
409.11	2314.79
409.30	2352.24
409.49	2303.09
409.68	2253.94
409.87	2303.09
410.07	2256.28
410.26	2438.84
410.45	2469.27
410.64	2502.03
410.83	2586.29
411.02	2630.76
411.21	2705.66
411.40	2654.17
411.59	2583.95
411.78	2612.04
411.98	2642.46
412.17	2693.96
412.36	2726.72
412.55	2696.30
412.74	2773.53
412.93	2850.77
413.12	2764.17
413.31	2892.90
413.50	2864.82
413.69	2892.90
413.88	3012.27
414.07	2860.13
414.26	2939.71
414.45	3023.97
414.64	3016.95
414.83	3126.96
415.02	3068.44
415.22	3063.76
415.41	3150.36
415.60	3164.40
415.79	3309.52
415.98	3393.78
416.17	3330.58
416.36	3339.94
416.55	3361.01
416.74	3297.81
416.93	3412.50
417.12	3274.41
417.31	3466.33
417.50	3363.35
417.69	3438.25
417.88	3454.63
418.07	3368.03
418.26	3389.10
418.45	3541.23
418.64	3503.78
418.83	3590.38
419.02	3604.42
419.21	3646.55
419.39	3559.95
419.58	3550.59
419.77	3585.70
419.96	3779.97
420.15	3824.44
420.34	3672.30
420.53	3896.99
420.72	3815.07
420.91	3782.31
421.10	3871.25
421.29	3971.89
421.48	3836.14
421.67	4014.02
421.86	3925.08
422.05	3812.73
422.24	3688.68
422.43	3798.69
422.61	3889.97
422.80	3985.93
422.99	3960.19
423.18	4037.42
423.37	3997.64
423.56	4018.70
423.75	3941.46
423.94	4042.11
424.13	3857.20
424.32	3726.13
424.50	3988.27
424.69	3960.19
424.88	4058.49
425.07	4084.23
425.26	3953.16
425.45	3838.48
425.64	3957.85
425.83	4056.15
426.01	4114.66
426.20	4056.15
426.39	4044.45
426.58	4035.08
426.77	3969.55
426.96	4021.04
427.15	4035.08
427.33	4091.26
427.52	4021.04
427.71	4145.09
427.90	4215.30
428.09	4154.45
428.28	4215.30
428.46	4168.49
428.65	4128.70
428.84	4332.33
429.03	4411.91
429.22	4191.90
429.40	4126.36
429.59	4198.92
429.78	3908.69
429.97	4109.98
430.16	4030.40
430.34	4198.92
430.53	4077.21
430.72	4329.99
430.91	4133.39
431.10	4299.56
431.28	4587.45
431.47	4805.12
431.66	4821.50
431.85	4624.90
432.03	4732.56
432.22	4678.73
432.41	4634.26
432.60	4770.01
432.79	4753.63
432.97	4868.31
433.16	4961.94
433.35	4650.64
433.54	4631.92
433.72	4819.16
433.91	4704.48
434.10	4835.55
434.28	4784.06
434.47	4947.89
434.66	5083.64
434.85	4938.53
435.03	5081.30
435.22	5001.72
435.41	5181.95
435.59	5233.44
435.78	5261.52
435.97	5158.54
436.16	5121.09
436.34	5018.11
436.53	5188.97
436.72	5252.16
436.90	5100.03
437.09	5174.92
437.28	5172.58
437.46	5322.38
437.65	5334.08
437.84	5221.74
438.02	5341.10
438.21	5036.83
438.40	5198.33
438.58	5322.38
438.77	5465.15
438.96	5320.04
439.14	5706.23
439.33	5657.07
439.52	5570.48
439.70	5561.11
439.89	5706.23
440.08	5753.04
440.26	5858.36
440.45	5715.59
440.63	5919.21
440.82	6106.46
441.01	6174.33
441.19	6111.14
441.38	6012.84
441.57	6160.29
441.75	6078.37
441.94	6384.98
442.12	6277.32
442.31	6368.60
442.50	6541.80
442.68	6366.26
442.87	6406.05
443.05	6403.71
443.24	6663.51
443.43	6441.15
443.61	6560.52
443.80	6813.30
443.98	6492.65
444.17	6429.45
444.35	6799.26
444.54	6640.10
444.73	6698.61
444.91	6628.40
445.10	6604.99
445.28	6483.28
445.47	6530.09
445.65	6422.43
445.84	6569.88
446.02	6705.63
446.21	6607.33
446.39	6637.76
446.58	6710.32
446.77	6843.73
446.95	6569.88
447.14	6745.42
447.32	6913.94
447.51	6754.79
447.69	6717.34
447.88	6684.57
448.06	6822.66
448.25	6773.51
448.43	6897.56
448.62	6778.19
448.80	6890.54
448.99	6799.26
449.17	7119.91
449.36	6691.59
449.54	7059.06
449.73	7136.29
449.91	7082.46
450.10	7183.10
450.28	7375.03
450.46	7335.24
450.65	7229.91
450.83	7255.66
451.02	7407.80
451.20	7459.29
451.39	7304.81
451.57	7241.62
451.76	7386.73
451.94	7140.97
452.13	7480.35
452.31	7293.11
452.49	7227.57
452.68	7349.28
452.86	7227.57
453.05	7370.35
453.23	7449.93
453.42	7492.05
453.60	7297.79
453.78	7688.66
453.97	7644.19
454.15	7417.16
454.34	7630.15
454.52	7693.34
454.70	7667.60
454.89	7597.38
455.07	7726.11
455.26	7634.83
455.44	7852.50
455.62	7756.54
455.81	7859.52
455.99	8002.29
456.17	7925.05
456.36	7812.71
456.54	7955.48
456.73	8168.47
456.91	8400.18
457.09	8245.71
457.28	8344.01
457.46	8264.43
457.64	8189.53
457.83	8248.05
458.01	8219.96
458.19	8390.82
458.38	8131.02
458.56	8283.16
458.74	8187.19
458.93	8320.60
459.11	8416.57
459.29	8421.25
459.48	8624.87
459.66	8416.57
459.84	8400.18
460.03	8575.72
460.21	8489.12
460.39	8704.45
460.57	8645.94
460.76	8674.03
460.94	8830.84
461.12	8732.54
461.31	8713.81
461.49	8802.75
461.67	8784.03
461.85	9046.17
462.04	8819.14
462.22	9118.73
462.40	9104.68
462.59	8990.00
462.77	9036.81
462.95	9100.00
463.13	8910.42
463.32	9095.32
463.50	9004.04
463.68	8987.66
463.86	9167.88
464.05	8950.21
464.23	8990.00
464.41	9139.79
464.59	8945.53
464.78	9540.02
464.96	9298.95
465.14	9184.26
465.32	9233.41
465.50	9481.51
465.69	9359.80
465.87	9455.76
466.05	9289.59
466.23	9345.76
466.41	9390.23
466.60	9633.64
466.78	9275.54
466.96	9294.27
467.14	9217.03
467.32	9736.63
467.51	9584.49
467.69	9231.07
467.87	9427.68
468.05	9715.56
468.23	9568.11
468.41	9589.17
468.60	9621.94
468.78	9687.48
468.96	9654.71
469.14	9811.53
469.32	9696.84
469.50	9579.81
469.69	9987.07
469.87	9970.68
470.05	9797.48
470.23	9975.36
470.41	9912.17
470.59	10174.31
470.77	10031.54
470.95	10099.41
471.14	10153.24
471.32	10066.64
471.50	10480.92
471.68	10321.76
471.86	10576.88
472.04	10668.16
472.22	10654.12
472.40	10359.21
472.58	10537.09
472.77	10764.12
472.95	10740.72
473.13	10995.84
473.31	10679.86
473.49	10799.23
473.67	10918.60
473.85	10813.28
474.03	10993.50
474.21	11272.02
474.39	11169.04
474.57	11152.65
474.75	11136.27
474.93	11576.29
475.12	11241.59
475.30	11456.92
475.48	11534.16
475.66	11449.90
475.84	11613.74
476.02	11632.46
476.20	11304.79
476.38	11742.47
476.56	12063.12
476.74	11880.56
476.92	12056.10
477.10	11962.48
477.28	12102.91
477.46	12091.21
477.64	12252.70
477.82	12519.53
478.00	12793.37
478.18	12615.49
478.36	12781.67
478.54	12776.98
478.72	12809.75
478.90	12896.35
479.08	13219.35
479.26	13373.82
479.44	13558.72
479.62	13345.73
479.80	13451.06
479.98	13418.29
480.16	13886.40
480.34	13551.70
480.52	13937.89
480.70	14176.62
480.88	13834.91
481.06	13996.40
481.24	14162.58
481.41	14335.78
481.59	14654.09
481.77	14572.18
481.95	14689.20
482.13	14984.11
482.31	14808.57
482.49	15262.63
482.67	14977.09
482.85	15040.28
483.03	15461.58
483.21	15606.69
483.39	15653.50
483.57	15583.29
483.74	15815.00
483.92	15917.98
484.10	15697.97
484.28	16210.55
484.46	16226.93
484.64	16716.11
484.82	16276.09
485.00	16652.91
485.18	16629.51
485.35	16767.60
485.53	16259.70
485.71	16301.83
485.89	16744.19
486.07	16559.29
486.25	17057.82
486.43	16947.82
486.61	17109.32
486.78	17209.96
486.96	17797.43
487.14	18029.15
487.32	17949.57
487.50	18026.81
487.68	18548.75
487.85	18602.58
488.03	18745.35
488.21	18890.46
488.39	18677.48
488.57	18714.92
488.75	19110.47
488.92	19274.31
489.10	19903.92
489.28	19564.54
489.46	20142.65
489.64	20002.22
489.81	20381.38
489.99	20453.94
490.17	20266.70
490.35	20573.31
490.53	20486.71
490.70	21010.99
490.88	20631.82
491.06	21186.53
491.24	20999.29
491.41	21003.97
491.59	20807.36
491.77	20985.24
491.95	21476.76
492.13	21605.49
492.30	21970.61
492.48	21853.58
492.66	21949.54
492.84	22003.38
493.01	22532.34
493.19	22445.74
493.37	22965.34
493.54	22441.06
493.72	22712.56
493.90	23101.09
494.08	23321.10
494.25	23346.84
494.43	23349.18
494.61	23604.30
494.79	23566.85
494.96	23601.96
495.14	23616.01
495.32	24046.66
495.49	23857.08
495.67	24205.82
495.85	24416.47
496.02	24781.59
496.20	24849.47
496.38	24577.97
496.55	24790.95
496.73	25600.78
496.91	25055.43
497.09	25680.36
497.26	25413.54
497.44	25551.63
497.62	25450.99
497.79	25673.34
497.97	25736.53
498.14	25607.80
498.32	26003.35
498.50	26061.87
498.67	26239.75
498.85	26204.64
499.03	26628.27
499.20	26534.65
499.38	26621.25
499.56	26738.28
499.73	26693.81
499.91	26654.02
500.08	26941.91
500.26	26565.08
500.44	27145.53
500.61	27091.70
500.79	26977.01
500.97	26977.01
501.14	27611.30
501.32	27257.88
501.49	27323.41
501.67	27564.49
501.84	27903.87
502.02	27754.07
502.20	27999.83
502.37	28063.02
502.55	28283.03
502.72	28144.94
502.90	28318.14
503.07	28491.34
503.25	28247.93
503.43	28357.93
503.60	28423.47
503.78	28409.42
503.95	28713.69
504.13	28694.97
504.30	29266.06
504.48	28723.05
504.65	29120.95
504.83	29352.66
505.01	29785.66
505.18	29937.79
505.36	30183.55
505.53	29900.34
505.71	30213.98
505.88	30211.64
506.06	29958.86
506.23	30085.25
506.41	29862.90
506.58	30164.82
506.76	30401.22
506.93	30476.12
507.11	30384.83
507.28	30429.30
507.46	30445.69
507.63	30438.67
507.81	30621.23
507.98	30305.26
508.16	30778.04
508.33	31145.51
508.50	31426.37
508.68	31412.33
508.85	31681.49
509.03	31615.96
509.20	31662.77
509.38	31784.48
509.55	31328.07
509.73	31622.98
509.90	31796.18
510.08	31892.14
510.25	31861.71
510.42	31847.67
510.60	31838.31
510.77	32315.78
510.95	32425.78
511.12	32058.32
511.30	32453.87
511.47	32664.52
511.64	32910.27
511.82	32854.10
511.99	32470.25
512.17	32325.14
512.34	32610.68
512.51	32545.15
512.69	33076.45
512.86	33235.61
513.04	33677.97
513.21	33362.00
513.38	33481.36
513.56	32907.93
513.73	33139.65
513.90	33427.53
514.08	33490.73
514.25	33572.64
514.43	33949.47
514.60	33406.47
514.77	33474.34
514.95	34164.80
515.12	34146.08
515.29	33734.14
515.47	34932.50
515.64	34108.63
515.81	33886.28
515.99	34513.54
516.16	34225.65
516.33	33930.75
516.51	34071.18
516.68	33982.24
516.85	33883.94
517.03	33872.23
517.20	34506.52
517.37	34417.58
517.54	34649.29
517.72	34433.96
517.89	34429.28
518.06	34354.38
518.24	34448.00
518.41	34679.72
518.58	35110.38
518.75	34831.85
518.93	35356.13
519.10	35257.83
519.27	35763.39
519.45	35063.57
519.62	35718.92
519.79	35709.55
519.96	35915.52
520.14	36006.80
520.31	35681.47
520.48	36271.28
520.65	35985.74
520.83	36484.27
521.00	36734.71
521.17	36189.36
521.34	36180.00
521.52	36343.84
521.69	36779.18
521.86	37069.40
522.03	36910.25
522.20	37048.34
522.38	36591.94
522.55	37055.36
522.72	36596.62
522.89	36797.90
523.07	37081.11
523.24	36856.42
523.41	37659.22
523.58	36947.70
523.75	37680.28
523.92	37294.10
524.10	37553.90
524.27	37827.74
524.44	37958.81
524.61	37682.62
524.78	37876.89
524.96	38045.41
525.13	38019.66
525.30	38230.31
525.47	38352.02
525.64	38462.02
525.81	38075.84
525.98	38108.60
526.16	37736.46
526.33	37801.99
526.50	37970.51
526.67	37691.99
526.84	37921.36
527.01	37813.70
527.18	38295.85
527.36	39026.09
527.53	38726.50
527.70	38752.25
527.87	38958.22
528.04	39014.39
528.21	38988.64
528.38	39145.46
528.55	39126.74
528.72	39313.98
528.89	39419.30
529.07	39264.83
529.24	38899.70
529.41	39196.95
529.58	39037.80
529.75	39131.42
529.92	39693.15
530.09	39522.29
530.26	39679.10
530.43	40311.05
530.60	39934.22
530.77	39875.71
530.94	40006.78
531.11	40311.05
531.28	39871.03
531.46	40376.58
531.63	39920.18
531.80	40172.96
531.97	40067.63
532.14	39878.05
532.31	39842.94
532.48	39742.30
532.65	39782.09
532.82	40086.36
532.99	40020.82
533.16	40142.53
533.33	40453.82
533.50	40580.21
533.67	40432.75
533.84	40128.48
534.01	40676.17
534.18	40720.64
534.35	41127.89
534.52	40435.10
534.69	41127.89
534.86	41221.52
535.03	40762.77
535.20	41179.39
535.37	41635.79
535.54	41263.64
535.71	41074.06
535.88	41495.36
536.05	41469.61
536.22	41312.80
536.38	41408.76
536.55	40580.21
536.72	40942.99
536.89	40903.20
537.06	41198.11
537.23	41488.34
537.40	41610.04
537.57	41619.41
537.74	41691.96
537.91	41649.83
538.08	41579.62
538.25	41450.89
538.42	41993.89
538.59	41801.97
538.75	41551.53
538.92	41933.04
539.09	41827.71
539.26	42031.34
539.43	41977.51
539.60	41734.09
539.77	41661.54
539.94	41748.14
540.11	41872.18
540.28	42129.64
540.44	41596.00
540.61	42094.53
540.78	42134.32
540.95	41806.65
541.12	41916.65
541.29	41911.97
541.46	42373.06
541.62	42052.41
541.79	42436.25
541.96	41923.68
542.13	42447.96
542.30	41993.89
542.47	42824.78
542.63	42941.81
542.80	42887.98
542.97	43580.78
543.14	43072.88
543.31	43133.73
543.48	42969.90
543.64	43833.55
543.81	43531.62
543.98	43264.80
544.15	43529.28
544.32	43592.48
544.48	43515.24
544.65	43302.25
544.82	43585.46
544.99	43145.44
545.16	43419.28
545.32	43117.35
545.49	43786.74
545.66	44030.16
545.83	43721.21
546.00	43739.93
546.16	43681.42
546.33	43569.07
546.50	43374.81
546.67	43716.53
546.83	43311.61
547.00	43496.52
547.17	43730.57
547.34	43503.54
547.50	43543.33
547.67	43812.49
547.84	43971.64
548.00	44797.85
548.17	44421.03
548.34	44203.36
548.51	44626.99
548.67	44030.16
548.84	44123.78
549.01	44020.80
549.18	44477.20
549.34	44196.34
549.51	44744.02
549.68	44460.82
549.84	44325.07
550.01	45020.20
550.18	44306.34
550.34	44334.43
550.51	44669.12
550.68	44226.76
550.84	44002.07
551.01	44737.00
551.18	44582.52
551.34	44598.91
551.51	44940.63
551.68	44872.75
551.84	44889.13
552.01	44954.67
552.18	45048.29
552.34	44196.34
552.51	44802.53
552.68	44671.46
552.84	45174.68
553.01	45352.56
553.18	45069.36
553.34	44748.70
553.51	44924.24
553.67	44865.73
553.84	45277.66
554.01	44973.39
554.17	45251.92
554.34	45460.23
554.51	44800.19
554.67	45579.59
554.84	45160.64
555.00	44996.80
555.17	45038.93
555.33	45015.52
555.50	45291.71
555.67	45247.24
555.83	45191.06
556.00	45364.26
556.16	45640.45
556.33	45610.02
556.50	45287.03
556.66	45535.12
556.83	45572.57
556.99	45743.43
557.16	45514.06
557.32	45598.32
557.49	45731.73
557.65	45478.95
557.82	45806.62
557.98	45724.71
558.15	45209.79
558.32	45542.14
558.48	45258.94
558.65	45563.21
558.81	45640.45
558.98	45497.67
559.14	45390.01
559.31	45251.92
559.47	45879.18
559.64	46281.75
559.80	45951.74
559.97	45914.29
560.13	45483.63
560.30	46124.94
560.46	45818.33
560.63	45954.08
560.79	46323.88
560.96	45933.01
561.12	46024.29
561.29	45661.51
561.45	46066.42
561.61	45392.35
561.78	45717.68
561.94	45872.16
562.11	45872.16
562.27	46199.83
562.44	46082.81
562.60	46190.47
562.77	46316.86
562.93	46398.78
563.10	46256.01
563.26	45687.26
563.42	46127.28
563.59	45750.45
563.75	46246.65
563.92	45869.82
564.08	46204.52
564.24	45757.47
564.41	46146.00
564.57	46124.94
564.74	45766.84
564.90	46131.96
565.07	46330.90
565.23	46047.70
565.39	45991.53
565.56	46361.33
565.72	45872.16
565.88	46127.28
566.05	46143.66
566.21	45907.27
566.38	46256.01
566.54	46244.30
566.70	46286.43
566.87	46464.32
567.03	46527.51
567.19	46583.68
567.36	46279.41
567.52	46412.82
567.68	46382.40
567.85	46403.46
568.01	46312.18
568.17	46284.09
568.34	46309.84
568.50	46501.76
568.66	45944.72
568.83	46595.38
568.99	46244.30
569.15	46223.24
569.32	45918.97
569.48	46134.30
569.64	46225.58
569.81	46375.37
569.97	46155.36
570.13	46705.39
570.30	46597.73
570.46	45949.40
570.62	46040.68
570.78	45991.53
570.95	45940.04
571.11	46272.39
571.27	46738.16
571.43	46429.21
571.60	46651.56
571.76	46391.76
571.92	46342.61
572.09	46642.20
572.25	46122.60
572.41	46197.49
572.57	46635.17
572.74	47056.47
572.90	46354.31
573.06	46696.03
573.22	46492.40
573.38	46628.15
573.55	46138.98
573.71	46515.81
573.87	46534.53
574.03	46295.80
574.20	46454.95
574.36	46274.73
574.52	46593.04
574.68	46588.36
574.84	46192.81
575.01	46340.27
575.17	46696.03
575.33	45961.10
575.49	46082.81
575.65	46394.10
575.82	46401.12
575.98	46274.73
576.14	46602.41
576.30	46824.76
576.46	46295.80
576.62	46684.33
576.79	46707.73
576.95	46487.72
577.11	46328.56
577.27	46609.43
577.43	46576.66
577.59	46738.16
577.75	46616.45
577.92	46164.73
578.08	46157.70
578.24	46040.68
578.40	46323.88
578.56	45993.87
578.72	46681.98
578.88	47096.26
579.04	46944.12
579.21	46511.13
579.37	46689.01
579.53	46852.84
579.69	46391.76
579.85	46471.34
580.01	46754.54
580.17	46724.11
580.33	46897.31
580.49	46630.49
580.65	46934.76
580.82	46885.61
580.98	46436.23
581.14	46560.28
581.30	46955.83
581.46	46609.43
581.62	46639.86
581.78	46689.01
581.94	46684.33
582.10	46550.91
582.26	46370.69
582.42	46756.88
582.58	46433.89
582.74	46700.71
582.90	46784.97
583.06	47021.36
583.22	46852.84
583.38	47030.72
583.54	47262.44
583.70	46679.64
583.86	47054.13
584.02	46260.69
584.18	46686.67
584.34	46237.28
584.50	46890.29
584.66	46478.36
584.82	46328.56
584.98	46880.93
585.14	46721.77
585.30	46925.40
585.46	46698.37
585.62	46405.80
585.78	46522.83
585.94	46230.26
586.10	46789.65
586.26	46417.50
586.42	46681.98
586.58	46822.42
586.74	46859.87
586.90	46354.31
587.06	46534.53
587.22	47084.56
587.38	46270.05
587.54	46548.57
587.70	47007.32
587.86	46658.58
588.02	46897.31
588.18	46459.63
588.34	46602.41
588.49	46122.60
588.65	46038.34
588.81	46358.99
588.97	46361.33
589.13	45998.55
589.29	46375.37
589.45	46576.66
589.61	46298.14
589.77	46536.87
589.93	46843.48
