SpectraSuite Data File
++++++++++++++++++++++++++++++++++++
Date: Fri Oct 25 10:44:48 EDT 2013
User: price-jones
Dark Spectrum Present: No
Reference Spectrum Present: No
Number of Sampled Component Spectra: 1
Spectrometers: USB2+H05261
Integration Time (usec): 100000 (USB2+H05261)
Spectra Averaged: 1 (USB2+H05261)
Boxcar Smoothing: 0 (USB2+H05261)
Correct for Electrical Dark: No (USB2+H05261)
Strobe/Lamp Enabled: No (USB2+H05261)
Correct for Detector Non-linearity: No (USB2+H05261)
Correct for Stray Light: No (USB2+H05261)
Number of Pixels in Processed Spectrum: 2048
>>>>>Begin Processed Spectral Data<<<<<
365.73	126.39
365.92	126.39
366.12	126.39
366.32	67.88
366.52	0.00
366.72	79.58
366.91	7.02
367.11	0.00
367.31	4.68
367.51	18.72
367.70	7.02
367.90	0.00
368.10	30.43
368.30	42.13
368.49	0.00
368.69	30.43
368.89	95.96
369.09	4.68
369.28	74.90
369.48	107.66
369.68	67.88
369.87	42.13
370.07	86.60
370.27	154.48
370.47	156.82
370.66	409.59
370.86	400.23
371.06	393.21
371.25	491.51
371.45	430.66
371.65	395.55
371.84	486.83
372.04	425.98
372.24	421.30
372.44	465.77
372.63	463.43
372.83	531.30
373.03	477.47
373.22	437.68
373.42	444.70
373.62	468.11
373.81	517.26
374.01	582.79
374.21	573.43
374.40	514.92
374.60	507.90
374.79	507.90
374.99	554.71
375.19	510.24
375.38	477.47
375.58	613.22
375.78	617.90
375.97	603.86
376.17	685.78
376.37	627.26
376.56	594.50
376.76	601.52
376.95	519.60
377.15	571.09
377.35	559.39
377.54	575.77
377.74	552.37
377.93	550.03
378.13	547.69
378.33	603.86
378.52	566.41
378.72	601.52
378.91	671.73
379.11	561.73
379.31	592.16
379.50	550.03
379.70	629.60
379.89	676.41
380.09	655.35
380.28	617.90
380.48	606.20
380.68	641.31
380.87	664.71
381.07	671.73
381.26	624.92
381.46	627.26
381.65	580.45
381.85	678.76
382.04	690.46
382.24	573.43
382.43	657.69
382.63	667.05
382.83	697.48
383.02	718.54
383.22	674.07
383.41	692.80
383.61	648.33
383.80	772.38
384.00	704.50
384.19	657.69
384.39	884.72
384.58	720.88
384.78	770.04
384.97	720.88
385.17	770.04
385.36	737.27
385.56	781.74
385.75	741.95
385.95	793.44
386.14	812.17
386.34	753.65
386.53	823.87
386.72	734.93
386.92	788.76
387.11	807.48
387.31	861.32
387.50	753.65
387.70	826.21
387.89	844.93
388.09	844.93
388.28	828.55
388.48	873.02
388.67	807.48
388.86	844.93
389.06	889.40
389.25	936.21
389.45	924.51
389.64	901.11
389.84	905.79
390.03	945.58
390.22	961.96
390.42	894.08
390.61	905.79
390.81	919.83
391.00	917.49
391.19	961.96
391.39	961.96
391.58	940.90
391.78	950.26
391.97	940.90
392.16	983.02
392.36	1046.22
392.55	1018.13
392.75	933.87
392.94	957.28
393.13	887.06
393.33	849.61
393.52	936.21
393.71	1008.77
393.91	966.64
394.10	990.05
394.29	1022.81
394.49	1078.99
394.68	1022.81
394.88	1093.03
395.07	1123.46
395.26	1011.11
395.46	1151.54
395.65	1146.86
395.84	1158.57
396.04	1174.95
396.23	1090.69
396.42	1067.28
396.62	1109.41
396.81	1132.82
397.00	1135.16
397.19	1165.59
397.39	1289.64
397.58	1254.53
397.77	1238.14
397.97	1270.91
398.16	1277.93
398.35	1306.02
398.55	1327.08
398.74	1259.21
398.93	1439.43
399.12	1329.42
399.32	1282.61
399.51	1252.19
399.70	1385.60
399.90	1432.41
400.09	1465.18
400.28	1462.83
400.47	1420.71
400.67	1390.28
400.86	1437.09
401.05	1453.47
401.24	1446.45
401.44	1561.14
401.63	1488.58
401.82	1390.28
402.01	1474.54
402.21	1493.26
402.40	1483.90
402.59	1500.28
402.78	1507.30
402.97	1526.03
403.17	1577.52
403.36	1558.80
403.55	1621.99
403.74	1673.48
403.93	1699.23
404.13	1593.90
404.32	1647.74
404.51	1736.68
404.70	1713.27
404.89	1619.65
405.09	1717.95
405.28	1722.63
405.47	1675.82
405.66	1724.97
405.85	1781.15
406.05	1771.79
406.24	1795.19
406.43	1797.53
406.62	1856.04
406.81	1846.68
407.00	1842.00
407.20	1816.26
407.39	1783.49
407.58	1872.43
407.77	1921.58
407.96	1916.90
408.15	2008.18
408.34	1874.77
408.54	1977.75
408.73	1935.62
408.92	2015.20
409.11	2043.29
409.30	1991.80
409.49	1947.33
409.68	2008.18
409.87	2008.18
410.07	2209.47
410.26	2113.50
410.45	2167.34
410.64	2207.13
410.83	2080.74
411.02	2207.13
411.21	2303.09
411.40	2286.70
411.59	2314.79
411.78	2218.83
411.98	2282.02
412.17	2377.98
412.36	2380.32
412.55	2490.33
412.74	2352.24
412.93	2476.29
413.12	2410.75
413.31	2506.71
413.50	2518.42
413.69	2544.16
413.88	2572.25
414.07	2588.63
414.26	2553.52
414.45	2541.82
414.64	2649.49
414.83	2740.77
415.02	2724.38
415.22	2864.82
415.41	2750.13
415.60	2841.41
415.79	2635.44
415.98	2818.00
416.17	2876.52
416.36	2909.29
416.55	2864.82
416.74	2960.78
416.93	2829.71
417.12	3094.19
417.31	2974.82
417.50	2925.67
417.69	3038.02
417.88	3016.95
418.07	3131.64
418.26	3098.87
418.45	3176.11
418.64	3234.62
418.83	3119.93
419.02	3131.64
419.21	3232.28
419.39	3133.98
419.58	3145.68
419.77	3108.23
419.96	3316.54
420.15	3276.75
420.34	3262.71
420.53	3471.01
420.72	3344.63
420.91	3398.46
421.10	3389.10
421.29	3372.71
421.48	3309.52
421.67	3557.61
421.86	3442.93
422.05	3335.26
422.24	3410.16
422.43	3503.78
422.61	3426.54
422.80	3541.23
422.99	3487.40
423.18	3541.23
423.37	3513.14
423.56	3449.95
423.75	3445.27
423.94	3590.38
424.13	3288.45
424.32	3527.19
424.50	3513.14
424.69	3627.83
424.88	3508.46
425.07	3520.17
425.26	3499.10
425.45	3473.36
425.64	3588.04
425.83	3623.15
426.01	3653.58
426.20	3641.87
426.39	3625.49
426.58	3538.89
426.77	3597.40
426.96	3574.00
427.15	3618.47
427.33	3740.18
427.52	3646.55
427.71	3737.84
427.90	3751.88
428.09	3693.37
428.28	3798.69
428.46	3770.60
428.65	3744.86
428.84	3810.39
429.03	3880.61
429.22	3779.97
429.40	3761.24
429.59	3684.00
429.78	3630.17
429.97	3625.49
430.16	3756.56
430.34	3714.43
430.53	3812.73
430.72	3875.93
430.91	3784.65
431.10	3920.40
431.28	4086.58
431.47	4184.88
431.66	4241.05
431.85	4060.83
432.03	4173.18
432.22	4306.59
432.41	4269.14
432.60	4154.45
432.79	4241.05
432.97	4248.07
433.16	4234.03
433.35	4126.36
433.54	4294.88
433.72	4339.35
433.91	4334.67
434.10	4285.52
434.28	4283.18
434.47	4418.93
434.66	4341.69
434.85	4395.53
435.03	4451.70
435.22	4432.97
435.41	4603.83
435.59	4458.72
435.78	4554.68
435.97	4559.36
436.16	4725.54
436.34	4606.17
436.53	4643.62
436.72	4554.68
436.90	4542.98
437.09	4472.76
437.28	4493.83
437.46	4554.68
437.65	4711.50
437.84	4795.76
438.02	4718.52
438.21	4868.31
438.40	4819.16
438.58	4861.29
438.77	4840.23
438.96	4992.36
439.14	4938.53
439.33	4959.60
439.52	5123.43
439.70	5071.94
439.89	5085.98
440.08	5107.05
440.26	5193.65
440.45	5320.04
440.63	5238.12
440.82	5296.63
441.01	5430.04
441.19	5324.72
441.38	5516.64
441.57	5411.32
441.75	5628.99
441.94	5593.88
442.12	5547.07
442.31	5626.65
442.50	5558.77
442.68	5518.98
442.87	5720.27
443.05	5605.58
443.24	5764.74
443.43	5654.73
443.61	5844.32
443.80	6043.26
443.98	5757.72
444.17	5638.35
444.35	5809.21
444.54	5872.40
444.73	5902.83
444.91	5820.91
445.10	5874.74
445.28	5839.64
445.47	5664.10
445.65	5799.85
445.84	5942.62
446.02	5841.98
446.21	5799.85
446.39	6005.81
446.58	5963.68
446.77	5846.66
446.95	5834.96
447.14	6038.58
447.32	6038.58
447.51	5959.00
447.69	5951.98
447.88	5973.05
448.06	6038.58
448.25	5977.73
448.43	6157.95
448.62	6024.54
448.80	6069.01
448.99	6092.41
449.17	6251.57
449.36	5987.09
449.54	6246.89
449.73	6303.06
449.91	6244.55
450.10	6513.71
450.28	6562.86
450.46	6338.17
450.65	6499.67
450.83	6619.04
451.02	6312.42
451.20	6558.18
451.39	6394.34
451.57	6384.98
451.76	6534.78
451.94	6459.88
452.13	6457.54
452.31	6443.49
452.49	6286.68
452.68	6551.16
452.86	6502.01
453.05	6483.28
453.23	6686.91
453.42	6642.44
453.60	6719.68
453.78	6738.40
453.97	6712.66
454.15	6607.33
454.34	6722.02
454.52	6665.85
454.70	6806.28
454.89	6773.51
455.07	6860.11
455.26	6834.36
455.44	6916.28
455.62	7000.54
455.81	6899.90
455.99	6853.09
456.17	6977.14
456.36	7080.12
456.54	7035.65
456.73	7157.36
456.91	7335.24
457.09	7166.72
457.28	7503.76
457.46	7365.67
457.64	7375.03
457.83	7215.87
458.01	7311.83
458.19	7520.14
458.38	7218.21
458.56	7646.53
458.74	7480.35
458.93	7428.86
459.11	7461.63
459.29	7412.48
459.48	7435.88
459.66	7442.90
459.84	7676.96
460.03	7632.49
460.21	7655.89
460.39	7548.23
460.57	7782.28
460.76	7667.60
460.94	7789.30
461.12	7775.26
461.31	7829.09
461.49	7695.68
461.67	7772.92
461.85	7815.05
462.04	7871.22
462.22	8037.40
462.40	7948.46
462.59	7873.56
462.77	8049.10
462.95	8037.40
463.13	7999.95
463.32	7943.78
463.50	8098.25
463.68	8077.19
463.86	8306.56
464.05	8131.02
464.23	8028.04
464.41	8248.05
464.59	8072.51
464.78	8208.26
464.96	8276.13
465.14	8250.39
465.32	8264.43
465.50	8262.09
465.69	8407.20
465.87	8360.39
466.05	8229.32
466.23	8294.86
466.41	8535.93
466.60	8573.38
466.78	8315.92
466.96	8210.60
467.14	8526.57
467.32	8528.91
467.51	8533.59
467.69	8262.09
467.87	8685.73
468.05	8545.30
468.23	8531.25
468.41	8594.45
468.60	8580.40
468.78	8739.56
468.96	8723.18
469.14	8676.37
469.32	8769.99
469.50	8716.16
469.69	8863.61
469.87	8982.98
470.05	8938.51
470.23	8837.86
470.41	9036.81
470.59	9083.62
470.77	8791.05
470.95	9315.33
471.14	9210.01
471.32	9142.13
471.50	9448.74
471.68	9291.93
471.86	9228.73
472.04	9179.58
472.22	9502.58
472.40	9385.55
472.58	9415.98
472.77	9584.49
472.95	9767.06
473.13	9767.06
473.31	9493.21
473.49	9521.30
473.67	9605.56
473.85	9643.01
474.03	10085.37
474.21	9961.32
474.39	10099.41
474.57	9916.85
474.75	9994.09
474.93	10246.87
475.12	10232.82
475.30	10223.46
475.48	10274.95
475.66	10427.09
475.84	10284.31
476.02	10480.92
476.20	10382.62
476.38	10623.69
476.56	10764.12
476.74	10799.23
476.92	10806.25
477.10	10958.39
477.28	11178.40
477.46	11080.10
477.64	10956.05
477.82	11344.58
478.00	11431.18
478.18	11358.62
478.36	11421.81
478.54	11470.97
478.72	11492.03
478.90	11761.19
479.08	11784.60
479.26	11990.56
479.44	12098.23
479.62	12058.44
479.80	12063.12
479.98	12219.94
480.16	12582.72
480.34	12423.56
480.52	12573.36
480.70	12397.82
480.88	12252.70
481.06	12465.69
481.24	12725.49
481.41	12901.03
481.59	13181.90
481.77	13322.33
481.95	13214.66
482.13	13448.72
482.31	13366.80
482.49	13734.26
482.67	13486.17
482.85	13591.49
483.03	13823.20
483.21	13935.55
483.39	14068.96
483.57	14190.67
483.74	14382.59
483.92	14398.98
484.10	14202.37
484.28	14551.11
484.46	14747.72
484.64	15119.86
484.82	14848.36
485.00	15051.99
485.18	14986.45
485.35	15140.93
485.53	15037.94
485.71	15213.48
485.89	15431.15
486.07	14960.70
486.25	15321.15
486.43	15672.23
486.61	15798.62
486.78	15857.13
486.96	16049.05
487.14	16388.43
487.32	16470.35
487.50	16599.08
487.68	16596.74
487.85	16702.06
488.03	16978.25
488.21	17064.85
488.39	17060.16
488.57	17207.62
488.75	17408.90
488.92	17591.47
489.10	17572.74
489.28	18054.89
489.46	17881.69
489.64	18092.34
489.81	18527.68
489.99	18281.92
490.17	18733.65
490.35	18677.48
490.53	18331.08
490.70	18759.39
490.88	18684.50
491.06	18988.77
491.24	18761.73
491.41	18998.13
491.59	19290.70
491.77	19290.70
491.95	19393.68
492.13	19674.54
492.30	19784.55
492.48	19838.38
492.66	20013.92
492.84	19814.98
493.01	20245.63
493.19	20477.35
493.37	20500.75
493.54	20650.55
493.72	20720.76
493.90	20650.55
494.08	20769.91
494.25	21350.37
494.43	21591.44
494.61	21558.67
494.79	21642.93
494.96	21441.65
495.14	21654.64
495.32	21914.44
495.49	21979.97
495.67	22115.72
495.85	21963.59
496.02	22590.85
496.20	22569.79
496.38	22593.19
496.55	22642.34
496.73	22988.74
496.91	22979.38
497.09	23061.30
497.26	23208.75
497.44	22506.59
497.62	23026.19
497.79	23580.90
497.97	23171.30
498.14	23630.05
498.32	23847.72
498.50	23597.28
498.67	24100.50
498.85	23962.40
499.03	24259.65
499.20	24367.32
499.38	24098.16
499.56	24531.15
499.73	24694.99
499.91	24910.32
500.08	24833.08
500.26	24212.84
500.44	24397.74
500.61	24823.72
500.79	24599.03
500.97	25046.07
501.14	25195.87
501.32	25104.59
501.49	25404.17
501.67	25507.16
501.84	25408.86
502.02	25385.45
502.20	25692.06
502.37	25977.61
502.55	25722.49
502.72	25876.96
502.90	26089.95
503.07	25923.77
503.25	26071.23
503.43	26001.01
503.60	25991.65
503.78	26326.35
503.95	26370.82
504.13	26146.12
504.30	26604.87
504.48	26527.63
504.65	27068.30
504.83	27035.53
505.01	27222.77
505.18	26855.31
505.36	27133.83
505.53	27126.81
505.71	27440.44
505.88	27276.60
506.06	27051.91
506.23	27599.60
506.41	27426.40
506.58	27800.88
506.76	27761.09
506.93	27751.73
507.11	27924.93
507.28	27999.83
507.46	27763.43
507.63	28041.96
507.81	28254.95
507.98	28421.13
508.16	28716.03
508.33	28505.38
508.50	28739.44
508.68	28678.58
508.85	28952.43
509.03	28842.42
509.20	28919.66
509.38	28950.09
509.55	29184.14
509.73	29170.10
509.90	29039.03
510.08	29249.67
510.25	29343.30
510.42	29322.23
510.60	29600.76
510.77	29872.26
510.95	29766.93
511.12	29509.47
511.30	29823.11
511.47	30370.79
511.64	30059.50
511.82	30122.69
511.99	30008.01
512.17	30487.82
512.34	30366.11
512.51	30445.69
512.69	30508.88
512.86	30656.34
513.04	30593.14
513.21	30670.38
513.38	30705.49
513.56	30764.00
513.73	30623.57
513.90	31164.23
514.08	30955.93
514.25	30995.71
514.43	31096.36
514.60	30862.30
514.77	31335.09
514.95	31395.95
515.12	31290.62
515.29	31559.78
515.47	31622.98
515.64	31922.57
515.81	31417.01
515.99	31828.95
516.16	31955.33
516.33	31615.96
516.51	31952.99
516.68	31372.54
516.85	31716.60
517.03	31622.98
517.20	31854.69
517.37	32376.63
517.54	32290.03
517.72	32165.98
517.89	31922.57
518.06	32416.42
518.24	32219.81
518.41	32381.31
518.58	32407.06
518.75	32533.45
518.93	32854.10
519.10	32704.31
519.27	32804.95
519.45	32847.08
519.62	33130.28
519.79	33153.69
519.96	33209.86
520.14	33338.59
520.31	33010.92
520.48	33394.76
520.65	33734.14
520.83	33804.36
521.00	33766.91
521.17	33755.21
521.34	33940.11
521.52	33795.00
521.69	34249.06
521.86	33958.83
522.03	34216.29
522.20	34536.94
522.38	34565.03
522.55	34244.38
522.72	34352.04
522.89	34272.46
523.07	34761.64
523.24	34359.06
523.41	34904.41
523.58	34314.59
523.75	34782.70
523.92	34965.26
524.10	34838.87
524.27	34897.39
524.44	35356.13
524.61	35161.87
524.78	35426.35
524.96	35367.84
525.13	35346.77
525.30	35812.54
525.47	35297.62
525.64	35459.12
525.81	35227.40
525.98	35531.67
526.16	35580.82
526.33	35171.23
526.50	35831.26
526.67	35505.93
526.84	35564.44
527.01	35431.03
527.18	36016.16
527.36	35770.41
527.53	36311.07
527.70	36364.90
527.87	36219.79
528.04	35892.12
528.21	36395.33
528.38	36212.77
528.55	36587.25
528.72	36278.30
528.89	36704.28
529.07	36739.39
529.24	36568.53
529.41	36215.11
529.58	36397.67
529.75	36374.27
529.92	36648.11
530.09	36613.00
530.26	36882.16
530.43	37223.88
530.60	36893.86
530.77	37198.13
530.94	37242.60
531.11	37244.94
531.28	37535.17
531.46	37469.64
531.63	37415.80
531.80	37041.32
531.97	37378.36
532.14	37366.65
532.31	37317.50
532.48	37354.95
532.65	37415.80
532.82	37694.33
532.99	37876.89
533.16	37490.70
533.33	37886.25
533.50	38066.47
533.67	37921.36
533.84	37684.97
534.01	37813.70
534.18	37792.63
534.35	38415.21
534.52	38288.82
534.69	38000.94
534.86	38293.50
535.03	37682.62
535.20	38550.96
535.37	38990.98
535.54	38733.53
535.71	38253.72
535.88	38394.15
536.05	38363.72
536.22	38735.87
536.38	38698.42
536.55	38675.01
536.72	38969.92
536.89	38763.95
537.06	38801.40
537.23	39021.41
537.40	39002.69
537.57	39028.43
537.74	38756.93
537.91	39178.23
538.08	39269.51
538.25	38979.28
538.42	39173.55
538.59	38981.62
538.75	38651.61
538.92	39285.89
539.09	39295.25
539.26	39402.92
539.43	39250.78
539.60	39164.18
539.77	39124.40
539.94	38976.94
540.11	39477.82
540.28	39225.04
540.44	39138.44
540.61	39428.66
540.78	39290.57
540.95	39819.53
541.12	39423.98
541.29	39667.40
541.46	39618.25
541.62	39779.74
541.79	40093.38
541.96	39754.00
542.13	39571.44
542.30	39901.45
542.47	40109.76
542.63	40020.82
542.80	40048.91
542.97	40332.11
543.14	40304.02
543.31	40498.29
543.48	39971.67
543.64	40905.54
543.81	40926.61
543.98	40795.54
544.15	40671.49
544.32	40671.49
544.48	41280.03
544.65	41296.41
544.82	40947.67
544.99	40411.69
545.16	41120.87
545.32	41177.04
545.49	40966.40
545.66	40886.82
545.83	41413.44
546.00	41469.61
546.16	40919.59
546.33	40842.35
546.50	41221.52
546.67	41340.88
546.83	40931.29
547.00	41591.32
547.17	41024.91
547.34	41291.73
547.50	41153.64
547.67	41823.03
547.84	41567.91
548.00	41743.45
548.17	41420.46
548.34	41493.02
548.51	42017.30
548.67	41797.29
548.84	41675.58
549.01	41500.04
549.18	41598.34
549.34	42197.52
549.51	42251.35
549.68	41909.63
549.84	41918.99
550.01	42052.41
550.18	41670.90
550.34	41797.29
550.51	41902.61
550.68	42148.37
550.84	41844.10
551.01	42155.39
551.18	41862.82
551.34	42129.64
551.51	41816.01
551.68	42029.00
551.84	42403.49
552.01	42007.94
552.18	42284.12
552.34	42534.56
552.51	42113.26
552.68	42349.65
552.84	42871.59
553.01	42679.67
553.18	42415.19
553.34	42195.18
553.51	42047.72
553.67	42679.67
553.84	42342.63
554.01	42536.90
554.17	42731.16
554.34	42745.20
554.51	42913.72
554.67	42871.59
554.84	42670.31
555.00	42611.79
555.17	42639.88
555.33	42593.07
555.50	42784.99
555.67	42827.12
555.83	42642.22
556.00	42948.83
556.16	43374.81
556.33	43217.99
556.50	42918.40
556.66	43384.17
556.83	42803.72
556.99	42916.06
557.16	42934.79
557.32	43487.15
557.49	43388.85
557.65	42567.32
557.82	42913.72
557.98	43302.25
558.15	42852.87
558.32	43180.54
558.48	43281.19
558.65	43337.36
558.81	43344.38
558.98	43154.80
559.14	43246.08
559.31	43180.54
559.47	43454.39
559.64	43330.34
559.80	43508.22
559.97	43412.26
560.13	43423.96
560.30	43487.15
560.46	43239.06
560.63	43854.62
560.79	43650.99
560.96	43943.56
561.12	43257.78
561.29	43381.83
561.45	43885.04
561.61	43573.75
561.78	43526.94
561.94	43786.74
562.11	43810.15
562.27	43590.14
562.44	43566.73
562.60	43840.57
562.77	43302.25
562.93	43606.52
563.10	43702.48
563.26	43395.87
563.42	43683.76
563.59	43463.75
563.75	43889.73
563.92	43632.27
564.08	43835.89
564.24	43992.71
564.41	44219.74
564.57	43889.73
564.74	44083.99
564.90	44076.97
565.07	43976.33
565.23	43838.23
565.39	43910.79
565.56	44362.51
565.72	43606.52
565.88	43981.01
566.05	43566.73
566.21	43452.05
566.38	44479.54
566.54	43679.08
566.70	44254.85
566.87	44238.47
567.03	43868.66
567.19	44573.16
567.36	44149.53
567.52	43901.43
567.68	44444.43
567.85	43711.84
568.01	43985.69
568.17	43943.56
568.34	44521.67
568.50	44076.97
568.66	44034.84
568.83	44051.22
568.99	44128.46
569.15	43885.04
569.32	44065.27
569.48	43885.04
569.64	44423.37
569.81	44135.48
569.97	44123.78
570.13	43859.30
570.30	44172.93
570.46	44212.72
570.62	44119.10
570.78	43405.23
570.95	44381.24
571.11	44524.01
571.27	44016.11
571.43	44154.21
571.60	44098.03
571.76	43922.49
571.92	44074.63
572.09	44109.74
572.25	44013.77
572.41	44428.05
572.57	44198.68
572.74	44598.91
572.90	44144.84
573.06	44486.56
573.22	44275.91
573.38	44449.11
573.55	44341.45
573.71	44304.00
573.87	44439.75
574.03	44182.29
574.20	44123.78
574.36	44411.67
574.52	44376.56
574.68	44287.62
574.84	44828.28
575.01	44133.14
575.17	44325.07
575.33	43768.02
575.49	44390.60
575.65	44622.31
575.82	44821.26
575.98	44444.43
576.14	44774.45
576.30	44355.49
576.46	44418.69
576.62	44233.78
576.79	44563.80
576.95	44378.90
577.11	44570.82
577.27	44865.73
577.43	44561.46
577.59	44360.17
577.75	44411.67
577.92	44130.80
578.08	44505.29
578.24	43742.27
578.40	44271.23
578.56	44346.13
578.72	44402.30
578.88	44509.97
579.04	44884.45
579.21	44474.86
579.37	44430.39
579.53	44362.51
579.69	44254.85
579.85	44149.53
580.01	44500.61
580.17	44538.05
580.33	44748.70
580.49	44783.81
580.65	44671.46
580.82	44732.32
580.98	44563.80
581.14	44458.48
581.30	44774.45
581.46	44533.37
581.62	44594.23
581.78	44701.89
581.94	44854.03
582.10	44491.24
582.26	44818.92
582.42	44666.78
582.58	44346.13
582.74	44713.59
582.90	44748.70
583.06	44484.22
583.22	44650.40
583.38	44374.22
583.54	44809.56
583.70	44484.22
583.86	44552.10
584.02	44144.84
584.18	44711.25
584.34	44369.54
584.50	44659.76
584.66	44617.63
584.82	44048.88
584.98	44669.12
585.14	44737.00
585.30	44664.44
585.46	44341.45
585.62	44741.68
585.78	44254.85
585.94	44383.58
586.10	44577.84
586.26	44568.48
586.42	44346.13
586.58	44751.04
586.74	44596.57
586.90	44629.34
587.06	44577.84
587.22	44706.57
587.38	44025.48
587.54	44732.32
587.70	44545.08
587.86	44765.09
588.02	44271.23
588.18	45008.50
588.34	44636.36
588.49	44215.06
588.65	44079.31
588.81	44381.24
588.97	44449.11
589.13	44432.73
589.29	44751.04
589.45	44554.44
589.61	44783.81
589.77	45179.36
589.93	44243.15
590.08	44790.83
590.24	44751.04
590.40	44839.98
