SpectraSuite Data File
++++++++++++++++++++++++++++++++++++
Date: Fri Oct 25 10:44:19 EDT 2013
User: price-jones
Dark Spectrum Present: No
Reference Spectrum Present: No
Number of Sampled Component Spectra: 1
Spectrometers: USB2+H05261
Integration Time (usec): 100000 (USB2+H05261)
Spectra Averaged: 1 (USB2+H05261)
Boxcar Smoothing: 0 (USB2+H05261)
Correct for Electrical Dark: No (USB2+H05261)
Strobe/Lamp Enabled: No (USB2+H05261)
Correct for Detector Non-linearity: No (USB2+H05261)
Correct for Stray Light: No (USB2+H05261)
Number of Pixels in Processed Spectrum: 2048
>>>>>Begin Processed Spectral Data<<<<<
365.73	67.88
365.92	67.88
366.12	67.88
366.32	0.00
366.52	37.45
366.72	25.75
366.91	28.09
367.11	72.56
367.31	23.41
367.51	0.00
367.70	14.04
367.90	58.51
368.10	56.17
368.30	23.41
368.49	18.72
368.69	14.04
368.89	77.24
369.09	53.83
369.28	128.73
369.48	37.45
369.68	93.62
369.87	95.96
370.07	72.56
370.27	147.45
370.47	138.09
370.66	390.87
370.86	383.85
371.06	482.15
371.25	475.13
371.45	517.26
371.65	475.13
371.84	449.38
372.04	465.77
372.24	592.16
372.44	477.47
372.63	543.00
372.83	477.47
373.03	524.28
373.22	519.60
373.42	566.41
373.62	486.83
373.81	582.79
374.01	552.37
374.21	559.39
374.40	540.66
374.60	578.11
374.79	489.17
374.99	575.77
375.19	585.13
375.38	599.18
375.58	594.50
375.78	582.79
375.97	610.88
376.17	645.99
376.37	617.90
376.56	629.60
376.76	723.23
376.95	697.48
377.15	631.94
377.35	641.31
377.54	643.65
377.74	610.88
377.93	723.23
378.13	667.05
378.33	636.63
378.52	643.65
378.72	603.86
378.91	702.16
379.11	641.31
379.31	650.67
379.50	601.52
379.70	744.29
379.89	692.80
380.09	674.07
380.28	711.52
380.48	739.61
380.68	730.25
380.87	664.71
381.07	660.03
381.26	737.27
381.46	653.01
381.65	676.41
381.85	695.14
382.04	727.91
382.24	798.12
382.43	638.97
382.63	674.07
382.83	702.16
383.02	809.83
383.22	774.72
383.41	606.20
383.61	805.14
383.80	807.48
384.00	774.72
384.19	821.53
384.39	772.38
384.58	816.85
384.78	870.68
384.97	786.42
385.17	784.08
385.36	866.00
385.56	788.76
385.75	833.23
385.95	779.40
386.14	873.02
386.34	882.38
386.53	784.08
386.72	812.17
386.92	863.66
387.11	866.00
387.31	901.11
387.50	929.19
387.70	931.53
387.89	882.38
388.09	896.43
388.28	903.45
388.48	933.87
388.67	999.41
388.86	936.21
389.06	973.66
389.25	973.66
389.45	1029.84
389.64	887.06
389.84	999.41
390.03	997.07
390.22	1062.60
390.42	1069.62
390.61	990.05
390.81	980.68
391.00	1032.18
391.19	1090.69
391.39	1100.05
391.58	983.02
391.78	1104.73
391.97	1062.60
392.16	1090.69
392.36	1130.48
392.55	1022.81
392.75	912.81
392.94	1018.13
393.13	983.02
393.33	1100.05
393.52	1095.37
393.71	1071.97
393.91	1107.07
394.10	1226.44
394.29	1132.82
394.49	1062.60
394.68	1296.66
394.88	1149.20
395.07	1291.98
395.26	1350.49
395.46	1275.59
395.65	1275.59
395.84	1205.38
396.04	1355.17
396.23	1226.44
396.42	1240.48
396.62	1186.65
396.81	1198.35
397.00	1282.61
397.19	1240.48
397.39	1448.79
397.58	1394.96
397.77	1380.92
397.97	1317.72
398.16	1451.13
398.35	1589.22
398.55	1448.79
398.74	1530.71
398.93	1558.80
399.12	1584.54
399.32	1603.27
399.51	1561.14
399.70	1678.16
399.90	1551.78
400.09	1614.97
400.28	1671.14
400.47	1549.43
400.67	1666.46
400.86	1640.72
401.05	1743.70
401.24	1762.42
401.44	1813.92
401.63	1720.29
401.82	1762.42
402.01	1696.89
402.21	1809.23
402.40	1865.41
402.59	1811.57
402.78	1746.04
402.97	1816.26
403.17	1867.75
403.36	1827.96
403.55	1893.49
403.74	1970.73
403.93	1944.99
404.13	1937.96
404.32	1799.87
404.51	1902.86
404.70	1963.71
404.89	2019.88
405.09	1994.14
405.28	1963.71
405.47	2101.80
405.66	1975.41
405.85	2127.55
406.05	2050.31
406.24	2080.74
406.43	2078.40
406.62	2092.44
406.81	2101.80
407.00	2045.63
407.20	2104.14
407.39	2239.89
407.58	2223.51
407.77	2275.00
407.96	2380.32
408.15	2265.64
408.34	2251.60
408.54	2406.07
408.73	2373.30
408.92	2352.24
409.11	2333.51
409.30	2443.52
409.49	2406.07
409.68	2410.75
409.87	2363.94
410.07	2296.07
410.26	2590.97
410.45	2450.54
410.64	2502.03
410.83	2576.93
411.02	2520.76
411.21	2750.13
411.40	2717.36
411.59	2651.83
411.78	2752.47
411.98	2801.62
412.17	2736.09
412.36	2761.83
412.55	2860.13
412.74	2864.82
412.93	2904.60
413.12	2867.16
413.31	2946.73
413.50	2911.63
413.69	2956.10
413.88	2970.14
414.07	2993.55
414.26	2981.84
414.45	3119.93
414.64	3236.96
414.83	3166.74
415.02	3073.12
415.22	3105.89
415.41	3190.15
415.60	3241.64
415.79	3180.79
415.98	3335.26
416.17	3258.03
416.36	3262.71
416.55	3456.97
416.74	3384.41
416.93	3382.07
417.12	3344.63
417.31	3442.93
417.50	3506.12
417.69	3581.02
417.88	3555.27
418.07	3588.04
418.26	3449.95
418.45	3548.25
418.64	3660.60
418.83	3578.68
419.02	3723.79
419.21	3716.77
419.39	3637.19
419.58	3735.50
419.77	3662.94
419.96	3946.14
420.15	3824.44
420.34	3779.97
420.53	3880.61
420.72	3960.19
420.91	4088.92
421.10	3929.76
421.29	3969.55
421.48	3999.98
421.67	3976.57
421.86	3843.16
422.05	3929.76
422.24	3995.29
422.43	3985.93
422.61	4037.42
422.80	4004.66
422.99	4058.49
423.18	4081.89
423.37	4044.45
423.56	4114.66
423.75	3983.59
423.94	3932.10
424.13	3616.13
424.32	3789.33
424.50	4210.62
424.69	4236.37
424.88	4131.05
425.07	4086.58
425.26	4037.42
425.45	4037.42
425.64	4018.70
425.83	4252.75
426.01	4067.85
426.20	4241.05
426.39	4147.43
426.58	4149.77
426.77	4138.07
426.96	4095.94
427.15	4058.49
427.33	4166.15
427.52	4037.42
427.71	4360.42
427.90	4276.16
428.09	4362.76
428.28	4313.61
428.46	4304.25
428.65	4241.05
428.84	4423.61
429.03	4395.53
429.22	4198.92
429.40	4283.18
429.59	4180.20
429.78	3953.16
429.97	4189.56
430.16	4131.05
430.34	4212.96
430.53	4407.23
430.72	4358.08
430.91	4318.29
431.10	4355.74
431.28	4596.81
431.47	4652.98
431.66	4732.56
431.85	4648.30
432.03	4847.25
432.22	4826.18
432.41	4777.03
432.60	4798.10
432.79	4795.76
432.97	4891.72
433.16	4774.69
433.35	4676.39
433.54	4727.88
433.72	4917.47
433.91	4667.03
434.10	4924.49
434.28	4952.57
434.47	4931.51
434.66	4926.83
434.85	5097.69
435.03	5071.94
435.22	5193.65
435.41	5268.55
435.59	5263.86
435.78	5308.34
435.97	5263.86
436.16	5259.18
436.34	5303.65
436.53	5399.62
436.72	5338.76
436.90	5238.12
437.09	5298.97
437.28	5275.57
437.46	5392.59
437.65	5425.36
437.84	5233.44
438.02	5303.65
438.21	5355.15
438.40	5387.91
438.58	5518.98
438.77	5476.85
438.96	5509.62
439.14	5596.22
439.33	5713.25
439.52	5853.68
439.70	5888.79
439.89	5844.32
440.08	5860.70
440.26	5687.50
440.45	5968.37
440.63	5916.87
440.82	6113.48
441.01	6085.39
441.19	6139.23
441.38	6162.63
441.57	6331.15
441.75	6293.70
441.94	6530.09
442.12	6483.28
442.31	6452.86
442.50	6656.48
442.68	6558.18
442.87	6434.13
443.05	6567.54
443.24	6609.67
443.43	6480.94
443.61	6686.91
443.80	6902.24
443.98	6466.90
444.17	6483.28
444.35	6717.34
444.54	6780.53
444.73	6731.38
444.91	6651.80
445.10	6729.04
445.28	6715.00
445.47	6553.50
445.65	6698.61
445.84	6766.49
446.02	6820.32
446.21	6700.95
446.39	6729.04
446.58	6965.43
446.77	6846.07
446.95	6829.68
447.14	6918.62
447.32	7061.40
447.51	7014.59
447.69	6918.62
447.88	6984.16
448.06	6841.39
448.25	6841.39
448.43	6995.86
448.62	6967.77
448.80	7016.93
448.99	6836.70
449.17	6953.73
449.36	6981.82
449.54	7194.81
449.73	7197.15
449.91	7300.13
450.10	7346.94
450.28	7365.67
450.46	7368.01
450.65	7492.05
450.83	7293.11
451.02	7229.91
451.20	7412.48
451.39	7513.12
451.57	7372.69
451.76	7384.39
451.94	7414.82
452.13	7375.03
452.31	7524.82
452.49	7309.49
452.68	7370.35
452.86	7379.71
453.05	7679.30
453.23	7667.60
453.42	7492.05
453.60	7602.06
453.78	7581.00
453.97	7606.74
454.15	7597.38
454.34	7536.52
454.52	7747.17
454.70	7765.90
454.89	7733.13
455.07	7889.95
455.26	7868.88
455.44	8013.99
455.62	7903.99
455.81	8002.29
455.99	8060.80
456.17	8184.85
456.36	7967.18
456.54	8121.66
456.73	8379.12
456.91	8407.20
457.09	8400.18
457.28	8500.83
457.46	7988.25
457.64	8306.56
457.83	8266.77
458.01	8386.14
458.19	8437.63
458.38	8269.11
458.56	8636.58
458.74	8500.83
458.93	8348.69
459.11	8699.77
459.29	8547.64
459.48	8475.08
459.66	8414.23
459.84	8624.87
460.03	8833.18
460.21	8699.77
460.39	8709.13
460.57	8643.60
460.76	8945.53
460.94	8744.24
461.12	8980.64
461.31	9011.06
461.49	9048.51
461.67	8999.36
461.85	9107.02
462.04	8999.36
462.22	9341.08
462.40	9329.38
462.59	9273.20
462.77	9036.81
462.95	9085.96
463.13	9245.12
463.32	9053.19
463.50	9287.25
463.68	9502.58
463.86	9352.78
464.05	9343.42
464.23	9128.09
464.41	9273.20
464.59	9289.59
464.78	9603.22
464.96	9298.95
465.14	9284.91
465.32	9418.32
465.50	9486.19
465.69	9610.24
465.87	9568.11
466.05	9493.21
466.23	9635.99
466.41	9603.22
466.60	9537.68
466.78	9572.79
466.96	9434.70
467.14	9507.26
467.32	9678.12
467.51	9736.63
467.69	9666.41
467.87	9727.27
468.05	9760.03
468.23	9619.60
468.41	9692.16
468.60	9827.91
468.78	9853.66
468.96	9921.53
469.14	10038.56
469.32	9928.55
469.50	9713.22
469.69	9996.43
469.87	10012.81
470.05	10139.20
470.23	10239.84
470.41	10038.56
470.59	10328.78
470.77	10061.96
470.95	10195.37
471.14	10347.51
471.32	10153.24
471.50	10600.29
471.68	10464.54
471.86	10401.34
472.04	10485.60
472.22	10944.34
472.40	10562.84
472.58	10747.74
472.77	10703.27
472.95	10846.04
473.13	10970.09
473.31	10761.78
473.49	10892.85
473.67	11070.73
473.85	10850.72
474.03	11311.81
474.21	11325.85
474.39	11398.41
474.57	11332.87
474.75	11363.30
474.93	11545.86
475.12	11456.92
475.30	11630.12
475.48	11559.91
475.66	11534.16
475.84	11524.80
476.02	11576.29
476.20	11712.04
476.38	11852.47
476.56	12222.28
476.74	11915.67
476.92	12079.50
477.10	11985.88
477.28	12533.57
477.46	12123.98
477.64	12514.84
477.82	12475.06
478.00	12683.36
478.18	12812.09
478.36	12772.30
478.54	13146.79
478.72	13057.85
478.90	13341.05
479.08	13458.08
479.26	13504.89
479.44	13528.30
479.62	13701.50
479.80	13823.20
479.98	13722.56
480.16	13973.00
480.34	14160.24
480.52	14132.15
480.70	14122.79
480.88	13872.36
481.06	14235.14
481.24	14483.24
481.41	14668.14
481.59	14958.36
481.77	14728.99
481.95	14984.11
482.13	15023.90
482.31	14747.72
482.49	15227.53
482.67	15311.78
482.85	15389.02
483.03	15651.16
483.21	15557.54
483.39	15873.51
483.57	15878.19
483.74	16133.31
483.92	16105.23
484.10	15999.90
484.28	16248.00
484.46	16711.42
484.64	16872.92
484.82	16283.11
485.00	16615.46
485.18	16954.84
485.35	16954.84
485.53	16489.07
485.71	16468.01
485.89	16793.34
486.07	16870.58
486.25	17275.49
486.43	17214.64
486.61	17245.07
486.78	17436.99
486.96	17493.16
487.14	18230.43
487.32	18242.14
487.50	18384.91
487.68	18956.00
487.85	18794.50
488.03	19173.67
488.21	19023.87
488.39	19101.11
488.57	19316.44
488.75	19339.85
488.92	19314.10
489.10	19798.59
489.28	20030.30
489.46	20243.29
489.64	20292.44
489.81	20767.57
489.99	20435.22
490.17	20751.19
490.35	21256.75
490.53	20837.79
490.70	21055.46
490.88	21146.74
491.06	21333.98
491.24	21350.37
491.41	21088.23
491.59	21355.05
491.77	21146.74
491.95	21612.51
492.13	21673.36
492.30	21778.68
492.48	22562.76
492.66	22216.36
492.84	22178.92
493.01	22469.14
493.19	22869.37
493.37	22747.67
493.54	22920.87
493.72	23014.49
493.90	23267.27
494.08	23297.69
494.25	23763.46
494.43	23962.40
494.61	24009.22
494.79	24381.36
494.96	24137.94
495.14	24039.64
495.32	24353.27
495.49	24369.66
495.67	24409.45
495.85	25242.68
496.02	25039.05
496.20	25308.21
496.38	24849.47
496.55	25020.33
496.73	25654.61
496.91	25350.34
497.09	25703.76
497.26	25895.69
497.44	25874.62
497.62	25839.51
497.79	26005.69
497.97	25886.32
498.14	25961.22
498.32	25881.64
498.50	26422.31
498.67	26927.86
498.85	26595.51
499.03	26939.57
499.20	27218.09
499.38	27084.68
499.56	27016.80
499.73	27449.80
499.91	27234.47
500.08	27150.21
500.26	26787.43
500.44	27185.32
500.61	27080.00
500.79	27026.17
500.97	27669.81
501.14	27524.70
501.32	28149.62
501.49	27782.16
501.67	27976.42
501.84	28046.64
502.02	28339.21
502.20	28243.24
502.37	28788.59
502.55	28177.71
502.72	28947.75
502.90	29125.63
503.07	28713.69
503.25	28842.42
503.43	28755.82
503.60	29092.86
503.78	28460.91
503.95	28961.79
504.13	29134.99
504.30	29532.88
504.48	29322.23
504.65	29654.59
504.83	29600.76
505.01	29886.30
505.18	30258.45
505.36	30410.58
505.53	30066.52
505.71	30120.35
505.88	30539.31
506.06	30270.15
506.23	30684.42
506.41	30331.00
506.58	30654.00
506.76	30595.48
506.93	30909.11
507.11	30412.92
507.28	30878.69
507.46	30497.18
507.63	30923.16
507.81	31115.08
507.98	30646.97
508.16	31292.96
508.33	31463.82
508.50	31538.72
508.68	31477.86
508.85	31697.88
509.03	31498.93
509.20	31885.12
509.38	31655.75
509.55	32140.24
509.73	32060.66
509.90	31988.10
510.08	31498.93
510.25	32070.02
510.42	32226.84
510.60	32545.15
510.77	32236.20
510.95	32692.60
511.12	32652.81
511.30	32673.88
511.47	33198.16
511.64	32809.63
511.82	33053.05
511.99	32814.31
512.17	33109.22
512.34	33055.39
512.51	33371.36
512.69	33584.35
512.86	33701.37
513.04	33977.56
513.21	33319.87
513.38	33607.75
513.56	33734.14
513.73	33289.44
513.90	34022.03
514.08	33787.97
514.25	33755.21
514.43	33928.41
514.60	34176.50
514.77	33965.85
514.95	34396.51
515.12	34190.55
515.29	34586.10
515.47	34525.24
515.64	34710.14
515.81	34618.86
515.99	34450.35
516.16	34494.82
516.33	33944.79
516.51	34333.32
516.68	34132.03
516.85	34345.02
517.03	33720.10
517.20	34614.18
517.37	35044.84
517.54	35452.09
517.72	35372.52
517.89	34560.35
518.06	34543.97
518.24	34775.68
518.41	35047.18
518.58	35122.08
518.75	35005.05
518.93	35709.55
519.10	35227.40
519.27	35613.59
519.45	35695.51
519.62	36023.19
519.79	35887.43
519.96	36011.48
520.14	36374.27
520.31	36032.55
520.48	36055.95
520.65	36191.70
520.83	36697.26
521.00	37003.87
521.17	36402.35
521.34	37315.16
521.52	36680.88
521.69	36741.73
521.86	37427.51
522.03	37074.09
522.20	37083.45
522.38	37148.98
522.55	37076.43
522.72	37244.94
522.89	37357.29
523.07	37399.42
523.24	37298.78
523.41	37998.60
523.58	37638.15
523.75	38103.92
523.92	37816.04
524.10	38195.20
524.27	38251.38
524.44	38040.73
524.61	38588.41
524.78	38494.79
524.96	38234.99
525.13	38295.85
525.30	37926.04
525.47	38492.45
525.64	38473.73
525.81	38319.25
525.98	38518.20
526.16	38188.18
526.33	37567.94
526.50	38335.63
526.67	38096.90
526.84	37853.48
527.01	37944.76
527.18	38827.15
527.36	39005.03
527.53	39033.11
527.70	39459.09
527.87	39463.77
528.04	38705.44
528.21	39456.75
528.38	39173.55
528.55	39529.31
528.72	39824.22
528.89	39482.50
529.07	39475.48
529.24	39536.33
529.41	39838.26
529.58	39852.30
529.75	39569.10
529.92	39959.97
530.09	40102.74
530.26	39835.92
530.43	40360.20
530.60	40357.86
530.77	40353.18
530.94	40561.48
531.11	40257.21
531.28	40399.99
531.46	40437.44
531.63	40416.37
531.80	40289.98
531.97	40067.63
532.14	40201.04
532.31	40219.77
532.48	40299.34
532.65	40243.17
532.82	40189.34
532.99	40924.27
533.16	40577.87
533.33	40849.37
533.50	41696.64
533.67	40589.57
533.84	40840.01
534.01	40699.58
534.18	41141.94
534.35	41481.31
534.52	40945.33
534.69	41394.71
534.86	41816.01
535.03	40966.40
535.20	41635.79
535.37	41883.89
535.54	41741.11
535.71	41839.42
535.88	41546.85
536.05	41588.98
536.22	41778.56
536.38	41488.34
536.55	41652.17
536.72	41420.46
536.89	42047.72
537.06	41816.01
537.23	41825.37
537.40	41476.63
537.57	42096.88
537.74	41558.55
537.91	42249.01
538.08	42099.22
538.25	41766.86
538.42	41918.99
538.59	42274.76
538.75	42113.26
538.92	42124.96
539.09	42136.66
539.26	42373.06
539.43	42347.31
539.60	42059.43
539.77	42370.72
539.94	42564.98
540.11	42185.82
540.28	42131.98
540.44	42443.27
540.61	42061.77
540.78	41942.40
540.95	42590.73
541.12	42312.20
541.29	42492.43
541.46	42204.54
541.62	42536.90
541.79	42841.17
541.96	42342.63
542.13	42438.59
542.30	42761.59
542.47	42649.24
542.63	42876.27
542.80	42979.26
542.97	43407.58
543.14	43426.30
543.31	43548.01
543.48	43578.43
543.64	43730.57
543.81	43924.83
543.98	43824.19
544.15	43433.32
544.32	43793.76
544.48	43985.69
544.65	43819.51
544.82	43683.76
544.99	43597.16
545.16	43723.55
545.32	43817.17
545.49	44355.49
545.66	44163.57
545.83	44109.74
546.00	44119.10
546.16	43775.04
546.33	43995.05
546.50	43969.30
546.67	43955.26
546.83	43978.67
547.00	44385.92
547.17	43824.19
547.34	43924.83
547.50	44154.21
547.67	44163.57
547.84	44065.27
548.00	44088.67
548.17	44697.21
548.34	44739.34
548.51	44472.52
548.67	44657.42
548.84	44811.90
549.01	44603.59
549.18	44751.04
549.34	44617.63
549.51	44891.48
549.68	44865.73
549.84	44388.26
550.01	44641.04
550.18	44727.64
550.34	44947.65
550.51	44369.54
550.68	44690.19
550.84	44790.83
551.01	45024.89
551.18	45193.40
551.34	45048.29
551.51	44708.91
551.68	45034.25
551.84	45184.04
552.01	45181.70
552.18	44844.66
552.34	44706.57
552.51	45244.90
552.68	45057.65
552.84	45123.19
553.01	45577.25
553.18	45598.32
553.34	45001.48
553.51	44713.59
553.67	45277.66
553.84	45617.04
554.01	45724.71
554.17	45790.24
554.34	45626.40
554.51	45666.19
554.67	45895.56
554.84	45478.95
555.00	45202.77
555.17	45523.42
555.33	45406.39
555.50	45162.98
555.67	45607.68
555.83	45862.80
556.00	45907.27
556.16	45757.47
556.33	45436.82
556.50	45378.31
556.66	45610.02
556.83	45495.33
556.99	45895.56
557.16	46031.32
557.32	45785.56
557.49	45684.92
557.65	45794.92
557.82	45858.12
557.98	46014.93
558.15	45628.74
558.32	46068.76
558.48	45982.16
558.65	45890.88
558.81	45830.03
558.98	45815.99
559.14	45698.96
559.31	45446.18
559.47	46258.35
559.64	45888.54
559.80	46122.60
559.97	46302.82
560.13	45879.18
560.30	46021.95
560.46	46019.61
560.63	46485.38
560.79	46028.98
560.96	46670.28
561.12	46162.39
561.29	46036.00
561.45	46162.39
561.61	46078.13
561.78	46223.24
561.94	46120.26
562.11	46036.00
562.27	46644.54
562.44	46239.62
562.60	46473.68
562.77	46712.41
562.93	46012.59
563.10	46478.36
563.26	46314.52
563.42	46199.83
563.59	46286.43
563.75	45720.02
563.92	46639.86
564.08	46361.33
564.24	46581.34
564.41	46588.36
564.57	46153.02
564.74	46438.57
564.90	46417.50
565.07	46562.62
565.23	46321.54
565.39	46892.63
565.56	46738.16
565.72	46073.45
565.88	46347.29
566.05	46532.19
566.21	46085.15
566.38	46602.41
566.54	46213.88
566.70	46674.96
566.87	46742.84
567.03	46593.04
567.19	47140.73
567.36	46735.82
567.52	46740.50
567.68	46656.24
567.85	46471.34
568.01	46934.76
568.17	46806.03
568.34	46394.10
568.50	46333.24
568.66	47070.51
568.83	46705.39
568.99	46777.95
569.15	46394.10
569.32	46464.32
569.48	46412.82
569.64	46817.74
569.81	47159.45
569.97	46277.07
570.13	46721.77
570.30	46672.62
570.46	46326.22
570.62	46136.64
570.78	46581.34
570.95	46167.07
571.11	46632.83
571.27	46593.04
571.43	46693.69
571.60	46410.48
571.76	46564.96
571.92	46476.02
572.09	46803.69
572.25	46534.53
572.41	46499.42
572.57	46824.76
572.74	47009.66
572.90	47117.32
573.06	46714.75
573.22	46705.39
573.38	46440.91
573.55	46445.59
573.71	46576.66
573.87	47122.01
574.03	46405.80
574.20	46962.85
574.36	46693.69
574.52	46808.37
574.68	47100.94
574.84	46890.29
575.01	46639.86
575.17	47096.26
575.33	46595.38
575.49	46600.07
575.65	46586.02
575.82	46981.57
575.98	46663.26
576.14	46782.63
576.30	46883.27
576.46	46794.33
576.62	46663.26
576.79	47044.77
576.95	46726.46
577.11	46721.77
577.27	46920.72
577.43	47016.68
577.59	46745.18
577.75	46703.05
577.92	46396.44
578.08	46431.55
578.24	46223.24
578.40	46717.09
578.56	46763.90
578.72	46878.59
578.88	47208.61
579.04	46995.62
579.21	46653.90
579.37	46759.22
579.53	47075.19
579.69	46564.96
579.85	46403.46
580.01	46948.81
580.17	47185.20
580.33	46967.53
580.49	46855.18
580.65	46707.73
580.82	47093.92
580.98	46801.35
581.14	46174.09
581.30	47126.69
581.46	46866.89
581.62	46890.29
581.78	47016.68
581.94	47187.54
582.10	46548.57
582.26	46866.89
582.42	46508.79
582.58	47002.64
582.74	47026.04
582.90	47187.54
583.06	47306.91
583.22	47054.13
583.38	47150.09
583.54	46780.29
583.70	47281.16
583.86	47327.97
584.02	46569.64
584.18	46815.40
584.34	46394.10
584.50	46646.88
584.66	46960.51
584.82	46689.01
584.98	47089.24
585.14	46749.86
585.30	46763.90
585.46	46752.20
585.62	46681.98
585.78	46932.42
585.94	46560.28
586.10	47313.93
586.26	46878.59
586.42	47004.98
586.58	47192.22
586.74	47054.13
586.90	46674.96
587.06	46796.67
587.22	47117.32
587.38	47002.64
587.54	46871.57
587.70	46295.80
587.86	46595.38
588.02	46733.48
588.18	46777.95
588.34	46342.61
588.49	46344.95
588.65	46497.08
588.81	46057.06
588.97	46433.89
589.13	46443.25
589.29	46494.74
589.45	46534.53
589.61	46660.92
589.77	46733.48
589.93	46763.90
