SpectraSuite Data File
++++++++++++++++++++++++++++++++++++
Date: Fri Oct 25 10:44:03 EDT 2013
User: price-jones
Dark Spectrum Present: No
Reference Spectrum Present: No
Number of Sampled Component Spectra: 1
Spectrometers: USB2+H05261
Integration Time (usec): 100000 (USB2+H05261)
Spectra Averaged: 1 (USB2+H05261)
Boxcar Smoothing: 0 (USB2+H05261)
Correct for Electrical Dark: No (USB2+H05261)
Strobe/Lamp Enabled: No (USB2+H05261)
Correct for Detector Non-linearity: No (USB2+H05261)
Correct for Stray Light: No (USB2+H05261)
Number of Pixels in Processed Spectrum: 2048
>>>>>Begin Processed Spectral Data<<<<<
365.73	126.39
365.92	126.39
366.12	126.39
366.32	42.13
366.52	0.00
366.72	44.47
366.91	44.47
367.11	72.56
367.31	37.45
367.51	65.54
367.70	0.00
367.90	37.45
368.10	30.43
368.30	21.06
368.49	46.81
368.69	51.49
368.89	35.11
369.09	88.94
369.28	84.26
369.48	138.09
369.68	98.30
369.87	16.38
370.07	32.77
370.27	44.47
370.47	212.99
370.66	440.02
370.86	454.06
371.06	447.04
371.25	423.64
371.45	451.72
371.65	472.79
371.84	503.22
372.04	512.58
372.24	517.26
372.44	463.43
372.63	526.62
372.83	526.62
373.03	512.58
373.22	500.87
373.42	543.00
373.62	533.64
373.81	587.47
374.01	620.24
374.21	592.16
374.40	550.03
374.60	601.52
374.79	578.11
374.99	578.11
375.19	575.77
375.38	662.37
375.58	573.43
375.78	690.46
375.97	655.35
376.17	718.54
376.37	695.14
376.56	601.52
376.76	627.26
376.95	636.63
377.15	594.50
377.35	671.73
377.54	620.24
377.74	683.44
377.93	613.22
378.13	692.80
378.33	732.59
378.52	606.20
378.72	709.18
378.91	737.27
379.11	650.67
379.31	681.10
379.50	615.56
379.70	695.14
379.89	758.33
380.09	763.01
380.28	709.18
380.48	763.01
380.68	704.50
380.87	765.36
381.07	737.27
381.26	730.25
381.46	788.76
381.65	681.10
381.85	723.23
382.04	699.82
382.24	678.76
382.43	753.65
382.63	716.20
382.83	795.78
383.02	751.31
383.22	746.63
383.41	723.23
383.61	772.38
383.80	748.97
384.00	777.06
384.19	751.31
384.39	814.51
384.58	798.12
384.78	833.23
384.97	884.72
385.17	800.46
385.36	746.63
385.56	830.89
385.75	835.57
385.95	793.44
386.14	891.74
386.34	870.68
386.53	784.08
386.72	856.64
386.92	894.08
387.11	933.87
387.31	943.24
387.50	908.13
387.70	961.96
387.89	877.70
388.09	1022.81
388.28	924.51
388.48	954.94
388.67	936.21
388.86	964.30
389.06	971.32
389.25	997.07
389.45	1097.71
389.64	1022.81
389.84	1081.33
390.03	1118.78
390.22	1137.50
390.42	1013.45
390.61	1020.47
390.81	1050.90
391.00	1100.05
391.19	1128.14
391.39	1090.69
391.58	1116.44
391.78	1064.94
391.97	1081.33
392.16	1015.79
392.36	1060.26
392.55	990.05
392.75	1018.13
392.94	976.00
393.13	976.00
393.33	1015.79
393.52	1100.05
393.71	1207.72
393.91	1149.20
394.10	1160.91
394.29	1088.35
394.49	1245.16
394.68	1247.51
394.88	1268.57
395.07	1371.55
395.26	1303.68
395.46	1228.78
395.65	1350.49
395.84	1254.53
396.04	1404.32
396.23	1270.91
396.42	1252.19
396.62	1212.40
396.81	1245.16
397.00	1252.19
397.19	1338.79
397.39	1348.15
397.58	1462.83
397.77	1366.87
397.97	1488.58
398.16	1458.15
398.35	1528.37
398.55	1406.66
398.74	1519.01
398.93	1568.16
399.12	1486.24
399.32	1521.35
399.51	1537.73
399.70	1675.82
399.90	1715.61
400.09	1661.78
400.28	1720.29
400.47	1685.19
400.67	1757.74
400.86	1748.38
401.05	1774.13
401.24	1795.19
401.44	1785.83
401.63	1837.32
401.82	1853.70
402.01	1699.23
402.21	1916.90
402.40	1809.23
402.59	1732.00
402.78	1809.23
402.97	1851.36
403.17	1984.77
403.36	1930.94
403.55	1905.20
403.74	2019.88
403.93	2047.97
404.13	2069.03
404.32	1944.99
404.51	1923.92
404.70	1973.07
404.89	2033.93
405.09	2148.61
405.28	2054.99
405.47	2017.54
405.66	2017.54
405.85	2132.23
406.05	2118.18
406.24	2246.91
406.43	2139.25
406.62	2172.02
406.81	2293.72
407.00	2108.82
407.20	2195.42
407.39	2200.10
407.58	2279.68
407.77	2289.04
407.96	2289.04
408.15	2289.04
408.34	2265.64
408.54	2443.52
408.73	2328.83
408.92	2448.20
409.11	2434.16
409.30	2431.82
409.49	2370.96
409.68	2417.77
409.87	2476.29
410.07	2502.03
410.26	2420.11
410.45	2466.92
410.64	2534.80
410.83	2693.96
411.02	2567.57
411.21	2621.40
411.40	2651.83
411.59	2726.72
411.78	2640.12
411.98	2654.17
412.17	2815.66
412.36	2860.13
412.55	2902.26
412.74	2869.50
412.93	2722.04
413.12	2836.73
413.31	2965.46
413.50	2939.71
413.69	3150.36
413.88	3115.25
414.07	3098.87
414.26	3243.98
414.45	3073.12
414.64	3122.27
414.83	3164.40
415.02	3110.57
415.22	3290.79
415.41	3339.94
415.60	3243.98
415.79	3368.03
415.98	3424.20
416.17	3332.92
416.36	3314.20
416.55	3358.67
416.74	3265.05
416.93	3407.82
417.12	3323.56
417.31	3414.84
417.50	3330.58
417.69	3597.40
417.88	3676.98
418.07	3609.11
418.26	3492.08
418.45	3669.96
418.64	3623.15
418.83	3850.18
419.02	3852.52
419.21	3749.54
419.39	3805.71
419.58	3623.15
419.77	3812.73
419.96	3899.33
420.15	3754.22
420.34	3871.25
420.53	3974.23
420.72	4056.15
420.91	3904.01
421.10	4140.41
421.29	4007.00
421.48	4004.66
421.67	3983.59
421.86	3887.63
422.05	3953.16
422.24	3948.48
422.43	3988.27
422.61	3999.98
422.80	4208.28
422.99	4077.21
423.18	4138.07
423.37	4203.60
423.56	4133.39
423.75	4049.13
423.94	3962.53
424.13	3871.25
424.32	3957.85
424.50	4184.88
424.69	4212.96
424.88	4187.22
425.07	4102.96
425.26	4175.52
425.45	4114.66
425.64	4109.98
425.83	4177.86
426.01	4248.07
426.20	4093.60
426.39	4191.90
426.58	4119.34
426.77	4105.30
426.96	4107.64
427.15	4227.01
427.33	4269.14
427.52	4145.09
427.71	4297.22
427.90	4477.44
428.09	4381.48
428.28	4231.69
428.46	4344.03
428.65	4269.14
428.84	4575.75
429.03	4322.97
429.22	4187.22
429.40	4287.86
429.59	4341.69
429.78	4177.86
429.97	4131.05
430.16	4119.34
430.34	4393.19
430.53	4215.30
430.72	4348.72
430.91	4294.88
431.10	4545.32
431.28	4667.03
431.47	4762.99
431.66	4835.55
431.85	4741.93
432.03	4793.42
432.22	4802.78
432.41	4947.89
432.60	4978.32
432.79	4823.84
432.97	4919.81
433.16	4985.34
433.35	4720.86
433.54	4889.38
433.72	4947.89
433.91	4908.10
434.10	4992.36
434.28	4891.72
434.47	5074.28
434.66	5289.61
434.85	5146.84
435.03	5116.41
435.22	5200.67
435.41	5334.08
435.59	5313.02
435.78	5336.42
435.97	5401.96
436.16	5294.29
436.34	5448.77
436.53	5547.07
436.72	5399.62
436.90	5210.03
437.09	5523.66
437.28	5416.00
437.46	5345.78
437.65	5502.60
437.84	5380.89
438.02	5219.39
438.21	5270.89
438.40	5270.89
438.58	5392.59
438.77	5603.24
438.96	5636.01
439.14	5949.64
439.33	5741.33
439.52	5905.17
439.70	5870.06
439.89	5933.26
440.08	5982.41
440.26	5916.87
440.45	5975.39
440.63	6092.41
440.82	6377.96
441.01	6267.95
441.19	6317.11
441.38	6396.68
441.57	6441.15
441.75	6352.21
441.94	6424.77
442.12	6558.18
442.31	6504.35
442.50	6813.30
442.68	6637.76
442.87	6663.51
443.05	6614.35
443.24	6698.61
443.43	6717.34
443.61	6906.92
443.80	6909.26
443.98	6670.53
444.17	6541.80
444.35	6853.09
444.54	6927.99
444.73	6750.10
444.91	6614.35
445.10	6789.89
445.28	6743.08
445.47	6696.27
445.65	6691.59
445.84	6850.75
446.02	6803.94
446.21	6820.32
446.39	6731.38
446.58	7037.99
446.77	7042.67
446.95	6881.18
447.14	6967.77
447.32	6960.75
447.51	6944.37
447.69	6932.67
447.88	7035.65
448.06	7112.89
448.25	7108.21
448.43	6937.35
448.62	7173.74
448.80	7140.97
448.99	6911.60
449.17	7162.04
449.36	7152.68
449.54	7159.70
449.73	7393.75
449.91	7377.37
450.10	7384.39
450.28	7709.72
450.46	7466.31
450.65	7342.26
450.83	7419.50
451.02	7538.87
451.20	7620.78
451.39	7552.91
451.57	7531.84
451.76	7524.82
451.94	7667.60
452.13	7573.97
452.31	7520.14
452.49	7398.43
452.68	7438.22
452.86	7524.82
453.05	7641.85
453.23	7679.30
453.42	7566.95
453.60	7613.76
453.78	7915.69
453.97	7730.79
454.15	7758.88
454.34	7632.49
454.52	7791.64
454.70	7934.42
454.89	7960.16
455.07	7936.76
455.26	8070.17
455.44	8224.64
455.62	8182.51
455.81	8086.55
455.99	8444.65
456.17	8367.42
456.36	8308.90
456.54	8243.37
456.73	8393.16
456.91	8468.06
457.09	8571.04
457.28	8449.33
457.46	8446.99
457.64	8456.36
457.83	8465.72
458.01	8315.92
458.19	8592.11
458.38	8486.78
458.56	8767.65
458.74	8475.08
458.93	8589.77
459.11	8573.38
459.29	8304.22
459.48	8704.45
459.66	8578.06
459.84	8830.84
460.03	8863.61
460.21	8762.97
460.39	8854.25
460.57	8863.61
460.76	8999.36
460.94	9057.87
461.12	8779.35
461.31	8936.17
461.49	9116.39
461.67	9018.08
461.85	9327.03
462.04	9221.71
462.22	9659.39
462.40	9184.26
462.59	9657.05
462.77	9231.07
462.95	9392.57
463.13	9261.50
463.32	9453.42
463.50	9378.53
463.68	9465.13
463.86	9497.89
464.05	9350.44
464.23	9423.00
464.41	9518.96
464.59	9364.48
464.78	9619.60
464.96	9320.01
465.14	9439.38
465.32	9762.37
465.50	9701.52
465.69	9633.64
465.87	9575.13
466.05	9511.94
466.23	9500.23
466.41	9638.33
466.60	9748.33
466.78	9748.33
466.96	9713.22
467.14	9469.81
467.32	9689.82
467.51	10085.37
467.69	9589.17
467.87	9944.94
468.05	9987.07
468.23	9848.97
468.41	10160.27
468.60	9891.10
468.78	9858.34
468.96	9895.78
469.14	10148.56
469.32	10132.18
469.50	9858.34
469.69	10249.21
469.87	10045.58
470.05	10207.08
470.23	10333.47
470.41	10380.28
470.59	10328.78
470.77	10373.25
470.95	10417.72
471.14	10626.03
471.32	10211.76
471.50	10670.50
471.68	10930.30
471.86	10792.21
472.04	10885.83
472.22	10839.02
472.40	10717.31
472.58	10743.06
472.77	10773.49
472.95	11012.22
473.13	11365.64
473.31	11087.12
473.49	11019.24
473.67	10979.45
473.85	11124.57
474.03	11126.91
474.21	11332.87
474.39	11625.44
474.57	11475.65
474.75	11878.22
474.93	11838.43
475.12	11595.01
475.30	11768.21
475.48	11536.50
475.66	11777.58
475.84	11632.46
476.02	12102.91
476.20	11864.18
476.38	12020.99
476.56	12196.53
476.74	12346.33
476.92	12334.62
477.10	12285.47
477.28	12624.85
477.46	12795.71
477.64	12844.86
477.82	12870.61
478.00	13020.40
478.18	13111.68
478.36	13064.87
478.54	13214.66
478.72	13240.41
478.90	13390.20
479.08	13563.40
479.26	13565.74
479.44	13614.90
479.62	13837.25
479.80	13682.77
479.98	14012.79
480.16	14139.18
480.34	14012.79
480.52	14263.22
480.70	14197.69
480.88	14066.62
481.06	14511.32
481.24	14466.85
481.41	14956.02
481.59	15241.57
481.77	14977.09
481.95	15185.40
482.13	15201.78
482.31	15150.29
482.49	15541.16
482.67	15468.60
482.85	15765.85
483.03	15981.18
483.21	15840.75
483.39	15946.07
483.57	15896.92
483.74	16365.03
483.92	16093.52
484.10	16259.70
484.28	16641.21
484.46	16905.69
484.64	17467.42
484.82	16554.61
485.00	16987.61
485.18	17053.14
485.35	17191.23
485.53	16905.69
485.71	16549.93
485.89	17235.70
486.07	17057.82
486.25	17275.49
486.43	17514.23
486.61	17944.89
486.78	17923.82
486.96	18141.49
487.14	18576.83
487.32	18513.64
487.50	18838.97
487.68	18944.30
487.85	19227.50
488.03	19309.42
488.21	19421.77
488.39	19098.77
488.57	19435.81
488.75	19396.02
488.92	19723.69
489.10	20112.22
489.28	20140.31
489.46	20435.22
489.64	20643.52
489.81	20886.94
489.99	20849.49
490.17	20973.54
490.35	21095.25
490.53	20737.15
490.70	21097.59
490.88	21221.64
491.06	21673.36
491.24	21322.28
491.41	21661.66
491.59	21738.90
491.77	21537.61
491.95	22143.81
492.13	22279.56
492.30	22665.75
492.48	22883.42
492.66	22452.76
492.84	22778.09
493.01	22979.38
493.19	22852.99
493.37	23227.48
493.54	23255.56
493.72	23498.98
493.90	23599.62
494.08	23915.59
494.25	24126.24
494.43	23971.77
494.61	24439.87
494.79	24229.23
494.96	24479.66
495.14	24474.98
495.32	24896.28
495.49	24608.39
495.67	24741.80
495.85	25015.65
496.02	25221.61
496.20	25200.55
496.38	25486.09
496.55	25507.16
496.73	25785.68
496.91	25738.87
497.09	26038.46
497.26	26003.35
497.44	25928.45
497.62	25872.28
497.79	26567.42
497.97	26040.80
498.14	26204.64
498.32	26324.01
498.50	26480.82
498.67	26757.00
498.85	26916.16
499.03	27234.47
499.20	27241.50
499.38	27225.11
499.56	27861.74
499.73	27543.42
499.91	27676.83
500.08	27653.43
500.26	27578.53
500.44	27775.14
500.61	27812.59
500.79	27700.24
500.97	27934.29
501.14	28201.11
501.32	28243.24
501.49	27967.06
501.67	28231.54
501.84	28353.25
502.02	28367.29
502.20	28563.90
502.37	28961.79
502.55	28641.14
502.72	29060.09
502.90	29280.10
503.07	29142.01
503.25	29113.92
503.43	29277.76
503.60	29039.03
503.78	28994.56
503.95	28978.17
504.13	29631.18
504.30	29633.52
504.48	29607.78
504.65	30321.64
504.83	30342.70
505.01	30139.08
505.18	29795.02
505.36	30518.25
505.53	30621.23
505.71	31140.83
505.88	30752.30
506.06	30410.58
506.23	30536.97
506.41	30728.89
506.58	30649.32
506.76	30796.77
506.93	31309.35
507.11	30976.99
507.28	31110.40
507.46	31021.46
507.63	31229.77
507.81	31438.08
507.98	31262.54
508.16	31222.75
508.33	31742.35
508.50	31871.07
508.68	31978.74
508.85	32252.58
509.03	32299.39
509.20	31936.61
509.38	32442.17
509.55	32252.58
509.73	32474.93
509.90	32563.87
510.08	32308.76
510.25	32575.58
510.42	32421.10
510.60	32994.53
510.77	32872.82
510.95	33024.96
511.12	33062.41
511.30	33411.15
511.47	33132.62
511.64	33830.10
511.82	33530.51
511.99	32716.01
512.17	33467.32
512.34	32631.75
512.51	33717.76
512.69	34036.07
512.86	34092.24
513.04	33879.25
513.21	33720.10
513.38	33977.56
513.56	33890.96
513.73	33806.70
513.90	33869.89
514.08	34380.13
514.25	34038.41
514.43	34110.97
514.60	34155.44
514.77	34586.10
514.95	35058.88
515.12	34600.14
515.29	34888.03
515.47	35248.47
515.64	35112.72
515.81	34799.08
515.99	35014.41
516.16	34740.57
516.33	34522.90
516.51	34972.28
516.68	33989.26
516.85	34483.11
517.03	34237.36
517.20	34724.19
517.37	35353.79
517.54	35529.33
517.72	35363.15
517.89	34717.17
518.06	35145.48
518.24	35012.07
518.41	35185.27
518.58	35782.11
518.75	35695.51
518.93	35992.76
519.10	35833.60
519.27	36009.14
519.45	35959.99
519.62	36383.63
519.79	36229.15
519.96	36573.21
520.14	36788.54
520.31	36016.16
520.48	36896.20
520.65	36690.24
520.83	36795.56
521.00	37144.30
521.17	37340.91
521.34	37471.98
521.52	37088.13
521.69	37247.29
521.86	37539.85
522.03	37605.39
522.20	37324.52
522.38	37614.75
522.55	37893.27
522.72	37500.06
522.89	37287.07
523.07	38005.62
523.24	37546.87
523.41	38557.99
523.58	37881.57
523.75	38426.92
523.92	38450.32
524.10	38398.83
524.27	38288.82
524.44	38785.02
524.61	38611.82
524.78	38536.92
524.96	38827.15
525.13	38883.32
525.30	38955.88
525.47	39002.69
525.64	38876.30
525.81	38635.22
525.98	38534.58
526.16	38312.23
526.33	38363.72
526.50	38944.17
526.67	38099.24
526.84	38689.06
527.01	38796.72
527.18	38735.87
527.36	39328.02
527.53	39482.50
527.70	39552.71
527.87	39545.69
528.04	39416.96
528.21	39697.83
528.38	39751.66
528.55	40011.46
528.72	40198.70
528.89	40563.82
529.07	39868.69
529.24	39559.73
529.41	39782.09
529.58	40236.15
529.75	40130.83
529.92	40027.84
530.09	40318.07
530.26	40533.40
530.43	40289.98
530.60	40217.43
530.77	40271.26
530.94	40432.75
531.11	40690.21
531.28	40825.96
531.46	40790.86
531.63	40776.81
531.80	40783.83
531.97	40226.79
532.14	40425.73
532.31	40737.02
532.48	40568.51
532.65	40479.57
532.82	41139.60
532.99	41071.72
533.16	40711.28
533.33	41055.34
533.50	41476.63
533.67	41539.83
533.84	41125.55
534.01	40964.06
534.18	41397.06
534.35	41951.76
534.52	41195.77
534.69	42139.00
534.86	41911.97
535.03	41509.40
535.20	42188.16
535.37	42557.96
535.54	42504.13
535.71	42143.69
535.88	41825.37
536.05	41867.50
536.22	42153.05
536.38	42068.79
536.55	41942.40
536.72	42422.21
536.89	41783.24
537.06	41675.58
537.23	42457.32
537.40	42284.12
537.57	42295.82
537.74	42799.04
537.91	42864.57
538.08	42438.59
538.25	42532.22
538.42	42225.60
538.59	42651.58
538.75	42564.98
538.92	42335.61
539.09	42398.80
539.26	42555.62
539.43	42836.48
539.60	42859.89
539.77	42852.87
539.94	42518.17
540.11	42703.07
540.28	42616.47
540.44	42525.19
540.61	43061.18
540.78	42026.66
540.95	42300.50
541.12	42653.92
541.29	42663.28
541.46	43100.97
541.62	42728.82
541.79	43180.54
541.96	42831.80
542.13	42639.88
542.30	42953.51
542.47	43526.94
542.63	43168.84
542.80	43145.44
542.97	43538.65
543.14	43983.35
543.31	43842.92
543.48	43833.55
543.64	44399.96
543.81	44172.93
543.98	43931.86
544.15	43484.81
544.32	43934.20
544.48	44589.55
544.65	44292.30
544.82	44133.14
544.99	43592.48
545.16	44212.72
545.32	43700.14
545.49	44493.58
545.66	44861.05
545.83	44301.66
546.00	44662.10
546.16	44313.36
546.33	44737.00
546.50	44154.21
546.67	44502.95
546.83	44013.77
547.00	44437.41
547.17	44687.85
547.34	44093.35
547.50	44170.59
547.67	44844.66
547.84	44247.83
548.00	44875.09
548.17	45137.23
548.34	44591.89
548.51	45284.68
548.67	44940.63
548.84	44992.12
549.01	44772.11
549.18	44919.56
549.34	45504.70
549.51	45027.23
549.68	45242.56
549.84	45226.17
550.01	45099.78
550.18	45258.94
550.34	45579.59
550.51	45483.63
550.68	45179.36
550.84	45139.57
551.01	45179.36
551.18	44954.67
551.34	45350.22
551.51	45481.29
551.68	45132.55
551.84	45762.15
552.01	45462.57
552.18	45745.77
552.34	45177.02
552.51	45303.41
552.68	45261.28
552.84	45656.83
553.01	45741.09
553.18	45523.42
553.34	45483.63
553.51	45439.16
553.67	45968.12
553.84	46293.46
554.01	45785.56
554.17	46045.36
554.34	45806.62
554.51	45752.79
554.67	45986.85
554.84	46010.25
555.00	46024.29
555.17	46169.41
555.33	45794.92
555.50	46064.08
555.67	46017.27
555.83	45879.18
556.00	45745.77
556.16	46113.23
556.33	45713.00
556.50	45815.99
556.66	46129.62
556.83	45495.33
556.99	46321.54
557.16	46082.81
557.32	46485.38
557.49	46644.54
557.65	45668.53
557.82	45965.78
557.98	46340.27
558.15	46307.50
558.32	46384.74
558.48	45757.47
558.65	46272.39
558.81	45794.92
558.98	46487.72
559.14	46071.10
559.31	45745.77
559.47	46665.60
559.64	46321.54
559.80	46094.51
559.97	46356.65
560.13	46457.29
560.30	46438.57
560.46	46389.42
560.63	46424.53
560.79	46763.90
560.96	46560.28
561.12	46216.22
561.29	46508.79
561.45	46433.89
561.61	46223.24
561.78	46251.33
561.94	46319.20
562.11	46452.61
562.27	46499.42
562.44	46396.44
562.60	46649.22
562.77	46923.06
562.93	46504.10
563.10	46923.06
563.26	46382.40
563.42	46941.78
563.59	46185.79
563.75	46726.46
563.92	47051.79
564.08	46677.30
564.24	46925.40
564.41	46412.82
564.57	46997.96
564.74	46789.65
564.90	46621.13
565.07	46557.94
565.23	46412.82
565.39	46623.47
565.56	46794.33
565.72	46277.07
565.88	46698.37
566.05	46469.00
566.21	46363.67
566.38	46653.90
566.54	46717.09
566.70	47016.68
566.87	46857.52
567.03	46740.50
567.19	47409.89
567.36	46878.59
567.52	46894.97
567.68	46897.31
567.85	46696.03
568.01	46941.78
568.17	46539.21
568.34	46806.03
568.50	46862.21
568.66	46410.48
568.83	46796.67
568.99	46770.93
569.15	46452.61
569.32	46417.50
569.48	46834.12
569.64	47016.68
569.81	47241.37
569.97	46869.23
570.13	47267.12
570.30	46848.16
570.46	46328.56
570.62	46302.82
570.78	46656.24
570.95	46354.31
571.11	46813.05
571.27	46635.17
571.43	46829.44
571.60	46738.16
571.76	47033.07
571.92	47098.60
572.09	46925.40
572.25	46653.90
572.41	46983.91
572.57	47714.16
572.74	47302.23
572.90	47150.09
573.06	47414.57
573.22	47042.43
573.38	47372.44
573.55	47028.38
573.71	47098.60
573.87	47234.35
574.03	46745.18
574.20	47206.26
574.36	46953.49
574.52	46841.14
574.68	47047.11
574.84	47222.65
575.01	46857.52
575.17	47129.03
575.33	47004.98
575.49	47152.43
575.65	47189.88
575.82	47131.37
575.98	46756.88
576.14	47049.45
576.30	47063.49
576.46	46808.37
576.62	46459.63
576.79	46679.64
576.95	46946.47
577.11	46897.31
577.27	47056.47
577.43	46740.50
577.59	46731.14
577.75	46639.86
577.92	46869.23
578.08	46649.22
578.24	46295.80
578.40	46934.76
578.56	46885.61
578.72	47152.43
578.88	47454.36
579.04	47002.64
579.21	46625.81
579.37	46756.88
579.53	47363.08
579.69	46951.15
579.85	47229.67
580.01	47407.55
580.17	46782.63
580.33	47199.24
580.49	47112.64
580.65	47325.63
580.82	47299.89
580.98	47206.26
581.14	47180.52
581.30	47304.57
581.46	47173.50
581.62	47323.29
581.78	47175.84
581.94	47386.49
582.10	46883.27
582.26	47164.14
582.42	47545.64
582.58	47227.33
582.74	46862.21
582.90	47299.89
583.06	47138.39
583.22	46712.41
583.38	47222.65
583.54	47517.56
583.70	47363.08
583.86	47349.04
584.02	47236.69
584.18	47377.12
584.34	46960.51
584.50	47276.48
584.66	47304.57
584.82	47023.70
584.98	47077.54
585.14	47274.14
585.30	47351.38
585.46	46951.15
585.62	46925.40
585.78	46955.83
585.94	46925.40
586.10	47150.09
586.26	47173.50
586.42	47510.53
586.58	47461.38
586.74	47325.63
586.90	46960.51
587.06	47124.35
587.22	47138.39
587.38	46787.31
587.54	47445.00
587.70	47210.95
587.86	47407.55
588.02	46990.94
588.18	47175.84
588.34	46960.51
588.49	46803.69
588.65	46759.22
588.81	46541.55
588.97	46483.04
589.13	46600.07
589.29	46574.32
589.45	46588.36
589.61	46794.33
589.77	47208.61
