SpectraSuite Data File
++++++++++++++++++++++++++++++++++++
Date: Fri Oct 25 10:44:35 EDT 2013
User: price-jones
Dark Spectrum Present: No
Reference Spectrum Present: No
Number of Sampled Component Spectra: 1
Spectrometers: USB2+H05261
Integration Time (usec): 100000 (USB2+H05261)
Spectra Averaged: 1 (USB2+H05261)
Boxcar Smoothing: 0 (USB2+H05261)
Correct for Electrical Dark: No (USB2+H05261)
Strobe/Lamp Enabled: No (USB2+H05261)
Correct for Detector Non-linearity: No (USB2+H05261)
Correct for Stray Light: No (USB2+H05261)
Number of Pixels in Processed Spectrum: 2048
>>>>>Begin Processed Spectral Data<<<<<
365.73	140.43
365.92	140.43
366.12	140.43
366.32	37.45
366.52	35.11
366.72	95.96
366.91	18.72
367.11	9.36
367.31	74.90
367.51	7.02
367.70	56.17
367.90	72.56
368.10	0.00
368.30	44.47
368.49	0.00
368.69	39.79
368.89	7.02
369.09	56.17
369.28	114.69
369.48	42.13
369.68	53.83
369.87	77.24
370.07	102.98
370.27	147.45
370.47	187.24
370.66	351.08
370.86	353.42
371.06	402.57
371.25	414.27
371.45	400.23
371.65	437.68
371.84	407.25
372.04	376.83
372.24	411.93
372.44	482.15
372.63	512.58
372.83	500.87
373.03	510.24
373.22	528.96
373.42	500.87
373.62	533.64
373.81	514.92
374.01	617.90
374.21	535.98
374.40	498.53
374.60	615.56
374.79	578.11
374.99	559.39
375.19	571.09
375.38	535.98
375.58	596.84
375.78	535.98
375.97	543.00
376.17	571.09
376.37	507.90
376.56	561.73
376.76	510.24
376.95	622.58
377.15	587.47
377.35	533.64
377.54	603.86
377.74	610.88
377.93	681.10
378.13	627.26
378.33	641.31
378.52	692.80
378.72	592.16
378.91	662.37
379.11	636.63
379.31	587.47
379.50	631.94
379.70	685.78
379.89	704.50
380.09	678.76
380.28	674.07
380.48	664.71
380.68	704.50
380.87	599.18
381.07	645.99
381.26	643.65
381.46	699.82
381.65	634.29
381.85	627.26
382.04	634.29
382.24	648.33
382.43	629.60
382.63	660.03
382.83	697.48
383.02	725.57
383.22	746.63
383.41	678.76
383.61	706.84
383.80	786.42
384.00	695.14
384.19	725.57
384.39	770.04
384.58	660.03
384.78	685.78
384.97	809.83
385.17	767.70
385.36	727.91
385.56	763.01
385.75	793.44
385.95	765.36
386.14	774.72
386.34	748.97
386.53	809.83
386.72	795.78
386.92	858.98
387.11	779.40
387.31	929.19
387.50	753.65
387.70	814.51
387.89	868.34
388.09	863.66
388.28	835.57
388.48	835.57
388.67	910.47
388.86	947.92
389.06	858.98
389.25	924.51
389.45	922.17
389.64	884.72
389.84	964.30
390.03	922.17
390.22	957.28
390.42	938.55
390.61	952.60
390.81	870.68
391.00	870.68
391.19	945.58
391.39	997.07
391.58	936.21
391.78	931.53
391.97	966.64
392.16	952.60
392.36	964.30
392.55	861.32
392.75	994.73
392.94	987.71
393.13	880.04
393.33	896.43
393.52	1036.86
393.71	1025.15
393.91	1029.84
394.10	1025.15
394.29	1055.58
394.49	1083.67
394.68	1118.78
394.88	1135.16
395.07	1142.18
395.26	1095.37
395.46	1032.18
395.65	1118.78
395.84	1132.82
396.04	1116.44
396.23	1144.52
396.42	1130.48
396.62	1053.24
396.81	1123.46
397.00	1181.97
397.19	1177.29
397.39	1172.61
397.58	1322.40
397.77	1186.65
397.97	1203.04
398.16	1266.23
398.35	1308.36
398.55	1320.06
398.74	1385.60
398.93	1329.42
399.12	1324.74
399.32	1327.08
399.51	1446.45
399.70	1483.90
399.90	1404.32
400.09	1397.30
400.28	1509.65
400.47	1406.66
400.67	1411.34
400.86	1476.88
401.05	1411.34
401.24	1465.18
401.44	1469.86
401.63	1547.09
401.82	1530.71
402.01	1472.20
402.21	1572.84
402.40	1497.94
402.59	1540.07
402.78	1528.37
402.97	1528.37
403.17	1579.86
403.36	1610.29
403.55	1605.61
403.74	1699.23
403.93	1643.06
404.13	1673.48
404.32	1621.99
404.51	1612.63
404.70	1652.42
404.89	1755.40
405.09	1701.57
405.28	1755.40
405.47	1689.87
405.66	1832.64
405.85	1849.02
406.05	1720.29
406.24	1804.55
406.43	1760.08
406.62	1837.32
406.81	1980.09
407.00	1818.60
407.20	1813.92
407.39	1846.68
407.58	1867.75
407.77	1905.20
407.96	1926.26
408.15	2008.18
408.34	2052.65
408.54	1935.62
408.73	2012.86
408.92	2052.65
409.11	2165.00
409.30	2059.67
409.49	1996.48
409.68	2033.93
409.87	2148.61
410.07	2059.67
410.26	2052.65
410.45	2190.74
410.64	2118.18
410.83	2127.55
411.02	2186.06
411.21	2340.54
411.40	2263.30
411.59	2427.14
411.78	2244.57
411.98	2335.85
412.17	2305.43
412.36	2485.65
412.55	2427.14
412.74	2537.14
412.93	2532.46
413.12	2396.71
413.31	2663.53
413.50	2560.55
413.69	2466.92
413.88	2602.68
414.07	2551.18
414.26	2628.42
414.45	2630.76
414.64	2729.06
414.83	2693.96
415.02	2633.10
415.22	2670.55
415.41	2869.50
415.60	2822.69
415.79	2981.84
415.98	2878.86
416.17	2925.67
416.36	2942.05
416.55	2904.60
416.74	2792.26
416.93	3009.93
417.12	3110.57
417.31	2988.86
417.50	3038.02
417.69	3112.91
417.88	3045.04
418.07	3164.40
418.26	3241.64
418.45	3133.98
418.64	3157.38
418.83	3236.96
419.02	3183.13
419.21	3286.11
419.39	3143.34
419.58	3206.53
419.77	3185.47
419.96	3300.16
420.15	3234.62
420.34	3253.34
420.53	3361.01
420.72	3456.97
420.91	3541.23
421.10	3506.12
421.29	3534.21
421.48	3454.63
421.67	3452.29
421.86	3386.76
422.05	3356.33
422.24	3428.88
422.43	3473.36
422.61	3506.12
422.80	3487.40
422.99	3571.66
423.18	3620.81
423.37	3653.58
423.56	3599.74
423.75	3665.28
423.94	3431.23
424.13	3314.20
424.32	3438.25
424.50	3522.51
424.69	3681.66
424.88	3632.51
425.07	3581.02
425.26	3520.17
425.45	3679.32
425.64	3637.19
425.83	3522.51
426.01	3609.11
426.20	3564.64
426.39	3625.49
426.58	3613.79
426.77	3653.58
426.96	3712.09
427.15	3566.98
427.33	3887.63
427.52	3665.28
427.71	3845.50
427.90	3765.92
428.09	3899.33
428.28	3726.13
428.46	3707.41
428.65	3868.91
428.84	3985.93
429.03	3990.61
429.22	3845.50
429.40	3719.11
429.59	3772.94
429.78	3728.47
429.97	3660.60
430.16	3756.56
430.34	3868.91
430.53	3873.59
430.72	3866.56
430.91	3967.21
431.10	3955.51
431.28	4196.58
431.47	4264.46
431.66	4219.99
431.85	4037.42
432.03	4388.50
432.22	4329.99
432.41	4065.51
432.60	4224.67
432.79	4353.40
432.97	4320.63
433.16	4276.16
433.35	4222.33
433.54	4294.88
433.72	4346.37
433.91	4285.52
434.10	4346.37
434.28	4402.55
434.47	4388.50
434.66	4477.44
434.85	4650.64
435.03	4482.13
435.22	4528.94
435.41	4688.09
435.59	4451.70
435.78	4617.88
435.97	4758.31
436.16	4648.30
436.34	4655.33
436.53	4505.53
436.72	4786.40
436.90	4514.89
437.09	4535.96
437.28	4622.56
437.46	4601.49
437.65	4730.22
437.84	4861.29
438.02	4713.84
438.21	4952.57
438.40	4821.50
438.58	5043.85
438.77	4959.60
438.96	4933.85
439.14	5032.15
439.33	5001.72
439.52	5160.88
439.70	5303.65
439.89	5193.65
440.08	5317.70
440.26	5219.39
440.45	5165.56
440.63	5256.84
440.82	5418.34
441.01	5334.08
441.19	5383.23
441.38	5570.48
441.57	5425.36
441.75	5521.32
441.94	5699.20
442.12	5795.17
442.31	5687.50
442.50	5781.12
442.68	5748.36
442.87	5647.71
443.05	5614.95
443.24	5893.47
443.43	5668.78
443.61	5881.77
443.80	6036.24
443.98	5849.00
444.17	5820.91
444.35	5877.09
444.54	5879.43
444.73	5858.36
444.91	5809.21
445.10	5982.41
445.28	5802.19
445.47	5753.04
445.65	5912.19
445.84	5928.58
446.02	6026.88
446.21	5863.04
446.39	5991.77
446.58	6104.12
446.77	5963.68
446.95	6024.54
447.14	6083.05
447.32	6155.61
447.51	6080.71
447.69	6078.37
447.88	6036.24
448.06	6167.31
448.25	6258.59
448.43	6270.30
448.62	6038.58
448.80	6132.20
448.99	6157.95
449.17	6155.61
449.36	5956.66
449.54	6352.21
449.73	6300.72
449.91	6682.23
450.10	6527.75
450.28	6565.20
450.46	6520.73
450.65	6548.82
450.83	6574.56
451.02	6389.66
451.20	6413.07
451.39	6532.44
451.57	6567.54
451.76	6520.73
451.94	6546.48
452.13	6710.32
452.31	6396.68
452.49	6654.14
452.68	6707.98
452.86	6574.56
453.05	6609.67
453.23	6663.51
453.42	6717.34
453.60	6766.49
453.78	6806.28
453.97	6654.14
454.15	6682.23
454.34	6759.47
454.52	6902.24
454.70	6974.80
454.89	6827.34
455.07	6949.05
455.26	6911.60
455.44	7040.33
455.62	6939.69
455.81	6967.77
455.99	7173.74
456.17	7037.99
456.36	6944.37
456.54	7183.10
456.73	7339.92
456.91	7283.75
457.09	7311.83
457.28	7541.21
457.46	7089.48
457.64	7288.43
457.83	7360.98
458.01	7449.93
458.19	7496.74
458.38	7290.77
458.56	7426.52
458.74	7524.82
458.93	7302.47
459.11	7625.47
459.29	7566.95
459.48	7709.72
459.66	7529.50
459.84	7716.75
460.03	7873.56
460.21	7791.64
460.39	7709.72
460.57	7665.25
460.76	7756.54
460.94	7719.09
461.12	7747.17
461.31	7798.66
461.49	7857.18
461.67	7775.26
461.85	8044.42
462.04	7939.10
462.22	8259.75
462.40	8013.99
462.59	8124.00
462.77	8124.00
462.95	8219.96
463.13	8079.53
463.32	8074.85
463.50	8124.00
463.68	8194.22
463.86	8280.82
464.05	8065.49
464.23	8091.23
464.41	8196.56
464.59	8276.13
464.78	8339.33
464.96	8346.35
465.14	8341.67
465.32	8538.27
465.50	8428.27
465.69	8430.61
465.87	8369.76
466.05	8376.78
466.23	8365.07
466.41	8428.27
466.60	8521.89
466.78	8432.95
466.96	8446.99
467.14	8566.36
467.32	8655.30
467.51	8882.33
467.69	8505.51
467.87	8732.54
468.05	8769.99
468.23	8397.84
468.41	8549.98
468.60	8648.28
468.78	8765.31
468.96	8678.71
469.14	8910.42
469.32	8917.44
469.50	8655.30
469.69	8901.06
469.87	9053.19
470.05	9078.94
470.23	8994.68
470.41	8807.44
470.59	9170.22
470.77	8821.48
470.95	9238.09
471.14	9392.57
471.32	8926.80
471.50	9207.67
471.68	9320.01
471.86	9174.90
472.04	9570.45
472.22	9708.54
472.40	9383.21
472.58	9710.88
472.77	9486.19
472.95	9785.78
473.13	10111.11
473.31	9586.83
473.49	9806.84
473.67	9851.31
473.85	9877.06
474.03	10061.96
474.21	9919.19
474.39	10118.14
474.57	10214.10
474.75	10300.70
474.93	10324.10
475.12	10260.91
475.30	10188.35
475.48	10188.35
475.66	10408.36
475.84	10455.17
476.02	10391.98
476.20	10424.75
476.38	10436.45
476.56	10946.69
476.74	10768.80
476.92	10794.55
477.10	10906.90
477.28	11000.52
477.46	10920.94
477.64	11243.93
477.82	11435.86
478.00	11562.25
478.18	11609.06
478.36	11686.29
478.54	11698.00
478.72	11662.89
478.90	11616.08
479.08	11793.96
479.26	12098.23
479.44	12088.87
479.62	12112.27
479.80	12168.45
479.98	12175.47
480.16	12748.90
480.34	12444.63
480.52	12620.17
480.70	12732.51
480.88	12524.21
481.06	12695.07
481.24	12938.48
481.41	13092.96
481.59	13029.76
481.77	13135.09
481.95	13376.16
482.13	13177.22
482.31	13359.78
482.49	13809.16
482.67	13769.37
482.85	13736.60
483.03	13933.21
483.21	14256.20
483.39	14389.61
483.57	14012.79
483.74	14347.48
483.92	14394.29
484.10	14450.47
484.28	14548.77
484.46	14736.01
484.64	14984.11
484.82	14822.61
485.00	14860.06
485.18	15176.03
485.35	15316.47
485.53	15374.98
485.71	15140.93
485.89	15417.11
486.07	15382.00
486.25	15435.83
486.43	15847.77
486.61	15857.13
486.78	16032.67
486.96	16013.95
487.14	16589.72
487.32	16184.80
487.50	16641.21
487.68	16608.44
487.85	17027.40
488.03	17259.11
488.21	17364.43
488.39	17200.60
488.57	17444.01
488.75	17296.56
488.92	17781.05
489.10	17783.39
489.28	18134.47
489.46	18005.74
489.64	18139.15
489.81	18703.22
489.99	18618.96
490.17	18581.51
490.35	18838.97
490.53	18644.71
490.70	18885.78
490.88	19215.80
491.06	19412.40
491.24	19253.25
491.41	19264.95
491.59	19185.37
491.77	19271.97
491.95	19566.88
492.13	19988.18
492.30	20219.89
492.48	19983.49
492.66	20348.62
492.84	20081.80
493.01	20631.82
493.19	20617.78
493.37	20683.31
493.54	20526.50
493.72	21228.66
493.90	21097.59
494.08	21333.98
494.25	21411.22
494.43	21532.93
494.61	21825.50
494.79	21701.45
494.96	21652.30
495.14	21680.38
495.32	22302.96
495.49	22045.51
495.67	21965.93
495.85	21898.05
496.02	22181.26
496.20	22466.80
496.38	22295.94
496.55	22480.85
496.73	23372.59
496.91	23126.83
497.09	22867.03
497.26	23388.97
497.44	23346.84
497.62	23487.28
497.79	23704.95
497.97	23463.87
498.14	23927.30
498.32	23915.59
498.50	23943.68
498.67	24233.91
498.85	24091.13
499.03	24386.04
499.20	24168.37
499.38	24648.18
499.56	24372.00
499.73	24891.60
499.91	24474.98
500.08	25083.52
500.26	24505.41
500.44	24819.04
500.61	24994.58
500.79	24765.21
500.97	25214.59
501.14	25474.39
501.32	25291.83
501.49	25476.73
501.67	25570.35
501.84	25818.45
502.02	25453.33
502.20	25825.47
502.37	25996.33
502.55	25947.18
502.72	25839.51
502.90	25944.84
503.07	26153.15
503.25	26242.09
503.43	26162.51
503.60	26277.19
503.78	26307.62
503.95	26700.83
504.13	26724.24
504.30	26565.08
504.48	26717.22
504.65	26911.48
504.83	27269.58
505.01	27335.12
505.18	27222.77
505.36	27229.79
505.53	27625.34
505.71	27115.11
505.88	27669.81
506.06	27459.16
506.23	27463.85
506.41	27309.37
506.58	27950.68
506.76	28018.55
506.93	28278.35
507.11	28299.42
507.28	28313.46
507.46	28112.17
507.63	28163.67
507.81	28489.00
507.98	28737.10
508.16	28212.82
508.33	28748.80
508.50	28701.99
508.68	28678.58
508.85	29207.55
509.03	28891.57
509.20	28978.17
509.38	29324.57
509.55	29165.42
509.73	29076.48
509.90	29577.35
510.08	29450.96
510.25	29277.76
510.42	29397.13
510.60	29841.83
510.77	29677.99
510.95	30199.93
511.12	29954.18
511.30	29813.74
511.47	30178.87
511.64	29947.15
511.82	30279.51
511.99	30251.42
512.17	30232.70
512.34	30288.87
512.51	30960.61
512.69	30780.39
512.86	30878.69
513.04	30979.33
513.21	31213.38
513.38	30808.47
513.56	30972.31
513.73	30567.40
513.90	30756.98
514.08	30735.92
514.25	31009.76
514.43	31049.55
514.60	31185.30
514.77	31356.16
514.95	31732.98
515.12	31716.60
515.29	31508.29
515.47	31709.58
515.64	31868.73
515.81	31821.92
515.99	31990.44
516.16	32271.31
516.33	31648.72
516.51	32095.77
516.68	31473.18
516.85	31988.10
517.03	31667.45
517.20	32304.07
517.37	32034.91
517.54	32231.52
517.72	32355.57
517.89	32435.14
518.06	32315.78
518.24	32374.29
518.41	32393.01
518.58	32634.09
518.75	32540.47
518.93	32840.06
519.10	33174.75
519.27	32931.34
519.45	32910.27
519.62	33507.11
519.79	33455.62
519.96	33408.81
520.14	33677.97
520.31	33226.24
520.48	33841.81
520.65	33364.34
520.83	33912.02
521.00	33748.18
521.17	33640.52
521.34	33813.72
521.52	34183.52
521.69	33940.11
521.86	34117.99
522.03	33979.90
522.20	34216.29
522.38	34251.40
522.55	34298.21
522.72	34637.59
522.89	34501.84
523.07	34373.11
523.24	34529.92
523.41	34876.32
523.58	34857.60
523.75	34885.68
523.92	35236.77
524.10	35159.53
524.27	35037.82
524.44	35360.81
524.61	35185.27
524.78	35426.35
524.96	35524.65
525.13	35337.41
525.30	34967.60
525.47	35777.43
525.64	35955.31
525.81	35683.81
525.98	35548.06
526.16	35435.71
526.33	35487.20
526.50	35732.96
526.67	35433.37
526.84	35847.64
527.01	35620.61
527.18	36002.12
527.36	36184.68
527.53	36334.48
527.70	36617.68
527.87	36116.81
528.04	36327.45
528.21	36259.58
528.38	36198.73
528.55	36503.00
528.72	36453.84
528.89	36959.40
529.07	36706.62
529.24	36631.72
529.41	36816.63
529.58	36732.37
529.75	36884.50
529.92	37273.03
530.09	36828.33
530.26	36718.32
530.43	37092.81
530.60	37380.70
530.77	37064.72
530.94	37462.61
531.11	37081.11
531.28	37553.90
531.46	37509.43
531.63	37427.51
531.80	37319.84
531.97	37247.29
532.14	37661.56
532.31	37123.24
532.48	37841.78
532.65	37923.70
532.82	37139.62
532.99	37794.97
533.16	37633.47
533.33	37743.48
533.50	38061.79
533.67	38103.92
533.84	38000.94
534.01	38031.36
534.18	38225.63
534.35	37979.87
534.52	37965.83
534.69	38305.21
534.86	38433.94
535.03	37888.59
535.20	38197.54
535.37	38539.26
535.54	38778.00
535.71	38689.06
535.88	38618.84
536.05	38698.42
536.22	39091.63
536.38	38682.03
536.55	38281.80
536.72	38520.54
536.89	38363.72
537.06	38162.43
537.23	38555.64
537.40	38927.79
537.57	39225.04
537.74	38939.49
537.91	39288.23
538.08	39098.65
538.25	38969.92
538.42	39166.52
538.59	39763.36
538.75	39346.75
538.92	38965.24
539.09	39126.74
539.26	39180.57
539.43	39398.24
539.60	39611.23
539.77	39239.08
539.94	39533.99
540.11	39213.34
540.28	39936.56
540.44	39817.19
540.61	39583.14
540.78	39749.32
540.95	39281.21
541.12	39959.97
541.29	39515.26
541.46	39508.24
541.62	39697.83
541.79	40360.20
541.96	40252.53
542.13	40142.53
542.30	39859.32
542.47	40144.87
542.63	40194.02
542.80	40126.14
542.97	40238.49
543.14	40907.88
543.31	41034.27
543.48	40620.00
543.64	41022.57
543.81	41195.77
543.98	40987.46
544.15	40699.58
544.32	40734.68
544.48	41045.97
544.65	40444.46
544.82	41303.43
544.99	40781.49
545.16	40821.28
545.32	40760.43
545.49	41256.62
545.66	41394.71
545.83	41315.14
546.00	41099.81
546.16	41607.70
546.33	40821.28
546.50	40645.74
546.67	41343.22
546.83	40662.13
547.00	41333.86
547.17	41270.67
547.34	41429.82
547.50	41684.94
547.67	41851.12
547.84	41818.35
548.00	41628.77
548.17	42157.73
548.34	41675.58
548.51	41855.80
548.67	41617.07
548.84	41720.05
549.01	41675.58
549.18	41638.13
549.34	41687.28
549.51	41911.97
549.68	41794.95
549.84	42096.88
550.01	42021.98
550.18	41837.08
550.34	41954.10
550.51	42108.58
550.68	42323.91
550.84	41993.89
551.01	42227.95
551.18	42326.25
551.34	42043.04
551.51	42611.79
551.68	42082.83
551.84	42370.72
552.01	42113.26
552.18	42265.39
552.34	42410.51
552.51	42450.30
552.68	42169.43
552.84	42487.74
553.01	42679.67
553.18	42925.42
553.34	42564.98
553.51	42356.67
553.67	42871.59
553.84	43058.84
554.01	42808.40
554.17	42815.42
554.34	43330.34
554.51	42813.08
554.67	42965.21
554.84	42873.93
555.00	42553.28
555.17	42354.33
555.33	42995.64
555.50	42724.14
555.67	43021.39
555.83	42962.87
556.00	42932.45
556.16	43206.29
556.33	42799.04
556.50	43000.32
556.66	43028.41
556.83	42916.06
556.99	43028.41
557.16	43449.70
557.32	43428.64
557.49	43267.14
557.65	43388.85
557.82	42864.57
557.98	43150.12
558.15	43597.16
558.32	43346.72
558.48	43503.54
558.65	43339.70
558.81	43203.95
558.98	43716.53
559.14	43505.88
559.31	42913.72
559.47	43716.53
559.64	43285.87
559.80	43690.78
559.97	43665.03
560.13	43445.02
560.30	43763.34
560.46	43798.44
560.63	43629.93
560.79	43555.03
560.96	43821.85
561.12	43746.95
561.29	44147.18
561.45	43571.41
561.61	43807.81
561.78	43756.32
561.94	43540.99
562.11	43550.35
562.27	43433.32
562.44	43711.84
562.60	43608.86
562.77	44238.47
562.93	43751.63
563.10	43971.64
563.26	43768.02
563.42	43924.83
563.59	44198.68
563.75	43782.06
563.92	44067.61
564.08	44224.42
564.24	44479.54
564.41	44222.08
564.57	44088.67
564.74	43817.17
564.90	43658.01
565.07	44025.48
565.23	43866.32
565.39	44062.93
565.56	44231.44
565.72	43349.06
565.88	43948.24
566.05	44493.58
566.21	44144.84
566.38	44058.24
566.54	43683.76
566.70	44140.16
566.87	44369.54
567.03	44423.37
567.19	44432.73
567.36	44266.55
567.52	44105.06
567.68	44385.92
567.85	43959.94
568.01	44201.02
568.17	43819.51
568.34	43938.88
568.50	44355.49
568.66	44137.82
568.83	44360.17
568.99	44069.95
569.15	44076.97
569.32	44322.72
569.48	43962.28
569.64	44856.37
569.81	44477.20
569.97	44282.94
570.13	44699.55
570.30	43952.92
570.46	43744.61
570.62	44311.02
570.78	43948.24
570.95	43761.00
571.11	44402.30
571.27	44170.59
571.43	44325.07
571.60	44676.15
571.76	44208.04
571.92	44416.35
572.09	43990.37
572.25	44423.37
572.41	44133.14
572.57	44631.68
572.74	45071.70
572.90	44540.39
573.06	44683.17
573.22	44664.44
573.38	44409.32
573.55	44509.97
573.71	44203.36
573.87	44423.37
574.03	44498.26
574.20	44378.90
574.36	44289.96
574.52	44313.36
574.68	44285.28
574.84	44751.04
575.01	44486.56
575.17	44243.15
575.33	44224.42
575.49	44444.43
575.65	44800.19
575.82	44713.59
575.98	44292.30
576.14	45031.91
576.30	44619.97
576.46	44521.67
576.62	44236.12
576.79	44364.85
576.95	44318.04
577.11	44914.88
577.27	44641.04
577.43	44631.68
577.59	44381.24
577.75	44612.95
577.92	44165.91
578.08	43973.98
578.24	44165.91
578.40	44556.78
578.56	44418.69
578.72	44552.10
578.88	44863.39
579.04	44779.13
579.21	44348.47
579.37	44362.51
579.53	45151.27
579.69	44631.68
579.85	44367.20
580.01	44538.05
580.17	44692.53
580.33	44542.74
580.49	44538.05
580.65	44664.44
580.82	44690.19
580.98	44486.56
581.14	44472.52
581.30	44809.56
581.46	44402.30
581.62	44882.11
581.78	44706.57
581.94	44987.44
582.10	44346.13
582.26	44870.41
582.42	45188.72
582.58	44212.72
582.74	44856.37
582.90	44861.05
583.06	44821.26
583.22	44519.33
583.38	45418.10
583.54	44807.22
583.70	44423.37
583.86	44706.57
584.02	44313.36
584.18	45010.84
584.34	44472.52
584.50	44891.48
584.66	44856.37
584.82	44467.84
584.98	44699.55
585.14	44898.50
585.30	44671.46
585.46	44573.16
585.62	44680.83
585.78	44999.14
585.94	44500.61
586.10	44437.41
586.26	44830.62
586.42	44720.62
586.58	44685.51
586.74	44636.36
586.90	44259.53
587.06	44751.04
587.22	44786.15
587.38	44170.59
587.54	44596.57
587.70	44975.73
587.86	44863.39
588.02	45029.57
588.18	44446.77
588.34	44596.57
588.49	44601.25
588.65	44308.68
588.81	44374.22
588.97	44516.99
589.13	44477.20
589.29	44484.22
589.45	44729.98
589.61	44584.86
589.77	45120.85
589.93	44648.06
590.08	44968.71
590.24	44701.89
