SpectraSuite Data File
++++++++++++++++++++++++++++++++++++
Date: Fri Oct 25 11:34:18 EDT 2013
User: price-jones
Dark Spectrum Present: No
Reference Spectrum Present: No
Number of Sampled Component Spectra: 1
Spectrometers: USB2+H05261
Integration Time (usec): 100000 (USB2+H05261)
Spectra Averaged: 1 (USB2+H05261)
Boxcar Smoothing: 0 (USB2+H05261)
Correct for Electrical Dark: No (USB2+H05261)
Strobe/Lamp Enabled: No (USB2+H05261)
Correct for Detector Non-linearity: No (USB2+H05261)
Correct for Stray Light: No (USB2+H05261)
Number of Pixels in Processed Spectrum: 2048
>>>>>Begin Processed Spectral Data<<<<<
365.73	341.72
365.92	341.72
366.12	341.72
366.32	182.56
366.52	203.63
366.72	250.44
366.91	173.20
367.11	124.05
367.31	203.63
367.51	145.11
367.70	210.65
367.90	198.95
368.10	205.97
368.30	271.50
368.49	180.22
368.69	147.45
368.89	243.42
369.09	177.88
369.28	205.97
369.48	201.29
369.68	250.44
369.87	238.73
370.07	224.69
370.27	325.33
370.47	365.12
370.66	507.90
370.86	496.19
371.06	571.09
371.25	601.52
371.45	500.87
371.65	564.07
371.84	554.71
372.04	514.92
372.24	571.09
372.44	568.75
372.63	695.14
372.83	573.43
373.03	535.98
373.22	571.09
373.42	589.82
373.62	615.56
373.81	624.92
374.01	631.94
374.21	641.31
374.40	636.63
374.60	697.48
374.79	547.69
374.99	643.65
375.19	690.46
375.38	683.44
375.58	622.58
375.78	744.29
375.97	713.86
376.17	774.72
376.37	678.76
376.56	669.39
376.76	671.73
376.95	667.05
377.15	667.05
377.35	678.76
377.54	660.03
377.74	667.05
377.93	655.35
378.13	636.63
378.33	697.48
378.52	741.95
378.72	760.67
378.91	767.70
379.11	676.41
379.31	669.39
379.50	624.92
379.70	681.10
379.89	753.65
380.09	751.31
380.28	755.99
380.48	739.61
380.68	753.65
380.87	802.80
381.07	788.76
381.26	753.65
381.46	755.99
381.65	727.91
381.85	753.65
382.04	805.14
382.24	765.36
382.43	795.78
382.63	770.04
382.83	683.44
383.02	800.46
383.22	807.48
383.41	748.97
383.61	784.08
383.80	826.21
384.00	755.99
384.19	755.99
384.39	844.93
384.58	777.06
384.78	821.53
384.97	751.31
385.17	772.38
385.36	772.38
385.56	805.14
385.75	858.98
385.95	863.66
386.14	795.78
386.34	842.59
386.53	858.98
386.72	924.51
386.92	861.32
387.11	905.79
387.31	849.61
387.50	884.72
387.70	945.58
387.89	844.93
388.09	875.36
388.28	889.40
388.48	844.93
388.67	929.19
388.86	807.48
389.06	770.04
389.25	908.13
389.45	844.93
389.64	854.30
389.84	912.81
390.03	994.73
390.22	940.90
390.42	938.55
390.61	945.58
390.81	922.17
391.00	912.81
391.19	922.17
391.39	1004.09
391.58	983.02
391.78	959.62
391.97	1013.45
392.16	971.32
392.36	992.39
392.55	1076.65
392.75	1036.86
392.94	1046.22
393.13	1069.62
393.33	1114.10
393.52	1022.81
393.71	1100.05
393.91	1125.80
394.10	1006.43
394.29	1191.33
394.49	1111.75
394.68	1153.88
394.88	1156.22
395.07	1137.50
395.26	1130.48
395.46	1062.60
395.65	1165.59
395.84	1111.75
396.04	1277.93
396.23	1114.10
396.42	1158.57
396.62	1177.29
396.81	1160.91
397.00	1203.04
397.19	1226.44
397.39	1163.25
397.58	1142.18
397.77	1156.22
397.97	1287.29
398.16	1275.59
398.35	1179.63
398.55	1210.06
398.74	1177.29
398.93	1270.91
399.12	1231.12
399.32	1238.14
399.51	1294.32
399.70	1270.91
399.90	1275.59
400.09	1444.11
400.28	1462.83
400.47	1327.08
400.67	1430.07
400.86	1378.58
401.05	1404.32
401.24	1460.49
401.44	1392.62
401.63	1420.71
401.82	1369.21
402.01	1376.24
402.21	1413.68
402.40	1411.34
402.59	1486.24
402.78	1458.15
402.97	1448.79
403.17	1462.83
403.36	1537.73
403.55	1591.56
403.74	1535.39
403.93	1565.82
404.13	1537.73
404.32	1603.27
404.51	1547.09
404.70	1668.80
404.89	1556.46
405.09	1666.46
405.28	1647.74
405.47	1699.23
405.66	1682.85
405.85	1621.99
406.05	1624.33
406.24	1706.25
406.43	1671.14
406.62	1839.66
406.81	1727.32
407.00	1755.40
407.20	1764.76
407.39	1638.38
407.58	1827.96
407.77	1858.39
407.96	1849.02
408.15	1966.05
408.34	1781.15
408.54	1802.21
408.73	1753.06
408.92	1891.15
409.11	1994.14
409.30	1963.71
409.49	1952.01
409.68	1935.62
409.87	1961.37
410.07	2038.61
410.26	1973.07
410.45	1930.94
410.64	2111.16
410.83	2029.24
411.02	2118.18
411.21	2136.91
411.40	2097.12
411.59	2085.42
411.78	2153.29
411.98	2181.38
412.17	2202.44
412.36	2228.19
412.55	2272.66
412.74	2260.96
412.93	2246.91
413.12	2263.30
413.31	2424.80
413.50	2361.60
413.69	2300.75
413.88	2342.88
414.07	2417.77
414.26	2539.48
414.45	2462.24
414.64	2455.22
414.83	2553.52
415.02	2506.71
415.22	2537.14
415.41	2609.70
415.60	2607.36
415.79	2555.86
415.98	2665.87
416.17	2668.21
416.36	2663.53
416.55	2736.09
416.74	2642.46
416.93	2731.41
417.12	2759.49
417.31	2839.07
417.50	2761.83
417.69	2822.69
417.88	2836.73
418.07	2757.15
418.26	2932.69
418.45	2876.52
418.64	3026.31
418.83	2881.20
419.02	2979.50
419.21	3042.70
419.39	3056.74
419.58	3005.25
419.77	3026.31
419.96	3103.55
420.15	3084.83
420.34	2986.52
420.53	3222.92
420.72	3187.81
420.91	3098.87
421.10	3094.19
421.29	3311.86
421.48	3122.27
421.67	3194.83
421.86	3253.34
422.05	3220.58
422.24	3255.69
422.43	3276.75
422.61	3361.01
422.80	3304.84
422.99	3248.66
423.18	3279.09
423.37	3272.07
423.56	3187.81
423.75	3258.03
423.94	3218.24
424.13	3155.04
424.32	3260.37
424.50	3351.65
424.69	3339.94
424.88	3316.54
425.07	3323.56
425.26	3300.16
425.45	3253.34
425.64	3304.84
425.83	3480.38
426.01	3445.27
426.20	3386.76
426.39	3318.88
426.58	3410.16
426.77	3309.52
426.96	3531.87
427.15	3361.01
427.33	3400.80
427.52	3442.93
427.71	3606.77
427.90	3545.91
428.09	3375.05
428.28	3674.64
428.46	3536.55
428.65	3454.63
428.84	3728.47
429.03	3737.84
429.22	3510.80
429.40	3684.00
429.59	3613.79
429.78	3686.34
429.97	3419.52
430.16	3669.96
430.34	3669.96
430.53	3798.69
430.72	3754.22
430.91	3772.94
431.10	3662.94
431.28	3782.31
431.47	3817.41
431.66	3815.07
431.85	3964.87
432.03	3899.33
432.22	3882.95
432.41	4032.74
432.60	3868.91
432.79	4044.45
432.97	4032.74
433.16	3985.93
433.35	4037.42
433.54	4035.08
433.72	4182.54
433.91	4107.64
434.10	4037.42
434.28	3967.21
434.47	4049.13
434.66	4100.62
434.85	4053.81
435.03	4245.73
435.22	4241.05
435.41	4287.86
435.59	4301.90
435.78	4329.99
435.97	4283.18
436.16	4231.69
436.34	4248.07
436.53	4283.18
436.72	4393.19
436.90	4320.63
437.09	4252.75
437.28	4271.48
437.46	4334.67
437.65	4376.80
437.84	4533.62
438.02	4475.10
438.21	4402.55
438.40	4421.27
438.58	4622.56
438.77	4711.50
438.96	4718.52
439.14	4706.82
439.33	4730.22
439.52	4676.39
439.70	4760.65
439.89	4809.80
440.08	4842.57
440.26	4873.00
440.45	4858.95
440.63	4973.64
440.82	5034.49
441.01	4844.91
441.19	5135.14
441.38	4997.04
441.57	5104.71
441.75	5226.42
441.94	5097.69
442.12	5188.97
442.31	5298.97
442.50	5327.06
442.68	5142.16
442.87	5355.15
443.05	5310.68
443.24	5413.66
443.43	5329.40
443.61	5373.87
443.80	5572.82
443.98	5350.46
444.17	5296.63
444.35	5406.64
444.54	5504.94
444.73	5310.68
444.91	5497.92
445.10	5675.80
445.28	5610.26
445.47	5465.15
445.65	5530.69
445.84	5593.88
446.02	5584.52
446.21	5469.83
446.39	5657.07
446.58	5577.50
446.77	5558.77
446.95	5472.17
447.14	5530.69
447.32	5736.65
447.51	5720.27
447.69	5479.19
447.88	5722.61
448.06	5612.60
448.25	5561.11
448.43	5657.07
448.62	5645.37
448.80	5575.16
448.99	5748.36
449.17	5746.02
449.36	5668.78
449.54	5760.06
449.73	5825.59
449.91	5816.23
450.10	5834.96
450.28	5994.11
450.46	5921.56
450.65	6036.24
450.83	5853.68
451.02	6038.58
451.20	6197.74
451.39	5998.79
451.57	5968.37
451.76	5905.17
451.94	6024.54
452.13	6160.29
452.31	6202.42
452.49	6052.63
452.68	5996.45
452.86	6134.54
453.05	6160.29
453.23	6265.61
453.42	6228.17
453.60	6160.29
453.78	6207.10
453.97	6146.25
454.15	6216.46
454.34	6253.91
454.52	6279.66
454.70	6441.15
454.89	6368.60
455.07	6424.77
455.26	6354.55
455.44	6366.26
455.62	6413.07
455.81	6565.20
455.99	6523.07
456.17	6527.75
456.36	6532.44
456.54	6675.21
456.73	6773.51
456.91	6963.09
457.09	7000.54
457.28	6874.15
457.46	6590.95
457.64	6869.47
457.83	6789.89
458.01	6806.28
458.19	7021.61
458.38	6827.34
458.56	7183.10
458.74	7052.03
458.93	7005.22
459.11	7028.63
459.29	6888.20
459.48	7030.97
459.66	7122.25
459.84	7042.67
460.03	7396.09
460.21	7033.31
460.39	7307.15
460.57	7246.30
460.76	7265.02
460.94	7258.00
461.12	7248.64
461.31	7204.17
461.49	7316.51
461.67	7307.15
461.85	7630.15
462.04	7466.31
462.22	7857.18
462.40	7442.90
462.59	7559.93
462.77	7569.29
462.95	7503.76
463.13	7517.80
463.32	7508.44
463.50	7576.31
463.68	7676.96
463.86	7672.28
464.05	7578.65
464.23	7592.70
464.41	7772.92
464.59	7489.71
464.78	7946.12
464.96	7831.43
465.14	7698.02
465.32	7744.83
465.50	7871.22
465.69	7948.46
465.87	7887.61
466.05	7723.77
466.23	7758.88
466.41	8009.31
466.60	8154.43
466.78	7875.90
466.96	7978.89
467.14	8170.81
467.32	8107.62
467.51	7999.95
467.69	7936.76
467.87	8105.28
468.05	8208.26
468.23	8053.78
468.41	7999.95
468.60	8351.03
468.78	8168.47
468.96	8053.78
469.14	8449.33
469.32	8479.76
469.50	8383.80
469.69	8409.54
469.87	8423.59
470.05	8449.33
470.23	8697.43
470.41	8493.80
470.59	8585.08
470.77	8559.34
470.95	8571.04
471.14	8819.14
471.32	8587.43
471.50	8540.61
471.68	8800.41
471.86	8793.39
472.04	8908.08
472.22	9174.90
472.40	8898.72
472.58	8968.93
472.77	8875.31
472.95	9043.83
473.13	9383.21
473.31	9200.65
473.49	9025.11
473.67	9310.65
473.85	9231.07
474.03	9441.72
474.21	9378.53
474.39	9568.11
474.57	9568.11
474.75	9596.20
474.93	9678.12
475.12	9638.33
475.30	9930.89
475.48	9778.76
475.66	9919.19
475.84	9825.57
476.02	9853.66
476.20	9942.60
476.38	9968.34
476.56	10237.50
476.74	10228.14
476.92	10237.50
477.10	10090.05
477.28	10441.13
477.46	10190.69
477.64	10377.94
477.82	10677.52
478.00	10839.02
478.18	10799.23
478.36	10689.23
478.54	11082.44
478.72	10963.07
478.90	11236.91
479.08	11360.96
479.26	11403.09
479.44	11403.09
479.62	11618.42
479.80	11482.67
479.98	11644.17
480.16	11831.41
480.34	11742.47
480.52	11847.79
480.70	11964.82
480.88	11815.02
481.06	11777.58
481.24	11950.78
481.41	12397.82
481.59	12512.50
481.77	12645.91
481.95	12545.27
482.13	12774.64
482.31	12678.68
482.49	12664.64
482.67	12851.88
482.85	13011.04
483.03	13282.54
483.21	13268.50
483.39	13291.90
483.57	13209.98
483.74	13476.80
483.92	13612.56
484.10	13385.52
484.28	13661.71
484.46	14122.79
484.64	13790.44
484.82	14125.13
485.00	14368.55
485.18	14410.68
485.35	14778.14
485.53	14677.50
485.71	14445.79
485.89	14956.02
486.07	14705.59
486.25	14824.95
486.43	15051.99
486.61	15445.20
486.78	15487.32
486.96	15417.11
487.14	15543.50
487.32	15403.07
487.50	15719.04
487.68	15805.64
487.85	15995.22
488.03	16395.45
488.21	16533.54
488.39	16369.71
488.57	16521.84
488.75	16772.28
488.92	16608.44
489.10	17142.08
489.28	16821.43
489.46	17338.69
489.64	16957.18
489.81	17572.74
489.99	17479.12
490.17	17788.07
490.35	17818.50
490.53	17907.44
490.70	18075.96
490.88	17905.10
491.06	18375.55
491.24	18384.91
491.41	18658.75
491.59	18534.70
491.77	18775.78
491.95	18766.42
492.13	18904.51
492.30	19220.48
492.48	18913.87
492.66	19108.13
492.84	19222.82
493.01	19531.77
493.19	19548.15
493.37	19550.49
493.54	19695.61
493.72	19805.61
493.90	20168.40
494.08	20095.84
494.25	20177.76
494.43	20130.95
494.61	20334.57
494.79	20545.22
494.96	20372.02
495.14	20830.77
495.32	20805.02
495.49	20982.90
495.67	21266.11
495.85	21542.29
496.02	21521.23
496.20	21532.93
496.38	21692.08
496.55	22003.38
496.73	22167.21
496.91	21830.18
497.09	21914.44
497.26	22307.65
497.44	22272.54
497.62	22317.01
497.79	22562.76
497.97	22679.79
498.14	22775.75
498.32	22967.68
498.50	22782.77
498.67	23129.17
498.85	23068.32
499.03	23627.71
499.20	23365.57
499.38	23363.23
499.56	23421.74
499.73	23695.58
499.91	23667.50
500.08	24460.94
500.26	23695.58
500.44	23887.51
500.61	23831.33
500.79	24088.79
500.97	24418.81
501.14	24753.51
501.32	24531.15
501.49	24587.33
501.67	24542.86
501.84	24936.07
502.02	24755.85
502.20	25039.05
502.37	24624.78
502.55	24938.41
502.72	25113.95
502.90	24685.63
503.07	25074.16
503.25	25315.23
503.43	25247.36
503.60	25575.03
503.78	25518.86
503.95	25565.67
504.13	25696.74
504.30	25696.74
504.48	25898.03
504.65	25881.64
504.83	26284.22
505.01	25928.45
505.18	26548.70
505.36	26637.64
505.53	26244.43
505.71	26639.98
505.88	26740.62
506.06	26368.48
506.23	26574.44
506.41	26698.49
506.58	26885.73
506.76	26785.09
506.93	26890.41
507.11	26780.41
507.28	27269.58
507.46	27269.58
507.63	27388.95
507.81	27468.53
507.98	27346.82
508.16	27470.87
508.33	27529.38
508.50	28091.11
508.68	27946.00
508.85	28266.65
509.03	28397.72
509.20	28322.82
509.38	28343.89
509.55	28299.42
509.73	28212.82
509.90	28666.88
510.08	28767.52
510.25	28568.58
510.42	28627.09
510.60	28973.49
510.77	29111.58
510.95	29256.70
511.12	28779.23
511.30	28994.56
511.47	28968.81
511.64	29347.98
511.82	29378.40
511.99	29057.75
512.17	29607.78
512.34	29146.69
512.51	29986.94
512.69	30071.20
512.86	29820.77
513.04	29862.90
513.21	30153.12
513.38	30036.09
513.56	30213.98
513.73	30000.99
513.90	30597.82
514.08	30017.37
514.25	30426.96
514.43	30593.14
514.60	30754.64
514.77	30719.53
514.95	30464.41
515.12	30534.63
515.29	30993.37
515.47	30855.28
515.64	30822.51
515.81	30747.62
515.99	31215.72
516.16	31213.38
516.33	31140.83
516.51	31409.99
516.68	31604.25
516.85	31419.35
517.03	31409.99
517.20	31587.87
517.37	31824.26
517.54	31763.41
517.72	31800.86
517.89	31800.86
518.06	31690.85
518.24	31924.91
518.41	31665.11
518.58	31969.38
518.75	32116.83
518.93	32451.53
519.10	32449.19
519.27	32589.62
519.45	32854.10
519.62	32650.47
519.79	32423.44
519.96	32486.64
520.14	32875.16
520.31	32580.26
520.48	33034.32
520.65	32872.82
520.83	33111.56
521.00	33350.29
521.17	32753.46
521.34	33631.16
521.52	33373.70
521.69	33628.82
521.86	33464.98
522.03	33907.34
522.20	33621.80
522.38	33415.83
522.55	33823.08
522.72	33823.08
522.89	33954.15
523.07	34354.38
523.24	34134.37
523.41	33993.94
523.58	34249.06
523.75	34085.22
523.92	34316.93
524.10	34455.03
524.27	34679.72
524.44	34541.63
524.61	34787.38
524.78	34527.58
524.96	34658.65
525.13	35007.39
525.30	35255.49
525.47	35304.64
525.64	34991.01
525.81	35173.57
525.98	35559.76
526.16	34857.60
526.33	35157.19
526.50	35739.98
526.67	34983.99
526.84	35271.87
527.01	35168.89
527.18	35339.75
527.36	35695.51
527.53	35775.09
527.70	36151.91
527.87	36161.28
528.04	35990.42
528.21	35894.46
528.38	35552.74
528.55	35770.41
528.72	35674.45
528.89	35833.60
529.07	35805.52
529.24	35768.07
529.41	36615.34
529.58	36011.48
529.75	36355.54
529.92	36273.62
530.09	36182.34
530.26	36563.85
530.43	36486.61
530.60	36423.42
530.77	36437.46
530.94	36720.66
531.11	36678.54
531.28	36547.47
531.46	36512.36
531.63	36491.29
531.80	37170.05
531.97	37221.54
532.14	37050.68
532.31	37134.94
532.48	37275.37
532.65	37663.90
532.82	37174.73
532.99	37612.41
533.16	37256.65
533.33	37532.83
533.50	37504.74
533.67	37769.22
533.84	37378.36
534.01	37518.79
534.18	37694.33
534.35	37806.67
534.52	37811.35
534.69	38087.54
534.86	38270.10
535.03	38061.79
535.20	38600.12
535.37	38078.18
535.54	38206.90
535.71	37975.19
535.88	37963.49
536.05	38361.38
536.22	38450.32
536.38	38302.87
536.55	38485.43
536.72	38160.09
536.89	38183.50
537.06	38637.56
537.23	38572.03
537.40	39075.24
537.57	38380.10
537.74	38550.96
537.91	38639.90
538.08	39021.41
538.25	38485.43
538.42	38579.05
538.59	38939.49
538.75	39089.29
538.92	39522.29
539.09	39325.68
539.26	39164.18
539.43	39381.85
539.60	39093.97
539.77	39150.14
539.94	39313.98
540.11	39351.43
540.28	39475.48
540.44	39344.41
540.61	39529.31
540.78	39356.11
540.95	39646.33
541.12	39552.71
541.29	39421.64
541.46	39622.93
541.62	39533.99
541.79	40084.01
541.96	39459.09
542.13	39763.36
542.30	40126.14
542.47	40055.93
542.63	39461.43
542.80	40650.42
542.97	40994.48
543.14	40638.72
543.31	40084.01
543.48	40418.71
543.64	41015.55
543.81	40886.82
543.98	40996.82
544.15	40350.84
544.32	40725.32
544.48	41303.43
544.65	40903.20
544.82	41165.34
544.99	40559.14
545.16	41223.86
545.32	40744.05
545.49	41113.85
545.66	41392.37
545.83	41083.42
546.00	41476.63
546.16	41151.30
546.33	41235.56
546.50	41038.95
546.67	41324.50
546.83	40884.48
547.00	40905.54
547.17	41265.99
547.34	41102.15
547.50	41635.79
547.67	41598.34
547.84	41212.15
548.00	41434.50
548.17	41993.89
548.34	42073.47
548.51	42340.29
548.67	41839.42
548.84	41860.48
549.01	42003.25
549.18	41640.47
549.34	42115.60
549.51	42450.30
549.68	42117.94
549.84	42342.63
550.01	42234.97
550.18	41916.65
550.34	42101.56
550.51	42384.76
550.68	42333.27
550.84	42370.72
551.01	42476.04
551.18	42305.18
551.34	42607.11
551.51	42410.51
551.68	42223.26
551.84	42754.57
552.01	42431.57
552.18	42398.80
552.34	42628.18
552.51	42403.49
552.68	42536.90
552.84	42717.12
553.01	42595.41
553.18	42696.05
553.34	42731.16
553.51	42548.60
553.67	43152.46
553.84	43215.65
554.01	43178.20
554.17	43274.16
554.34	43494.18
554.51	43012.02
554.67	43061.18
554.84	43594.82
555.00	43250.76
555.17	42948.83
555.33	43316.29
555.50	43239.06
555.67	43159.48
555.83	43292.89
556.00	43473.11
556.16	44177.61
556.33	43985.69
556.50	44020.80
556.66	43339.70
556.83	43084.58
556.99	43526.94
557.16	43770.36
557.32	43618.22
557.49	43604.18
557.65	43756.32
557.82	43538.65
557.98	43613.54
558.15	43887.39
558.32	43667.37
558.48	43854.62
558.65	43737.59
558.81	44086.33
558.98	43824.19
559.14	43887.39
559.31	43840.57
559.47	43892.07
559.64	44154.21
559.80	43882.70
559.97	44205.70
560.13	43896.75
560.30	43831.21
560.46	44250.17
560.63	44149.53
560.79	44458.48
560.96	44477.20
561.12	44151.87
561.29	44446.77
561.45	44041.86
561.61	44474.86
561.78	44137.82
561.94	44245.49
562.11	44601.25
562.27	44388.26
562.44	43765.68
562.60	44325.07
562.77	44336.77
562.93	44809.56
563.10	44645.72
563.26	44023.14
563.42	44809.56
563.59	44346.13
563.75	44315.70
563.92	44830.62
564.08	44428.05
564.24	44917.22
564.41	44556.78
564.57	44968.71
564.74	44727.64
564.90	44533.37
565.07	44505.29
565.23	44362.51
565.39	44699.55
565.56	44818.92
565.72	44650.40
565.88	44720.62
566.05	44645.72
566.21	44704.23
566.38	44594.23
566.54	44919.56
566.70	45083.40
566.87	44926.58
567.03	44472.52
567.19	45167.66
567.36	45123.19
567.52	45006.16
567.68	45237.87
567.85	45188.72
568.01	45139.57
568.17	44907.86
568.34	45364.26
568.50	44989.78
568.66	44687.85
568.83	45219.15
568.99	45003.82
569.15	44910.20
569.32	45244.90
569.48	44992.12
569.64	45415.76
569.81	45588.95
569.97	45364.26
570.13	45095.10
570.30	45450.86
570.46	45689.60
570.62	45251.92
570.78	45244.90
570.95	44802.53
571.11	45453.20
571.27	44966.37
571.43	45127.87
571.60	45193.40
571.76	45219.15
571.92	45284.68
572.09	45048.29
572.25	45127.87
572.41	44835.30
572.57	45476.61
572.74	46045.36
572.90	45333.84
573.06	45544.48
573.22	45476.61
573.38	46148.34
573.55	45319.79
573.71	46052.38
573.87	45670.87
574.03	45514.06
574.20	45900.25
574.36	45563.21
574.52	45539.80
574.68	45485.97
574.84	45900.25
575.01	45659.17
575.17	45771.52
575.33	45504.70
575.49	45500.01
575.65	45361.92
575.82	45825.35
575.98	45198.09
576.14	45881.52
576.30	46115.58
576.46	45415.76
576.62	45364.26
576.79	45808.96
576.95	45219.15
577.11	45600.66
577.27	45614.70
577.43	45628.74
577.59	45755.13
577.75	45385.33
577.92	45181.70
578.08	45729.39
578.24	45909.61
578.40	45991.53
578.56	45701.30
578.72	45612.36
578.88	45731.73
579.04	45673.21
579.21	45720.02
579.37	45495.33
579.53	45567.89
579.69	45640.45
579.85	46052.38
580.01	45851.09
580.17	46021.95
580.33	46115.58
580.49	45701.30
580.65	45418.10
580.82	45710.66
580.98	45535.12
581.14	45682.58
581.30	45649.81
581.46	45645.13
581.62	45741.09
581.78	45783.22
581.94	45820.67
582.10	45577.25
582.26	46087.49
582.42	45607.68
582.58	45972.80
582.74	45682.58
582.90	45851.09
583.06	46080.47
583.22	45846.41
583.38	45921.31
583.54	46094.51
583.70	45815.99
583.86	46344.95
584.02	45275.32
584.18	46366.01
584.34	46209.20
584.50	46459.63
584.66	46028.98
584.82	45848.75
584.98	46272.39
585.14	46614.11
585.30	45879.18
585.46	45951.74
585.62	45553.85
585.78	45851.09
585.94	45876.84
586.10	46080.47
586.26	46007.91
586.42	45715.34
586.58	46117.92
586.74	45804.28
586.90	45539.80
587.06	46202.18
587.22	46220.90
587.38	46167.07
587.54	45977.48
587.70	46092.17
587.86	45731.73
588.02	46050.04
588.18	46080.47
588.34	45928.33
588.49	46033.66
588.65	45797.26
588.81	46033.66
588.97	46127.28
589.13	46298.14
589.29	46164.73
589.45	46019.61
589.61	46209.20
589.77	46265.37
589.93	46344.95
590.08	46464.32
