SpectraSuite Data File
++++++++++++++++++++++++++++++++++++
Date: Fri Oct 25 11:23:12 EDT 2013
User: price-jones
Dark Spectrum Present: No
Reference Spectrum Present: No
Number of Sampled Component Spectra: 1
Spectrometers: USB2+H05261
Integration Time (usec): 100000 (USB2+H05261)
Spectra Averaged: 1 (USB2+H05261)
Boxcar Smoothing: 0 (USB2+H05261)
Correct for Electrical Dark: No (USB2+H05261)
Strobe/Lamp Enabled: No (USB2+H05261)
Correct for Detector Non-linearity: No (USB2+H05261)
Correct for Stray Light: No (USB2+H05261)
Number of Pixels in Processed Spectrum: 2048
>>>>>Begin Processed Spectral Data<<<<<
365.73	236.39
365.92	236.39
366.12	236.39
366.32	126.39
366.52	77.24
366.72	100.64
366.91	124.05
367.11	63.19
367.31	163.84
367.51	208.31
367.70	84.26
367.90	135.75
368.10	114.69
368.30	166.18
368.49	156.82
368.69	198.95
368.89	187.24
369.09	166.18
369.28	173.20
369.48	205.97
369.68	145.11
369.87	184.90
370.07	196.60
370.27	220.01
370.47	301.93
370.66	608.54
370.86	596.84
371.06	634.29
371.25	699.82
371.45	528.96
371.65	667.05
371.84	699.82
372.04	706.84
372.24	669.39
372.44	685.78
372.63	748.97
372.83	746.63
373.03	711.52
373.22	751.31
373.42	784.08
373.62	823.87
373.81	777.06
374.01	781.74
374.21	851.96
374.40	791.10
374.60	828.55
374.79	828.55
374.99	847.27
375.19	737.27
375.38	915.15
375.58	828.55
375.78	830.89
375.97	866.00
376.17	976.00
376.37	912.81
376.56	842.59
376.76	847.27
376.95	856.64
377.15	840.25
377.35	908.13
377.54	875.36
377.74	910.47
377.93	931.53
378.13	954.94
378.33	968.98
378.52	952.60
378.72	968.98
378.91	971.32
379.11	964.30
379.31	880.04
379.50	985.37
379.70	997.07
379.89	1015.79
380.09	964.30
380.28	898.77
380.48	919.83
380.68	973.66
380.87	891.74
381.07	994.73
381.26	1029.84
381.46	1018.13
381.65	978.34
381.85	1076.65
382.04	966.64
382.24	1125.80
382.43	1081.33
382.63	1008.77
382.83	971.32
383.02	1081.33
383.22	1095.37
383.41	1067.28
383.61	1097.71
383.80	1118.78
384.00	1013.45
384.19	1165.59
384.39	1125.80
384.58	1179.63
384.78	1158.57
384.97	1221.76
385.17	1090.69
385.36	1151.54
385.56	1174.95
385.75	1149.20
385.95	1172.61
386.14	1186.65
386.34	1224.10
386.53	1224.10
386.72	1179.63
386.92	1273.25
387.11	1235.80
387.31	1310.70
387.50	1245.16
387.70	1083.67
387.89	1280.27
388.09	1320.06
388.28	1275.59
388.48	1362.19
388.67	1380.92
388.86	1235.80
389.06	1277.93
389.25	1336.45
389.45	1366.87
389.64	1373.89
389.84	1453.47
390.03	1427.73
390.22	1444.11
390.42	1427.73
390.61	1355.17
390.81	1296.66
391.00	1401.98
391.19	1535.39
391.39	1399.64
391.58	1420.71
391.78	1406.66
391.97	1455.81
392.16	1458.15
392.36	1535.39
392.55	1589.22
392.75	1612.63
392.94	1586.88
393.13	1570.50
393.33	1519.01
393.52	1621.99
393.71	1542.41
393.91	1521.35
394.10	1575.18
394.29	1633.69
394.49	1474.54
394.68	1645.40
394.88	1715.61
395.07	1764.76
395.26	1666.46
395.46	1647.74
395.65	1706.25
395.84	1708.59
396.04	1860.73
396.23	1715.61
396.42	1818.60
396.62	1774.13
396.81	1832.64
397.00	1778.81
397.19	1830.30
397.39	1811.57
397.58	1900.52
397.77	1837.32
397.97	1940.30
398.16	1799.87
398.35	1851.36
398.55	1884.13
398.74	1933.28
398.93	1968.39
399.12	1856.04
399.32	1928.60
399.51	1961.37
399.70	2008.18
399.90	1991.80
400.09	2005.84
400.28	1989.46
400.47	2050.31
400.67	2031.58
400.86	2092.44
401.05	2064.35
401.24	2155.63
401.44	2176.70
401.63	2038.61
401.82	2174.36
402.01	2113.50
402.21	2136.91
402.40	2204.78
402.59	2141.59
402.78	2225.85
402.97	2317.13
403.17	2263.30
403.36	2296.07
403.55	2331.17
403.74	2471.61
403.93	2401.39
404.13	2331.17
404.32	2438.84
404.51	2368.62
404.70	2373.30
404.89	2434.16
405.09	2506.71
405.28	2445.86
405.47	2600.34
405.66	2572.25
405.85	2560.55
406.05	2553.52
406.24	2621.40
406.43	2715.02
406.62	2691.62
406.81	2752.47
407.00	2597.99
407.20	2595.65
407.39	2686.94
407.58	2654.17
407.77	2719.70
407.96	2754.81
408.15	2796.94
408.34	2885.88
408.54	2729.06
408.73	2871.84
408.92	2818.00
409.11	3005.25
409.30	2920.99
409.49	2963.12
409.68	2963.12
409.87	2916.31
410.07	3016.95
410.26	2988.86
410.45	3012.27
410.64	3213.56
410.83	3122.27
411.02	3300.16
411.21	3283.77
411.40	3218.24
411.59	3288.45
411.78	3194.83
411.98	3272.07
412.17	3225.26
412.36	3346.97
412.55	3358.67
412.74	3452.29
412.93	3508.46
413.12	3513.14
413.31	3566.98
413.50	3417.18
413.69	3637.19
413.88	3543.57
414.07	3595.06
414.26	3648.90
414.45	3667.62
414.64	3672.30
414.83	3805.71
415.02	4014.02
415.22	3801.03
415.41	3894.65
415.60	3833.80
415.79	3939.12
415.98	4002.32
416.17	3950.82
416.36	3990.61
416.55	4018.70
416.74	4205.94
416.93	4035.08
417.12	4203.60
417.31	4236.37
417.50	4166.15
417.69	4306.59
417.88	4482.13
418.07	4447.02
418.26	4259.78
418.45	4456.38
418.64	4627.24
418.83	4397.87
419.02	4461.06
419.21	4535.96
419.39	4524.26
419.58	4531.28
419.77	4535.96
419.96	4671.71
420.15	4692.77
420.34	4730.22
420.53	4638.94
420.72	4629.58
420.91	4861.29
421.10	4667.03
421.29	4910.44
421.48	4620.22
421.67	4861.29
421.86	4791.08
422.05	4889.38
422.24	4746.61
422.43	4849.59
422.61	4730.22
422.80	5004.07
422.99	5107.05
423.18	4980.66
423.37	5277.91
423.56	5123.43
423.75	4840.23
423.94	4922.15
424.13	4636.60
424.32	4711.50
424.50	5062.58
424.69	5100.03
424.88	5121.09
425.07	4936.19
425.26	4777.03
425.45	5151.52
425.64	4936.19
425.83	4933.85
426.01	5146.84
426.20	5050.88
426.39	4877.68
426.58	5144.50
426.77	5118.75
426.96	5228.76
427.15	5191.31
427.33	5289.61
427.52	5064.92
427.71	5390.25
427.90	5338.76
428.09	5355.15
428.28	5383.23
428.46	5259.18
428.65	5540.05
428.84	5533.03
429.03	5561.11
429.22	5441.75
429.40	5437.06
429.59	5650.05
429.78	5413.66
429.97	5317.70
430.16	5547.07
430.34	5591.54
430.53	5900.49
430.72	5797.51
430.91	5790.49
431.10	5628.99
431.28	5884.11
431.47	5827.93
431.66	5888.79
431.85	5926.24
432.03	6033.90
432.22	6026.88
432.41	6101.78
432.60	5975.39
432.79	6059.65
432.97	5954.32
433.16	6122.84
433.35	5998.79
433.54	6012.84
433.72	6181.35
433.91	6129.86
434.10	6251.57
434.28	6040.92
434.47	6410.73
434.66	6347.53
434.85	6333.49
435.03	6370.94
435.22	6303.06
435.41	6630.74
435.59	6452.86
435.78	6417.75
435.97	6516.05
436.16	6537.12
436.34	6483.28
436.53	6651.80
436.72	6604.99
436.90	6370.94
437.09	6612.01
437.28	6640.10
437.46	6724.36
437.65	6733.72
437.84	6759.47
438.02	6787.55
438.21	6981.82
438.40	6764.15
438.58	7080.12
438.77	7218.21
438.96	7016.93
439.14	7122.25
439.33	7300.13
439.52	7269.70
439.70	7318.86
439.89	7599.72
440.08	7461.63
440.26	7412.48
440.45	7503.76
440.63	7311.83
440.82	7538.87
441.01	7597.38
441.19	7719.09
441.38	7819.73
441.57	7744.83
441.75	7829.09
441.94	7990.59
442.12	8065.49
442.31	8056.12
442.50	8044.42
442.68	8002.29
442.87	8131.02
443.05	8105.28
443.24	8353.37
443.43	8231.66
443.61	8196.56
443.80	8566.36
443.98	8201.24
444.17	7936.76
444.35	8388.48
444.54	8482.10
444.73	8589.77
444.91	8475.08
445.10	8336.99
445.28	8477.42
445.47	8250.39
445.65	8582.74
445.84	8540.61
446.02	8641.26
446.21	8596.79
446.39	8472.74
446.58	8631.90
446.77	8510.19
446.95	8355.71
447.14	8538.27
447.32	8610.83
447.51	8734.88
447.69	8505.51
447.88	8613.17
448.06	8491.46
448.25	8573.38
448.43	8805.10
448.62	8496.14
448.80	8657.64
448.99	8716.16
449.17	8711.47
449.36	8699.77
449.54	8901.06
449.73	8966.59
449.91	8929.14
450.10	8954.89
450.28	9076.60
450.46	9090.64
450.65	9062.55
450.83	9273.20
451.02	9137.45
451.20	9275.54
451.39	9266.18
451.57	9266.18
451.76	9219.37
451.94	9296.61
452.13	9270.86
452.31	9437.04
452.49	9268.52
452.68	9523.64
452.86	9568.11
453.05	9638.33
453.23	9596.20
453.42	9263.84
453.60	9511.94
453.78	9589.17
453.97	9507.26
454.15	9701.52
454.34	9694.50
454.52	9907.49
454.70	9680.46
454.89	9830.25
455.07	9994.09
455.26	9968.34
455.44	10106.43
455.62	9958.98
455.81	10024.51
455.99	10066.64
456.17	10281.97
456.36	10024.51
456.54	10427.09
456.73	10239.84
456.91	10824.98
457.09	10530.07
457.28	10626.03
457.46	10284.31
457.64	10572.20
457.83	10595.61
458.01	10478.58
458.19	10834.34
458.38	10803.91
458.56	10839.02
458.74	10658.80
458.93	10703.27
459.11	10937.32
459.29	10806.25
459.48	10890.51
459.66	10806.25
459.84	11136.27
460.03	11199.46
460.21	10953.71
460.39	11000.52
460.57	11115.20
460.76	11440.54
460.94	11279.04
461.12	11515.44
461.31	11220.53
461.49	11477.99
461.67	11358.62
461.85	11644.17
462.04	11396.07
462.22	11602.04
462.40	11903.96
462.59	11761.19
462.77	11377.34
462.95	12020.99
463.13	11587.99
463.32	11815.02
463.50	11800.98
463.68	11906.31
463.86	12028.01
464.05	11716.72
464.23	11920.35
464.41	12067.80
464.59	11777.58
464.78	12231.64
464.96	11910.99
465.14	11922.69
465.32	12273.77
465.50	12313.56
465.69	12159.08
465.87	12549.95
466.05	12163.76
466.23	12397.82
466.41	12329.94
466.60	12629.53
466.78	12496.12
466.96	12383.77
467.14	12500.80
467.32	12477.40
467.51	12615.49
467.69	12351.01
467.87	12547.61
468.05	12793.37
468.23	12561.66
468.41	12594.42
468.60	12538.25
468.78	12613.15
468.96	13027.42
469.14	12861.24
469.32	13069.55
469.50	12966.57
469.69	13107.00
469.87	13231.05
470.05	13425.31
470.23	13317.65
470.41	13317.65
470.59	13453.40
470.77	13666.39
470.95	13642.98
471.14	13811.50
471.32	13504.89
471.50	13710.86
471.68	13914.48
471.86	13446.38
472.04	13851.29
472.22	14106.41
472.40	13764.69
472.58	13912.14
472.77	14340.46
472.95	14157.90
473.13	14867.08
473.31	14520.68
473.49	14471.53
473.67	14581.54
473.85	14424.72
474.03	14841.34
474.21	14689.20
474.39	14890.49
474.57	14831.97
474.75	15070.71
474.93	14799.21
475.12	15213.48
475.30	15393.70
475.48	15255.61
475.66	15459.24
475.84	15407.75
476.02	15524.77
476.20	15737.76
476.38	15917.98
476.56	15789.25
476.74	16315.87
476.92	15803.30
477.10	16056.08
477.28	16339.28
477.46	16416.52
477.64	16507.80
477.82	16961.86
478.00	17245.07
478.18	16926.75
478.36	17081.23
478.54	17216.98
478.72	17334.01
478.90	17649.98
479.08	17816.16
479.26	17898.08
479.44	17951.91
479.62	18118.09
479.80	18251.50
479.98	18153.20
480.16	18820.25
480.34	18396.61
480.52	18853.02
480.70	18874.08
480.88	18789.82
481.06	19035.58
481.24	19131.54
481.41	19552.84
481.59	19747.10
481.77	19768.16
481.95	19833.70
482.13	20032.65
482.31	19744.76
482.49	20374.36
482.67	20727.78
482.85	20533.52
483.03	21135.04
483.21	20987.58
483.39	20954.82
483.57	21018.01
483.74	21254.40
483.92	21785.71
484.10	21048.44
484.28	22029.12
484.46	22359.14
484.64	22211.68
484.82	22143.81
485.00	22586.17
485.18	23028.53
485.35	23215.77
485.53	23302.37
485.71	23201.73
485.89	23660.48
486.07	23665.16
486.25	23740.05
486.43	24180.07
486.61	24280.72
486.78	24285.40
486.96	24496.05
487.14	25001.60
487.32	24863.51
487.50	25268.42
487.68	25284.81
487.85	25340.98
488.03	25731.85
488.21	26141.44
488.39	26246.77
488.57	26277.19
488.75	26295.92
488.92	26803.82
489.10	27236.81
489.28	27105.74
489.46	27681.52
489.64	27419.38
489.81	28034.94
489.99	28357.93
490.17	28065.36
490.35	28863.49
490.53	28411.76
490.70	28807.31
490.88	28545.17
491.06	29322.23
491.24	29200.52
491.41	29195.84
491.59	29729.48
491.77	29804.38
491.95	30017.37
492.13	30071.20
492.30	30644.63
492.48	30239.72
492.66	30651.66
492.84	30731.23
493.01	30939.54
493.19	31131.47
493.37	31496.59
493.54	31667.45
493.72	32170.66
493.90	31421.69
494.08	32189.39
494.25	32184.71
494.43	32088.74
494.61	33319.87
494.79	33102.20
494.96	32535.79
495.14	32996.87
495.32	33376.04
495.49	33308.16
495.67	33673.29
495.85	33369.02
496.02	34019.69
496.20	34480.77
496.38	34593.12
496.55	34600.14
496.73	35318.68
496.91	34593.12
497.09	35112.72
497.26	35136.12
497.44	35468.48
497.62	35669.76
497.79	36341.50
497.97	36137.87
498.14	36404.69
498.32	36505.34
498.50	36423.42
498.67	36769.82
498.85	37057.70
499.03	37317.50
499.20	37448.57
499.38	37095.15
499.56	37067.06
499.73	37684.97
499.91	37701.35
500.08	37780.93
500.26	37790.29
500.44	37933.06
500.61	37951.79
500.79	38171.80
500.97	38440.96
501.14	38916.09
501.32	38934.81
501.49	39232.06
501.67	39522.29
501.84	39016.73
502.02	39159.50
502.20	39854.64
502.37	39583.14
502.55	39765.70
502.72	40315.73
502.90	39913.16
503.07	39966.99
503.25	40517.01
503.43	40098.06
503.60	40582.55
503.78	40793.20
503.95	40701.92
504.13	41111.51
504.30	41158.32
504.48	41083.42
504.65	41375.99
504.83	41476.63
505.01	41799.63
505.18	41455.57
505.36	41621.75
505.53	41951.76
505.71	42085.17
505.88	42368.38
506.06	42085.17
506.23	42635.20
506.41	42202.20
506.58	42490.09
506.76	42902.02
506.93	42829.46
507.11	42904.36
507.28	43154.80
507.46	43311.61
507.63	43786.74
507.81	43971.64
507.98	43555.03
508.16	43845.26
508.33	43627.59
508.50	44051.22
508.68	44069.95
508.85	44243.15
509.03	44332.09
509.20	44683.17
509.38	45097.44
509.55	45167.66
509.73	45170.00
509.90	45371.28
510.08	44954.67
510.25	45104.46
510.42	45106.80
510.60	45532.78
510.77	45581.93
510.95	45911.95
511.12	45813.65
511.30	45333.84
511.47	46234.94
511.64	46017.27
511.82	46143.66
511.99	46569.64
512.17	46628.15
512.34	46138.98
512.51	46997.96
512.69	46848.16
512.86	46920.72
513.04	46529.85
513.21	46850.50
513.38	46988.60
513.56	47402.87
513.73	47264.78
513.90	47519.90
514.08	47402.87
514.25	47826.51
514.43	47505.85
514.60	47800.76
514.77	47262.44
514.95	48561.44
515.12	48154.18
515.29	47812.46
515.47	48526.33
515.64	48376.53
515.81	48619.95
515.99	48685.48
516.16	48725.27
516.33	48718.25
516.51	48919.54
516.68	49048.27
516.85	49006.14
517.03	49097.42
517.20	49731.70
517.37	49162.95
517.54	49368.92
517.72	49275.30
517.89	49787.88
518.06	49614.68
518.24	49708.30
518.41	49687.23
518.58	49532.76
518.75	49666.17
518.93	50033.63
519.10	49710.64
519.27	50375.35
519.45	50195.13
519.62	50260.66
519.79	50246.62
519.96	50363.65
520.14	50466.63
520.31	50494.72
520.48	50541.53
520.65	50574.30
520.83	51093.89
521.00	50986.23
521.17	51026.02
521.34	51178.15
521.52	51250.71
521.69	51337.31
521.86	51419.23
522.03	51393.48
522.20	51494.13
522.38	51945.85
522.55	51667.33
522.72	51819.46
522.89	51512.85
523.07	52090.96
523.24	51880.31
523.41	51983.30
523.58	51742.22
523.75	52507.58
523.92	52320.34
524.10	52442.04
524.27	52542.69
524.44	52114.37
524.61	52603.54
524.78	52638.65
524.96	52701.84
525.13	52446.72
525.30	52966.32
525.47	53003.77
525.64	52954.62
525.81	53111.44
525.98	53169.95
526.16	52968.66
526.33	53102.07
526.50	53130.16
526.67	53127.82
526.84	53514.01
527.01	53172.29
527.18	53090.37
527.36	53235.48
527.53	53588.91
527.70	53429.75
527.87	53666.14
528.04	53359.53
528.21	53738.70
528.38	53745.72
528.55	53783.17
528.72	53844.02
528.89	53890.83
529.07	53598.27
529.24	54038.29
529.41	54024.25
529.58	53832.32
529.75	53893.18
529.92	54080.42
530.09	54157.66
530.26	54623.42
530.43	54080.42
530.60	54478.31
530.77	54218.51
530.94	54443.20
531.11	54181.06
531.28	54440.86
531.46	54375.33
531.63	54777.90
531.80	54515.76
531.97	54660.87
532.14	54855.14
532.31	54906.63
532.48	54981.52
532.65	54915.99
532.82	55009.61
532.99	54946.42
533.16	54883.22
533.33	55405.16
533.50	55189.83
533.67	55267.07
533.84	54967.48
534.01	55126.64
534.18	55192.17
534.35	55543.25
534.52	55133.66
534.69	55494.10
534.86	55407.50
535.03	55231.96
535.20	55608.79
535.37	55791.35
535.54	55583.04
535.71	55676.66
535.88	55803.05
536.05	55576.02
536.22	55831.14
536.38	55955.19
536.55	55812.41
536.72	55985.61
536.89	55929.44
537.06	55952.85
537.23	56032.42
537.40	55880.29
537.57	56009.02
537.74	56156.47
537.91	56348.40
538.08	56376.48
538.25	55966.89
538.42	56449.04
538.59	56570.75
538.75	56184.56
538.92	56245.41
539.09	56783.74
539.26	56589.47
539.43	56285.20
539.60	56566.07
539.77	56498.19
539.94	56706.50
540.11	56725.22
540.28	56650.33
540.44	56830.55
540.61	56830.55
540.78	56683.09
540.95	56587.13
541.12	56704.16
541.29	56985.02
541.46	56921.83
541.62	56982.68
541.79	57020.13
541.96	56449.04
542.13	56903.10
542.30	57064.60
542.47	57095.03
542.63	57326.74
542.80	57357.17
542.97	57373.55
543.14	57600.58
543.31	57467.17
543.48	57549.09
543.64	57808.89
543.81	57855.70
543.98	57528.03
544.15	57691.86
544.32	57813.57
544.48	57815.91
544.65	57504.62
544.82	57661.44
544.99	57329.08
545.16	57733.99
545.32	57574.84
545.49	57876.77
545.66	57996.13
545.83	57984.43
546.00	57890.81
546.16	57925.92
546.33	57822.93
546.50	57806.55
546.67	58080.39
546.83	57659.10
547.00	58047.63
547.17	58080.39
547.34	58049.97
547.50	58424.45
547.67	58234.87
547.84	58209.12
548.00	58546.16
548.17	58712.34
548.34	58520.41
548.51	58436.16
548.67	58581.27
548.84	58475.94
549.01	58307.43
549.18	58405.73
549.34	58728.72
549.51	58445.52
549.68	58749.79
549.84	58621.06
550.01	58712.34
550.18	58541.48
550.34	58812.98
550.51	58691.27
550.68	58773.19
550.84	58550.84
551.01	58948.73
551.18	58834.05
551.34	58773.19
551.51	58876.18
551.68	58990.86
551.84	58937.03
552.01	58621.06
552.18	59143.00
552.34	58880.86
552.51	59018.95
552.68	58834.05
552.84	58958.09
553.01	59166.40
553.18	59035.33
553.34	59002.56
553.51	58841.07
553.67	59110.23
553.84	59311.52
554.01	59171.08
554.17	59299.81
554.34	59442.59
554.51	59288.11
554.67	59147.68
554.84	59423.86
555.00	59388.75
555.17	59416.84
555.33	59288.11
555.50	59295.13
555.67	59187.47
555.83	59217.89
556.00	59505.78
556.16	59660.26
556.33	59480.03
556.50	59470.67
556.66	59587.70
556.83	59428.54
556.99	59594.72
557.16	59990.27
557.32	59601.74
557.49	59807.71
557.65	59629.83
557.82	59781.96
557.98	59454.29
558.15	59365.35
558.32	59840.48
558.48	59678.98
558.65	59704.73
558.81	59650.89
558.98	59756.22
559.14	59812.39
559.31	59765.58
559.47	60023.04
559.64	60100.28
559.80	59880.27
559.97	59831.11
560.13	59831.11
560.30	59976.23
560.46	59875.58
560.63	60168.15
560.79	60044.10
560.96	60198.58
561.12	59927.08
561.29	60200.92
561.45	59997.29
561.61	60053.47
561.78	60310.92
561.94	60011.34
562.11	59861.54
562.27	60172.83
562.44	60313.26
562.60	60308.58
562.77	60226.66
562.93	60037.08
563.10	60320.29
563.26	60252.41
563.42	60704.13
563.59	60182.19
563.75	60287.52
563.92	60367.10
564.08	60250.07
564.24	60493.49
564.41	60308.58
564.57	60362.42
564.74	60434.97
564.90	60465.40
565.07	60212.62
565.23	60371.78
565.39	60432.63
565.56	60299.22
565.72	60399.86
565.88	60479.44
566.05	60324.97
566.21	60243.05
566.38	60484.12
566.54	60645.62
566.70	60460.72
566.87	60521.57
567.03	60322.63
567.19	60774.35
567.36	60594.13
567.52	60430.29
567.68	60898.40
567.85	60687.75
568.01	60502.85
568.17	60509.87
568.34	60652.64
568.50	60640.94
568.66	60673.71
568.83	60594.13
568.99	60594.13
569.15	60626.90
569.32	60647.96
569.48	60561.36
569.64	60767.33
569.81	60757.97
569.97	60699.45
570.13	60697.11
570.30	60505.19
570.46	60896.06
570.62	60739.24
570.78	60690.09
570.95	60769.67
571.11	60898.40
571.27	60790.73
571.43	60669.03
571.60	60907.76
571.76	60896.06
571.92	60764.99
572.09	60867.97
572.25	60718.18
572.41	60690.09
572.57	60917.12
572.74	61052.87
572.90	60849.25
573.06	60781.37
573.22	60884.36
573.38	60903.08
573.55	60985.00
573.71	61045.85
573.87	60959.25
574.03	60617.53
574.20	60968.61
574.36	60814.14
574.52	60956.91
574.68	60963.93
574.84	61183.94
575.01	61050.53
575.17	61228.41
575.33	60849.25
575.49	60860.95
575.65	61048.19
575.82	61087.98
575.98	61013.08
576.14	61326.72
576.30	61235.44
576.46	61003.72
576.62	61010.74
576.79	60926.49
576.95	60877.33
577.11	61195.65
577.27	61123.09
577.43	61258.84
577.59	60903.08
577.75	60863.29
577.92	61038.83
578.08	61080.96
578.24	61162.88
578.40	61387.57
578.56	61153.52
578.72	61045.85
578.88	61275.22
579.04	61286.93
579.21	61162.88
579.37	61193.31
579.53	61298.63
579.69	61160.54
579.85	61104.37
580.01	61090.32
580.17	60949.89
580.33	61062.24
580.49	61364.17
580.65	61289.27
580.82	60982.66
580.98	61268.20
581.14	60931.17
581.30	61387.57
581.46	61205.01
581.62	61237.78
581.78	61167.56
581.94	61310.33
582.10	61219.05
582.26	61200.33
582.42	61212.03
582.58	61148.84
582.74	61179.26
582.90	61111.39
583.06	61254.16
583.22	60968.61
583.38	61158.20
583.54	61329.06
583.70	61223.73
583.86	61141.81
584.02	61104.37
584.18	61392.25
584.34	61293.95
584.50	61291.61
584.66	61095.00
584.82	61059.90
584.98	61261.18
585.14	61291.61
585.30	61160.54
585.46	61389.91
585.62	61319.70
585.78	61502.26
585.94	61352.46
586.10	61205.01
586.26	61226.07
586.42	61488.21
586.58	61233.10
586.74	61413.32
586.90	61233.10
587.06	61193.31
587.22	61338.42
587.38	61434.38
587.54	61513.96
587.70	61368.85
587.86	61483.53
588.02	61165.22
588.18	61703.54
588.34	61305.65
588.49	61305.65
