SpectraSuite Data File
++++++++++++++++++++++++++++++++++++
Date: Fri Oct 25 11:23:43 EDT 2013
User: price-jones
Dark Spectrum Present: No
Reference Spectrum Present: No
Number of Sampled Component Spectra: 1
Spectrometers: USB2+H05261
Integration Time (usec): 100000 (USB2+H05261)
Spectra Averaged: 1 (USB2+H05261)
Boxcar Smoothing: 0 (USB2+H05261)
Correct for Electrical Dark: No (USB2+H05261)
Strobe/Lamp Enabled: No (USB2+H05261)
Correct for Detector Non-linearity: No (USB2+H05261)
Correct for Stray Light: No (USB2+H05261)
Number of Pixels in Processed Spectrum: 2048
>>>>>Begin Processed Spectral Data<<<<<
365.73	198.95
365.92	198.95
366.12	198.95
366.32	81.92
366.52	147.45
366.72	180.22
366.91	177.88
367.11	182.56
367.31	93.62
367.51	138.09
367.70	135.75
367.90	77.24
368.10	180.22
368.30	161.50
368.49	93.62
368.69	147.45
368.89	95.96
369.09	166.18
369.28	163.84
369.48	152.13
369.68	135.75
369.87	126.39
370.07	257.46
370.27	257.46
370.47	358.10
370.66	585.13
370.86	660.03
371.06	660.03
371.25	648.33
371.45	720.88
371.65	758.33
371.84	634.29
372.04	648.33
372.24	692.80
372.44	704.50
372.63	732.59
372.83	755.99
373.03	772.38
373.22	723.23
373.42	774.72
373.62	777.06
373.81	809.83
374.01	802.80
374.21	816.85
374.40	723.23
374.60	823.87
374.79	840.25
374.99	835.57
375.19	861.32
375.38	844.93
375.58	896.43
375.78	898.77
375.97	861.32
376.17	861.32
376.37	903.45
376.56	880.04
376.76	802.80
376.95	919.83
377.15	849.61
377.35	870.68
377.54	889.40
377.74	936.21
377.93	849.61
378.13	894.08
378.33	1004.09
378.52	903.45
378.72	896.43
378.91	858.98
379.11	983.02
379.31	1013.45
379.50	950.26
379.70	1008.77
379.89	1013.45
380.09	940.90
380.28	1036.86
380.48	961.96
380.68	877.70
380.87	933.87
381.07	980.68
381.26	1015.79
381.46	1067.28
381.65	1011.11
381.85	1081.33
382.04	987.71
382.24	1015.79
382.43	1008.77
382.63	1043.88
382.83	1025.15
383.02	1107.07
383.22	1046.22
383.41	1179.63
383.61	1118.78
383.80	1090.69
384.00	1149.20
384.19	1170.27
384.39	1086.01
384.58	1102.39
384.78	1153.88
384.97	1266.23
385.17	1097.71
385.36	1146.86
385.56	1170.27
385.75	1144.52
385.95	1268.57
386.14	1179.63
386.34	1179.63
386.53	1228.78
386.72	1174.95
386.92	1270.91
387.11	1247.51
387.31	1362.19
387.50	1294.32
387.70	1327.08
387.89	1259.21
388.09	1303.68
388.28	1338.79
388.48	1205.38
388.67	1259.21
388.86	1320.06
389.06	1228.78
389.25	1336.45
389.45	1425.39
389.64	1336.45
389.84	1371.55
390.03	1299.00
390.22	1324.74
390.42	1303.68
390.61	1383.26
390.81	1373.89
391.00	1378.58
391.19	1455.81
391.39	1373.89
391.58	1425.39
391.78	1467.52
391.97	1423.05
392.16	1507.30
392.36	1467.52
392.55	1476.88
392.75	1488.58
392.94	1593.90
393.13	1519.01
393.33	1448.79
393.52	1631.35
393.71	1612.63
393.91	1561.14
394.10	1526.03
394.29	1647.74
394.49	1521.35
394.68	1600.93
394.88	1636.03
395.07	1675.82
395.26	1720.29
395.46	1647.74
395.65	1708.59
395.84	1774.13
396.04	1870.09
396.23	1778.81
396.42	1739.02
396.62	1757.74
396.81	1853.70
397.00	1764.76
397.19	1785.83
397.39	1797.53
397.58	1776.47
397.77	1783.49
397.97	1851.36
398.16	1825.62
398.35	1914.56
398.55	1902.86
398.74	1877.11
398.93	1980.09
399.12	1872.43
399.32	1933.28
399.51	1912.22
399.70	2038.61
399.90	1989.46
400.09	1994.14
400.28	1944.99
400.47	1975.41
400.67	2167.34
400.86	2085.42
401.05	2029.24
401.24	2129.89
401.44	2104.14
401.63	2181.38
401.82	2127.55
402.01	2172.02
402.21	2127.55
402.40	2167.34
402.59	2169.68
402.78	2265.64
402.97	2277.34
403.17	2251.60
403.36	2307.77
403.55	2249.25
403.74	2476.29
403.93	2375.64
404.13	2375.64
404.32	2502.03
404.51	2408.41
404.70	2417.77
404.89	2406.07
405.09	2466.92
405.28	2324.15
405.47	2490.33
405.66	2586.29
405.85	2553.52
406.05	2621.40
406.24	2537.14
406.43	2513.74
406.62	2537.14
406.81	2693.96
407.00	2548.84
407.20	2558.21
407.39	2628.42
407.58	2764.17
407.77	2820.35
407.96	2794.60
408.15	2782.90
408.34	2881.20
408.54	2747.79
408.73	2729.06
408.92	2775.88
409.11	2822.69
409.30	2857.79
409.49	2829.71
409.68	2944.39
409.87	2930.35
410.07	2897.58
410.26	3028.65
410.45	3152.70
410.64	3061.42
410.83	3133.98
411.02	3164.40
411.21	3185.47
411.40	3234.62
411.59	3288.45
411.78	3208.87
411.98	3222.92
412.17	3349.31
412.36	3276.75
412.55	3311.86
412.74	3515.48
412.93	3485.06
413.12	3316.54
413.31	3581.02
413.50	3485.06
413.69	3377.39
413.88	3592.72
414.07	3494.42
414.26	3709.75
414.45	3777.62
414.64	3604.42
414.83	3765.92
415.02	3840.82
415.22	3843.16
415.41	4035.08
415.60	3777.62
415.79	3845.50
415.98	3957.85
416.17	4109.98
416.36	3936.78
416.55	4070.19
416.74	3976.57
416.93	4131.05
417.12	4194.24
417.31	4191.90
417.50	4243.39
417.69	4306.59
417.88	4339.35
418.07	4163.81
418.26	4344.03
418.45	4271.48
418.64	4442.34
418.83	4414.25
419.02	4337.01
419.21	4493.83
419.39	4524.26
419.58	4517.23
419.77	4505.53
419.96	4503.19
420.15	4798.10
420.34	4645.96
420.53	4669.37
420.72	4737.24
420.91	4678.73
421.10	4823.84
421.29	4706.82
421.48	4608.51
421.67	4748.95
421.86	4758.31
422.05	4816.82
422.24	4917.47
422.43	4858.95
422.61	4959.60
422.80	5041.51
422.99	4922.15
423.18	4936.19
423.37	4933.85
423.56	4912.78
423.75	5046.20
423.94	4901.08
424.13	4657.67
424.32	4746.61
424.50	4901.08
424.69	5090.67
424.88	5139.82
425.07	5090.67
425.26	4938.53
425.45	4915.12
425.64	4877.68
425.83	5055.56
426.01	5203.01
426.20	5041.51
426.39	5029.81
426.58	4983.00
426.77	5069.60
426.96	5313.02
427.15	5097.69
427.33	5184.29
427.52	5184.29
427.71	5369.19
427.90	5207.69
428.09	5357.49
428.28	5458.13
428.46	5371.53
428.65	5338.76
428.84	5537.71
429.03	5570.48
429.22	5474.51
429.40	5495.58
429.59	5551.75
429.78	5439.40
429.97	5245.14
430.16	5490.90
430.34	5605.58
430.53	5593.88
430.72	5612.60
430.91	5734.31
431.10	5696.86
431.28	5703.89
431.47	5832.62
431.66	5963.68
431.85	5767.08
432.03	5886.45
432.22	5989.43
432.41	6040.92
432.60	5961.34
432.79	6083.05
432.97	6026.88
433.16	6076.03
433.35	6054.97
433.54	6090.07
433.72	6164.97
433.91	6139.23
434.10	6186.04
434.28	6033.90
434.47	6251.57
434.66	6487.96
434.85	6471.58
435.03	6516.05
435.22	6282.00
435.41	6609.67
435.59	6303.06
435.78	6417.75
435.97	6541.80
436.16	6513.71
436.34	6487.96
436.53	6485.62
436.72	6628.40
436.90	6392.00
437.09	6637.76
437.28	6375.62
437.46	6583.93
437.65	6665.85
437.84	6977.14
438.02	6839.05
438.21	6874.15
438.40	6766.49
438.58	7033.31
438.77	6885.86
438.96	7009.90
439.14	7213.53
439.33	7068.42
439.52	7183.10
439.70	7150.34
439.89	7318.86
440.08	7311.83
440.26	7276.73
440.45	7414.82
440.63	7466.31
440.82	7618.44
441.01	7447.58
441.19	7667.60
441.38	7723.77
441.57	7955.48
441.75	7889.95
441.94	8098.25
442.12	7815.05
442.31	8226.98
442.50	7969.52
442.68	7964.84
442.87	8037.40
443.05	8133.36
443.24	8304.22
443.43	8114.64
443.61	8285.50
443.80	8468.06
443.98	8044.42
444.17	7829.09
444.35	8301.88
444.54	8379.12
444.73	8514.87
444.91	8315.92
445.10	8519.55
445.28	8435.29
445.47	8369.76
445.65	8280.82
445.84	8430.61
446.02	8549.98
446.21	8533.59
446.39	8287.84
446.58	8430.61
446.77	8461.04
446.95	8341.67
447.14	8557.00
447.32	8608.49
447.51	8582.74
447.69	8676.37
447.88	8779.35
448.06	8585.08
448.25	8552.32
448.43	8704.45
448.62	8587.43
448.80	8802.75
448.99	8594.45
449.17	8676.37
449.36	9034.47
449.54	8842.54
449.73	8957.23
449.91	9036.81
450.10	9135.11
450.28	9048.51
450.46	9186.60
450.65	9235.75
450.83	9111.71
451.02	9095.32
451.20	9198.31
451.39	9142.13
451.57	9249.80
451.76	9071.92
451.94	9336.40
452.13	9430.02
452.31	9324.69
452.49	9109.36
452.68	9378.53
452.86	9439.38
453.05	9233.41
453.23	9544.70
453.42	9628.96
453.60	9523.64
453.78	9671.09
453.97	9600.88
454.15	9511.94
454.34	9572.79
454.52	9619.60
454.70	9762.37
454.89	9818.55
455.07	9701.52
455.26	9900.47
455.44	9729.61
455.62	9947.28
455.81	10061.96
455.99	10022.17
456.17	10071.33
456.36	9970.68
456.54	10223.46
456.73	10560.50
456.91	10452.83
457.09	10314.74
457.28	10665.82
457.46	10176.65
457.64	10576.88
457.83	10537.09
458.01	10296.02
458.19	10806.25
458.38	10448.15
458.56	10530.07
458.74	10616.67
458.93	10551.14
459.11	10654.12
459.29	10771.15
459.48	11040.31
459.66	10995.84
459.84	10953.71
460.03	10984.13
460.21	10906.90
460.39	11000.52
460.57	11019.24
460.76	11112.86
460.94	11288.40
461.12	11328.19
461.31	11400.75
461.49	11239.25
461.67	11147.97
461.85	11367.98
462.04	11325.85
462.22	11613.74
462.40	11585.65
462.59	11396.07
462.77	11396.07
462.95	11674.59
463.13	11419.47
463.32	11662.89
463.50	11875.88
463.68	11927.37
463.86	12126.32
464.05	11922.69
464.23	11843.11
464.41	12255.04
464.59	11728.42
464.78	12446.97
464.96	12105.25
465.14	11721.40
465.32	12217.60
465.50	12138.02
465.69	12187.17
465.87	12049.08
466.05	12292.49
466.23	12194.19
466.41	12102.91
466.60	12257.39
466.78	12105.25
466.96	12435.27
467.14	12465.69
467.32	12435.27
467.51	12657.62
467.69	12184.83
467.87	12292.49
468.05	12643.57
468.23	12444.63
468.41	12486.76
468.60	12936.14
468.78	12784.01
468.96	12573.36
469.14	12793.37
469.32	12882.31
469.50	12872.95
469.69	12978.27
469.87	13268.50
470.05	13242.75
470.23	13242.75
470.41	13507.23
470.59	13446.38
470.77	13329.35
470.95	13387.86
471.14	13437.02
471.32	13200.62
471.50	13675.75
471.68	13806.82
471.86	13797.46
472.04	13717.88
472.22	14190.67
472.40	13558.72
472.58	13635.96
472.77	14099.39
472.95	14324.08
473.13	14675.16
473.31	14314.72
473.49	14324.08
473.67	14136.84
473.85	14546.43
474.03	14867.08
474.21	14679.84
474.39	15035.60
474.57	14754.74
474.75	14782.82
474.93	15002.83
475.12	15150.29
475.30	15311.78
475.48	15133.90
475.66	15267.31
475.84	15297.74
476.02	15543.50
476.20	15573.92
476.38	15740.10
476.56	16086.50
476.74	16210.55
476.92	16173.10
477.10	16142.67
477.28	16175.44
477.46	16283.11
477.64	16294.81
477.82	16599.08
478.00	17261.45
478.18	16688.02
478.36	17486.14
478.54	17404.22
478.72	17116.34
478.90	17472.10
479.08	18008.08
479.26	17757.64
479.44	17755.30
479.62	18085.32
479.80	18286.61
479.98	18462.15
480.16	18834.29
480.34	18515.98
480.52	18647.05
480.70	18836.63
480.88	18368.52
481.06	18876.42
481.24	18925.57
481.41	19246.23
481.59	19587.94
481.77	19360.91
481.95	19814.98
482.13	20042.01
482.31	19749.44
482.49	20388.41
482.67	20318.19
482.85	20486.71
483.03	20566.29
483.21	20755.87
483.39	20957.16
483.57	20699.70
483.74	21181.85
483.92	21483.78
484.10	21408.88
484.28	21846.56
484.46	21879.33
484.64	22665.75
484.82	22326.37
485.00	22455.10
485.18	22717.24
485.35	23056.62
485.53	22637.66
485.71	23108.11
485.89	23798.57
486.07	23342.16
486.25	23597.28
486.43	23611.32
486.61	23997.51
486.78	24297.10
486.96	24496.05
487.14	24828.40
487.32	24849.47
487.50	25221.61
487.68	25156.08
487.85	25436.94
488.03	25514.18
488.21	26038.46
488.39	26071.23
488.57	26218.68
488.75	26178.89
488.92	26742.96
489.10	26707.85
489.28	26883.39
489.46	27503.64
489.64	27014.46
489.81	27543.42
489.99	27718.96
490.17	27924.93
490.35	28304.10
490.53	28650.50
490.70	28458.57
490.88	28390.70
491.06	29017.96
491.24	28802.63
491.41	29549.26
491.59	29514.16
491.77	29422.87
491.95	29848.85
492.13	29993.97
492.30	30040.78
492.48	30134.40
492.66	30298.23
492.84	30845.92
493.01	30965.29
493.19	30663.36
493.37	31040.18
493.54	31620.64
493.72	31868.73
493.90	31384.24
494.08	31562.12
494.25	32524.08
494.43	31821.92
494.61	32229.18
494.79	32753.46
494.96	33125.60
495.14	33071.77
495.32	33209.86
495.49	33652.22
495.67	33280.08
495.85	34265.44
496.02	34251.40
496.20	33792.65
496.38	34473.75
496.55	34134.37
496.73	35019.10
496.91	34822.49
497.09	35093.99
497.26	35255.49
497.44	35157.19
497.62	35648.70
497.79	36140.21
497.97	35526.99
498.14	36423.42
498.32	36636.41
498.50	36322.77
498.67	36339.16
498.85	36301.71
499.03	36903.23
499.20	36524.06
499.38	37069.40
499.56	37160.69
499.73	37544.53
499.91	37464.96
500.08	38181.16
500.26	37596.03
500.44	37694.33
500.61	37926.04
500.79	38225.63
500.97	38536.92
501.14	38951.20
501.32	38211.59
501.49	38426.92
501.67	38974.60
501.84	39351.43
502.02	39152.48
502.20	39433.35
502.37	39519.95
502.55	39306.96
502.72	39955.29
502.90	39620.59
503.07	39693.15
503.25	40187.00
503.43	39763.36
503.60	40472.54
503.78	40179.98
503.95	40271.26
504.13	40924.27
504.30	40624.68
504.48	40526.38
504.65	40865.75
504.83	40989.80
505.01	41624.09
505.18	41340.88
505.36	42014.96
505.53	41490.68
505.71	41935.38
505.88	42265.39
506.06	41666.22
506.23	42143.69
506.41	42220.92
506.58	42670.31
506.76	42473.70
506.93	43026.07
507.11	42862.23
507.28	42672.65
507.46	42649.24
507.63	43093.94
507.81	43681.42
507.98	43206.29
508.16	43311.61
508.33	43863.98
508.50	43875.68
508.68	43716.53
508.85	43988.03
509.03	43761.00
509.20	44516.99
509.38	44308.68
509.55	44453.79
509.73	44942.97
509.90	44706.57
510.08	44870.41
510.25	44839.98
510.42	45038.93
510.60	45226.17
510.77	45375.97
510.95	45900.25
511.12	45848.75
511.30	45895.56
511.47	45757.47
511.64	45904.93
511.82	45928.33
511.99	45837.05
512.17	46129.62
512.34	46120.26
512.51	46604.75
512.69	46270.05
512.86	46646.88
513.04	46738.16
513.21	46777.95
513.38	47150.09
513.56	47306.91
513.73	47419.25
513.90	47236.69
514.08	46843.48
514.25	47512.88
514.43	47360.74
514.60	47913.11
514.77	47428.62
514.95	47973.96
515.12	47573.73
515.29	48060.56
515.47	48378.87
515.64	48189.29
515.81	47973.96
515.99	48332.06
516.16	49017.84
516.33	48673.78
516.51	49064.65
516.68	48989.75
516.85	49095.08
517.03	48795.49
517.20	49235.51
517.37	48800.17
517.54	49022.52
517.72	49418.07
517.89	49205.08
518.06	49230.83
518.24	49584.25
518.41	49619.36
518.58	49123.16
518.75	49712.98
518.93	49979.80
519.10	49640.42
519.27	49977.46
519.45	50185.77
519.62	49806.60
519.79	49865.11
519.96	49808.94
520.14	50403.44
520.31	50209.17
520.48	50375.35
520.65	50499.40
520.83	51026.02
521.00	51037.72
521.17	50979.21
521.34	50787.28
521.52	51129.00
521.69	50880.91
521.86	51430.93
522.03	51330.29
522.20	51550.30
522.38	51777.33
522.55	51538.60
522.72	51452.00
522.89	51540.94
523.07	52037.13
523.24	51552.64
523.41	51672.01
523.58	51777.33
523.75	52095.64
523.92	52156.50
524.10	52088.62
524.27	52119.05
524.44	52144.80
524.61	52530.98
524.78	52652.69
524.96	52554.39
525.13	52584.82
525.30	52659.71
525.47	52758.02
525.64	52542.69
525.81	52528.64
525.98	53111.44
526.16	52566.09
526.33	52648.01
526.50	53172.29
526.67	53071.65
526.84	52975.69
527.01	52975.69
527.18	53230.80
527.36	53212.08
527.53	53263.57
527.70	53567.84
527.87	53422.73
528.04	53549.12
528.21	53628.69
528.38	53691.89
528.55	53750.40
528.72	53371.24
528.89	53764.45
529.07	53694.23
529.24	53647.42
529.41	53654.44
529.58	53738.70
529.75	53698.91
529.92	54031.27
530.09	54059.35
530.26	53958.71
530.43	54478.31
530.60	53977.43
530.77	54049.99
530.94	54195.10
531.11	54293.41
531.28	54387.03
531.46	54321.49
531.63	54621.08
531.80	54220.85
531.97	54518.10
532.14	54904.29
532.31	54576.61
532.48	54609.38
532.65	54986.21
532.82	54548.53
532.99	55018.97
533.16	54623.42
533.33	54939.39
533.50	55267.07
533.67	54745.13
533.84	54918.33
534.01	55327.92
534.18	54925.35
534.35	55416.86
534.52	55231.96
534.69	55456.65
534.86	55526.87
535.03	55573.68
535.20	55231.96
535.37	55702.41
535.54	55781.99
535.71	55199.19
535.88	55547.93
536.05	55753.90
536.22	55756.24
536.38	55842.84
536.55	55679.00
536.72	55690.71
536.89	55590.06
537.06	55767.94
537.23	55781.99
537.40	55700.07
537.57	55770.28
537.74	56212.65
537.91	56065.19
538.08	56086.26
538.25	55938.80
538.42	55847.52
538.59	56313.29
538.75	55957.53
538.92	56083.92
539.09	56268.82
539.26	56364.78
539.43	56060.51
539.60	56467.76
539.77	56516.92
539.94	56591.81
540.11	56254.78
540.28	56622.24
540.44	56839.91
540.61	56474.79
540.78	56659.69
540.95	56713.52
541.12	56554.36
541.29	56790.76
541.46	56860.97
541.62	56837.57
541.79	57013.11
541.96	56594.15
542.13	56795.44
542.30	57036.51
542.47	56706.50
542.63	57125.46
542.80	57034.17
542.97	57336.10
543.14	57343.12
543.31	57268.23
543.48	57490.58
543.64	57600.58
543.81	57399.30
543.98	57446.11
544.15	57663.78
544.32	57818.25
544.48	57584.20
544.65	57301.00
544.82	57616.97
544.99	57371.21
545.16	57654.42
545.32	57654.42
545.49	57822.93
545.66	58073.37
545.83	57780.81
546.00	57780.81
546.16	57769.10
546.33	57673.14
546.50	57673.14
546.67	57609.95
546.83	57565.48
547.00	57755.06
547.17	57911.88
547.34	58061.67
547.50	58150.61
547.67	58120.18
547.84	58134.23
548.00	58323.81
548.17	58492.33
548.34	58337.85
548.51	58466.58
548.67	58389.34
548.84	58260.62
549.01	58251.25
549.18	58436.16
549.34	58216.14
549.51	58295.72
549.68	58260.62
549.84	58475.94
550.01	58550.84
550.18	58457.22
550.34	58677.23
550.51	58976.82
550.68	58763.83
550.84	58473.60
551.01	58653.82
551.18	58674.89
551.34	58614.04
551.51	58918.31
551.68	58646.80
551.84	58599.99
552.01	58674.89
552.18	58843.41
552.34	58808.30
552.51	58803.62
552.68	58852.77
552.84	58742.77
553.01	59159.38
553.18	58990.86
553.34	59199.17
553.51	58901.92
553.67	59051.72
553.84	59285.77
554.01	59173.42
554.17	59105.55
554.34	59114.91
554.51	59124.27
554.67	59203.85
554.84	59283.43
555.00	59121.93
555.17	59150.02
555.33	59208.53
555.50	58958.09
555.67	59311.52
555.83	59072.78
556.00	59330.24
556.16	59571.32
556.33	59435.56
556.50	59463.65
556.66	59430.88
556.83	59309.18
556.99	59571.32
557.16	59643.87
557.32	59611.10
557.49	59910.69
557.65	59657.91
557.82	59454.29
557.98	59384.07
558.15	59580.68
558.32	59428.54
558.48	59639.19
558.65	59683.66
558.81	59583.02
558.98	59496.42
559.14	59758.56
559.31	59580.68
559.47	59667.28
559.64	59922.40
559.80	60053.47
559.97	59957.50
560.13	59561.95
560.30	59943.46
560.46	59924.74
560.63	59856.86
560.79	59859.20
560.96	60006.65
561.12	60119.00
561.29	59884.95
561.45	60030.06
561.61	60001.97
561.78	59990.27
561.94	60165.81
562.11	60037.08
562.27	59955.16
562.44	60189.22
562.60	60119.00
562.77	60013.68
562.93	59765.58
563.10	60273.48
563.26	59873.24
563.42	60317.95
563.59	59962.18
563.75	60114.32
563.92	60207.94
564.08	60130.70
564.24	60369.44
564.41	60301.56
564.57	60158.79
564.74	60229.01
564.90	60186.88
565.07	60121.34
565.23	60303.90
565.39	60116.66
565.56	60329.65
565.72	60193.90
565.88	60346.03
566.05	60317.95
566.21	60310.92
566.38	60409.23
566.54	60495.83
566.70	60329.65
566.87	60498.17
567.03	60175.17
567.19	60556.68
567.36	60589.45
567.52	60484.12
567.68	60657.32
567.85	60619.88
568.01	60488.80
568.17	60561.36
568.34	60624.56
568.50	60795.42
568.66	60453.70
568.83	60636.26
568.99	60552.00
569.15	60544.98
569.32	60622.22
569.48	60427.95
569.64	60750.94
569.81	60706.47
569.97	60493.49
570.13	60720.52
570.30	60404.55
570.46	60500.51
570.62	60612.85
570.78	60643.28
570.95	60397.52
571.11	60886.70
571.27	60610.51
571.43	60650.30
571.60	60860.95
571.76	60629.24
571.92	60858.61
572.09	60823.50
572.25	60804.78
572.41	60662.00
572.57	60795.42
572.74	61045.85
572.90	60673.71
573.06	60786.05
573.22	60830.52
573.38	60949.89
573.55	60664.35
573.71	60938.19
573.87	60776.69
574.03	60619.88
574.20	60793.07
574.36	60673.71
574.52	60912.44
574.68	60739.24
574.84	61052.87
575.01	60970.96
575.17	60893.72
575.33	60797.76
575.49	60802.44
575.65	60982.66
575.82	60870.31
575.98	60718.18
576.14	61071.60
576.30	60919.46
576.46	60713.50
576.62	60966.27
576.79	60949.89
576.95	60708.82
577.11	60867.97
577.27	60879.67
577.43	60898.40
577.59	60706.47
577.75	60821.16
577.92	61008.40
578.08	60863.29
578.24	61029.47
578.40	61212.03
578.56	61254.16
578.72	61151.18
578.88	61076.28
579.04	61221.39
579.21	61148.84
579.37	60975.64
579.53	61340.76
579.69	60879.67
579.85	60935.85
580.01	60912.44
580.17	60947.55
580.33	61048.19
580.49	61151.18
580.65	61113.73
580.82	61041.17
580.98	60970.96
581.14	60851.59
581.30	61123.09
581.46	61209.69
581.62	60952.23
581.78	60994.36
581.94	61155.86
582.10	60863.29
582.26	61041.17
582.42	61116.07
582.58	61144.16
582.74	61057.56
582.90	60926.49
583.06	61048.19
583.22	60963.93
583.38	61052.87
583.54	61057.56
583.70	61207.35
583.86	61017.77
584.02	61062.24
584.18	61106.71
584.34	61223.73
584.50	61251.82
584.66	60910.10
584.82	60989.68
584.98	61322.04
585.14	61181.60
585.30	61183.94
585.46	61062.24
585.62	60989.68
585.78	61268.20
585.94	61029.47
586.10	61162.88
586.26	61069.26
586.42	61176.92
586.58	61298.63
586.74	61378.21
586.90	61155.86
587.06	61261.18
587.22	61364.17
587.38	61300.97
587.54	61357.14
587.70	61408.64
587.86	61200.33
588.02	61167.56
588.18	61343.10
588.34	61298.63
588.49	61244.80
