SpectraSuite Data File
++++++++++++++++++++++++++++++++++++
Date: Fri Oct 25 10:44:54 EDT 2013
User: price-jones
Dark Spectrum Present: No
Reference Spectrum Present: No
Number of Sampled Component Spectra: 1
Spectrometers: USB2+H05261
Integration Time (usec): 100000 (USB2+H05261)
Spectra Averaged: 1 (USB2+H05261)
Boxcar Smoothing: 0 (USB2+H05261)
Correct for Electrical Dark: No (USB2+H05261)
Strobe/Lamp Enabled: No (USB2+H05261)
Correct for Detector Non-linearity: No (USB2+H05261)
Correct for Stray Light: No (USB2+H05261)
Number of Pixels in Processed Spectrum: 2048
>>>>>Begin Processed Spectral Data<<<<<
365.73	131.07
365.92	131.07
366.12	131.07
366.32	65.54
366.52	86.60
366.72	67.88
366.91	42.13
367.11	25.75
367.31	0.00
367.51	18.72
367.70	0.00
367.90	0.00
368.10	39.79
368.30	53.83
368.49	11.70
368.69	16.38
368.89	110.01
369.09	30.43
369.28	0.00
369.48	25.75
369.68	35.11
369.87	84.26
370.07	140.43
370.27	156.82
370.47	189.58
370.66	351.08
370.86	383.85
371.06	468.11
371.25	458.74
371.45	416.62
371.65	486.83
371.84	437.68
372.04	444.70
372.24	458.74
372.44	526.62
372.63	566.41
372.83	482.15
373.03	479.81
373.22	472.79
373.42	484.49
373.62	517.26
373.81	514.92
374.01	627.26
374.21	486.83
374.40	564.07
374.60	641.31
374.79	528.96
374.99	596.84
375.19	505.56
375.38	559.39
375.58	540.66
375.78	580.45
375.97	533.64
376.17	587.47
376.37	559.39
376.56	648.33
376.76	545.34
376.95	547.69
377.15	657.69
377.35	512.58
377.54	540.66
377.74	540.66
377.93	608.54
378.13	636.63
378.33	638.97
378.52	631.94
378.72	592.16
378.91	594.50
379.11	521.94
379.31	580.45
379.50	573.43
379.70	596.84
379.89	566.41
380.09	744.29
380.28	683.44
380.48	615.56
380.68	610.88
380.87	678.76
381.07	627.26
381.26	697.48
381.46	648.33
381.65	695.14
381.85	645.99
382.04	669.39
382.24	706.84
382.43	571.09
382.63	711.52
382.83	704.50
383.02	648.33
383.22	683.44
383.41	690.46
383.61	716.20
383.80	763.01
384.00	711.52
384.19	667.05
384.39	751.31
384.58	767.70
384.78	734.93
384.97	805.14
385.17	725.57
385.36	819.19
385.56	770.04
385.75	678.76
385.95	734.93
386.14	741.95
386.34	767.70
386.53	805.14
386.72	770.04
386.92	854.30
387.11	868.34
387.31	884.72
387.50	779.40
387.70	765.36
387.89	737.27
388.09	814.51
388.28	861.32
388.48	725.57
388.67	844.93
388.86	851.96
389.06	873.02
389.25	943.24
389.45	961.96
389.64	847.27
389.84	919.83
390.03	835.57
390.22	833.23
390.42	964.30
390.61	922.17
390.81	926.85
391.00	957.28
391.19	1013.45
391.39	924.51
391.58	943.24
391.78	950.26
391.97	943.24
392.16	976.00
392.36	1064.94
392.55	929.19
392.75	994.73
392.94	933.87
393.13	983.02
393.33	931.53
393.52	961.96
393.71	1074.31
393.91	1060.26
394.10	1001.75
394.29	917.49
394.49	1114.10
394.68	1153.88
394.88	1083.67
395.07	1076.65
395.26	1032.18
395.46	1165.59
395.65	1083.67
395.84	1109.41
396.04	1233.46
396.23	1109.41
396.42	1043.88
396.62	1053.24
396.81	1114.10
397.00	1095.37
397.19	1142.18
397.39	1165.59
397.58	1254.53
397.77	1198.35
397.97	1210.06
398.16	1245.16
398.35	1240.48
398.55	1196.01
398.74	1275.59
398.93	1423.05
399.12	1270.91
399.32	1320.06
399.51	1355.17
399.70	1439.43
399.90	1352.83
400.09	1355.17
400.28	1413.68
400.47	1322.40
400.67	1467.52
400.86	1366.87
401.05	1418.36
401.24	1427.73
401.44	1453.47
401.63	1530.71
401.82	1554.12
402.01	1465.18
402.21	1448.79
402.40	1584.54
402.59	1427.73
402.78	1575.18
402.97	1607.95
403.17	1568.16
403.36	1575.18
403.55	1605.61
403.74	1570.50
403.93	1666.46
404.13	1654.76
404.32	1741.36
404.51	1678.16
404.70	1736.68
404.89	1633.69
405.09	1739.02
405.28	1614.97
405.47	1753.06
405.66	1706.25
405.85	1811.57
406.05	1844.34
406.24	1661.78
406.43	1806.89
406.62	1900.52
406.81	1856.04
407.00	1830.30
407.20	1769.44
407.39	1884.13
407.58	1968.39
407.77	1863.07
407.96	1956.69
408.15	2052.65
408.34	1966.05
408.54	2036.27
408.73	1928.60
408.92	2078.40
409.11	1987.11
409.30	2127.55
409.49	1991.80
409.68	2169.68
409.87	2062.01
410.07	2118.18
410.26	2059.67
410.45	2108.82
410.64	2106.48
410.83	2207.13
411.02	2202.44
411.21	2176.70
411.40	2335.85
411.59	2303.09
411.78	2345.22
411.98	2251.60
412.17	2363.94
412.36	2314.79
412.55	2282.02
412.74	2457.56
412.93	2373.30
413.12	2420.11
413.31	2471.61
413.50	2464.58
413.69	2621.40
413.88	2675.23
414.07	2640.12
414.26	2595.65
414.45	2588.63
414.64	2534.80
414.83	2642.46
415.02	2612.04
415.22	2658.85
415.41	2703.32
415.60	2778.22
415.79	2780.56
415.98	2937.37
416.17	2925.67
416.36	2813.32
416.55	2892.90
416.74	2956.10
416.93	3000.57
417.12	2803.96
417.31	2981.84
417.50	2974.82
417.69	3180.79
417.88	2932.69
418.07	3059.08
418.26	3049.72
418.45	3101.21
418.64	3201.85
418.83	3236.96
419.02	3129.30
419.21	3337.60
419.39	3213.56
419.58	3243.98
419.77	3185.47
419.96	3234.62
420.15	3386.76
420.34	3272.07
420.53	3208.87
420.72	3463.99
420.91	3283.77
421.10	3386.76
421.29	3435.91
421.48	3339.94
421.67	3435.91
421.86	3248.66
422.05	3438.25
422.24	3365.69
422.43	3552.93
422.61	3473.36
422.80	3576.34
422.99	3574.00
423.18	3489.74
423.37	3482.72
423.56	3447.61
423.75	3571.66
423.94	3538.89
424.13	3468.67
424.32	3466.33
424.50	3508.46
424.69	3492.08
424.88	3524.85
425.07	3466.33
425.26	3552.93
425.45	3630.17
425.64	3536.55
425.83	3541.23
426.01	3630.17
426.20	3559.95
426.39	3655.92
426.58	3559.95
426.77	3585.70
426.96	3623.15
427.15	3588.04
427.33	3541.23
427.52	3543.57
427.71	3672.30
427.90	3653.58
428.09	3637.19
428.28	3880.61
428.46	3815.07
428.65	3819.75
428.84	3906.35
429.03	3779.97
429.22	3698.05
429.40	3763.58
429.59	3822.09
429.78	3604.42
429.97	3728.47
430.16	3606.77
430.34	3969.55
430.53	3878.27
430.72	3857.20
430.91	3880.61
431.10	3911.04
431.28	4070.19
431.47	4035.08
431.66	4081.89
431.85	3985.93
432.03	4138.07
432.22	4299.56
432.41	4189.56
432.60	4278.50
432.79	4259.78
432.97	4147.43
433.16	4177.86
433.35	4131.05
433.54	4404.89
433.72	4341.69
433.91	4248.07
434.10	4306.59
434.28	4346.37
434.47	4318.29
434.66	4409.57
434.85	4367.44
435.03	4458.72
435.22	4507.87
435.41	4601.49
435.59	4528.94
435.78	4559.36
435.97	4842.57
436.16	4517.23
436.34	4461.06
436.53	4638.94
436.72	4678.73
436.90	4521.92
437.09	4762.99
437.28	4674.05
437.46	4798.10
437.65	4643.62
437.84	4704.48
438.02	4620.22
438.21	4610.86
438.40	4638.94
438.58	4760.65
438.77	4933.85
438.96	5004.07
439.14	5050.88
439.33	5027.47
439.52	5118.75
439.70	4924.49
439.89	5181.95
440.08	5067.26
440.26	5219.39
440.45	5097.69
440.63	5308.34
440.82	5488.56
441.01	5322.38
441.19	5432.38
441.38	5441.75
441.57	5423.02
441.75	5479.19
441.94	5586.86
442.12	5650.05
442.31	5600.90
442.50	5647.71
442.68	5806.87
442.87	5657.07
443.05	5853.68
443.24	5682.82
443.43	5746.02
443.61	5834.96
443.80	5912.19
443.98	5809.21
444.17	5507.28
444.35	5832.62
444.54	5900.49
444.73	5961.34
444.91	5837.30
445.10	5818.57
445.28	5888.79
445.47	5837.30
445.65	5764.74
445.84	5860.70
446.02	5973.05
446.21	5856.02
446.39	5966.03
446.58	5994.11
446.77	5944.96
446.95	5954.32
447.14	5888.79
447.32	6162.63
447.51	5942.62
447.69	6040.92
447.88	5949.64
448.06	5961.34
448.25	5888.79
448.43	5996.45
448.62	6078.37
448.80	5900.49
448.99	5989.43
449.17	6111.14
449.36	6193.06
449.54	6249.23
449.73	6274.98
449.91	6417.75
450.10	6361.58
450.28	6476.26
450.46	6406.05
450.65	6434.13
450.83	6403.71
451.02	6370.94
451.20	6530.09
451.39	6429.45
451.57	6183.70
451.76	6333.49
451.94	6434.13
452.13	6558.18
452.31	6590.95
452.49	6312.42
452.68	6523.07
452.86	6462.22
453.05	6553.50
453.23	6604.99
453.42	6434.13
453.60	6656.48
453.78	6766.49
453.97	6586.27
454.15	6729.04
454.34	6572.22
454.52	6890.54
454.70	6801.60
454.89	6932.67
455.07	6747.76
455.26	6899.90
455.44	7117.57
455.62	6981.82
455.81	6848.41
455.99	7037.99
456.17	7108.21
456.36	6911.60
456.54	7094.16
456.73	7138.63
456.91	7302.47
457.09	7363.33
457.28	7541.21
457.46	7166.72
457.64	7349.28
457.83	7325.88
458.01	7169.06
458.19	7473.33
458.38	7499.08
458.56	7531.84
458.74	7349.28
458.93	7412.48
459.11	7456.95
459.29	7398.43
459.48	7513.12
459.66	7445.24
459.84	7419.50
460.03	7714.41
460.21	7573.97
460.39	7573.97
460.57	7494.40
460.76	7761.22
460.94	7674.62
461.12	7826.75
461.31	7660.57
461.49	7735.47
461.67	7765.90
461.85	7925.05
462.04	7999.95
462.22	7962.50
462.40	7953.14
462.59	7868.88
462.77	7950.80
462.95	8224.64
463.13	8102.93
463.32	7969.52
463.50	7967.18
463.68	7990.59
463.86	8077.19
464.05	7976.55
464.23	8194.22
464.41	8219.96
464.59	7915.69
464.78	8290.18
464.96	8236.35
465.14	8166.13
465.32	8109.96
465.50	8313.58
465.69	8397.84
465.87	8329.97
466.05	8278.47
466.23	8219.96
466.41	8369.76
466.60	8432.95
466.78	8327.63
466.96	8351.03
467.14	8400.18
467.32	8582.74
467.51	8585.08
467.69	8390.82
467.87	8580.40
468.05	8650.62
468.23	8540.61
468.41	8463.38
468.60	8606.15
468.78	8702.11
468.96	8580.40
469.14	8828.50
469.32	8781.69
469.50	8643.60
469.69	8835.52
469.87	8875.31
470.05	8945.53
470.23	8840.20
470.41	8992.34
470.59	8847.22
470.77	8905.74
470.95	8950.21
471.14	9146.81
471.32	8903.40
471.50	9495.55
471.68	9242.78
471.86	9359.80
472.04	9327.03
472.22	9626.62
472.40	9233.41
472.58	9275.54
472.77	9355.12
472.95	9593.86
473.13	9877.06
473.31	9724.93
473.49	9383.21
473.67	9668.75
473.85	9820.89
474.03	9970.68
474.21	10017.49
474.39	10026.86
474.57	9881.74
474.75	10097.07
474.93	10207.08
475.12	10197.71
475.30	10118.14
475.48	10160.27
475.66	10321.76
475.84	10228.14
476.02	10469.22
476.20	10466.88
476.38	10490.28
476.56	10977.11
476.74	10892.85
476.92	10850.72
477.10	10757.10
477.28	10963.07
477.46	10974.77
477.64	10920.94
477.82	11206.48
478.00	11520.12
478.18	11463.94
478.36	11433.52
478.54	11337.56
478.72	11705.02
478.90	11534.16
479.08	11693.32
479.26	11777.58
479.44	12051.42
479.62	12058.44
479.80	12028.01
479.98	12203.55
480.16	12299.52
480.34	12402.50
480.52	12484.42
480.70	12400.16
480.88	12313.56
481.06	12847.20
481.24	12734.85
481.41	12805.07
481.59	13013.38
481.77	13020.40
481.95	12952.52
482.13	13242.75
482.31	12940.82
482.49	13324.67
482.67	13621.92
482.85	13846.61
483.03	13767.03
483.21	14026.83
483.39	13884.06
483.57	13916.83
483.74	14204.71
483.92	14214.07
484.10	14267.91
484.28	14286.63
484.46	14803.89
484.64	14956.02
484.82	14616.65
485.00	14747.72
485.18	15147.95
485.35	15316.47
485.53	15087.09
485.71	15197.10
485.89	15199.44
486.07	15400.72
486.25	15293.06
486.43	15756.49
486.61	15791.59
486.78	15854.79
486.96	16107.57
487.14	16135.65
487.32	16252.68
487.50	16596.74
487.68	16774.62
487.85	16800.37
488.03	16791.00
488.21	17156.13
488.39	16744.19
488.57	17186.55
488.75	17317.62
488.92	17493.16
489.10	17502.53
489.28	17930.84
489.46	18150.85
489.64	18015.10
489.81	18417.68
489.99	18321.71
490.17	18429.38
490.35	18515.98
490.53	18726.63
490.70	18714.92
490.88	18717.26
491.06	19110.47
491.24	18948.98
491.41	18967.70
491.59	19365.59
491.77	18991.11
491.95	19424.11
492.13	19466.24
492.30	19683.91
492.48	19737.74
492.66	20119.24
492.84	19943.70
493.01	20130.95
493.19	20184.78
493.37	20484.37
493.54	20554.58
493.72	20828.43
493.90	20819.07
494.08	20922.05
494.25	21137.38
494.43	21214.62
494.61	21298.88
494.79	21535.27
494.96	21390.16
495.14	21465.05
495.32	21593.78
495.49	21848.90
495.67	21914.44
495.85	21738.90
496.02	22125.08
496.20	22216.36
496.38	22466.80
496.55	22253.81
496.73	23166.62
496.91	22747.67
497.09	23026.19
497.26	23061.30
497.44	23112.79
497.62	23154.92
497.79	23489.62
497.97	23466.21
498.14	23454.51
498.32	23630.05
498.50	23510.68
498.67	23660.48
498.85	23908.57
499.03	24088.79
499.20	24119.22
499.38	24287.74
499.56	24362.64
499.73	24329.87
499.91	24482.00
500.08	24762.87
500.26	24376.68
500.44	24746.48
500.61	24645.84
500.79	24538.18
500.97	24699.67
501.14	25352.68
501.32	25032.03
501.49	25123.31
501.67	25013.31
501.84	25825.47
502.02	25223.95
502.20	25572.69
502.37	26087.61
502.55	25558.65
502.72	25640.57
502.90	26017.40
503.07	26129.74
503.25	26129.74
503.43	26022.08
503.60	25914.41
503.78	26195.28
503.95	26253.79
504.13	26103.99
504.30	26569.76
504.48	26780.41
504.65	26579.12
504.83	27012.12
505.01	26780.41
505.18	26871.69
505.36	27402.99
505.53	27159.58
505.71	27316.39
505.88	27536.40
506.06	27101.06
506.23	27126.81
506.41	27421.72
506.58	27494.27
506.76	27445.12
506.93	28048.98
507.11	27934.29
507.28	27828.97
507.46	27948.34
507.63	27920.25
507.81	27824.29
507.98	27995.15
508.16	28107.49
508.33	28442.19
508.50	28444.53
508.68	28877.53
508.85	29071.79
509.03	28800.29
509.20	28987.53
509.38	28872.85
509.55	29134.99
509.73	29036.69
509.90	28929.02
510.08	29259.04
510.25	28961.79
510.42	29317.55
510.60	29907.37
510.77	30047.80
510.95	29919.07
511.12	29652.25
511.30	29792.68
511.47	29993.97
511.64	30295.89
511.82	30237.38
511.99	30082.91
512.17	30309.94
512.34	30120.35
512.51	30445.69
512.69	30483.14
512.86	30300.58
513.04	30471.43
513.21	30656.34
513.38	30738.26
513.56	30874.01
513.73	30803.79
513.90	30824.86
514.08	31077.63
514.25	31103.38
514.43	30794.43
514.60	30955.93
514.77	30817.83
514.95	31445.10
515.12	31157.21
515.29	31440.42
515.47	31793.84
515.64	31824.26
515.81	31527.02
515.99	31325.73
516.16	31428.71
516.33	31955.33
516.51	31693.19
516.68	31812.56
516.85	31648.72
517.03	31744.69
517.20	31967.04
517.37	31948.31
517.54	32243.22
517.72	32409.40
517.89	31630.00
518.06	31744.69
518.24	32187.05
518.41	32240.88
518.58	32297.05
518.75	32496.00
518.93	32713.67
519.10	32456.21
519.27	32809.63
519.45	32666.86
519.62	32973.47
519.79	33333.91
519.96	33034.32
520.14	33104.54
520.31	33298.80
520.48	33254.33
520.65	33113.90
520.83	33448.60
521.00	33413.49
521.17	34007.98
521.34	33362.00
521.52	33570.30
521.69	33855.85
521.86	34382.47
522.03	34286.51
522.20	34396.51
522.38	34426.94
522.55	34305.23
522.72	34043.09
522.89	33977.56
523.07	34373.11
523.24	34553.33
523.41	34663.33
523.58	34616.52
523.75	34775.68
523.92	35051.86
524.10	34700.78
524.27	35473.16
524.44	34628.23
524.61	34993.35
524.78	35213.36
524.96	35204.00
525.13	35061.22
525.30	35681.47
525.47	35608.91
525.64	35489.54
525.81	35538.69
525.98	35475.50
526.16	35068.25
526.33	35271.87
526.50	35747.00
526.67	35452.09
526.84	35079.95
527.01	35503.59
527.18	35613.59
527.36	35470.82
527.53	36100.42
527.70	36215.11
527.87	36016.16
528.04	35913.18
528.21	36137.87
528.38	36231.49
528.55	36360.22
528.72	36254.90
528.89	36945.36
529.07	36460.87
529.24	36013.82
529.41	36582.57
529.58	36477.25
529.75	36264.26
529.92	36645.77
530.09	36968.76
530.26	37064.72
530.43	36568.53
530.60	36760.45
530.77	36662.15
530.94	37060.04
531.11	36933.65
531.28	37125.58
531.46	37593.68
531.63	37163.03
531.80	37207.50
531.97	37116.22
532.14	37490.70
532.31	37139.62
532.48	37301.12
532.65	37701.35
532.82	37181.75
532.99	37404.10
533.16	37179.41
533.33	37944.76
533.50	37977.53
533.67	37649.86
533.84	37666.24
534.01	37869.87
534.18	37792.63
534.35	38141.37
534.52	38052.43
534.69	38298.19
534.86	38270.10
535.03	38124.99
535.20	38220.95
535.37	38623.52
535.54	38607.14
535.71	38436.28
535.88	38520.54
536.05	38197.54
536.22	38520.54
536.38	38698.42
536.55	38445.64
536.72	38389.47
536.89	38141.37
537.06	38249.03
537.23	38373.08
537.40	38623.52
537.57	38689.06
537.74	38965.24
537.91	39030.77
538.08	38754.59
538.25	38557.99
538.42	38817.78
538.59	39501.22
538.75	38703.10
538.92	38789.70
539.09	39239.08
539.26	39175.89
539.43	39220.36
539.60	39044.82
539.77	38873.96
539.94	39316.32
540.11	39353.77
540.28	39304.62
540.44	39285.89
540.61	39374.83
540.78	39164.18
540.95	39484.84
541.12	39454.41
541.29	39723.57
541.46	39370.15
541.62	39686.12
541.79	40428.07
541.96	38866.94
542.13	39732.93
542.30	39882.73
542.47	40116.78
542.63	40580.21
542.80	39688.46
542.97	40533.40
543.14	40678.51
543.31	40765.11
543.48	40673.83
543.64	40659.79
543.81	40940.65
543.98	40781.49
544.15	40460.84
544.32	40374.24
544.48	40879.80
544.65	40399.99
544.82	40835.33
544.99	40575.53
545.16	41029.59
545.32	40842.35
545.49	41265.99
545.66	41207.47
545.83	41476.63
546.00	41446.21
546.16	41184.07
546.33	40397.65
546.50	40737.02
546.67	41322.16
546.83	40957.03
547.00	41160.66
547.17	41221.52
547.34	41078.74
547.50	41563.23
547.67	41439.18
547.84	41500.04
548.00	41855.80
548.17	41736.43
548.34	41390.03
548.51	41682.60
548.67	41956.44
548.84	41706.01
549.01	40961.72
549.18	41626.43
549.34	41516.42
549.51	41663.88
549.68	41668.56
549.84	41652.17
550.01	41956.44
550.18	41785.58
550.34	41710.69
550.51	41958.78
550.68	42433.91
550.84	41926.02
551.01	42106.24
551.18	41785.58
551.34	42014.96
551.51	41911.97
551.68	42291.14
551.84	42115.60
552.01	41593.66
552.18	42337.95
552.34	41876.86
552.51	42801.38
552.68	42932.45
552.84	42237.31
553.01	42784.99
553.18	42347.31
553.34	42646.90
553.51	42403.49
553.67	42239.65
553.84	42518.17
554.01	42241.99
554.17	42887.98
554.34	42417.53
554.51	42897.34
554.67	42862.23
554.84	42960.53
555.00	42740.52
555.17	42686.69
555.33	42864.57
555.50	42246.67
555.67	43110.33
555.83	42747.54
556.00	42923.08
556.16	43311.61
556.33	42674.99
556.50	42864.57
556.66	42726.48
556.83	42986.28
556.99	43075.22
557.16	43260.12
557.32	43189.91
557.49	43215.65
557.65	43063.52
557.82	43021.39
557.98	43152.46
558.15	43241.40
558.32	42937.13
558.48	43063.52
558.65	43414.60
558.81	42761.59
558.98	43236.72
559.14	43138.41
559.31	42817.76
559.47	43510.56
559.64	43388.85
559.80	43889.73
559.97	43812.49
560.13	43107.99
560.30	42951.17
560.46	43653.33
560.63	44114.42
560.79	43480.13
560.96	43625.25
561.12	43297.57
561.29	43625.25
561.45	43274.16
561.61	43318.64
561.78	43295.23
561.94	43491.83
562.11	43442.68
562.27	43461.41
562.44	43555.03
562.60	43337.36
562.77	43613.54
562.93	43667.37
563.10	43768.02
563.26	43674.40
563.42	43910.79
563.59	43662.69
563.75	43540.99
563.92	43723.55
564.08	44278.25
564.24	44058.24
564.41	43335.02
564.57	43861.64
564.74	43489.49
564.90	43777.38
565.07	43655.67
565.23	43849.94
565.39	43878.02
565.56	43676.74
565.72	43505.88
565.88	43796.10
566.05	44105.06
566.21	43934.20
566.38	43882.70
566.54	44027.82
566.70	44769.77
566.87	44446.77
567.03	43580.78
567.19	44470.18
567.36	43859.30
567.52	43693.12
567.68	44172.93
567.85	43618.22
568.01	44179.95
568.17	43887.39
568.34	44514.65
568.50	43878.02
568.66	44175.27
568.83	44130.80
568.99	43988.03
569.15	44062.93
569.32	44261.87
569.48	44119.10
569.64	44463.16
569.81	44285.28
569.97	43765.68
570.13	44240.81
570.30	43894.41
570.46	43723.55
570.62	44250.17
570.78	43814.83
570.95	44149.53
571.11	44273.57
571.27	44201.02
571.43	43906.11
571.60	44158.89
571.76	44573.16
571.92	44048.88
572.09	44514.65
572.25	43826.53
572.41	44285.28
572.57	44032.50
572.74	44519.33
572.90	44041.86
573.06	44353.15
573.22	44371.88
573.38	44116.76
573.55	44069.95
573.71	44383.58
573.87	43924.83
574.03	44102.71
574.20	43896.75
574.36	43941.22
574.52	44765.09
574.68	44339.11
574.84	44514.65
575.01	44147.18
575.17	44222.08
575.33	44013.77
575.49	44282.94
575.65	44643.38
575.82	44561.46
575.98	44645.72
576.14	44315.70
576.30	44659.76
576.46	44170.59
576.62	44444.43
576.79	44252.51
576.95	43863.98
577.11	43985.69
577.27	44467.84
577.43	44292.30
577.59	44666.78
577.75	44463.16
577.92	43784.40
578.08	44231.44
578.24	44430.39
578.40	44215.06
578.56	44320.38
578.72	44170.59
578.88	44814.24
579.04	44678.49
579.21	44322.72
579.37	44474.86
579.53	44168.25
579.69	44580.18
579.85	44364.85
580.01	44313.36
580.17	44325.07
580.33	44697.21
580.49	44917.22
580.65	44577.84
580.82	44587.21
580.98	44568.48
581.14	44137.82
581.30	44533.37
581.46	44655.08
581.62	44624.65
581.78	44423.37
581.94	45167.66
582.10	44430.39
582.26	44767.43
582.42	44315.70
582.58	44376.56
582.74	44626.99
582.90	45010.84
583.06	44264.21
583.22	44299.32
583.38	44823.60
583.54	44619.97
583.70	44706.57
583.86	44421.03
584.02	44222.08
584.18	44481.88
584.34	44444.43
584.50	44112.08
584.66	44720.62
584.82	44158.89
584.98	44594.23
585.14	44659.76
585.30	44493.58
585.46	44877.43
585.62	44311.02
585.78	44304.00
585.94	44587.21
586.10	44130.80
586.26	44189.31
586.42	45265.96
586.58	44781.47
586.74	44697.21
586.90	44605.93
587.06	43971.64
587.22	44587.21
587.38	44273.57
587.54	44589.55
587.70	45069.36
587.86	44435.07
588.02	44605.93
588.18	44863.39
588.34	44273.57
588.49	44301.66
588.65	44760.40
588.81	44093.35
588.97	44325.07
589.13	44353.15
589.29	44371.88
589.45	44252.51
589.61	44493.58
589.77	44830.62
589.93	44980.42
590.08	44734.66
590.24	44830.62
