SpectraSuite Data File
++++++++++++++++++++++++++++++++++++
Date: Fri Oct 25 10:47:57 EDT 2013
User: price-jones
Dark Spectrum Present: No
Reference Spectrum Present: No
Number of Sampled Component Spectra: 1
Spectrometers: USB2+H05261
Integration Time (usec): 100000 (USB2+H05261)
Spectra Averaged: 1 (USB2+H05261)
Boxcar Smoothing: 0 (USB2+H05261)
Correct for Electrical Dark: No (USB2+H05261)
Strobe/Lamp Enabled: No (USB2+H05261)
Correct for Detector Non-linearity: No (USB2+H05261)
Correct for Stray Light: No (USB2+H05261)
Number of Pixels in Processed Spectrum: 2048
>>>>>Begin Processed Spectral Data<<<<<
365.73	135.75
365.92	135.75
366.12	135.75
366.32	67.88
366.52	42.13
366.72	119.37
366.91	84.26
367.11	53.83
367.31	63.19
367.51	53.83
367.70	79.58
367.90	58.51
368.10	46.81
368.30	4.68
368.49	37.45
368.69	105.32
368.89	63.19
369.09	51.49
369.28	84.26
369.48	30.43
369.68	93.62
369.87	112.35
370.07	112.35
370.27	124.05
370.47	245.76
370.66	425.98
370.86	379.17
371.06	395.55
371.25	545.34
371.45	489.17
371.65	451.72
371.84	505.56
372.04	475.13
372.24	521.94
372.44	472.79
372.63	521.94
372.83	514.92
373.03	540.66
373.22	500.87
373.42	500.87
373.62	526.62
373.81	573.43
374.01	500.87
374.21	617.90
374.40	564.07
374.60	568.75
374.79	491.51
374.99	557.05
375.19	608.54
375.38	580.45
375.58	543.00
375.78	543.00
375.97	519.60
376.17	561.73
376.37	564.07
376.56	650.67
376.76	573.43
376.95	585.13
377.15	582.79
377.35	683.44
377.54	603.86
377.74	564.07
377.93	599.18
378.13	596.84
378.33	653.01
378.52	683.44
378.72	669.39
378.91	676.41
379.11	648.33
379.31	578.11
379.50	561.73
379.70	624.92
379.89	648.33
380.09	571.09
380.28	678.76
380.48	664.71
380.68	699.82
380.87	662.37
381.07	667.05
381.26	655.35
381.46	613.22
381.65	669.39
381.85	695.14
382.04	596.84
382.24	669.39
382.43	650.67
382.63	669.39
382.83	678.76
383.02	669.39
383.22	753.65
383.41	713.86
383.61	741.95
383.80	713.86
384.00	697.48
384.19	753.65
384.39	793.44
384.58	690.46
384.78	720.88
384.97	812.17
385.17	770.04
385.36	660.03
385.56	753.65
385.75	753.65
385.95	814.51
386.14	800.46
386.34	809.83
386.53	784.08
386.72	760.67
386.92	795.78
387.11	774.72
387.31	800.46
387.50	840.25
387.70	830.89
387.89	821.53
388.09	807.48
388.28	858.98
388.48	823.87
388.67	875.36
388.86	910.47
389.06	987.71
389.25	931.53
389.45	924.51
389.64	910.47
389.84	882.38
390.03	882.38
390.22	990.05
390.42	861.32
390.61	926.85
390.81	990.05
391.00	898.77
391.19	922.17
391.39	917.49
391.58	896.43
391.78	994.73
391.97	987.71
392.16	952.60
392.36	1074.31
392.55	964.30
392.75	999.41
392.94	985.37
393.13	1067.28
393.33	945.58
393.52	1006.43
393.71	1043.88
393.91	1027.50
394.10	1041.54
394.29	1095.37
394.49	1008.77
394.68	1135.16
394.88	1116.44
395.07	1057.92
395.26	1018.13
395.46	1050.90
395.65	1186.65
395.84	1071.97
396.04	1181.97
396.23	1128.14
396.42	1057.92
396.62	1144.52
396.81	1121.12
397.00	1144.52
397.19	1156.22
397.39	1128.14
397.58	1153.88
397.77	1214.74
397.97	1203.04
398.16	1226.44
398.35	1308.36
398.55	1308.36
398.74	1263.89
398.93	1366.87
399.12	1275.59
399.32	1317.72
399.51	1357.51
399.70	1235.80
399.90	1362.19
400.09	1404.32
400.28	1439.43
400.47	1394.96
400.67	1420.71
400.86	1423.05
401.05	1420.71
401.24	1481.56
401.44	1528.37
401.63	1458.15
401.82	1575.18
402.01	1486.24
402.21	1476.88
402.40	1521.35
402.59	1460.49
402.78	1540.07
402.97	1502.62
403.17	1521.35
403.36	1495.60
403.55	1551.78
403.74	1671.14
403.93	1629.01
404.13	1680.50
404.32	1715.61
404.51	1715.61
404.70	1647.74
404.89	1818.60
405.09	1624.33
405.28	1717.95
405.47	1692.21
405.66	1699.23
405.85	1778.81
406.05	1685.19
406.24	1872.43
406.43	1825.62
406.62	1858.39
406.81	1893.49
407.00	1844.34
407.20	1753.06
407.39	1673.48
407.58	1898.17
407.77	1914.56
407.96	1900.52
408.15	1940.30
408.34	1834.98
408.54	1846.68
408.73	1919.24
408.92	1839.66
409.11	2078.40
409.30	2022.22
409.49	2017.54
409.68	2064.35
409.87	2097.12
410.07	2078.40
410.26	2115.84
410.45	2092.44
410.64	2118.18
410.83	2165.00
411.02	2223.51
411.21	2160.31
411.40	2263.30
411.59	2326.49
411.78	2340.54
411.98	2298.41
412.17	2235.21
412.36	2289.04
412.55	2427.14
412.74	2373.30
412.93	2431.82
413.12	2450.54
413.31	2471.61
413.50	2356.92
413.69	2462.24
413.88	2644.81
414.07	2574.59
414.26	2654.17
414.45	2569.91
414.64	2651.83
414.83	2738.43
415.02	2586.29
415.22	2832.05
415.41	2855.45
415.60	2775.88
415.79	2761.83
415.98	2892.90
416.17	2902.26
416.36	2796.94
416.55	2850.77
416.74	2974.82
416.93	2839.07
417.12	2841.41
417.31	2850.77
417.50	2995.89
417.69	2953.76
417.88	2972.48
418.07	3115.25
418.26	3007.59
418.45	3103.55
418.64	3232.28
418.83	3236.96
419.02	3119.93
419.21	3183.13
419.39	3159.72
419.58	3180.79
419.77	3141.00
419.96	3150.36
420.15	3192.49
420.34	3211.22
420.53	3316.54
420.72	3365.69
420.91	3393.78
421.10	3248.66
421.29	3351.65
421.48	3297.81
421.67	3412.50
421.86	3351.65
422.05	3412.50
422.24	3508.46
422.43	3508.46
422.61	3386.76
422.80	3456.97
422.99	3456.97
423.18	3428.88
423.37	3550.59
423.56	3545.91
423.75	3431.23
423.94	3337.60
424.13	3272.07
424.32	3321.22
424.50	3501.44
424.69	3578.68
424.88	3576.34
425.07	3480.38
425.26	3611.45
425.45	3440.59
425.64	3569.32
425.83	3552.93
426.01	3695.71
426.20	3398.46
426.39	3625.49
426.58	3604.42
426.77	3513.14
426.96	3639.53
427.15	3606.77
427.33	3623.15
427.52	3702.73
427.71	3826.78
427.90	3812.73
428.09	3751.88
428.28	3632.51
428.46	3688.68
428.65	3709.75
428.84	3840.82
429.03	3946.14
429.22	3737.84
429.40	3747.20
429.59	3798.69
429.78	3681.66
429.97	3665.28
430.16	3618.47
430.34	3775.28
430.53	3911.04
430.72	3927.42
430.91	3941.46
431.10	3964.87
431.28	4044.45
431.47	3969.55
431.66	4088.92
431.85	4196.58
432.03	4142.75
432.22	4250.41
432.41	4063.17
432.60	4124.02
432.79	4189.56
432.97	4198.92
433.16	4252.75
433.35	4196.58
433.54	4278.50
433.72	4283.18
433.91	4170.83
434.10	4269.14
434.28	4393.19
434.47	4395.53
434.66	4461.06
434.85	4451.70
435.03	4465.74
435.22	4414.25
435.41	4503.19
435.59	4561.70
435.78	4599.15
435.97	4479.79
436.16	4587.45
436.34	4456.38
436.53	4716.18
436.72	4760.65
436.90	4505.53
437.09	4716.18
437.28	4526.60
437.46	4482.13
437.65	4669.37
437.84	4805.12
438.02	4695.11
438.21	4622.56
438.40	4610.86
438.58	4800.44
438.77	4795.76
438.96	4903.42
439.14	5001.72
439.33	5069.60
439.52	5008.75
439.70	4987.68
439.89	5039.17
440.08	5188.97
440.26	5212.37
440.45	5135.14
440.63	5104.71
440.82	5263.86
441.01	5210.03
441.19	5383.23
441.38	5380.89
441.57	5453.45
441.75	5551.75
441.94	5439.40
442.12	5638.35
442.31	5621.97
442.50	5654.73
442.68	5579.84
442.87	5631.33
443.05	5727.29
443.24	5603.24
443.43	5870.06
443.61	5652.39
443.80	5970.71
443.98	5657.07
444.17	5659.42
444.35	5769.42
444.54	5872.40
444.73	5872.40
444.91	5809.21
445.10	5792.83
445.28	5839.64
445.47	5839.64
445.65	5785.80
445.84	5851.34
446.02	5916.87
446.21	5867.72
446.39	5879.43
446.58	6078.37
446.77	6127.52
446.95	5886.45
447.14	5994.11
447.32	6071.35
447.51	5909.85
447.69	5860.70
447.88	5968.37
448.06	6008.16
448.25	5867.72
448.43	6122.84
448.62	5987.09
448.80	5942.62
448.99	5937.94
449.17	6174.33
449.36	5942.62
449.54	6188.38
449.73	6232.85
449.91	6291.36
450.10	6263.27
450.28	6436.47
450.46	6305.40
450.65	6375.62
450.83	6349.87
451.02	6363.92
451.20	6530.09
451.39	6567.54
451.57	6317.11
451.76	6289.02
451.94	6286.68
452.13	6525.41
452.31	6349.87
452.49	6296.04
452.68	6459.88
452.86	6532.44
453.05	6635.42
453.23	6534.78
453.42	6637.76
453.60	6614.35
453.78	6658.82
453.97	6546.48
454.15	6401.37
454.34	6518.39
454.52	6857.77
454.70	6740.74
454.89	6633.08
455.07	6876.49
455.26	6836.70
455.44	6895.22
455.62	6850.75
455.81	7047.35
455.99	7045.01
456.17	7047.35
456.36	6881.18
456.54	7014.59
456.73	7215.87
456.91	7164.38
457.09	7133.95
457.28	7419.50
457.46	7183.10
457.64	7417.16
457.83	7288.43
458.01	7241.62
458.19	7412.48
458.38	7414.82
458.56	7293.11
458.74	7398.43
458.93	7356.30
459.11	7480.35
459.29	7393.75
459.48	7536.52
459.66	7417.16
459.84	7424.18
460.03	7709.72
460.21	7693.34
460.39	7705.04
460.57	7606.74
460.76	7590.36
460.94	7541.21
461.12	7906.33
461.31	7719.09
461.49	7784.62
461.67	7681.64
461.85	8070.17
462.04	7847.82
462.22	8383.80
462.40	7983.57
462.59	7913.35
462.77	7978.89
462.95	8196.56
463.13	7953.14
463.32	8035.06
463.50	8114.64
463.68	8067.83
463.86	7943.78
464.05	7913.35
464.23	8032.72
464.41	8231.66
464.59	8021.02
464.78	8369.76
464.96	8292.52
465.14	8351.03
465.32	8301.88
465.50	8276.13
465.69	8142.72
465.87	8093.57
466.05	8175.49
466.23	8203.58
466.41	8102.93
466.60	8496.14
466.78	8402.52
466.96	8456.36
467.14	8379.12
467.32	8421.25
467.51	8601.47
467.69	8280.82
467.87	8571.04
468.05	8430.61
468.23	8549.98
468.41	8475.08
468.60	8477.42
468.78	8571.04
468.96	8491.46
469.14	8868.29
469.32	8858.93
469.50	8634.24
469.69	8760.63
469.87	8844.88
470.05	8723.18
470.23	8954.89
470.41	8964.25
470.59	8940.85
470.77	9011.06
470.95	9076.60
471.14	9104.68
471.32	9062.55
471.50	9228.73
471.68	9312.99
471.86	9413.63
472.04	9343.42
472.22	9479.17
472.40	9111.71
472.58	9280.22
472.77	9366.82
472.95	9617.26
473.13	9745.99
473.31	9378.53
473.49	9668.75
473.67	9872.38
473.85	9783.44
474.03	9839.61
474.21	10043.24
474.39	9928.55
474.57	10101.75
474.75	10080.69
474.93	10068.98
475.12	10115.80
475.30	10157.92
475.48	10068.98
475.66	10277.29
475.84	10342.83
476.02	10331.12
476.20	10324.10
476.38	10747.74
476.56	10595.61
476.74	10736.04
476.92	10663.48
477.10	10820.30
477.28	10621.35
477.46	10764.12
477.64	11215.85
477.82	11213.51
478.00	11459.26
478.18	11454.58
478.36	11384.37
478.54	11503.73
478.72	11482.67
478.90	11719.06
479.08	11627.78
479.26	11845.45
479.44	11819.71
479.62	12138.02
479.80	12049.08
479.98	12123.98
480.16	12556.97
480.34	12262.07
480.52	12711.45
480.70	12475.06
480.88	12353.35
481.06	12613.15
481.24	12465.69
481.41	12896.35
481.59	12872.95
481.77	12882.31
481.95	13078.91
482.13	13324.67
482.31	13202.96
482.49	13668.73
482.67	13460.42
482.85	13635.96
483.03	13640.64
483.21	13708.52
483.39	13996.40
483.57	13877.04
483.74	14319.40
483.92	14286.63
484.10	14075.98
484.28	14647.07
484.46	14707.93
484.64	14806.23
484.82	14417.70
485.00	14764.10
485.18	14965.39
485.35	15161.99
485.53	14895.17
485.71	15035.60
485.89	15269.66
486.07	15438.17
486.25	15424.13
486.43	15602.01
486.61	15609.03
486.78	16020.97
486.96	16177.78
487.14	16196.51
487.32	16175.44
487.50	16444.60
487.68	16627.17
487.85	16910.37
488.03	16931.44
488.21	17130.38
488.39	17003.99
488.57	17252.09
488.75	17317.62
488.92	17310.60
489.10	17610.19
489.28	17818.50
489.46	17788.07
489.64	17893.40
489.81	18387.25
489.99	18569.81
490.17	18237.45
490.35	18417.68
490.53	18473.85
490.70	18647.05
490.88	18684.50
491.06	19157.28
491.24	18951.32
491.41	18977.06
491.59	19253.25
491.77	19051.96
491.95	19176.01
492.13	19730.72
492.30	19798.59
492.48	19934.34
492.66	19784.55
492.84	19962.43
493.01	20044.35
493.19	20217.55
493.37	20311.17
493.54	20503.09
493.72	20496.07
493.90	20645.87
494.08	21071.84
494.25	21167.80
494.43	21376.11
494.61	21542.29
494.79	21331.64
494.96	21268.45
495.14	21034.39
495.32	21565.70
495.49	21752.94
495.67	21823.16
495.85	22108.70
496.02	22293.60
496.20	22441.06
496.38	22443.40
496.55	22656.39
496.73	22927.89
496.91	22551.06
497.09	22703.20
497.26	23178.33
497.44	23220.45
497.62	22948.95
497.79	23175.98
497.97	22991.08
498.14	23126.83
498.32	23426.42
498.50	23653.45
498.67	24013.90
498.85	23655.79
499.03	24098.16
499.20	23756.44
499.38	24222.20
499.56	24369.66
499.73	24311.14
499.91	24638.82
500.08	24545.20
500.26	24334.55
500.44	24823.72
500.61	24659.88
500.79	24821.38
500.97	25172.46
501.14	25085.86
501.32	25160.76
501.49	24854.15
501.67	25010.96
501.84	25472.05
502.02	24952.45
502.20	25504.82
502.37	25844.20
502.55	25766.96
502.72	25708.44
502.90	26047.82
503.07	25961.22
503.25	26017.40
503.43	25628.87
503.60	26143.78
503.78	26225.70
503.95	26209.32
504.13	26235.06
504.30	26539.33
504.48	26511.25
504.65	26476.14
504.83	26852.97
505.01	26675.09
505.18	26733.60
505.36	27623.00
505.53	26909.14
505.71	27433.42
505.88	27360.86
506.06	27379.59
506.23	27260.22
506.41	27239.15
506.58	27395.97
506.76	27889.82
506.93	27700.24
507.11	27768.12
507.28	27997.49
507.46	27632.36
507.63	27924.93
507.81	28128.56
507.98	28018.55
508.16	28481.98
508.33	28446.87
508.50	28594.32
508.68	28563.90
508.85	28779.23
509.03	28662.20
509.20	28849.44
509.38	29174.78
509.55	29263.72
509.73	29017.96
509.90	29127.97
510.08	28875.19
510.25	29263.72
510.42	29083.50
510.60	29591.39
510.77	29261.38
510.95	29577.35
511.12	29731.83
511.30	29816.08
511.47	29921.41
511.64	29619.48
511.82	29659.27
511.99	29813.74
512.17	29689.70
512.34	30113.33
512.51	30562.72
512.69	30508.88
512.86	30335.68
513.04	30546.33
513.21	30782.73
513.38	30749.96
513.56	30417.60
513.73	30719.53
513.90	30675.06
514.08	30974.65
514.25	31213.38
514.43	31042.53
514.60	30747.62
514.77	31164.23
514.95	31255.51
515.12	31211.04
515.29	31241.47
515.47	31688.51
515.64	31646.38
515.81	31557.44
515.99	31534.04
516.16	32011.51
516.33	31545.74
516.51	31995.12
516.68	31590.21
516.85	31321.05
517.03	31681.49
517.20	32105.13
517.37	32084.06
517.54	32341.52
517.72	32163.64
517.89	32116.83
518.06	32027.89
518.24	31978.74
518.41	32041.93
518.58	32292.37
518.75	32325.14
518.93	32638.77
519.10	32533.45
519.27	32664.52
519.45	32847.08
519.62	32987.51
519.79	32898.57
519.96	33031.98
520.14	33228.59
520.31	33273.06
520.48	33329.23
520.65	33333.91
520.83	33425.19
521.00	33439.23
521.17	33769.25
521.34	33839.47
521.52	33933.09
521.69	33919.04
521.86	33949.47
522.03	34085.22
522.20	34015.01
522.38	33881.60
522.55	34235.02
522.72	34061.82
522.89	33916.70
523.07	34277.15
523.24	34562.69
523.41	34092.24
523.58	34031.39
523.75	35077.61
523.92	34836.53
524.10	34965.26
524.27	34623.54
524.44	34958.24
524.61	35115.06
524.78	34602.48
524.96	35206.34
525.13	35131.44
525.30	35526.99
525.47	35391.24
525.64	35405.28
525.81	35541.03
525.98	35292.94
526.16	35414.65
526.33	35372.52
526.50	35655.72
526.67	35555.08
526.84	35489.54
527.01	35328.05
527.18	35388.90
527.36	35683.81
527.53	35770.41
527.70	36074.68
527.87	36191.70
528.04	36011.48
528.21	35817.22
528.38	36243.20
528.55	36217.45
528.72	36261.92
528.89	36503.00
529.07	36486.61
529.24	36699.60
529.41	36748.75
529.58	35964.67
529.75	36608.32
529.92	36322.77
530.09	36762.79
530.26	36493.63
530.43	36818.97
530.60	36280.64
530.77	36720.66
530.94	37156.00
531.11	37130.26
531.28	37085.79
531.46	37076.43
531.63	37373.67
531.80	36964.08
531.97	37123.24
532.14	37205.16
532.31	37317.50
532.48	37677.94
532.65	37710.71
532.82	37521.13
532.99	37376.01
533.16	37160.69
533.33	37652.20
533.50	37673.26
533.67	37811.35
533.84	37888.59
534.01	37759.86
534.18	37799.65
534.35	38082.86
534.52	38174.14
534.69	37691.99
534.86	38036.05
535.03	38209.25
535.20	38052.43
535.37	38361.38
535.54	38616.50
535.71	38239.67
535.88	38361.38
536.05	38316.91
536.22	38433.94
536.38	38644.59
536.55	38588.41
536.72	38352.02
536.89	38333.29
537.06	38436.28
537.23	38890.34
537.40	38756.93
537.57	38733.53
537.74	38632.88
537.91	38941.83
538.08	39173.55
538.25	39033.11
538.42	38880.98
538.59	39248.44
538.75	38911.41
538.92	39210.99
539.09	39351.43
539.26	39477.82
539.43	39159.50
539.60	39182.91
539.77	39344.41
539.94	39311.64
540.11	38810.76
540.28	39438.03
540.44	39262.49
540.61	39562.08
540.78	38923.11
540.95	39372.49
541.12	39615.91
541.29	39463.77
541.46	39475.48
541.62	39735.27
541.79	39931.88
541.96	39721.23
542.13	39969.33
542.30	39899.11
542.47	39627.61
542.63	39651.02
542.80	40060.61
542.97	40500.63
543.14	40746.39
543.31	40009.12
543.48	40158.91
543.64	40755.75
543.81	40631.70
543.98	40582.55
544.15	40395.31
544.32	40783.83
544.48	40713.62
544.65	40659.79
544.82	41167.68
544.99	40491.27
545.16	40425.73
545.32	40840.01
545.49	40961.72
545.66	41273.01
545.83	41144.28
546.00	41146.62
546.16	41074.06
546.33	40952.35
546.50	40898.52
546.67	41195.77
546.83	40741.71
547.00	40914.90
547.17	41057.68
547.34	41336.20
547.50	41359.61
547.67	41413.44
547.84	41504.72
548.00	41663.88
548.17	41544.51
548.34	41614.72
548.51	41469.61
548.67	41778.56
548.84	42096.88
549.01	41696.64
549.18	41729.41
549.34	41904.95
549.51	41661.54
549.68	42120.28
549.84	42075.81
550.01	42136.66
550.18	41450.89
550.34	41490.68
550.51	41799.63
550.68	41804.31
550.84	41418.12
551.01	42014.96
551.18	41865.16
551.34	41722.39
551.51	42141.35
551.68	42440.93
551.84	42000.91
552.01	42307.52
552.18	42319.23
552.34	42024.32
552.51	42417.53
552.68	42124.96
552.84	42256.03
553.01	42581.37
553.18	42471.36
553.34	42405.83
553.51	42293.48
553.67	42337.95
553.84	43051.81
554.01	42569.66
554.17	42705.41
554.34	42745.20
554.51	42651.58
554.67	42684.35
554.84	42572.00
555.00	42253.69
555.17	42880.95
555.33	43084.58
555.50	43084.58
555.67	42976.92
555.83	42838.83
556.00	43131.39
556.16	43063.52
556.33	43236.72
556.50	43232.04
556.66	43526.94
556.83	42735.84
556.99	43253.10
557.16	43342.04
557.32	43203.95
557.49	42932.45
557.65	42749.88
557.82	42871.59
557.98	42925.42
558.15	43171.18
558.32	43356.08
558.48	43037.77
558.65	43524.60
558.81	43512.90
558.98	43061.18
559.14	43021.39
559.31	43122.03
559.47	42962.87
559.64	43243.74
559.80	43751.63
559.97	43686.10
560.13	43634.61
560.30	43482.47
560.46	43297.57
560.63	43751.63
560.79	43562.05
560.96	43608.86
561.12	43840.57
561.29	43555.03
561.45	43725.89
561.61	44072.29
561.78	43597.16
561.94	43019.05
562.11	43550.35
562.27	43711.84
562.44	43721.21
562.60	43604.18
562.77	44065.27
562.93	43576.09
563.10	43871.00
563.26	43608.86
563.42	43952.92
563.59	43936.54
563.75	43889.73
563.92	43835.89
564.08	43952.92
564.24	44189.31
564.41	43735.25
564.57	43952.92
564.74	44191.65
564.90	44025.48
565.07	44191.65
565.23	43981.01
565.39	43966.96
565.56	44430.39
565.72	43683.76
565.88	44105.06
566.05	43920.15
566.21	44004.41
566.38	44041.86
566.54	44011.43
566.70	44044.20
566.87	44699.55
567.03	44051.22
567.19	44648.06
567.36	44259.53
567.52	44453.79
567.68	44348.47
567.85	44041.86
568.01	44435.07
568.17	43999.73
568.34	44060.58
568.50	44144.84
568.66	44093.35
568.83	44411.67
568.99	43945.90
569.15	44039.52
569.32	44332.09
569.48	43798.44
569.64	44294.64
569.81	44086.33
569.97	44250.17
570.13	44547.42
570.30	44224.42
570.46	44065.27
570.62	44301.66
570.78	44247.83
570.95	44210.38
571.11	43934.20
571.27	44051.22
571.43	44011.43
571.60	44065.27
571.76	44397.62
571.92	43964.62
572.09	44360.17
572.25	44217.40
572.41	44341.45
572.57	44404.64
572.74	44704.23
572.90	44477.20
573.06	44545.08
573.22	44367.20
573.38	44226.76
573.55	44226.76
573.71	44624.65
573.87	44563.80
574.03	44477.20
574.20	44500.61
574.36	44095.69
574.52	44275.91
574.68	44615.29
574.84	44722.96
575.01	44332.09
575.17	44549.76
575.33	44112.08
575.49	44081.65
575.65	44463.16
575.82	44619.97
575.98	44325.07
576.14	44573.16
576.30	45048.29
576.46	44402.30
576.62	43950.58
576.79	44734.66
576.95	44311.02
577.11	44163.57
577.27	44479.54
577.43	44596.57
577.59	44275.91
577.75	44390.60
577.92	44222.08
578.08	44339.11
578.24	44404.64
578.40	44484.22
578.56	44238.47
578.72	44971.05
578.88	44870.41
579.04	44563.80
579.21	44224.42
579.37	44573.16
579.53	44535.71
579.69	44692.53
579.85	44507.63
580.01	45062.33
580.17	44748.70
580.33	45001.48
580.49	44903.18
580.65	44786.15
580.82	44715.93
580.98	44311.02
581.14	44137.82
581.30	44811.90
581.46	44624.65
581.62	45120.85
581.78	44722.96
581.94	44804.88
582.10	44334.43
582.26	44919.56
582.42	44453.79
582.58	44928.92
582.74	44577.84
582.90	44526.35
583.06	45177.02
583.22	44999.14
583.38	44926.58
583.54	44804.88
583.70	44739.34
583.86	44776.79
584.02	44163.57
584.18	44648.06
584.34	44374.22
584.50	45076.38
584.66	44851.69
584.82	44678.49
584.98	44795.51
585.14	44552.10
585.30	44533.37
585.46	45109.14
585.62	44741.68
585.78	44484.22
585.94	44271.23
586.10	44547.42
586.26	44774.45
586.42	45095.10
586.58	44694.87
586.74	44596.57
586.90	44435.07
587.06	44666.78
587.22	45078.72
587.38	44301.66
587.54	45221.49
587.70	44856.37
587.86	44774.45
588.02	44697.21
588.18	44877.43
588.34	44830.62
588.49	44563.80
588.65	44832.96
588.81	44526.35
588.97	44914.88
589.13	44004.41
589.29	44566.14
589.45	44739.34
589.61	44587.21
589.77	45432.14
589.93	45382.99
590.08	44957.01
590.24	44900.84
