SpectraSuite Data File
++++++++++++++++++++++++++++++++++++
Date: Fri Oct 25 11:34:25 EDT 2013
User: price-jones
Dark Spectrum Present: No
Reference Spectrum Present: No
Number of Sampled Component Spectra: 1
Spectrometers: USB2+H05261
Integration Time (usec): 100000 (USB2+H05261)
Spectra Averaged: 1 (USB2+H05261)
Boxcar Smoothing: 0 (USB2+H05261)
Correct for Electrical Dark: No (USB2+H05261)
Strobe/Lamp Enabled: No (USB2+H05261)
Correct for Detector Non-linearity: No (USB2+H05261)
Correct for Stray Light: No (USB2+H05261)
Number of Pixels in Processed Spectrum: 2048
>>>>>Begin Processed Spectral Data<<<<<
365.73	337.04
365.92	337.04
366.12	337.04
366.32	217.67
366.52	217.67
366.72	205.97
366.91	236.39
367.11	159.16
367.31	180.22
367.51	191.92
367.70	191.92
367.90	177.88
368.10	177.88
368.30	170.86
368.49	168.52
368.69	248.10
368.89	234.05
369.09	191.92
369.28	203.63
369.48	201.29
369.68	245.76
369.87	280.86
370.07	203.63
370.27	308.95
370.47	313.63
370.66	498.53
370.86	489.17
371.06	589.82
371.25	596.84
371.45	554.71
371.65	554.71
371.84	568.75
372.04	617.90
372.24	578.11
372.44	547.69
372.63	610.88
372.83	561.73
373.03	676.41
373.22	543.00
373.42	615.56
373.62	587.47
373.81	589.82
374.01	575.77
374.21	624.92
374.40	641.31
374.60	671.73
374.79	718.54
374.99	662.37
375.19	638.97
375.38	664.71
375.58	711.52
375.78	606.20
375.97	671.73
376.17	660.03
376.37	638.97
376.56	655.35
376.76	664.71
376.95	573.43
377.15	706.84
377.35	688.12
377.54	615.56
377.74	617.90
377.93	603.86
378.13	688.12
378.33	674.07
378.52	713.86
378.72	699.82
378.91	678.76
379.11	643.65
379.31	730.25
379.50	704.50
379.70	791.10
379.89	723.23
380.09	688.12
380.28	725.57
380.48	655.35
380.68	690.46
380.87	695.14
381.07	655.35
381.26	734.93
381.46	695.14
381.65	784.08
381.85	695.14
382.04	725.57
382.24	760.67
382.43	751.31
382.63	746.63
382.83	690.46
383.02	826.21
383.22	812.17
383.41	807.48
383.61	842.59
383.80	854.30
384.00	774.72
384.19	840.25
384.39	777.06
384.58	798.12
384.78	840.25
384.97	868.34
385.17	875.36
385.36	835.57
385.56	837.91
385.75	741.95
385.95	915.15
386.14	882.38
386.34	777.06
386.53	833.23
386.72	786.42
386.92	929.19
387.11	812.17
387.31	875.36
387.50	870.68
387.70	861.32
387.89	924.51
388.09	830.89
388.28	870.68
388.48	873.02
388.67	894.08
388.86	837.91
389.06	940.90
389.25	959.62
389.45	940.90
389.64	917.49
389.84	919.83
390.03	924.51
390.22	966.64
390.42	924.51
390.61	968.98
390.81	933.87
391.00	961.96
391.19	990.05
391.39	901.11
391.58	1025.15
391.78	978.34
391.97	961.96
392.16	973.66
392.36	1137.50
392.55	1029.84
392.75	1011.11
392.94	1018.13
393.13	1027.50
393.33	1027.50
393.52	954.94
393.71	1022.81
393.91	1139.84
394.10	985.37
394.29	1078.99
394.49	1123.46
394.68	1090.69
394.88	1081.33
395.07	1057.92
395.26	1032.18
395.46	1121.12
395.65	1163.25
395.84	1125.80
396.04	1212.40
396.23	1181.97
396.42	1207.72
396.62	1188.99
396.81	1207.72
397.00	1179.63
397.19	1263.89
397.39	1167.93
397.58	1280.27
397.77	1170.27
397.97	1259.21
398.16	1207.72
398.35	1217.08
398.55	1329.42
398.74	1242.82
398.93	1324.74
399.12	1214.74
399.32	1270.91
399.51	1242.82
399.70	1282.61
399.90	1392.62
400.09	1345.81
400.28	1240.48
400.47	1315.38
400.67	1343.47
400.86	1364.53
401.05	1306.02
401.24	1437.09
401.44	1313.04
401.63	1378.58
401.82	1343.47
402.01	1444.11
402.21	1416.02
402.40	1432.41
402.59	1392.62
402.78	1392.62
402.97	1455.81
403.17	1497.94
403.36	1500.28
403.55	1502.62
403.74	1481.56
403.93	1640.72
404.13	1530.71
404.32	1598.59
404.51	1535.39
404.70	1589.22
404.89	1640.72
405.09	1643.06
405.28	1629.01
405.47	1619.65
405.66	1586.88
405.85	1612.63
406.05	1671.14
406.24	1650.08
406.43	1659.44
406.62	1717.95
406.81	1790.51
407.00	1671.14
407.20	1788.17
407.39	1753.06
407.58	1790.51
407.77	1820.94
407.96	1874.77
408.15	1837.32
408.34	1706.25
408.54	1806.89
408.73	1820.94
408.92	1851.36
409.11	1954.35
409.30	1893.49
409.49	1982.43
409.68	1980.09
409.87	2005.84
410.07	1888.81
410.26	2057.33
410.45	2073.71
410.64	1937.96
410.83	1998.82
411.02	2045.63
411.21	2052.65
411.40	1973.07
411.59	2139.25
411.78	2125.21
411.98	2111.16
412.17	2118.18
412.36	2069.03
412.55	2150.95
412.74	2347.56
412.93	2237.55
413.12	2296.07
413.31	2312.45
413.50	2333.51
413.69	2370.96
413.88	2363.94
414.07	2434.16
414.26	2394.37
414.45	2495.01
414.64	2333.51
414.83	2434.16
415.02	2504.37
415.22	2600.34
415.41	2588.63
415.60	2539.48
415.79	2511.39
415.98	2546.50
416.17	2635.44
416.36	2733.75
416.55	2576.93
416.74	2752.47
416.93	2719.70
417.12	2654.17
417.31	2782.90
417.50	2759.49
417.69	2766.51
417.88	2918.65
418.07	2881.20
418.26	2740.77
418.45	2874.18
418.64	2881.20
418.83	2895.24
419.02	2937.37
419.21	2953.76
419.39	2946.73
419.58	2972.48
419.77	2979.50
419.96	3035.67
420.15	2956.10
420.34	2911.63
420.53	2979.50
420.72	3070.78
420.91	3199.51
421.10	3143.34
421.29	3227.60
421.48	3049.72
421.67	3115.25
421.86	3089.51
422.05	3155.04
422.24	3150.36
422.43	3215.90
422.61	3236.96
422.80	3286.11
422.99	3239.30
423.18	3293.13
423.37	3414.84
423.56	3248.66
423.75	3351.65
423.94	3180.79
424.13	3028.65
424.32	3243.98
424.50	3304.84
424.69	3344.63
424.88	3358.67
425.07	3222.92
425.26	3173.77
425.45	3185.47
425.64	3302.50
425.83	3201.85
426.01	3421.86
426.20	3295.47
426.39	3349.31
426.58	3454.63
426.77	3323.56
426.96	3496.76
427.15	3421.86
427.33	3564.64
427.52	3384.41
427.71	3559.95
427.90	3456.97
428.09	3552.93
428.28	3578.68
428.46	3499.10
428.65	3473.36
428.84	3571.66
429.03	3681.66
429.22	3524.85
429.40	3599.74
429.59	3660.60
429.78	3501.44
429.97	3562.30
430.16	3749.54
430.34	3733.15
430.53	3737.84
430.72	3796.35
430.91	3751.88
431.10	3695.71
431.28	3810.39
431.47	3721.45
431.66	3866.56
431.85	3843.16
432.03	3871.25
432.22	3988.27
432.41	3829.12
432.60	3932.10
432.79	3948.48
432.97	3871.25
433.16	3843.16
433.35	3927.42
433.54	4014.02
433.72	4086.58
433.91	4095.94
434.10	4025.72
434.28	3950.82
434.47	4058.49
434.66	4194.24
434.85	4086.58
435.03	4180.20
435.22	4170.83
435.41	4224.67
435.59	4212.96
435.78	4231.69
435.97	4283.18
436.16	4095.94
436.34	4217.65
436.53	4393.19
436.72	4428.29
436.90	4299.56
437.09	4362.76
437.28	4311.27
437.46	4208.28
437.65	4374.46
437.84	4409.57
438.02	4456.38
438.21	4432.97
438.40	4395.53
438.58	4568.73
438.77	4552.34
438.96	4641.28
439.14	4634.26
439.33	4634.26
439.52	4788.74
439.70	4624.90
439.89	4823.84
440.08	4791.08
440.26	4861.29
440.45	4849.59
440.63	4844.91
440.82	4975.98
441.01	4891.72
441.19	4950.23
441.38	5116.41
441.57	5011.09
441.75	5043.85
441.94	5139.82
442.12	5394.93
442.31	5334.08
442.50	5053.22
442.68	5139.82
442.87	5287.27
443.05	5186.63
443.24	5404.30
443.43	5305.99
443.61	5296.63
443.80	5483.88
443.98	5210.03
444.17	5060.24
444.35	5348.12
444.54	5425.36
444.73	5401.96
444.91	5289.61
445.10	5516.64
445.28	5376.21
445.47	5364.51
445.65	5430.04
445.84	5577.50
446.02	5359.83
446.21	5465.15
446.39	5497.92
446.58	5600.90
446.77	5542.39
446.95	5401.96
447.14	5495.58
447.32	5717.93
447.51	5500.26
447.69	5554.09
447.88	5549.41
448.06	5533.03
448.25	5556.43
448.43	5563.45
448.62	5628.99
448.80	5706.23
448.99	5575.16
449.17	5654.73
449.36	5636.01
449.54	5673.46
449.73	5907.51
449.91	5750.70
450.10	5750.70
450.28	5870.06
450.46	5977.73
450.65	5907.51
450.83	5844.32
451.02	5987.09
451.20	5870.06
451.39	5949.64
451.57	5839.64
451.76	5764.74
451.94	5930.92
452.13	6167.31
452.31	5944.96
452.49	6029.22
452.68	6104.12
452.86	6047.94
453.05	6146.25
453.23	6289.02
453.42	6150.93
453.60	6193.06
453.78	6129.86
453.97	6141.57
454.15	6204.76
454.34	6104.12
454.52	6293.70
454.70	6326.47
454.89	6188.38
455.07	6305.40
455.26	6363.92
455.44	6490.31
455.62	6490.31
455.81	6366.26
455.99	6583.93
456.17	6602.65
456.36	6532.44
456.54	6722.02
456.73	6445.84
456.91	6726.70
457.09	6644.78
457.28	6675.21
457.46	6600.31
457.64	6771.17
457.83	6663.51
458.01	6876.49
458.19	7045.01
458.38	6806.28
458.56	6906.92
458.74	6827.34
458.93	6920.96
459.11	6897.56
459.29	6958.41
459.48	7124.59
459.66	7045.01
459.84	7091.82
460.03	7307.15
460.21	7236.94
460.39	7059.06
460.57	7169.06
460.76	7304.81
460.94	7094.16
461.12	7201.83
461.31	7260.34
461.49	7211.19
461.67	7311.83
461.85	7370.35
462.04	7220.55
462.22	7737.81
462.40	7391.41
462.59	7461.63
462.77	7396.09
462.95	7630.15
463.13	7503.76
463.32	7494.40
463.50	7386.73
463.68	7630.15
463.86	7501.42
464.05	7529.50
464.23	7695.68
464.41	7634.83
464.59	7595.04
464.78	7911.01
464.96	7772.92
465.14	7674.62
465.32	7803.35
465.50	7922.71
465.69	7819.73
465.87	7906.33
466.05	7885.26
466.23	8002.29
466.41	7929.74
466.60	8119.32
466.78	7796.32
466.96	7962.50
467.14	7936.76
467.32	7939.10
467.51	8095.91
467.69	7889.95
467.87	7936.76
468.05	8070.17
468.23	7985.91
468.41	8215.28
468.60	8004.63
468.78	8079.53
468.96	8067.83
469.14	8002.29
469.32	8369.76
469.50	8194.22
469.69	8194.22
469.87	8449.33
470.05	8432.95
470.23	8601.47
470.41	8339.33
470.59	8573.38
470.77	8369.76
470.95	8596.79
471.14	8549.98
471.32	8276.13
471.50	8631.90
471.68	8624.87
471.86	8784.03
472.04	8814.46
472.22	9039.15
472.40	8854.25
472.58	8814.46
472.77	9029.79
472.95	8945.53
473.13	9315.33
473.31	8898.72
473.49	8943.19
473.67	8849.57
473.85	9210.01
474.03	9490.87
474.21	9221.71
474.39	9380.87
474.57	9434.70
474.75	9488.53
474.93	9776.42
475.12	9261.50
475.30	9657.05
475.48	9635.99
475.66	9755.35
475.84	9813.87
476.02	9668.75
476.20	9619.60
476.38	10019.83
476.56	10232.82
476.74	10286.65
476.92	10162.61
477.10	9771.74
477.28	10368.57
477.46	10256.23
477.64	10356.87
477.82	10377.94
478.00	10913.92
478.18	10768.80
478.36	10796.89
478.54	10726.68
478.72	10902.22
478.90	11019.24
479.08	11213.51
479.26	11154.99
479.44	11344.58
479.62	11208.83
479.80	11344.58
479.98	11480.33
480.16	11740.13
480.34	11428.84
480.52	11749.49
480.70	11758.85
480.88	11573.95
481.06	11695.66
481.24	11899.28
481.41	12088.87
481.59	12196.53
481.77	12140.36
481.95	12341.64
482.13	12400.16
482.31	12294.83
482.49	12961.89
482.67	12592.08
482.85	13034.44
483.03	12730.17
483.21	13149.13
483.39	13062.53
483.57	12929.12
483.74	13350.42
483.92	13427.65
484.10	13343.39
484.28	13547.02
484.46	14033.85
484.64	14160.24
484.82	14059.60
485.00	14099.39
485.18	14068.96
485.35	14422.38
485.53	14513.66
485.71	14455.15
485.89	14710.27
486.07	14815.59
486.25	14754.74
486.43	14890.49
486.61	14897.51
486.78	15283.70
486.96	14988.79
487.14	15763.51
487.32	15510.73
487.50	15576.27
487.68	15613.71
487.85	15910.96
488.03	16093.52
488.21	16407.16
488.39	16374.39
488.57	16400.13
488.75	16196.51
488.92	16627.17
489.10	16938.46
489.28	17055.48
489.46	17055.48
489.64	16912.71
489.81	17544.66
489.99	17460.40
490.17	17364.43
490.35	17687.43
490.53	17778.71
490.70	17905.10
490.88	17888.71
491.06	17905.10
491.24	18167.24
491.41	18302.99
491.59	18155.54
491.77	18607.26
491.95	18607.26
492.13	18817.91
492.30	18789.82
492.48	18930.25
492.66	19098.77
492.84	18972.38
493.01	19257.93
493.19	19117.50
493.37	19653.48
493.54	19641.78
493.72	19955.41
493.90	19885.19
494.08	19899.23
494.25	20079.46
494.43	19864.13
494.61	20402.45
494.79	20395.43
494.96	20034.99
495.14	20585.01
495.32	20922.05
495.49	20610.76
495.67	21029.71
495.85	21202.91
496.02	21041.42
496.20	21411.22
496.38	21324.62
496.55	21003.97
496.73	21811.45
496.91	21598.46
497.09	21872.31
497.26	21832.52
497.44	22197.64
497.62	21886.35
497.79	22590.85
497.97	22176.58
498.14	22656.39
498.32	22794.48
498.50	22537.02
498.67	23023.85
498.85	22628.30
499.03	22796.82
499.20	23276.63
499.38	22986.40
499.56	23183.01
499.73	23601.96
499.91	23630.05
500.08	23864.10
500.26	23307.05
500.44	23477.91
500.61	23503.66
500.79	23840.70
500.97	24030.28
501.14	24133.26
501.32	24156.67
501.49	24336.89
501.67	24538.18
501.84	24458.60
502.02	24140.29
502.20	24606.05
502.37	24542.86
502.55	24737.12
502.72	24617.75
502.90	24629.46
503.07	24348.59
503.25	24936.07
503.43	25125.65
503.60	25191.19
503.78	25441.62
503.95	25041.39
504.13	25282.47
504.30	25394.81
504.48	25415.88
504.65	25219.27
504.83	25839.51
505.01	26478.48
505.18	25942.50
505.36	26059.52
505.53	26001.01
505.71	26153.15
505.88	26291.24
506.06	26256.13
506.23	26670.40
506.41	26382.52
506.58	26572.10
506.76	26396.56
506.93	27068.30
507.11	26991.06
507.28	26986.38
507.46	27070.64
507.63	26859.99
507.81	27133.83
507.98	27381.93
508.16	27417.04
508.33	27419.38
508.50	27461.51
508.68	27421.72
508.85	27828.97
509.03	27702.58
509.20	27758.75
509.38	27824.29
509.55	27737.69
509.73	27962.38
509.90	28119.20
510.08	28130.90
510.25	28013.87
510.42	28217.50
510.60	28102.81
510.77	28587.30
510.95	28744.12
511.12	28287.71
511.30	28669.22
511.47	28840.08
511.64	28844.76
511.82	29294.14
511.99	28982.85
512.17	29287.12
512.34	29149.03
512.51	29549.26
512.69	29495.43
512.86	29450.96
513.04	29731.83
513.21	29687.36
513.38	29600.76
513.56	29813.74
513.73	29406.49
513.90	29764.59
514.08	29575.01
514.25	29844.17
514.43	29993.97
514.60	30433.99
514.77	30504.20
514.95	30380.15
515.12	30532.29
515.29	30347.39
515.47	30204.61
515.64	30668.04
515.81	30359.09
515.99	30607.19
516.16	31112.74
516.33	30742.94
516.51	31484.89
516.68	30953.58
516.85	31105.72
517.03	31615.96
517.20	31229.77
517.37	31508.29
517.54	31346.79
517.72	31412.33
517.89	31377.22
518.06	31686.17
518.24	31899.16
518.41	31288.28
518.58	31934.27
518.75	31463.82
518.93	31920.23
519.10	32039.59
519.27	32114.49
519.45	32130.87
519.62	32119.17
519.79	32685.58
519.96	32290.03
520.14	32156.62
520.31	32500.68
520.48	32582.60
520.65	32479.61
520.83	33104.54
521.00	32680.90
521.17	33050.70
521.34	33270.72
521.52	33116.24
521.69	32596.64
521.86	33354.97
522.03	33209.86
522.20	33635.84
522.38	33619.46
522.55	33752.87
522.72	33207.52
522.89	33797.34
523.07	33834.78
523.24	33350.29
523.41	33563.28
523.58	33170.07
523.75	33900.32
523.92	33523.49
524.10	34117.99
524.27	33977.56
524.44	34256.08
524.61	34106.29
524.78	34319.28
524.96	34602.48
525.13	34684.40
525.30	34960.58
525.47	34373.11
525.64	34789.72
525.81	34696.10
525.98	35140.80
526.16	34759.30
526.33	34679.72
526.50	35398.26
526.67	34698.44
526.84	35297.62
527.01	34969.94
527.18	34969.94
527.36	35084.63
527.53	35236.77
527.70	35379.54
527.87	35342.09
528.04	35791.47
528.21	35618.27
528.38	35803.17
528.55	35562.10
528.72	35768.07
528.89	36053.61
529.07	35571.46
529.24	35566.78
529.41	36027.87
529.58	35854.67
529.75	36116.81
529.92	36243.20
530.09	36137.87
530.26	36261.92
530.43	36439.80
530.60	36011.48
530.77	36051.27
530.94	36430.44
531.11	36177.66
531.28	36624.70
531.46	36622.36
531.63	36222.13
531.80	36135.53
531.97	36615.34
532.14	36292.35
532.31	36589.59
532.48	36802.58
532.65	36975.78
532.82	37282.39
532.99	36706.62
533.16	36842.37
533.33	36879.82
533.50	37354.95
533.67	37310.48
533.84	36811.95
534.01	37067.06
534.18	37523.47
534.35	37394.74
534.52	37570.28
534.69	37883.91
534.86	37675.60
535.03	37656.88
535.20	37699.01
535.37	37603.05
535.54	37734.12
535.71	37717.73
535.88	37956.47
536.05	38122.65
536.22	38342.66
536.38	38082.86
536.55	37926.04
536.72	38174.14
536.89	38113.28
537.06	38047.75
537.23	38880.98
537.40	38197.54
537.57	37872.21
537.74	38382.45
537.91	38473.73
538.08	38621.18
538.25	38160.09
538.42	38333.29
538.59	38876.30
538.75	38459.68
538.92	38972.26
539.09	38799.06
539.26	39049.50
539.43	38778.00
539.60	38871.62
539.77	39030.77
539.94	39173.55
540.11	39044.82
540.28	38845.87
540.44	39248.44
540.61	39145.46
540.78	39194.61
540.95	39002.69
541.12	38916.09
541.29	38885.66
541.46	39166.52
541.62	39115.03
541.79	39566.76
541.96	39065.88
542.13	39014.39
542.30	39831.24
542.47	39810.17
542.63	39711.87
542.80	39409.94
542.97	39997.41
543.14	40442.12
543.31	39913.16
543.48	40165.93
543.64	40589.57
543.81	40196.36
543.98	40411.69
544.15	40634.04
544.32	40863.41
544.48	40732.34
544.65	40086.36
544.82	40439.78
544.99	40236.15
545.16	40254.87
545.32	40598.93
545.49	40954.69
545.66	40540.42
545.83	40685.53
546.00	40587.23
546.16	41003.85
546.33	40996.82
546.50	40863.41
546.67	41202.79
546.83	40641.06
547.00	40617.66
547.17	40718.30
547.34	40973.42
547.50	41312.80
547.67	41280.03
547.84	41151.30
548.00	41282.37
548.17	41137.26
548.34	41654.51
548.51	41574.94
548.67	41556.21
548.84	41560.89
549.01	41425.14
549.18	41151.30
549.34	41668.56
549.51	41509.40
549.68	41734.09
549.84	41909.63
550.01	41649.83
550.18	41844.10
550.34	41947.08
550.51	41879.21
550.68	41834.74
550.84	41556.21
551.01	41984.53
551.18	42059.43
551.34	41731.75
551.51	41918.99
551.68	42054.75
551.84	42438.59
552.01	41755.16
552.18	42309.86
552.34	41989.21
552.51	42136.66
552.68	41553.87
552.84	42092.19
553.01	42155.39
553.18	42141.35
553.34	42424.55
553.51	42335.61
553.67	42752.23
553.84	42799.04
554.01	42141.35
554.17	42351.99
554.34	42586.05
554.51	42967.55
554.67	42625.84
554.84	42562.64
555.00	42691.37
555.17	42855.21
555.33	42958.19
555.50	42986.28
555.67	43096.28
555.83	42773.29
556.00	42665.63
556.16	43318.64
556.33	43243.74
556.50	42609.45
556.66	43110.33
556.83	42663.28
556.99	43189.91
557.16	43388.85
557.32	43335.02
557.49	43309.27
557.65	42784.99
557.82	43225.01
557.98	43210.97
558.15	43393.53
558.32	42897.34
558.48	42990.96
558.65	43796.10
558.81	43758.66
558.98	43213.31
559.14	43702.48
559.31	43763.34
559.47	43665.03
559.64	43959.94
559.80	43346.72
559.97	43653.33
560.13	43475.45
560.30	43784.40
560.46	43494.18
560.63	43915.47
560.79	43826.53
560.96	44243.15
561.12	43927.17
561.29	43817.17
561.45	43585.46
561.61	43695.46
561.78	43894.41
561.94	43618.22
562.11	44058.24
562.27	43826.53
562.44	44060.58
562.60	44196.34
562.77	44320.38
562.93	44236.12
563.10	44130.80
563.26	43889.73
563.42	44507.63
563.59	44086.33
563.75	43690.78
563.92	44039.52
564.08	44311.02
564.24	44488.90
564.41	44102.71
564.57	43842.92
564.74	44144.84
564.90	43901.43
565.07	44488.90
565.23	44596.57
565.39	44257.19
565.56	44257.19
565.72	44299.32
565.88	43789.08
566.05	44392.94
566.21	44355.49
566.38	44053.56
566.54	44622.31
566.70	44528.69
566.87	44774.45
567.03	44409.32
567.19	44383.58
567.36	44348.47
567.52	44172.93
567.68	44910.20
567.85	44605.93
568.01	44715.93
568.17	44596.57
568.34	45062.33
568.50	44215.06
568.66	44507.63
568.83	44306.34
568.99	44535.71
569.15	44790.83
569.32	44692.53
569.48	44767.43
569.64	45022.54
569.81	44713.59
569.97	45141.91
570.13	44865.73
570.30	44526.35
570.46	45088.08
570.62	44957.01
570.78	44577.84
570.95	44982.76
571.11	44933.60
571.27	45050.63
571.43	44849.35
571.60	45055.31
571.76	45064.67
571.92	45301.07
572.09	44823.60
572.25	44680.83
572.41	44811.90
572.57	45024.89
572.74	45272.98
572.90	45249.58
573.06	45120.85
573.22	45172.34
573.38	44893.82
573.55	44980.42
573.71	45436.82
573.87	45045.95
574.03	44914.88
574.20	45303.41
574.36	45031.91
574.52	45331.50
574.68	45551.51
574.84	45352.56
575.01	45118.51
575.17	45059.99
575.33	45434.48
575.49	45296.39
575.65	45104.46
575.82	45233.19
575.98	45198.09
576.14	45556.19
576.30	45214.47
576.46	45134.89
576.62	44921.90
576.79	45057.65
576.95	45170.00
577.11	45043.61
577.27	45294.05
577.43	44889.13
577.59	45064.67
577.75	45242.56
577.92	44844.66
578.08	45186.38
578.24	45392.35
578.40	45762.15
578.56	45160.64
578.72	45523.42
578.88	45134.89
579.04	45268.30
579.21	45488.31
579.37	45106.80
579.53	45727.05
579.69	44854.03
579.85	45357.24
580.01	45045.95
580.17	45001.48
580.33	45680.24
580.49	45226.17
580.65	45598.32
580.82	45265.96
580.98	45092.76
581.14	45272.98
581.30	45200.43
581.46	45235.53
581.62	45326.81
581.78	45191.06
581.94	45361.92
582.10	45338.52
582.26	45462.57
582.42	45633.42
582.58	45392.35
582.74	45457.88
582.90	45294.05
583.06	45509.38
583.22	45352.56
583.38	45542.14
583.54	45354.90
583.70	45780.88
583.86	45858.12
584.02	45221.49
584.18	45698.96
584.34	45659.17
584.50	45361.92
584.66	45764.49
584.82	45628.74
584.98	45832.37
585.14	45563.21
585.30	45113.83
585.46	45717.68
585.62	45638.11
585.78	45570.23
585.94	45188.72
586.10	45659.17
586.26	45610.02
586.42	45483.63
586.58	45549.17
586.74	45563.21
586.90	45542.14
587.06	45464.91
587.22	45773.86
587.38	45287.03
587.54	45668.53
587.70	45584.27
587.86	45581.93
588.02	45497.67
588.18	45588.95
588.34	45736.41
588.49	45640.45
588.65	45687.26
588.81	45787.90
588.97	45776.20
589.13	45904.93
589.29	45411.07
589.45	45696.62
589.61	45855.78
589.77	45633.42
589.93	45825.35
590.08	45757.47
