SpectraSuite Data File
++++++++++++++++++++++++++++++++++++
Date: Fri Oct 25 11:25:57 EDT 2013
User: price-jones
Dark Spectrum Present: No
Reference Spectrum Present: No
Number of Sampled Component Spectra: 1
Spectrometers: USB2+H05261
Integration Time (usec): 100000 (USB2+H05261)
Spectra Averaged: 1 (USB2+H05261)
Boxcar Smoothing: 0 (USB2+H05261)
Correct for Electrical Dark: No (USB2+H05261)
Strobe/Lamp Enabled: No (USB2+H05261)
Correct for Detector Non-linearity: No (USB2+H05261)
Correct for Stray Light: No (USB2+H05261)
Number of Pixels in Processed Spectrum: 2048
>>>>>Begin Processed Spectral Data<<<<<
365.73	222.35
365.92	222.35
366.12	222.35
366.32	229.37
366.52	131.07
366.72	133.41
366.91	119.37
367.11	128.73
367.31	112.35
367.51	98.30
367.70	131.07
367.90	168.52
368.10	114.69
368.30	135.75
368.49	159.16
368.69	217.67
368.89	175.54
369.09	187.24
369.28	124.05
369.48	105.32
369.68	220.01
369.87	222.35
370.07	252.78
370.27	208.31
370.47	379.17
370.66	596.84
370.86	587.47
371.06	660.03
371.25	608.54
371.45	674.07
371.65	653.01
371.84	697.48
372.04	772.38
372.24	674.07
372.44	772.38
372.63	709.18
372.83	685.78
373.03	746.63
373.22	770.04
373.42	704.50
373.62	842.59
373.81	753.65
374.01	770.04
374.21	791.10
374.40	781.74
374.60	802.80
374.79	812.17
374.99	784.08
375.19	788.76
375.38	866.00
375.58	795.78
375.78	793.44
375.97	889.40
376.17	947.92
376.37	870.68
376.56	954.94
376.76	931.53
376.95	866.00
377.15	896.43
377.35	929.19
377.54	866.00
377.74	851.96
377.93	938.55
378.13	912.81
378.33	856.64
378.52	945.58
378.72	1029.84
378.91	999.41
379.11	954.94
379.31	901.11
379.50	912.81
379.70	1025.15
379.89	1043.88
380.09	1062.60
380.28	961.96
380.48	1025.15
380.68	983.02
380.87	1046.22
381.07	1006.43
381.26	1041.54
381.46	1008.77
381.65	1018.13
381.85	1067.28
382.04	1100.05
382.24	1093.03
382.43	1015.79
382.63	1057.92
382.83	1064.94
383.02	1004.09
383.22	1153.88
383.41	1081.33
383.61	1142.18
383.80	1139.84
384.00	1231.12
384.19	1109.41
384.39	1247.51
384.58	1205.38
384.78	1188.99
384.97	1151.54
385.17	1102.39
385.36	1219.42
385.56	1153.88
385.75	1165.59
385.95	1205.38
386.14	1212.40
386.34	1151.54
386.53	1221.76
386.72	1221.76
386.92	1310.70
387.11	1228.78
387.31	1252.19
387.50	1188.99
387.70	1313.04
387.89	1270.91
388.09	1235.80
388.28	1364.53
388.48	1273.25
388.67	1350.49
388.86	1331.76
389.06	1383.26
389.25	1301.34
389.45	1282.61
389.64	1320.06
389.84	1348.15
390.03	1404.32
390.22	1418.36
390.42	1329.42
390.61	1495.60
390.81	1427.73
391.00	1390.28
391.19	1444.11
391.39	1444.11
391.58	1495.60
391.78	1462.83
391.97	1390.28
392.16	1439.43
392.36	1444.11
392.55	1526.03
392.75	1467.52
392.94	1621.99
393.13	1572.84
393.33	1568.16
393.52	1624.33
393.71	1610.29
393.91	1626.67
394.10	1610.29
394.29	1624.33
394.49	1631.35
394.68	1535.39
394.88	1624.33
395.07	1645.40
395.26	1732.00
395.46	1626.67
395.65	1818.60
395.84	1727.32
396.04	1746.04
396.23	1638.38
396.42	1764.76
396.62	1823.28
396.81	1710.93
397.00	1846.68
397.19	1694.55
397.39	1802.21
397.58	1872.43
397.77	1708.59
397.97	1820.94
398.16	1820.94
398.35	1769.44
398.55	1905.20
398.74	1842.00
398.93	1891.15
399.12	1867.75
399.32	1907.54
399.51	1984.77
399.70	1989.46
399.90	1980.09
400.09	1907.54
400.28	2057.33
400.47	2033.93
400.67	2078.40
400.86	2125.21
401.05	2160.31
401.24	2141.59
401.44	2118.18
401.63	2228.19
401.82	2176.70
402.01	2076.06
402.21	2193.08
402.40	2069.03
402.59	2242.23
402.78	2155.63
402.97	2232.87
403.17	2300.75
403.36	2317.13
403.55	2277.34
403.74	2298.41
403.93	2174.36
404.13	2349.90
404.32	2452.88
404.51	2326.49
404.70	2298.41
404.89	2502.03
405.09	2469.27
405.28	2480.97
405.47	2401.39
405.66	2520.76
405.85	2466.92
406.05	2513.74
406.24	2579.27
406.43	2530.12
406.62	2614.38
406.81	2574.59
407.00	2579.27
407.20	2485.65
407.39	2581.61
407.58	2602.68
407.77	2684.59
407.96	2717.36
408.15	2792.26
408.34	2810.98
408.54	2792.26
408.73	2890.56
408.92	2684.59
409.11	2780.56
409.30	2913.97
409.49	2902.26
409.68	2897.58
409.87	2881.20
410.07	2977.16
410.26	3028.65
410.45	2965.46
410.64	3091.85
410.83	3077.80
411.02	3087.17
411.21	3042.70
411.40	3068.44
411.59	3197.17
411.78	3164.40
411.98	3131.64
412.17	3248.66
412.36	3351.65
412.55	3358.67
412.74	3351.65
412.93	3330.58
413.12	3337.60
413.31	3520.17
413.50	3611.45
413.69	3557.61
413.88	3574.00
414.07	3662.94
414.26	3688.68
414.45	3681.66
414.64	3681.66
414.83	3637.19
415.02	3618.47
415.22	3850.18
415.41	3775.28
415.60	3810.39
415.79	3922.74
415.98	3918.06
416.17	4091.26
416.36	4007.00
416.55	4032.74
416.74	4133.39
416.93	3990.61
417.12	4042.11
417.31	4007.00
417.50	4170.83
417.69	4219.99
417.88	4358.08
418.07	4231.69
418.26	4299.56
418.45	4301.90
418.64	4454.04
418.83	4402.55
419.02	4463.40
419.21	4592.13
419.39	4451.70
419.58	4582.77
419.77	4390.84
419.96	4430.63
420.15	4533.62
420.34	4713.84
420.53	4617.88
420.72	4580.43
420.91	4678.73
421.10	4716.18
421.29	4746.61
421.48	4779.37
421.67	4800.44
421.86	4779.37
422.05	4540.64
422.24	4690.43
422.43	4844.91
422.61	4865.97
422.80	5004.07
422.99	4781.71
423.18	4889.38
423.37	4922.15
423.56	4975.98
423.75	4849.59
423.94	4683.41
424.13	4542.98
424.32	4760.65
424.50	4880.02
424.69	5039.17
424.88	4994.70
425.07	4896.40
425.26	4837.89
425.45	5041.51
425.64	4844.91
425.83	5001.72
426.01	4968.96
426.20	4908.10
426.39	5100.03
426.58	4980.66
426.77	5057.90
426.96	5144.50
427.15	5085.98
427.33	5247.48
427.52	5135.14
427.71	5310.68
427.90	5233.44
428.09	5205.35
428.28	5254.50
428.46	5324.72
428.65	5401.96
428.84	5486.22
429.03	5584.52
429.22	5413.66
429.40	5455.79
429.59	5516.64
429.78	5282.59
429.97	5296.63
430.16	5451.11
430.34	5411.32
430.53	5575.16
430.72	5624.31
430.91	5488.56
431.10	5650.05
431.28	5823.25
431.47	5804.53
431.66	5809.21
431.85	5685.16
432.03	5933.26
432.22	6036.24
432.41	5933.26
432.60	5830.27
432.79	6104.12
432.97	6001.13
433.16	5935.60
433.35	5902.83
433.54	5949.64
433.72	6040.92
433.91	6202.42
434.10	6050.28
434.28	6101.78
434.47	6122.84
434.66	6307.74
434.85	6239.87
435.03	6239.87
435.22	6270.30
435.41	6473.92
435.59	6361.58
435.78	6324.13
435.97	6483.28
436.16	6408.39
436.34	6399.02
436.53	6415.41
436.72	6612.01
436.90	6490.31
437.09	6583.93
437.28	6427.11
437.46	6492.65
437.65	6642.44
437.84	6651.80
438.02	6651.80
438.21	6623.72
438.40	6679.89
438.58	6930.33
438.77	6925.65
438.96	7007.56
439.14	7211.19
439.33	7061.40
439.52	7176.08
439.70	7204.17
439.89	7307.15
440.08	7227.57
440.26	7220.55
440.45	7192.47
440.63	7513.12
440.82	7487.37
441.01	7461.63
441.19	7674.62
441.38	7627.81
441.57	7667.60
441.75	7637.17
441.94	7829.09
442.12	7913.35
442.31	8067.83
442.50	7885.26
442.68	7803.35
442.87	7943.78
443.05	8065.49
443.24	8140.38
443.43	8154.43
443.61	8112.30
443.80	8156.77
443.98	8067.83
444.17	7784.62
444.35	8163.79
444.54	8231.66
444.73	8439.97
444.91	8187.19
445.10	8351.03
445.28	8362.73
445.47	8156.77
445.65	8320.60
445.84	8386.14
446.02	8524.23
446.21	8336.99
446.39	8386.14
446.58	8564.02
446.77	8428.27
446.95	8299.54
447.14	8432.95
447.32	8470.40
447.51	8709.13
447.69	8355.71
447.88	8582.74
448.06	8407.20
448.25	8533.59
448.43	8667.00
448.62	8454.02
448.80	8472.74
448.99	8624.87
449.17	8615.51
449.36	8519.55
449.54	8828.50
449.73	8683.39
449.91	8997.02
450.10	8748.92
450.28	9226.39
450.46	9067.24
450.65	9240.44
450.83	9085.96
451.02	8961.91
451.20	9074.26
451.39	9167.88
451.57	9296.61
451.76	9022.77
451.94	9186.60
452.13	9188.94
452.31	9142.13
452.49	9043.83
452.68	9362.14
452.86	9376.19
453.05	9408.95
453.23	9465.13
453.42	9249.80
453.60	9423.00
453.78	9301.29
453.97	9317.67
454.15	9535.34
454.34	9521.30
454.52	9621.94
454.70	9610.24
454.89	9490.87
455.07	9706.20
455.26	9839.61
455.44	9795.14
455.62	9638.33
455.81	9891.10
455.99	9900.47
456.17	9987.07
456.36	10038.56
456.54	10420.06
456.73	10335.81
456.91	10438.79
457.09	10436.45
457.28	10380.28
457.46	10286.65
457.64	10551.14
457.83	10581.56
458.01	10317.08
458.19	10778.17
458.38	10527.73
458.56	10567.52
458.74	10775.83
458.93	10698.59
459.11	10476.24
459.29	10530.07
459.48	10759.44
459.66	10913.92
459.84	10892.85
460.03	11164.36
460.21	11009.88
460.39	10857.75
460.57	11178.40
460.76	11002.86
460.94	11021.58
461.12	11154.99
461.31	11023.92
461.49	11059.03
461.67	11166.70
461.85	11211.17
462.04	11208.83
462.22	11843.11
462.40	11630.12
462.59	11564.59
462.77	11351.60
462.95	11702.68
463.13	11480.33
463.32	11548.20
463.50	11733.11
463.68	11623.10
463.86	11587.99
464.05	11800.98
464.23	11499.05
464.41	11873.54
464.59	11660.55
464.78	11997.59
464.96	11992.90
465.14	11779.92
465.32	11974.18
465.50	12191.85
465.69	12159.08
465.87	12409.52
466.05	12018.65
466.23	11929.71
466.41	12177.81
466.60	12437.61
466.78	12238.66
466.96	12236.32
467.14	12133.34
467.32	12493.78
467.51	12531.23
467.69	12161.42
467.87	12276.11
468.05	12718.47
468.23	12599.10
468.41	12292.49
468.60	12409.52
468.78	12716.13
468.96	12540.59
469.14	13104.66
469.32	13085.94
469.50	12643.57
469.69	13083.59
469.87	13027.42
470.05	13064.87
470.23	13078.91
470.41	13067.21
470.59	13263.82
470.77	13053.17
470.95	13235.73
471.14	13209.98
471.32	13205.30
471.50	13514.25
471.68	13336.37
471.86	13696.82
472.04	13745.97
472.22	13816.18
472.40	13554.04
472.58	13886.40
472.77	13909.80
472.95	13980.02
473.13	14389.61
473.31	14153.22
473.49	13944.91
473.67	14139.18
473.85	14352.16
474.03	14773.46
474.21	14628.35
474.39	14487.92
474.57	14665.80
474.75	14965.39
474.93	14839.00
475.12	15028.58
475.30	15365.62
475.48	15047.30
475.66	15147.95
475.84	15159.65
476.02	15321.15
476.20	15208.80
476.38	15487.32
476.56	16023.31
476.74	15854.79
476.92	15515.41
477.10	15747.12
477.28	15964.79
477.46	16065.44
477.64	16257.36
477.82	16430.56
478.00	16840.15
478.18	16615.46
478.36	17043.78
478.54	17011.01
478.72	17116.34
478.90	17336.35
479.08	17591.47
479.26	17879.35
479.44	17626.57
479.62	17703.81
479.80	18204.69
479.98	18157.88
480.16	18520.66
480.34	18342.78
480.52	18635.35
480.70	18359.16
480.88	18602.58
481.06	18686.84
481.24	18895.14
481.41	18995.79
481.59	18988.77
481.77	19337.51
481.95	19229.84
482.13	19548.15
482.31	19852.42
482.49	20109.88
482.67	19697.95
482.85	20411.81
483.03	20900.98
483.21	20437.56
483.39	20807.36
483.57	21006.31
483.74	21106.95
483.92	21338.66
484.10	21113.97
484.28	21771.66
484.46	21977.63
484.64	22094.66
484.82	21867.63
485.00	21982.31
485.18	22499.57
485.35	22977.04
485.53	22740.64
485.71	22902.14
485.89	23475.57
486.07	23042.57
486.25	23651.11
486.43	23470.89
486.61	23391.31
486.78	23847.72
486.96	24350.93
487.14	24500.73
487.32	24467.96
487.50	24568.60
487.68	24620.10
487.85	25362.04
488.03	25523.54
488.21	26017.40
488.39	25883.98
488.57	26235.06
488.75	26195.28
488.92	26300.60
489.10	26724.24
489.28	26752.32
489.46	27264.90
489.64	26995.74
489.81	27246.18
489.99	27587.89
490.17	27756.41
490.35	28065.36
490.53	28046.64
490.70	28320.48
490.88	28327.50
491.06	28737.10
491.24	28807.31
491.41	29158.39
491.59	28814.34
491.77	29336.27
491.95	29474.37
492.13	29530.54
492.30	30068.86
492.48	30110.99
492.66	29963.54
492.84	30132.06
493.01	30649.32
493.19	30305.26
493.37	31131.47
493.54	31096.36
493.72	31250.83
493.90	31431.05
494.08	31938.95
494.25	32135.56
494.43	31981.08
494.61	31847.67
494.79	32292.37
494.96	32030.23
495.14	32842.40
495.32	32837.72
495.49	33268.37
495.67	33284.76
495.85	33408.81
496.02	33408.81
496.20	33975.22
496.38	33916.70
496.55	33731.80
496.73	34539.29
496.91	34747.59
497.09	34771.00
497.26	34775.68
497.44	35077.61
497.62	35140.80
497.79	35531.67
497.97	35311.66
498.14	35807.86
498.32	36212.77
498.50	35599.55
498.67	36680.88
498.85	36367.24
499.03	36723.01
499.20	36882.16
499.38	36645.77
499.56	36800.24
499.73	37003.87
499.91	37488.36
500.08	37661.56
500.26	36964.08
500.44	37109.19
500.61	37902.64
500.79	37703.69
500.97	37820.72
501.14	38583.73
501.32	38426.92
501.49	38679.69
501.67	38625.86
501.84	38930.13
502.02	38944.17
502.20	39445.05
502.37	39332.70
502.55	39218.02
502.72	39407.60
502.90	38955.88
503.07	39407.60
503.25	39182.91
503.43	39952.94
503.60	39730.59
503.78	39805.49
503.95	39929.54
504.13	40325.09
504.30	40687.87
504.48	40142.53
504.65	40657.45
504.83	40786.18
505.01	41060.02
505.18	41104.49
505.36	41617.07
505.53	40802.56
505.71	41038.95
505.88	41418.12
506.06	41001.50
506.23	41759.84
506.41	41979.85
506.58	41975.17
506.76	42232.63
506.93	42164.75
507.11	42230.29
507.28	42270.08
507.46	42763.93
507.63	42801.38
507.81	43091.60
507.98	42712.44
508.16	43000.32
508.33	42899.68
508.50	43388.85
508.68	43037.77
508.85	43966.96
509.03	43859.30
509.20	43791.42
509.38	44083.99
509.55	44385.92
509.73	43999.73
509.90	44219.74
510.08	44119.10
510.25	44329.75
510.42	44535.71
510.60	44818.92
510.77	45312.77
510.95	45034.25
511.12	45261.28
511.30	44896.16
511.47	45399.37
511.64	45284.68
511.82	45270.64
511.99	45595.98
512.17	46232.60
512.34	45776.20
512.51	46302.82
512.69	46239.62
512.86	46363.67
513.04	46148.34
513.21	46436.23
513.38	46581.34
513.56	46651.56
513.73	46909.02
513.90	47016.68
514.08	46930.08
514.25	46871.57
514.43	47194.56
514.60	47395.85
514.77	46953.49
514.95	47587.77
515.12	47241.37
515.29	47042.43
515.47	47835.87
515.64	48114.39
515.81	47885.02
515.99	48067.58
516.16	48177.59
516.33	48240.78
516.51	48083.97
516.68	48123.75
516.85	48531.01
517.03	48495.90
517.20	48713.57
517.37	48718.25
517.54	48680.80
517.72	48591.86
517.89	48891.45
518.06	49319.77
518.24	48891.45
518.41	49268.28
518.58	49066.99
518.75	49041.24
518.93	49202.74
519.10	49759.79
519.27	49612.34
519.45	49691.91
519.62	49577.23
519.79	49996.18
519.96	49918.95
520.14	50178.75
520.31	49909.58
520.48	50092.15
520.65	50024.27
520.83	50344.92
521.00	50408.12
521.17	50120.23
521.34	50740.47
521.52	50649.19
521.69	50567.27
521.86	50925.38
522.03	50672.60
522.20	51229.65
522.38	51550.30
522.55	51283.48
522.72	51098.58
522.89	51323.27
523.07	51716.48
523.24	51356.03
523.41	51634.56
523.58	51367.74
523.75	51636.90
523.92	51559.66
524.10	51885.00
524.27	52053.51
524.44	52123.73
524.61	52236.08
524.78	51959.89
524.96	51903.72
525.13	52416.30
525.30	52231.40
525.47	52287.57
525.64	52465.45
525.81	52523.96
525.98	52399.91
526.16	52729.93
526.33	52458.43
526.50	52926.53
526.67	52725.25
526.84	52589.50
527.01	52727.59
527.18	52659.71
527.36	52886.74
527.53	52853.98
527.70	53392.30
527.87	53272.93
528.04	53223.78
528.21	53518.69
528.38	53478.90
528.55	53565.50
528.72	53265.91
528.89	53120.80
529.07	53504.65
529.24	53392.30
529.41	53624.01
529.58	53464.86
529.75	53712.95
529.92	53827.64
530.09	53659.12
530.26	53949.35
530.43	53687.21
530.60	53478.90
530.77	53783.17
530.94	54174.04
531.11	53785.51
531.28	53958.71
531.46	54143.61
531.63	54419.80
531.80	54213.83
531.97	54169.36
532.14	54354.26
532.31	54375.33
532.48	54244.26
532.65	54611.72
532.82	54351.92
532.99	54349.58
533.16	54571.93
533.33	54784.92
533.50	54908.97
533.67	54864.50
533.84	54543.84
534.01	54983.86
534.18	55025.99
534.35	55049.40
534.52	54951.10
534.69	55082.17
534.86	55105.57
535.03	54976.84
535.20	55023.65
535.37	55171.11
535.54	55313.88
535.71	55054.08
535.88	55276.43
536.05	55339.63
536.22	55505.80
536.38	55618.15
536.55	55543.25
536.72	55386.44
536.89	55437.93
537.06	55559.64
537.23	55772.63
537.40	55271.75
537.57	55536.23
537.74	55824.12
537.91	55786.67
538.08	55859.23
538.25	55833.48
538.42	55735.18
538.59	56207.97
538.75	55852.20
538.92	55945.83
539.09	56217.33
539.26	55828.80
539.43	55966.89
539.60	56051.15
539.77	56294.56
539.94	56334.35
540.11	56032.42
540.28	56161.15
540.44	56463.08
540.61	56240.73
540.78	56341.38
540.95	56493.51
541.12	56444.36
541.29	56156.47
541.46	56266.48
541.62	56383.51
541.79	56507.55
541.96	56435.00
542.13	56643.30
542.30	56624.58
542.47	56804.80
542.63	56816.50
542.80	56601.18
542.97	56685.43
543.14	57186.31
543.31	57190.99
543.48	57120.77
543.64	57343.12
543.81	57118.43
543.98	57195.67
544.15	56987.36
544.32	57172.27
544.48	57359.51
544.65	57102.05
544.82	57382.91
544.99	57359.51
545.16	57298.65
545.32	57263.55
545.49	57563.14
545.66	57715.27
545.83	57546.75
546.00	57628.67
546.16	57820.59
546.33	57382.91
546.50	57513.98
546.67	57574.84
546.83	57441.43
547.00	57771.44
547.17	57818.25
547.34	57647.39
547.50	57939.96
547.67	57848.68
547.84	58014.86
548.00	57961.03
548.17	58162.31
548.34	57876.77
548.51	58248.91
548.67	58017.20
548.84	58042.95
549.01	57925.92
549.18	57848.68
549.34	58152.95
549.51	58188.06
549.68	58138.91
549.84	58375.30
550.01	58478.28
550.18	58197.42
550.34	58038.26
550.51	58424.45
550.68	58482.97
550.84	58138.91
551.01	58504.03
551.18	58281.68
551.34	58349.56
551.51	58520.41
551.68	58560.20
551.84	58464.24
552.01	58269.98
552.18	58445.52
552.34	58454.88
552.51	58429.13
552.68	58508.71
552.84	58513.39
553.01	58646.80
553.18	58869.15
553.34	58899.58
553.51	58628.08
553.67	58834.05
553.84	58915.96
554.01	58862.13
554.17	58932.35
554.34	59044.69
554.51	58976.82
554.67	59121.93
554.84	58871.49
555.00	58738.08
555.17	58939.37
555.33	58997.88
555.50	58899.58
555.67	59173.42
555.83	58885.54
556.00	58951.07
556.16	59379.39
556.33	59150.02
556.50	58995.54
556.66	59313.86
556.83	59121.93
556.99	59313.86
557.16	59568.97
557.32	59337.26
557.49	59798.35
557.65	59117.25
557.82	59175.76
557.98	59159.38
558.15	59325.56
558.32	59517.48
558.48	59311.52
558.65	59351.30
558.81	59543.23
558.98	59613.44
559.14	59482.37
559.31	59636.85
559.47	59608.76
559.64	59545.57
559.80	59557.27
559.97	59625.15
560.13	59749.20
560.30	59683.66
560.46	59906.01
560.63	59700.04
560.79	59835.80
560.96	59781.96
561.12	59629.83
561.29	59674.30
561.45	59695.36
561.61	59929.42
561.78	59611.10
561.94	59683.66
562.11	59810.05
562.27	59704.73
562.44	59828.77
562.60	59985.59
562.77	59866.22
562.93	59662.60
563.10	60037.08
563.26	59629.83
563.42	60009.00
563.59	59983.25
563.75	60016.02
563.92	59931.76
564.08	59877.93
564.24	60034.74
564.41	60041.76
564.57	59999.63
564.74	59938.78
564.90	60116.66
565.07	60121.34
565.23	60044.10
565.39	60083.89
565.56	60229.01
565.72	60006.65
565.88	60221.98
566.05	60037.08
566.21	60107.30
566.38	60048.78
566.54	60294.54
566.70	60296.88
566.87	60086.23
567.03	60093.25
567.19	60427.95
567.36	60210.28
567.52	60097.94
567.68	60374.12
567.85	60156.45
568.01	60149.43
568.17	60104.96
568.34	60615.19
568.50	60313.26
568.66	60137.72
568.83	60381.14
568.99	60561.36
569.15	60156.45
569.32	60191.56
569.48	60233.69
569.64	60432.63
569.81	60465.40
569.97	60353.05
570.13	60505.19
570.30	60226.66
570.46	60287.52
570.62	60547.32
570.78	60404.55
570.95	60324.97
571.11	60622.22
571.27	60341.35
571.43	60322.63
571.60	60310.92
571.76	60374.12
571.92	60509.87
572.09	60528.59
572.25	60568.38
572.41	60282.84
572.57	60416.25
572.74	60561.36
572.90	60388.16
573.06	60568.38
573.22	60444.33
573.38	60549.66
573.55	60509.87
573.71	60741.58
573.87	60720.52
574.03	60610.51
574.20	60870.31
574.36	60594.13
574.52	60669.03
574.68	60544.98
574.84	60867.97
575.01	60528.59
575.17	60559.02
575.33	60568.38
575.49	60397.52
575.65	60619.88
575.82	60605.83
575.98	60750.94
576.14	60870.31
576.30	60814.14
576.46	60610.51
576.62	60502.85
576.79	60556.68
576.95	60313.26
577.11	60725.20
577.27	60685.41
577.43	60767.33
577.59	60872.65
577.75	60779.03
577.92	60671.37
578.08	60676.05
578.24	60633.92
578.40	60891.38
578.56	60952.23
578.72	60757.97
578.88	61017.77
579.04	60804.78
579.21	60816.48
579.37	61013.08
579.53	60891.38
579.69	60552.00
579.85	60743.92
580.01	60743.92
580.17	60561.36
580.33	60912.44
580.49	60956.91
580.65	60839.89
580.82	60795.42
580.98	60629.24
581.14	60676.05
581.30	60961.59
581.46	60795.42
581.62	60863.29
581.78	60757.97
581.94	60851.59
582.10	60966.27
582.26	60680.73
582.42	60823.50
582.58	60720.52
582.74	60779.03
582.90	60818.82
583.06	60764.99
583.22	60573.06
583.38	60851.59
583.54	60931.17
583.70	60762.65
583.86	61130.11
584.02	60912.44
584.18	61050.53
584.34	60762.65
584.50	60856.27
584.66	60947.55
584.82	60795.42
584.98	60996.70
585.14	60849.25
585.30	60804.78
585.46	60781.37
585.62	60807.12
585.78	61137.13
585.94	60767.33
586.10	60903.08
586.26	60872.65
586.42	60963.93
586.58	61027.13
586.74	61003.72
586.90	61038.83
587.06	60907.76
587.22	60966.27
587.38	60872.65
587.54	60942.87
587.70	61153.52
587.86	60877.33
588.02	60800.10
588.18	60931.17
588.34	60882.02
