SpectraSuite Data File
++++++++++++++++++++++++++++++++++++
Date: Fri Oct 25 10:47:05 EDT 2013
User: price-jones
Dark Spectrum Present: No
Reference Spectrum Present: No
Number of Sampled Component Spectra: 1
Spectrometers: USB2+H05261
Integration Time (usec): 100000 (USB2+H05261)
Spectra Averaged: 1 (USB2+H05261)
Boxcar Smoothing: 0 (USB2+H05261)
Correct for Electrical Dark: No (USB2+H05261)
Strobe/Lamp Enabled: No (USB2+H05261)
Correct for Detector Non-linearity: No (USB2+H05261)
Correct for Stray Light: No (USB2+H05261)
Number of Pixels in Processed Spectrum: 2048
>>>>>Begin Processed Spectral Data<<<<<
365.73	100.64
365.92	100.64
366.12	100.64
366.32	21.06
366.52	11.70
366.72	124.05
366.91	67.88
367.11	42.13
367.31	30.43
367.51	81.92
367.70	88.94
367.90	21.06
368.10	63.19
368.30	81.92
368.49	65.54
368.69	84.26
368.89	42.13
369.09	32.77
369.28	30.43
369.48	25.75
369.68	100.64
369.87	72.56
370.07	112.35
370.27	152.13
370.47	212.99
370.66	402.57
370.86	475.13
371.06	484.49
371.25	514.92
371.45	500.87
371.65	437.68
371.84	449.38
372.04	449.38
372.24	479.81
372.44	496.19
372.63	433.00
372.83	482.15
373.03	449.38
373.22	463.43
373.42	500.87
373.62	458.74
373.81	496.19
374.01	566.41
374.21	538.32
374.40	528.96
374.60	608.54
374.79	592.16
374.99	552.37
375.19	573.43
375.38	594.50
375.58	650.67
375.78	538.32
375.97	559.39
376.17	578.11
376.37	615.56
376.56	631.94
376.76	568.75
376.95	601.52
377.15	655.35
377.35	624.92
377.54	559.39
377.74	571.09
377.93	564.07
378.13	631.94
378.33	571.09
378.52	641.31
378.72	629.60
378.91	725.57
379.11	592.16
379.31	603.86
379.50	629.60
379.70	524.28
379.89	624.92
380.09	648.33
380.28	620.24
380.48	615.56
380.68	645.99
380.87	667.05
381.07	645.99
381.26	690.46
381.46	713.86
381.65	681.10
381.85	615.56
382.04	653.01
382.24	746.63
382.43	667.05
382.63	723.23
382.83	690.46
383.02	660.03
383.22	755.99
383.41	664.71
383.61	772.38
383.80	744.29
384.00	685.78
384.19	692.80
384.39	760.67
384.58	805.14
384.78	763.01
384.97	751.31
385.17	709.18
385.36	725.57
385.56	730.25
385.75	802.80
385.95	809.83
386.14	737.27
386.34	791.10
386.53	816.85
386.72	770.04
386.92	851.96
387.11	835.57
387.31	823.87
387.50	858.98
387.70	849.61
387.89	894.08
388.09	884.72
388.28	828.55
388.48	873.02
388.67	840.25
388.86	835.57
389.06	917.49
389.25	931.53
389.45	999.41
389.64	840.25
389.84	945.58
390.03	947.92
390.22	922.17
390.42	861.32
390.61	861.32
390.81	910.47
391.00	938.55
391.19	1032.18
391.39	980.68
391.58	952.60
391.78	938.55
391.97	858.98
392.16	973.66
392.36	1060.26
392.55	945.58
392.75	990.05
392.94	966.64
393.13	1020.47
393.33	926.85
393.52	1011.11
393.71	1006.43
393.91	983.02
394.10	973.66
394.29	1116.44
394.49	1102.39
394.68	1083.67
394.88	1224.10
395.07	1163.25
395.26	1125.80
395.46	1097.71
395.65	1029.84
395.84	1191.33
396.04	1186.65
396.23	1137.50
396.42	1090.69
396.62	1153.88
396.81	1198.35
397.00	1235.80
397.19	1177.29
397.39	1200.69
397.58	1156.22
397.77	1228.78
397.97	1277.93
398.16	1249.85
398.35	1320.06
398.55	1371.55
398.74	1322.40
398.93	1390.28
399.12	1289.64
399.32	1226.44
399.51	1387.94
399.70	1399.64
399.90	1441.77
400.09	1444.11
400.28	1437.09
400.47	1441.77
400.67	1526.03
400.86	1432.41
401.05	1500.28
401.24	1509.65
401.44	1504.96
401.63	1570.50
401.82	1511.99
402.01	1469.86
402.21	1605.61
402.40	1652.42
402.59	1643.06
402.78	1465.18
402.97	1544.75
403.17	1563.48
403.36	1596.25
403.55	1694.55
403.74	1664.12
403.93	1713.27
404.13	1729.66
404.32	1614.97
404.51	1703.91
404.70	1809.23
404.89	1724.97
405.09	1757.74
405.28	1820.94
405.47	1811.57
405.66	1680.50
405.85	1706.25
406.05	1771.79
406.24	1792.85
406.43	1893.49
406.62	1788.17
406.81	1989.46
407.00	1834.98
407.20	1895.83
407.39	1844.34
407.58	1973.07
407.77	1987.11
407.96	1919.24
408.15	1994.14
408.34	1891.15
408.54	1942.64
408.73	1984.77
408.92	2106.48
409.11	2167.34
409.30	2031.58
409.49	1987.11
409.68	2141.59
409.87	2115.84
410.07	2108.82
410.26	2073.71
410.45	2115.84
410.64	2076.06
410.83	2118.18
411.02	2370.96
411.21	2244.57
411.40	2392.03
411.59	2319.47
411.78	2235.21
411.98	2303.09
412.17	2284.36
412.36	2338.20
412.55	2413.09
412.74	2448.20
412.93	2509.05
413.12	2375.64
413.31	2569.91
413.50	2490.33
413.69	2654.17
413.88	2523.10
414.07	2483.31
414.26	2637.78
414.45	2818.00
414.64	2644.81
414.83	2686.94
415.02	2691.62
415.22	2864.82
415.41	2813.32
415.60	2780.56
415.79	2780.56
415.98	2899.92
416.17	2925.67
416.36	2911.63
416.55	2843.75
416.74	2958.44
416.93	2988.86
417.12	2960.78
417.31	2981.84
417.50	3026.31
417.69	3030.99
417.88	3059.08
418.07	3028.65
418.26	3234.62
418.45	3178.45
418.64	3185.47
418.83	3187.81
419.02	3155.04
419.21	3173.77
419.39	3309.52
419.58	3112.91
419.77	3105.89
419.96	3218.24
420.15	3213.56
420.34	3318.88
420.53	3251.00
420.72	3403.14
420.91	3410.16
421.10	3478.04
421.29	3524.85
421.48	3382.07
421.67	3482.72
421.86	3412.50
422.05	3435.91
422.24	3435.91
422.43	3445.27
422.61	3442.93
422.80	3583.36
422.99	3576.34
423.18	3562.30
423.37	3536.55
423.56	3604.42
423.75	3574.00
423.94	3475.70
424.13	3307.18
424.32	3456.97
424.50	3637.19
424.69	3641.87
424.88	3606.77
425.07	3449.95
425.26	3562.30
425.45	3660.60
425.64	3583.36
425.83	3489.74
426.01	3595.06
426.20	3644.21
426.39	3566.98
426.58	3480.38
426.77	3494.42
426.96	3581.02
427.15	3602.08
427.33	3754.22
427.52	3688.68
427.71	3662.94
427.90	3744.86
428.09	3901.67
428.28	3812.73
428.46	3857.20
428.65	3913.38
428.84	3964.87
429.03	3936.78
429.22	3784.65
429.40	3899.33
429.59	3955.51
429.78	3658.26
429.97	3679.32
430.16	3843.16
430.34	3847.84
430.53	3819.75
430.72	3957.85
430.91	3906.35
431.10	3932.10
431.28	4058.49
431.47	4159.13
431.66	4156.79
431.85	4177.86
432.03	4241.05
432.22	4313.61
432.41	4236.37
432.60	4262.12
432.79	4210.62
432.97	4292.54
433.16	4383.82
433.35	4117.00
433.54	4280.84
433.72	4327.65
433.91	4219.99
434.10	4437.66
434.28	4255.09
434.47	4411.91
434.66	4423.61
434.85	4388.50
435.03	4482.13
435.22	4505.53
435.41	4664.69
435.59	4669.37
435.78	4610.86
435.97	4578.09
436.16	4545.32
436.34	4552.34
436.53	4784.06
436.72	4858.95
436.90	4510.21
437.09	4767.67
437.28	4578.09
437.46	4652.98
437.65	4681.07
437.84	4702.14
438.02	4880.02
438.21	4613.20
438.40	4814.48
438.58	4887.04
438.77	4830.87
438.96	4889.38
439.14	4990.02
439.33	4898.74
439.52	4945.55
439.70	4966.62
439.89	5097.69
440.08	5256.84
440.26	5060.24
440.45	5195.99
440.63	5437.06
440.82	5453.45
441.01	5172.58
441.19	5383.23
441.38	5530.69
441.57	5418.34
441.75	5579.84
441.94	5582.18
442.12	5696.86
442.31	5668.78
442.50	5806.87
442.68	5774.10
442.87	5699.20
443.05	5605.58
443.24	5762.40
443.43	5813.89
443.61	5849.00
443.80	5827.93
443.98	5820.91
444.17	5664.10
444.35	5870.06
444.54	6108.80
444.73	5982.41
444.91	5970.71
445.10	5884.11
445.28	5844.32
445.47	5856.02
445.65	5975.39
445.84	5900.49
446.02	6024.54
446.21	5961.34
446.39	5907.51
446.58	6071.35
446.77	5963.68
446.95	5713.25
447.14	5947.30
447.32	6127.52
447.51	6099.44
447.69	5947.30
447.88	6036.24
448.06	6029.22
448.25	6160.29
448.43	6174.33
448.62	6029.22
448.80	6071.35
448.99	6015.18
449.17	6225.82
449.36	6101.78
449.54	6270.30
449.73	6317.11
449.91	6279.66
450.10	6424.77
450.28	6457.54
450.46	6366.26
450.65	6532.44
450.83	6483.28
451.02	6408.39
451.20	6497.33
451.39	6420.09
451.57	6523.07
451.76	6452.86
451.94	6377.96
452.13	6516.05
452.31	6628.40
452.49	6396.68
452.68	6574.56
452.86	6478.60
453.05	6752.45
453.23	6480.94
453.42	6544.14
453.60	6677.55
453.78	6731.38
453.97	6604.99
454.15	6768.83
454.34	6684.57
454.52	6836.70
454.70	6825.00
454.89	6862.45
455.07	6733.72
455.26	6853.09
455.44	6972.46
455.62	6888.20
455.81	7040.33
455.99	7087.14
456.17	6970.12
456.36	7054.37
456.54	7159.70
456.73	7279.07
456.91	7573.97
457.09	7232.26
457.28	7606.74
457.46	7293.11
457.64	7548.23
457.83	7494.40
458.01	7314.17
458.19	7550.57
458.38	7360.98
458.56	7421.84
458.74	7485.03
458.93	7449.93
459.11	7456.95
459.29	7613.76
459.48	7691.00
459.66	7456.95
459.84	7609.08
460.03	7777.60
460.21	7742.49
460.39	7770.58
460.57	7833.77
460.76	7822.07
460.94	7747.17
461.12	7763.56
461.31	7950.80
461.49	7754.19
461.67	7873.56
461.85	7873.56
462.04	7887.61
462.22	8290.18
462.40	8009.31
462.59	8039.74
462.77	7829.09
462.95	8196.56
463.13	8074.85
463.32	8063.15
463.50	8266.77
463.68	8196.56
463.86	8234.00
464.05	8028.04
464.23	7985.91
464.41	8145.06
464.59	8011.65
464.78	8322.94
464.96	8404.86
465.14	8234.00
465.32	8390.82
465.50	8470.40
465.69	8320.60
465.87	8414.23
466.05	8294.86
466.23	8451.67
466.41	8280.82
466.60	8582.74
466.78	8503.17
466.96	8163.79
467.14	8336.99
467.32	8493.80
467.51	8812.12
467.69	8393.16
467.87	8564.02
468.05	8561.68
468.23	8514.87
468.41	8713.81
468.60	8709.13
468.78	8826.16
468.96	8688.07
469.14	9013.40
469.32	8943.19
469.50	8603.81
469.69	8835.52
469.87	8901.06
470.05	8968.93
470.23	8952.55
470.41	8809.78
470.59	9167.88
470.77	9006.38
470.95	8868.29
471.14	9303.63
471.32	9053.19
471.50	9486.19
471.68	9364.48
471.86	9338.74
472.04	9357.46
472.22	9614.92
472.40	9327.03
472.58	9397.25
472.77	9479.17
472.95	9811.53
473.13	9879.40
473.31	9525.98
473.49	9837.27
473.67	9549.39
473.85	9710.88
474.03	9968.34
474.21	9991.75
474.39	9966.00
474.57	10289.00
474.75	10040.90
474.93	10164.95
475.12	10057.28
475.30	10462.19
475.48	10389.64
475.66	10443.47
475.84	10513.69
476.02	10284.31
476.20	10478.58
476.38	10649.44
476.56	10967.75
476.74	10920.94
476.92	10738.38
477.10	10771.15
477.28	10888.17
477.46	11124.57
477.64	11119.89
477.82	11169.04
478.00	11623.10
478.18	11452.24
478.36	11543.52
478.54	11513.10
478.72	11527.14
478.90	11852.47
479.08	11999.93
479.26	12152.06
479.44	12013.97
479.62	12329.94
479.80	12231.64
479.98	12287.81
480.16	12514.84
480.34	12442.29
480.52	12538.25
480.70	12603.78
480.88	12622.51
481.06	12676.34
481.24	12896.35
481.41	12954.87
481.59	13123.38
481.77	13303.60
481.95	13116.36
482.13	13188.92
482.31	13380.84
482.49	13460.42
482.67	13654.69
482.85	13577.45
483.03	13996.40
483.21	14197.69
483.39	14052.58
483.57	14218.75
483.74	14260.88
483.92	14281.95
484.10	14420.04
484.28	14588.56
484.46	14808.57
484.64	14904.53
484.82	14707.93
485.00	14827.29
485.18	14956.02
485.35	15014.54
485.53	14846.02
485.71	15304.76
485.89	15463.92
486.07	15358.60
486.25	15199.44
486.43	15838.41
486.61	15922.66
486.78	16137.99
486.96	16086.50
487.14	16491.41
487.32	16568.65
487.50	16313.53
487.68	16688.02
487.85	16842.50
488.03	17034.42
488.21	17114.00
488.39	17109.32
488.57	17186.55
488.75	17474.44
488.92	17413.59
489.10	17816.16
489.28	17720.20
489.46	17947.23
489.64	17980.00
489.81	18441.08
489.99	18401.29
490.17	18455.12
490.35	18913.87
490.53	18600.24
490.70	18824.93
490.88	18806.20
491.06	18995.79
491.24	19213.46
491.41	19016.85
491.59	19096.43
491.77	19171.33
491.95	19651.14
492.13	19854.76
492.30	20058.39
492.48	19819.66
492.66	20084.14
492.84	19955.41
493.01	20444.58
493.19	20222.23
493.37	20379.04
493.54	20449.26
493.72	20830.77
493.90	21095.25
494.08	21104.61
494.25	21472.07
494.43	21268.45
494.61	21460.37
494.79	21521.23
494.96	21497.82
495.14	21546.97
495.32	21823.16
495.49	21949.54
495.67	22171.89
495.85	22047.85
496.02	22471.48
496.20	22412.97
496.38	22225.73
496.55	22504.25
496.73	23082.36
496.91	22874.06
497.09	23283.65
497.26	23672.18
497.44	23161.94
497.62	23197.05
497.79	23557.49
497.97	23637.07
498.14	23608.98
498.32	23697.92
498.50	23438.12
498.67	23700.26
498.85	24425.83
499.03	24306.46
499.20	24154.33
499.38	24238.59
499.56	24655.20
499.73	24582.65
499.91	24767.55
500.08	24641.16
500.26	24622.44
500.44	24891.60
500.61	24840.11
500.79	24842.45
500.97	25392.47
501.14	25223.95
501.32	25263.74
501.49	25352.68
501.67	25465.03
501.84	25804.41
502.02	25689.72
502.20	25661.63
502.37	25942.50
502.55	26122.72
502.72	26045.48
502.90	26022.08
503.07	25919.09
503.25	26141.44
503.43	26106.34
503.60	26544.02
503.78	26520.61
503.95	26487.84
504.13	26501.89
504.30	26859.99
504.48	26375.50
504.65	26941.91
504.83	27164.26
505.01	27395.97
505.18	27058.93
505.36	27325.75
505.53	27782.16
505.71	27330.44
505.88	27730.67
506.06	27447.46
506.23	27716.62
506.41	27697.90
506.58	27660.45
506.76	27826.63
506.93	27981.10
507.11	27962.38
507.28	28198.77
507.46	28189.41
507.63	27702.58
507.81	28470.28
507.98	28009.19
508.16	28643.48
508.33	28514.75
508.50	28308.78
508.68	28802.63
508.85	29158.39
509.03	29074.13
509.20	29291.80
509.38	29160.73
509.55	29184.14
509.73	29228.61
509.90	29294.14
510.08	29252.02
510.25	29383.09
510.42	29610.12
510.60	29654.59
510.77	29631.18
510.95	30022.05
511.12	30050.14
511.30	30061.84
511.47	30724.21
511.64	30080.56
511.82	30221.00
511.99	29998.65
512.17	30366.11
512.34	30253.76
512.51	30253.76
512.69	30831.88
512.86	30796.77
513.04	30981.67
513.21	30724.21
513.38	30878.69
513.56	30834.22
513.73	30721.87
513.90	31035.50
514.08	30976.99
514.25	31365.52
514.43	31225.09
514.60	31094.02
514.77	31267.22
514.95	31442.76
515.12	31498.93
515.29	31524.68
515.47	32063.00
515.64	31725.96
515.81	31578.51
515.99	31807.88
516.16	31978.74
516.33	31960.02
516.51	32095.77
516.68	31922.57
516.85	31964.70
517.03	31789.16
517.20	32339.18
517.37	32371.95
517.54	32687.92
517.72	32350.88
517.89	32636.43
518.06	32112.15
518.24	32287.69
518.41	31985.76
518.58	32407.06
518.75	32804.95
518.93	32844.74
519.10	32844.74
519.27	33013.26
519.45	32931.34
519.62	33319.87
519.79	33322.21
519.96	33439.23
520.14	33912.02
520.31	32985.17
520.48	33303.48
520.65	33684.99
520.83	33792.65
521.00	33694.35
521.17	34068.84
521.34	33617.11
521.52	33944.79
521.69	34110.97
521.86	34258.42
522.03	34363.75
522.20	34342.68
522.38	34527.58
522.55	34417.58
522.72	34651.63
522.89	34359.06
523.07	34991.01
523.24	34272.46
523.41	34810.79
523.58	34838.87
523.75	34909.09
523.92	34649.29
524.10	34976.97
524.27	35143.14
524.44	35002.71
524.61	35454.44
524.78	35143.14
524.96	35433.37
525.13	35306.98
525.30	35859.35
525.47	35700.19
525.64	35941.27
525.81	35669.76
525.98	35768.07
526.16	35676.79
526.33	35814.88
526.50	36301.71
526.67	35583.16
526.84	35578.48
527.01	35491.88
527.18	35819.56
527.36	36182.34
527.53	36006.80
527.70	36343.84
527.87	36215.11
528.04	36367.24
528.21	36573.21
528.38	36133.19
528.55	36678.54
528.72	36568.53
528.89	36690.24
529.07	36720.66
529.24	36428.10
529.41	36795.56
529.58	36739.39
529.75	36774.50
529.92	36978.12
530.09	36858.76
530.26	37160.69
530.43	37006.21
530.60	37034.30
530.77	36861.10
530.94	37078.77
531.11	37043.66
531.28	37258.99
531.46	37331.54
531.63	37893.27
531.80	37219.20
531.97	37439.21
532.14	37357.29
532.31	37415.80
532.48	37537.51
532.65	37645.18
532.82	37832.42
532.99	38115.62
533.16	37284.73
533.33	38146.05
533.50	38141.37
533.67	38328.61
533.84	37844.12
534.01	38078.18
534.18	38029.02
534.35	38476.07
534.52	38337.98
534.69	37989.24
534.86	38455.00
535.03	38160.09
535.20	38770.97
535.37	39012.05
535.54	38841.19
535.71	38756.93
535.88	38602.46
536.05	37968.17
536.22	38693.74
536.38	39007.37
536.55	38651.61
536.72	38859.91
536.89	38536.92
537.06	38944.17
537.23	39002.69
537.40	38862.26
537.57	38866.94
537.74	39370.15
537.91	39442.71
538.08	39571.44
538.25	39166.52
538.42	39037.80
538.59	39309.30
538.75	39239.08
538.92	39381.85
539.09	39618.25
539.26	39388.88
539.43	39438.03
539.60	39360.79
539.77	39255.46
539.94	39555.05
540.11	39470.79
540.28	39866.34
540.44	39639.31
540.61	39632.29
540.78	39398.24
540.95	39842.94
541.12	39606.55
541.29	39512.92
541.46	39990.39
541.62	39660.38
541.79	40037.20
541.96	39864.00
542.13	39943.58
542.30	40177.64
542.47	39885.07
542.63	40388.28
542.80	40374.24
542.97	40608.29
543.14	40694.89
543.31	40495.95
543.48	40282.96
543.64	40928.95
543.81	41305.77
543.98	40844.69
544.15	40973.42
544.32	40982.78
544.48	40907.88
544.65	40718.30
544.82	41177.04
544.99	40514.67
545.16	41350.24
545.32	41031.93
545.49	41308.11
545.66	40975.76
545.83	41383.01
546.00	41502.38
546.16	41251.94
546.33	41291.73
546.50	40720.64
546.67	41256.62
546.83	40847.03
547.00	41588.98
547.17	41099.81
547.34	41565.57
547.50	41598.34
547.67	41865.16
547.84	41584.30
548.00	41565.57
548.17	41652.17
548.34	41794.95
548.51	41787.92
548.67	41918.99
548.84	42127.30
549.01	41820.69
549.18	41886.23
549.34	42312.20
549.51	41890.91
549.68	42202.20
549.84	41827.71
550.01	42188.16
550.18	42115.60
550.34	41872.18
550.51	41862.82
550.68	41977.51
550.84	42050.06
551.01	42658.60
551.18	42564.98
551.34	42183.48
551.51	42230.29
551.68	42607.11
551.84	42293.48
552.01	42387.10
552.18	42330.93
552.34	42246.67
552.51	42485.40
552.68	42195.18
552.84	42689.03
553.01	42721.80
553.18	42763.93
553.34	42553.28
553.51	42417.53
553.67	42623.50
553.84	42644.56
554.01	42815.42
554.17	42981.60
554.34	43367.79
554.51	42759.25
554.67	43456.73
554.84	42920.74
555.00	43337.36
555.17	42777.97
555.33	43239.06
555.50	42855.21
555.67	42941.81
555.83	43239.06
556.00	43051.81
556.16	43365.45
556.33	43159.48
556.50	42869.25
556.66	43625.25
556.83	42792.01
556.99	43536.30
557.16	43274.16
557.32	43189.91
557.49	43746.95
557.65	43379.49
557.82	43320.98
557.98	43412.26
558.15	43232.04
558.32	43491.83
558.48	43370.13
558.65	43555.03
558.81	43187.56
558.98	43847.60
559.14	43524.60
559.31	43693.12
559.47	43412.26
559.64	43845.26
559.80	43814.83
559.97	43955.26
560.13	43718.87
560.30	43838.23
560.46	43849.94
560.63	43882.70
560.79	43941.22
560.96	44088.67
561.12	43824.19
561.29	43573.75
561.45	43416.94
561.61	43821.85
561.78	43351.40
561.94	43639.29
562.11	43569.07
562.27	44067.61
562.44	43732.91
562.60	44067.61
562.77	44437.41
562.93	43646.31
563.10	44102.71
563.26	43400.55
563.42	44119.10
563.59	43573.75
563.75	43882.70
563.92	44442.09
564.08	44596.57
564.24	43789.08
564.41	44102.71
564.57	44154.21
564.74	43976.33
564.90	44271.23
565.07	44353.15
565.23	44301.66
565.39	43873.34
565.56	44287.62
565.72	43866.32
565.88	43880.36
566.05	44261.87
566.21	43901.43
566.38	44034.84
566.54	43648.65
566.70	44320.38
566.87	44680.83
567.03	44467.84
567.19	44769.77
567.36	44189.31
567.52	44233.78
567.68	44617.63
567.85	44194.00
568.01	44013.77
568.17	44215.06
568.34	44500.61
568.50	44432.73
568.66	44238.47
568.83	44161.23
568.99	44275.91
569.15	44435.07
569.32	44765.09
569.48	44060.58
569.64	44598.91
569.81	44388.26
569.97	44280.60
570.13	44573.16
570.30	44149.53
570.46	44224.42
570.62	43901.43
570.78	44245.49
570.95	44268.89
571.11	44713.59
571.27	44563.80
571.43	44339.11
571.60	44774.45
571.76	44308.68
571.92	44418.69
572.09	44456.14
572.25	44734.66
572.41	44327.41
572.57	44507.63
572.74	45076.38
572.90	44781.47
573.06	44444.43
573.22	44809.56
573.38	44563.80
573.55	44266.55
573.71	44713.59
573.87	44261.87
574.03	44341.45
574.20	44275.91
574.36	44793.17
574.52	44912.54
574.68	44575.50
574.84	44662.10
575.01	44769.77
575.17	44854.03
575.33	44788.49
575.49	44830.62
575.65	45008.50
575.82	44713.59
575.98	44671.46
576.14	44900.84
576.30	44568.48
576.46	44729.98
576.62	44060.58
576.79	44444.43
576.95	44149.53
577.11	44865.73
577.27	44516.99
577.43	44952.33
577.59	44673.81
577.75	44383.58
577.92	44687.85
578.08	44662.10
578.24	44402.30
578.40	44758.06
578.56	44863.39
578.72	44626.99
578.88	44800.19
579.04	44617.63
579.21	45074.04
579.37	44889.13
579.53	44390.60
579.69	44559.12
579.85	44788.49
580.01	45092.76
580.17	44949.99
580.33	45174.68
580.49	45088.08
580.65	44563.80
580.82	44917.22
580.98	44701.89
581.14	44240.81
581.30	44942.97
581.46	45034.25
581.62	45104.46
581.78	44816.58
581.94	45265.96
582.10	45146.59
582.26	44690.19
582.42	45104.46
582.58	45048.29
582.74	44484.22
582.90	44711.25
583.06	44697.21
583.22	45298.73
583.38	45254.26
583.54	44662.10
583.70	45031.91
583.86	44430.39
584.02	44577.84
584.18	45003.82
584.34	44949.99
584.50	44905.52
584.66	45092.76
584.82	44687.85
584.98	44978.07
585.14	45155.96
585.30	45085.74
585.46	44978.07
585.62	44856.37
585.78	44762.75
585.94	44524.01
586.10	44891.48
586.26	44650.40
586.42	44872.75
586.58	45291.71
586.74	45177.02
586.90	44973.39
587.06	44800.19
587.22	45132.55
587.38	44807.22
587.54	45326.81
587.70	45036.59
587.86	45254.26
588.02	44985.10
588.18	45422.78
588.34	44744.02
588.49	44697.21
588.65	44411.67
588.81	44957.01
588.97	44912.54
589.13	44725.30
589.29	45001.48
589.45	44849.35
589.61	45167.66
589.77	45392.35
589.93	44996.80
590.08	45130.21
590.24	45387.67
