SpectraSuite Data File
++++++++++++++++++++++++++++++++++++
Date: Fri Oct 25 11:34:36 EDT 2013
User: price-jones
Dark Spectrum Present: No
Reference Spectrum Present: No
Number of Sampled Component Spectra: 1
Spectrometers: USB2+H05261
Integration Time (usec): 100000 (USB2+H05261)
Spectra Averaged: 1 (USB2+H05261)
Boxcar Smoothing: 0 (USB2+H05261)
Correct for Electrical Dark: No (USB2+H05261)
Strobe/Lamp Enabled: No (USB2+H05261)
Correct for Detector Non-linearity: No (USB2+H05261)
Correct for Stray Light: No (USB2+H05261)
Number of Pixels in Processed Spectrum: 2048
>>>>>Begin Processed Spectral Data<<<<<
365.73	315.97
365.92	315.97
366.12	315.97
366.32	212.99
366.52	194.26
366.72	280.86
366.91	241.08
367.11	191.92
367.31	173.20
367.51	238.73
367.70	156.82
367.90	93.62
368.10	131.07
368.30	124.05
368.49	119.37
368.69	182.56
368.89	196.60
369.09	189.58
369.28	220.01
369.48	203.63
369.68	203.63
369.87	198.95
370.07	170.86
370.27	285.55
370.47	315.97
370.66	447.04
370.86	491.51
371.06	456.40
371.25	575.77
371.45	493.85
371.65	510.24
371.84	557.05
372.04	540.66
372.24	573.43
372.44	540.66
372.63	608.54
372.83	636.63
373.03	624.92
373.22	552.37
373.42	514.92
373.62	634.29
373.81	596.84
374.01	615.56
374.21	650.67
374.40	655.35
374.60	631.94
374.79	638.97
374.99	653.01
375.19	716.20
375.38	692.80
375.58	599.18
375.78	648.33
375.97	638.97
376.17	723.23
376.37	669.39
376.56	620.24
376.76	690.46
376.95	629.60
377.15	744.29
377.35	739.61
377.54	685.78
377.74	634.29
377.93	669.39
378.13	648.33
378.33	667.05
378.52	669.39
378.72	667.05
378.91	784.08
379.11	746.63
379.31	779.40
379.50	653.01
379.70	765.36
379.89	723.23
380.09	777.06
380.28	753.65
380.48	723.23
380.68	636.63
380.87	725.57
381.07	734.93
381.26	697.48
381.46	791.10
381.65	720.88
381.85	758.33
382.04	755.99
382.24	730.25
382.43	734.93
382.63	713.86
382.83	734.93
383.02	786.42
383.22	781.74
383.41	880.04
383.61	795.78
383.80	753.65
384.00	753.65
384.19	816.85
384.39	877.70
384.58	828.55
384.78	760.67
384.97	781.74
385.17	851.96
385.36	842.59
385.56	873.02
385.75	751.31
385.95	945.58
386.14	823.87
386.34	863.66
386.53	833.23
386.72	781.74
386.92	844.93
387.11	905.79
387.31	870.68
387.50	814.51
387.70	861.32
387.89	851.96
388.09	840.25
388.28	858.98
388.48	809.83
388.67	894.08
388.86	809.83
389.06	835.57
389.25	858.98
389.45	917.49
389.64	1001.75
389.84	936.21
390.03	936.21
390.22	917.49
390.42	1004.09
390.61	894.08
390.81	847.27
391.00	891.74
391.19	1020.47
391.39	987.71
391.58	959.62
391.78	997.07
391.97	968.98
392.16	1006.43
392.36	1025.15
392.55	1013.45
392.75	971.32
392.94	1123.46
393.13	1039.20
393.33	999.41
393.52	1069.62
393.71	1043.88
393.91	1055.58
394.10	1032.18
394.29	1006.43
394.49	1039.20
394.68	1081.33
394.88	1149.20
395.07	1107.07
395.26	976.00
395.46	1097.71
395.65	1196.01
395.84	1135.16
396.04	1172.61
396.23	1132.82
396.42	1095.37
396.62	1135.16
396.81	1170.27
397.00	1212.40
397.19	1130.48
397.39	1214.74
397.58	1214.74
397.77	1184.31
397.97	1231.12
398.16	1294.32
398.35	1219.42
398.55	1205.38
398.74	1289.64
398.93	1343.47
399.12	1217.08
399.32	1268.57
399.51	1219.42
399.70	1313.04
399.90	1249.85
400.09	1228.78
400.28	1282.61
400.47	1301.34
400.67	1324.74
400.86	1411.34
401.05	1369.21
401.24	1413.68
401.44	1336.45
401.63	1357.51
401.82	1327.08
402.01	1364.53
402.21	1355.17
402.40	1329.42
402.59	1472.20
402.78	1455.81
402.97	1416.02
403.17	1474.54
403.36	1570.50
403.55	1469.86
403.74	1493.26
403.93	1584.54
404.13	1540.07
404.32	1486.24
404.51	1509.65
404.70	1605.61
404.89	1577.52
405.09	1689.87
405.28	1586.88
405.47	1584.54
405.66	1584.54
405.85	1664.12
406.05	1692.21
406.24	1638.38
406.43	1713.27
406.62	1689.87
406.81	1701.57
407.00	1687.53
407.20	1666.46
407.39	1692.21
407.58	1746.04
407.77	1774.13
407.96	1799.87
408.15	1802.21
408.34	1776.47
408.54	1870.09
408.73	1799.87
408.92	1781.15
409.11	1825.62
409.30	1860.73
409.49	1961.37
409.68	1898.17
409.87	1802.21
410.07	1973.07
410.26	2012.86
410.45	2024.56
410.64	1937.96
410.83	1977.75
411.02	2008.18
411.21	2069.03
411.40	2120.53
411.59	2134.57
411.78	2017.54
411.98	2057.33
412.17	2136.91
412.36	2176.70
412.55	2092.44
412.74	2209.47
412.93	2260.96
413.12	2195.42
413.31	2272.66
413.50	2293.72
413.69	2331.17
413.88	2284.36
414.07	2289.04
414.26	2457.56
414.45	2352.24
414.64	2422.45
414.83	2413.09
415.02	2502.03
415.22	2450.54
415.41	2553.52
415.60	2590.97
415.79	2574.59
415.98	2581.61
416.17	2656.51
416.36	2621.40
416.55	2560.55
416.74	2675.23
416.93	2583.95
417.12	2719.70
417.31	2759.49
417.50	2869.50
417.69	2850.77
417.88	2726.72
418.07	2785.24
418.26	2794.60
418.45	2768.85
418.64	2953.76
418.83	2942.05
419.02	2888.22
419.21	2984.18
419.39	2956.10
419.58	2937.37
419.77	2869.50
419.96	3007.59
420.15	3066.10
420.34	2916.31
420.53	3049.72
420.72	2993.55
420.91	3030.99
421.10	3033.33
421.29	3117.59
421.48	3030.99
421.67	3084.83
421.86	3208.87
422.05	3138.66
422.24	3070.78
422.43	3192.49
422.61	3162.06
422.80	3225.26
422.99	3251.00
423.18	3400.80
423.37	3433.57
423.56	3152.70
423.75	3281.43
423.94	3199.51
424.13	3030.99
424.32	3185.47
424.50	3220.58
424.69	3316.54
424.88	3379.73
425.07	3365.69
425.26	3407.82
425.45	3183.13
425.64	3077.80
425.83	3152.70
426.01	3358.67
426.20	3199.51
426.39	3265.05
426.58	3365.69
426.77	3288.45
426.96	3325.90
427.15	3396.12
427.33	3393.78
427.52	3417.18
427.71	3609.11
427.90	3510.80
428.09	3449.95
428.28	3524.85
428.46	3517.83
428.65	3431.23
428.84	3672.30
429.03	3679.32
429.22	3564.64
429.40	3639.53
429.59	3660.60
429.78	3400.80
429.97	3588.04
430.16	3552.93
430.34	3737.84
430.53	3604.42
430.72	3676.98
430.91	3674.64
431.10	3606.77
431.28	3798.69
431.47	3801.03
431.66	3815.07
431.85	3967.21
432.03	3894.65
432.22	3875.93
432.41	3946.14
432.60	3906.35
432.79	3852.52
432.97	3786.99
433.16	3981.25
433.35	3789.33
433.54	4009.34
433.72	4070.19
433.91	3971.89
434.10	3997.64
434.28	3840.82
434.47	4053.81
434.66	4161.47
434.85	3999.98
435.03	4126.36
435.22	4112.32
435.41	4189.56
435.59	4182.54
435.78	4145.09
435.97	4442.34
436.16	4121.68
436.34	4182.54
436.53	4219.99
436.72	4306.59
436.90	4175.52
437.09	4325.31
437.28	4306.59
437.46	4301.90
437.65	4414.25
437.84	4271.48
438.02	4437.66
438.21	4585.11
438.40	4430.63
438.58	4423.61
438.77	4599.15
438.96	4629.58
439.14	4648.30
439.33	4617.88
439.52	4594.47
439.70	4676.39
439.89	4762.99
440.08	4753.63
440.26	4865.97
440.45	4685.75
440.63	4793.42
440.82	4987.68
441.01	4905.76
441.19	5006.41
441.38	4933.85
441.57	4938.53
441.75	4973.64
441.94	5195.99
442.12	5071.94
442.31	5074.28
442.50	5149.18
442.68	5144.50
442.87	5320.04
443.05	5268.55
443.24	5334.08
443.43	5188.97
443.61	5296.63
443.80	5378.55
443.98	5093.01
444.17	4968.96
444.35	5231.10
444.54	5151.52
444.73	5259.18
444.91	5397.28
445.10	5385.57
445.28	5441.75
445.47	5418.34
445.65	5348.12
445.84	5413.66
446.02	5366.85
446.21	5362.17
446.39	5266.21
446.58	5451.11
446.77	5453.45
446.95	5355.15
447.14	5383.23
447.32	5561.11
447.51	5238.12
447.69	5280.25
447.88	5518.98
448.06	5432.38
448.25	5481.53
448.43	5542.39
448.62	5392.59
448.80	5549.41
448.99	5610.26
449.17	5614.95
449.36	5605.58
449.54	5685.16
449.73	5542.39
449.91	5856.02
450.10	5767.08
450.28	5762.40
450.46	5727.29
450.65	5825.59
450.83	5914.53
451.02	5858.36
451.20	5916.87
451.39	5966.03
451.57	5987.09
451.76	5916.87
451.94	5820.91
452.13	6038.58
452.31	6001.13
452.49	6022.20
452.68	5956.66
452.86	5961.34
453.05	6054.97
453.23	6155.61
453.42	5792.83
453.60	6125.18
453.78	6003.47
453.97	6033.90
454.15	6071.35
454.34	5956.66
454.52	6303.06
454.70	6160.29
454.89	6289.02
455.07	6298.38
455.26	6202.42
455.44	6361.58
455.62	6457.54
455.81	6298.38
455.99	6368.60
456.17	6321.79
456.36	6289.02
456.54	6548.82
456.73	6595.63
456.91	6768.83
457.09	6595.63
457.28	6696.27
457.46	6565.20
457.64	6658.82
457.83	6771.17
458.01	6679.89
458.19	6848.41
458.38	6750.10
458.56	6860.11
458.74	6825.00
458.93	6745.42
459.11	6878.83
459.29	6939.69
459.48	7005.22
459.66	6771.17
459.84	6822.66
460.03	6899.90
460.21	7030.97
460.39	7061.40
460.57	6942.03
460.76	7136.29
460.94	7155.02
461.12	6986.50
461.31	7164.38
461.49	7082.46
461.67	7206.51
461.85	7337.58
462.04	7208.85
462.22	7510.78
462.40	7445.24
462.59	7293.11
462.77	7370.35
462.95	7335.24
463.13	7400.77
463.32	7391.41
463.50	7571.63
463.68	7548.23
463.86	7541.21
464.05	7431.20
464.23	7421.84
464.41	7543.55
464.59	7597.38
464.78	7576.31
464.96	7492.05
465.14	7515.46
465.32	7487.37
465.50	7595.04
465.69	7812.71
465.87	7791.64
466.05	7793.98
466.23	7761.22
466.41	7676.96
466.60	7873.56
466.78	7733.13
466.96	7707.38
467.14	7854.84
467.32	7927.39
467.51	8072.51
467.69	7700.36
467.87	7971.86
468.05	7957.82
468.23	7892.29
468.41	7948.46
468.60	8194.22
468.78	8023.36
468.96	8009.31
469.14	8198.90
469.32	8156.77
469.50	7939.10
469.69	8280.82
469.87	8336.99
470.05	8198.90
470.23	8360.39
470.41	8208.26
470.59	8491.46
470.77	8278.47
470.95	8500.83
471.14	8461.04
471.32	8631.90
471.50	8795.73
471.68	8641.26
471.86	8517.21
472.04	8695.09
472.22	8964.25
472.40	8528.91
472.58	8772.33
472.77	8945.53
472.95	8847.22
473.13	9324.69
473.31	8889.35
473.49	8957.23
473.67	8894.04
473.85	9071.92
474.03	9097.66
474.21	9179.58
474.39	9057.87
474.57	9188.94
474.75	9439.38
474.93	9357.46
475.12	9556.41
475.30	9591.52
475.48	9521.30
475.66	9699.18
475.84	9383.21
476.02	9694.50
476.20	9811.53
476.38	9858.34
476.56	10012.81
476.74	10078.35
476.92	10008.13
477.10	9867.70
477.28	10361.55
477.46	10239.84
477.64	10328.78
477.82	10272.61
478.00	10635.39
478.18	10483.26
478.36	10677.52
478.54	11014.56
478.72	10668.16
478.90	11016.90
479.08	10883.49
479.26	11159.67
479.44	10909.24
479.62	11019.24
479.80	11222.87
479.98	11339.90
480.16	11550.54
480.34	11442.88
480.52	11580.97
480.70	11658.21
480.88	11557.57
481.06	11693.32
481.24	12009.29
481.41	11941.41
481.59	12231.64
481.77	12327.60
481.95	12194.19
482.13	12383.77
482.31	12383.77
482.49	12425.90
482.67	12669.32
482.85	12725.49
483.03	12650.60
483.21	13041.46
483.39	13170.19
483.57	13025.08
483.74	13238.07
483.92	13242.75
484.10	13174.88
484.28	13308.29
484.46	13673.41
484.64	13804.48
484.82	13696.82
485.00	13970.66
485.18	14010.45
485.35	14267.91
485.53	14324.08
485.71	14146.20
485.89	14822.61
486.07	14628.35
486.25	14506.64
486.43	14497.28
486.61	14796.87
486.78	14787.50
486.96	14991.13
487.14	15438.17
487.32	15297.74
487.50	15421.79
487.68	15384.34
487.85	15693.29
488.03	15686.27
488.21	16095.86
488.39	16219.91
488.57	16166.08
488.75	16194.17
488.92	16503.12
489.10	16507.80
489.28	16725.47
489.46	16758.24
489.64	16753.55
489.81	17352.73
489.99	17167.83
490.17	17245.07
490.35	17261.45
490.53	17535.29
490.70	17469.76
490.88	17624.23
491.06	18113.41
491.24	17612.53
491.41	17848.93
491.59	18162.56
491.77	17947.23
491.95	18483.21
492.13	18766.42
492.30	18403.63
492.48	18867.06
492.66	18670.45
492.84	18944.30
493.01	19105.79
493.19	19225.16
493.37	19187.71
493.54	19178.35
493.72	19391.34
493.90	19538.79
494.08	19726.04
494.25	19782.21
494.43	19658.16
494.61	19885.19
494.79	19927.32
494.96	19953.07
495.14	20233.93
495.32	20620.12
495.49	20365.00
495.67	20783.96
495.85	20783.96
496.02	21048.44
496.20	21219.30
496.38	21130.36
496.55	21390.16
496.73	21518.89
496.91	21252.06
497.09	21509.52
497.26	21848.90
497.44	21979.97
497.62	21596.12
497.79	22132.11
497.97	22267.86
498.14	22326.37
498.32	22347.44
498.50	22471.48
498.67	22637.66
498.85	22593.19
499.03	22497.23
499.20	22787.46
499.38	22925.55
499.56	23241.52
499.73	23145.56
499.91	23140.88
500.08	23346.84
500.26	23459.19
500.44	23358.55
500.61	23484.94
500.79	23192.37
500.97	24023.26
501.14	24037.30
501.32	23943.68
501.49	23828.99
501.67	24046.66
501.84	24568.60
502.02	24346.25
502.20	24556.90
502.37	24142.63
502.55	24580.31
502.72	24367.32
502.90	24484.34
503.07	24327.53
503.25	24814.36
503.43	24535.84
503.60	25104.59
503.78	25001.60
503.95	25048.41
504.13	25050.75
504.30	25062.46
504.48	25511.84
504.65	25214.59
504.83	25799.73
505.01	25549.29
505.18	25790.36
505.36	26008.03
505.53	25570.35
505.71	25991.65
505.88	25986.97
506.06	26125.06
506.23	25965.90
506.41	25736.53
506.58	26092.29
506.76	26525.29
506.93	26544.02
507.11	26403.58
507.28	26412.95
507.46	26675.09
507.63	26698.49
507.81	26850.63
507.98	26780.41
508.16	26932.54
508.33	26953.61
508.50	27297.67
508.68	27005.10
508.85	27655.77
509.03	27009.78
509.20	26991.06
509.38	27435.76
509.55	27527.04
509.73	27931.95
509.90	28025.57
510.08	27791.52
510.25	28091.11
510.42	28247.93
510.60	28313.46
510.77	28402.40
510.95	28587.30
511.12	28453.89
511.30	28325.16
511.47	28254.95
511.64	28500.70
511.82	28886.89
511.99	28484.32
512.17	28896.25
512.34	28748.80
512.51	29390.11
512.69	29303.51
512.86	29205.20
513.04	29383.09
513.21	29287.12
513.38	29303.51
513.56	29551.60
513.73	29565.65
513.90	29577.35
514.08	29151.37
514.25	29792.68
514.43	29778.64
514.60	29919.07
514.77	29715.44
514.95	30120.35
515.12	29844.17
515.29	29792.68
515.47	30314.62
515.64	30094.61
515.81	30352.07
515.99	30412.92
516.16	30728.89
516.33	30459.73
516.51	30691.44
516.68	30359.09
516.85	30441.01
517.03	30913.80
517.20	30415.26
517.37	31040.18
517.54	30749.96
517.72	31419.35
517.89	31012.10
518.06	31213.38
518.24	31386.58
518.41	31426.37
518.58	31342.11
518.75	31051.89
518.93	31557.44
519.10	31515.31
519.27	31725.96
519.45	31637.02
519.62	31786.82
519.79	31669.79
519.96	31597.23
520.14	31892.14
520.31	31948.31
520.48	32378.97
520.65	32275.99
520.83	32950.06
521.00	32732.39
521.17	32261.94
521.34	32711.33
521.52	32341.52
521.69	32671.54
521.86	33029.64
522.03	32933.68
522.20	32652.81
522.38	32971.13
522.55	33151.35
522.72	33514.13
522.89	33020.28
523.07	33448.60
523.24	33399.44
523.41	33303.48
523.58	32992.19
523.75	33120.92
523.92	33226.24
524.10	33780.95
524.27	33727.12
524.44	33741.16
524.61	34007.98
524.78	33869.89
524.96	34134.37
525.13	33764.57
525.30	34169.48
525.47	34314.59
525.64	34092.24
525.81	34211.61
525.98	34239.70
526.16	34246.72
526.33	34433.96
526.50	34955.90
526.67	34218.63
526.84	34567.37
527.01	34572.05
527.18	34761.64
527.36	34761.64
527.53	35077.61
527.70	34803.77
527.87	35400.60
528.04	34899.73
528.21	34794.40
528.38	35126.76
528.55	35054.20
528.72	34920.79
528.89	35058.88
529.07	35154.85
529.24	34670.36
529.41	35393.58
529.58	35461.46
529.75	35468.48
529.92	35632.32
530.09	35412.31
530.26	35484.86
530.43	35634.66
530.60	35587.85
530.77	35590.19
530.94	35882.75
531.11	35739.98
531.28	36060.63
531.46	35875.73
531.63	36229.15
531.80	36233.83
531.97	36290.01
532.14	36463.21
532.31	35747.00
532.48	36093.40
532.65	36463.21
532.82	36346.18
532.99	36383.63
533.16	36589.59
533.33	36699.60
533.50	36971.10
533.67	36648.11
533.84	36336.82
534.01	36694.92
534.18	37041.32
534.35	37258.99
534.52	36931.31
534.69	37205.16
534.86	37130.26
535.03	37174.73
535.20	37418.14
535.37	37139.62
535.54	37659.22
535.71	36861.10
535.88	37476.66
536.05	37610.07
536.22	37755.18
536.38	37570.28
536.55	37605.39
536.72	37464.96
536.89	37474.32
537.06	37659.22
537.23	37930.72
537.40	37422.83
537.57	37797.31
537.74	38017.32
537.91	37893.27
538.08	37975.19
538.25	37495.38
538.42	37689.65
538.59	38274.78
538.75	38014.98
538.92	38251.38
539.09	38005.62
539.26	38239.67
539.43	38410.53
539.60	38625.86
539.77	37801.99
539.94	38621.18
540.11	38237.33
540.28	38295.85
540.44	38445.64
540.61	38588.41
540.78	38691.40
540.95	38389.47
541.12	38602.46
541.29	38806.08
541.46	38412.87
541.62	38604.80
541.79	39449.73
541.96	38707.78
542.13	38953.54
542.30	38946.51
542.47	39065.88
542.63	39304.62
542.80	39512.92
542.97	39744.64
543.14	39789.11
543.31	40126.14
543.48	39271.85
543.64	39948.26
543.81	39824.22
543.98	39690.80
544.15	39232.06
544.32	40020.82
544.48	40266.58
544.65	39995.07
544.82	39983.37
544.99	40039.54
545.16	40009.12
545.32	39854.64
545.49	40552.12
545.66	40154.23
545.83	40584.89
546.00	40524.04
546.16	40383.60
546.33	40383.60
546.50	39990.39
546.67	40535.74
546.83	40357.86
547.00	40479.57
547.17	40650.42
547.34	40411.69
547.50	40800.22
547.67	40570.85
547.84	40566.16
548.00	40715.96
548.17	41275.35
548.34	41081.08
548.51	41060.02
548.67	40957.03
548.84	41060.02
549.01	41099.81
549.18	40643.40
549.34	41195.77
549.51	40940.65
549.68	41542.17
549.84	41188.75
550.01	41310.46
550.18	41083.42
550.34	40964.06
550.51	41460.25
550.68	41155.98
550.84	41029.59
551.01	41504.72
551.18	41336.20
551.34	41296.41
551.51	41113.85
551.68	41425.14
551.84	40900.86
552.01	40982.78
552.18	41226.20
552.34	41570.25
552.51	41584.30
552.68	41675.58
552.84	41984.53
553.01	41911.97
553.18	41876.86
553.34	41778.56
553.51	42007.94
553.67	41996.23
553.84	42328.59
554.01	41970.49
554.17	42029.00
554.34	42499.45
554.51	41900.27
554.67	42232.63
554.84	42370.72
555.00	42508.81
555.17	42183.48
555.33	42274.76
555.50	42115.60
555.67	42724.14
555.83	42403.49
556.00	42572.00
556.16	42394.12
556.33	42593.07
556.50	42232.63
556.66	42157.73
556.83	42572.00
556.99	42918.40
557.16	42993.30
557.32	42719.46
557.49	42883.30
557.65	42347.31
557.82	42843.51
557.98	42740.52
558.15	42600.09
558.32	42838.83
558.48	42337.95
558.65	43026.07
558.81	42864.57
558.98	42799.04
559.14	43093.94
559.31	42775.63
559.47	42958.19
559.64	43131.39
559.80	42810.74
559.97	43086.92
560.13	43215.65
560.30	42717.12
560.46	43363.11
560.63	43557.37
560.79	43309.27
560.96	43522.26
561.12	43356.08
561.29	43756.32
561.45	43627.59
561.61	43166.50
561.78	43154.80
561.94	43225.01
562.11	43093.94
562.27	43358.42
562.44	43185.22
562.60	43592.48
562.77	43459.07
562.93	43566.73
563.10	43213.31
563.26	43349.06
563.42	43971.64
563.59	43456.73
563.75	43562.05
563.92	43950.58
564.08	43491.83
564.24	43810.15
564.41	43981.01
564.57	43718.87
564.74	43606.52
564.90	43803.13
565.07	43540.99
565.23	43702.48
565.39	43510.56
565.56	43969.30
565.72	43576.09
565.88	43845.26
566.05	43899.09
566.21	43522.26
566.38	43728.23
566.54	44074.63
566.70	44435.07
566.87	43793.76
567.03	43658.01
567.19	44189.31
567.36	43723.55
567.52	43981.01
567.68	44208.04
567.85	44095.69
568.01	44041.86
568.17	43854.62
568.34	43973.98
568.50	44282.94
568.66	44095.69
568.83	44053.56
568.99	44421.03
569.15	44076.97
569.32	43966.96
569.48	44004.41
569.64	44210.38
569.81	44238.47
569.97	44406.98
570.13	44369.54
570.30	44027.82
570.46	44294.64
570.62	44201.02
570.78	44109.74
570.95	44116.76
571.11	44493.58
571.27	44278.25
571.43	44236.12
571.60	44009.09
571.76	44135.48
571.92	44142.50
572.09	44397.62
572.25	44112.08
572.41	43938.88
572.57	44282.94
572.74	45324.47
572.90	44619.97
573.06	44051.22
573.22	45022.54
573.38	44577.84
573.55	44718.28
573.71	44837.64
573.87	44514.65
574.03	44942.97
574.20	44856.37
574.36	44580.18
574.52	44626.99
574.68	44802.53
574.84	44973.39
575.01	44905.52
575.17	44687.85
575.33	44460.82
575.49	44467.84
575.65	44545.08
575.82	44856.37
575.98	44229.10
576.14	44765.09
576.30	44734.66
576.46	44582.52
576.62	44847.00
576.79	44594.23
576.95	44091.01
577.11	44638.70
577.27	44615.29
577.43	44507.63
577.59	44800.19
577.75	44800.19
577.92	44275.91
578.08	44568.48
578.24	44357.83
578.40	44893.82
578.56	45045.95
578.72	44507.63
578.88	44931.26
579.04	44807.22
579.21	44657.42
579.37	44917.22
579.53	45162.98
579.69	45069.36
579.85	44308.68
580.01	45043.61
580.17	44573.16
580.33	44884.45
580.49	44919.56
580.65	44940.63
580.82	44996.80
580.98	44821.26
581.14	44961.69
581.30	44690.19
581.46	44233.78
581.62	44608.27
581.78	44715.93
581.94	44657.42
582.10	45069.36
582.26	44790.83
582.42	44783.81
582.58	44573.16
582.74	44671.46
582.90	44608.27
583.06	45242.56
583.22	45116.17
583.38	44631.68
583.54	45134.89
583.70	44729.98
583.86	44935.95
584.02	44587.21
584.18	45020.20
584.34	45153.62
584.50	45326.81
584.66	45202.77
584.82	45076.38
584.98	45144.25
585.14	44938.29
585.30	45057.65
585.46	45095.10
585.62	45029.57
585.78	45310.43
585.94	45050.63
586.10	44996.80
586.26	44325.07
586.42	45071.70
586.58	45132.55
586.74	44542.74
586.90	45106.80
587.06	44624.65
587.22	45462.57
587.38	45043.61
587.54	45507.04
587.70	45179.36
587.86	45071.70
588.02	45102.12
588.18	44992.12
588.34	45013.18
588.49	45303.41
588.65	44912.54
588.81	45404.05
588.97	45352.56
589.13	45221.49
589.29	45022.54
589.45	45319.79
589.61	45167.66
589.77	45177.02
589.93	45308.09
590.08	45191.06
