SpectraSuite Data File
++++++++++++++++++++++++++++++++++++
Date: Fri Oct 25 10:48:19 EDT 2013
User: price-jones
Dark Spectrum Present: No
Reference Spectrum Present: No
Number of Sampled Component Spectra: 1
Spectrometers: USB2+H05261
Integration Time (usec): 100000 (USB2+H05261)
Spectra Averaged: 1 (USB2+H05261)
Boxcar Smoothing: 0 (USB2+H05261)
Correct for Electrical Dark: No (USB2+H05261)
Strobe/Lamp Enabled: No (USB2+H05261)
Correct for Detector Non-linearity: No (USB2+H05261)
Correct for Stray Light: No (USB2+H05261)
Number of Pixels in Processed Spectrum: 2048
>>>>>Begin Processed Spectral Data<<<<<
365.73	100.64
365.92	100.64
366.12	100.64
366.32	84.26
366.52	51.49
366.72	98.30
366.91	91.28
367.11	0.00
367.31	53.83
367.51	51.49
367.70	28.09
367.90	72.56
368.10	58.51
368.30	21.06
368.49	46.81
368.69	14.04
368.89	35.11
369.09	70.22
369.28	84.26
369.48	30.43
369.68	60.85
369.87	88.94
370.07	126.39
370.27	163.84
370.47	205.97
370.66	423.64
370.86	507.90
371.06	482.15
371.25	538.32
371.45	458.74
371.65	507.90
371.84	447.04
372.04	482.15
372.24	535.98
372.44	587.47
372.63	521.94
372.83	564.07
373.03	496.19
373.22	512.58
373.42	559.39
373.62	547.69
373.81	535.98
374.01	561.73
374.21	624.92
374.40	603.86
374.60	589.82
374.79	580.45
374.99	566.41
375.19	606.20
375.38	596.84
375.58	690.46
375.78	650.67
375.97	578.11
376.17	599.18
376.37	660.03
376.56	664.71
376.76	739.61
376.95	674.07
377.15	690.46
377.35	667.05
377.54	671.73
377.74	711.52
377.93	678.76
378.13	732.59
378.33	631.94
378.52	713.86
378.72	678.76
378.91	779.40
379.11	732.59
379.31	653.01
379.50	713.86
379.70	709.18
379.89	678.76
380.09	739.61
380.28	753.65
380.48	777.06
380.68	748.97
380.87	739.61
381.07	791.10
381.26	732.59
381.46	805.14
381.65	704.50
381.85	695.14
382.04	730.25
382.24	751.31
382.43	690.46
382.63	755.99
382.83	753.65
383.02	784.08
383.22	781.74
383.41	723.23
383.61	706.84
383.80	840.25
384.00	744.29
384.19	835.57
384.39	835.57
384.58	880.04
384.78	814.51
384.97	821.53
385.17	816.85
385.36	856.64
385.56	931.53
385.75	882.38
385.95	924.51
386.14	868.34
386.34	966.64
386.53	882.38
386.72	880.04
386.92	915.15
387.11	922.17
387.31	985.37
387.50	959.62
387.70	933.87
387.89	901.11
388.09	884.72
388.28	959.62
388.48	1022.81
388.67	952.60
388.86	964.30
389.06	1071.97
389.25	1001.75
389.45	987.71
389.64	1013.45
389.84	1071.97
390.03	1008.77
390.22	1165.59
390.42	1114.10
390.61	1160.91
390.81	992.39
391.00	1081.33
391.19	1165.59
391.39	1130.48
391.58	1064.94
391.78	1074.31
391.97	1050.90
392.16	1160.91
392.36	1097.71
392.55	1064.94
392.75	1109.41
392.94	1046.22
393.13	1064.94
393.33	1057.92
393.52	1032.18
393.71	1163.25
393.91	1125.80
394.10	1214.74
394.29	1135.16
394.49	1270.91
394.68	1313.04
394.88	1247.51
395.07	1355.17
395.26	1329.42
395.46	1313.04
395.65	1378.58
395.84	1336.45
396.04	1240.48
396.23	1160.91
396.42	1256.87
396.62	1270.91
396.81	1296.66
397.00	1299.00
397.19	1294.32
397.39	1451.13
397.58	1528.37
397.77	1533.05
397.97	1504.96
398.16	1537.73
398.35	1607.95
398.55	1526.03
398.74	1540.07
398.93	1603.27
399.12	1636.03
399.32	1579.86
399.51	1643.06
399.70	1643.06
399.90	1554.12
400.09	1715.61
400.28	1739.02
400.47	1631.35
400.67	1732.00
400.86	1722.63
401.05	1755.40
401.24	1783.49
401.44	1935.62
401.63	1790.51
401.82	1846.68
402.01	1872.43
402.21	1823.28
402.40	1851.36
402.59	1771.79
402.78	1916.90
402.97	1844.34
403.17	1902.86
403.36	1968.39
403.55	1933.28
403.74	1921.58
403.93	1912.22
404.13	1963.71
404.32	1856.04
404.51	1952.01
404.70	2022.22
404.89	1926.26
405.09	2143.93
405.28	2050.31
405.47	2113.50
405.66	2050.31
405.85	2127.55
406.05	2087.76
406.24	2043.29
406.43	2143.93
406.62	2193.08
406.81	2214.15
407.00	2230.53
407.20	2148.61
407.39	2160.31
407.58	2279.68
407.77	2317.13
407.96	2335.85
408.15	2267.98
408.34	2298.41
408.54	2462.24
408.73	2373.30
408.92	2373.30
409.11	2450.54
409.30	2317.13
409.49	2352.24
409.68	2394.37
409.87	2445.86
410.07	2548.84
410.26	2555.86
410.45	2513.74
410.64	2450.54
410.83	2516.08
411.02	2614.38
411.21	2693.96
411.40	2700.98
411.59	2710.34
411.78	2808.64
411.98	2733.75
412.17	2773.53
412.36	2853.11
412.55	2834.39
412.74	2867.16
412.93	2888.22
413.12	2813.32
413.31	2974.82
413.50	2888.22
413.69	2965.46
413.88	2944.39
414.07	2970.14
414.26	3084.83
414.45	3157.38
414.64	3117.59
414.83	3206.53
415.02	3199.51
415.22	3173.77
415.41	3248.66
415.60	3337.60
415.79	3375.05
415.98	3405.48
416.17	3323.56
416.36	3426.54
416.55	3267.39
416.74	3475.70
416.93	3503.78
417.12	3382.07
417.31	3536.55
417.50	3513.14
417.69	3676.98
417.88	3574.00
418.07	3531.87
418.26	3625.49
418.45	3625.49
418.64	3669.96
418.83	3845.50
419.02	3730.81
419.21	3648.90
419.39	3747.20
419.58	3604.42
419.77	3545.91
419.96	3847.84
420.15	3749.54
420.34	3882.95
420.53	3819.75
420.72	4044.45
420.91	3920.40
421.10	3936.78
421.29	3901.67
421.48	4035.08
421.67	4072.53
421.86	3948.48
422.05	3796.35
422.24	3939.12
422.43	4053.81
422.61	4035.08
422.80	4114.66
422.99	4091.26
423.18	4152.11
423.37	4198.92
423.56	4142.75
423.75	4121.68
423.94	4201.26
424.13	3803.37
424.32	4086.58
424.50	4191.90
424.69	4112.32
424.88	4189.56
425.07	4135.73
425.26	3995.29
425.45	4170.83
425.64	4147.43
425.83	4133.39
426.01	4234.03
426.20	4187.22
426.39	4177.86
426.58	4091.26
426.77	3983.59
426.96	4299.56
427.15	4086.58
427.33	4138.07
427.52	4234.03
427.71	4198.92
427.90	4308.93
428.09	4283.18
428.28	4273.82
428.46	4353.40
428.65	4360.42
428.84	4360.42
429.03	4503.19
429.22	4227.01
429.40	4435.32
429.59	4362.76
429.78	4072.53
429.97	4065.51
430.16	4194.24
430.34	4152.11
430.53	4369.78
430.72	4416.59
430.91	4430.63
431.10	4486.81
431.28	4676.39
431.47	4840.23
431.66	4868.31
431.85	4601.49
432.03	4734.90
432.22	4887.04
432.41	4629.58
432.60	4889.38
432.79	4882.36
432.97	4947.89
433.16	4945.55
433.35	4880.02
433.54	4807.46
433.72	4830.87
433.91	4947.89
434.10	4931.51
434.28	4961.94
434.47	5001.72
434.66	5221.74
434.85	5114.07
435.03	5139.82
435.22	5088.32
435.41	5416.00
435.59	5156.20
435.78	5392.59
435.97	5420.68
436.16	5315.36
436.34	5301.31
436.53	5298.97
436.72	5404.30
436.90	5238.12
437.09	5296.63
437.28	5217.05
437.46	5373.87
437.65	5380.89
437.84	5462.81
438.02	5249.82
438.21	5352.81
438.40	5350.46
438.58	5488.56
438.77	5682.82
438.96	5614.95
439.14	5851.34
439.33	5963.68
439.52	5830.27
439.70	5774.10
439.89	5865.38
440.08	6001.13
440.26	5970.71
440.45	5937.94
440.63	6099.44
440.82	6141.57
441.01	6090.07
441.19	6106.46
441.38	6272.64
441.57	6307.74
441.75	6387.32
441.94	6492.65
442.12	6539.46
442.31	6513.71
442.50	6490.31
442.68	6518.39
442.87	6539.46
443.05	6740.74
443.24	6642.44
443.43	6871.81
443.61	6768.83
443.80	6953.73
443.98	6569.88
444.17	6532.44
444.35	6729.04
444.54	6895.22
444.73	6663.51
444.91	6820.32
445.10	6888.20
445.28	6719.68
445.47	6534.78
445.65	6782.87
445.84	6839.05
446.02	6658.82
446.21	6796.92
446.39	6839.05
446.58	7009.90
446.77	6909.26
446.95	6883.52
447.14	7035.65
447.32	7157.36
447.51	7143.32
447.69	6832.02
447.88	7040.33
448.06	7140.97
448.25	6974.80
448.43	7098.84
448.62	7108.21
448.80	7016.93
448.99	7110.55
449.17	7133.95
449.36	6998.20
449.54	7290.77
449.73	7321.20
449.91	7517.80
450.10	7349.28
450.28	7410.14
450.46	7513.12
450.65	7393.75
450.83	7515.46
451.02	7396.09
451.20	7566.95
451.39	7716.75
451.57	7452.27
451.76	7559.93
451.94	7417.16
452.13	7648.87
452.31	7555.25
452.49	7466.31
452.68	7407.80
452.86	7456.95
453.05	7639.51
453.23	7559.93
453.42	7468.65
453.60	7637.17
453.78	7789.30
453.97	7637.17
454.15	7679.30
454.34	7707.38
454.52	8053.78
454.70	7847.82
454.89	7793.98
455.07	7791.64
455.26	8009.31
455.44	8219.96
455.62	7943.78
455.81	8128.68
455.99	8205.92
456.17	8009.31
456.36	8203.58
456.54	8273.79
456.73	8217.62
456.91	8358.05
457.09	8545.30
457.28	8732.54
457.46	8353.37
457.64	8498.49
457.83	8484.44
458.01	8414.23
458.19	8561.68
458.38	8594.45
458.56	8676.37
458.74	8418.91
458.93	8575.72
459.11	8596.79
459.29	8678.71
459.48	8627.21
459.66	8657.64
459.84	8561.68
460.03	8933.82
460.21	8971.27
460.39	8823.82
460.57	8793.39
460.76	8990.00
460.94	8828.50
461.12	8851.91
461.31	9095.32
461.49	8840.20
461.67	8858.93
461.85	9233.41
462.04	9146.81
462.22	9535.34
462.40	9364.48
462.59	9263.84
462.77	9378.53
462.95	9320.01
463.13	9280.22
463.32	9341.08
463.50	9336.40
463.68	9633.64
463.86	9476.83
464.05	9308.31
464.23	9287.25
464.41	9476.83
464.59	9259.16
464.78	9589.17
464.96	9362.14
465.14	9369.16
465.32	9469.81
465.50	9575.13
465.69	9914.51
465.87	9643.01
466.05	9547.05
466.23	9619.60
466.41	9537.68
466.60	9809.19
466.78	9755.35
466.96	9533.00
467.14	9673.43
467.32	9666.41
467.51	9717.90
467.69	9488.53
467.87	9942.60
468.05	9900.47
468.23	9813.87
468.41	9865.36
468.60	9886.42
468.78	10064.30
468.96	9888.76
469.14	9914.51
469.32	10178.99
469.50	9818.55
469.69	10047.92
469.87	10181.33
470.05	10141.54
470.23	10363.89
470.41	10164.95
470.59	10253.89
470.77	10326.44
470.95	10534.75
471.14	10359.21
471.32	10366.23
471.50	10759.44
471.68	10759.44
471.86	10815.62
472.04	10745.40
472.22	10895.19
472.40	10572.20
472.58	10745.40
472.77	10724.33
472.95	10937.32
473.13	11414.79
473.31	11016.90
473.49	10820.30
473.67	10925.62
473.85	11248.61
474.03	11482.67
474.21	11414.79
474.39	11440.54
474.57	11473.31
474.75	11386.71
474.93	11545.86
475.12	11698.00
475.30	11730.76
475.48	11417.13
475.66	11758.85
475.84	11630.12
476.02	11887.58
476.20	11903.96
476.38	11997.59
476.56	12250.36
476.74	12320.58
476.92	12233.98
477.10	12224.62
477.28	12517.18
477.46	12568.68
477.64	12774.64
477.82	12631.87
478.00	12915.08
478.18	12786.35
478.36	13092.96
478.54	13331.69
478.72	13041.46
478.90	13296.58
479.08	13434.68
479.26	13495.53
479.44	13703.84
479.62	13593.83
479.80	13865.33
479.98	13715.54
480.16	14150.88
480.34	14005.77
480.52	14384.93
480.70	14434.08
480.88	14115.77
481.06	14197.69
481.24	14324.08
481.41	14738.35
481.59	14906.87
481.77	15005.17
481.95	14686.86
482.13	15290.72
482.31	15176.03
482.49	15735.42
482.67	15501.37
482.85	15627.76
483.03	15803.30
483.21	15850.11
483.39	16156.72
483.57	16042.03
483.74	16142.67
483.92	16271.40
484.10	15793.94
484.28	16479.71
484.46	16641.21
484.64	16884.62
484.82	16840.15
485.00	16751.21
485.18	17291.88
485.35	17039.10
485.53	16685.68
485.71	16650.57
485.89	16954.84
486.07	17064.85
486.25	17256.77
486.43	17432.31
486.61	17657.00
486.78	17951.91
486.96	17827.86
487.14	18483.21
487.32	18740.67
487.50	18506.62
487.68	18885.78
487.85	19070.68
488.03	19199.41
488.21	19276.65
488.39	18956.00
488.57	19276.65
488.75	19412.40
488.92	19639.44
489.10	20135.63
489.28	20058.39
489.46	20566.29
489.64	20360.32
489.81	20594.37
489.99	20634.16
490.17	20938.43
490.35	21322.28
490.53	21158.44
490.70	21202.91
490.88	21223.98
491.06	21355.05
491.24	21774.00
491.41	21551.65
491.59	21790.39
491.77	21621.87
491.95	21788.05
492.13	22075.93
492.30	22246.79
492.48	22794.48
492.66	22860.01
492.84	22614.26
493.01	22864.69
493.19	22728.94
493.37	23201.73
493.54	23190.03
493.72	23667.50
493.90	23716.65
494.08	23248.54
494.25	23843.04
494.43	24166.03
494.61	23885.17
494.79	24341.57
494.96	23931.98
495.14	24189.44
495.32	24381.36
495.49	24641.16
495.67	24542.86
495.85	24931.39
496.02	25001.60
496.20	25600.78
496.38	25355.02
496.55	25490.77
496.73	25860.58
496.91	25523.54
497.09	25905.05
497.26	26094.63
497.44	26120.38
497.62	26176.55
497.79	26153.15
497.97	26197.62
498.14	26316.98
498.32	26616.57
498.50	26782.75
498.67	27349.16
498.85	26759.34
499.03	27388.95
499.20	27337.46
499.38	27440.44
499.56	27267.24
499.73	27271.92
499.91	27463.85
500.08	27681.52
500.26	27253.20
500.44	27562.15
500.61	28077.07
500.79	27498.95
500.97	27847.69
501.14	28231.54
501.32	28037.28
501.49	27908.55
501.67	28254.95
501.84	28577.94
502.02	28393.04
502.20	28573.26
502.37	28835.40
502.55	28929.02
502.72	29102.22
502.90	28903.28
503.07	28938.38
503.25	29118.60
503.43	28868.17
503.60	29050.73
503.78	29256.70
503.95	29727.14
504.13	29254.36
504.30	29518.84
504.48	29633.52
504.65	29731.83
504.83	30096.95
505.01	30302.92
505.18	30146.10
505.36	30412.92
505.53	30712.51
505.71	30885.71
505.88	30766.34
506.06	30646.97
506.23	30649.32
506.41	30314.62
506.58	30705.49
506.76	30749.96
506.93	31241.47
507.11	30855.28
507.28	31035.50
507.46	31311.69
507.63	31374.88
507.81	31335.09
507.98	31344.45
508.16	31072.95
508.33	31810.22
508.50	32016.19
508.68	31559.78
508.85	32009.17
509.03	31878.10
509.20	32306.41
509.38	32388.33
509.55	32280.67
509.73	32343.86
509.90	32369.61
510.08	32278.33
510.25	32470.25
510.42	32533.45
510.60	32751.12
510.77	32968.79
510.95	33188.80
511.12	33230.93
511.30	33109.22
511.47	33366.68
511.64	33750.52
511.82	33422.85
511.99	33378.38
512.17	33237.95
512.34	33186.46
512.51	33785.63
512.69	33677.97
512.86	33975.22
513.04	33874.57
513.21	34220.97
513.38	33862.87
513.56	33577.33
513.73	33907.34
513.90	34195.23
514.08	34417.58
514.25	34478.43
514.43	34171.82
514.60	34391.83
514.77	34469.07
514.95	34565.03
515.12	35014.41
515.29	34679.72
515.47	34981.65
515.64	34976.97
515.81	34780.36
515.99	35047.18
516.16	35054.20
516.33	34550.99
516.51	34630.57
516.68	34188.21
516.85	34476.09
517.03	34426.94
517.20	34934.84
517.37	35580.82
517.54	35590.19
517.72	35688.49
517.89	35283.58
518.06	35321.02
518.24	35211.02
518.41	35178.25
518.58	35580.82
518.75	35405.28
518.93	36449.16
519.10	36390.65
519.27	36334.48
519.45	36552.15
519.62	36416.40
519.79	36133.19
519.96	36542.78
520.14	36545.12
520.31	36229.15
520.48	36814.29
520.65	37048.34
520.83	37116.22
521.00	37333.89
521.17	37172.39
521.34	37455.59
521.52	37179.41
521.69	37790.29
521.86	37322.18
522.03	37645.18
522.20	37535.17
522.38	37280.05
522.55	37612.41
522.72	37734.12
522.89	37359.63
523.07	37893.27
523.24	37589.00
523.41	38139.03
523.58	38155.41
523.75	38349.68
523.92	38433.94
524.10	38906.73
524.27	38607.14
524.44	38684.37
524.61	38368.40
524.78	38536.92
524.96	38672.67
525.13	39026.09
525.30	39278.87
525.47	39222.70
525.64	38707.78
525.81	38600.12
525.98	38813.10
526.16	38363.72
526.33	38363.72
526.50	38588.41
526.67	38684.37
526.84	38705.44
527.01	38888.00
527.18	38726.50
527.36	39147.80
527.53	39395.90
527.70	39669.74
527.87	39620.59
528.04	39395.90
528.21	39711.87
528.38	39861.66
528.55	40060.61
528.72	39819.53
528.89	40526.38
529.07	39643.99
529.24	40458.50
529.41	40189.34
529.58	39861.66
529.75	39955.29
529.92	40540.42
530.09	40091.04
530.26	40531.06
530.43	40470.20
530.60	40318.07
530.77	40236.15
530.94	40793.20
531.11	41076.40
531.28	40769.79
531.46	40985.12
531.63	41261.30
531.80	40589.57
531.97	41036.61
532.14	40673.83
532.31	40671.49
532.48	41015.55
532.65	40870.43
532.82	40811.92
532.99	41167.68
533.16	40767.45
533.33	41387.69
533.50	41628.77
533.67	41265.99
533.84	41116.19
534.01	41275.35
534.18	41221.52
534.35	41783.24
534.52	41514.08
534.69	41298.75
534.86	41773.88
535.03	41614.72
535.20	41483.66
535.37	41617.07
535.54	42007.94
535.71	42108.58
535.88	42284.12
536.05	41930.70
536.22	41923.68
536.38	42438.59
536.55	41991.55
536.72	41940.06
536.89	42054.75
537.06	42202.20
537.23	41874.52
537.40	42106.24
537.57	42450.30
537.74	42366.04
537.91	42532.22
538.08	42340.29
538.25	42447.96
538.42	42469.02
538.59	42595.41
538.75	42349.65
538.92	42618.81
539.09	42478.38
539.26	42904.36
539.43	42880.95
539.60	42621.16
539.77	42134.32
539.94	42527.53
540.11	42691.37
540.28	42792.01
540.44	42366.04
540.61	42857.55
540.78	42628.18
540.95	42843.51
541.12	42759.25
541.29	42841.17
541.46	43026.07
541.62	43430.98
541.79	43452.05
541.96	43089.26
542.13	43147.78
542.30	43669.72
542.47	43559.71
542.63	43107.99
542.80	43545.67
542.97	43856.96
543.14	44212.72
543.31	44224.42
543.48	43913.13
543.64	44545.08
543.81	44072.29
543.98	44676.15
544.15	43683.76
544.32	44201.02
544.48	44247.83
544.65	44376.56
544.82	44362.51
544.99	43880.36
545.16	44425.71
545.32	44217.40
545.49	44383.58
545.66	44385.92
545.83	44177.61
546.00	44414.01
546.16	44552.10
546.33	44397.62
546.50	44156.55
546.67	44870.41
546.83	44011.43
547.00	44538.05
547.17	44378.90
547.34	44374.22
547.50	44601.25
547.67	44767.43
547.84	44828.28
548.00	44732.32
548.17	45146.59
548.34	44994.46
548.51	45151.27
548.67	45165.32
548.84	44921.90
549.01	45041.27
549.18	44926.58
549.34	45191.06
549.51	45177.02
549.68	44921.90
549.84	45256.60
550.01	45280.00
550.18	45223.83
550.34	44896.16
550.51	45226.17
550.68	45574.91
550.84	45027.23
551.01	45347.88
551.18	45476.61
551.34	45373.63
551.51	45282.34
551.68	45432.14
551.84	45600.66
552.01	45441.50
552.18	45254.26
552.34	45375.97
552.51	45443.84
552.68	45734.07
552.84	45689.60
553.01	46174.09
553.18	45888.54
553.34	45380.65
553.51	45492.99
553.67	46113.23
553.84	46101.53
554.01	46253.67
554.17	46117.92
554.34	46248.99
554.51	46054.72
554.67	46223.24
554.84	46064.08
555.00	45794.92
555.17	45951.74
555.33	45638.11
555.50	46230.26
555.67	46085.15
555.83	45904.93
556.00	45797.26
556.16	46298.14
556.33	46651.56
556.50	45890.88
556.66	45918.97
556.83	46232.60
556.99	46401.12
557.16	46176.43
557.32	46712.41
557.49	46852.84
557.65	46028.98
557.82	46169.41
557.98	46157.70
558.15	46305.16
558.32	46185.79
558.48	46581.34
558.65	46052.38
558.81	45993.87
558.98	46260.69
559.14	46639.86
559.31	46422.19
559.47	46667.94
559.64	46766.24
559.80	46960.51
559.97	46766.24
560.13	46511.13
560.30	46581.34
560.46	46714.75
560.63	46829.44
560.79	46684.33
560.96	46848.16
561.12	46754.54
561.29	46808.37
561.45	46724.11
561.61	46857.52
561.78	46422.19
561.94	46471.34
562.11	46293.46
562.27	46981.57
562.44	46480.70
562.60	47154.77
562.77	46906.68
562.93	46642.20
563.10	47068.17
563.26	46981.57
563.42	46476.02
563.59	46806.03
563.75	46726.46
563.92	47206.26
564.08	47098.60
564.24	47302.23
564.41	46773.27
564.57	46810.71
564.74	46990.94
564.90	47044.77
565.07	47063.49
565.23	46852.84
565.39	47199.24
565.56	47173.50
565.72	46724.11
565.88	46990.94
566.05	46789.65
566.21	47014.34
566.38	47210.95
566.54	46953.49
566.70	47260.10
566.87	47449.68
567.03	47367.76
567.19	47302.23
567.36	47199.24
567.52	47164.14
567.68	47257.76
567.85	47180.52
568.01	46918.38
568.17	47145.41
568.34	46763.90
568.50	47304.57
568.66	46859.87
568.83	47227.33
568.99	46607.09
569.15	47199.24
569.32	47344.36
569.48	47084.56
569.64	47505.85
569.81	47192.22
569.97	47449.68
570.13	47047.11
570.30	47210.95
570.46	46902.00
570.62	47136.05
570.78	46983.91
570.95	47105.62
571.11	47414.57
571.27	46754.54
571.43	47054.13
571.60	47358.40
571.76	47253.08
571.92	47428.62
572.09	47199.24
572.25	47697.78
572.41	47014.34
572.57	47316.27
572.74	47540.96
572.90	47150.09
573.06	47271.80
573.22	47295.21
573.38	47334.99
573.55	47374.78
573.71	47304.57
573.87	46897.31
574.03	47189.88
574.20	47665.01
574.36	47414.57
574.52	47423.93
574.68	47463.72
574.84	47597.13
575.01	47283.50
575.17	47215.63
575.33	46969.87
575.49	47194.56
575.65	47409.89
575.82	47405.21
575.98	47309.25
576.14	47346.70
576.30	47526.92
576.46	47288.18
576.62	47007.32
576.79	47056.47
576.95	46838.80
577.11	47349.04
577.27	47433.30
577.43	47388.83
577.59	47119.66
577.75	47012.00
577.92	46801.35
578.08	46663.26
578.24	47093.92
578.40	47136.05
578.56	47065.83
578.72	47421.59
578.88	47269.46
579.04	47477.77
579.21	47260.10
579.37	47346.70
579.53	47264.78
579.69	47524.58
579.85	47012.00
580.01	47585.43
580.17	47562.03
580.33	47416.91
580.49	47363.08
580.65	48128.44
580.82	47386.49
580.98	47232.01
581.14	47454.36
581.30	47285.84
581.46	47452.02
581.62	47454.36
581.78	47178.18
581.94	47903.74
582.10	47435.64
582.26	47576.07
582.42	47407.55
582.58	46934.76
582.74	47416.91
582.90	47342.02
583.06	47971.62
583.22	47302.23
583.38	47873.32
583.54	47641.60
583.70	47068.17
583.86	47253.08
584.02	47306.91
584.18	47690.76
584.34	47512.88
584.50	47466.06
584.66	47143.07
584.82	47180.52
584.98	47655.65
585.14	47540.96
585.30	47068.17
585.46	47618.20
585.62	46993.28
585.78	47379.46
585.94	46876.25
586.10	47138.39
586.26	46990.94
586.42	47557.35
586.58	47496.49
586.74	47648.63
586.90	47103.28
587.06	47210.95
587.22	47800.76
587.38	46894.97
587.54	48095.67
587.70	47683.73
587.86	47334.99
588.02	47693.10
588.18	47604.16
588.34	47295.21
588.49	46880.93
588.65	46295.80
588.81	46815.40
588.97	46934.76
589.13	47119.66
589.29	46923.06
589.45	47526.92
589.61	47334.99
589.77	47707.14
