SpectraSuite Data File
++++++++++++++++++++++++++++++++++++
Date: Fri Oct 25 10:47:18 EDT 2013
User: price-jones
Dark Spectrum Present: No
Reference Spectrum Present: No
Number of Sampled Component Spectra: 1
Spectrometers: USB2+H05261
Integration Time (usec): 100000 (USB2+H05261)
Spectra Averaged: 1 (USB2+H05261)
Boxcar Smoothing: 0 (USB2+H05261)
Correct for Electrical Dark: No (USB2+H05261)
Strobe/Lamp Enabled: No (USB2+H05261)
Correct for Detector Non-linearity: No (USB2+H05261)
Correct for Stray Light: No (USB2+H05261)
Number of Pixels in Processed Spectrum: 2048
>>>>>Begin Processed Spectral Data<<<<<
365.73	126.39
365.92	126.39
366.12	126.39
366.32	93.62
366.52	49.15
366.72	2.34
366.91	56.17
367.11	65.54
367.31	9.36
367.51	42.13
367.70	67.88
367.90	91.28
368.10	77.24
368.30	2.34
368.49	4.68
368.69	84.26
368.89	0.00
369.09	91.28
369.28	74.90
369.48	53.83
369.68	128.73
369.87	138.09
370.07	70.22
370.27	91.28
370.47	215.33
370.66	376.83
370.86	367.46
371.06	386.19
371.25	491.51
371.45	475.13
371.65	475.13
371.84	491.51
372.04	365.12
372.24	486.83
372.44	425.98
372.63	566.41
372.83	465.77
373.03	505.56
373.22	484.49
373.42	505.56
373.62	493.85
373.81	580.45
374.01	514.92
374.21	503.22
374.40	526.62
374.60	596.84
374.79	587.47
374.99	493.85
375.19	526.62
375.38	599.18
375.58	550.03
375.78	557.05
375.97	507.90
376.17	653.01
376.37	599.18
376.56	503.22
376.76	599.18
376.95	535.98
377.15	517.26
377.35	521.94
377.54	643.65
377.74	585.13
377.93	667.05
378.13	655.35
378.33	636.63
378.52	585.13
378.72	629.60
378.91	631.94
379.11	606.20
379.31	650.67
379.50	657.69
379.70	554.71
379.89	589.82
380.09	624.92
380.28	674.07
380.48	711.52
380.68	730.25
380.87	629.60
381.07	657.69
381.26	737.27
381.46	622.58
381.65	671.73
381.85	650.67
382.04	713.86
382.24	751.31
382.43	716.20
382.63	683.44
382.83	660.03
383.02	713.86
383.22	770.04
383.41	641.31
383.61	699.82
383.80	751.31
384.00	664.71
384.19	685.78
384.39	706.84
384.58	805.14
384.78	744.29
384.97	748.97
385.17	755.99
385.36	828.55
385.56	676.41
385.75	725.57
385.95	748.97
386.14	830.89
386.34	706.84
386.53	802.80
386.72	763.01
386.92	812.17
387.11	748.97
387.31	772.38
387.50	725.57
387.70	826.21
387.89	826.21
388.09	844.93
388.28	777.06
388.48	800.46
388.67	774.72
388.86	746.63
389.06	870.68
389.25	795.78
389.45	936.21
389.64	861.32
389.84	905.79
390.03	933.87
390.22	891.74
390.42	842.59
390.61	891.74
390.81	929.19
391.00	823.87
391.19	919.83
391.39	844.93
391.58	1036.86
391.78	802.80
391.97	931.53
392.16	891.74
392.36	915.15
392.55	947.92
392.75	954.94
392.94	866.00
393.13	933.87
393.33	1015.79
393.52	1018.13
393.71	1018.13
393.91	1025.15
394.10	994.73
394.29	1020.47
394.49	905.79
394.68	1078.99
394.88	1020.47
395.07	1062.60
395.26	1135.16
395.46	1060.26
395.65	1067.28
395.84	1095.37
396.04	1116.44
396.23	1034.52
396.42	1121.12
396.62	1114.10
396.81	1158.57
397.00	1121.12
397.19	1146.86
397.39	1207.72
397.58	1142.18
397.77	1093.03
397.97	1153.88
398.16	1156.22
398.35	1177.29
398.55	1170.27
398.74	1198.35
398.93	1245.16
399.12	1287.29
399.32	1334.11
399.51	1210.06
399.70	1383.26
399.90	1280.27
400.09	1352.83
400.28	1409.00
400.47	1315.38
400.67	1366.87
400.86	1364.53
401.05	1409.00
401.24	1432.41
401.44	1486.24
401.63	1453.47
401.82	1469.86
402.01	1434.75
402.21	1469.86
402.40	1453.47
402.59	1434.75
402.78	1483.90
402.97	1490.92
403.17	1533.05
403.36	1540.07
403.55	1577.52
403.74	1598.59
403.93	1509.65
404.13	1633.69
404.32	1493.26
404.51	1614.97
404.70	1617.31
404.89	1535.39
405.09	1593.90
405.28	1643.06
405.47	1671.14
405.66	1722.63
405.85	1706.25
406.05	1614.97
406.24	1624.33
406.43	1668.80
406.62	1682.85
406.81	1722.63
407.00	1863.07
407.20	1671.14
407.39	1694.55
407.58	1811.57
407.77	1809.23
407.96	1846.68
408.15	1900.52
408.34	1746.04
408.54	1851.36
408.73	1926.26
408.92	1994.14
409.11	1895.83
409.30	1947.33
409.49	1881.79
409.68	1968.39
409.87	1881.79
410.07	2012.86
410.26	2008.18
410.45	2031.58
410.64	2122.87
410.83	2099.46
411.02	2054.99
411.21	2153.29
411.40	2179.04
411.59	2176.70
411.78	2253.94
411.98	2136.91
412.17	2139.25
412.36	2186.06
412.55	2237.55
412.74	2265.64
412.93	2319.47
413.12	2225.85
413.31	2363.94
413.50	2251.60
413.69	2424.80
413.88	2431.82
414.07	2495.01
414.26	2436.50
414.45	2445.86
414.64	2445.86
414.83	2537.14
415.02	2623.74
415.22	2551.18
415.41	2614.38
415.60	2614.38
415.79	2672.89
415.98	2621.40
416.17	2628.42
416.36	2644.81
416.55	2789.92
416.74	2708.00
416.93	2801.62
417.12	2869.50
417.31	2780.56
417.50	2808.64
417.69	2841.41
417.88	2995.89
418.07	2857.79
418.26	2897.58
418.45	3045.04
418.64	3016.95
418.83	3096.53
419.02	3023.97
419.21	3054.40
419.39	3082.49
419.58	3089.51
419.77	3089.51
419.96	3143.34
420.15	3143.34
420.34	2972.48
420.53	3148.02
420.72	3197.17
420.91	3255.69
421.10	3302.50
421.29	3316.54
421.48	3346.97
421.67	3323.56
421.86	3321.22
422.05	3236.96
422.24	3190.15
422.43	3239.30
422.61	3321.22
422.80	3304.84
422.99	3365.69
423.18	3433.57
423.37	3393.78
423.56	3316.54
423.75	3449.95
423.94	3421.86
424.13	3145.68
424.32	3260.37
424.50	3272.07
424.69	3506.12
424.88	3445.27
425.07	3300.16
425.26	3260.37
425.45	3482.72
425.64	3403.14
425.83	3454.63
426.01	3456.97
426.20	3463.99
426.39	3482.72
426.58	3487.40
426.77	3337.60
426.96	3480.38
427.15	3473.36
427.33	3541.23
427.52	3595.06
427.71	3482.72
427.90	3595.06
428.09	3592.72
428.28	3393.78
428.46	3648.90
428.65	3613.79
428.84	3679.32
429.03	3782.31
429.22	3627.83
429.40	3618.47
429.59	3665.28
429.78	3588.04
429.97	3578.68
430.16	3721.45
430.34	3803.37
430.53	3742.52
430.72	3782.31
430.91	3761.24
431.10	3695.71
431.28	3946.14
431.47	3918.06
431.66	4009.34
431.85	3810.39
432.03	4011.68
432.22	4065.51
432.41	4042.11
432.60	3894.65
432.79	3976.57
432.97	4161.47
433.16	4072.53
433.35	4088.92
433.54	4107.64
433.72	4126.36
433.91	4105.30
434.10	4163.81
434.28	3960.19
434.47	4011.68
434.66	4252.75
434.85	4243.39
435.03	4227.01
435.22	4297.22
435.41	4386.16
435.59	4332.33
435.78	4383.82
435.97	4393.19
436.16	4210.62
436.34	4329.99
436.53	4432.97
436.72	4493.83
436.90	4374.46
437.09	4484.47
437.28	4395.53
437.46	4327.65
437.65	4557.02
437.84	4524.26
438.02	4456.38
438.21	4517.23
438.40	4547.66
438.58	4643.62
438.77	4856.61
438.96	4945.55
439.14	4837.89
439.33	4823.84
439.52	4800.44
439.70	4671.71
439.89	4865.97
440.08	4896.40
440.26	4919.81
440.45	4858.95
440.63	5062.58
440.82	5137.48
441.01	5142.16
441.19	5146.84
441.38	5151.52
441.57	5093.01
441.75	5233.44
441.94	5280.25
442.12	5390.25
442.31	5397.28
442.50	5331.74
442.68	5460.47
442.87	5352.81
443.05	5607.92
443.24	5593.88
443.43	5420.68
443.61	5453.45
443.80	5804.53
443.98	5570.48
444.17	5214.71
444.35	5551.75
444.54	5570.48
444.73	5504.94
444.91	5563.45
445.10	5509.62
445.28	5612.60
445.47	5554.09
445.65	5636.01
445.84	5713.25
446.02	5624.31
446.21	5495.58
446.39	5675.80
446.58	5654.73
446.77	5790.49
446.95	5582.18
447.14	5638.35
447.32	5806.87
447.51	5699.20
447.69	5722.61
447.88	5708.57
448.06	5778.78
448.25	5650.05
448.43	5757.72
448.62	5867.72
448.80	5727.29
448.99	5750.70
449.17	5778.78
449.36	5881.77
449.54	5940.28
449.73	6104.12
449.91	6094.76
450.10	5909.85
450.28	6115.82
450.46	6092.41
450.65	6001.13
450.83	6148.59
451.02	6146.25
451.20	6179.01
451.39	6160.29
451.57	6101.78
451.76	6207.10
451.94	6249.23
452.13	6373.28
452.31	6188.38
452.49	6099.44
452.68	6307.74
452.86	6228.17
453.05	6305.40
453.23	6457.54
453.42	6202.42
453.60	6169.65
453.78	6202.42
453.97	6452.86
454.15	6202.42
454.34	6186.04
454.52	6366.26
454.70	6389.66
454.89	6520.73
455.07	6413.07
455.26	6656.48
455.44	6551.16
455.62	6686.91
455.81	6693.93
455.99	6621.38
456.17	6684.57
456.36	6792.23
456.54	6836.70
456.73	6965.43
456.91	6855.43
457.09	6913.94
457.28	6949.05
457.46	6939.69
457.64	7019.27
457.83	7040.33
458.01	6864.79
458.19	7105.87
458.38	7035.65
458.56	7246.30
458.74	7122.25
458.93	7028.63
459.11	7115.23
459.29	7009.90
459.48	7255.66
459.66	7346.94
459.84	7091.82
460.03	7377.37
460.21	7417.16
460.39	7321.20
460.57	7379.71
460.76	7365.67
460.94	7442.90
461.12	7419.50
461.31	7330.56
461.49	7449.93
461.67	7428.86
461.85	7630.15
462.04	7588.02
462.22	8088.89
462.40	7583.34
462.59	7716.75
462.77	7779.94
462.95	7733.13
463.13	7793.98
463.32	7768.24
463.50	7829.09
463.68	7864.20
463.86	7798.66
464.05	7707.38
464.23	7616.10
464.41	7850.16
464.59	7735.47
464.78	8030.38
464.96	7871.22
465.14	7693.34
465.32	7990.59
465.50	8004.63
465.69	8091.23
465.87	8060.80
466.05	7889.95
466.23	8079.53
466.41	8018.68
466.60	8222.30
466.78	8091.23
466.96	7943.78
467.14	8100.59
467.32	8159.11
467.51	8269.11
467.69	8035.06
467.87	8035.06
468.05	8208.26
468.23	8215.28
468.41	8180.17
468.60	8217.62
468.78	8283.16
468.96	8407.20
469.14	8411.89
469.32	8582.74
469.50	8238.69
469.69	8482.10
469.87	8704.45
470.05	8538.27
470.23	8439.97
470.41	8493.80
470.59	8674.03
470.77	8648.28
470.95	8648.28
471.14	8702.11
471.32	8751.26
471.50	8968.93
471.68	8882.33
471.86	8957.23
472.04	8971.27
472.22	9210.01
472.40	9034.47
472.58	8978.30
472.77	9334.06
472.95	9415.98
473.13	9430.02
473.31	9291.93
473.49	9282.56
473.67	9301.29
473.85	9500.23
474.03	9495.55
474.21	9383.21
474.39	9659.39
474.57	9715.56
474.75	9673.43
474.93	9776.42
475.12	9874.72
475.30	9909.83
475.48	9764.72
475.66	9870.04
475.84	9781.10
476.02	10024.51
476.20	10015.15
476.38	10017.49
476.56	10300.70
476.74	10441.13
476.92	10141.54
477.10	10455.17
477.28	10576.88
477.46	10483.26
477.64	10637.73
477.82	10803.91
478.00	10944.34
478.18	10766.46
478.36	10876.47
478.54	11124.57
478.72	11194.78
478.90	11087.12
479.08	11349.26
479.26	11480.33
479.44	11534.16
479.62	11426.50
479.80	11618.42
479.98	12032.69
480.16	11852.47
480.34	11915.67
480.52	11910.99
480.70	12079.50
480.88	11999.93
481.06	12304.20
481.24	12084.19
481.41	12184.83
481.59	12659.96
481.77	12585.06
481.95	12709.11
482.13	12608.47
482.31	12601.44
482.49	12945.50
482.67	13057.85
482.85	13303.60
483.03	13439.36
483.21	13446.38
483.39	13591.49
483.57	13671.07
483.74	13621.92
483.92	13783.41
484.10	13865.33
484.28	13724.90
484.46	14136.84
484.64	14321.74
484.82	13944.91
485.00	14232.80
485.18	14539.41
485.35	14764.10
485.53	14494.94
485.71	14719.63
485.89	14970.07
486.07	14817.93
486.25	15068.37
486.43	14771.12
486.61	15253.27
486.78	15410.09
486.96	15492.01
487.14	15854.79
487.32	15756.49
487.50	15751.81
487.68	16112.25
487.85	16498.44
488.03	16397.79
488.21	16313.53
488.39	16458.65
488.57	16636.53
488.75	16706.74
488.92	17088.25
489.10	17214.64
489.28	17090.59
489.46	17219.32
489.64	17069.53
489.81	18054.89
489.99	17736.58
490.17	17980.00
490.35	18242.14
490.53	17958.93
490.70	18111.07
490.88	17916.80
491.06	18377.89
491.24	18040.85
491.41	18106.38
491.59	18820.25
491.77	18665.77
491.95	18850.67
492.13	18960.68
492.30	19033.24
492.48	19183.03
492.66	19782.21
492.84	19552.84
493.01	19618.37
493.19	19229.84
493.37	19695.61
493.54	20184.78
493.72	20250.32
493.90	20009.24
494.08	20549.90
494.25	20898.64
494.43	20425.86
494.61	20671.61
494.79	20908.01
494.96	20657.57
495.14	20727.78
495.32	21067.16
495.49	21195.89
495.67	21418.24
495.85	21310.58
496.02	21614.85
496.20	21788.05
496.38	21373.77
496.55	21907.41
496.73	22265.52
496.91	21944.86
497.09	22122.74
497.26	22195.30
497.44	21961.25
497.62	22307.65
497.79	22768.73
497.97	22305.31
498.14	22871.72
498.32	22845.97
498.50	23150.24
498.67	23232.16
498.85	23199.39
499.03	23508.34
499.20	23651.11
499.38	23517.70
499.56	23704.95
499.73	23931.98
499.91	23510.68
500.08	23992.83
500.26	23480.25
500.44	23824.31
500.61	24147.31
500.79	23936.66
500.97	24102.84
501.14	24449.24
501.32	24496.05
501.49	24554.56
501.67	24386.04
501.84	24606.05
502.02	24744.14
502.20	24964.15
502.37	25060.12
502.55	24982.88
502.72	25123.31
502.90	25359.70
503.07	25015.65
503.25	25174.80
503.43	25099.90
503.60	25254.38
503.78	25298.85
503.95	25158.42
504.13	25614.82
504.30	25656.95
504.48	25834.83
504.65	26019.74
504.83	26185.91
505.01	26347.41
505.18	26188.25
505.36	26368.48
505.53	25902.71
505.71	26476.14
505.88	26740.62
506.06	26394.22
506.23	26541.68
506.41	26684.45
506.58	26960.63
506.76	26948.93
506.93	27222.77
507.11	26689.13
507.28	26941.91
507.46	27300.01
507.63	27215.75
507.81	27194.68
507.98	27330.44
508.16	27559.81
508.33	27634.71
508.50	27461.51
508.68	27740.03
508.85	27630.02
509.03	27967.06
509.20	28432.83
509.38	28456.23
509.55	28435.17
509.73	28561.56
509.90	28603.69
510.08	28617.73
510.25	28652.84
510.42	28584.96
510.60	28496.02
510.77	28650.50
510.95	28713.69
511.12	29125.63
511.30	29127.97
511.47	29214.57
511.64	29113.92
511.82	29371.38
511.99	29310.53
512.17	29305.85
512.34	29425.22
512.51	29619.48
512.69	29916.73
512.86	30167.16
513.04	29998.65
513.21	29792.68
513.38	29413.51
513.56	29947.15
513.73	29593.73
513.90	30162.48
514.08	29605.44
514.25	30092.27
514.43	29944.81
514.60	29989.28
514.77	30331.00
514.95	30969.97
515.12	30361.43
515.29	30590.80
515.47	30604.84
515.64	30431.65
515.81	30710.17
515.99	30803.79
516.16	30714.85
516.33	30654.00
516.51	31232.11
516.68	31218.07
516.85	30895.07
517.03	30740.60
517.20	30946.56
517.37	31129.12
517.54	31110.40
517.72	31159.55
517.89	31449.78
518.06	31510.63
518.24	31693.19
518.41	31487.23
518.58	31908.52
518.75	31566.81
518.93	32048.96
519.10	32165.98
519.27	32116.83
519.45	31758.73
519.62	31999.80
519.79	32339.18
519.96	32535.79
520.14	32648.13
520.31	32301.73
520.48	32582.60
520.65	32236.20
520.83	32765.16
521.00	32694.94
521.17	32788.56
521.34	32739.41
521.52	33060.07
521.69	32781.54
521.86	33179.43
522.03	33144.33
522.20	33631.16
522.38	33439.23
522.55	33600.73
522.72	33427.53
522.89	33633.50
523.07	33514.13
523.24	33163.05
523.41	33200.50
523.58	33589.03
523.75	34181.18
523.92	33689.67
524.10	34216.29
524.27	34359.06
524.44	33930.75
524.61	34132.03
524.78	34651.63
524.96	34426.94
525.13	34132.03
525.30	34462.05
525.47	34838.87
525.64	34539.29
525.81	34604.82
525.98	34431.62
526.16	34445.66
526.33	34431.62
526.50	35367.84
526.67	34738.23
526.84	35189.95
527.01	34803.77
527.18	34965.26
527.36	34965.26
527.53	34789.72
527.70	35655.72
527.87	35564.44
528.04	35512.95
528.21	35276.55
528.38	35452.09
528.55	35751.68
528.72	35875.73
528.89	35613.59
529.07	35697.85
529.24	35555.08
529.41	35679.13
529.58	35754.02
529.75	35700.19
529.92	35819.56
530.09	35789.13
530.26	36100.42
530.43	36030.21
530.60	35955.31
530.77	35732.96
530.94	36301.71
531.11	36081.70
531.28	36357.88
531.46	36655.13
531.63	36039.57
531.80	36236.17
531.97	36488.95
532.14	36456.18
532.31	36517.04
532.48	36694.92
532.65	36666.83
532.82	36687.90
532.99	36882.16
533.16	36472.57
533.33	37179.41
533.50	37368.99
533.67	37048.34
533.84	36907.91
534.01	37368.99
534.18	36975.78
534.35	37387.72
534.52	36900.89
534.69	37343.25
534.86	37537.51
535.03	36861.10
535.20	37542.19
535.37	37535.17
535.54	37486.02
535.71	37598.37
535.88	37371.33
536.05	37699.01
536.22	37481.34
536.38	37516.45
536.55	37886.25
536.72	37642.84
536.89	37329.20
537.06	37853.48
537.23	37649.86
537.40	38099.24
537.57	38094.56
537.74	37874.55
537.91	38340.32
538.08	37968.17
538.25	37722.41
538.42	38052.43
538.59	38651.61
538.75	38082.86
538.92	38424.57
539.09	38770.97
539.26	38136.69
539.43	38293.50
539.60	38745.23
539.77	38693.74
539.94	38141.37
540.11	38583.73
540.28	38890.34
540.44	38799.06
540.61	39056.52
540.78	38438.62
540.95	38625.86
541.12	38735.87
541.29	38813.10
541.46	38939.49
541.62	39206.31
541.79	39557.39
541.96	38948.85
542.13	39005.03
542.30	39213.34
542.47	39267.17
542.63	39049.50
542.80	38927.79
542.97	39590.16
543.14	39557.39
543.31	39533.99
543.48	39627.61
543.64	40058.27
543.81	39721.23
543.98	39700.17
544.15	39929.54
544.32	40016.14
544.48	40559.14
544.65	39889.75
544.82	40126.14
544.99	40053.59
545.16	39969.33
545.32	40093.38
545.49	40355.52
545.66	40053.59
545.83	40381.26
546.00	40299.34
546.16	40177.64
546.33	39847.62
546.50	40275.94
546.67	40414.03
546.83	39821.87
547.00	40390.62
547.17	40416.37
547.34	40706.60
547.50	40254.87
547.67	40800.22
547.84	40645.74
548.00	40964.06
548.17	40823.62
548.34	40835.33
548.51	41081.08
548.67	40875.12
548.84	40411.69
549.01	40755.75
549.18	40772.13
549.34	40931.29
549.51	41111.51
549.68	41244.92
549.84	41060.02
550.01	41001.50
550.18	40847.03
550.34	40659.79
550.51	41109.17
550.68	41045.97
550.84	41310.46
551.01	40996.82
551.18	41340.88
551.34	41495.36
551.51	40980.44
551.68	41638.13
551.84	41727.07
552.01	41448.55
552.18	41481.31
552.34	41277.69
552.51	41820.69
552.68	41219.17
552.84	41816.01
553.01	42066.45
553.18	41577.28
553.34	41600.68
553.51	41933.04
553.67	41574.94
553.84	41860.48
554.01	41794.95
554.17	42499.45
554.34	42017.30
554.51	42305.18
554.67	42143.69
554.84	42300.50
555.00	41797.29
555.17	41574.94
555.33	42541.58
555.50	41619.41
555.67	41951.76
555.83	42113.26
556.00	42169.43
556.16	42588.39
556.33	42462.00
556.50	42068.79
556.66	42394.12
556.83	42064.11
556.99	42366.04
557.16	42164.75
557.32	42525.19
557.49	43044.79
557.65	42136.66
557.82	42579.03
557.98	42445.62
558.15	42356.67
558.32	42644.56
558.48	42396.46
558.65	42916.06
558.81	42389.44
558.98	42789.67
559.14	42775.63
559.31	42831.80
559.47	42579.03
559.64	42653.92
559.80	42817.76
559.97	42717.12
560.13	42155.39
560.30	42471.36
560.46	42899.68
560.63	42492.43
560.79	43091.60
560.96	43206.29
561.12	42897.34
561.29	42972.24
561.45	42667.97
561.61	42890.32
561.78	42782.65
561.94	42478.38
562.11	42909.04
562.27	42440.93
562.44	42981.60
562.60	43152.46
562.77	43349.06
562.93	42850.53
563.10	43086.92
563.26	42864.57
563.42	43100.97
563.59	43325.66
563.75	43093.94
563.92	43592.48
564.08	43033.09
564.24	43494.18
564.41	42918.40
564.57	43510.56
564.74	43199.27
564.90	43260.12
565.07	43400.55
565.23	42937.13
565.39	42890.32
565.56	43075.22
565.72	42834.14
565.88	43416.94
566.05	43517.58
566.21	43079.90
566.38	42986.28
566.54	43533.96
566.70	43328.00
566.87	43583.12
567.03	43079.90
567.19	43955.26
567.36	43695.46
567.52	43227.35
567.68	43281.19
567.85	43426.30
568.01	43529.28
568.17	43344.38
568.34	43920.15
568.50	43498.86
568.66	43239.06
568.83	43093.94
568.99	43606.52
569.15	43608.86
569.32	43445.02
569.48	43620.56
569.64	43730.57
569.81	43524.60
569.97	43140.75
570.13	43395.87
570.30	43365.45
570.46	42990.96
570.62	43210.97
570.78	42948.83
570.95	43234.38
571.11	43374.81
571.27	43573.75
571.43	43828.87
571.60	43512.90
571.76	43344.38
571.92	44165.91
572.09	43861.64
572.25	43540.99
572.41	43405.23
572.57	43519.92
572.74	43908.45
572.90	43550.35
573.06	43814.83
573.22	43782.06
573.38	44107.40
573.55	43552.69
573.71	43533.96
573.87	43597.16
574.03	43522.26
574.20	43510.56
574.36	43976.33
574.52	44137.82
574.68	43828.87
574.84	43328.00
575.01	43435.66
575.17	43683.76
575.33	43704.82
575.49	43491.83
575.65	44481.88
575.82	43777.38
575.98	43779.72
576.14	44126.12
576.30	43791.42
576.46	43810.15
576.62	43526.94
576.79	43494.18
576.95	43775.04
577.11	43835.89
577.27	43959.94
577.43	43894.41
577.59	44011.43
577.75	43777.38
577.92	43840.57
578.08	43775.04
578.24	43915.47
578.40	43744.61
578.56	43931.86
578.72	44236.12
578.88	44425.71
579.04	43892.07
579.21	43796.10
579.37	44170.59
579.53	44151.87
579.69	43971.64
579.85	44130.80
580.01	44030.16
580.17	44238.47
580.33	44374.22
580.49	44016.11
580.65	44011.43
580.82	44088.67
580.98	44250.17
581.14	44264.21
581.30	44289.96
581.46	44055.90
581.62	43620.56
581.78	43746.95
581.94	44390.60
582.10	43833.55
582.26	44144.84
582.42	44030.16
582.58	44053.56
582.74	44060.58
582.90	44423.37
583.06	44095.69
583.22	44294.64
583.38	43786.74
583.54	43906.11
583.70	43768.02
583.86	44107.40
584.02	43761.00
584.18	44278.25
584.34	44315.70
584.50	44044.20
584.66	43927.17
584.82	43943.56
584.98	44334.43
585.14	44397.62
585.30	43831.21
585.46	43887.39
585.62	43882.70
585.78	44013.77
585.94	43398.21
586.10	43700.14
586.26	44119.10
586.42	44378.90
586.58	44458.48
586.74	43686.10
586.90	43880.36
587.06	43779.72
587.22	44252.51
587.38	43660.35
587.54	44137.82
587.70	44425.71
587.86	44414.01
588.02	44451.45
588.18	44093.35
588.34	44011.43
588.49	43791.42
588.65	43400.55
588.81	43852.28
588.97	43990.37
589.13	43910.79
589.29	44247.83
589.45	44292.30
589.61	44278.25
589.77	44219.74
589.93	44119.10
590.08	44570.82
590.24	44289.96
590.40	44406.98
