SpectraSuite Data File
++++++++++++++++++++++++++++++++++++
Date: Fri Oct 25 11:34:27 EDT 2013
User: price-jones
Dark Spectrum Present: No
Reference Spectrum Present: No
Number of Sampled Component Spectra: 1
Spectrometers: USB2+H05261
Integration Time (usec): 100000 (USB2+H05261)
Spectra Averaged: 1 (USB2+H05261)
Boxcar Smoothing: 0 (USB2+H05261)
Correct for Electrical Dark: No (USB2+H05261)
Strobe/Lamp Enabled: No (USB2+H05261)
Correct for Detector Non-linearity: No (USB2+H05261)
Correct for Stray Light: No (USB2+H05261)
Number of Pixels in Processed Spectrum: 2048
>>>>>Begin Processed Spectral Data<<<<<
365.73	259.80
365.92	259.80
366.12	259.80
366.32	198.95
366.52	124.05
366.72	142.77
366.91	124.05
367.11	220.01
367.31	138.09
367.51	156.82
367.70	191.92
367.90	95.96
368.10	231.71
368.30	236.39
368.49	194.26
368.69	266.82
368.89	301.93
369.09	212.99
369.28	252.78
369.48	217.67
369.68	168.52
369.87	215.33
370.07	227.03
370.27	234.05
370.47	344.06
370.66	496.19
370.86	526.62
371.06	594.50
371.25	568.75
371.45	507.90
371.65	493.85
371.84	580.45
372.04	524.28
372.24	582.79
372.44	585.13
372.63	573.43
372.83	510.24
373.03	521.94
373.22	634.29
373.42	657.69
373.62	631.94
373.81	706.84
374.01	580.45
374.21	638.97
374.40	585.13
374.60	706.84
374.79	613.22
374.99	678.76
375.19	617.90
375.38	660.03
375.58	650.67
375.78	636.63
375.97	657.69
376.17	650.67
376.37	660.03
376.56	648.33
376.76	634.29
376.95	613.22
377.15	744.29
377.35	697.48
377.54	692.80
377.74	631.94
377.93	622.58
378.13	685.78
378.33	730.25
378.52	636.63
378.72	730.25
378.91	737.27
379.11	706.84
379.31	667.05
379.50	688.12
379.70	664.71
379.89	655.35
380.09	746.63
380.28	641.31
380.48	763.01
380.68	699.82
380.87	809.83
381.07	779.40
381.26	763.01
381.46	734.93
381.65	739.61
381.85	678.76
382.04	697.48
382.24	744.29
382.43	737.27
382.63	744.29
382.83	777.06
383.02	821.53
383.22	718.54
383.41	716.20
383.61	760.67
383.80	807.48
384.00	840.25
384.19	819.19
384.39	830.89
384.58	795.78
384.78	777.06
384.97	795.78
385.17	774.72
385.36	788.76
385.56	847.27
385.75	777.06
385.95	880.04
386.14	807.48
386.34	898.77
386.53	795.78
386.72	805.14
386.92	826.21
387.11	884.72
387.31	868.34
387.50	791.10
387.70	964.30
387.89	1011.11
388.09	889.40
388.28	763.01
388.48	943.24
388.67	915.15
388.86	908.13
389.06	954.94
389.25	917.49
389.45	957.28
389.64	922.17
389.84	978.34
390.03	976.00
390.22	943.24
390.42	983.02
390.61	856.64
390.81	968.98
391.00	933.87
391.19	950.26
391.39	959.62
391.58	938.55
391.78	936.21
391.97	947.92
392.16	950.26
392.36	1086.01
392.55	1057.92
392.75	987.71
392.94	983.02
393.13	1097.71
393.33	1008.77
393.52	987.71
393.71	1048.56
393.91	1039.20
394.10	1057.92
394.29	1057.92
394.49	1083.67
394.68	1109.41
394.88	1144.52
395.07	1102.39
395.26	1097.71
395.46	1181.97
395.65	1135.16
395.84	1165.59
396.04	1163.25
396.23	1160.91
396.42	1156.22
396.62	1062.60
396.81	1167.93
397.00	1179.63
397.19	1142.18
397.39	1163.25
397.58	1233.46
397.77	1191.33
397.97	1231.12
398.16	1177.29
398.35	1256.87
398.55	1247.51
398.74	1214.74
398.93	1299.00
399.12	1238.14
399.32	1177.29
399.51	1259.21
399.70	1275.59
399.90	1308.36
400.09	1301.34
400.28	1380.92
400.47	1287.29
400.67	1315.38
400.86	1399.64
401.05	1310.70
401.24	1294.32
401.44	1331.76
401.63	1373.89
401.82	1411.34
402.01	1390.28
402.21	1359.85
402.40	1446.45
402.59	1399.64
402.78	1437.09
402.97	1434.75
403.17	1526.03
403.36	1514.33
403.55	1551.78
403.74	1488.58
403.93	1448.79
404.13	1554.12
404.32	1540.07
404.51	1664.12
404.70	1509.65
404.89	1544.75
405.09	1687.53
405.28	1708.59
405.47	1612.63
405.66	1607.95
405.85	1645.40
406.05	1657.10
406.24	1675.82
406.43	1699.23
406.62	1675.82
406.81	1776.47
407.00	1753.06
407.20	1703.91
407.39	1849.02
407.58	1926.26
407.77	1884.13
407.96	1844.34
408.15	1797.53
408.34	1757.74
408.54	1916.90
408.73	1888.81
408.92	1825.62
409.11	1748.38
409.30	1879.45
409.49	1935.62
409.68	1940.30
409.87	1863.07
410.07	1870.09
410.26	1959.03
410.45	1998.82
410.64	1937.96
410.83	2106.48
411.02	2118.18
411.21	2136.91
411.40	2062.01
411.59	2108.82
411.78	2179.04
411.98	2162.66
412.17	2249.25
412.36	2132.23
412.55	2155.63
412.74	2279.68
412.93	2223.51
413.12	2221.17
413.31	2246.91
413.50	2342.88
413.69	2286.70
413.88	2373.30
414.07	2326.49
414.26	2410.75
414.45	2410.75
414.64	2408.41
414.83	2422.45
415.02	2422.45
415.22	2581.61
415.41	2562.89
415.60	2490.33
415.79	2583.95
415.98	2630.76
416.17	2609.70
416.36	2595.65
416.55	2626.08
416.74	2595.65
416.93	2630.76
417.12	2595.65
417.31	2782.90
417.50	2775.88
417.69	2803.96
417.88	2806.30
418.07	2799.28
418.26	2785.24
418.45	2885.88
418.64	3073.12
418.83	2909.29
419.02	2935.03
419.21	3063.76
419.39	3028.65
419.58	3077.80
419.77	2988.86
419.96	2995.89
420.15	3005.25
420.34	3211.22
420.53	3066.10
420.72	3009.93
420.91	3129.30
421.10	3035.67
421.29	3220.58
421.48	3225.26
421.67	3197.17
421.86	3251.00
422.05	3159.72
422.24	3190.15
422.43	3215.90
422.61	3286.11
422.80	3356.33
422.99	3173.77
423.18	3229.94
423.37	3393.78
423.56	3220.58
423.75	3346.97
423.94	3187.81
424.13	3014.61
424.32	3183.13
424.50	3243.98
424.69	3435.91
424.88	3321.22
425.07	3227.60
425.26	3281.43
425.45	3260.37
425.64	3391.44
425.83	3353.99
426.01	3386.76
426.20	3447.61
426.39	3353.99
426.58	3391.44
426.77	3496.76
426.96	3494.42
427.15	3412.50
427.33	3431.23
427.52	3372.71
427.71	3459.31
427.90	3421.86
428.09	3522.51
428.28	3461.65
428.46	3370.37
428.65	3368.03
428.84	3606.77
429.03	3693.37
429.22	3445.27
429.40	3681.66
429.59	3726.13
429.78	3538.89
429.97	3545.91
430.16	3590.38
430.34	3786.99
430.53	3742.52
430.72	3798.69
430.91	3648.90
431.10	3632.51
431.28	3772.94
431.47	3791.67
431.66	3889.97
431.85	3786.99
432.03	3882.95
432.22	3922.74
432.41	3941.46
432.60	3906.35
432.79	3868.91
432.97	3880.61
433.16	3866.56
433.35	3995.29
433.54	4018.70
433.72	4002.32
433.91	3976.57
434.10	3997.64
434.28	3854.86
434.47	4014.02
434.66	4021.04
434.85	4145.09
435.03	4278.50
435.22	4168.49
435.41	4339.35
435.59	4194.24
435.78	4067.85
435.97	4269.14
436.16	4154.45
436.34	4344.03
436.53	4257.43
436.72	4395.53
436.90	4278.50
437.09	4358.08
437.28	4210.62
437.46	4395.53
437.65	4411.91
437.84	4355.74
438.02	4416.59
438.21	4566.39
438.40	4423.61
438.58	4657.67
438.77	4627.24
438.96	4496.17
439.14	4770.01
439.33	4683.41
439.52	4741.93
439.70	4798.10
439.89	4875.34
440.08	4854.27
440.26	4767.67
440.45	4870.65
440.63	4898.74
440.82	4865.97
441.01	4858.95
441.19	5095.35
441.38	5095.35
441.57	5048.54
441.75	4985.34
441.94	5142.16
442.12	5100.03
442.31	5181.95
442.50	5268.55
442.68	5179.61
442.87	5317.70
443.05	5310.68
443.24	5254.50
443.43	5296.63
443.61	5231.10
443.80	5619.63
443.98	5200.67
444.17	5085.98
444.35	5413.66
444.54	5418.34
444.73	5238.12
444.91	5413.66
445.10	5313.02
445.28	5472.17
445.47	5406.64
445.65	5530.69
445.84	5441.75
446.02	5528.35
446.21	5453.45
446.39	5474.51
446.58	5530.69
446.77	5577.50
446.95	5591.54
447.14	5423.02
447.32	5547.07
447.51	5526.00
447.69	5303.65
447.88	5469.83
448.06	5521.32
448.25	5612.60
448.43	5603.24
448.62	5526.00
448.80	5668.78
448.99	5778.78
449.17	5738.99
449.36	5523.66
449.54	5661.76
449.73	5778.78
449.91	5874.74
450.10	5921.56
450.28	5781.12
450.46	5858.36
450.65	5827.93
450.83	6003.47
451.02	5776.44
451.20	5944.96
451.39	5841.98
451.57	5708.57
451.76	5921.56
451.94	6022.20
452.13	6036.24
452.31	6008.16
452.49	5982.41
452.68	6008.16
452.86	6176.67
453.05	6099.44
453.23	6080.71
453.42	6026.88
453.60	6134.54
453.78	6246.89
453.97	6162.63
454.15	5989.43
454.34	6197.74
454.52	6373.28
454.70	6218.80
454.89	6310.08
455.07	6436.47
455.26	6340.51
455.44	6420.09
455.62	6396.68
455.81	6291.36
455.99	6314.77
456.17	6429.45
456.36	6417.75
456.54	6466.90
456.73	6612.01
456.91	6792.23
457.09	6626.06
457.28	6796.92
457.46	6803.94
457.64	6890.54
457.83	6733.72
458.01	6803.94
458.19	6995.86
458.38	6754.79
458.56	6960.75
458.74	6979.48
458.93	6860.11
459.11	6892.88
459.29	6792.23
459.48	6909.26
459.66	7148.00
459.84	7084.80
460.03	7171.40
460.21	7155.02
460.39	7162.04
460.57	7103.53
460.76	7258.00
460.94	7239.28
461.12	7178.42
461.31	7229.91
461.49	7164.38
461.67	7084.80
461.85	7248.64
462.04	7199.49
462.22	7733.13
462.40	7487.37
462.59	7485.03
462.77	7311.83
462.95	7487.37
463.13	7559.93
463.32	7517.80
463.50	7726.11
463.68	7515.46
463.86	7719.09
464.05	7389.07
464.23	7421.84
464.41	7805.69
464.59	7379.71
464.78	7669.94
464.96	7662.91
465.14	7559.93
465.32	7672.28
465.50	7707.38
465.69	7866.54
465.87	7723.77
466.05	7793.98
466.23	7721.43
466.41	7810.37
466.60	8133.36
466.78	7857.18
466.96	7747.17
467.14	7957.82
467.32	7969.52
467.51	7953.14
467.69	7698.02
467.87	7939.10
468.05	7978.89
468.23	8114.64
468.41	7943.78
468.60	8393.16
468.78	8224.64
468.96	8112.30
469.14	8271.45
469.32	8259.75
469.50	7962.50
469.69	8381.46
469.87	8278.47
470.05	8308.90
470.23	8362.73
470.41	8477.42
470.59	8430.61
470.77	8334.65
470.95	8664.66
471.14	8741.90
471.32	8245.71
471.50	8533.59
471.68	8594.45
471.86	8652.96
472.04	8800.41
472.22	9114.05
472.40	8819.14
472.58	8791.05
472.77	8840.20
472.95	9121.07
473.13	9343.42
473.31	8879.99
473.49	8978.30
473.67	8926.80
473.85	8975.95
474.03	9130.43
474.21	9392.57
474.39	9338.74
474.57	9252.14
474.75	9373.85
474.93	9565.77
475.12	9530.66
475.30	9575.13
475.48	9631.30
475.66	9811.53
475.84	9610.24
476.02	9771.74
476.20	10076.01
476.38	10045.58
476.56	9980.04
476.74	10253.89
476.92	10054.94
477.10	10106.43
477.28	10143.88
477.46	10057.28
477.64	10406.02
477.82	10593.26
478.00	10778.17
478.18	10623.69
478.36	10684.55
478.54	10883.49
478.72	10930.30
478.90	11014.56
479.08	11059.03
479.26	11295.43
479.44	11126.91
479.62	11419.47
479.80	11377.34
479.98	11358.62
480.16	11899.28
480.34	11501.39
480.52	11894.60
480.70	11611.40
480.88	11644.17
481.06	11719.06
481.24	11791.62
481.41	11925.03
481.59	12131.00
481.77	12306.54
481.95	12456.33
482.13	12365.05
482.31	12318.24
482.49	12692.73
482.67	12840.18
482.85	12793.37
483.03	12915.08
483.21	13013.38
483.39	13282.54
483.57	13081.25
483.74	13284.88
483.92	13165.51
484.10	13406.59
484.28	13621.92
484.46	14059.60
484.64	14136.84
484.82	14031.51
485.00	14195.35
485.18	14174.28
485.35	14274.93
485.53	14345.14
485.71	14544.09
485.89	14583.88
486.07	14663.46
486.25	14768.78
486.43	14927.94
486.61	14927.94
486.78	15059.01
486.96	15012.20
487.14	15295.40
487.32	15426.47
487.50	15489.67
487.68	15669.89
487.85	15712.02
488.03	16243.32
488.21	16039.69
488.39	15843.09
488.57	16402.47
488.75	16343.96
488.92	16737.17
489.10	16901.01
489.28	16570.99
489.46	16964.20
489.64	16798.02
489.81	17078.89
489.99	17575.08
490.17	17469.76
490.35	17481.46
490.53	17434.65
490.70	17806.80
490.88	17671.04
491.06	18113.41
491.24	18092.34
491.41	18073.62
491.59	18312.35
491.77	18602.58
491.95	18286.61
492.13	18768.76
492.30	19002.81
492.48	18663.43
492.66	19000.47
492.84	19164.31
493.01	19592.62
493.19	19314.10
493.37	19571.56
493.54	19414.74
493.72	19508.37
493.90	19744.76
494.08	19758.80
494.25	20095.84
494.43	20039.67
494.61	20311.17
494.79	20339.26
494.96	20397.77
495.14	20540.54
495.32	20685.65
495.49	20645.87
495.67	20769.91
495.85	20739.49
496.02	21149.08
496.20	21310.58
496.38	21514.20
496.55	21776.34
496.73	21715.49
496.91	21785.71
497.09	22066.57
497.26	21970.61
497.44	21956.57
497.62	22089.98
497.79	22204.66
497.97	22237.43
498.14	22338.07
498.32	23087.04
498.50	22670.43
498.67	22712.56
498.85	22860.01
499.03	23070.66
499.20	23180.67
499.38	23161.94
499.56	23417.06
499.73	23386.63
499.91	23637.07
500.08	23484.94
500.26	23379.61
500.44	23786.86
500.61	23522.38
500.79	23761.12
500.97	23749.42
501.14	24477.32
501.32	24091.13
501.49	24393.06
501.67	24133.26
501.84	24566.26
502.02	24336.89
502.20	24123.90
502.37	24608.39
502.55	24713.72
502.72	24971.18
502.90	24610.73
503.07	24709.04
503.25	24542.86
503.43	24746.48
503.60	24975.86
503.78	25331.62
503.95	25233.32
504.13	25380.77
504.30	25486.09
504.48	25312.89
504.65	25568.01
504.83	26010.37
505.01	25928.45
505.18	25804.41
505.36	26064.21
505.53	25891.01
505.71	26270.17
505.88	26352.09
506.06	26235.06
506.23	26490.18
506.41	26132.08
506.58	26349.75
506.76	26471.46
506.93	26590.83
507.11	26735.94
507.28	27204.05
507.46	27098.72
507.63	26871.69
507.81	27047.23
507.98	26714.87
508.16	27103.40
508.33	27445.12
508.50	27316.39
508.68	27440.44
508.85	28034.94
509.03	28002.17
509.20	27679.18
509.38	28027.92
509.55	27791.52
509.73	28161.33
509.90	28177.71
510.08	27999.83
510.25	27789.18
510.42	28519.43
510.60	28285.37
510.77	28451.55
510.95	28910.30
511.12	28388.36
511.30	28477.30
511.47	28833.06
511.64	28819.02
511.82	29057.75
511.99	28907.96
512.17	29160.73
512.34	28987.53
512.51	29675.65
512.69	29596.07
512.86	29350.32
513.04	29535.22
513.21	29612.46
513.38	29869.92
513.56	29708.42
513.73	29745.87
513.90	29743.53
514.08	29972.90
514.25	30106.31
514.43	29958.86
514.60	30487.82
514.77	30284.19
514.95	30272.49
515.12	30017.37
515.29	30333.34
515.47	30857.62
515.64	30888.05
515.81	30457.39
515.99	30726.55
516.16	31000.40
516.33	30974.65
516.51	30939.54
516.68	30916.14
516.85	30670.38
517.03	31346.79
517.20	31082.31
517.37	31089.34
517.54	31274.24
517.72	31646.38
517.89	31175.94
518.06	31398.29
518.24	31817.24
518.41	31438.08
518.58	31477.86
518.75	31187.64
518.93	32016.19
519.10	31803.20
519.27	32055.98
519.45	31470.84
519.62	32385.99
519.79	31892.14
519.96	32123.85
520.14	32231.52
520.31	32016.19
520.48	33029.64
520.65	32737.07
520.83	32877.51
521.00	32753.46
521.17	32741.75
521.34	32877.51
521.52	33099.86
521.69	32926.66
521.86	33205.18
522.03	33137.30
522.20	33354.97
522.38	33282.42
522.55	33481.36
522.72	33928.41
522.89	33553.92
523.07	34113.31
523.24	33628.82
523.41	33954.15
523.58	33539.88
523.75	33886.28
523.92	33780.95
524.10	34160.12
524.27	33666.27
524.44	33940.11
524.61	34328.64
524.78	34438.64
524.96	34389.49
525.13	34724.19
525.30	34597.80
525.47	34387.15
525.64	34752.27
525.81	34270.12
525.98	34572.05
526.16	34707.80
526.33	34293.53
526.50	34831.85
526.67	34794.40
526.84	34574.39
527.01	34763.98
527.18	34937.18
527.36	35271.87
527.53	35374.86
527.70	35826.58
527.87	35580.82
528.04	35248.47
528.21	35639.34
528.38	35526.99
528.55	35597.21
528.72	35704.87
528.89	35276.55
529.07	35744.66
529.24	35901.48
529.41	35571.46
529.58	35517.63
529.75	35744.66
529.92	36062.97
530.09	35941.27
530.26	36095.74
530.43	35852.33
530.60	35646.36
530.77	35943.61
530.94	35952.97
531.11	35992.76
531.28	36587.25
531.46	36208.09
531.63	36495.97
531.80	36170.64
531.97	36584.91
532.14	36407.03
532.31	36804.92
532.48	36713.64
532.65	37141.96
532.82	37109.19
532.99	36823.65
533.16	36690.24
533.33	36989.83
533.50	36903.23
533.67	37083.45
533.84	37368.99
534.01	37008.55
534.18	36999.19
534.35	37633.47
534.52	37371.33
534.69	37839.44
534.86	37577.30
535.03	37949.45
535.20	37794.97
535.37	37748.16
535.54	37612.41
535.71	37958.81
535.88	38213.93
536.05	37305.80
536.22	38157.75
536.38	37743.48
536.55	37801.99
536.72	38043.07
536.89	37907.32
537.06	38059.45
537.23	38162.43
537.40	38192.86
537.57	38059.45
537.74	37916.68
537.91	38333.29
538.08	38464.36
538.25	38185.84
538.42	38078.18
538.59	38710.12
538.75	38518.20
538.92	38675.01
539.09	39030.77
539.26	38618.84
539.43	38618.84
539.60	38572.03
539.77	38440.96
539.94	39035.45
540.11	39049.50
540.28	38766.29
540.44	39194.61
540.61	38990.98
540.78	39372.49
540.95	39372.49
541.12	38878.64
541.29	38789.70
541.46	39023.75
541.62	39281.21
541.79	39370.15
541.96	39019.07
542.13	38937.15
542.30	39475.48
542.47	39445.05
542.63	39718.89
542.80	39608.89
542.97	39920.18
543.14	40306.37
543.31	39688.46
543.48	39910.82
543.64	40561.48
543.81	40388.28
543.98	40318.07
544.15	40339.13
544.32	40189.34
544.48	40526.38
544.65	40392.97
544.82	40587.23
544.99	40596.59
545.16	40369.56
545.32	40123.80
545.49	40479.57
545.66	41085.76
545.83	40648.08
546.00	40910.22
546.16	40795.54
546.33	40545.10
546.50	40554.46
546.67	40683.19
546.83	41050.66
547.00	40987.46
547.17	40580.21
547.34	40980.44
547.50	41148.96
547.67	41462.59
547.84	41490.68
548.00	40933.63
548.17	41418.12
548.34	41591.32
548.51	41549.19
548.67	41331.52
548.84	40989.80
549.01	41095.13
549.18	41670.90
549.34	41715.37
549.51	41448.55
549.68	41563.23
549.84	41593.66
550.01	41823.03
550.18	41184.07
550.34	41560.89
550.51	41951.76
550.68	41993.89
550.84	41745.80
551.01	41879.21
551.18	41488.34
551.34	41928.36
551.51	41572.60
551.68	41827.71
551.84	41867.50
552.01	42036.02
552.18	42085.17
552.34	42295.82
552.51	42312.20
552.68	42092.19
552.84	42075.81
553.01	43021.39
553.18	42183.48
553.34	42476.04
553.51	42377.74
553.67	42454.98
553.84	42562.64
554.01	42305.18
554.17	42384.76
554.34	42693.71
554.51	42625.84
554.67	43016.71
554.84	42473.70
555.00	42780.31
555.17	42761.59
555.33	42712.44
555.50	42450.30
555.67	42593.07
555.83	42710.10
556.00	42768.61
556.16	43374.81
556.33	43442.68
556.50	43000.32
556.66	42897.34
556.83	42714.78
556.99	43405.23
557.16	43510.56
557.32	43161.82
557.49	42775.63
557.65	43236.72
557.82	42909.04
557.98	43622.90
558.15	42916.06
558.32	43157.14
558.48	43079.90
558.65	43058.84
558.81	43393.53
558.98	43388.85
559.14	43250.76
559.31	42953.51
559.47	43281.19
559.64	43283.53
559.80	43597.16
559.97	43800.79
560.13	43459.07
560.30	43372.47
560.46	43634.61
560.63	43538.65
560.79	43655.67
560.96	43508.22
561.12	43791.42
561.29	43922.49
561.45	43728.23
561.61	43540.99
561.78	43501.20
561.94	43243.74
562.11	43838.23
562.27	43835.89
562.44	43875.68
562.60	44086.33
562.77	44205.70
562.93	44215.06
563.10	43704.82
563.26	44079.31
563.42	44322.72
563.59	43943.56
563.75	44034.84
563.92	44004.41
564.08	44165.91
564.24	44184.63
564.41	44016.11
564.57	43910.79
564.74	44156.55
564.90	44154.21
565.07	43770.36
565.23	44109.74
565.39	44299.32
565.56	44205.70
565.72	43995.05
565.88	44402.30
566.05	43772.70
566.21	44062.93
566.38	44238.47
566.54	44357.83
566.70	44477.20
566.87	44488.90
567.03	44278.25
567.19	44776.79
567.36	44666.78
567.52	44076.97
567.68	45123.19
567.85	44610.61
568.01	44505.29
568.17	44355.49
568.34	44608.27
568.50	44655.08
568.66	44123.78
568.83	44718.28
568.99	44545.08
569.15	44453.79
569.32	44437.41
569.48	44617.63
569.64	45151.27
569.81	44987.44
569.97	44790.83
570.13	44816.58
570.30	44491.24
570.46	44851.69
570.62	44814.24
570.78	44369.54
570.95	44446.77
571.11	45104.46
571.27	44540.39
571.43	45083.40
571.60	44516.99
571.76	44395.28
571.92	44741.68
572.09	44755.72
572.25	44973.39
572.41	44664.44
572.57	44788.49
572.74	45064.67
572.90	44781.47
573.06	45139.57
573.22	44753.38
573.38	44940.63
573.55	45001.48
573.71	45696.62
573.87	45146.59
574.03	44964.03
574.20	45303.41
574.36	45062.33
574.52	45160.64
574.68	45022.54
574.84	45280.00
575.01	45272.98
575.17	44823.60
575.33	45029.57
575.49	45071.70
575.65	45394.69
575.82	45109.14
575.98	44746.36
576.14	45319.79
576.30	45380.65
576.46	45303.41
576.62	44699.55
576.79	45113.83
576.95	44694.87
577.11	44816.58
577.27	44804.88
577.43	44933.60
577.59	45130.21
577.75	45263.62
577.92	45191.06
578.08	45214.47
578.24	45495.33
578.40	45287.03
578.56	45076.38
578.72	45296.39
578.88	45308.09
579.04	45371.28
579.21	45165.32
579.37	45783.22
579.53	45202.77
579.69	44657.42
579.85	44992.12
580.01	45464.91
580.17	45104.46
580.33	45633.42
580.49	45020.20
580.65	45240.21
580.82	45062.33
580.98	45399.37
581.14	44802.53
581.30	45492.99
581.46	44921.90
581.62	45102.12
581.78	45125.53
581.94	45514.06
582.10	45450.86
582.26	45696.62
582.42	45008.50
582.58	45422.78
582.74	45041.27
582.90	45354.90
583.06	45287.03
583.22	44919.56
583.38	45326.81
583.54	45598.32
583.70	45518.74
583.86	45617.04
584.02	45181.70
584.18	45851.09
584.34	45343.20
584.50	45500.01
584.66	45638.11
584.82	45392.35
584.98	45977.48
585.14	45722.37
585.30	45062.33
585.46	45764.49
585.62	45294.05
585.78	45504.70
585.94	45085.74
586.10	45387.67
586.26	45265.96
586.42	45408.73
586.58	45544.48
586.74	45443.84
586.90	45340.86
587.06	45443.84
587.22	45654.49
587.38	45230.85
587.54	45958.76
587.70	45799.60
587.86	45731.73
588.02	45610.02
588.18	45811.31
588.34	45563.21
588.49	45729.39
588.65	45736.41
588.81	45895.56
588.97	45413.41
589.13	45436.82
589.29	45345.54
589.45	45963.44
589.61	45696.62
589.77	45741.09
589.93	46010.25
590.08	45394.69
