SpectraSuite Data File
++++++++++++++++++++++++++++++++++++
Date: Fri Oct 25 10:46:54 EDT 2013
User: price-jones
Dark Spectrum Present: No
Reference Spectrum Present: No
Number of Sampled Component Spectra: 1
Spectrometers: USB2+H05261
Integration Time (usec): 100000 (USB2+H05261)
Spectra Averaged: 1 (USB2+H05261)
Boxcar Smoothing: 0 (USB2+H05261)
Correct for Electrical Dark: No (USB2+H05261)
Strobe/Lamp Enabled: No (USB2+H05261)
Correct for Detector Non-linearity: No (USB2+H05261)
Correct for Stray Light: No (USB2+H05261)
Number of Pixels in Processed Spectrum: 2048
>>>>>Begin Processed Spectral Data<<<<<
365.73	140.43
365.92	140.43
366.12	140.43
366.32	79.58
366.52	67.88
366.72	102.98
366.91	70.22
367.11	23.41
367.31	0.00
367.51	2.34
367.70	2.34
367.90	30.43
368.10	79.58
368.30	51.49
368.49	84.26
368.69	23.41
368.89	32.77
369.09	51.49
369.28	67.88
369.48	133.41
369.68	63.19
369.87	114.69
370.07	107.66
370.27	142.77
370.47	156.82
370.66	320.65
370.86	411.93
371.06	479.81
371.25	521.94
371.45	374.49
371.65	521.94
371.84	425.98
372.04	461.09
372.24	482.15
372.44	411.93
372.63	599.18
372.83	561.73
373.03	547.69
373.22	498.53
373.42	470.45
373.62	554.71
373.81	557.05
374.01	596.84
374.21	538.32
374.40	557.05
374.60	564.07
374.79	543.00
374.99	641.31
375.19	592.16
375.38	681.10
375.58	608.54
375.78	657.69
375.97	636.63
376.17	638.97
376.37	641.31
376.56	678.76
376.76	610.88
376.95	683.44
377.15	568.75
377.35	676.41
377.54	620.24
377.74	638.97
377.93	692.80
378.13	678.76
378.33	704.50
378.52	582.79
378.72	823.87
378.91	667.05
379.11	725.57
379.31	706.84
379.50	636.63
379.70	671.73
379.89	688.12
380.09	669.39
380.28	727.91
380.48	669.39
380.68	685.78
380.87	784.08
381.07	713.86
381.26	671.73
381.46	723.23
381.65	744.29
381.85	711.52
382.04	690.46
382.24	653.01
382.43	671.73
382.63	653.01
382.83	777.06
383.02	763.01
383.22	730.25
383.41	697.48
383.61	737.27
383.80	919.83
384.00	709.18
384.19	842.59
384.39	812.17
384.58	821.53
384.78	814.51
384.97	800.46
385.17	800.46
385.36	819.19
385.56	887.06
385.75	823.87
385.95	779.40
386.14	840.25
386.34	835.57
386.53	915.15
386.72	786.42
386.92	863.66
387.11	887.06
387.31	924.51
387.50	903.45
387.70	826.21
387.89	933.87
388.09	875.36
388.28	798.12
388.48	891.74
388.67	849.61
388.86	896.43
389.06	924.51
389.25	964.30
389.45	1020.47
389.64	992.39
389.84	891.74
390.03	1043.88
390.22	1013.45
390.42	954.94
390.61	980.68
390.81	1034.52
391.00	1036.86
391.19	1090.69
391.39	1135.16
391.58	1015.79
391.78	943.24
391.97	1001.75
392.16	1015.79
392.36	1121.12
392.55	1060.26
392.75	1022.81
392.94	1036.86
393.13	1081.33
393.33	994.73
393.52	1081.33
393.71	1011.11
393.91	1130.48
394.10	1029.84
394.29	1137.50
394.49	1235.80
394.68	1179.63
394.88	1128.14
395.07	1299.00
395.26	1196.01
395.46	1207.72
395.65	1306.02
395.84	1231.12
396.04	1310.70
396.23	1165.59
396.42	1179.63
396.62	1167.93
396.81	1219.42
397.00	1226.44
397.19	1336.45
397.39	1310.70
397.58	1376.24
397.77	1455.81
397.97	1479.22
398.16	1420.71
398.35	1385.60
398.55	1439.43
398.74	1390.28
398.93	1446.45
399.12	1458.15
399.32	1502.62
399.51	1441.77
399.70	1568.16
399.90	1511.99
400.09	1668.80
400.28	1577.52
400.47	1645.40
400.67	1528.37
400.86	1680.50
401.05	1591.56
401.24	1701.57
401.44	1645.40
401.63	1715.61
401.82	1753.06
402.01	1666.46
402.21	1743.70
402.40	1652.42
402.59	1659.44
402.78	1724.97
402.97	1732.00
403.17	1743.70
403.36	1732.00
403.55	1867.75
403.74	1844.34
403.93	1830.30
404.13	1795.19
404.32	1774.13
404.51	1858.39
404.70	2003.50
404.89	1816.26
405.09	1966.05
405.28	1994.14
405.47	1970.73
405.66	1937.96
405.85	1994.14
406.05	1956.69
406.24	2022.22
406.43	2017.54
406.62	1975.41
406.81	2120.53
407.00	1933.28
407.20	2012.86
407.39	2047.97
407.58	2127.55
407.77	2165.00
407.96	2080.74
408.15	2188.40
408.34	2291.38
408.54	2211.81
408.73	2307.77
408.92	2218.83
409.11	2258.62
409.30	2363.94
409.49	2284.36
409.68	2193.08
409.87	2214.15
410.07	2267.98
410.26	2305.43
410.45	2429.48
410.64	2380.32
410.83	2457.56
411.02	2581.61
411.21	2569.91
411.40	2572.25
411.59	2513.74
411.78	2525.44
411.98	2607.36
412.17	2579.27
412.36	2724.38
412.55	2614.38
412.74	2644.81
412.93	2698.64
413.12	2621.40
413.31	2679.91
413.50	2754.81
413.69	2808.64
413.88	2963.12
414.07	2857.79
414.26	2937.37
414.45	2867.16
414.64	3047.38
414.83	3009.93
415.02	3026.31
415.22	3028.65
415.41	3007.59
415.60	3150.36
415.79	3023.97
415.98	3183.13
416.17	3178.45
416.36	3075.46
416.55	3138.66
416.74	3232.28
416.93	3110.57
417.12	3232.28
417.31	3246.32
417.50	3286.11
417.69	3494.42
417.88	3494.42
418.07	3447.61
418.26	3515.48
418.45	3431.23
418.64	3536.55
418.83	3499.10
419.02	3461.65
419.21	3487.40
419.39	3499.10
419.58	3449.95
419.77	3452.29
419.96	3623.15
420.15	3581.02
420.34	3599.74
420.53	3726.13
420.72	3705.07
420.91	3698.05
421.10	3815.07
421.29	3747.20
421.48	3784.65
421.67	3882.95
421.86	3763.58
422.05	3651.24
422.24	3810.39
422.43	3880.61
422.61	3794.01
422.80	3819.75
422.99	3918.06
423.18	3772.94
423.37	3978.91
423.56	3887.63
423.75	3957.85
423.94	4011.68
424.13	3585.70
424.32	3826.78
424.50	4004.66
424.69	3880.61
424.88	3985.93
425.07	3955.51
425.26	3861.88
425.45	3894.65
425.64	3836.14
425.83	3894.65
426.01	3971.89
426.20	3880.61
426.39	3847.84
426.58	3953.16
426.77	3918.06
426.96	3913.38
427.15	3901.67
427.33	4140.41
427.52	4077.21
427.71	4121.68
427.90	3950.82
428.09	4058.49
428.28	4102.96
428.46	4023.38
428.65	4042.11
428.84	4093.60
429.03	4271.48
429.22	3988.27
429.40	4154.45
429.59	4032.74
429.78	3875.93
429.97	3953.16
430.16	4039.76
430.34	4088.92
430.53	4175.52
430.72	4287.86
430.91	4173.18
431.10	4283.18
431.28	4622.56
431.47	4489.15
431.66	4477.44
431.85	4500.85
432.03	4547.66
432.22	4669.37
432.41	4552.34
432.60	4531.28
432.79	4519.57
432.97	4645.96
433.16	4725.54
433.35	4486.81
433.54	4550.00
433.72	4652.98
433.91	4615.54
434.10	4730.22
434.28	4814.48
434.47	4671.71
434.66	4903.42
434.85	4917.47
435.03	4896.40
435.22	4910.44
435.41	4929.17
435.59	4966.62
435.78	5095.35
435.97	5095.35
436.16	4947.89
436.34	5085.98
436.53	4961.94
436.72	5226.42
436.90	5015.77
437.09	5097.69
437.28	4915.12
437.46	5078.96
437.65	5041.51
437.84	5114.07
438.02	5123.43
438.21	5083.64
438.40	5107.05
438.58	5350.46
438.77	5394.93
438.96	5242.80
439.14	5364.51
439.33	5563.45
439.52	5600.90
439.70	5472.17
439.89	5575.16
440.08	5713.25
440.26	5680.48
440.45	5533.03
440.63	5743.67
440.82	5914.53
441.01	5867.72
441.19	5977.73
441.38	5851.34
441.57	6085.39
441.75	6017.52
441.94	6277.32
442.12	6136.88
442.31	6352.21
442.50	6349.87
442.68	6282.00
442.87	6183.70
443.05	6284.34
443.24	6356.90
443.43	6310.08
443.61	6401.37
443.80	6647.12
443.98	6244.55
444.17	6054.97
444.35	6441.15
444.54	6490.31
444.73	6368.60
444.91	6392.00
445.10	6389.66
445.28	6413.07
445.47	6401.37
445.65	6366.26
445.84	6436.47
446.02	6530.09
446.21	6436.47
446.39	6525.41
446.58	6595.63
446.77	6532.44
446.95	6509.03
447.14	6513.71
447.32	6771.17
447.51	6693.93
447.69	6434.13
447.88	6616.69
448.06	6541.80
448.25	6429.45
448.43	6614.35
448.62	6593.29
448.80	6485.62
448.99	6548.82
449.17	6672.87
449.36	6607.33
449.54	6803.94
449.73	6747.76
449.91	6935.01
450.10	6967.77
450.28	7136.29
450.46	6953.73
450.65	7232.26
450.83	7019.27
451.02	7101.19
451.20	7047.35
451.39	7283.75
451.57	7176.08
451.76	7126.93
451.94	7126.93
452.13	7187.79
452.31	6944.37
452.49	6977.14
452.68	7129.27
452.86	7152.68
453.05	7089.48
453.23	7117.57
453.42	7197.15
453.60	7187.79
453.78	7372.69
453.97	7192.47
454.15	7236.94
454.34	7356.30
454.52	7520.14
454.70	7461.63
454.89	7435.88
455.07	7417.16
455.26	7499.08
455.44	7632.49
455.62	7627.81
455.81	7728.45
455.99	7566.95
456.17	7683.98
456.36	7803.35
456.54	7908.67
456.73	7906.33
456.91	7896.97
457.09	8056.12
457.28	8219.96
457.46	7955.48
457.64	8053.78
457.83	8234.00
458.01	7801.01
458.19	7831.43
458.38	8114.64
458.56	8016.33
458.74	8276.13
458.93	7922.71
459.11	8444.65
459.29	8149.75
459.48	8149.75
459.66	7997.61
459.84	8292.52
460.03	8212.94
460.21	8346.35
460.39	8313.58
460.57	8287.84
460.76	8327.63
460.94	8571.04
461.12	8657.64
461.31	8718.50
461.49	8329.97
461.67	8507.85
461.85	8671.68
462.04	8713.81
462.22	9305.97
462.40	8655.30
462.59	8718.50
462.77	8784.03
462.95	8746.58
463.13	8889.35
463.32	8755.94
463.50	8936.17
463.68	9015.74
463.86	8674.03
464.05	8769.99
464.23	8739.56
464.41	9210.01
464.59	8795.73
464.78	9135.11
464.96	8924.46
465.14	9050.85
465.32	9123.41
465.50	9207.67
465.69	9317.67
465.87	9006.38
466.05	9263.84
466.23	9252.14
466.41	9160.86
466.60	9202.99
466.78	9053.19
466.96	9198.31
467.14	9104.68
467.32	9195.96
467.51	9469.81
467.69	9081.28
467.87	9418.32
468.05	9408.95
468.23	9392.57
468.41	9291.93
468.60	9572.79
468.78	9504.92
468.96	9497.89
469.14	9511.94
469.32	9453.42
469.50	9057.87
469.69	9689.82
469.87	9708.54
470.05	9933.23
470.23	9619.60
470.41	9610.24
470.59	9722.59
470.77	9713.22
470.95	10036.22
471.14	9888.76
471.32	9767.06
471.50	10024.51
471.68	10296.02
471.86	10216.44
472.04	10277.29
472.22	10466.88
472.40	10015.15
472.58	10253.89
472.77	10310.06
472.95	10443.47
473.13	10583.90
473.31	10492.62
473.49	10450.49
473.67	10551.14
473.85	10485.60
474.03	10869.45
474.21	10689.23
474.39	10934.98
474.57	10958.39
474.75	10956.05
474.93	11225.21
475.12	10953.71
475.30	11293.08
475.48	11112.86
475.66	11255.64
475.84	11218.19
476.02	11159.67
476.20	11290.74
476.38	11499.05
476.56	11733.11
476.74	11723.74
476.92	11672.25
477.10	11707.36
477.28	12004.61
477.46	12114.61
477.64	11955.46
477.82	12458.67
478.00	12475.06
478.18	12386.12
478.36	12353.35
478.54	12727.83
478.72	12608.47
478.90	12734.85
479.08	12938.48
479.26	13027.42
479.44	12964.23
479.62	13123.38
479.80	13062.53
479.98	13610.22
480.16	13462.76
480.34	13554.04
480.52	13565.74
480.70	13701.50
480.88	13242.75
481.06	13659.37
481.24	13544.68
481.41	14010.45
481.59	14129.81
481.77	14214.07
481.95	14207.05
482.13	14338.12
482.31	14335.78
482.49	14682.18
482.67	14679.84
482.85	14707.93
483.03	14925.60
483.21	14995.81
483.39	15152.63
483.57	15089.43
483.74	15297.74
483.92	15328.17
484.10	15473.28
484.28	15639.46
484.46	15719.04
484.64	16102.89
484.82	16002.24
485.00	15990.54
485.18	16006.92
485.35	16414.18
485.53	15955.43
485.71	16194.17
485.89	16418.86
486.07	16322.90
486.25	16329.92
486.43	16542.91
486.61	16800.37
486.78	16905.69
486.96	17427.63
487.14	17736.58
487.32	17479.12
487.50	18075.96
487.68	17855.95
487.85	18167.24
488.03	18380.23
488.21	18501.93
488.39	18663.43
488.57	18410.65
488.75	18841.31
488.92	18977.06
489.10	19290.70
489.28	19363.25
489.46	19421.77
489.64	19424.11
489.81	20245.63
489.99	19894.55
490.17	20023.28
490.35	20144.99
490.53	20107.54
490.70	20262.02
490.88	20465.64
491.06	20671.61
491.24	20547.56
491.41	20594.37
491.59	20723.10
491.77	20610.76
491.95	21036.74
492.13	21399.52
492.30	21221.64
492.48	21633.57
492.66	21504.84
492.84	21479.10
493.01	21949.54
493.19	21994.01
493.37	22127.42
493.54	22157.85
493.72	22508.93
493.90	22204.66
494.08	22572.13
494.25	22946.61
494.43	23105.77
494.61	23283.65
494.79	23159.60
494.96	23213.43
495.14	23255.56
495.32	23679.20
495.49	23527.06
495.67	23463.87
495.85	23807.93
496.02	24044.32
496.20	24465.62
496.38	24280.72
496.55	24418.81
496.73	24613.07
496.91	24521.79
497.09	24671.59
497.26	24793.29
497.44	24959.47
497.62	24884.58
497.79	25291.83
497.97	24854.15
498.14	25439.28
498.32	25518.86
498.50	25249.70
498.67	26010.37
498.85	25465.03
499.03	25638.23
499.20	25893.35
499.38	26033.78
499.56	25862.92
499.73	26190.59
499.91	26483.16
500.08	26267.83
500.26	25759.94
500.44	26600.19
500.61	26663.38
500.79	26490.18
500.97	27077.66
501.14	26871.69
501.32	27407.67
501.49	26967.65
501.67	26984.04
501.84	27187.66
502.02	27194.68
502.20	27398.31
502.37	27756.41
502.55	27772.80
502.72	27620.66
502.90	28154.30
503.07	27819.61
503.25	28060.68
503.43	28044.30
503.60	28093.45
503.78	28034.94
503.95	27550.45
504.13	28268.99
504.30	28315.80
504.48	28587.30
504.65	28381.34
504.83	28643.48
505.01	28741.78
505.18	29158.39
505.36	29053.07
505.53	29053.07
505.71	29394.79
505.88	29598.41
506.06	29062.43
506.23	29734.17
506.41	29376.06
506.58	29362.02
506.76	29682.67
506.93	30064.18
507.11	29844.17
507.28	29804.38
507.46	29394.79
507.63	29696.72
507.81	30012.69
507.98	30106.31
508.16	30614.21
508.33	30574.42
508.50	30637.61
508.68	30574.42
508.85	31234.45
509.03	30948.90
509.20	31089.34
509.38	31271.90
509.55	31173.60
509.73	31042.53
509.90	31112.74
510.08	31189.98
510.25	31374.88
510.42	31199.34
510.60	31431.05
510.77	31747.03
510.95	31821.92
511.12	31871.07
511.30	31606.59
511.47	32018.53
511.64	32060.66
511.82	32474.93
511.99	32233.86
512.17	32442.17
512.34	32065.34
512.51	32348.54
512.69	32556.85
512.86	32519.40
513.04	32914.95
513.21	32708.99
513.38	32739.41
513.56	32830.69
513.73	32741.75
513.90	32910.27
514.08	32760.48
514.25	33027.30
514.43	32971.13
514.60	33469.66
514.77	33088.15
514.95	33350.29
515.12	33151.35
515.29	33624.14
515.47	33706.05
515.64	34066.50
515.81	33722.44
515.99	33560.94
516.16	33450.94
516.33	33240.29
516.51	33303.48
516.68	33418.17
516.85	33043.68
517.03	33525.83
517.20	33792.65
517.37	34370.77
517.54	34223.31
517.72	34253.74
517.89	33923.72
518.06	33975.22
518.24	34064.16
518.41	34059.48
518.58	34382.47
518.75	34534.60
518.93	34883.34
519.10	34471.41
519.27	35398.26
519.45	34988.67
519.62	35292.94
519.79	34789.72
519.96	35367.84
520.14	35225.06
520.31	35077.61
520.48	35356.13
520.65	35065.91
520.83	35531.67
521.00	36062.97
521.17	35782.11
521.34	35964.67
521.52	36156.60
521.69	36561.51
521.86	36051.27
522.03	36048.93
522.20	36095.74
522.38	36568.53
522.55	36346.18
522.72	35983.40
522.89	36376.61
523.07	36631.72
523.24	36556.83
523.41	36840.03
523.58	36545.12
523.75	37074.09
523.92	37324.52
524.10	37083.45
524.27	37050.68
524.44	37081.11
524.61	37228.56
524.78	37652.20
524.96	37443.89
525.13	37633.47
525.30	37399.42
525.47	37855.82
525.64	37631.13
525.81	37441.55
525.98	37383.04
526.16	37221.54
526.33	37200.47
526.50	37546.87
526.67	37102.17
526.84	37394.74
527.01	37092.81
527.18	37783.27
527.36	37748.16
527.53	37893.27
527.70	38944.17
527.87	38197.54
528.04	38391.81
528.21	38541.60
528.38	38335.63
528.55	38628.20
528.72	38998.01
528.89	38862.26
529.07	38749.91
529.24	38169.46
529.41	38930.13
529.58	38356.70
529.75	38417.55
529.92	38941.83
530.09	38892.68
530.26	39187.59
530.43	39203.97
530.60	38810.76
530.77	39140.78
530.94	39215.68
531.11	39372.49
531.28	39089.29
531.46	39138.44
531.63	39007.37
531.80	39562.08
531.97	39461.43
532.14	39606.55
532.31	39330.36
532.48	39225.04
532.65	39999.76
532.82	39196.95
532.99	39552.71
533.16	39704.85
533.33	39742.30
533.50	39936.56
533.67	40435.10
533.84	39576.12
534.01	39737.62
534.18	39686.12
534.35	40030.18
534.52	40304.02
534.69	40378.92
534.86	40502.97
535.03	40348.50
535.20	40006.78
535.37	40917.25
535.54	40727.66
535.71	41029.59
535.88	40397.65
536.05	40444.46
536.22	40774.47
536.38	40563.82
536.55	40236.15
536.72	40814.26
536.89	40282.96
537.06	40935.97
537.23	41209.81
537.40	41106.83
537.57	40744.05
537.74	41404.08
537.91	41317.48
538.08	41214.49
538.25	40631.70
538.42	41038.95
538.59	41020.23
538.75	41062.36
538.92	41043.63
539.09	41539.83
539.26	41294.07
539.43	41329.18
539.60	41418.12
539.77	41521.10
539.94	41406.42
540.11	41474.29
540.28	41666.22
540.44	41324.50
540.61	41689.62
540.78	41146.62
540.95	41633.45
541.12	41298.75
541.29	41460.25
541.46	41820.69
541.62	41661.54
541.79	42206.88
541.96	41549.19
542.13	41794.95
542.30	42139.00
542.47	41748.14
542.63	42043.04
542.80	42288.80
542.97	42429.23
543.14	43033.09
543.31	42637.54
543.48	42534.56
543.64	42885.64
543.81	42941.81
543.98	42794.36
544.15	42572.00
544.32	42909.04
544.48	42810.74
544.65	42848.19
544.82	43206.29
544.99	42263.05
545.16	43210.97
545.32	42436.25
545.49	43122.03
545.66	43653.33
545.83	43161.82
546.00	43611.20
546.16	43016.71
546.33	42838.83
546.50	43093.94
546.67	43391.19
546.83	42792.01
547.00	43337.36
547.17	43285.87
547.34	42660.94
547.50	43154.80
547.67	43697.80
547.84	43782.06
548.00	43688.44
548.17	43662.69
548.34	43779.72
548.51	43625.25
548.67	44273.57
548.84	43887.39
549.01	43604.18
549.18	43702.48
549.34	43971.64
549.51	44039.52
549.68	43819.51
549.84	43892.07
550.01	43938.88
550.18	43983.35
550.34	44107.40
550.51	44053.56
550.68	43863.98
550.84	43789.08
551.01	44032.50
551.18	44060.58
551.34	43931.86
551.51	44245.49
551.68	44664.44
551.84	44362.51
552.01	44121.44
552.18	44531.03
552.34	43875.68
552.51	44591.89
552.68	44418.69
552.84	44715.93
553.01	44816.58
553.18	44533.37
553.34	44371.88
553.51	44505.29
553.67	44208.04
553.84	45001.48
554.01	44720.62
554.17	44615.29
554.34	45036.59
554.51	45186.38
554.67	44634.02
554.84	44755.72
555.00	44505.29
555.17	44863.39
555.33	44839.98
555.50	44971.05
555.67	45099.78
555.83	44598.91
556.00	44910.20
556.16	45474.27
556.33	44828.28
556.50	44973.39
556.66	45392.35
556.83	44905.52
556.99	45390.01
557.16	45476.61
557.32	45038.93
557.49	44968.71
557.65	44722.96
557.82	44966.37
557.98	45085.74
558.15	45118.51
558.32	45404.05
558.48	45254.26
558.65	45048.29
558.81	44973.39
558.98	44910.20
559.14	44954.67
559.31	45188.72
559.47	45567.89
559.64	45708.32
559.80	45649.81
559.97	45331.50
560.13	44964.03
560.30	44966.37
560.46	45368.94
560.63	45577.25
560.79	46138.98
560.96	45914.29
561.12	45612.36
561.29	45701.30
561.45	45308.09
561.61	45109.14
561.78	45628.74
561.94	45247.24
562.11	45329.16
562.27	45448.52
562.44	45102.12
562.60	45773.86
562.77	45970.46
562.93	45588.95
563.10	45677.90
563.26	45195.74
563.42	45855.78
563.59	45631.08
563.75	46059.40
563.92	45839.39
564.08	45715.34
564.24	45649.81
564.41	45656.83
564.57	45785.56
564.74	45642.79
564.90	46052.38
565.07	46078.13
565.23	45659.17
565.39	45848.75
565.56	45862.80
565.72	45434.48
565.88	45570.23
566.05	45654.49
566.21	46141.32
566.38	45830.03
566.54	45902.59
566.70	46071.10
566.87	46288.77
567.03	46038.34
567.19	46267.71
567.36	46087.49
567.52	45766.84
567.68	46377.72
567.85	45815.99
568.01	45989.19
568.17	45837.05
568.34	46415.16
568.50	45874.50
568.66	46192.81
568.83	45624.06
568.99	45811.31
569.15	45902.59
569.32	46164.73
569.48	45368.94
569.64	46241.96
569.81	46057.06
569.97	46169.41
570.13	46026.63
570.30	45942.38
570.46	45713.00
570.62	45989.19
570.78	45441.50
570.95	45846.41
571.11	46499.42
571.27	45621.72
571.43	46005.57
571.60	46188.13
571.76	45731.73
571.92	45610.02
572.09	45918.97
572.25	46251.33
572.41	45790.24
572.57	46560.28
572.74	46429.21
572.90	46424.53
573.06	46237.28
573.22	46176.43
573.38	46082.81
573.55	46260.69
573.71	46223.24
573.87	46019.61
574.03	46089.83
574.20	46078.13
574.36	46160.05
574.52	45965.78
574.68	45935.35
574.84	46153.02
575.01	45937.69
575.17	46230.26
575.33	46005.57
575.49	45698.96
575.65	45860.46
575.82	46681.98
575.98	46017.27
576.14	46602.41
576.30	46298.14
576.46	46103.87
576.62	46553.26
576.79	46043.02
576.95	45776.20
577.11	46576.66
577.27	46490.06
577.43	45986.85
577.59	46387.08
577.75	46183.45
577.92	46021.95
578.08	45914.29
578.24	46195.15
578.40	46375.37
578.56	46178.77
578.72	46461.97
578.88	46506.44
579.04	46885.61
579.21	46204.52
579.37	46043.02
579.53	46260.69
579.69	45876.84
579.85	46396.44
580.01	46660.92
580.17	46143.66
580.33	46485.38
580.49	46834.12
580.65	46461.97
580.82	46377.72
580.98	46178.77
581.14	46522.83
581.30	46511.13
581.46	46197.49
581.62	46426.87
581.78	46387.08
581.94	46508.79
582.10	46038.34
582.26	46766.24
582.42	46590.70
582.58	46469.00
582.74	46326.22
582.90	45949.40
583.06	46464.32
583.22	46546.23
583.38	46595.38
583.54	46307.50
583.70	46590.70
583.86	46288.77
584.02	46057.06
584.18	46878.59
584.34	46380.06
584.50	46529.85
584.66	46267.71
584.82	45839.39
584.98	46756.88
585.14	46831.78
585.30	46384.74
585.46	46862.21
585.62	45993.87
585.78	46204.52
585.94	46274.73
586.10	45993.87
586.26	46499.42
586.42	46684.33
586.58	46628.15
586.74	46656.24
586.90	46621.13
587.06	46408.14
587.22	46553.26
587.38	46260.69
587.54	46693.69
587.70	46604.75
587.86	46340.27
588.02	46550.91
588.18	46770.93
588.34	46412.82
588.49	46368.35
588.65	45968.12
588.81	46028.98
588.97	46192.81
589.13	46003.23
589.29	46113.23
589.45	46642.20
589.61	46492.40
589.77	46363.67
589.93	46513.47
