SpectraSuite Data File
++++++++++++++++++++++++++++++++++++
Date: Fri Oct 25 11:23:49 EDT 2013
User: price-jones
Dark Spectrum Present: No
Reference Spectrum Present: No
Number of Sampled Component Spectra: 1
Spectrometers: USB2+H05261
Integration Time (usec): 100000 (USB2+H05261)
Spectra Averaged: 1 (USB2+H05261)
Boxcar Smoothing: 0 (USB2+H05261)
Correct for Electrical Dark: No (USB2+H05261)
Strobe/Lamp Enabled: No (USB2+H05261)
Correct for Detector Non-linearity: No (USB2+H05261)
Correct for Stray Light: No (USB2+H05261)
Number of Pixels in Processed Spectrum: 2048
>>>>>Begin Processed Spectral Data<<<<<
365.73	152.13
365.92	152.13
366.12	152.13
366.32	161.50
366.52	107.66
366.72	100.64
366.91	175.54
367.11	95.96
367.31	88.94
367.51	91.28
367.70	147.45
367.90	100.64
368.10	117.03
368.30	74.90
368.49	133.41
368.69	177.88
368.89	180.22
369.09	131.07
369.28	229.37
369.48	105.32
369.68	142.77
369.87	198.95
370.07	191.92
370.27	245.76
370.47	271.50
370.66	636.63
370.86	648.33
371.06	702.16
371.25	660.03
371.45	585.13
371.65	734.93
371.84	676.41
372.04	613.22
372.24	748.97
372.44	716.20
372.63	758.33
372.83	781.74
373.03	805.14
373.22	758.33
373.42	730.25
373.62	765.36
373.81	791.10
374.01	828.55
374.21	793.44
374.40	793.44
374.60	802.80
374.79	854.30
374.99	809.83
375.19	755.99
375.38	973.66
375.58	847.27
375.78	802.80
375.97	826.21
376.17	898.77
376.37	875.36
376.56	819.19
376.76	840.25
376.95	823.87
377.15	940.90
377.35	826.21
377.54	929.19
377.74	842.59
377.93	863.66
378.13	919.83
378.33	985.37
378.52	961.96
378.72	910.47
378.91	908.13
379.11	915.15
379.31	896.43
379.50	959.62
379.70	954.94
379.89	1013.45
380.09	950.26
380.28	964.30
380.48	980.68
380.68	919.83
380.87	952.60
381.07	959.62
381.26	1015.79
381.46	943.24
381.65	1006.43
381.85	1020.47
382.04	976.00
382.24	1048.56
382.43	980.68
382.63	1081.33
382.83	1067.28
383.02	1055.58
383.22	1132.82
383.41	1055.58
383.61	1060.26
383.80	1132.82
384.00	1062.60
384.19	1111.75
384.39	1107.07
384.58	1095.37
384.78	1121.12
384.97	1071.97
385.17	1142.18
385.36	1160.91
385.56	1207.72
385.75	1200.69
385.95	1111.75
386.14	1160.91
386.34	1184.31
386.53	1188.99
386.72	1275.59
386.92	1165.59
387.11	1320.06
387.31	1235.80
387.50	1259.21
387.70	1221.76
387.89	1263.89
388.09	1224.10
388.28	1275.59
388.48	1296.66
388.67	1362.19
388.86	1322.40
389.06	1207.72
389.25	1219.42
389.45	1343.47
389.64	1315.38
389.84	1310.70
390.03	1439.43
390.22	1387.94
390.42	1394.96
390.61	1282.61
390.81	1418.36
391.00	1315.38
391.19	1352.83
391.39	1509.65
391.58	1425.39
391.78	1437.09
391.97	1439.43
392.16	1380.92
392.36	1526.03
392.55	1547.09
392.75	1582.20
392.94	1448.79
393.13	1542.41
393.33	1507.30
393.52	1605.61
393.71	1519.01
393.91	1511.99
394.10	1589.22
394.29	1624.33
394.49	1591.56
394.68	1610.29
394.88	1689.87
395.07	1701.57
395.26	1652.42
395.46	1614.97
395.65	1671.14
395.84	1675.82
396.04	1825.62
396.23	1664.12
396.42	1722.63
396.62	1750.72
396.81	1783.49
397.00	1823.28
397.19	1673.48
397.39	1888.81
397.58	1764.76
397.77	1755.40
397.97	1809.23
398.16	1816.26
398.35	1849.02
398.55	1846.68
398.74	1933.28
398.93	1968.39
399.12	1865.41
399.32	1963.71
399.51	1961.37
399.70	1991.80
399.90	2017.54
400.09	2024.56
400.28	2031.58
400.47	2059.67
400.67	2122.87
400.86	2017.54
401.05	2036.27
401.24	2064.35
401.44	2193.08
401.63	2104.14
401.82	2143.93
402.01	2153.29
402.21	2148.61
402.40	2132.23
402.59	2113.50
402.78	2153.29
402.97	2239.89
403.17	2225.85
403.36	2314.79
403.55	2298.41
403.74	2434.16
403.93	2436.50
404.13	2403.73
404.32	2293.72
404.51	2340.54
404.70	2370.96
404.89	2417.77
405.09	2455.22
405.28	2527.78
405.47	2471.61
405.66	2513.74
405.85	2530.12
406.05	2502.03
406.24	2628.42
406.43	2527.78
406.62	2619.06
406.81	2651.83
407.00	2600.34
407.20	2527.78
407.39	2696.30
407.58	2689.28
407.77	2689.28
407.96	2766.51
408.15	2848.43
408.34	2771.19
408.54	2757.15
408.73	2726.72
408.92	2841.41
409.11	2897.58
409.30	2946.73
409.49	2850.77
409.68	2967.80
409.87	2984.18
410.07	2986.52
410.26	2942.05
410.45	3000.57
410.64	2911.63
410.83	3094.19
411.02	3094.19
411.21	3183.13
411.40	3077.80
411.59	3204.19
411.78	3274.41
411.98	3103.55
412.17	3307.18
412.36	3183.13
412.55	3229.94
412.74	3393.78
412.93	3461.65
413.12	3344.63
413.31	3503.78
413.50	3466.33
413.69	3627.83
413.88	3405.48
414.07	3468.67
414.26	3632.51
414.45	3639.53
414.64	3749.54
414.83	3866.56
415.02	3843.16
415.22	3845.50
415.41	3824.44
415.60	3758.90
415.79	4042.11
415.98	3801.03
416.17	3981.25
416.36	3978.91
416.55	3838.48
416.74	3990.61
416.93	4077.21
417.12	3997.64
417.31	4138.07
417.50	4224.67
417.69	4257.43
417.88	4142.75
418.07	4337.01
418.26	4205.94
418.45	4294.88
418.64	4505.53
418.83	4540.64
419.02	4379.14
419.21	4489.15
419.39	4603.83
419.58	4531.28
419.77	4470.42
419.96	4547.66
420.15	4634.26
420.34	4568.73
420.53	4617.88
420.72	4702.14
420.91	4802.78
421.10	4638.94
421.29	4730.22
421.48	4865.97
421.67	4770.01
421.86	4812.14
422.05	4741.93
422.24	4849.59
422.43	5008.75
422.61	4919.81
422.80	4917.47
422.99	4975.98
423.18	5057.90
423.37	5111.73
423.56	4947.89
423.75	5018.11
423.94	4917.47
424.13	4669.37
424.32	4716.18
424.50	5022.79
424.69	5128.11
424.88	5100.03
425.07	4863.63
425.26	4926.83
425.45	5088.32
425.64	5029.81
425.83	5102.37
426.01	4957.25
426.20	5022.79
426.39	5139.82
426.58	4971.30
426.77	5114.07
426.96	5100.03
427.15	5116.41
427.33	5214.71
427.52	5308.34
427.71	5338.76
427.90	5195.99
428.09	5362.17
428.28	5366.85
428.46	5228.76
428.65	5329.40
428.84	5540.05
429.03	5540.05
429.22	5366.85
429.40	5432.38
429.59	5392.59
429.78	5406.64
429.97	5380.89
430.16	5437.06
430.34	5598.56
430.53	5533.03
430.72	5844.32
430.91	5621.97
431.10	5603.24
431.28	5710.91
431.47	5795.17
431.66	5884.11
431.85	5689.84
432.03	5762.40
432.22	6092.41
432.41	5991.77
432.60	5977.73
432.79	6078.37
432.97	6090.07
433.16	6024.54
433.35	6061.99
433.54	6256.25
433.72	6129.86
433.91	6204.76
434.10	6188.38
434.28	6122.84
434.47	6230.51
434.66	6289.02
434.85	6310.08
435.03	6270.30
435.22	6218.80
435.41	6328.81
435.59	6380.30
435.78	6469.24
435.97	6445.84
436.16	6452.86
436.34	6403.71
436.53	6649.46
436.72	6696.27
436.90	6478.60
437.09	6726.70
437.28	6478.60
437.46	6527.75
437.65	6431.79
437.84	6736.06
438.02	6867.13
438.21	6815.64
438.40	6888.20
438.58	6736.06
438.77	7021.61
438.96	7180.76
439.14	7234.60
439.33	7005.22
439.52	7140.97
439.70	7218.21
439.89	7379.71
440.08	7424.18
440.26	7344.60
440.45	7351.62
440.63	7538.87
440.82	7817.39
441.01	7592.70
441.19	7529.50
441.38	7854.84
441.57	7709.72
441.75	7733.13
441.94	7950.80
442.12	7822.07
442.31	8112.30
442.50	8119.32
442.68	7964.84
442.87	8023.36
443.05	8388.48
443.24	8421.25
443.43	8388.48
443.61	8184.85
443.80	8313.58
443.98	8053.78
444.17	7756.54
444.35	8163.79
444.54	8528.91
444.73	8416.57
444.91	8545.30
445.10	8402.52
445.28	8278.47
445.47	8243.37
445.65	8376.78
445.84	8479.76
446.02	8348.69
446.21	8395.50
446.39	8278.47
446.58	8428.27
446.77	8320.60
446.95	8409.54
447.14	8439.97
447.32	8606.15
447.51	8674.03
447.69	8585.08
447.88	8468.06
448.06	8421.25
448.25	8638.92
448.43	8388.48
448.62	8723.18
448.80	8496.14
448.99	8692.75
449.17	8872.97
449.36	8620.19
449.54	8924.46
449.73	9107.02
449.91	8947.87
450.10	8964.25
450.28	9022.77
450.46	9198.31
450.65	8952.55
450.83	8943.19
451.02	8987.66
451.20	9174.90
451.39	9317.67
451.57	9263.84
451.76	9165.54
451.94	9167.88
452.13	9219.37
452.31	9109.36
452.49	9048.51
452.68	9125.75
452.86	9301.29
453.05	9504.92
453.23	9778.76
453.42	9617.26
453.60	9504.92
453.78	9685.14
453.97	9582.15
454.15	9352.78
454.34	9418.32
454.52	9678.12
454.70	9781.10
454.89	9891.10
455.07	9935.57
455.26	9975.36
455.44	9905.15
455.62	9912.17
455.81	9942.60
455.99	10029.20
456.17	10157.92
456.36	10230.48
456.54	10139.20
456.73	10377.94
456.91	10525.39
457.09	10469.22
457.28	10525.39
457.46	10363.89
457.64	10611.99
457.83	10401.34
458.01	10408.36
458.19	10546.45
458.38	10504.32
458.56	10679.86
458.74	10810.93
458.93	10679.86
459.11	10745.40
459.29	10822.64
459.48	10965.41
459.66	10789.87
459.84	11169.04
460.03	11044.99
460.21	11143.29
460.39	10979.45
460.57	11047.33
460.76	11218.19
460.94	11096.48
461.12	11421.81
461.31	11176.06
461.49	11122.23
461.67	11276.70
461.85	11466.28
462.04	11225.21
462.22	11595.01
462.40	11480.33
462.59	11407.77
462.77	11747.15
462.95	11751.83
463.13	11604.38
463.32	11580.97
463.50	11892.26
463.68	11707.36
463.86	11719.06
464.05	11599.70
464.23	11751.83
464.41	11974.18
464.59	11573.95
464.78	11981.20
464.96	11990.56
465.14	11936.73
465.32	11981.20
465.50	12217.60
465.69	12395.48
465.87	12205.89
466.05	12123.98
466.23	12222.28
466.41	12243.34
466.60	12353.35
466.78	12189.51
466.96	12191.85
467.14	12252.70
467.32	12423.56
467.51	12648.26
467.69	12161.42
467.87	12475.06
468.05	12559.31
468.23	12224.62
468.41	12535.91
468.60	12753.58
468.78	12709.11
468.96	12711.45
469.14	12863.58
469.32	13158.49
469.50	12690.38
469.69	13071.89
469.87	13270.84
470.05	12982.95
470.23	13205.30
470.41	13177.22
470.59	13621.92
470.77	13268.50
470.95	13500.21
471.14	13621.92
471.32	13366.80
471.50	13706.18
471.68	13593.83
471.86	13713.20
472.04	13893.42
472.22	13832.57
472.40	13825.54
472.58	13727.24
472.77	14195.35
472.95	14193.01
473.13	14640.05
473.31	14267.91
473.49	14200.03
473.67	14174.28
473.85	14031.51
474.03	14916.23
474.21	14705.59
474.39	14850.70
474.57	14719.63
474.75	14986.45
474.93	15225.18
475.12	14892.83
475.30	15398.38
475.48	15061.35
475.66	15208.80
475.84	15391.36
476.02	15463.92
476.20	15421.79
476.38	15875.85
476.56	16002.24
476.74	15920.32
476.92	15737.76
477.10	15831.38
477.28	16149.70
477.46	15995.22
477.64	16290.13
477.82	16802.71
478.00	16940.80
478.18	17046.12
478.36	17011.01
478.54	17179.53
478.72	17305.92
478.90	17469.76
479.08	17537.63
479.26	17582.10
479.44	17834.88
479.62	18012.76
479.80	18094.68
479.98	18314.69
480.16	18864.72
480.34	18527.68
480.52	18457.46
480.70	18583.85
480.88	18328.74
481.06	18789.82
481.24	19166.65
481.41	19260.27
481.59	19716.67
481.77	19637.09
481.95	19468.58
482.13	19726.04
482.31	19800.93
482.49	20018.60
482.67	20472.67
482.85	20758.21
483.03	20760.55
483.21	21050.78
483.39	21048.44
483.57	20999.29
483.74	21530.59
483.92	21570.38
484.10	21223.98
484.28	21935.50
484.46	22089.98
484.64	22293.60
484.82	21956.57
485.00	22548.72
485.18	22576.81
485.35	22864.69
485.53	22813.20
485.71	22930.23
485.89	23730.69
486.07	23456.85
486.25	23496.64
486.43	23924.96
486.61	24079.43
486.78	23931.98
486.96	24376.68
487.14	24704.35
487.32	24793.29
487.50	25062.46
487.68	25233.32
487.85	25284.81
488.03	25666.31
488.21	26223.36
488.39	26059.52
488.57	26036.12
488.75	26195.28
488.92	26637.64
489.10	26857.65
489.28	26845.94
489.46	27274.26
489.64	27133.83
489.81	28135.58
489.99	27828.97
490.17	28060.68
490.35	28210.48
490.53	28474.96
490.70	28641.14
490.88	28102.81
491.06	28968.81
491.24	28800.29
491.41	29493.09
491.59	29575.01
491.77	29390.11
491.95	29598.41
492.13	29961.20
492.30	30120.35
492.48	30012.69
492.66	30291.21
492.84	30614.21
493.01	30497.18
493.19	30536.97
493.37	31087.00
493.54	31421.69
493.72	31435.74
493.90	31632.34
494.08	32297.05
494.25	31988.10
494.43	32311.10
494.61	32638.77
494.79	32870.48
494.96	32657.49
495.14	33120.92
495.32	33607.75
495.49	33401.79
495.67	33397.10
495.85	33771.59
496.02	33876.91
496.20	33907.34
496.38	34375.45
496.55	33818.40
496.73	35030.80
496.91	34665.67
497.09	35044.84
497.26	35405.28
497.44	35344.43
497.62	35358.47
497.79	36561.51
497.97	35620.61
498.14	36348.52
498.32	36678.54
498.50	36400.01
498.67	36776.84
498.85	36687.90
499.03	36992.17
499.20	36737.05
499.38	36982.80
499.56	37296.44
499.73	37574.96
499.91	37642.84
500.08	38293.50
500.26	37376.01
500.44	38146.05
500.61	38181.16
500.79	37841.78
500.97	38576.71
501.14	38965.24
501.32	38705.44
501.49	38733.53
501.67	38913.75
501.84	39548.03
502.02	39084.61
502.20	39241.42
502.37	39487.18
502.55	38895.02
502.72	39423.98
502.90	40016.14
503.07	39636.97
503.25	39800.81
503.43	39875.71
503.60	40657.45
503.78	40275.94
503.95	39952.94
504.13	40935.97
504.30	40856.39
504.48	40493.61
504.65	41090.44
504.83	41247.26
505.01	41537.49
505.18	41397.06
505.36	41493.02
505.53	41738.77
505.71	42010.28
505.88	42209.22
506.06	41610.04
506.23	41937.72
506.41	42256.03
506.58	42476.04
506.76	42368.38
506.93	42733.50
507.11	42417.53
507.28	42511.15
507.46	42822.44
507.63	43274.16
507.81	43058.84
507.98	43285.87
508.16	43445.02
508.33	43391.19
508.50	43475.45
508.68	43931.86
508.85	43852.28
509.03	43906.11
509.20	44575.50
509.38	44446.77
509.55	44472.52
509.73	44465.50
509.90	44699.55
510.08	44348.47
510.25	44554.44
510.42	45214.47
510.60	45095.10
510.77	45303.41
510.95	45689.60
511.12	44816.58
511.30	45502.35
511.47	46155.36
511.64	45659.17
511.82	46012.59
511.99	45848.75
512.17	46059.40
512.34	45530.44
512.51	46567.30
512.69	46679.64
512.86	46649.22
513.04	46691.35
513.21	46948.81
513.38	46918.38
513.56	46759.22
513.73	46777.95
513.90	46784.97
514.08	47349.04
514.25	47639.26
514.43	47753.95
514.60	47297.55
514.77	47459.04
514.95	47889.70
515.12	47777.36
515.29	47777.36
515.47	48025.45
515.64	48072.26
515.81	47917.79
515.99	48294.61
516.16	48645.69
516.33	48502.92
516.51	49031.88
516.68	48664.42
516.85	48839.96
517.03	48917.20
517.20	49099.76
517.37	48835.28
517.54	49322.11
517.72	49167.63
517.89	49298.70
518.06	49191.04
518.24	49528.08
518.41	49722.34
518.58	49530.42
518.75	49467.22
518.93	49961.08
519.10	49446.16
519.27	50040.65
519.45	50117.89
519.62	50124.91
519.79	50092.15
519.96	50003.20
520.14	50394.07
520.31	50391.73
520.48	50548.55
520.65	50480.67
520.83	50717.07
521.00	50724.09
521.17	50600.04
521.34	51117.30
521.52	50852.82
521.69	50784.94
521.86	51112.62
522.03	51484.76
522.20	51412.21
522.38	51634.56
522.55	51655.62
522.72	50941.76
522.89	51622.86
523.07	51861.59
523.24	51917.76
523.41	51828.82
523.58	51597.11
523.75	52004.36
523.92	51962.23
524.10	52154.16
524.27	52226.71
524.44	52341.40
524.61	52261.82
524.78	52184.58
524.96	52516.94
525.13	52355.44
525.30	52685.46
525.47	52535.66
525.64	52722.91
525.81	52715.89
525.98	52376.51
526.16	52961.64
526.33	52835.25
526.50	52907.81
526.67	52713.55
526.84	52905.47
527.01	53132.50
527.18	53020.16
527.36	53162.93
527.53	52945.26
527.70	53464.86
527.87	53359.53
528.04	53490.60
528.21	53432.09
528.38	53670.82
528.55	53602.95
528.72	53609.97
528.89	53652.10
529.07	53495.28
529.24	53731.68
529.41	53717.64
529.58	53560.82
529.75	53752.74
529.92	53691.89
530.09	54160.00
530.26	54066.38
530.43	54171.70
530.60	53832.32
530.77	53792.53
530.94	54309.79
531.11	54110.85
531.28	54370.64
531.46	54288.73
531.63	54342.56
531.80	54412.77
531.97	54695.98
532.14	54670.23
532.31	54368.30
532.48	54646.83
532.65	54782.58
532.82	54752.15
532.99	54817.69
533.16	54749.81
533.33	55009.61
533.50	54763.85
533.67	54887.90
533.84	54934.71
534.01	55217.92
534.18	54733.43
534.35	55367.71
534.52	55405.16
534.69	55194.51
534.86	55229.62
535.03	55117.28
535.20	55222.60
535.37	55690.71
535.54	55540.91
535.71	55346.65
535.88	55365.37
536.05	55402.82
536.22	55372.39
536.38	55791.35
536.55	55451.97
536.72	55772.63
536.89	55714.11
537.06	55803.05
537.23	55810.07
537.40	55515.17
537.57	55739.86
537.74	55877.95
537.91	56299.25
538.08	56046.47
538.25	55838.16
538.42	56020.72
538.59	56161.15
538.75	55962.21
538.92	56168.18
539.09	56130.73
539.26	56196.26
539.43	56282.86
539.60	56395.21
539.77	56275.84
539.94	56479.47
540.11	56662.03
540.28	56631.60
540.44	56535.64
540.61	56673.73
540.78	56697.14
540.95	56512.23
541.12	56390.53
541.29	56470.11
541.46	56860.97
541.62	56704.16
541.79	56849.27
541.96	56458.40
542.13	56495.85
542.30	56760.33
542.47	57130.14
542.63	57099.71
542.80	56966.30
542.97	57347.81
543.14	57263.55
543.31	57354.83
543.48	57219.08
543.64	57813.57
543.81	57565.48
543.98	57354.83
544.15	57389.94
544.32	57425.04
544.48	57895.49
544.65	57357.17
544.82	57668.46
544.99	57469.51
545.16	57741.02
545.32	57457.81
545.49	57860.38
545.66	57946.98
545.83	57696.55
546.00	57663.78
546.16	57553.77
546.33	57490.58
546.50	57488.24
546.67	57745.70
546.83	57598.24
547.00	57839.32
547.17	57841.66
547.34	58337.85
547.50	57984.43
547.67	58248.91
547.84	58087.42
548.00	58213.80
548.17	58396.37
548.34	58300.40
548.51	58277.00
548.67	58342.53
548.84	58286.36
549.01	58225.51
549.18	58209.12
549.34	58277.00
549.51	58417.43
549.68	58555.52
549.84	58443.18
550.01	58553.18
550.18	58464.24
550.34	58784.90
550.51	58555.52
550.68	58515.73
550.84	58422.11
551.01	58546.16
551.18	58588.29
551.34	58628.08
551.51	58684.25
551.68	58801.28
551.84	58808.30
552.01	58557.86
552.18	58883.20
552.34	58679.57
552.51	58864.47
552.68	58770.85
552.84	58670.21
553.01	59016.61
553.18	58864.47
553.34	59077.46
553.51	58887.88
553.67	58805.96
553.84	59004.91
554.01	59119.59
554.17	59175.76
554.34	59140.66
554.51	59058.74
554.67	59344.28
554.84	59318.54
555.00	58955.75
555.17	59040.01
555.33	59171.08
555.50	59173.42
555.67	59150.02
555.83	59257.68
556.00	59442.59
556.16	59536.21
556.33	59309.18
556.50	59274.07
556.66	59564.29
556.83	59374.71
556.99	59491.74
557.16	59585.36
557.32	59508.12
557.49	59753.88
557.65	59377.05
557.82	59491.74
557.98	59416.84
558.15	59374.71
558.32	59503.44
558.48	59267.05
558.65	59512.80
558.81	59594.72
558.98	59634.51
559.14	59845.16
559.31	59906.01
559.47	59849.84
559.64	59760.90
559.80	59784.30
559.97	59770.26
560.13	59718.77
560.30	59943.46
560.46	59873.24
560.63	59920.05
560.79	59842.82
560.96	60102.62
561.12	60062.83
561.29	59910.69
561.45	59929.42
561.61	60060.49
561.78	60018.36
561.94	59978.57
562.11	59957.50
562.27	60126.02
562.44	60044.10
562.60	60116.66
562.77	60100.28
562.93	59962.18
563.10	60203.26
563.26	60039.42
563.42	60477.10
563.59	60069.85
563.75	60184.54
563.92	60247.73
564.08	60170.49
564.24	60507.53
564.41	60247.73
564.57	60168.15
564.74	60301.56
564.90	60334.33
565.07	60214.96
565.23	60505.19
565.39	60147.09
565.56	60259.43
565.72	60170.49
565.88	60420.93
566.05	60217.30
566.21	60369.44
566.38	60266.45
566.54	60327.31
566.70	60378.80
566.87	60395.18
567.03	60165.81
567.19	60633.92
567.36	60640.94
567.52	60320.29
567.68	60638.60
567.85	60537.96
568.01	60500.51
568.17	60392.84
568.34	60626.90
568.50	60446.68
568.66	60439.65
568.83	60530.93
568.99	60666.69
569.15	60392.84
569.32	60481.78
569.48	60336.67
569.64	60788.39
569.81	60526.25
569.97	60441.99
570.13	60596.47
570.30	60446.68
570.46	60662.00
570.62	60512.21
570.78	60762.65
570.95	60722.86
571.11	60699.45
571.27	60493.49
571.43	60844.57
571.60	61036.49
571.76	60676.05
571.92	60664.35
572.09	60650.30
572.25	60727.54
572.41	60615.19
572.57	60814.14
572.74	61062.24
572.90	60622.22
573.06	60720.52
573.22	60549.66
573.38	60547.32
573.55	60643.28
573.71	60767.33
573.87	60767.33
574.03	60772.01
574.20	60633.92
574.36	60804.78
574.52	60809.46
574.68	60992.02
574.84	60879.67
575.01	60797.76
575.17	60844.57
575.33	60926.49
575.49	60732.22
575.65	60966.27
575.82	60750.94
575.98	60802.44
576.14	61132.45
576.30	61188.63
576.46	60879.67
576.62	60790.73
576.79	60867.97
576.95	60879.67
577.11	60837.54
577.27	61057.56
577.43	61064.58
577.59	60863.29
577.75	60921.80
577.92	60816.48
578.08	60926.49
578.24	60975.64
578.40	61165.22
578.56	60914.78
578.72	60879.67
578.88	61254.16
579.04	61109.05
579.21	61132.45
579.37	61139.47
579.53	61186.28
579.69	60889.04
579.85	61064.58
580.01	60921.80
580.17	60858.61
580.33	60844.57
580.49	61106.71
580.65	61123.09
580.82	60963.93
580.98	60996.70
581.14	60956.91
581.30	61017.77
581.46	61069.26
581.62	61071.60
581.78	60982.66
581.94	61141.81
582.10	60898.40
582.26	60898.40
582.42	60959.25
582.58	60924.14
582.74	60910.10
582.90	60886.70
583.06	60938.19
583.22	60874.99
583.38	61017.77
583.54	61036.49
583.70	60851.59
583.86	61155.86
584.02	61036.49
584.18	61076.28
584.34	61045.85
584.50	61001.38
584.66	60949.89
584.82	60882.02
584.98	61240.12
585.14	61315.01
585.30	61141.81
585.46	61095.00
585.62	61153.52
585.78	61254.16
585.94	61092.66
586.10	61228.41
586.26	61071.60
586.42	61244.80
586.58	61265.86
586.74	61134.79
586.90	61090.32
587.06	60980.32
587.22	61345.44
587.38	61188.63
587.54	61249.48
587.70	61263.52
587.86	61242.46
588.02	61076.28
588.18	61429.70
588.34	61120.75
588.49	61148.84
