SpectraSuite Data File
++++++++++++++++++++++++++++++++++++
Date: Fri Oct 25 11:25:13 EDT 2013
User: price-jones
Dark Spectrum Present: No
Reference Spectrum Present: No
Number of Sampled Component Spectra: 1
Spectrometers: USB2+H05261
Integration Time (usec): 100000 (USB2+H05261)
Spectra Averaged: 1 (USB2+H05261)
Boxcar Smoothing: 0 (USB2+H05261)
Correct for Electrical Dark: No (USB2+H05261)
Strobe/Lamp Enabled: No (USB2+H05261)
Correct for Detector Non-linearity: No (USB2+H05261)
Correct for Stray Light: No (USB2+H05261)
Number of Pixels in Processed Spectrum: 2048
>>>>>Begin Processed Spectral Data<<<<<
365.73	191.92
365.92	191.92
366.12	191.92
366.32	138.09
366.52	88.94
366.72	98.30
366.91	119.37
367.11	154.48
367.31	110.01
367.51	156.82
367.70	177.88
367.90	163.84
368.10	128.73
368.30	100.64
368.49	184.90
368.69	175.54
368.89	201.29
369.09	205.97
369.28	135.75
369.48	114.69
369.68	145.11
369.87	243.42
370.07	215.33
370.27	212.99
370.47	395.55
370.66	552.37
370.86	641.31
371.06	702.16
371.25	674.07
371.45	706.84
371.65	683.44
371.84	690.46
372.04	648.33
372.24	692.80
372.44	657.69
372.63	709.18
372.83	723.23
373.03	697.48
373.22	781.74
373.42	800.46
373.62	727.91
373.81	718.54
374.01	786.42
374.21	816.85
374.40	812.17
374.60	823.87
374.79	800.46
374.99	765.36
375.19	772.38
375.38	826.21
375.58	823.87
375.78	898.77
375.97	851.96
376.17	931.53
376.37	952.60
376.56	950.26
376.76	781.74
376.95	847.27
377.15	849.61
377.35	798.12
377.54	873.02
377.74	889.40
377.93	833.23
378.13	929.19
378.33	940.90
378.52	882.38
378.72	1013.45
378.91	1060.26
379.11	861.32
379.31	891.74
379.50	957.28
379.70	992.39
379.89	1004.09
380.09	952.60
380.28	980.68
380.48	985.37
380.68	968.98
380.87	957.28
381.07	957.28
381.26	1069.62
381.46	971.32
381.65	1043.88
381.85	1018.13
382.04	1015.79
382.24	1146.86
382.43	1078.99
382.63	1088.35
382.83	1053.24
383.02	1069.62
383.22	1039.20
383.41	1055.58
383.61	1081.33
383.80	1088.35
384.00	1174.95
384.19	1104.73
384.39	1226.44
384.58	1076.65
384.78	1069.62
384.97	1116.44
385.17	1163.25
385.36	1170.27
385.56	1196.01
385.75	1156.22
385.95	1193.67
386.14	1144.52
386.34	1142.18
386.53	1160.91
386.72	1149.20
386.92	1268.57
387.11	1291.98
387.31	1224.10
387.50	1165.59
387.70	1228.78
387.89	1221.76
388.09	1193.67
388.28	1221.76
388.48	1224.10
388.67	1299.00
388.86	1296.66
389.06	1235.80
389.25	1380.92
389.45	1390.28
389.64	1303.68
389.84	1296.66
390.03	1270.91
390.22	1420.71
390.42	1352.83
390.61	1345.81
390.81	1432.41
391.00	1334.11
391.19	1399.64
391.39	1362.19
391.58	1441.77
391.78	1519.01
391.97	1483.90
392.16	1369.21
392.36	1493.26
392.55	1439.43
392.75	1507.30
392.94	1406.66
393.13	1425.39
393.33	1533.05
393.52	1542.41
393.71	1668.80
393.91	1741.36
394.10	1617.31
394.29	1680.50
394.49	1582.20
394.68	1668.80
394.88	1643.06
395.07	1607.95
395.26	1746.04
395.46	1671.14
395.65	1603.27
395.84	1724.97
396.04	1757.74
396.23	1732.00
396.42	1736.68
396.62	1842.00
396.81	1760.08
397.00	1790.51
397.19	1753.06
397.39	1820.94
397.58	1849.02
397.77	1811.57
397.97	1842.00
398.16	1907.54
398.35	1870.09
398.55	1870.09
398.74	1926.26
398.93	1898.17
399.12	1963.71
399.32	1895.83
399.51	1926.26
399.70	1994.14
399.90	1877.11
400.09	1935.62
400.28	1998.82
400.47	2062.01
400.67	2122.87
400.86	2043.29
401.05	2017.54
401.24	2066.69
401.44	2094.78
401.63	2101.80
401.82	2120.53
402.01	2200.10
402.21	2104.14
402.40	2160.31
402.59	2228.19
402.78	2160.31
402.97	2228.19
403.17	2305.43
403.36	2235.21
403.55	2387.35
403.74	2204.78
403.93	2286.70
404.13	2399.05
404.32	2345.22
404.51	2340.54
404.70	2480.97
404.89	2544.16
405.09	2495.01
405.28	2455.22
405.47	2368.62
405.66	2530.12
405.85	2495.01
406.05	2487.99
406.24	2562.89
406.43	2530.12
406.62	2693.96
406.81	2637.78
407.00	2541.82
407.20	2509.05
407.39	2558.21
407.58	2640.12
407.77	2658.85
407.96	2754.81
408.15	2768.85
408.34	2708.00
408.54	2750.13
408.73	2740.77
408.92	2719.70
409.11	2773.53
409.30	2928.01
409.49	2878.86
409.68	2860.13
409.87	2752.47
410.07	2984.18
410.26	3028.65
410.45	2967.80
410.64	2963.12
410.83	3014.61
411.02	3023.97
411.21	3164.40
411.40	3028.65
411.59	3227.60
411.78	3173.77
411.98	3143.34
412.17	3258.03
412.36	3267.39
412.55	3309.52
412.74	3349.31
412.93	3356.33
413.12	3272.07
413.31	3492.08
413.50	3337.60
413.69	3459.31
413.88	3665.28
414.07	3564.64
414.26	3585.70
414.45	3590.38
414.64	3716.77
414.83	3660.60
415.02	3786.99
415.22	3737.84
415.41	3920.40
415.60	3812.73
415.79	3840.82
415.98	4070.19
416.17	3946.14
416.36	3962.53
416.55	3964.87
416.74	3999.98
416.93	3882.95
417.12	4063.17
417.31	4245.73
417.50	4166.15
417.69	4217.65
417.88	4180.20
418.07	4252.75
418.26	4124.02
418.45	4259.78
418.64	4578.09
418.83	4437.66
419.02	4367.44
419.21	4407.23
419.39	4496.17
419.58	4437.66
419.77	4505.53
419.96	4559.36
420.15	4627.24
420.34	4610.86
420.53	4594.47
420.72	4826.18
420.91	4624.90
421.10	4748.95
421.29	4730.22
421.48	4636.60
421.67	4727.88
421.86	4699.80
422.05	4683.41
422.24	4746.61
422.43	4697.46
422.61	4940.87
422.80	4875.34
422.99	4938.53
423.18	4903.42
423.37	5139.82
423.56	4992.36
423.75	4943.21
423.94	4746.61
424.13	4610.86
424.32	4784.06
424.50	4933.85
424.69	4966.62
424.88	4896.40
425.07	4889.38
425.26	4842.57
425.45	4917.47
425.64	4898.74
425.83	5085.98
426.01	4964.28
426.20	4912.78
426.39	5004.07
426.58	5008.75
426.77	5132.79
426.96	4950.23
427.15	5085.98
427.33	5078.96
427.52	5231.10
427.71	5188.97
427.90	5116.41
428.09	5289.61
428.28	5383.23
428.46	5362.17
428.65	5345.78
428.84	5516.64
429.03	5612.60
429.22	5352.81
429.40	5455.79
429.59	5533.03
429.78	5135.14
429.97	5184.29
430.16	5434.72
430.34	5458.13
430.53	5694.52
430.72	5479.19
430.91	5577.50
431.10	5668.78
431.28	5804.53
431.47	5640.69
431.66	5881.77
431.85	5820.91
432.03	5657.07
432.22	5975.39
432.41	5797.51
432.60	5731.97
432.79	5809.21
432.97	5956.66
433.16	5928.58
433.35	6045.60
433.54	5919.21
433.72	6153.27
433.91	6120.50
434.10	6031.56
434.28	6122.84
434.47	6183.70
434.66	6221.14
434.85	6120.50
435.03	6132.20
435.22	6211.78
435.41	6541.80
435.59	6462.22
435.78	6361.58
435.97	6445.84
436.16	6445.84
436.34	6441.15
436.53	6345.19
436.72	6525.41
436.90	6387.32
437.09	6635.42
437.28	6401.37
437.46	6663.51
437.65	6382.64
437.84	6567.54
438.02	6637.76
438.21	6817.98
438.40	6616.69
438.58	6942.03
438.77	6942.03
438.96	6750.10
439.14	7119.91
439.33	7080.12
439.52	7070.76
439.70	7201.83
439.89	7311.83
440.08	7255.66
440.26	7321.20
440.45	7124.59
440.63	7222.89
440.82	7637.17
441.01	7452.27
441.19	7569.29
441.38	7606.74
441.57	7735.47
441.75	7758.88
441.94	7887.61
442.12	7768.24
442.31	8009.31
442.50	8145.06
442.68	8049.10
442.87	8002.29
443.05	7948.46
443.24	8135.70
443.43	8060.80
443.61	8140.38
443.80	8327.63
443.98	8079.53
444.17	7700.36
444.35	8044.42
444.54	8304.22
444.73	8053.78
444.91	8215.28
445.10	8107.62
445.28	8407.20
445.47	8224.64
445.65	8107.62
445.84	8449.33
446.02	8287.84
446.21	8297.20
446.39	8210.60
446.58	8444.65
446.77	8505.51
446.95	8121.66
447.14	8463.38
447.32	8454.02
447.51	8425.93
447.69	8290.18
447.88	8395.50
448.06	8397.84
448.25	8432.95
448.43	8369.76
448.62	8510.19
448.80	8477.42
448.99	8791.05
449.17	8634.24
449.36	8641.26
449.54	8826.16
449.73	9020.42
449.91	8926.80
450.10	8690.41
450.28	9060.21
450.46	8868.29
450.65	8798.07
450.83	8901.06
451.02	8990.00
451.20	9055.53
451.39	9181.92
451.57	9109.36
451.76	9085.96
451.94	9210.01
452.13	9252.14
452.31	9261.50
452.49	9008.72
452.68	9451.08
452.86	9202.99
453.05	9465.13
453.23	9591.52
453.42	9336.40
453.60	9303.63
453.78	9376.19
453.97	9455.76
454.15	9380.87
454.34	9392.57
454.52	9624.28
454.70	9621.94
454.89	9561.09
455.07	9666.41
455.26	9476.83
455.44	9692.16
455.62	9797.48
455.81	9846.63
455.99	9973.02
456.17	9853.66
456.36	9879.40
456.54	10111.11
456.73	10202.40
456.91	10153.24
457.09	10274.95
457.28	10527.73
457.46	10300.70
457.64	10588.58
457.83	10558.16
458.01	10377.94
458.19	10555.82
458.38	10530.07
458.56	10721.99
458.74	10443.47
458.93	10572.20
459.11	10370.91
459.29	10644.76
459.48	10743.06
459.66	10583.90
459.84	10862.43
460.03	11225.21
460.21	10995.84
460.39	10878.81
460.57	10972.43
460.76	10832.00
460.94	11075.42
461.12	11030.94
461.31	10932.64
461.49	11052.01
461.67	11133.93
461.85	11510.75
462.04	11126.91
462.22	11522.46
462.40	11438.20
462.59	11239.25
462.77	11538.84
462.95	11433.52
463.13	11592.67
463.32	11658.21
463.50	11562.25
463.68	11705.02
463.86	11686.29
464.05	11578.63
464.23	11831.41
464.41	11639.48
464.59	11461.60
464.78	12222.28
464.96	12081.85
465.14	11782.26
465.32	11936.73
465.50	11941.41
465.69	12189.51
465.87	12006.95
466.05	12016.31
466.23	12070.14
466.41	12196.53
466.60	12353.35
466.78	12046.74
466.96	12135.68
467.14	12168.45
467.32	12353.35
467.51	12507.82
467.69	12081.85
467.87	12306.54
468.05	12547.61
468.23	12463.35
468.41	12386.12
468.60	12465.69
468.78	12596.76
468.96	12678.68
469.14	12631.87
469.32	13004.02
469.50	12528.89
469.69	12844.86
469.87	12889.33
470.05	13006.36
470.23	12861.24
470.41	12830.82
470.59	12971.25
470.77	13118.70
470.95	12826.14
471.14	13429.99
471.32	13027.42
471.50	13514.25
471.68	13397.23
471.86	13483.83
472.04	13628.94
472.22	13741.29
472.40	13778.73
472.58	13724.90
472.77	13790.44
472.95	13916.83
473.13	14312.38
473.31	13907.46
473.49	14085.34
473.67	14136.84
473.85	14080.66
474.03	14328.76
474.21	14382.59
474.39	14745.38
474.57	14431.74
474.75	14745.38
474.93	15042.62
475.12	14743.03
475.30	14902.19
475.48	14850.70
475.66	15180.71
475.84	15103.48
476.02	15059.01
476.20	15255.61
476.38	15564.56
476.56	15815.00
476.74	15873.51
476.92	15744.78
477.10	15728.40
477.28	16149.70
477.46	15948.41
477.64	16044.37
477.82	16479.71
478.00	16648.23
478.18	16489.07
478.36	16919.73
478.54	16788.66
478.72	17003.99
478.90	17476.78
479.08	17289.54
479.26	17149.11
479.44	17453.37
479.62	17741.26
479.80	17809.14
479.98	17914.46
480.16	18384.91
480.34	18099.36
480.52	18441.08
480.70	18445.76
480.88	18349.80
481.06	18574.49
481.24	18651.73
481.41	18993.45
481.59	18972.38
481.77	19122.18
481.95	19286.01
482.13	19709.65
482.31	19449.85
482.49	19852.42
482.67	19927.32
482.85	20198.82
483.03	20386.07
483.21	20720.76
483.39	20893.96
483.57	20627.14
483.74	21153.76
483.92	21495.48
484.10	21034.39
484.28	21572.72
484.46	21813.79
484.64	22312.33
484.82	21722.51
485.00	22338.07
485.18	22497.23
485.35	22885.76
485.53	22333.39
485.71	22869.37
485.89	23204.07
486.07	23222.80
486.25	23262.58
486.43	23321.10
486.61	23791.55
486.78	23814.95
486.96	23967.09
487.14	24273.70
487.32	24482.00
487.50	24807.34
487.68	24676.27
487.85	24858.83
488.03	25226.29
488.21	25523.54
488.39	25202.89
488.57	25827.81
488.75	25582.06
488.92	26136.76
489.10	26483.16
489.28	26335.71
489.46	26869.35
489.64	27206.39
489.81	27470.87
489.99	27421.72
490.17	27683.86
490.35	27917.91
490.53	27721.30
490.70	28341.55
490.88	27852.38
491.06	28765.18
491.24	28563.90
491.41	28753.48
491.59	28884.55
491.77	28933.70
491.95	29296.49
492.13	29790.34
492.30	29645.23
492.48	29738.85
492.66	30108.65
492.84	29771.61
493.01	30403.56
493.19	30302.92
493.37	31110.40
493.54	30857.62
493.72	31229.77
493.90	31255.51
494.08	31419.35
494.25	31847.67
494.43	31964.70
494.61	31999.80
494.79	32140.24
494.96	31960.02
495.14	32903.25
495.32	32685.58
495.49	33034.32
495.67	32994.53
495.85	33235.61
496.02	33455.62
496.20	33881.60
496.38	33853.51
496.55	33647.54
496.73	34724.19
496.91	34019.69
497.09	34630.57
497.26	34733.55
497.44	34653.97
497.62	35016.75
497.79	35587.85
497.97	35304.64
498.14	35529.33
498.32	35463.80
498.50	35613.59
498.67	36102.76
498.85	36446.82
499.03	36290.01
499.20	36421.08
499.38	36402.35
499.56	37069.40
499.73	37104.51
499.91	37015.57
500.08	37273.03
500.26	36985.15
500.44	37467.30
500.61	37673.26
500.79	37464.96
500.97	37677.94
501.14	38534.58
501.32	38291.16
501.49	38206.90
501.67	38370.74
501.84	38653.95
502.02	38590.75
502.20	38576.71
502.37	38773.31
502.55	39012.05
502.72	39269.51
502.90	39063.54
503.07	39313.98
503.25	39428.66
503.43	39793.79
503.60	39653.36
503.78	39805.49
503.95	40048.91
504.13	40458.50
504.30	40121.46
504.48	40208.06
504.65	40730.00
504.83	40795.54
505.01	40753.41
505.18	41228.54
505.36	41132.57
505.53	40807.24
505.71	41221.52
505.88	41579.62
506.06	41624.09
506.23	41783.24
506.41	41820.69
506.58	41787.92
506.76	42003.25
506.93	41722.39
507.11	42192.84
507.28	42234.97
507.46	42316.89
507.63	42223.26
507.81	42459.66
507.98	42293.48
508.16	42773.29
508.33	43152.46
508.50	43168.84
508.68	43241.40
508.85	43636.95
509.03	43620.56
509.20	43477.79
509.38	44142.50
509.55	44025.48
509.73	44388.26
509.90	44615.29
510.08	44643.38
510.25	44332.09
510.42	44151.87
510.60	44559.12
510.77	44727.64
510.95	45022.54
511.12	44961.69
511.30	44992.12
511.47	45249.58
511.64	45373.63
511.82	45570.23
511.99	45535.12
512.17	45556.19
512.34	45633.42
512.51	46167.07
512.69	46061.74
512.86	45771.52
513.04	46087.49
513.21	46260.69
513.38	46293.46
513.56	46813.05
513.73	46597.73
513.90	46490.06
514.08	46398.78
514.25	46742.84
514.43	46967.53
514.60	46976.89
514.77	47140.73
514.95	47182.86
515.12	47552.66
515.29	47416.91
515.47	47327.97
515.64	47852.25
515.81	47665.01
515.99	47976.30
516.16	48039.50
516.33	48215.04
516.51	48212.70
516.68	47966.94
516.85	47824.17
517.03	48418.66
517.20	48406.96
517.37	48416.32
517.54	48385.89
517.72	48800.17
517.89	48971.03
518.06	48987.41
518.24	48596.54
518.41	49191.04
518.58	48830.60
518.75	48884.43
518.93	49397.01
519.10	49205.08
519.27	49406.37
519.45	49530.42
519.62	49783.19
519.79	49729.36
519.96	49481.27
520.14	49780.85
520.31	49935.33
520.48	50148.32
520.65	49979.80
520.83	49895.54
521.00	50227.90
521.17	50588.34
521.34	50335.56
521.52	50527.48
521.69	50560.25
521.86	50724.09
522.03	50628.13
522.20	50962.82
522.38	50976.87
522.55	50997.93
522.72	51058.79
522.89	51002.61
523.07	51407.53
523.24	51150.07
523.41	51444.98
523.58	51196.88
523.75	51452.00
523.92	51065.81
524.10	51838.18
524.27	51714.14
524.44	51770.31
524.61	51627.54
524.78	51831.16
524.96	51765.63
525.13	51971.60
525.30	52264.16
525.47	52533.32
525.64	52044.15
525.81	52196.29
525.98	52051.17
526.16	52315.65
526.33	52069.90
526.50	52765.04
526.67	52369.49
526.84	52755.68
527.01	52779.08
527.18	52566.09
527.36	52568.43
527.53	52919.51
527.70	53326.77
527.87	53326.77
528.04	52865.68
528.21	53064.63
528.38	53099.73
528.55	53350.17
528.72	52839.93
528.89	53097.39
529.07	53514.01
529.24	53240.17
529.41	53478.90
529.58	53523.37
529.75	53073.99
529.92	53595.93
530.09	53584.22
530.26	53624.01
530.43	53818.28
530.60	53708.27
530.77	53881.47
530.94	53858.07
531.11	53600.61
531.28	53801.89
531.46	53869.77
531.63	54174.04
531.80	53656.78
531.97	53801.89
532.14	54286.39
532.31	53855.73
532.48	54110.85
532.65	54223.19
532.82	54511.08
532.99	54447.88
533.16	54370.64
533.33	54672.57
533.50	54719.38
533.67	54403.41
533.84	54387.03
534.01	54717.04
534.18	54628.10
534.35	54852.80
534.52	54913.65
534.69	55002.59
534.86	54974.50
535.03	54752.15
535.20	54885.56
535.37	55229.62
535.54	55105.57
535.71	55072.81
535.88	55384.10
536.05	55281.11
536.22	55264.73
536.38	55311.54
536.55	55180.47
536.72	55285.79
536.89	55238.98
537.06	55262.39
537.23	55430.91
537.40	55313.88
537.57	55374.73
537.74	55458.99
537.91	55973.91
538.08	55571.34
538.25	55292.82
538.42	55674.32
538.59	55777.31
538.75	55669.64
538.92	55969.23
539.09	56004.34
539.26	55767.94
539.43	55756.24
539.60	56044.13
539.77	56006.68
539.94	56147.11
540.11	56104.98
540.28	56184.56
540.44	56229.03
540.61	56123.71
540.78	55985.61
540.95	56186.90
541.12	56179.88
541.29	56189.24
541.46	56250.09
541.62	56416.27
541.79	56519.26
541.96	56083.92
542.13	56236.05
542.30	56374.14
542.47	56439.68
542.63	56715.86
542.80	56978.00
542.97	57008.43
543.14	57120.77
543.31	56849.27
543.48	56917.15
543.64	57205.03
543.81	57071.62
543.98	57190.99
544.15	57071.62
544.32	57207.37
544.48	57352.49
544.65	57078.64
544.82	56992.04
544.99	57006.09
545.16	57373.55
545.32	57001.41
545.49	57382.91
545.66	57476.54
545.83	57455.47
546.00	57329.08
546.16	57415.68
546.33	57181.63
546.50	57326.74
546.67	57682.50
546.83	57174.61
547.00	57516.32
547.17	57521.01
547.34	57605.26
547.50	57705.91
547.67	57797.19
547.84	57818.25
548.00	57848.68
548.17	57818.25
548.34	57769.10
548.51	58056.99
548.67	57968.05
548.84	57954.00
549.01	57783.15
549.18	58078.05
549.34	58232.53
549.51	58134.23
549.68	57986.77
549.84	57949.32
550.01	58230.19
550.18	58150.61
550.34	58300.40
550.51	58326.15
550.68	58178.70
550.84	58033.58
551.01	58387.00
551.18	58185.72
551.34	58337.85
551.51	58356.58
551.68	58466.58
551.84	58578.93
552.01	58274.66
552.18	58436.16
552.34	58305.09
552.51	58489.99
552.68	58382.32
552.84	58319.13
553.01	58686.59
553.18	58679.57
553.34	58782.55
553.51	58475.94
553.67	58583.61
553.84	58820.00
554.01	58862.13
554.17	58901.92
554.34	58960.44
554.51	58852.77
554.67	58777.87
554.84	58885.54
555.00	58913.62
555.17	58972.14
555.33	58808.30
555.50	58796.60
555.67	58908.94
555.83	58986.18
556.00	59035.33
556.16	59283.43
556.33	59152.36
556.50	59007.25
556.66	59135.98
556.83	58976.82
556.99	59180.45
557.16	59063.42
557.32	59241.30
557.49	59433.22
557.65	59056.40
557.82	59199.17
557.98	59199.17
558.15	59365.35
558.32	59131.29
558.48	58993.20
558.65	59379.39
558.81	59423.86
558.98	59456.63
559.14	59412.16
559.31	59433.22
559.47	59238.96
559.64	59512.80
559.80	59559.61
559.97	59367.69
560.13	59590.04
560.30	59519.82
560.46	59487.06
560.63	59664.94
560.79	59550.25
560.96	59674.30
561.12	59370.03
561.29	59646.21
561.45	59838.14
561.61	59721.11
561.78	59531.53
561.94	59615.79
562.11	59601.74
562.27	59779.62
562.44	59730.47
562.60	59751.54
562.77	59756.22
562.93	59716.43
563.10	59913.03
563.26	59561.95
563.42	59777.28
563.59	59788.98
563.75	59910.69
563.92	59913.03
564.08	59711.75
564.24	59842.82
564.41	60055.81
564.57	59847.50
564.74	59887.29
564.90	59833.46
565.07	59913.03
565.23	59952.82
565.39	60079.21
565.56	60236.03
565.72	59880.27
565.88	60058.15
566.05	60030.06
566.21	59763.24
566.38	59927.08
566.54	60069.85
566.70	60268.79
566.87	60102.62
567.03	59772.60
567.19	60404.55
567.36	60168.15
567.52	60065.17
567.68	60226.66
567.85	60233.69
568.01	60151.77
568.17	60266.45
568.34	60299.22
568.50	60184.54
568.66	60193.90
568.83	60301.56
568.99	60069.85
569.15	60364.76
569.32	60360.08
569.48	60191.56
569.64	60254.75
569.81	60339.01
569.97	60193.90
570.13	60322.63
570.30	60086.23
570.46	60334.33
570.62	60240.71
570.78	60348.37
570.95	60341.35
571.11	60285.18
571.27	60299.22
571.43	60409.23
571.60	60385.82
571.76	60385.82
571.92	60257.09
572.09	60420.93
572.25	60252.41
572.41	60285.18
572.57	60479.44
572.74	60764.99
572.90	60287.52
573.06	60392.84
573.22	60360.08
573.38	60385.82
573.55	60563.70
573.71	60477.10
573.87	60533.28
574.03	60397.52
574.20	60577.75
574.36	60678.39
574.52	60617.53
574.68	60456.04
574.84	60701.79
575.01	60493.49
575.17	60444.33
575.33	60554.34
575.49	60486.46
575.65	60652.64
575.82	60736.90
575.98	60624.56
576.14	60626.90
576.30	60802.44
576.46	60526.25
576.62	60577.75
576.79	60619.88
576.95	60397.52
577.11	60544.98
577.27	60748.60
577.43	60570.72
577.59	60381.14
577.75	60610.51
577.92	60273.48
578.08	60687.75
578.24	60633.92
578.40	60732.22
578.56	60697.11
578.72	60781.37
578.88	60992.02
579.04	60914.78
579.21	60844.57
579.37	60774.35
579.53	60795.42
579.69	60727.54
579.85	60694.77
580.01	60535.62
580.17	60460.72
580.33	60924.14
580.49	60823.50
580.65	60713.50
580.82	60736.90
580.98	60713.50
581.14	60610.51
581.30	60690.09
581.46	60535.62
581.62	60680.73
581.78	60673.71
581.94	60732.22
582.10	60762.65
582.26	60619.88
582.42	60781.37
582.58	60921.80
582.74	60748.60
582.90	60764.99
583.06	60860.95
583.22	60598.81
583.38	60870.31
583.54	60870.31
583.70	60898.40
583.86	60804.78
584.02	60603.49
584.18	60968.61
584.34	60832.86
584.50	60715.84
584.66	60814.14
584.82	60638.60
584.98	61076.28
585.14	61118.41
585.30	60753.29
585.46	60912.44
585.62	60757.97
585.78	60912.44
585.94	60720.52
586.10	60842.23
586.26	60898.40
586.42	60851.59
586.58	60842.23
586.74	60963.93
586.90	60823.50
587.06	60664.35
587.22	60898.40
587.38	60879.67
587.54	60989.68
587.70	61045.85
587.86	60835.20
588.02	60835.20
588.18	61193.31
588.34	60839.89
588.49	60846.91
