SpectraSuite Data File
++++++++++++++++++++++++++++++++++++
Date: Fri Oct 25 11:22:47 EDT 2013
User: price-jones
Dark Spectrum Present: No
Reference Spectrum Present: No
Number of Sampled Component Spectra: 1
Spectrometers: USB2+H05261
Integration Time (usec): 100000 (USB2+H05261)
Spectra Averaged: 1 (USB2+H05261)
Boxcar Smoothing: 0 (USB2+H05261)
Correct for Electrical Dark: No (USB2+H05261)
Strobe/Lamp Enabled: No (USB2+H05261)
Correct for Detector Non-linearity: No (USB2+H05261)
Correct for Stray Light: No (USB2+H05261)
Number of Pixels in Processed Spectrum: 2048
>>>>>Begin Processed Spectral Data<<<<<
365.73	180.22
365.92	180.22
366.12	180.22
366.32	159.16
366.52	189.58
366.72	88.94
366.91	107.66
367.11	107.66
367.31	145.11
367.51	189.58
367.70	156.82
367.90	145.11
368.10	60.85
368.30	49.15
368.49	121.71
368.69	163.84
368.89	224.69
369.09	121.71
369.28	46.81
369.48	135.75
369.68	156.82
369.87	105.32
370.07	140.43
370.27	227.03
370.47	334.70
370.66	552.37
370.86	596.84
371.06	645.99
371.25	648.33
371.45	641.31
371.65	627.26
371.84	638.97
372.04	704.50
372.24	732.59
372.44	748.97
372.63	690.46
372.83	730.25
373.03	690.46
373.22	737.27
373.42	772.38
373.62	688.12
373.81	760.67
374.01	779.40
374.21	788.76
374.40	828.55
374.60	744.29
374.79	795.78
374.99	851.96
375.19	760.67
375.38	821.53
375.58	837.91
375.78	828.55
375.97	779.40
376.17	896.43
376.37	880.04
376.56	854.30
376.76	868.34
376.95	866.00
377.15	912.81
377.35	894.08
377.54	887.06
377.74	917.49
377.93	898.77
378.13	943.24
378.33	905.79
378.52	837.91
378.72	898.77
378.91	924.51
379.11	938.55
379.31	971.32
379.50	917.49
379.70	1008.77
379.89	1020.47
380.09	973.66
380.28	990.05
380.48	985.37
380.68	875.36
380.87	1001.75
381.07	1076.65
381.26	947.92
381.46	1027.50
381.65	931.53
381.85	1027.50
382.04	1015.79
382.24	978.34
382.43	1095.37
382.63	1043.88
382.83	1001.75
383.02	1093.03
383.22	1181.97
383.41	1100.05
383.61	1043.88
383.80	1088.35
384.00	1104.73
384.19	1104.73
384.39	1095.37
384.58	1064.94
384.78	1151.54
384.97	1144.52
385.17	1139.84
385.36	1212.40
385.56	1203.04
385.75	1107.07
385.95	1205.38
386.14	1196.01
386.34	1196.01
386.53	1198.35
386.72	1238.14
386.92	1205.38
387.11	1186.65
387.31	1214.74
387.50	1139.84
387.70	1212.40
387.89	1291.98
388.09	1235.80
388.28	1240.48
388.48	1242.82
388.67	1287.29
388.86	1320.06
389.06	1296.66
389.25	1376.24
389.45	1364.53
389.64	1310.70
389.84	1226.44
390.03	1446.45
390.22	1378.58
390.42	1371.55
390.61	1338.79
390.81	1434.75
391.00	1397.30
391.19	1423.05
391.39	1411.34
391.58	1343.47
391.78	1394.96
391.97	1540.07
392.16	1430.07
392.36	1610.29
392.55	1572.84
392.75	1593.90
392.94	1523.69
393.13	1448.79
393.33	1509.65
393.52	1526.03
393.71	1526.03
393.91	1593.90
394.10	1603.27
394.29	1689.87
394.49	1509.65
394.68	1591.56
394.88	1659.44
395.07	1643.06
395.26	1748.38
395.46	1643.06
395.65	1760.08
395.84	1713.27
396.04	1825.62
396.23	1699.23
396.42	1769.44
396.62	1785.83
396.81	1806.89
397.00	1739.02
397.19	1898.17
397.39	1811.57
397.58	1804.55
397.77	1809.23
397.97	1799.87
398.16	1914.56
398.35	1879.45
398.55	1937.96
398.74	1893.49
398.93	2033.93
399.12	1989.46
399.32	1893.49
399.51	1977.75
399.70	2076.06
399.90	2047.97
400.09	2052.65
400.28	2001.16
400.47	2050.31
400.67	2129.89
400.86	2054.99
401.05	2111.16
401.24	2038.61
401.44	2071.37
401.63	2113.50
401.82	2188.40
402.01	2022.22
402.21	2115.84
402.40	2260.96
402.59	2155.63
402.78	2136.91
402.97	2258.62
403.17	2253.94
403.36	2396.71
403.55	2331.17
403.74	2228.19
403.93	2333.51
404.13	2394.37
404.32	2333.51
404.51	2427.14
404.70	2333.51
404.89	2382.67
405.09	2485.65
405.28	2427.14
405.47	2429.48
405.66	2567.57
405.85	2586.29
406.05	2413.09
406.24	2513.74
406.43	2558.21
406.62	2675.23
406.81	2750.13
407.00	2623.74
407.20	2626.08
407.39	2658.85
407.58	2651.83
407.77	2703.32
407.96	2684.59
408.15	2822.69
408.34	2834.39
408.54	2825.03
408.73	2937.37
408.92	2731.41
409.11	2829.71
409.30	2885.88
409.49	2911.63
409.68	2906.95
409.87	2876.52
410.07	2991.20
410.26	3126.96
410.45	2977.16
410.64	3180.79
410.83	3119.93
411.02	3215.90
411.21	3178.45
411.40	3166.74
411.59	3176.11
411.78	3213.56
411.98	3075.46
412.17	3215.90
412.36	3400.80
412.55	3337.60
412.74	3346.97
412.93	3396.12
413.12	3321.22
413.31	3538.89
413.50	3485.06
413.69	3555.27
413.88	3595.06
414.07	3557.61
414.26	3562.30
414.45	3665.28
414.64	3723.79
414.83	3721.45
415.02	3763.58
415.22	3735.50
415.41	3808.05
415.60	3826.78
415.79	3859.54
415.98	3953.16
416.17	3896.99
416.36	3953.16
416.55	4051.47
416.74	4224.67
416.93	4035.08
417.12	4114.66
417.31	4234.03
417.50	4180.20
417.69	4292.54
417.88	4353.40
418.07	4152.11
418.26	4264.46
418.45	4360.42
418.64	4662.35
418.83	4409.57
419.02	4411.91
419.21	4484.47
419.39	4500.85
419.58	4449.36
419.77	4568.73
419.96	4538.30
420.15	4587.45
420.34	4648.30
420.53	4669.37
420.72	4655.33
420.91	4690.43
421.10	4812.14
421.29	4791.08
421.48	4828.53
421.67	4849.59
421.86	4835.55
422.05	4777.03
422.24	4800.44
422.43	4865.97
422.61	4805.12
422.80	4849.59
422.99	4849.59
423.18	5020.45
423.37	4924.49
423.56	5046.20
423.75	4954.91
423.94	4856.61
424.13	4505.53
424.32	4784.06
424.50	5085.98
424.69	5097.69
424.88	5015.77
425.07	4851.93
425.26	4791.08
425.45	4983.00
425.64	4975.98
425.83	5046.20
426.01	5172.58
426.20	5064.92
426.39	5156.20
426.58	5200.67
426.77	5130.45
426.96	5156.20
427.15	5219.39
427.33	5102.37
427.52	5217.05
427.71	5200.67
427.90	5268.55
428.09	5263.86
428.28	5343.44
428.46	5305.99
428.65	5434.72
428.84	5507.28
429.03	5549.41
429.22	5357.49
429.40	5528.35
429.59	5467.49
429.78	5233.44
429.97	5282.59
430.16	5605.58
430.34	5631.33
430.53	5694.52
430.72	5673.46
430.91	5661.76
431.10	5607.92
431.28	5666.44
431.47	5860.70
431.66	5902.83
431.85	5699.20
432.03	5954.32
432.22	5996.45
432.41	6005.81
432.60	5909.85
432.79	5959.00
432.97	6143.91
433.16	5998.79
433.35	5905.17
433.54	6087.73
433.72	6277.32
433.91	6141.57
434.10	6225.82
434.28	6127.52
434.47	6251.57
434.66	6221.14
434.85	6321.79
435.03	6298.38
435.22	6296.04
435.41	6490.31
435.59	6483.28
435.78	6413.07
435.97	6377.96
436.16	6560.52
436.34	6333.49
436.53	6586.27
436.72	6628.40
436.90	6579.25
437.09	6644.78
437.28	6583.93
437.46	6649.46
437.65	6586.27
437.84	6836.70
438.02	6825.00
438.21	6789.89
438.40	6906.92
438.58	7033.31
438.77	7084.80
438.96	6801.60
439.14	7222.89
439.33	7218.21
439.52	7178.42
439.70	7227.57
439.89	7307.15
440.08	7316.51
440.26	7255.66
440.45	7412.48
440.63	7424.18
440.82	7609.08
441.01	7566.95
441.19	7501.42
441.38	7737.81
441.57	7744.83
441.75	7925.05
441.94	8042.08
442.12	8067.83
442.31	8182.51
442.50	8051.44
442.68	7995.27
442.87	8051.44
443.05	8250.39
443.24	8175.49
443.43	8229.32
443.61	8063.15
443.80	8454.02
443.98	7873.56
444.17	8018.68
444.35	8145.06
444.54	8250.39
444.73	8294.86
444.91	8353.37
445.10	8318.26
445.28	8381.46
445.47	8135.70
445.65	8393.16
445.84	8468.06
446.02	8390.82
446.21	8404.86
446.39	8641.26
446.58	8512.53
446.77	8568.70
446.95	8393.16
447.14	8531.25
447.32	8606.15
447.51	8484.44
447.69	8589.77
447.88	8465.72
448.06	8554.66
448.25	8552.32
448.43	8624.87
448.62	8540.61
448.80	8620.19
448.99	8718.50
449.17	8683.39
449.36	8784.03
449.54	8821.48
449.73	8805.10
449.91	8964.25
450.10	9046.17
450.28	8856.59
450.46	9018.08
450.65	8997.02
450.83	9142.13
451.02	9135.11
451.20	9160.86
451.39	9111.71
451.57	9170.22
451.76	9085.96
451.94	9263.84
452.13	9266.18
452.31	9338.74
452.49	9202.99
452.68	9334.06
452.86	9497.89
453.05	9446.40
453.23	9614.92
453.42	9348.10
453.60	9502.58
453.78	9516.62
453.97	9607.90
454.15	9643.01
454.34	9404.27
454.52	9776.42
454.70	9624.28
454.89	9727.27
455.07	9692.16
455.26	9863.02
455.44	9994.09
455.62	10171.97
455.81	10008.13
455.99	10190.69
456.17	9921.53
456.36	9951.96
456.54	10328.78
456.73	10476.24
456.91	10310.06
457.09	10501.98
457.28	10497.30
457.46	10520.71
457.64	10558.16
457.83	10520.71
458.01	10441.13
458.19	10801.57
458.38	10560.50
458.56	10766.46
458.74	10761.78
458.93	10644.76
459.11	10810.93
459.29	10574.54
459.48	10824.98
459.66	10897.53
459.84	10862.43
460.03	11108.18
460.21	10785.19
460.39	11066.05
460.57	11173.72
460.76	11082.44
460.94	11218.19
461.12	11297.77
461.31	10949.03
461.49	11037.97
461.67	11098.82
461.85	11323.51
462.04	11447.56
462.22	11925.03
462.40	11564.59
462.59	11592.67
462.77	11580.97
462.95	11665.23
463.13	11772.89
463.32	11721.40
463.50	11815.02
463.68	11908.65
463.86	11906.31
464.05	11730.76
464.23	11719.06
464.41	12018.65
464.59	11569.27
464.78	12145.04
464.96	12020.99
465.14	11754.17
465.32	12241.00
465.50	12226.96
465.69	12236.32
465.87	12191.85
466.05	12112.27
466.23	12219.94
466.41	12278.45
466.60	12650.60
466.78	12264.41
466.96	12407.18
467.14	12404.84
467.32	12351.01
467.51	12362.71
467.69	12547.61
467.87	12521.87
468.05	12779.32
468.23	12512.50
468.41	12348.67
468.60	12636.55
468.78	12652.94
468.96	13018.06
469.14	12924.44
469.32	13076.57
469.50	12664.64
469.69	12847.20
469.87	13373.82
470.05	13200.62
470.23	13099.98
470.41	13114.02
470.59	13434.68
470.77	13362.12
470.95	13404.25
471.14	13584.47
471.32	13273.18
471.50	13432.33
471.68	13605.53
471.86	13586.81
472.04	13783.41
472.22	14031.51
472.40	13888.74
472.58	13867.67
472.77	14193.01
472.95	14251.52
473.13	14663.46
473.31	14164.92
473.49	14160.24
473.67	14417.70
473.85	14310.04
474.03	14403.66
474.21	14595.58
474.39	14794.53
474.57	14682.18
474.75	14649.41
474.93	14864.74
475.12	15009.86
475.30	15059.01
475.48	15208.80
475.66	15452.22
475.84	15222.84
476.02	15550.52
476.20	15779.89
476.38	16020.97
476.56	15857.13
476.74	15852.45
476.92	15922.66
477.10	15969.48
477.28	16280.77
477.46	16449.28
477.64	16552.27
477.82	16734.83
478.00	16765.26
478.18	16725.47
478.36	16919.73
478.54	17312.94
478.72	17378.48
478.90	17411.25
479.08	17472.10
479.26	17584.44
479.44	17792.75
479.62	18005.74
479.80	18328.74
479.98	17980.00
480.16	18757.05
480.34	18244.48
480.52	18810.89
480.70	18726.63
480.88	18333.42
481.06	18853.02
481.24	18845.99
481.41	19136.22
481.59	19590.28
481.77	20032.65
481.95	19756.46
482.13	19878.17
482.31	19843.06
482.49	20161.37
482.67	20060.73
482.85	20535.86
483.03	20713.74
483.21	20908.01
483.39	21165.46
483.57	21242.70
483.74	21352.71
483.92	21556.33
484.10	21177.17
484.28	21891.03
484.46	21902.73
484.64	22541.70
484.82	22164.87
485.00	22609.58
485.18	22806.18
485.35	22876.40
485.53	22785.12
485.71	23126.83
485.89	23447.49
486.07	23438.12
486.25	23634.73
486.43	23653.45
486.61	24063.05
486.78	24264.33
486.96	24065.39
487.14	24666.91
487.32	24451.58
487.50	24893.94
487.68	25209.91
487.85	25362.04
488.03	25783.34
488.21	25893.35
488.39	25692.06
488.57	26412.95
488.75	26302.94
488.92	26874.03
489.10	26848.29
489.28	26930.20
489.46	27615.98
489.64	27255.54
489.81	27974.08
489.99	27978.76
490.17	27725.99
490.35	28088.77
490.53	28198.77
490.70	28453.89
490.88	28718.37
491.06	29099.88
491.24	29422.87
491.41	29422.87
491.59	29617.14
491.77	29151.37
491.95	29399.47
492.13	29762.25
492.30	30188.23
492.48	30003.33
492.66	30356.75
492.84	30349.73
493.01	30478.46
493.19	31012.10
493.37	31140.83
493.54	31246.15
493.72	31653.40
493.90	31786.82
494.08	31651.06
494.25	32355.57
494.43	32109.81
494.61	32716.01
494.79	33205.18
494.96	32781.54
495.14	33411.15
495.32	33558.60
495.49	33373.70
495.67	33315.19
495.85	33867.55
496.02	34101.61
496.20	34258.42
496.38	34148.42
496.55	34632.91
496.73	34988.67
496.91	34574.39
497.09	35117.40
497.26	35281.24
497.44	35049.52
497.62	35363.15
497.79	36156.60
497.97	35732.96
498.14	36243.20
498.32	36002.12
498.50	36245.54
498.67	36748.75
498.85	36751.09
499.03	36940.68
499.20	37085.79
499.38	37020.25
499.56	37228.56
499.73	37722.41
499.91	37188.77
500.08	38019.66
500.26	37546.87
500.44	38026.68
500.61	38122.65
500.79	38190.52
500.97	38403.51
501.14	38691.40
501.32	38803.74
501.49	38845.87
501.67	39070.56
501.84	39304.62
502.02	38759.27
502.20	39150.14
502.37	39377.17
502.55	39110.35
502.72	39475.48
502.90	39686.12
503.07	39613.57
503.25	40203.38
503.43	39742.30
503.60	40182.32
503.78	40411.69
503.95	40631.70
504.13	40814.26
504.30	40563.82
504.48	40704.26
504.65	41165.34
504.83	41553.87
505.01	41202.79
505.18	41455.57
505.36	41869.84
505.53	41235.56
505.71	41801.97
505.88	42139.00
506.06	41539.83
506.23	41762.18
506.41	41970.49
506.58	42583.71
506.76	42305.18
506.93	43054.15
507.11	42485.40
507.28	42990.96
507.46	42770.95
507.63	42969.90
507.81	43370.13
507.98	42735.84
508.16	43091.60
508.33	43730.57
508.50	43704.82
508.68	43828.87
508.85	44191.65
509.03	43812.49
509.20	44304.00
509.38	44636.36
509.55	44830.62
509.73	44926.58
509.90	44961.69
510.08	44500.61
510.25	45153.62
510.42	44783.81
510.60	45062.33
510.77	45340.86
510.95	45591.30
511.12	45298.73
511.30	45682.58
511.47	45432.14
511.64	45551.51
511.82	45860.46
511.99	46066.42
512.17	46040.68
512.34	46164.73
512.51	46705.39
512.69	46838.80
512.86	46693.69
513.04	46567.30
513.21	47065.83
513.38	47136.05
513.56	46876.25
513.73	47473.09
513.90	47416.91
514.08	47110.30
514.25	47580.75
514.43	47725.86
514.60	47775.02
514.77	47449.68
514.95	47800.76
515.12	47629.90
515.29	47957.58
515.47	48678.46
515.64	48208.01
515.81	48311.00
515.99	48868.05
516.16	48617.61
516.33	48566.12
516.51	48931.24
516.68	49006.14
516.85	48987.41
517.03	49167.63
517.20	49010.82
517.37	48959.33
517.54	49310.41
517.72	49081.03
517.89	49200.40
518.06	49338.49
518.24	49434.45
518.41	49546.80
518.58	49619.36
518.75	49621.70
518.93	49947.03
519.10	49958.73
519.27	50178.75
519.45	49794.90
519.62	50206.83
519.79	50192.79
519.96	49921.29
520.14	50480.67
520.31	50288.75
520.48	50714.73
520.65	50253.64
520.83	50604.72
521.00	51044.74
521.17	50681.96
521.34	50869.20
521.52	50901.97
521.69	51419.23
521.86	51107.94
522.03	51426.25
522.20	51468.38
522.38	51629.88
522.55	51576.04
522.72	51510.51
522.89	51442.63
523.07	51920.10
523.24	51653.28
523.41	51669.67
523.58	51756.27
523.75	51732.86
523.92	52107.35
524.10	52027.77
524.27	52020.75
524.44	52018.41
524.61	52165.86
524.78	52271.18
524.96	52360.12
525.13	52692.48
525.30	52484.17
525.47	52732.27
525.64	52648.01
525.81	52699.50
525.98	52814.19
526.16	52566.09
526.33	52898.45
526.50	53523.37
526.67	52760.36
526.84	53043.56
527.01	52861.00
527.18	53155.91
527.36	53125.48
527.53	53099.73
527.70	53717.64
527.87	53406.34
528.04	53289.32
528.21	53476.56
528.38	53502.31
528.55	53865.09
528.72	53504.65
528.89	53654.44
529.07	53560.82
529.24	53605.29
529.41	53755.08
529.58	53827.64
529.75	53691.89
529.92	54012.54
530.09	53984.46
530.26	54120.21
530.43	54319.15
530.60	53954.03
530.77	54195.10
530.94	54480.65
531.11	54101.48
531.28	54131.91
531.46	54447.88
531.63	54429.16
531.80	54307.45
531.97	54583.63
532.14	54600.02
532.31	54581.29
532.48	54756.83
532.65	54527.46
532.82	54745.13
532.99	54972.16
533.16	54590.66
533.33	55007.27
533.50	55058.76
533.67	55068.12
533.84	54894.92
534.01	55203.88
534.18	55016.63
534.35	55475.38
534.52	55274.09
534.69	55491.76
534.86	55332.60
535.03	55199.19
535.20	55356.01
535.37	55519.85
535.54	55487.08
535.71	55316.22
535.88	55599.43
536.05	55791.35
536.22	55718.79
536.38	55646.24
536.55	55732.84
536.72	55826.46
536.89	55613.47
537.06	55924.76
537.23	55730.50
537.40	55756.24
537.57	56294.56
537.74	55950.51
537.91	56128.39
538.08	56095.62
538.25	56023.06
538.42	56207.97
538.59	56367.12
538.75	56135.41
538.92	56310.95
539.09	56374.14
539.26	56278.18
539.43	56205.62
539.60	56498.19
539.77	56296.91
539.94	56608.20
540.11	56409.25
540.28	56547.34
540.44	56669.05
540.61	56355.42
540.78	56479.47
540.95	56369.46
541.12	56563.73
541.29	56484.15
541.46	56690.12
541.62	56800.12
541.79	56793.10
541.96	56708.84
542.13	56580.11
542.30	56711.18
542.47	57090.35
542.63	56828.21
542.80	57062.26
542.97	57333.76
543.14	57457.81
543.31	56914.81
543.48	57418.02
543.64	57361.85
543.81	57485.90
543.98	57506.96
544.15	57614.63
544.32	57607.61
544.48	57804.21
544.65	57436.75
544.82	57614.63
544.99	57553.77
545.16	57729.31
545.32	57551.43
545.49	57956.35
545.66	57844.00
545.83	57949.32
546.00	57820.59
546.16	57860.38
546.33	57923.58
546.50	57476.54
546.67	57804.21
546.83	57666.12
547.00	57822.93
547.17	57883.79
547.34	57860.38
547.50	58110.82
547.67	58087.42
547.84	58075.71
548.00	58447.86
548.17	58286.36
548.34	58169.33
548.51	58164.65
548.67	58447.86
548.84	58152.95
549.01	58094.44
549.18	58309.77
549.34	58309.77
549.51	58284.02
549.68	58532.12
549.84	58384.66
550.01	58649.14
550.18	58342.53
550.34	58541.48
550.51	58770.85
550.68	58541.48
550.84	58419.77
551.01	58906.60
551.18	58527.44
551.34	58822.34
551.51	58789.58
551.68	58728.72
551.84	58571.91
552.01	58405.73
552.18	58920.65
552.34	58731.06
552.51	58904.26
552.68	58609.35
552.84	58899.58
553.01	58911.28
553.18	58944.05
553.34	59241.30
553.51	58801.28
553.67	59070.44
553.84	59157.04
554.01	58913.62
554.17	59107.89
554.34	59091.51
554.51	59379.39
554.67	59072.78
554.84	59011.93
555.00	59180.45
555.17	58876.18
555.33	59393.43
555.50	59147.68
555.67	59075.12
555.83	59098.53
556.00	59203.85
556.16	59491.74
556.33	59323.22
556.50	59456.63
556.66	59327.90
556.83	59236.62
556.99	59700.04
557.16	59674.30
557.32	59451.95
557.49	59810.05
557.65	59592.38
557.82	59283.43
557.98	59571.32
558.15	59576.00
558.32	59683.66
558.48	59372.37
558.65	59683.66
558.81	59489.40
558.98	59648.55
559.14	59831.11
559.31	59709.41
559.47	59779.62
559.64	59880.27
559.80	60055.81
559.97	59770.26
560.13	59660.26
560.30	59917.71
560.46	59962.18
560.63	59770.26
560.79	59751.54
560.96	60001.97
561.12	60182.19
561.29	59997.29
561.45	60058.15
561.61	59903.67
561.78	59817.07
561.94	60034.74
562.11	60055.81
562.27	59856.86
562.44	60179.85
562.60	60123.68
562.77	60196.24
562.93	59856.86
563.10	60285.18
563.26	60114.32
563.42	60348.37
563.59	60203.26
563.75	60161.13
563.92	60189.22
564.08	60179.85
564.24	60306.24
564.41	60212.62
564.57	60273.48
564.74	60177.51
564.90	60219.64
565.07	60093.25
565.23	60214.96
565.39	60299.22
565.56	60402.21
565.72	60184.54
565.88	60434.97
566.05	60090.91
566.21	60423.27
566.38	60287.52
566.54	60484.12
566.70	60310.92
566.87	60453.70
567.03	60355.39
567.19	60556.68
567.36	60378.80
567.52	60505.19
567.68	60678.39
567.85	60456.04
568.01	60629.24
568.17	60360.08
568.34	60456.04
568.50	60477.10
568.66	60444.33
568.83	60584.77
568.99	60535.62
569.15	60687.75
569.32	60617.53
569.48	60364.76
569.64	60629.24
569.81	60488.80
569.97	60603.49
570.13	60694.77
570.30	60580.09
570.46	60615.19
570.62	60804.78
570.78	60650.30
570.95	60622.22
571.11	60645.62
571.27	60612.85
571.43	60568.38
571.60	60924.14
571.76	60914.78
571.92	60701.79
572.09	60942.87
572.25	60849.25
572.41	60678.39
572.57	60713.50
572.74	60940.53
572.90	60598.81
573.06	60949.89
573.22	60886.70
573.38	60753.29
573.55	60767.33
573.71	60846.91
573.87	60809.46
574.03	60807.12
574.20	60650.30
574.36	60907.76
574.52	60874.99
574.68	60949.89
574.84	61020.11
575.01	60884.36
575.17	60839.89
575.33	60865.63
575.49	60940.53
575.65	60781.37
575.82	61006.06
575.98	60940.53
576.14	60910.10
576.30	61029.47
576.46	60772.01
576.62	61027.13
576.79	60889.04
576.95	60781.37
577.11	61113.73
577.27	61015.43
577.43	60844.57
577.59	60783.71
577.75	60891.38
577.92	60839.89
578.08	60900.74
578.24	60919.46
578.40	61202.67
578.56	61048.19
578.72	60968.61
578.88	60956.91
579.04	61036.49
579.21	61144.16
579.37	61179.26
579.53	61034.15
579.69	60718.18
579.85	60917.12
580.01	61116.07
580.17	60961.59
580.33	61176.92
580.49	61010.74
580.65	61151.18
580.82	60996.70
580.98	60797.76
581.14	61001.38
581.30	60992.02
581.46	60985.00
581.62	61045.85
581.78	61052.87
581.94	61197.99
582.10	61090.32
582.26	61006.06
582.42	60985.00
582.58	61052.87
582.74	61043.51
582.90	61050.53
583.06	61020.11
583.22	60891.38
583.38	61062.24
583.54	60907.76
583.70	61048.19
583.86	61317.35
584.02	60828.18
584.18	61113.73
584.34	61043.51
584.50	61015.43
584.66	60956.91
584.82	61024.79
584.98	61041.17
585.14	60926.49
585.30	60905.42
585.46	61073.94
585.62	60926.49
585.78	61090.32
585.94	60926.49
586.10	61277.57
586.26	61036.49
586.42	61174.58
586.58	61123.09
586.74	61310.33
586.90	61024.79
587.06	61099.68
587.22	61499.92
587.38	61109.05
587.54	61277.57
587.70	61361.82
587.86	61258.84
588.02	61310.33
588.18	61368.85
588.34	61146.50
588.49	61141.81
