SpectraSuite Data File
++++++++++++++++++++++++++++++++++++
Date: Fri Oct 25 10:44:33 EDT 2013
User: price-jones
Dark Spectrum Present: No
Reference Spectrum Present: No
Number of Sampled Component Spectra: 1
Spectrometers: USB2+H05261
Integration Time (usec): 100000 (USB2+H05261)
Spectra Averaged: 1 (USB2+H05261)
Boxcar Smoothing: 0 (USB2+H05261)
Correct for Electrical Dark: No (USB2+H05261)
Strobe/Lamp Enabled: No (USB2+H05261)
Correct for Detector Non-linearity: No (USB2+H05261)
Correct for Stray Light: No (USB2+H05261)
Number of Pixels in Processed Spectrum: 2048
>>>>>Begin Processed Spectral Data<<<<<
365.73	117.03
365.92	117.03
366.12	117.03
366.32	67.88
366.52	0.00
366.72	0.00
366.91	2.34
367.11	0.00
367.31	25.75
367.51	0.00
367.70	9.36
367.90	32.77
368.10	0.00
368.30	32.77
368.49	37.45
368.69	9.36
368.89	65.54
369.09	2.34
369.28	53.83
369.48	128.73
369.68	91.28
369.87	81.92
370.07	149.79
370.27	149.79
370.47	175.54
370.66	311.29
370.86	374.49
371.06	337.04
371.25	437.68
371.45	409.59
371.65	376.83
371.84	468.11
372.04	425.98
372.24	465.77
372.44	381.51
372.63	470.45
372.83	489.17
373.03	454.06
373.22	425.98
373.42	489.17
373.62	550.03
373.81	449.38
374.01	535.98
374.21	535.98
374.40	486.83
374.60	620.24
374.79	550.03
374.99	521.94
375.19	533.64
375.38	573.43
375.58	503.22
375.78	557.05
375.97	538.32
376.17	664.71
376.37	575.77
376.56	594.50
376.76	627.26
376.95	587.47
377.15	543.00
377.35	594.50
377.54	692.80
377.74	587.47
377.93	676.41
378.13	613.22
378.33	603.86
378.52	627.26
378.72	645.99
378.91	582.79
379.11	582.79
379.31	589.82
379.50	636.63
379.70	699.82
379.89	755.99
380.09	690.46
380.28	650.67
380.48	653.01
380.68	683.44
380.87	575.77
381.07	697.48
381.26	699.82
381.46	688.12
381.65	610.88
381.85	636.63
382.04	688.12
382.24	648.33
382.43	645.99
382.63	629.60
382.83	720.88
383.02	638.97
383.22	695.14
383.41	645.99
383.61	620.24
383.80	674.07
384.00	603.86
384.19	758.33
384.39	774.72
384.58	807.48
384.78	716.20
384.97	748.97
385.17	767.70
385.36	734.93
385.56	706.84
385.75	788.76
385.95	748.97
386.14	791.10
386.34	777.06
386.53	732.59
386.72	828.55
386.92	800.46
387.11	751.31
387.31	837.91
387.50	858.98
387.70	800.46
387.89	828.55
388.09	816.85
388.28	866.00
388.48	835.57
388.67	805.14
388.86	950.26
389.06	961.96
389.25	910.47
389.45	910.47
389.64	880.04
389.84	856.64
390.03	910.47
390.22	936.21
390.42	870.68
390.61	926.85
390.81	901.11
391.00	973.66
391.19	987.71
391.39	997.07
391.58	1034.52
391.78	1001.75
391.97	1025.15
392.16	971.32
392.36	1018.13
392.55	964.30
392.75	957.28
392.94	894.08
393.13	1025.15
393.33	997.07
393.52	961.96
393.71	1064.94
393.91	1011.11
394.10	1076.65
394.29	1076.65
394.49	1053.24
394.68	1165.59
394.88	1095.37
395.07	1252.19
395.26	1198.35
395.46	1046.22
395.65	1196.01
395.84	1231.12
396.04	1174.95
396.23	1102.39
396.42	1116.44
396.62	1048.56
396.81	1228.78
397.00	1179.63
397.19	1174.95
397.39	1280.27
397.58	1289.64
397.77	1226.44
397.97	1245.16
398.16	1313.04
398.35	1299.00
398.55	1359.85
398.74	1294.32
398.93	1413.68
399.12	1336.45
399.32	1329.42
399.51	1378.58
399.70	1437.09
399.90	1455.81
400.09	1444.11
400.28	1504.96
400.47	1472.20
400.67	1528.37
400.86	1462.83
401.05	1511.99
401.24	1544.75
401.44	1544.75
401.63	1572.84
401.82	1631.35
402.01	1521.35
402.21	1490.92
402.40	1579.86
402.59	1544.75
402.78	1647.74
402.97	1645.40
403.17	1668.80
403.36	1633.69
403.55	1743.70
403.74	1666.46
403.93	1673.48
404.13	1647.74
404.32	1703.91
404.51	1645.40
404.70	1753.06
404.89	1792.85
405.09	1865.41
405.28	1746.04
405.47	1743.70
405.66	1893.49
405.85	1914.56
406.05	1788.17
406.24	1809.23
406.43	1872.43
406.62	1832.64
406.81	1909.88
407.00	1902.86
407.20	1804.55
407.39	1961.37
407.58	1987.11
407.77	1928.60
407.96	1956.69
408.15	1963.71
408.34	1942.64
408.54	2038.61
408.73	2104.14
408.92	2160.31
409.11	2052.65
409.30	2176.70
409.49	2134.57
409.68	1998.82
409.87	1905.20
410.07	2200.10
410.26	2083.08
410.45	2235.21
410.64	2242.23
410.83	2141.59
411.02	2296.07
411.21	2335.85
411.40	2387.35
411.59	2324.15
411.78	2401.39
411.98	2282.02
412.17	2413.09
412.36	2483.31
412.55	2480.97
412.74	2511.39
412.93	2464.58
413.12	2616.72
413.31	2656.51
413.50	2677.57
413.69	2656.51
413.88	2780.56
414.07	2766.51
414.26	2670.55
414.45	2768.85
414.64	2532.46
414.83	2710.34
415.02	2733.75
415.22	2761.83
415.41	2888.22
415.60	2839.07
415.79	2979.50
415.98	2949.08
416.17	2925.67
416.36	2939.71
416.55	2888.22
416.74	3061.42
416.93	2974.82
417.12	2979.50
417.31	3033.33
417.50	3042.70
417.69	3117.59
417.88	3133.98
418.07	3119.93
418.26	3129.30
418.45	3169.09
418.64	3232.28
418.83	3274.41
419.02	3185.47
419.21	3323.56
419.39	3169.09
419.58	3258.03
419.77	3234.62
419.96	3267.39
420.15	3372.71
420.34	3332.92
420.53	3309.52
420.72	3508.46
420.91	3466.33
421.10	3297.81
421.29	3646.55
421.48	3506.12
421.67	3597.40
421.86	3480.38
422.05	3550.59
422.24	3449.95
422.43	3557.61
422.61	3588.04
422.80	3684.00
422.99	3574.00
423.18	3644.21
423.37	3719.11
423.56	3665.28
423.75	3655.92
423.94	3548.25
424.13	3314.20
424.32	3449.95
424.50	3684.00
424.69	3688.68
424.88	3726.13
425.07	3641.87
425.26	3627.83
425.45	3653.58
425.64	3637.19
425.83	3599.74
426.01	3756.56
426.20	3611.45
426.39	3695.71
426.58	3737.84
426.77	3588.04
426.96	3662.94
427.15	3770.60
427.33	3824.44
427.52	3702.73
427.71	3742.52
427.90	3761.24
428.09	3868.91
428.28	3824.44
428.46	3831.46
428.65	3707.41
428.84	3892.31
429.03	3983.59
429.22	3838.48
429.40	3786.99
429.59	3880.61
429.78	3618.47
429.97	3676.98
430.16	3794.01
430.34	3866.56
430.53	3985.93
430.72	3960.19
430.91	4037.42
431.10	4109.98
431.28	4109.98
431.47	4327.65
431.66	4301.90
431.85	4191.90
432.03	4322.97
432.22	4283.18
432.41	4250.41
432.60	4147.43
432.79	4308.93
432.97	4255.09
433.16	4486.81
433.35	4372.12
433.54	4311.27
433.72	4423.61
433.91	4301.90
434.10	4468.08
434.28	4528.94
434.47	4442.34
434.66	4524.26
434.85	4578.09
435.03	4582.77
435.22	4402.55
435.41	4620.22
435.59	4592.13
435.78	4723.20
435.97	4772.35
436.16	4746.61
436.34	4706.82
436.53	4655.33
436.72	4753.63
436.90	4723.20
437.09	4887.04
437.28	4669.37
437.46	4657.67
437.65	4727.88
437.84	4823.84
438.02	4746.61
438.21	4830.87
438.40	4812.14
438.58	5050.88
438.77	5123.43
438.96	4723.20
439.14	5160.88
439.33	5172.58
439.52	5055.56
439.70	5224.08
439.89	5193.65
440.08	5336.42
440.26	5296.63
440.45	5254.50
440.63	5261.52
440.82	5434.72
441.01	5416.00
441.19	5530.69
441.38	5717.93
441.57	5453.45
441.75	5783.46
441.94	5867.72
442.12	5771.76
442.31	5907.51
442.50	5813.89
442.68	5802.19
442.87	5806.87
443.05	5778.78
443.24	5987.09
443.43	5900.49
443.61	6045.60
443.80	6232.85
443.98	5738.99
444.17	5942.62
444.35	5973.05
444.54	6209.44
444.73	5781.12
444.91	6015.18
445.10	5940.28
445.28	5909.85
445.47	5790.49
445.65	5989.43
445.84	5926.24
446.02	5947.30
446.21	6047.94
446.39	5926.24
446.58	6047.94
446.77	6274.98
446.95	5980.07
447.14	6057.31
447.32	6160.29
447.51	6061.99
447.69	6069.01
447.88	6260.93
448.06	6094.76
448.25	6157.95
448.43	6214.12
448.62	6069.01
448.80	5949.64
448.99	6373.28
449.17	6340.51
449.36	6225.82
449.54	6382.64
449.73	6373.28
449.91	6565.20
450.10	6534.78
450.28	6602.65
450.46	6431.79
450.65	6548.82
450.83	6588.61
451.02	6544.14
451.20	6696.27
451.39	6612.01
451.57	6513.71
451.76	6476.26
451.94	6780.53
452.13	6609.67
452.31	6576.91
452.49	6682.23
452.68	6630.74
452.86	6539.46
453.05	6892.88
453.23	6654.14
453.42	6434.13
453.60	6796.92
453.78	6951.39
453.97	6815.64
454.15	6871.81
454.34	6906.92
454.52	6925.65
454.70	6888.20
454.89	6869.47
455.07	6913.94
455.26	7054.37
455.44	7021.61
455.62	7059.06
455.81	7117.57
455.99	7220.55
456.17	7012.24
456.36	7309.49
456.54	7124.59
456.73	7213.53
456.91	7325.88
457.09	7152.68
457.28	7470.99
457.46	7279.07
457.64	7501.42
457.83	7538.87
458.01	7473.33
458.19	7433.54
458.38	7489.71
458.56	7569.29
458.74	7595.04
458.93	7489.71
459.11	7747.17
459.29	7522.48
459.48	7543.55
459.66	7625.47
459.84	7789.30
460.03	7861.86
460.21	7812.71
460.39	7864.20
460.57	7700.36
460.76	7861.86
460.94	8142.72
461.12	7932.08
461.31	7838.45
461.49	7978.89
461.67	8037.40
461.85	8175.49
462.04	7983.57
462.22	8126.34
462.40	8276.13
462.59	8112.30
462.77	8201.24
462.95	8145.06
463.13	8114.64
463.32	8325.29
463.50	8243.37
463.68	8273.79
463.86	8287.84
464.05	8163.79
464.23	8081.87
464.41	8355.71
464.59	8451.67
464.78	8496.14
464.96	8606.15
465.14	8336.99
465.32	8564.02
465.50	8695.09
465.69	8568.70
465.87	8383.80
466.05	8327.63
466.23	8659.98
466.41	8589.77
466.60	8847.22
466.78	8695.09
466.96	8603.81
467.14	8566.36
467.32	8685.73
467.51	8688.07
467.69	8418.91
467.87	8559.34
468.05	8877.65
468.23	8739.56
468.41	8887.01
468.60	8819.14
468.78	8968.93
468.96	9041.49
469.14	9078.94
469.32	9188.94
469.50	8990.00
469.69	8926.80
469.87	9181.92
470.05	9041.49
470.23	9181.92
470.41	9280.22
470.59	9401.93
470.77	9376.19
470.95	9298.95
471.14	9390.23
471.32	9256.82
471.50	9518.96
471.68	9334.06
471.86	9628.96
472.04	9607.90
472.22	9605.56
472.40	9540.02
472.58	9682.80
472.77	9668.75
472.95	9713.22
473.13	10052.60
473.31	9781.10
473.49	9731.95
473.67	9879.40
473.85	9996.43
474.03	10242.18
474.21	10223.46
474.39	10134.52
474.57	10054.94
474.75	10452.83
474.93	10490.28
475.12	10370.91
475.30	10406.02
475.48	10267.93
475.66	10387.30
475.84	10427.09
476.02	10619.01
476.20	10602.63
476.38	10967.75
476.56	11035.63
476.74	10768.80
476.92	10853.06
477.10	11143.29
477.28	11070.73
477.46	11164.36
477.64	11300.11
477.82	11555.22
478.00	11625.44
478.18	11466.28
478.36	11719.06
478.54	11786.94
478.72	11772.89
478.90	11646.51
479.08	11941.41
479.26	12409.52
479.44	12145.04
479.62	12250.36
479.80	12208.23
479.98	12645.91
480.16	12699.75
480.34	12601.44
480.52	12830.82
480.70	12823.80
480.88	12718.47
481.06	13095.30
481.24	12823.80
481.41	13123.38
481.59	13345.73
481.77	13057.85
481.95	13605.53
482.13	13429.99
482.31	13654.69
482.49	13877.04
482.67	13720.22
482.85	14068.96
483.03	14078.32
483.21	14171.94
483.39	14125.13
483.57	14307.69
483.74	14342.80
483.92	14389.61
484.10	14427.06
484.28	14565.15
484.46	15047.30
484.64	15269.66
484.82	14995.81
485.00	15164.33
485.18	15365.62
485.35	15609.03
485.53	15243.91
485.71	15143.27
485.89	15861.81
486.07	15503.71
486.25	15587.97
486.43	15950.75
486.61	15995.22
486.78	16056.08
486.96	16453.97
487.14	16585.04
487.32	16552.27
487.50	16688.02
487.68	16760.58
487.85	17062.51
488.03	17209.96
488.21	17301.24
488.39	17628.92
488.57	17745.94
488.75	17879.35
488.92	17848.93
489.10	18040.85
489.28	17867.65
489.46	18310.01
489.64	18125.11
489.81	18909.19
489.99	18703.22
490.17	18848.33
490.35	19049.62
490.53	18881.10
490.70	19290.70
490.88	19227.50
491.06	19618.37
491.24	19297.72
491.41	19358.57
491.59	19697.95
491.77	19489.64
491.95	19985.83
492.13	20025.62
492.30	20114.56
492.48	20329.89
492.66	20332.23
492.84	20507.77
493.01	20631.82
493.19	20507.77
493.37	20835.45
493.54	20945.45
493.72	21015.67
493.90	21025.03
494.08	21280.15
494.25	21399.52
494.43	21500.16
494.61	21846.56
494.79	21912.10
494.96	21986.99
495.14	22113.38
495.32	22113.38
495.49	22314.67
495.67	22504.25
495.85	22249.13
496.02	22824.90
496.20	22621.28
496.38	22951.29
496.55	22590.85
496.73	23466.21
496.91	23426.42
497.09	23278.97
497.26	23587.92
497.44	23651.11
497.62	23716.65
497.79	23854.74
497.97	23548.13
498.14	23892.19
498.32	24489.03
498.50	23981.13
498.67	24465.62
498.85	24215.18
499.03	24379.02
499.20	24645.84
499.38	24472.64
499.56	24496.05
499.73	24629.46
499.91	24950.11
500.08	25280.13
500.26	24704.35
500.44	24919.68
500.61	25142.03
500.79	24786.27
500.97	25219.27
501.14	25745.89
501.32	25420.56
501.49	25654.61
501.67	25546.95
501.84	26043.14
502.02	25640.57
502.20	25998.67
502.37	26359.11
502.55	26171.87
502.72	26441.03
502.90	26302.94
503.07	26001.01
503.25	26759.34
503.43	26623.59
503.60	26801.47
503.78	26977.01
503.95	26841.26
504.13	27136.17
504.30	26864.67
504.48	26829.56
504.65	27421.72
504.83	27229.79
505.01	27321.07
505.18	27639.39
505.36	27833.65
505.53	27503.64
505.71	28006.85
505.88	27608.96
506.06	27501.29
506.23	27995.15
506.41	27821.95
506.58	27714.28
506.76	28140.26
506.93	28346.23
507.11	27964.72
507.28	28175.37
507.46	27985.79
507.63	28212.82
507.81	28683.27
507.98	28458.57
508.16	28765.18
508.33	28748.80
508.50	28882.21
508.68	29050.73
508.85	29277.76
509.03	28973.49
509.20	29589.05
509.38	29364.36
509.55	29591.39
509.73	29586.71
509.90	29692.04
510.08	29319.89
510.25	29736.51
510.42	29741.19
510.60	29750.55
510.77	30141.42
510.95	30288.87
511.12	30003.33
511.30	30377.81
511.47	30438.67
511.64	30499.52
511.82	30377.81
511.99	30331.00
512.17	30597.82
512.34	30410.58
512.51	30916.14
512.69	31108.06
512.86	31229.77
513.04	31456.80
513.21	31056.57
513.38	31344.45
513.56	31218.07
513.73	30637.61
513.90	31316.37
514.08	31271.90
514.25	31473.18
514.43	31304.67
514.60	31604.25
514.77	31445.10
514.95	31651.06
515.12	31871.07
515.29	31899.16
515.47	32130.87
515.64	32428.12
515.81	32173.00
515.99	32163.64
516.16	31847.67
516.33	32208.11
516.51	31882.78
516.68	32060.66
516.85	31648.72
517.03	32163.64
517.20	32250.24
517.37	32243.22
517.54	32753.46
517.72	32381.31
517.89	32472.59
518.06	32334.50
518.24	32622.39
518.41	32547.49
518.58	33008.58
518.75	33099.86
518.93	33268.37
519.10	32868.14
519.27	33443.91
519.45	33240.29
519.62	33626.48
519.79	33991.60
519.96	33359.66
520.14	33921.38
520.31	33652.22
520.48	33516.47
520.65	33720.10
520.83	34284.17
521.00	34183.52
521.17	34909.09
521.34	34307.57
521.52	34398.85
521.69	33965.85
521.86	34581.42
522.03	34792.06
522.20	34536.94
522.38	34485.45
522.55	34944.20
522.72	34553.33
522.89	35037.82
523.07	34813.13
523.24	34953.56
523.41	35026.12
523.58	35002.71
523.75	35068.25
523.92	35538.69
524.10	35590.19
524.27	35363.15
524.44	35587.85
524.61	35473.16
524.78	35737.64
524.96	35447.41
525.13	35866.37
525.30	36147.23
525.47	35974.03
525.64	35587.85
525.81	36046.59
525.98	35693.17
526.16	35962.33
526.33	35498.91
526.50	35739.98
526.67	35683.81
526.84	35866.37
527.01	35646.36
527.18	36346.18
527.36	36224.47
527.53	36435.12
527.70	36835.35
527.87	37118.56
528.04	36392.99
528.21	36847.05
528.38	37001.53
528.55	36680.88
528.72	37156.00
528.89	37050.68
529.07	36598.96
529.24	36725.35
529.41	36943.02
529.58	37198.13
529.75	36863.44
529.92	37322.18
530.09	37516.45
530.26	37336.23
530.43	37418.14
530.60	37338.57
530.77	37310.48
530.94	37539.85
531.11	37514.11
531.28	38005.62
531.46	37340.91
531.63	37483.68
531.80	37858.17
531.97	37610.07
532.14	37743.48
532.31	37930.72
532.48	37991.58
532.65	37467.30
532.82	37780.93
532.99	37984.55
533.16	38122.65
533.33	38234.99
533.50	38127.33
533.67	38363.72
533.84	38066.47
534.01	38101.58
534.18	37902.64
534.35	38675.01
534.52	38590.75
534.69	38349.68
534.86	38473.73
535.03	38726.50
535.20	38866.94
535.37	39304.62
535.54	39222.70
535.71	38457.34
535.88	39117.37
536.05	38581.39
536.22	39182.91
536.38	39019.07
536.55	39000.35
536.72	39234.40
536.89	39040.14
537.06	39306.96
537.23	39267.17
537.40	39180.57
537.57	39449.73
537.74	39805.49
537.91	39236.74
538.08	39318.66
538.25	39374.83
538.42	39533.99
538.59	39271.85
538.75	39283.55
538.92	39770.38
539.09	39484.84
539.26	39885.07
539.43	39709.53
539.60	39583.14
539.77	39555.05
539.94	39613.57
540.11	39569.10
540.28	39885.07
540.44	39517.60
540.61	39587.82
540.78	39686.12
540.95	39707.19
541.12	39976.35
541.29	39997.41
541.46	39936.56
541.62	39707.19
541.79	40282.96
541.96	39826.56
542.13	39985.71
542.30	39936.56
542.47	40177.64
542.63	40627.02
542.80	40552.12
542.97	40842.35
543.14	40905.54
543.31	40907.88
543.48	41069.38
543.64	41155.98
543.81	41331.52
543.98	41017.89
544.15	40762.77
544.32	41450.89
544.48	41684.94
544.65	41191.09
544.82	41443.87
544.99	40769.79
545.16	41003.85
545.32	41312.80
545.49	41951.76
545.66	41530.47
545.83	41493.02
546.00	41993.89
546.16	41509.40
546.33	41287.05
546.50	41525.78
546.67	41642.81
546.83	41406.42
547.00	41736.43
547.17	41656.85
547.34	42059.43
547.50	41563.23
547.67	42120.28
547.84	41766.86
548.00	42305.18
548.17	42031.34
548.34	41991.55
548.51	42621.16
548.67	42197.52
548.84	42447.96
549.01	41951.76
549.18	41687.28
549.34	42054.75
549.51	42234.97
549.68	42539.24
549.84	42333.27
550.01	42677.33
550.18	42707.76
550.34	42499.45
550.51	42258.37
550.68	42424.55
550.84	42340.29
551.01	42707.76
551.18	42754.57
551.34	42342.63
551.51	42890.32
551.68	42799.04
551.84	42464.34
552.01	42417.53
552.18	42529.87
552.34	42546.26
552.51	42815.42
552.68	42169.43
552.84	43185.22
553.01	43430.98
553.18	42726.48
553.34	42981.60
553.51	42581.37
553.67	42773.29
553.84	43435.66
554.01	43007.34
554.17	43035.43
554.34	43438.00
554.51	43103.31
554.67	43175.86
554.84	43381.83
555.00	43267.14
555.17	43082.24
555.33	42993.30
555.50	43098.62
555.67	43012.02
555.83	43185.22
556.00	43065.86
556.16	44016.11
556.33	43257.78
556.50	43007.34
556.66	43206.29
556.83	42873.93
556.99	43875.68
557.16	43920.15
557.32	43714.19
557.49	43803.13
557.65	43351.40
557.82	43512.90
557.98	43316.29
558.15	43871.00
558.32	43379.49
558.48	43693.12
558.65	43800.79
558.81	43412.26
558.98	43662.69
559.14	43381.83
559.31	43887.39
559.47	43679.08
559.64	44009.09
559.80	43812.49
559.97	43936.54
560.13	43428.64
560.30	43871.00
560.46	44112.08
560.63	44013.77
560.79	43735.25
560.96	43854.62
561.12	43683.76
561.29	43749.29
561.45	44128.46
561.61	43796.10
561.78	43571.41
561.94	44116.76
562.11	43892.07
562.27	44004.41
562.44	44098.03
562.60	44083.99
562.77	44425.71
562.93	44025.48
563.10	44051.22
563.26	43805.47
563.42	44273.57
563.59	43473.11
563.75	44079.31
563.92	44435.07
564.08	44566.14
564.24	44196.34
564.41	44399.96
564.57	44093.35
564.74	44079.31
564.90	44016.11
565.07	44240.81
565.23	43878.02
565.39	44313.36
565.56	44329.75
565.72	44294.64
565.88	44402.30
566.05	44149.53
566.21	44065.27
566.38	44165.91
566.54	44428.05
566.70	44182.29
566.87	44725.30
567.03	44507.63
567.19	44659.76
567.36	44512.31
567.52	44156.55
567.68	44509.97
567.85	44217.40
568.01	44809.56
568.17	44243.15
568.34	44758.06
568.50	44140.16
568.66	44378.90
568.83	44425.71
568.99	44421.03
569.15	44439.75
569.32	44444.43
569.48	44315.70
569.64	44774.45
569.81	44367.20
569.97	44505.29
570.13	44690.19
570.30	44128.46
570.46	44399.96
570.62	44203.36
570.78	44186.97
570.95	44552.10
571.11	44376.56
571.27	44311.02
571.43	44311.02
571.60	44353.15
571.76	44355.49
571.92	44257.19
572.09	44512.31
572.25	44507.63
572.41	44587.21
572.57	44570.82
572.74	45347.88
572.90	44652.74
573.06	44795.51
573.22	44463.16
573.38	44488.90
573.55	44631.68
573.71	44493.58
573.87	44816.58
574.03	44388.26
574.20	44809.56
574.36	44704.23
574.52	44905.52
574.68	44659.76
574.84	44547.42
575.01	44355.49
575.17	44402.30
575.33	44130.80
575.49	44596.57
575.65	45099.78
575.82	44797.85
575.98	44816.58
576.14	44786.15
576.30	45059.99
576.46	44678.49
576.62	44655.08
576.79	44921.90
576.95	44137.82
577.11	44886.79
577.27	44577.84
577.43	44804.88
577.59	44399.96
577.75	44399.96
577.92	43955.26
578.08	44561.46
578.24	44666.78
578.40	44697.21
578.56	44605.93
578.72	44676.15
578.88	45137.23
579.04	45095.10
579.21	44737.00
579.37	44973.39
579.53	44875.09
579.69	44201.02
579.85	44421.03
580.01	44774.45
580.17	44851.69
580.33	45123.19
580.49	45123.19
580.65	45062.33
580.82	45167.66
580.98	44449.11
581.14	44577.84
581.30	45343.20
581.46	44926.58
581.62	44945.31
581.78	44907.86
581.94	44676.15
582.10	44758.06
582.26	45088.08
582.42	44966.37
582.58	44587.21
582.74	44622.31
582.90	44893.82
583.06	45188.72
583.22	45418.10
583.38	45111.49
583.54	45081.06
583.70	45137.23
583.86	44856.37
584.02	45017.86
584.18	44928.92
584.34	44760.40
584.50	44636.36
584.66	44467.84
584.82	45237.87
584.98	45008.50
585.14	45254.26
585.30	44868.07
585.46	45233.19
585.62	44865.73
585.78	44889.13
585.94	44673.81
586.10	44875.09
586.26	44781.47
586.42	45160.64
586.58	44912.54
586.74	44861.05
586.90	44811.90
587.06	44729.98
587.22	44851.69
587.38	45067.02
587.54	44863.39
587.70	45008.50
587.86	44924.24
588.02	44467.84
588.18	45436.82
588.34	44755.72
588.49	44996.80
588.65	44460.82
588.81	43985.69
588.97	44870.41
589.13	44601.25
589.29	45099.78
589.45	44912.54
589.61	44825.94
589.77	44928.92
589.93	45478.95
590.08	45116.17
590.24	45380.65
