SpectraSuite Data File
++++++++++++++++++++++++++++++++++++
Date: Fri Oct 25 11:26:36 EDT 2013
User: price-jones
Dark Spectrum Present: No
Reference Spectrum Present: No
Number of Sampled Component Spectra: 1
Spectrometers: USB2+H05261
Integration Time (usec): 100000 (USB2+H05261)
Spectra Averaged: 1 (USB2+H05261)
Boxcar Smoothing: 0 (USB2+H05261)
Correct for Electrical Dark: No (USB2+H05261)
Strobe/Lamp Enabled: No (USB2+H05261)
Correct for Detector Non-linearity: No (USB2+H05261)
Correct for Stray Light: No (USB2+H05261)
Number of Pixels in Processed Spectrum: 2048
>>>>>Begin Processed Spectral Data<<<<<
365.73	203.63
365.92	203.63
366.12	203.63
366.32	177.88
366.52	156.82
366.72	119.37
366.91	117.03
367.11	196.60
367.31	74.90
367.51	156.82
367.70	84.26
367.90	138.09
368.10	187.24
368.30	142.77
368.49	138.09
368.69	140.43
368.89	182.56
369.09	156.82
369.28	107.66
369.48	105.32
369.68	201.29
369.87	299.59
370.07	231.71
370.27	229.37
370.47	252.78
370.66	580.45
370.86	641.31
371.06	718.54
371.25	683.44
371.45	737.27
371.65	610.88
371.84	657.69
372.04	587.47
372.24	763.01
372.44	676.41
372.63	767.70
372.83	690.46
373.03	772.38
373.22	774.72
373.42	767.70
373.62	847.27
373.81	826.21
374.01	814.51
374.21	826.21
374.40	812.17
374.60	868.34
374.79	884.72
374.99	830.89
375.19	821.53
375.38	889.40
375.58	858.98
375.78	901.11
375.97	807.48
376.17	912.81
376.37	912.81
376.56	866.00
376.76	800.46
376.95	889.40
377.15	905.79
377.35	833.23
377.54	919.83
377.74	856.64
377.93	910.47
378.13	910.47
378.33	870.68
378.52	957.28
378.72	882.38
378.91	954.94
379.11	968.98
379.31	837.91
379.50	1008.77
379.70	980.68
379.89	1053.24
380.09	1020.47
380.28	1032.18
380.48	976.00
380.68	971.32
380.87	1015.79
381.07	994.73
381.26	1041.54
381.46	1048.56
381.65	957.28
381.85	1100.05
382.04	1034.52
382.24	980.68
382.43	1071.97
382.63	1036.86
382.83	1078.99
383.02	1128.14
383.22	1095.37
383.41	1093.03
383.61	1086.01
383.80	1163.25
384.00	1123.46
384.19	1086.01
384.39	1139.84
384.58	1160.91
384.78	1163.25
384.97	1207.72
385.17	1116.44
385.36	1184.31
385.56	1135.16
385.75	1167.93
385.95	1233.46
386.14	1188.99
386.34	1193.67
386.53	1207.72
386.72	1125.80
386.92	1282.61
387.11	1167.93
387.31	1273.25
387.50	1254.53
387.70	1221.76
387.89	1235.80
388.09	1378.58
388.28	1355.17
388.48	1254.53
388.67	1315.38
388.86	1334.11
389.06	1380.92
389.25	1387.94
389.45	1348.15
389.64	1380.92
389.84	1343.47
390.03	1420.71
390.22	1523.69
390.42	1409.00
390.61	1427.73
390.81	1514.33
391.00	1434.75
391.19	1341.13
391.39	1448.79
391.58	1533.05
391.78	1465.18
391.97	1486.24
392.16	1439.43
392.36	1547.09
392.55	1481.56
392.75	1444.11
392.94	1511.99
393.13	1509.65
393.33	1516.67
393.52	1577.52
393.71	1661.78
393.91	1600.93
394.10	1607.95
394.29	1591.56
394.49	1652.42
394.68	1675.82
394.88	1605.61
395.07	1629.01
395.26	1664.12
395.46	1687.53
395.65	1727.32
395.84	1710.93
396.04	1844.34
396.23	1804.55
396.42	1809.23
396.62	1795.19
396.81	1778.81
397.00	1746.04
397.19	1778.81
397.39	1788.17
397.58	1858.39
397.77	1739.02
397.97	1813.92
398.16	1832.64
398.35	1935.62
398.55	1877.11
398.74	1977.75
398.93	2026.90
399.12	1856.04
399.32	1942.64
399.51	1982.43
399.70	2001.16
399.90	1905.20
400.09	2019.88
400.28	2101.80
400.47	2125.21
400.67	2087.76
400.86	2054.99
401.05	2167.34
401.24	2113.50
401.44	2043.29
401.63	2235.21
401.82	2134.57
402.01	2134.57
402.21	2317.13
402.40	2174.36
402.59	2214.15
402.78	2235.21
402.97	2347.56
403.17	2221.17
403.36	2370.96
403.55	2310.11
403.74	2345.22
403.93	2340.54
404.13	2363.94
404.32	2415.43
404.51	2417.77
404.70	2420.11
404.89	2413.09
405.09	2513.74
405.28	2499.69
405.47	2532.46
405.66	2523.10
405.85	2525.44
406.05	2487.99
406.24	2551.18
406.43	2534.80
406.62	2642.46
406.81	2581.61
407.00	2593.31
407.20	2574.59
407.39	2614.38
407.58	2649.49
407.77	2799.28
407.96	2782.90
408.15	2801.62
408.34	2733.75
408.54	2937.37
408.73	2799.28
408.92	2876.52
409.11	2857.79
409.30	2906.95
409.49	2920.99
409.68	3026.31
409.87	2991.20
410.07	2984.18
410.26	2979.50
410.45	3061.42
410.64	3068.44
410.83	3089.51
411.02	3091.85
411.21	3122.27
411.40	3173.77
411.59	3276.75
411.78	3229.94
411.98	3215.90
412.17	3358.67
412.36	3309.52
412.55	3396.12
412.74	3260.37
412.93	3445.27
413.12	3435.91
413.31	3639.53
413.50	3597.40
413.69	3442.93
413.88	3606.77
414.07	3534.21
414.26	3728.47
414.45	3721.45
414.64	3782.31
414.83	3796.35
415.02	3808.05
415.22	3932.10
415.41	3955.51
415.60	3988.27
415.79	3967.21
415.98	3985.93
416.17	3981.25
416.36	4126.36
416.55	4060.83
416.74	4145.09
416.93	4023.38
417.12	4058.49
417.31	4191.90
417.50	4196.58
417.69	4376.80
417.88	4404.89
418.07	4215.30
418.26	4372.12
418.45	4456.38
418.64	4491.49
418.83	4470.42
419.02	4409.57
419.21	4524.26
419.39	4559.36
419.58	4545.32
419.77	4470.42
419.96	4748.95
420.15	4662.35
420.34	4592.13
420.53	4762.99
420.72	4755.97
420.91	4772.35
421.10	4678.73
421.29	4786.40
421.48	4678.73
421.67	4760.65
421.86	4823.84
422.05	4894.06
422.24	4732.56
422.43	4936.19
422.61	4870.65
422.80	4903.42
422.99	4887.04
423.18	5018.11
423.37	4936.19
423.56	4924.49
423.75	5039.17
423.94	4968.96
424.13	4526.60
424.32	4739.58
424.50	5013.43
424.69	5193.65
424.88	4999.38
425.07	4924.49
425.26	4947.89
425.45	4865.97
425.64	5083.64
425.83	4880.02
426.01	5067.26
426.20	5083.64
426.39	5053.22
426.58	4954.91
426.77	5001.72
426.96	5128.11
427.15	5259.18
427.33	5207.69
427.52	5165.56
427.71	5437.06
427.90	5200.67
428.09	5334.08
428.28	5401.96
428.46	5329.40
428.65	5423.02
428.84	5540.05
429.03	5434.72
429.22	5373.87
429.40	5387.91
429.59	5561.11
429.78	5420.68
429.97	5383.23
430.16	5481.53
430.34	5617.29
430.53	5617.29
430.72	5701.54
430.91	5734.31
431.10	5563.45
431.28	5809.21
431.47	5741.33
431.66	5849.00
431.85	5638.35
432.03	5919.21
432.22	6127.52
432.41	5755.38
432.60	5816.23
432.79	6150.93
432.97	6017.52
433.16	6094.76
433.35	5832.62
433.54	6115.82
433.72	6115.82
433.91	6265.61
434.10	6230.51
434.28	6045.60
434.47	6230.51
434.66	6200.08
434.85	6319.45
435.03	6300.72
435.22	6326.47
435.41	6471.58
435.59	6384.98
435.78	6565.20
435.97	6635.42
436.16	6380.30
436.34	6392.00
436.53	6619.04
436.72	6679.89
436.90	6511.37
437.09	6689.25
437.28	6511.37
437.46	6494.99
437.65	6553.50
437.84	6846.07
438.02	6738.40
438.21	6972.46
438.40	7000.54
438.58	7148.00
438.77	6899.90
438.96	6998.20
439.14	7218.21
439.33	7162.04
439.52	7148.00
439.70	7375.03
439.89	7382.05
440.08	7545.89
440.26	7382.05
440.45	7475.67
440.63	7503.76
440.82	7569.29
441.01	7487.37
441.19	7613.76
441.38	7681.64
441.57	7644.19
441.75	7873.56
441.94	8079.53
442.12	8105.28
442.31	8060.80
442.50	8044.42
442.68	7850.16
442.87	8011.65
443.05	8095.91
443.24	8210.60
443.43	8142.72
443.61	8133.36
443.80	8219.96
443.98	8006.97
444.17	7875.90
444.35	8184.85
444.54	8423.59
444.73	8297.20
444.91	8444.65
445.10	8496.14
445.28	8454.02
445.47	8234.00
445.65	8411.89
445.84	8386.14
446.02	8533.59
446.21	8409.54
446.39	8355.71
446.58	8479.76
446.77	8545.30
446.95	8278.47
447.14	8454.02
447.32	8723.18
447.51	8299.54
447.69	8376.78
447.88	8496.14
448.06	8580.40
448.25	8559.34
448.43	8451.67
448.62	8571.04
448.80	8552.32
448.99	8706.79
449.17	8805.10
449.36	8716.16
449.54	8875.31
449.73	8830.84
449.91	9137.45
450.10	8872.97
450.28	9135.11
450.46	9095.32
450.65	9055.53
450.83	9146.81
451.02	9053.19
451.20	9214.69
451.39	9111.71
451.57	9263.84
451.76	9125.75
451.94	9132.77
452.13	9467.47
452.31	9516.62
452.49	9142.13
452.68	9355.12
452.86	9376.19
453.05	9371.50
453.23	9525.98
453.42	9320.01
453.60	9401.93
453.78	9767.06
453.97	9430.02
454.15	9521.30
454.34	9664.07
454.52	9921.53
454.70	9624.28
454.89	9504.92
455.07	9694.50
455.26	9919.19
455.44	9919.19
455.62	10017.49
455.81	9830.25
455.99	10162.61
456.17	10068.98
456.36	9891.10
456.54	10291.34
456.73	10415.38
456.91	10513.69
457.09	10373.25
457.28	10565.18
457.46	10307.72
457.64	10483.26
457.83	10670.50
458.01	10399.00
458.19	10539.43
458.38	10509.01
458.56	10813.28
458.74	10789.87
458.93	10614.33
459.11	10740.72
459.29	10843.70
459.48	10930.30
459.66	10721.99
459.84	10827.32
460.03	10998.18
460.21	10927.96
460.39	10927.96
460.57	11098.82
460.76	11059.03
460.94	11077.76
461.12	11220.53
461.31	11307.13
461.49	10958.39
461.67	11073.07
461.85	11524.80
462.04	11316.49
462.22	11524.80
462.40	11470.97
462.59	11501.39
462.77	11332.87
462.95	11707.36
463.13	11639.48
463.32	11695.66
463.50	11833.75
463.68	12030.35
463.86	11990.56
464.05	11655.87
464.23	11899.28
464.41	11880.56
464.59	11541.18
464.78	11927.37
464.96	11866.52
465.14	11770.55
465.32	12112.27
465.50	12383.77
465.69	12182.49
465.87	12084.19
466.05	12315.90
466.23	12315.90
466.41	12248.02
466.60	12582.72
466.78	11941.41
466.96	12119.29
467.14	12201.21
467.32	12496.12
467.51	12744.22
467.69	12250.36
467.87	12489.10
468.05	12617.83
468.23	12521.87
468.41	12418.88
468.60	12620.17
468.78	13015.72
468.96	12666.98
469.14	12840.18
469.32	12959.55
469.50	12538.25
469.69	12950.18
469.87	13078.91
470.05	13224.03
470.23	13270.84
470.41	13202.96
470.59	13345.73
470.77	13235.73
470.95	13177.22
471.14	13441.70
471.32	13284.88
471.50	13715.54
471.68	13823.20
471.86	13750.65
472.04	13797.46
472.22	14377.91
472.40	13944.91
472.58	13818.52
472.77	14193.01
472.95	14284.29
473.13	14525.36
473.31	14185.99
473.49	14368.55
473.67	14469.19
473.85	14223.44
474.03	14745.38
474.21	14569.83
474.39	14717.29
474.57	14785.16
474.75	14855.38
474.93	15040.28
475.12	14768.78
475.30	15047.30
475.48	15372.64
475.66	15283.70
475.84	15204.12
476.02	15346.89
476.20	15438.17
476.38	15894.58
476.56	15915.64
476.74	16037.35
476.92	15960.11
477.10	15594.99
477.28	16177.78
477.46	16126.29
477.64	16365.03
477.82	16685.68
478.00	17158.47
478.18	16957.18
478.36	17034.42
478.54	17146.76
478.72	17184.21
478.90	17404.22
479.08	17598.49
479.26	17839.56
479.44	17893.40
479.62	17912.12
479.80	17961.27
479.98	18153.20
480.16	18352.14
480.34	18223.41
480.52	18600.24
480.70	19016.85
480.88	18476.19
481.06	18768.76
481.24	18644.71
481.41	19066.00
481.59	19475.60
481.77	19784.55
481.95	19583.26
482.13	19826.68
482.31	20109.88
482.49	20084.14
482.67	20278.40
482.85	20599.05
483.03	20809.70
483.21	20692.68
483.39	20533.52
483.57	21064.82
483.74	21050.78
483.92	21411.22
484.10	21305.90
484.28	21455.69
484.46	22064.23
484.64	22242.11
484.82	21926.14
485.00	22118.06
485.18	23009.81
485.35	23159.60
485.53	22799.16
485.71	23091.73
485.89	23538.77
486.07	23461.53
486.25	23637.07
486.43	24058.37
486.61	23740.05
486.78	24098.16
486.96	24535.84
487.14	24514.77
487.32	24477.32
487.50	24999.26
487.68	25193.53
487.85	25371.41
488.03	25483.75
488.21	25832.49
488.39	25888.67
488.57	26251.45
488.75	26368.48
488.92	26506.57
489.10	26775.73
489.28	27080.00
489.46	27475.55
489.64	26984.04
489.81	27695.56
489.99	27627.68
490.17	27906.21
490.35	28044.30
490.53	28208.14
490.70	28439.85
490.88	28369.63
491.06	28886.89
491.24	29151.37
491.41	28828.38
491.59	29259.04
491.77	29198.18
491.95	29549.26
492.13	29759.91
492.30	30113.33
492.48	30096.95
492.66	30583.78
492.84	30508.88
493.01	30761.66
493.19	30724.21
493.37	31299.98
493.54	31222.75
493.72	31903.84
493.90	31484.89
494.08	31833.63
494.25	32231.52
494.43	31943.63
494.61	32376.63
494.79	32598.98
494.96	32512.38
495.14	32720.69
495.32	33324.55
495.49	33315.19
495.67	33228.59
495.85	33308.16
496.02	33460.30
496.20	34038.41
496.38	34164.80
496.55	34230.33
496.73	34862.28
496.91	34637.59
497.09	35037.82
497.26	35264.85
497.44	34969.94
497.62	35150.17
497.79	36018.50
497.97	35845.30
498.14	36002.12
498.32	36137.87
498.50	36088.72
498.67	36837.69
498.85	36814.29
499.03	36741.73
499.20	36655.13
499.38	36868.12
499.56	37069.40
499.73	37237.92
499.91	37099.83
500.08	37544.53
500.26	37933.06
500.44	37799.65
500.61	37837.10
500.79	37816.04
500.97	38270.10
501.14	38541.60
501.32	38574.37
501.49	38249.03
501.67	38829.49
501.84	38974.60
502.02	38707.78
502.20	38717.14
502.37	39707.19
502.55	39241.42
502.72	39292.91
502.90	39541.01
503.07	39571.44
503.25	39672.08
503.43	39992.73
503.60	39793.79
503.78	40039.54
503.95	40247.85
504.13	40760.43
504.30	41067.04
504.48	40308.71
504.65	41146.62
504.83	41303.43
505.01	41553.87
505.18	41092.79
505.36	41375.99
505.53	41280.03
505.71	41481.31
505.88	41860.48
506.06	41509.40
506.23	42256.03
506.41	41907.29
506.58	42178.79
506.76	42356.67
506.93	43196.93
507.11	42679.67
507.28	42508.81
507.46	43044.79
507.63	42930.11
507.81	43557.37
507.98	43058.84
508.16	42897.34
508.33	43299.91
508.50	43435.66
508.68	43920.15
508.85	43831.21
509.03	43826.53
509.20	44151.87
509.38	44451.45
509.55	44488.90
509.73	44392.94
509.90	44257.19
510.08	44666.78
510.25	44898.50
510.42	44552.10
510.60	45495.33
510.77	45223.83
510.95	45478.95
511.12	45284.68
511.30	44980.42
511.47	45579.59
511.64	45287.03
511.82	46075.79
511.99	46085.15
512.17	46330.90
512.34	46019.61
512.51	46038.34
512.69	46473.68
512.86	46204.52
513.04	46719.43
513.21	46930.08
513.38	46721.77
513.56	46862.21
513.73	47173.50
513.90	47098.60
514.08	46899.65
514.25	47257.76
514.43	47475.43
514.60	47391.17
514.77	47482.45
514.95	47419.25
515.12	47442.66
515.29	47969.28
515.47	47732.89
515.64	48224.40
515.81	47863.96
515.99	48423.34
516.16	48451.43
516.33	48587.18
516.51	48601.22
516.68	48156.52
516.85	48884.43
517.03	48825.92
517.20	49069.33
517.37	49184.02
517.54	48945.28
517.72	49099.76
517.89	49560.84
518.06	49350.20
518.24	48952.30
518.41	49120.82
518.58	49249.55
518.75	49366.58
518.93	49551.48
519.10	49191.04
519.27	49893.20
519.45	49769.15
519.62	50057.04
519.79	49769.15
519.96	50195.13
520.14	50216.19
520.31	50089.80
520.48	50190.45
520.65	50309.82
520.83	51061.13
521.00	50646.85
521.17	50532.17
521.34	50550.89
521.52	50883.25
521.69	50899.63
521.86	51360.72
522.03	51154.75
522.20	51257.73
522.38	51821.80
522.55	51664.99
522.72	51444.98
522.89	51309.22
523.07	51496.47
523.24	51580.73
523.41	51597.11
523.58	51496.47
523.75	51987.98
523.92	52065.22
524.10	52154.16
524.27	51896.70
524.44	52325.02
524.61	52168.20
524.78	51964.57
524.96	52484.17
525.13	52222.03
525.30	52610.56
525.47	52816.53
525.64	52170.54
525.81	52254.80
525.98	52676.10
526.16	52697.16
526.33	52542.69
526.50	53081.01
526.67	52912.49
526.84	53057.60
527.01	53158.25
527.18	53017.82
527.36	53085.69
527.53	52910.15
527.70	53097.39
527.87	53682.53
528.04	53382.94
528.21	53570.18
528.38	53591.25
528.55	53516.35
528.72	53558.48
528.89	53708.27
529.07	53542.10
529.24	53602.95
529.41	53710.61
529.58	54010.20
529.75	53914.24
529.92	53806.58
530.09	54127.23
530.26	53895.52
530.43	54155.32
530.60	53635.72
530.77	53638.06
530.94	54333.20
531.11	53853.39
531.28	54010.20
531.46	54150.63
531.63	54387.03
531.80	54127.23
531.97	54480.65
532.14	54415.11
532.31	54480.65
532.48	54822.37
532.65	54705.34
532.82	54717.04
532.99	54820.03
533.16	54635.13
533.33	54824.71
533.50	55030.68
533.67	54913.65
533.84	54805.98
534.01	54822.37
534.18	54798.96
534.35	54897.27
534.52	55061.10
534.69	55351.33
534.86	55276.43
535.03	55267.07
535.20	55082.17
535.37	55330.26
535.54	55227.28
535.71	55395.80
535.88	55297.50
536.05	55180.47
536.22	55611.13
536.38	55693.05
536.55	55679.00
536.72	55709.43
536.89	55215.58
537.06	55749.22
537.23	55632.19
537.40	55487.08
537.57	56039.45
537.74	55833.48
537.91	56207.97
538.08	56013.70
538.25	55641.56
538.42	55789.01
538.59	56186.90
538.75	55971.57
538.92	56097.96
539.09	55978.59
539.26	56158.81
539.43	56229.03
539.60	56327.33
539.77	56200.94
539.94	56708.84
540.11	56601.18
540.28	56502.87
540.44	56657.35
540.61	56381.16
540.78	56413.93
540.95	56488.83
541.12	56662.03
541.29	56500.53
541.46	56545.00
541.62	56477.13
541.79	56823.53
541.96	56530.96
542.13	56580.11
542.30	56828.21
542.47	57085.67
542.63	56996.73
542.80	56858.63
542.97	57027.15
543.14	57415.68
543.31	57099.71
543.48	57361.85
543.64	57738.68
543.81	57172.27
543.98	57373.55
544.15	57382.91
544.32	57462.49
544.48	57539.73
544.65	57247.16
544.82	57633.35
544.99	57382.91
545.16	57434.41
545.32	57595.90
545.49	57764.42
545.66	57937.62
545.83	57741.02
546.00	57911.88
546.16	57588.88
546.33	57705.91
546.50	57518.67
546.67	58085.07
546.83	57542.07
547.00	57689.52
547.17	57968.05
547.34	57923.58
547.50	57902.51
547.67	58171.67
547.84	58073.37
548.00	57855.70
548.17	58485.31
548.34	57914.22
548.51	58277.00
548.67	58138.91
548.84	58066.35
549.01	57904.85
549.18	58237.21
549.34	58316.79
549.51	58499.35
549.68	58431.47
549.84	58384.66
550.01	58436.16
550.18	58464.24
550.34	58450.20
550.51	58569.57
550.68	58595.31
550.84	58122.52
551.01	58693.61
551.18	58384.66
551.34	58525.10
551.51	58693.61
551.68	58590.63
551.84	58698.30
552.01	58422.11
552.18	58642.12
552.34	58543.82
552.51	58817.66
552.68	58721.70
552.84	58635.10
553.01	58922.99
553.18	58932.35
553.34	58820.00
553.51	58710.00
553.67	58995.54
553.84	59061.08
554.01	59077.46
554.17	59110.23
554.34	59049.38
554.51	58829.37
554.67	59114.91
554.84	59037.67
555.00	59220.23
555.17	59100.87
555.33	58941.71
555.50	58920.65
555.67	59217.89
555.83	59018.95
556.00	59241.30
556.16	59484.72
556.33	59320.88
556.50	59238.96
556.66	59468.33
556.83	59199.17
556.99	59442.59
557.16	59639.19
557.32	59547.91
557.49	59547.91
557.65	59512.80
557.82	59501.10
557.98	59407.48
558.15	59461.31
558.32	59484.72
558.48	59334.92
558.65	59618.13
558.81	59622.81
558.98	59540.89
559.14	59763.24
559.31	59728.13
559.47	59704.73
559.64	59622.81
559.80	59770.26
559.97	59618.13
560.13	59737.49
560.30	59760.90
560.46	59634.51
560.63	59842.82
560.79	59866.22
560.96	60011.34
561.12	59985.59
561.29	59821.75
561.45	59891.97
561.61	59901.33
561.78	59929.42
561.94	59735.15
562.11	59854.52
562.27	59884.95
562.44	59992.61
562.60	59910.69
562.77	60214.96
562.93	59767.92
563.10	60083.89
563.26	60051.12
563.42	60275.82
563.59	60090.91
563.75	60137.72
563.92	60229.01
564.08	60231.35
564.24	60217.30
564.41	60130.70
564.57	59980.91
564.74	60257.09
564.90	60264.11
565.07	60165.81
565.23	60163.47
565.39	60191.56
565.56	60273.48
565.72	60200.92
565.88	60229.01
566.05	60004.31
566.21	60336.67
566.38	60308.58
566.54	60259.43
566.70	60369.44
566.87	60280.50
567.03	60413.91
567.19	60500.51
567.36	60095.60
567.52	60392.84
567.68	60577.75
567.85	60439.65
568.01	60479.44
568.17	60360.08
568.34	60554.34
568.50	60336.67
568.66	60327.31
568.83	60573.06
568.99	60537.96
569.15	60603.49
569.32	60467.74
569.48	60427.95
569.64	60701.79
569.81	60495.83
569.97	60322.63
570.13	60608.17
570.30	60416.25
570.46	60486.46
570.62	60449.02
570.78	60701.79
570.95	60509.87
571.11	60559.02
571.27	60486.46
571.43	60570.72
571.60	60849.25
571.76	60701.79
571.92	60631.58
572.09	60692.43
572.25	60533.28
572.41	60701.79
572.57	60664.35
572.74	60750.94
572.90	60589.45
573.06	60793.07
573.22	60633.92
573.38	60605.83
573.55	60610.51
573.71	60935.85
573.87	60757.97
574.03	60713.50
574.20	60814.14
574.36	60690.09
574.52	60856.27
574.68	60647.96
574.84	60666.69
575.01	60676.05
575.17	60711.16
575.33	60610.51
575.49	60570.72
575.65	60669.03
575.82	60886.70
575.98	60764.99
576.14	60839.89
576.30	60921.80
576.46	60659.66
576.62	60919.46
576.79	60722.86
576.95	60746.26
577.11	60884.36
577.27	60961.59
577.43	60832.86
577.59	60690.09
577.75	60886.70
577.92	60725.20
578.08	60706.47
578.24	60849.25
578.40	60947.55
578.56	60959.25
578.72	60959.25
578.88	60975.64
579.04	60914.78
579.21	60772.01
579.37	61031.81
579.53	60844.57
579.69	60760.31
579.85	60835.20
580.01	60706.47
580.17	60865.63
580.33	60907.76
580.49	60917.12
580.65	61045.85
580.82	60912.44
580.98	60919.46
581.14	60907.76
581.30	61090.32
581.46	60977.98
581.62	60907.76
581.78	60837.54
581.94	61003.72
582.10	60980.32
582.26	60701.79
582.42	60823.50
582.58	61172.24
582.74	60975.64
582.90	61029.47
583.06	60884.36
583.22	60720.52
583.38	61034.15
583.54	60963.93
583.70	60645.62
583.86	60973.30
584.02	60938.19
584.18	61057.56
584.34	61055.21
584.50	60933.51
584.66	60870.31
584.82	61029.47
584.98	61336.08
585.14	60891.38
585.30	61043.51
585.46	61113.73
585.62	61244.80
585.78	61162.88
585.94	60659.66
586.10	60903.08
586.26	61071.60
586.42	61195.65
586.58	61193.31
586.74	61116.07
586.90	61197.99
587.06	60954.57
587.22	61048.19
587.38	60898.40
587.54	61197.99
587.70	61099.68
587.86	61125.43
588.02	61043.51
588.18	61209.69
588.34	61080.96
588.49	61183.94
