SpectraSuite Data File
++++++++++++++++++++++++++++++++++++
Date: Fri Oct 25 10:48:15 EDT 2013
User: price-jones
Dark Spectrum Present: No
Reference Spectrum Present: No
Number of Sampled Component Spectra: 1
Spectrometers: USB2+H05261
Integration Time (usec): 100000 (USB2+H05261)
Spectra Averaged: 1 (USB2+H05261)
Boxcar Smoothing: 0 (USB2+H05261)
Correct for Electrical Dark: No (USB2+H05261)
Strobe/Lamp Enabled: No (USB2+H05261)
Correct for Detector Non-linearity: No (USB2+H05261)
Correct for Stray Light: No (USB2+H05261)
Number of Pixels in Processed Spectrum: 2048
>>>>>Begin Processed Spectral Data<<<<<
365.73	140.43
365.92	140.43
366.12	140.43
366.32	95.96
366.52	25.75
366.72	14.04
366.91	93.62
367.11	117.03
367.31	0.00
367.51	37.45
367.70	30.43
367.90	91.28
368.10	44.47
368.30	49.15
368.49	110.01
368.69	93.62
368.89	84.26
369.09	88.94
369.28	58.51
369.48	88.94
369.68	58.51
369.87	149.79
370.07	35.11
370.27	147.45
370.47	168.52
370.66	397.89
370.86	393.21
371.06	435.34
371.25	454.06
371.45	388.53
371.65	484.49
371.84	411.93
372.04	498.53
372.24	505.56
372.44	479.81
372.63	533.64
372.83	479.81
373.03	503.22
373.22	440.02
373.42	512.58
373.62	503.22
373.81	545.34
374.01	550.03
374.21	585.13
374.40	486.83
374.60	568.75
374.79	550.03
374.99	561.73
375.19	608.54
375.38	573.43
375.58	587.47
375.78	622.58
375.97	634.29
376.17	669.39
376.37	554.71
376.56	596.84
376.76	578.11
376.95	613.22
377.15	582.79
377.35	643.65
377.54	564.07
377.74	636.63
377.93	622.58
378.13	629.60
378.33	671.73
378.52	664.71
378.72	657.69
378.91	669.39
379.11	580.45
379.31	592.16
379.50	655.35
379.70	709.18
379.89	711.52
380.09	760.67
380.28	699.82
380.48	713.86
380.68	702.16
380.87	594.50
381.07	718.54
381.26	695.14
381.46	734.93
381.65	627.26
381.85	711.52
382.04	676.41
382.24	685.78
382.43	739.61
382.63	727.91
382.83	674.07
383.02	765.36
383.22	868.34
383.41	718.54
383.61	716.20
383.80	772.38
384.00	772.38
384.19	662.37
384.39	744.29
384.58	748.97
384.78	807.48
384.97	884.72
385.17	690.46
385.36	812.17
385.56	779.40
385.75	781.74
385.95	851.96
386.14	802.80
386.34	751.31
386.53	798.12
386.72	821.53
386.92	894.08
387.11	929.19
387.31	889.40
387.50	788.76
387.70	812.17
387.89	805.14
388.09	847.27
388.28	889.40
388.48	950.26
388.67	905.79
388.86	926.85
389.06	1022.81
389.25	938.55
389.45	903.45
389.64	954.94
389.84	978.34
390.03	945.58
390.22	999.41
390.42	959.62
390.61	976.00
390.81	983.02
391.00	985.37
391.19	1165.59
391.39	992.39
391.58	1001.75
391.78	985.37
391.97	1022.81
392.16	992.39
392.36	985.37
392.55	1097.71
392.75	1104.73
392.94	994.73
393.13	1114.10
393.33	1006.43
393.52	1046.22
393.71	961.96
393.91	1078.99
394.10	1043.88
394.29	1097.71
394.49	1149.20
394.68	1196.01
394.88	1135.16
395.07	1179.63
395.26	1170.27
395.46	1280.27
395.65	1327.08
395.84	1135.16
396.04	1266.23
396.23	1188.99
396.42	1146.86
396.62	1212.40
396.81	1196.01
397.00	1186.65
397.19	1259.21
397.39	1266.23
397.58	1329.42
397.77	1359.85
397.97	1303.68
398.16	1301.34
398.35	1313.04
398.55	1488.58
398.74	1299.00
398.93	1434.75
399.12	1455.81
399.32	1490.92
399.51	1423.05
399.70	1423.05
399.90	1437.09
400.09	1516.67
400.28	1500.28
400.47	1409.00
400.67	1584.54
400.86	1544.75
401.05	1483.90
401.24	1591.56
401.44	1661.78
401.63	1561.14
401.82	1687.53
402.01	1593.90
402.21	1610.29
402.40	1706.25
402.59	1666.46
402.78	1619.65
402.97	1668.80
403.17	1699.23
403.36	1645.40
403.55	1760.08
403.74	1802.21
403.93	1739.02
404.13	1743.70
404.32	1825.62
404.51	1811.57
404.70	1795.19
404.89	1776.47
405.09	1851.36
405.28	1825.62
405.47	1851.36
405.66	1839.66
405.85	1776.47
406.05	1851.36
406.24	1909.88
406.43	1877.11
406.62	1881.79
406.81	1994.14
407.00	1935.62
407.20	1860.73
407.39	1963.71
407.58	1998.82
407.77	1996.48
407.96	2031.58
408.15	2040.95
408.34	2157.97
408.54	2174.36
408.73	2043.29
408.92	2069.03
409.11	2104.14
409.30	2296.07
409.49	2073.71
409.68	2157.97
409.87	2087.76
410.07	2197.76
410.26	2239.89
410.45	2282.02
410.64	2342.88
410.83	2232.87
411.02	2352.24
411.21	2396.71
411.40	2382.67
411.59	2457.56
411.78	2366.28
411.98	2527.78
412.17	2499.69
412.36	2560.55
412.55	2574.59
412.74	2541.82
412.93	2588.63
413.12	2504.37
413.31	2752.47
413.50	2626.08
413.69	2792.26
413.88	2700.98
414.07	2738.43
414.26	2729.06
414.45	2607.36
414.64	2743.11
414.83	2794.60
415.02	2759.49
415.22	2862.48
415.41	2967.80
415.60	2918.65
415.79	2810.98
415.98	2977.16
416.17	3042.70
416.36	3019.29
416.55	2988.86
416.74	3056.74
416.93	3141.00
417.12	3103.55
417.31	3059.08
417.50	3133.98
417.69	3365.69
417.88	3208.87
418.07	3183.13
418.26	3236.96
418.45	3171.43
418.64	3379.73
418.83	3300.16
419.02	3307.18
419.21	3311.86
419.39	3335.26
419.58	3300.16
419.77	3279.09
419.96	3302.50
420.15	3463.99
420.34	3300.16
420.53	3517.83
420.72	3576.34
420.91	3637.19
421.10	3520.17
421.29	3618.47
421.48	3541.23
421.67	3440.59
421.86	3611.45
422.05	3658.26
422.24	3630.17
422.43	3733.15
422.61	3627.83
422.80	3559.95
422.99	3651.24
423.18	3684.00
423.37	3829.12
423.56	3578.68
423.75	3588.04
423.94	3684.00
424.13	3489.74
424.32	3604.42
424.50	3744.86
424.69	3852.52
424.88	3698.05
425.07	3803.37
425.26	3700.39
425.45	3798.69
425.64	3817.41
425.83	3803.37
426.01	3833.80
426.20	3927.42
426.39	3803.37
426.58	3756.56
426.77	3786.99
426.96	3698.05
427.15	3794.01
427.33	3749.54
427.52	3812.73
427.71	3791.67
427.90	3777.62
428.09	3990.61
428.28	3929.76
428.46	3955.51
428.65	3995.29
428.84	4095.94
429.03	4173.18
429.22	4014.02
429.40	4011.68
429.59	3861.88
429.78	3808.05
429.97	3758.90
430.16	3737.84
430.34	3983.59
430.53	4021.04
430.72	3918.06
430.91	4156.79
431.10	4163.81
431.28	4236.37
431.47	4322.97
431.66	4346.37
431.85	4194.24
432.03	4306.59
432.22	4346.37
432.41	4409.57
432.60	4629.58
432.79	4428.29
432.97	4566.39
433.16	4507.87
433.35	4374.46
433.54	4425.95
433.72	4414.25
433.91	4514.89
434.10	4652.98
434.28	4407.23
434.47	4641.28
434.66	4514.89
434.85	4648.30
435.03	4704.48
435.22	4660.01
435.41	4793.42
435.59	4849.59
435.78	4812.14
435.97	4858.95
436.16	4873.00
436.34	4777.03
436.53	4702.14
436.72	4807.46
436.90	4954.91
437.09	4884.70
437.28	4802.78
437.46	4936.19
437.65	5027.47
437.84	4952.57
438.02	4826.18
438.21	4968.96
438.40	4842.57
438.58	5013.43
438.77	5025.13
438.96	5238.12
439.14	5341.10
439.33	5153.86
439.52	5291.95
439.70	5369.19
439.89	5242.80
440.08	5329.40
440.26	5371.53
440.45	5418.34
440.63	5376.21
440.82	5593.88
441.01	5544.73
441.19	5584.52
441.38	5717.93
441.57	5645.37
441.75	5727.29
441.94	5853.68
442.12	5874.74
442.31	5982.41
442.50	5870.06
442.68	5738.99
442.87	5909.85
443.05	5771.76
443.24	5846.66
443.43	5991.77
443.61	6043.26
443.80	6235.19
443.98	6179.01
444.17	5937.94
444.35	6059.65
444.54	6029.22
444.73	6214.12
444.91	6026.88
445.10	6099.44
445.28	6059.65
445.47	6001.13
445.65	6101.78
445.84	6202.42
446.02	6232.85
446.21	6349.87
446.39	6162.63
446.58	6244.55
446.77	6108.80
446.95	6223.48
447.14	6296.04
447.32	6235.19
447.51	6352.21
447.69	6108.80
447.88	6274.98
448.06	6176.67
448.25	6382.64
448.43	6342.85
448.62	6420.09
448.80	6324.13
448.99	6487.96
449.17	6483.28
449.36	6338.17
449.54	6623.72
449.73	6539.46
449.91	6537.12
450.10	6806.28
450.28	6658.82
450.46	6761.81
450.65	6778.19
450.83	6953.73
451.02	6864.79
451.20	6796.92
451.39	6808.62
451.57	6911.60
451.76	6693.93
451.94	6745.42
452.13	6761.81
452.31	6754.79
452.49	6590.95
452.68	6775.85
452.86	6862.45
453.05	7014.59
453.23	7061.40
453.42	6782.87
453.60	6995.86
453.78	7101.19
453.97	6986.50
454.15	6967.77
454.34	7016.93
454.52	7260.34
454.70	7194.81
454.89	6984.16
455.07	7136.29
455.26	7220.55
455.44	7157.36
455.62	7351.62
455.81	7246.30
455.99	7293.11
456.17	7339.92
456.36	7417.16
456.54	7407.80
456.73	7602.06
456.91	7826.75
457.09	7466.31
457.28	7679.30
457.46	7588.02
457.64	7847.82
457.83	7756.54
458.01	7506.10
458.19	8032.72
458.38	7730.79
458.56	7735.47
458.74	7641.85
458.93	7885.26
459.11	7749.51
459.29	7808.03
459.48	7927.39
459.66	7721.43
459.84	8091.23
460.03	8086.55
460.21	8028.04
460.39	8098.25
460.57	7939.10
460.76	8051.44
460.94	8042.08
461.12	8234.00
461.31	8224.64
461.49	8126.34
461.67	8451.67
461.85	8292.52
462.04	8262.09
462.22	8879.99
462.40	8315.92
462.59	8346.35
462.77	8332.31
462.95	8416.57
463.13	8479.76
463.32	8510.19
463.50	8400.18
463.68	8524.23
463.86	8596.79
464.05	8334.65
464.23	8624.87
464.41	8791.05
464.59	8346.35
464.78	8498.49
464.96	8613.17
465.14	8615.51
465.32	8624.87
465.50	8713.81
465.69	8837.86
465.87	8594.45
466.05	8697.43
466.23	8650.62
466.41	8891.70
466.60	9025.11
466.78	8734.88
466.96	8774.67
467.14	8959.57
467.32	9034.47
467.51	9029.79
467.69	8723.18
467.87	8823.82
468.05	9039.15
468.23	8905.74
468.41	8938.51
468.60	9060.21
468.78	9095.32
468.96	8992.34
469.14	8994.68
469.32	9156.18
469.50	8926.80
469.69	9207.67
469.87	9305.97
470.05	9210.01
470.23	9172.56
470.41	9212.35
470.59	9158.52
470.77	9364.48
470.95	9490.87
471.14	9549.39
471.32	9362.14
471.50	9628.96
471.68	9689.82
471.86	9682.80
472.04	9769.40
472.22	10225.80
472.40	9626.62
472.58	9963.66
472.77	10026.86
472.95	10064.30
473.13	10242.18
473.31	10022.17
473.49	10036.22
473.67	10169.63
473.85	10012.81
474.03	10375.59
474.21	10204.74
474.39	10527.73
474.57	10396.66
474.75	10450.49
474.93	10501.98
475.12	10698.59
475.30	10764.12
475.48	10401.34
475.66	10785.19
475.84	10569.86
476.02	10726.68
476.20	10862.43
476.38	11222.87
476.56	11197.12
476.74	11337.56
476.92	11438.20
477.10	11281.38
477.28	11587.99
477.46	11473.31
477.64	11606.72
477.82	11655.87
478.00	11943.75
478.18	11852.47
478.36	11789.28
478.54	12023.33
478.72	11960.14
478.90	12236.32
479.08	12336.96
479.26	12472.71
479.44	12601.44
479.62	12617.83
479.80	12503.14
479.98	12849.54
480.16	12936.14
480.34	12905.71
480.52	13303.60
480.70	12926.78
480.88	12947.84
481.06	13261.48
481.24	13371.48
481.41	13575.11
481.59	13699.16
481.77	13860.65
481.95	13589.15
482.13	13848.95
482.31	14024.49
482.49	14071.30
482.67	14295.99
482.85	14047.90
483.03	14258.54
483.21	14675.16
483.39	14754.74
483.57	14609.62
483.74	14672.82
483.92	14782.82
484.10	14841.34
484.28	15232.21
484.46	15143.27
484.64	15709.68
484.82	15211.14
485.00	15267.31
485.18	15616.05
485.35	15609.03
485.53	15669.89
485.71	15700.31
485.89	15819.68
486.07	15726.06
486.25	15981.18
486.43	16044.37
486.61	16411.84
486.78	16517.16
486.96	16580.36
487.14	17050.80
487.32	17001.65
487.50	17362.09
487.68	17287.20
487.85	17568.06
488.03	17521.25
488.21	17790.41
488.39	17827.86
488.57	17537.63
488.75	18073.62
488.92	18375.55
489.10	18188.30
489.28	18668.11
489.46	18616.62
489.64	18862.38
489.81	19150.26
489.99	19126.86
490.17	19194.73
490.35	19201.76
490.53	19309.42
490.70	19758.80
490.88	19609.01
491.06	19932.00
491.24	19674.54
491.41	19988.18
491.59	19957.75
491.77	19847.74
491.95	20063.07
492.13	20676.29
492.30	20741.83
492.48	20695.02
492.66	20704.38
492.84	20898.64
493.01	20996.95
493.19	21205.25
493.37	21331.64
493.54	21156.10
493.72	21661.66
493.90	21678.04
494.08	21467.39
494.25	22052.53
494.43	22094.66
494.61	22548.72
494.79	22094.66
494.96	22396.59
495.14	22321.69
495.32	22780.43
495.49	22483.19
495.67	22951.29
495.85	22850.65
496.02	23063.64
496.20	23311.74
496.38	23510.68
496.55	23417.06
496.73	24074.75
496.91	23435.78
497.09	23833.68
497.26	23946.02
497.44	23819.63
497.62	23847.72
497.79	24329.87
497.97	24217.52
498.14	24287.74
498.32	24603.71
498.50	24636.48
498.67	24980.54
498.85	24730.10
499.03	25228.63
499.20	25064.80
499.38	25287.15
499.56	25645.25
499.73	25301.19
499.91	25624.18
500.08	25427.58
500.26	24985.22
500.44	25781.00
500.61	25802.07
500.79	25745.89
500.97	25518.86
501.14	26225.70
501.32	26288.90
501.49	25874.62
501.67	26118.04
501.84	26363.79
502.02	26391.88
502.20	26544.02
502.37	26827.22
502.55	26778.07
502.72	26876.37
502.90	26913.82
503.07	27035.53
503.25	26841.26
503.43	26799.13
503.60	27140.85
503.78	26679.77
503.95	27044.89
504.13	27398.31
504.30	27466.19
504.48	27660.45
504.65	27604.28
504.83	28203.46
505.01	27934.29
505.18	27924.93
505.36	28009.19
505.53	28299.42
505.71	28444.53
505.88	28163.67
506.06	28184.73
506.23	27995.15
506.41	28360.27
506.58	28364.95
506.76	28599.01
506.93	28961.79
507.11	28390.70
507.28	29127.97
507.46	28943.06
507.63	29067.11
507.81	28905.62
507.98	28856.46
508.16	29455.64
508.33	29663.95
508.50	29420.53
508.68	29338.62
508.85	29989.28
509.03	29914.39
509.20	29670.97
509.38	30127.38
509.55	30019.71
509.73	30232.70
509.90	30075.88
510.08	29923.75
510.25	30422.28
510.42	30157.80
510.60	30473.78
510.77	30190.57
510.95	31047.21
511.12	30246.74
511.30	30703.15
511.47	30794.43
511.64	31529.36
511.82	31409.99
511.99	31007.42
512.17	31323.39
512.34	31040.18
512.51	31505.95
512.69	31796.18
512.86	31555.10
513.04	32013.85
513.21	31690.85
513.38	31704.90
513.56	31707.24
513.73	31810.22
513.90	31697.88
514.08	31920.23
514.25	31901.50
514.43	31756.39
514.60	32016.19
514.77	32210.45
514.95	32320.46
515.12	32706.65
515.29	32568.55
515.47	32924.32
515.64	33378.38
515.81	32187.05
515.99	32463.23
516.16	32519.40
516.33	32411.74
516.51	32521.74
516.68	31892.14
516.85	32353.23
517.03	32774.52
517.20	32961.76
517.37	33209.86
517.54	33488.38
517.72	33235.61
517.89	33371.36
518.06	33221.56
518.24	33097.52
518.41	33434.55
518.58	33464.98
518.75	33095.18
518.93	33546.90
519.10	34099.26
519.27	33839.47
519.45	33919.04
519.62	34286.51
519.79	34265.44
519.96	33982.24
520.14	34312.25
520.31	34223.31
520.48	34520.56
520.65	34380.13
520.83	34440.98
521.00	34658.65
521.17	34782.70
521.34	34766.32
521.52	35061.22
521.69	34969.94
521.86	35084.63
522.03	34965.26
522.20	35414.65
522.38	35459.12
522.55	35655.72
522.72	35194.64
522.89	35524.65
523.07	35416.99
523.24	35028.46
523.41	36084.04
523.58	35278.89
523.75	36400.01
523.92	35992.76
524.10	36196.38
524.27	35981.06
524.44	36037.23
524.61	36121.49
524.78	36231.49
524.96	36250.22
525.13	36367.24
525.30	36751.09
525.47	36711.30
525.64	36385.97
525.81	36325.11
525.98	36275.96
526.16	36357.88
526.33	35908.50
526.50	36528.74
526.67	36282.98
526.84	36215.11
527.01	36374.27
527.18	36486.61
527.36	36713.64
527.53	37207.50
527.70	37296.44
527.87	37577.30
528.04	37193.45
528.21	37673.26
528.38	36999.19
528.55	37614.75
528.72	37453.25
528.89	37275.37
529.07	37572.62
529.24	37095.15
529.41	37598.37
529.58	37453.25
529.75	37715.39
529.92	37724.75
530.09	37619.43
530.26	38300.53
530.43	37890.93
530.60	37787.95
530.77	37862.85
530.94	38370.74
531.11	37881.57
531.28	37979.87
531.46	38431.60
531.63	38101.58
531.80	38440.96
531.97	38099.24
532.14	38340.32
532.31	38286.48
532.48	38581.39
532.65	38824.81
532.82	38586.07
532.99	38969.92
533.16	38621.18
533.33	38724.16
533.50	38899.70
533.67	38888.00
533.84	38990.98
534.01	39222.70
534.18	39260.15
534.35	39470.79
534.52	39075.24
534.69	39218.02
534.86	39346.75
535.03	39157.16
535.20	39426.32
535.37	39821.87
535.54	39770.38
535.71	39168.87
535.88	39227.38
536.05	39620.59
536.22	39524.63
536.38	39269.51
536.55	39704.85
536.72	39625.27
536.89	39402.92
537.06	39503.56
537.23	39751.66
537.40	39934.22
537.57	39594.84
537.74	39615.91
537.91	40465.52
538.08	39882.73
538.25	39931.88
538.42	40179.98
538.59	40961.72
538.75	39978.69
538.92	40133.17
539.09	40563.82
539.26	40568.51
539.43	40671.49
539.60	40313.39
539.77	40402.33
539.94	40376.58
540.11	40268.92
540.28	40517.01
540.44	40306.37
540.61	39927.20
540.78	40238.49
540.95	40456.16
541.12	40580.21
541.29	40840.01
541.46	40608.29
541.62	40474.88
541.79	41340.88
541.96	40847.03
542.13	40650.42
542.30	40861.07
542.47	41483.66
542.63	40732.34
542.80	41287.05
542.97	41883.89
543.14	41462.59
543.31	41364.29
543.48	41659.20
543.64	42197.52
543.81	41787.92
543.98	41649.83
544.15	41652.17
544.32	41727.07
544.48	42103.90
544.65	41996.23
544.82	41820.69
544.99	41928.36
545.16	41432.16
545.32	41539.83
545.49	42122.62
545.66	42122.62
545.83	42550.94
546.00	42316.89
546.16	42775.63
546.33	42256.03
546.50	41949.42
546.67	42183.48
546.83	41942.40
547.00	42213.90
547.17	42251.35
547.34	41659.20
547.50	42096.88
547.67	42682.01
547.84	42333.27
548.00	42501.79
548.17	42686.69
548.34	42799.04
548.51	42841.17
548.67	42733.50
548.84	42607.11
549.01	43084.58
549.18	42635.20
549.34	42724.14
549.51	42588.39
549.68	42979.26
549.84	42876.27
550.01	42930.11
550.18	42717.12
550.34	43112.67
550.51	42586.05
550.68	42871.59
550.84	42869.25
551.01	43037.77
551.18	43302.25
551.34	43330.34
551.51	43271.82
551.68	42899.68
551.84	43299.91
552.01	43248.42
552.18	43653.33
552.34	43295.23
552.51	43608.86
552.68	43482.47
552.84	43430.98
553.01	43365.45
553.18	43215.65
553.34	43515.24
553.51	43124.37
553.67	43409.92
553.84	43669.72
554.01	43487.15
554.17	44079.31
554.34	43679.08
554.51	43746.95
554.67	43772.70
554.84	43814.83
555.00	43690.78
555.17	43943.56
555.33	44568.48
555.50	43576.09
555.67	43660.35
555.83	44172.93
556.00	44236.12
556.16	44390.60
556.33	44222.08
556.50	44325.07
556.66	43863.98
556.83	43903.77
556.99	44500.61
557.16	44098.03
557.32	44098.03
557.49	44320.38
557.65	43887.39
557.82	43952.92
557.98	44135.48
558.15	44121.44
558.32	44404.64
558.48	44477.20
558.65	44568.48
558.81	44332.09
558.98	44488.90
559.14	44318.04
559.31	44449.11
559.47	44474.86
559.64	44737.00
559.80	44566.14
559.97	44009.09
560.13	44423.37
560.30	44371.88
560.46	44622.31
560.63	44442.09
560.79	44788.49
560.96	45170.00
561.12	44500.61
561.29	44294.64
561.45	44657.42
561.61	44556.78
561.78	44594.23
561.94	44432.73
562.11	44467.84
562.27	44320.38
562.44	44669.12
562.60	44601.25
562.77	44818.92
562.93	44371.88
563.10	45275.32
563.26	44722.96
563.42	45226.17
563.59	44514.65
563.75	44800.19
563.92	44973.39
564.08	45106.80
564.24	44949.99
564.41	45317.45
564.57	44582.52
564.74	45008.50
564.90	44900.84
565.07	45198.09
565.23	44818.92
565.39	45301.07
565.56	45354.90
565.72	44692.53
565.88	45305.75
566.05	44968.71
566.21	44463.16
566.38	44807.22
566.54	44905.52
566.70	45024.89
566.87	45193.40
567.03	45078.72
567.19	45483.63
567.36	44982.76
567.52	45191.06
567.68	45172.34
567.85	44781.47
568.01	45116.17
568.17	45029.57
568.34	45378.31
568.50	45167.66
568.66	45113.83
568.83	45322.13
568.99	45230.85
569.15	45059.99
569.32	44825.94
569.48	44844.66
569.64	45258.94
569.81	45680.24
569.97	45387.67
570.13	45289.37
570.30	45221.49
570.46	44858.71
570.62	44910.20
570.78	45158.30
570.95	45242.56
571.11	45195.74
571.27	45137.23
571.43	44896.16
571.60	45038.93
571.76	45202.77
571.92	45354.90
572.09	45134.89
572.25	45277.66
572.41	45436.82
572.57	45277.66
572.74	46223.24
572.90	45504.70
573.06	45507.04
573.22	45684.92
573.38	45165.32
573.55	45265.96
573.71	45411.07
573.87	45385.33
574.03	44989.78
574.20	45553.85
574.36	45181.70
574.52	45113.83
574.68	45441.50
574.84	45928.33
575.01	45289.37
575.17	45078.72
575.33	45193.40
575.49	45244.90
575.65	45404.05
575.82	45521.08
575.98	45572.57
576.14	45710.66
576.30	45401.71
576.46	45439.16
576.62	45074.04
576.79	45202.77
576.95	45104.46
577.11	44987.44
577.27	45308.09
577.43	45207.45
577.59	45148.93
577.75	45813.65
577.92	45081.06
578.08	45078.72
578.24	44933.60
578.40	45134.89
578.56	45511.72
578.72	45476.61
578.88	45345.54
579.04	45605.34
579.21	45221.49
579.37	45357.24
579.53	45443.84
579.69	45090.42
579.85	45619.38
580.01	45610.02
580.17	45577.25
580.33	45989.19
580.49	45708.32
580.65	45574.91
580.82	45418.10
580.98	45404.05
581.14	45280.00
581.30	45773.86
581.46	45778.54
581.62	45481.29
581.78	45593.64
581.94	45666.19
582.10	45869.82
582.26	45830.03
582.42	45385.33
582.58	45460.23
582.74	45769.18
582.90	45647.47
583.06	45500.01
583.22	45478.95
583.38	46211.54
583.54	45539.80
583.70	45485.97
583.86	45605.34
584.02	44971.05
584.18	45893.22
584.34	45705.98
584.50	45216.81
584.66	45375.97
584.82	45661.51
584.98	45846.41
585.14	45874.50
585.30	45628.74
585.46	45708.32
585.62	45371.28
585.78	45551.51
585.94	45296.39
586.10	45603.00
586.26	45298.73
586.42	45797.26
586.58	45734.07
586.74	45600.66
586.90	45289.37
587.06	45434.48
587.22	46059.40
587.38	45315.11
587.54	46164.73
587.70	45762.15
587.86	45535.12
588.02	45649.81
588.18	45876.84
588.34	45698.96
588.49	45139.57
588.65	45294.05
588.81	45359.58
588.97	45343.20
589.13	45624.06
589.29	45600.66
589.45	45509.38
589.61	45649.81
589.77	46120.26
589.93	45483.63
590.08	45844.07
