SpectraSuite Data File
++++++++++++++++++++++++++++++++++++
Date: Fri Oct 25 11:23:15 EDT 2013
User: price-jones
Dark Spectrum Present: No
Reference Spectrum Present: No
Number of Sampled Component Spectra: 1
Spectrometers: USB2+H05261
Integration Time (usec): 100000 (USB2+H05261)
Spectra Averaged: 1 (USB2+H05261)
Boxcar Smoothing: 0 (USB2+H05261)
Correct for Electrical Dark: No (USB2+H05261)
Strobe/Lamp Enabled: No (USB2+H05261)
Correct for Detector Non-linearity: No (USB2+H05261)
Correct for Stray Light: No (USB2+H05261)
Number of Pixels in Processed Spectrum: 2048
>>>>>Begin Processed Spectral Data<<<<<
365.73	217.67
365.92	217.67
366.12	217.67
366.32	191.92
366.52	102.98
366.72	147.45
366.91	177.88
367.11	170.86
367.31	91.28
367.51	191.92
367.70	121.71
367.90	182.56
368.10	133.41
368.30	156.82
368.49	159.16
368.69	152.13
368.89	145.11
369.09	163.84
369.28	201.29
369.48	121.71
369.68	208.31
369.87	173.20
370.07	191.92
370.27	180.22
370.47	280.86
370.66	526.62
370.86	624.92
371.06	599.18
371.25	653.01
371.45	732.59
371.65	739.61
371.84	706.84
372.04	662.37
372.24	725.57
372.44	699.82
372.63	784.08
372.83	753.65
373.03	685.78
373.22	828.55
373.42	812.17
373.62	875.36
373.81	767.70
374.01	819.19
374.21	837.91
374.40	784.08
374.60	917.49
374.79	842.59
374.99	851.96
375.19	861.32
375.38	840.25
375.58	858.98
375.78	919.83
375.97	912.81
376.17	880.04
376.37	896.43
376.56	898.77
376.76	873.02
376.95	861.32
377.15	863.66
377.35	880.04
377.54	905.79
377.74	901.11
377.93	903.45
378.13	936.21
378.33	971.32
378.52	954.94
378.72	1036.86
378.91	952.60
379.11	983.02
379.31	915.15
379.50	887.06
379.70	945.58
379.89	938.55
380.09	924.51
380.28	990.05
380.48	994.73
380.68	971.32
380.87	1090.69
381.07	1046.22
381.26	1039.20
381.46	1043.88
381.65	990.05
381.85	1032.18
382.04	1008.77
382.24	1057.92
382.43	1118.78
382.63	1006.43
382.83	1109.41
383.02	1036.86
383.22	1055.58
383.41	1130.48
383.61	1011.11
383.80	1093.03
384.00	1139.84
384.19	1102.39
384.39	1076.65
384.58	1172.61
384.78	1114.10
384.97	1191.33
385.17	1156.22
385.36	1111.75
385.56	1167.93
385.75	1188.99
385.95	1217.08
386.14	1228.78
386.34	1252.19
386.53	1214.74
386.72	1221.76
386.92	1198.35
387.11	1294.32
387.31	1315.38
387.50	1282.61
387.70	1289.64
387.89	1275.59
388.09	1282.61
388.28	1280.27
388.48	1245.16
388.67	1252.19
388.86	1343.47
389.06	1299.00
389.25	1366.87
389.45	1441.77
389.64	1373.89
389.84	1348.15
390.03	1448.79
390.22	1432.41
390.42	1397.30
390.61	1404.32
390.81	1313.04
391.00	1357.51
391.19	1427.73
391.39	1380.92
391.58	1469.86
391.78	1521.35
391.97	1509.65
392.16	1467.52
392.36	1577.52
392.55	1511.99
392.75	1535.39
392.94	1535.39
393.13	1549.43
393.33	1430.07
393.52	1542.41
393.71	1561.14
393.91	1596.25
394.10	1511.99
394.29	1619.65
394.49	1645.40
394.68	1708.59
394.88	1640.72
395.07	1708.59
395.26	1668.80
395.46	1682.85
395.65	1736.68
395.84	1788.17
396.04	1755.40
396.23	1746.04
396.42	1816.26
396.62	1757.74
396.81	1797.53
397.00	1837.32
397.19	1783.49
397.39	1839.66
397.58	1741.36
397.77	1781.15
397.97	1832.64
398.16	1905.20
398.35	1902.86
398.55	1937.96
398.74	1935.62
398.93	1952.01
399.12	1942.64
399.32	1919.24
399.51	2019.88
399.70	1975.41
399.90	1973.07
400.09	2022.22
400.28	2071.37
400.47	2005.84
400.67	2040.95
400.86	2066.69
401.05	2094.78
401.24	2057.33
401.44	2172.02
401.63	2186.06
401.82	2258.62
402.01	2176.70
402.21	2221.17
402.40	2267.98
402.59	2211.81
402.78	2258.62
402.97	2209.47
403.17	2195.42
403.36	2249.25
403.55	2333.51
403.74	2396.71
403.93	2389.69
404.13	2382.67
404.32	2408.41
404.51	2225.85
404.70	2476.29
404.89	2448.20
405.09	2476.29
405.28	2469.27
405.47	2483.31
405.66	2462.24
405.85	2455.22
406.05	2487.99
406.24	2483.31
406.43	2492.67
406.62	2572.25
406.81	2656.51
407.00	2689.28
407.20	2572.25
407.39	2630.76
407.58	2813.32
407.77	2743.11
407.96	2754.81
408.15	2691.62
408.34	2832.05
408.54	2839.07
408.73	2827.37
408.92	2813.32
409.11	2904.60
409.30	2860.13
409.49	2869.50
409.68	2991.20
409.87	2874.18
410.07	3049.72
410.26	2974.82
410.45	2988.86
410.64	3145.68
410.83	2995.89
411.02	3157.38
411.21	3201.85
411.40	3183.13
411.59	3159.72
411.78	3349.31
411.98	3110.57
412.17	3260.37
412.36	3251.00
412.55	3433.57
412.74	3447.61
412.93	3403.14
413.12	3417.18
413.31	3534.21
413.50	3494.42
413.69	3616.13
413.88	3604.42
414.07	3637.19
414.26	3674.64
414.45	3707.41
414.64	3775.28
414.83	3754.22
415.02	3801.03
415.22	3927.42
415.41	3957.85
415.60	3990.61
415.79	3948.48
415.98	4046.79
416.17	4011.68
416.36	4079.55
416.55	3950.82
416.74	4107.64
416.93	4166.15
417.12	4196.58
417.31	4121.68
417.50	4107.64
417.69	4362.76
417.88	4304.25
418.07	4313.61
418.26	4395.53
418.45	4301.90
418.64	4510.21
418.83	4379.14
419.02	4643.62
419.21	4634.26
419.39	4512.55
419.58	4514.89
419.77	4685.75
419.96	4652.98
420.15	4634.26
420.34	4734.90
420.53	4535.96
420.72	4755.97
420.91	4662.35
421.10	4844.91
421.29	4926.83
421.48	4704.48
421.67	4835.55
421.86	4826.18
422.05	4922.15
422.24	4873.00
422.43	4821.50
422.61	4952.57
422.80	4833.21
422.99	5102.37
423.18	4992.36
423.37	5074.28
423.56	4950.23
423.75	5015.77
423.94	4840.23
424.13	4638.94
424.32	4891.72
424.50	5165.56
424.69	5109.39
424.88	5006.41
425.07	4975.98
425.26	4943.21
425.45	4957.25
425.64	4905.76
425.83	5090.67
426.01	5041.51
426.20	5025.13
426.39	5181.95
426.58	5027.47
426.77	5142.16
426.96	5090.67
427.15	5226.42
427.33	5317.70
427.52	5266.21
427.71	5291.95
427.90	5078.96
428.09	5142.16
428.28	5350.46
428.46	5465.15
428.65	5310.68
428.84	5518.98
429.03	5544.73
429.22	5273.23
429.40	5652.39
429.59	5462.81
429.78	5308.34
429.97	5404.30
430.16	5558.77
430.34	5537.71
430.53	5533.03
430.72	5713.25
430.91	5736.65
431.10	5682.82
431.28	5813.89
431.47	5851.34
431.66	5907.51
431.85	5916.87
432.03	6087.73
432.22	6120.50
432.41	6113.48
432.60	5961.34
432.79	5888.79
432.97	6120.50
433.16	5994.11
433.35	5975.39
433.54	6179.01
433.72	6029.22
433.91	6054.97
434.10	6209.44
434.28	6122.84
434.47	6382.64
434.66	6347.53
434.85	6298.38
435.03	6403.71
435.22	6356.90
435.41	6471.58
435.59	6356.90
435.78	6497.33
435.97	6651.80
436.16	6518.39
436.34	6565.20
436.53	6370.94
436.72	6684.57
436.90	6464.56
437.09	6656.48
437.28	6523.07
437.46	6640.10
437.65	6707.98
437.84	6707.98
438.02	6754.79
438.21	6860.11
438.40	6794.58
438.58	7014.59
438.77	7021.61
438.96	7220.55
439.14	7255.66
439.33	7166.72
439.52	7164.38
439.70	7311.83
439.89	7365.67
440.08	7360.98
440.26	7569.29
440.45	7304.81
440.63	7332.90
440.82	7623.12
441.01	7616.10
441.19	7669.94
441.38	7756.54
441.57	7885.26
441.75	7808.03
441.94	7859.52
442.12	7845.48
442.31	8145.06
442.50	8191.88
442.68	8046.76
442.87	8088.89
443.05	8077.19
443.24	8299.54
443.43	8346.35
443.61	8119.32
443.80	8564.02
443.98	8112.30
444.17	8067.83
444.35	8339.33
444.54	8325.29
444.73	8358.05
444.91	8379.12
445.10	8430.61
445.28	8248.05
445.47	8397.84
445.65	8454.02
445.84	8585.08
446.02	8411.89
446.21	8634.24
446.39	8512.53
446.58	8510.19
446.77	8713.81
446.95	8493.80
447.14	8461.04
447.32	8601.47
447.51	8538.27
447.69	8636.58
447.88	8645.94
448.06	8578.06
448.25	8692.75
448.43	8697.43
448.62	8620.19
448.80	8582.74
448.99	8732.54
449.17	8765.31
449.36	8592.11
449.54	8767.65
449.73	9090.64
449.91	9202.99
450.10	9006.38
450.28	9130.43
450.46	9043.83
450.65	9221.71
450.83	9268.52
451.02	9071.92
451.20	9364.48
451.39	9280.22
451.57	9312.99
451.76	9137.45
451.94	9441.72
452.13	9291.93
452.31	9451.08
452.49	9277.88
452.68	9406.61
452.86	9383.21
453.05	9493.21
453.23	9776.42
453.42	9460.45
453.60	9336.40
453.78	9699.18
453.97	9418.32
454.15	9586.83
454.34	9654.71
454.52	9745.99
454.70	9619.60
454.89	9856.00
455.07	9837.27
455.26	10167.29
455.44	10141.54
455.62	9870.04
455.81	10171.97
455.99	9944.94
456.17	10066.64
456.36	10038.56
456.54	10455.17
456.73	10406.02
456.91	10551.14
457.09	10597.95
457.28	10745.40
457.46	10312.40
457.64	10640.08
457.83	10499.64
458.01	10649.44
458.19	10794.55
458.38	10689.23
458.56	10679.86
458.74	10836.68
458.93	10771.15
459.11	10867.11
459.29	10611.99
459.48	10834.34
459.66	10710.29
459.84	11136.27
460.03	11176.06
460.21	11176.06
460.39	10972.43
460.57	11068.39
460.76	11344.58
460.94	11300.11
461.12	11220.53
461.31	11295.43
461.49	11115.20
461.67	11267.34
461.85	11503.73
462.04	11337.56
462.22	11672.25
462.40	11681.61
462.59	11616.08
462.77	11590.33
462.95	11789.28
463.13	11735.45
463.32	11665.23
463.50	12023.33
463.68	11932.05
463.86	11889.92
464.05	11667.57
464.23	11803.32
464.41	12149.72
464.59	11836.09
464.78	12299.52
464.96	12088.87
465.14	12128.66
465.32	12072.48
465.50	12025.67
465.69	12451.65
465.87	12224.62
466.05	12226.96
466.23	12236.32
466.41	12334.62
466.60	12652.94
466.78	12421.22
466.96	12400.16
467.14	12432.93
467.32	12496.12
467.51	12610.81
467.69	12531.23
467.87	12461.01
468.05	12650.60
468.23	12489.10
468.41	12521.87
468.60	12648.26
468.78	12891.67
468.96	12896.35
469.14	13015.72
469.32	13174.88
469.50	12980.61
469.69	13312.97
469.87	13369.14
470.05	13408.93
470.23	13256.79
470.41	13226.37
470.59	13429.99
470.77	13200.62
470.95	13165.51
471.14	13736.60
471.32	13343.39
471.50	13628.94
471.68	13930.87
471.86	13881.72
472.04	13813.84
472.22	14136.84
472.40	13956.61
472.58	13977.68
472.77	13973.00
472.95	14129.81
473.13	14675.16
473.31	14328.76
473.49	14354.51
473.67	14251.52
473.85	14342.80
474.03	14560.47
474.21	14644.73
474.39	14963.04
474.57	14944.32
474.75	15028.58
474.93	14951.34
475.12	15140.93
475.30	15281.36
475.48	15019.22
475.66	15393.70
475.84	15255.61
476.02	15508.39
476.20	15644.14
476.38	15831.38
476.56	16137.99
476.74	16187.14
476.92	16063.10
477.10	15915.64
477.28	16446.94
477.46	16301.83
477.64	16482.05
477.82	16692.70
478.00	17151.45
478.18	16606.10
478.36	17160.81
478.54	17116.34
478.72	17439.33
478.90	17720.20
479.08	17664.02
479.26	17886.37
479.44	17980.00
479.62	17886.37
479.80	18284.26
479.98	18235.11
480.16	18644.71
480.34	18640.03
480.52	18738.33
480.70	18647.05
480.88	18508.96
481.06	18693.86
481.24	18984.09
481.41	19112.81
481.59	19370.27
481.77	19751.78
481.95	19405.38
482.13	19807.95
482.31	19585.60
482.49	20439.90
482.67	20271.38
482.85	20662.25
483.03	20760.55
483.21	20915.03
483.39	20877.58
483.57	21266.11
483.74	21427.60
483.92	21771.66
484.10	21546.97
484.28	21851.24
484.46	22150.83
484.64	22649.36
484.82	22389.56
485.00	22405.95
485.18	23190.03
485.35	23276.63
485.53	23150.24
485.71	23468.55
485.89	23573.88
486.07	23740.05
486.25	23356.21
486.43	24034.96
486.61	24128.58
486.78	24318.17
486.96	24428.17
487.14	24856.49
487.32	24690.31
487.50	25015.65
487.68	25036.71
487.85	25572.69
488.03	25708.44
488.21	26008.03
488.39	26026.76
488.57	26539.33
488.75	26562.74
488.92	26689.13
489.10	26948.93
489.28	27068.30
489.46	27475.55
489.64	27204.05
489.81	27899.19
489.99	27730.67
490.17	28060.68
490.35	28484.32
490.53	28603.69
490.70	28804.97
490.88	28734.76
491.06	28987.53
491.24	28730.08
491.41	28938.38
491.59	29127.97
491.77	29689.70
491.95	29869.92
492.13	30323.98
492.30	30518.25
492.48	30267.81
492.66	30443.35
492.84	30656.34
493.01	30955.93
493.19	30944.22
493.37	31672.13
493.54	31307.01
493.72	31599.57
493.90	31819.58
494.08	32039.59
494.25	32388.33
494.43	32538.13
494.61	32685.58
494.79	32645.79
494.96	32751.12
495.14	33422.85
495.32	33572.64
495.49	33383.06
495.67	33750.52
495.85	33795.00
496.02	34017.35
496.20	34478.43
496.38	34452.69
496.55	34452.69
496.73	35192.30
496.91	35007.39
497.09	34939.52
497.26	35058.88
497.44	35192.30
497.62	35309.32
497.79	36280.64
497.97	35955.31
498.14	36329.80
498.32	36577.89
498.50	36252.56
498.67	36917.27
498.85	36809.61
499.03	37125.58
499.20	37240.26
499.38	36776.84
499.56	37642.84
499.73	37626.45
499.91	37888.59
500.08	38014.98
500.26	37577.30
500.44	38213.93
500.61	38326.27
500.79	38218.61
500.97	38490.11
501.14	39037.80
501.32	38665.65
501.49	38607.14
501.67	38988.64
501.84	39112.69
502.02	39255.46
502.20	39618.25
502.37	39913.16
502.55	39784.43
502.72	39864.00
502.90	39861.66
503.07	39742.30
503.25	40168.27
503.43	40273.60
503.60	40289.98
503.78	40776.81
503.95	40725.32
504.13	40643.40
504.30	41050.66
504.48	40617.66
504.65	41155.98
504.83	41160.66
505.01	41579.62
505.18	41397.06
505.36	41825.37
505.53	41844.10
505.71	41858.14
505.88	42176.45
506.06	41837.08
506.23	42080.49
506.41	42232.63
506.58	42419.87
506.76	42623.50
506.93	42934.79
507.11	43035.43
507.28	43264.80
507.46	42986.28
507.63	43613.54
507.81	43452.05
507.98	43005.00
508.16	43653.33
508.33	43714.19
508.50	43875.68
508.68	44030.16
508.85	44547.42
509.03	43964.62
509.20	44856.37
509.38	44687.85
509.55	44479.54
509.73	44725.30
509.90	44994.46
510.08	45347.88
510.25	44900.84
510.42	44896.16
510.60	45488.31
510.77	45483.63
510.95	45794.92
511.12	45848.75
511.30	45471.93
511.47	46220.90
511.64	46230.26
511.82	46391.76
511.99	45663.85
512.17	46436.23
512.34	46281.75
512.51	46773.27
512.69	46885.61
512.86	46649.22
513.04	46724.11
513.21	46674.96
513.38	47255.42
513.56	47381.80
513.73	47023.70
513.90	47304.57
514.08	47440.32
514.25	47653.31
514.43	48058.22
514.60	47990.34
514.77	47885.02
514.95	48301.64
515.12	48020.77
515.29	48273.55
515.47	48215.04
515.64	48451.43
515.81	48343.77
515.99	48713.57
516.16	48449.09
516.33	48720.59
516.51	48947.62
516.68	48898.47
516.85	48781.45
517.03	49022.52
517.20	49329.13
517.37	49158.27
517.54	49546.80
517.72	49146.57
517.89	49499.99
518.06	49265.94
518.24	49748.09
518.41	49904.90
518.58	49591.27
518.75	49675.53
518.93	49837.03
519.10	49366.58
519.27	50216.19
519.45	49902.56
519.62	50347.26
519.79	50291.09
519.96	50347.26
520.14	50607.06
520.31	50527.48
520.48	50997.93
520.65	50766.22
520.83	50932.40
521.00	50813.03
521.17	51253.05
521.34	51138.36
521.52	51168.79
521.69	51082.19
521.86	51381.78
522.03	51330.29
522.20	51592.43
522.38	52011.38
522.55	51686.05
522.72	51695.41
522.89	51302.20
523.07	51892.02
523.24	51732.86
523.41	52081.60
523.58	51875.63
523.75	52257.14
523.92	52374.17
524.10	52458.43
524.27	52364.81
524.44	52413.96
524.61	52425.66
524.78	52432.68
524.96	52453.75
525.13	52708.86
525.30	52877.38
525.47	52825.89
525.64	52844.62
525.81	53013.13
525.98	53279.96
526.16	53003.77
526.33	53116.12
526.50	53263.57
526.67	53066.97
526.84	53223.78
527.01	53132.50
527.18	53525.71
527.36	53329.11
527.53	53495.28
527.70	53460.18
527.87	53806.58
528.04	53570.18
528.21	53469.54
528.38	53759.76
528.55	54192.76
528.72	53595.93
528.89	53825.30
529.07	53745.72
529.24	53750.40
529.41	54087.44
529.58	54080.42
529.75	53712.95
529.92	54258.30
530.09	53939.99
530.26	54218.51
530.43	54124.89
530.60	54031.27
530.77	53996.16
530.94	54370.64
531.11	54000.84
531.28	54403.41
531.46	54316.81
531.63	54295.75
531.80	54700.66
531.97	54763.85
532.14	54899.61
532.31	54805.98
532.48	54927.69
532.65	55011.95
532.82	54794.28
532.99	55220.26
533.16	54845.77
533.33	55075.15
533.50	55033.02
533.67	54864.50
533.84	55154.72
534.01	54934.71
534.18	55161.75
534.35	55433.25
534.52	55419.20
534.69	55545.59
534.86	55744.54
535.03	55313.88
535.20	55746.88
535.37	55746.88
535.54	55686.03
535.71	55423.89
535.88	55655.60
536.05	55849.86
536.22	55697.73
536.38	56142.43
536.55	55973.91
536.72	56048.81
536.89	55679.00
537.06	55936.46
537.23	56048.81
537.40	55927.10
537.57	56002.00
537.74	55952.85
537.91	56238.39
538.08	56287.54
538.25	56097.96
538.42	56264.14
538.59	56671.39
538.75	56163.50
538.92	56575.43
539.09	56795.44
539.26	56266.48
539.43	56509.89
539.60	56413.93
539.77	56617.56
539.94	56933.53
540.11	56278.18
540.28	56603.52
540.44	56772.03
540.61	56825.87
540.78	56542.66
540.95	56647.99
541.12	56697.14
541.29	56664.37
541.46	56877.36
541.62	56896.08
541.79	56898.42
541.96	56879.70
542.13	56701.82
542.30	56924.17
542.47	57088.01
542.63	57045.88
542.80	57214.40
542.97	57394.62
543.14	57497.60
543.31	57162.90
543.48	57272.91
543.64	57858.04
543.81	57373.55
543.98	57396.96
544.15	57560.79
544.32	57696.55
544.48	57647.39
544.65	57642.71
544.82	57453.13
544.99	57631.01
545.16	57865.06
545.32	57584.20
545.49	57961.03
545.66	57989.11
545.83	57691.86
546.00	58021.88
546.16	57691.86
546.33	57937.62
546.50	57626.33
546.67	58024.22
546.83	57944.64
547.00	57921.24
547.17	57970.39
547.34	58052.31
547.50	58227.85
547.67	58370.62
547.84	58218.49
548.00	58305.09
548.17	58351.90
548.34	58269.98
548.51	58518.07
548.67	58398.71
548.84	58216.14
549.01	58405.73
549.18	58209.12
549.34	58630.42
549.51	58445.52
549.68	58623.40
549.84	58588.29
550.01	58651.48
550.18	58443.18
550.34	58724.04
550.51	58756.81
550.68	58614.04
550.84	58342.53
551.01	58843.41
551.18	58653.82
551.34	58754.47
551.51	58946.39
551.68	58831.71
551.84	58869.15
552.01	58576.59
552.18	58983.84
552.34	59032.99
552.51	58784.90
552.68	58944.05
552.84	58937.03
553.01	59016.61
553.18	59143.00
553.34	59126.61
553.51	58951.07
553.67	59114.91
553.84	59072.78
554.01	59107.89
554.17	59250.66
554.34	59311.52
554.51	59299.81
554.67	59384.07
554.84	59189.81
555.00	59189.81
555.17	59241.30
555.33	59140.66
555.50	59096.19
555.67	59444.93
555.83	59105.55
556.00	59440.24
556.16	59540.89
556.33	59435.56
556.50	59388.75
556.66	59728.13
556.83	59552.59
556.99	59580.68
557.16	59620.47
557.32	59597.06
557.49	59812.39
557.65	59655.57
557.82	59561.95
557.98	59526.84
558.15	59678.98
558.32	59788.98
558.48	59571.32
558.65	59498.76
558.81	59519.82
558.98	59515.14
559.14	59994.95
559.31	59821.75
559.47	59924.74
559.64	59861.54
559.80	59838.14
559.97	60186.88
560.13	59938.78
560.30	59807.71
560.46	60053.47
560.63	59973.89
560.79	60282.84
560.96	60111.98
561.12	60149.43
561.29	60072.19
561.45	60102.62
561.61	60158.79
561.78	59875.58
561.94	60165.81
562.11	60126.02
562.27	60058.15
562.44	60182.19
562.60	60278.16
562.77	60039.42
562.93	59950.48
563.10	60271.14
563.26	60020.70
563.42	60573.06
563.59	60275.82
563.75	60149.43
563.92	60308.58
564.08	60264.11
564.24	60477.10
564.41	60420.93
564.57	60493.49
564.74	60449.02
564.90	60320.29
565.07	60446.68
565.23	60526.25
565.39	60254.75
565.56	60544.98
565.72	60530.93
565.88	60486.46
566.05	60608.17
566.21	60275.82
566.38	60540.30
566.54	60584.77
566.70	60645.62
566.87	60807.12
567.03	60519.23
567.19	60636.26
567.36	60647.96
567.52	60371.78
567.68	60816.48
567.85	60418.59
568.01	60647.96
568.17	60430.29
568.34	60720.52
568.50	60458.38
568.66	60486.46
568.83	60582.43
568.99	60481.78
569.15	60612.85
569.32	60900.74
569.48	60795.42
569.64	60774.35
569.81	60657.32
569.97	60540.30
570.13	60760.31
570.30	60685.41
570.46	60622.22
570.62	60692.43
570.78	60676.05
570.95	60889.04
571.11	60874.99
571.27	60802.44
571.43	60870.31
571.60	61087.98
571.76	60882.02
571.92	60615.19
572.09	60844.57
572.25	60814.14
572.41	60949.89
572.57	61045.85
572.74	61106.71
572.90	60935.85
573.06	60795.42
573.22	60821.16
573.38	60889.04
573.55	60849.25
573.71	61003.72
573.87	60989.68
574.03	60652.64
574.20	60926.49
574.36	60832.86
574.52	60966.27
574.68	60942.87
574.84	61249.48
575.01	60963.93
575.17	60851.59
575.33	60938.19
575.49	60996.70
575.65	61052.87
575.82	61034.15
575.98	60872.65
576.14	61282.25
576.30	61102.03
576.46	60942.87
576.62	61155.86
576.79	60926.49
576.95	60797.76
577.11	61027.13
577.27	61137.13
577.43	61148.84
577.59	61043.51
577.75	60926.49
577.92	60748.60
578.08	61125.43
578.24	61048.19
578.40	61109.05
578.56	61254.16
578.72	61085.64
578.88	61092.66
579.04	61069.26
579.21	61183.94
579.37	61270.54
579.53	61200.33
579.69	60966.27
579.85	60891.38
580.01	60999.04
580.17	60905.42
580.33	61258.84
580.49	61162.88
580.65	61174.58
580.82	61151.18
580.98	60938.19
581.14	61087.98
581.30	61078.62
581.46	60952.23
581.62	61116.07
581.78	61235.44
581.94	61139.47
582.10	61134.79
582.26	61172.24
582.42	61310.33
582.58	61275.22
582.74	61048.19
582.90	61132.45
583.06	61179.26
583.22	61024.79
583.38	61268.20
583.54	61181.60
583.70	61207.35
583.86	61277.57
584.02	61214.37
584.18	61272.88
584.34	61401.61
584.50	61310.33
584.66	61038.83
584.82	61251.82
584.98	61254.16
585.14	61312.67
585.30	60959.25
585.46	61286.93
585.62	61333.74
585.78	61305.65
585.94	61113.73
586.10	61312.67
586.26	61188.63
586.42	61300.97
586.58	61418.00
586.74	61352.46
586.90	61200.33
587.06	61104.37
587.22	61406.30
587.38	61331.40
587.54	61359.48
587.70	61361.82
587.86	61263.52
588.02	61434.38
588.18	61240.12
588.34	61352.46
