SpectraSuite Data File
++++++++++++++++++++++++++++++++++++
Date: Fri Oct 25 11:34:15 EDT 2013
User: price-jones
Dark Spectrum Present: No
Reference Spectrum Present: No
Number of Sampled Component Spectra: 1
Spectrometers: USB2+H05261
Integration Time (usec): 100000 (USB2+H05261)
Spectra Averaged: 1 (USB2+H05261)
Boxcar Smoothing: 0 (USB2+H05261)
Correct for Electrical Dark: No (USB2+H05261)
Strobe/Lamp Enabled: No (USB2+H05261)
Correct for Detector Non-linearity: No (USB2+H05261)
Correct for Stray Light: No (USB2+H05261)
Number of Pixels in Processed Spectrum: 2048
>>>>>Begin Processed Spectral Data<<<<<
365.73	257.46
365.92	257.46
366.12	257.46
366.32	198.95
366.52	145.11
366.72	208.31
366.91	163.84
367.11	168.52
367.31	224.69
367.51	203.63
367.70	170.86
367.90	194.26
368.10	161.50
368.30	95.96
368.49	140.43
368.69	154.48
368.89	175.54
369.09	124.05
369.28	220.01
369.48	217.67
369.68	187.24
369.87	238.73
370.07	238.73
370.27	257.46
370.47	297.25
370.66	472.79
370.86	561.73
371.06	561.73
371.25	608.54
371.45	507.90
371.65	587.47
371.84	461.09
372.04	503.22
372.24	552.37
372.44	566.41
372.63	617.90
372.83	589.82
373.03	578.11
373.22	660.03
373.42	594.50
373.62	561.73
373.81	627.26
374.01	589.82
374.21	662.37
374.40	620.24
374.60	681.10
374.79	629.60
374.99	599.18
375.19	631.94
375.38	634.29
375.58	650.67
375.78	718.54
375.97	638.97
376.17	690.46
376.37	641.31
376.56	664.71
376.76	730.25
376.95	627.26
377.15	641.31
377.35	753.65
377.54	690.46
377.74	685.78
377.93	695.14
378.13	648.33
378.33	688.12
378.52	643.65
378.72	692.80
378.91	760.67
379.11	667.05
379.31	641.31
379.50	631.94
379.70	660.03
379.89	725.57
380.09	720.88
380.28	758.33
380.48	730.25
380.68	732.59
380.87	657.69
381.07	779.40
381.26	819.19
381.46	784.08
381.65	793.44
381.85	791.10
382.04	802.80
382.24	669.39
382.43	744.29
382.63	765.36
382.83	732.59
383.02	847.27
383.22	823.87
383.41	758.33
383.61	772.38
383.80	833.23
384.00	812.17
384.19	809.83
384.39	777.06
384.58	795.78
384.78	849.61
384.97	877.70
385.17	753.65
385.36	807.48
385.56	807.48
385.75	844.93
385.95	873.02
386.14	800.46
386.34	826.21
386.53	809.83
386.72	748.97
386.92	837.91
387.11	847.27
387.31	828.55
387.50	896.43
387.70	809.83
387.89	884.72
388.09	809.83
388.28	908.13
388.48	947.92
388.67	931.53
388.86	786.42
389.06	870.68
389.25	912.81
389.45	936.21
389.64	931.53
389.84	887.06
390.03	915.15
390.22	1004.09
390.42	952.60
390.61	1001.75
390.81	987.71
391.00	943.24
391.19	1006.43
391.39	992.39
391.58	945.58
391.78	1008.77
391.97	954.94
392.16	910.47
392.36	1071.97
392.55	1043.88
392.75	978.34
392.94	971.32
393.13	1050.90
393.33	985.37
393.52	1067.28
393.71	992.39
393.91	1167.93
394.10	1041.54
394.29	983.02
394.49	1025.15
394.68	1053.24
394.88	1060.26
395.07	1062.60
395.26	1078.99
395.46	1174.95
395.65	1149.20
395.84	1107.07
396.04	1177.29
396.23	1043.88
396.42	1146.86
396.62	1188.99
396.81	1200.69
397.00	1294.32
397.19	1249.85
397.39	1137.50
397.58	1231.12
397.77	1322.40
397.97	1193.67
398.16	1275.59
398.35	1259.21
398.55	1224.10
398.74	1261.55
398.93	1303.68
399.12	1231.12
399.32	1226.44
399.51	1380.92
399.70	1401.98
399.90	1331.76
400.09	1252.19
400.28	1352.83
400.47	1320.06
400.67	1401.98
400.86	1294.32
401.05	1303.68
401.24	1432.41
401.44	1376.24
401.63	1430.07
401.82	1418.36
402.01	1355.17
402.21	1413.68
402.40	1521.35
402.59	1420.71
402.78	1404.32
402.97	1467.52
403.17	1472.20
403.36	1479.22
403.55	1462.83
403.74	1572.84
403.93	1511.99
404.13	1591.56
404.32	1514.33
404.51	1619.65
404.70	1650.08
404.89	1572.84
405.09	1732.00
405.28	1640.72
405.47	1636.03
405.66	1722.63
405.85	1717.95
406.05	1617.31
406.24	1652.42
406.43	1701.57
406.62	1778.81
406.81	1832.64
407.00	1652.42
407.20	1753.06
407.39	1769.44
407.58	1755.40
407.77	1778.81
407.96	1834.98
408.15	1799.87
408.34	1771.79
408.54	1816.26
408.73	1839.66
408.92	1877.11
409.11	1935.62
409.30	1921.58
409.49	1884.13
409.68	1989.46
409.87	2076.06
410.07	2052.65
410.26	1944.99
410.45	2076.06
410.64	2057.33
410.83	2033.93
411.02	2094.78
411.21	2153.29
411.40	2125.21
411.59	2120.53
411.78	2176.70
411.98	2099.46
412.17	2209.47
412.36	2200.10
412.55	2282.02
412.74	2237.55
412.93	2260.96
413.12	2291.38
413.31	2284.36
413.50	2284.36
413.69	2296.07
413.88	2328.83
414.07	2385.01
414.26	2436.50
414.45	2485.65
414.64	2443.52
414.83	2541.82
415.02	2588.63
415.22	2654.17
415.41	2649.49
415.60	2654.17
415.79	2616.72
415.98	2562.89
416.17	2686.94
416.36	2670.55
416.55	2677.57
416.74	2787.58
416.93	2850.77
417.12	2745.45
417.31	2705.66
417.50	2686.94
417.69	2869.50
417.88	2888.22
418.07	2825.03
418.26	2888.22
418.45	2911.63
418.64	2935.03
418.83	2946.73
419.02	2986.52
419.21	3056.74
419.39	3056.74
419.58	3089.51
419.77	2848.43
419.96	3084.83
420.15	3042.70
420.34	3042.70
420.53	3164.40
420.72	3197.17
420.91	3162.06
421.10	3126.96
421.29	3222.92
421.48	3105.89
421.67	3293.13
421.86	3199.51
422.05	3323.56
422.24	3215.90
422.43	3190.15
422.61	3288.45
422.80	3283.77
422.99	3382.07
423.18	3183.13
423.37	3447.61
423.56	3314.20
423.75	3396.12
423.94	3307.18
424.13	3122.27
424.32	3162.06
424.50	3346.97
424.69	3363.35
424.88	3440.59
425.07	3435.91
425.26	3180.79
425.45	3353.99
425.64	3377.39
425.83	3295.47
426.01	3440.59
426.20	3356.33
426.39	3403.14
426.58	3368.03
426.77	3442.93
426.96	3365.69
427.15	3375.05
427.33	3492.08
427.52	3351.65
427.71	3414.84
427.90	3590.38
428.09	3669.96
428.28	3489.74
428.46	3452.29
428.65	3431.23
428.84	3681.66
429.03	3618.47
429.22	3592.72
429.40	3653.58
429.59	3583.36
429.78	3709.75
429.97	3531.87
430.16	3681.66
430.34	3749.54
430.53	3688.68
430.72	3775.28
430.91	3747.20
431.10	3742.52
431.28	3669.96
431.47	3896.99
431.66	3901.67
431.85	3822.09
432.03	3992.95
432.22	4100.62
432.41	3845.50
432.60	3899.33
432.79	3985.93
432.97	3817.41
433.16	3911.04
433.35	3929.76
433.54	4117.00
433.72	4250.41
433.91	4091.26
434.10	4065.51
434.28	4030.40
434.47	4140.41
434.66	4077.21
434.85	4161.47
435.03	4311.27
435.22	4124.02
435.41	4418.93
435.59	4407.23
435.78	4308.93
435.97	4201.26
436.16	4227.01
436.34	4224.67
436.53	4248.07
436.72	4400.21
436.90	4203.60
437.09	4400.21
437.28	4292.54
437.46	4341.69
437.65	4329.99
437.84	4489.15
438.02	4416.59
438.21	4535.96
438.40	4475.10
438.58	4727.88
438.77	4713.84
438.96	4674.05
439.14	4748.95
439.33	4791.08
439.52	4706.82
439.70	4870.65
439.89	4760.65
440.08	4910.44
440.26	4985.34
440.45	4887.04
440.63	5011.09
440.82	4971.30
441.01	4894.06
441.19	4936.19
441.38	5032.15
441.57	5039.17
441.75	5118.75
441.94	5235.78
442.12	5401.96
442.31	5254.50
442.50	5205.35
442.68	5397.28
442.87	5268.55
443.05	5207.69
443.24	5273.23
443.43	5355.15
443.61	5570.48
443.80	5542.39
443.98	5317.70
444.17	5184.29
444.35	5289.61
444.54	5502.60
444.73	5437.06
444.91	5603.24
445.10	5521.32
445.28	5617.29
445.47	5460.47
445.65	5619.63
445.84	5434.72
446.02	5591.54
446.21	5413.66
446.39	5521.32
446.58	5584.52
446.77	5589.20
446.95	5404.30
447.14	5509.62
447.32	5476.85
447.51	5692.18
447.69	5638.35
447.88	5460.47
448.06	5762.40
448.25	5687.50
448.43	5710.91
448.62	5727.29
448.80	5664.10
448.99	5748.36
449.17	5657.07
449.36	5556.43
449.54	5682.82
449.73	5888.79
449.91	5895.81
450.10	5956.66
450.28	5935.60
450.46	5984.75
450.65	6113.48
450.83	5839.64
451.02	6036.24
451.20	5980.07
451.39	6008.16
451.57	5886.45
451.76	6001.13
451.94	5820.91
452.13	6127.52
452.31	5930.92
452.49	5961.34
452.68	5991.77
452.86	6207.10
453.05	6331.15
453.23	6298.38
453.42	6017.52
453.60	6146.25
453.78	6197.74
453.97	6202.42
454.15	6181.35
454.34	6143.91
454.52	6286.68
454.70	6485.62
454.89	6377.96
455.07	6471.58
455.26	6480.94
455.44	6469.24
455.62	6504.35
455.81	6623.72
455.99	6494.99
456.17	6464.56
456.36	6569.88
456.54	6764.15
456.73	6841.39
456.91	6792.23
457.09	6878.83
457.28	6897.56
457.46	6682.23
457.64	7005.22
457.83	6960.75
458.01	6853.09
458.19	7056.72
458.38	6960.75
458.56	6902.24
458.74	6855.43
458.93	6998.20
459.11	7052.03
459.29	6930.33
459.48	7150.34
459.66	7091.82
459.84	7309.49
460.03	7316.51
460.21	7129.27
460.39	7162.04
460.57	7321.20
460.76	7384.39
460.94	7250.98
461.12	7300.13
461.31	7213.53
461.49	7314.17
461.67	7424.18
461.85	7426.52
462.04	7213.53
462.22	7932.08
462.40	7545.89
462.59	7447.58
462.77	7501.42
462.95	7623.12
463.13	7332.90
463.32	7751.85
463.50	7550.57
463.68	7721.43
463.86	7723.77
464.05	7475.67
464.23	7719.09
464.41	7761.22
464.59	7707.38
464.78	7894.63
464.96	7943.78
465.14	7489.71
465.32	7847.82
465.50	7798.66
465.69	8046.76
465.87	7817.39
466.05	7758.88
466.23	7868.88
466.41	7880.58
466.60	7896.97
466.78	7901.65
466.96	7878.24
467.14	7852.50
467.32	8032.72
467.51	8149.75
467.69	8086.55
467.87	8067.83
468.05	8194.22
468.23	7983.57
468.41	7978.89
468.60	8278.47
468.78	8390.82
468.96	8327.63
469.14	8472.74
469.32	8365.07
469.50	8217.62
469.69	8379.12
469.87	8477.42
470.05	8388.48
470.23	8608.49
470.41	8475.08
470.59	8669.34
470.77	8554.66
470.95	8669.34
471.14	8755.94
471.32	8482.10
471.50	8784.03
471.68	8667.00
471.86	8980.64
472.04	8912.76
472.22	9298.95
472.40	8842.54
472.58	8922.12
472.77	8997.02
472.95	9004.04
473.13	9427.68
473.31	9179.58
473.49	8990.00
473.67	9235.75
473.85	9341.08
474.03	9413.63
474.21	9493.21
474.39	9589.17
474.57	9455.76
474.75	9626.62
474.93	9778.76
475.12	9666.41
475.30	9830.25
475.48	9736.63
475.66	9762.37
475.84	9767.06
476.02	9921.53
476.20	9956.64
476.38	9940.26
476.56	10183.67
476.74	10076.01
476.92	10319.42
477.10	10246.87
477.28	10094.73
477.46	10382.62
477.64	10485.60
477.82	10602.63
478.00	10796.89
478.18	10876.47
478.36	10956.05
478.54	11044.99
478.72	11094.14
478.90	11243.93
479.08	11208.83
479.26	11274.36
479.44	11124.57
479.62	11646.51
479.80	11297.77
479.98	11599.70
480.16	11779.92
480.34	11712.04
480.52	11826.73
480.70	11824.39
480.88	11728.42
481.06	11878.22
481.24	12095.89
481.41	12269.09
481.59	12175.47
481.77	12301.86
481.95	12182.49
482.13	12788.69
482.31	12367.39
482.49	12959.55
482.67	13011.04
482.85	12758.26
483.03	12989.97
483.21	13177.22
483.39	13352.76
483.57	13254.45
483.74	13507.23
483.92	13467.44
484.10	13291.90
484.28	14270.25
484.46	14230.46
484.64	14391.95
484.82	14221.10
485.00	14333.44
485.18	14473.87
485.35	14661.12
485.53	14464.51
485.71	14408.34
485.89	15042.62
486.07	14871.76
486.25	15066.03
486.43	14829.63
486.61	15290.72
486.78	15229.87
486.96	15520.09
487.14	15597.33
487.32	15920.32
487.50	15793.94
487.68	15903.94
487.85	16271.40
488.03	16212.89
488.21	16334.60
488.39	16402.47
488.57	16629.51
488.75	16570.99
488.92	16910.37
489.10	16886.97
489.28	17041.44
489.46	17242.73
489.64	17128.04
489.81	17652.32
489.99	17516.57
490.17	17549.34
490.35	18040.85
490.53	17905.10
490.70	17886.37
490.88	18057.23
491.06	17933.18
491.24	18347.46
491.41	18548.75
491.59	18693.86
491.77	18434.06
491.95	18618.96
492.13	18972.38
492.30	19066.00
492.48	19112.81
492.66	19054.30
492.84	19372.61
493.01	19859.45
493.19	19573.90
493.37	19878.17
493.54	19538.79
493.72	20072.43
493.90	20269.04
494.08	20411.81
494.25	20262.02
494.43	20411.81
494.61	20528.84
494.79	20418.83
494.96	20650.55
495.14	20582.67
495.32	21085.89
495.49	21151.42
495.67	21231.00
495.85	21231.00
496.02	21441.65
496.20	21415.90
496.38	21795.07
496.55	21420.58
496.73	21998.70
496.91	22094.66
497.09	22029.12
497.26	22377.86
497.44	22279.56
497.62	22480.85
497.79	22836.61
497.97	22345.09
498.14	23021.51
498.32	23061.30
498.50	22951.29
498.67	23496.64
498.85	22827.24
499.03	23314.08
499.20	23655.79
499.38	23377.27
499.56	23754.10
499.73	23747.08
499.91	23669.84
500.08	24238.59
500.26	23864.10
500.44	24121.56
500.61	24004.53
500.79	24229.23
500.97	23957.72
501.14	24409.45
501.32	24638.82
501.49	24659.88
501.67	24893.94
501.84	24795.64
502.02	24669.25
502.20	25020.33
502.37	24851.81
502.55	25151.40
502.72	25184.16
502.90	25214.59
503.07	25256.72
503.25	25226.29
503.43	25296.51
503.60	25556.31
503.78	25914.41
503.95	25465.03
504.13	26075.91
504.30	26239.75
504.48	25876.96
504.65	25902.71
504.83	26015.05
505.01	26759.34
505.18	26068.89
505.36	26473.80
505.53	26466.78
505.71	26717.22
505.88	26717.22
506.06	26679.77
506.23	26710.19
506.41	26499.55
506.58	26742.96
506.76	26574.44
506.93	27351.50
507.11	27098.72
507.28	26986.38
507.46	27412.35
507.63	27122.13
507.81	27517.68
507.98	27615.98
508.16	27510.66
508.33	27690.88
508.50	27845.35
508.68	27941.32
508.85	27913.23
509.03	28208.14
509.20	28147.28
509.38	28486.66
509.55	28451.55
509.73	28374.31
509.90	28386.02
510.08	28531.13
510.25	28514.75
510.42	28622.41
510.60	29195.84
510.77	28816.68
510.95	28952.43
511.12	28760.50
511.30	29324.57
511.47	29219.25
511.64	28929.02
511.82	29266.06
511.99	29455.64
512.17	29507.13
512.34	29476.71
512.51	29631.18
512.69	29912.05
512.86	29465.00
513.04	30078.22
513.21	30181.21
513.38	30171.85
513.56	30249.08
513.73	30113.33
513.90	30490.16
514.08	29949.50
514.25	30452.71
514.43	30881.03
514.60	30604.84
514.77	30834.22
514.95	30958.27
515.12	30618.89
515.29	30726.55
515.47	31185.30
515.64	31000.40
515.81	30780.39
515.99	31133.81
516.16	31459.14
516.33	31510.63
516.51	31667.45
516.68	31367.86
516.85	31061.25
517.03	31803.20
517.20	31480.21
517.37	31758.73
517.54	31976.40
517.72	31924.91
517.89	31873.42
518.06	31857.03
518.24	32093.43
518.41	32191.73
518.58	32215.13
518.75	32084.06
518.93	32367.27
519.10	32039.59
519.27	32165.98
519.45	32500.68
519.62	32727.71
519.79	32865.80
519.96	32545.15
520.14	32994.53
520.31	32320.46
520.48	32797.93
520.65	33116.24
520.83	33797.34
521.00	33174.75
521.17	33352.63
521.34	33567.96
521.52	33598.39
521.69	33787.97
521.86	33624.14
522.03	33727.12
522.20	34089.90
522.38	33523.49
522.55	33825.42
522.72	34078.20
522.89	33982.24
523.07	34359.06
523.24	34071.18
523.41	34295.87
523.58	34017.35
523.75	34625.89
523.92	34038.41
524.10	34492.47
524.27	34740.57
524.44	34415.24
524.61	34572.05
524.78	34366.09
524.96	34642.27
525.13	35000.37
525.30	34733.55
525.47	35124.42
525.64	34995.69
525.81	35449.75
525.98	35695.51
526.16	34911.43
526.33	35098.67
526.50	35344.43
526.67	35386.56
526.84	35367.84
527.01	35061.22
527.18	35358.47
527.36	35618.27
527.53	35728.28
527.70	35730.62
527.87	35959.99
528.04	36346.18
528.21	35924.88
528.38	35812.54
528.55	36184.68
528.72	36306.39
528.89	36280.64
529.07	36116.81
529.24	36360.22
529.41	36451.50
529.58	36259.58
529.75	36156.60
529.92	36701.94
530.09	36622.36
530.26	36980.46
530.43	37022.59
530.60	36645.77
530.77	36505.34
530.94	36306.39
531.11	36692.58
531.28	36872.80
531.46	36500.65
531.63	36542.78
531.80	36662.15
531.97	36872.80
532.14	37111.53
532.31	37020.25
532.48	37186.43
532.65	37624.11
532.82	37464.96
532.99	37443.89
533.16	37486.02
533.33	37261.33
533.50	37565.60
533.67	37794.97
533.84	37223.88
534.01	37677.94
534.18	37717.73
534.35	37919.02
534.52	37801.99
534.69	38419.89
534.86	38108.60
535.03	38185.84
535.20	38497.13
535.37	38092.22
535.54	38422.23
535.71	38192.86
535.88	38550.96
536.05	38036.05
536.22	38710.12
536.38	38794.38
536.55	38447.98
536.72	38635.22
536.89	38373.08
537.06	38763.95
537.23	38806.08
537.40	38602.46
537.57	38541.60
537.74	38595.43
537.91	39019.07
538.08	38880.98
538.25	38618.84
538.42	38967.58
538.59	39306.96
538.75	38913.75
538.92	39288.23
539.09	39449.73
539.26	38895.02
539.43	39007.37
539.60	39728.25
539.77	39262.49
539.94	39260.15
540.11	39571.44
540.28	39730.59
540.44	39599.52
540.61	39482.50
540.78	39615.91
540.95	39407.60
541.12	39807.83
541.29	39655.70
541.46	39845.28
541.62	39948.26
541.79	40194.02
541.96	39421.64
542.13	39721.23
542.30	39784.43
542.47	39777.40
542.63	40137.85
542.80	40390.62
542.97	40402.33
543.14	40631.70
543.31	40304.02
543.48	40329.77
543.64	40823.62
543.81	40837.67
543.98	40851.71
544.15	40477.22
544.32	40690.21
544.48	41347.90
544.65	40926.61
544.82	41251.94
544.99	40594.25
545.16	41031.93
545.32	40840.01
545.49	41095.13
545.66	41420.46
545.83	41319.82
546.00	41502.38
546.16	41233.22
546.33	41497.70
546.50	41202.79
546.67	41530.47
546.83	40907.88
547.00	41563.23
547.17	41280.03
547.34	41413.44
547.50	41579.62
547.67	41773.88
547.84	41181.73
548.00	42136.66
548.17	41970.49
548.34	42298.16
548.51	42078.15
548.67	41603.02
548.84	42096.88
549.01	41881.55
549.18	42670.31
549.34	42424.55
549.51	42164.75
549.68	42211.56
549.84	42101.56
550.01	42433.91
550.18	42440.93
550.34	42344.97
550.51	42918.40
550.68	42623.50
550.84	42036.02
551.01	42054.75
551.18	42466.68
551.34	42326.25
551.51	42618.81
551.68	42724.14
551.84	42682.01
552.01	42557.96
552.18	42679.67
552.34	42656.26
552.51	42838.83
552.68	42543.92
552.84	42773.29
553.01	42782.65
553.18	42693.71
553.34	43044.79
553.51	42742.86
553.67	43171.18
553.84	43026.07
554.01	42686.69
554.17	42927.77
554.34	42990.96
554.51	43012.02
554.67	43442.68
554.84	43236.72
555.00	43356.08
555.17	42859.89
555.33	43515.24
555.50	43557.37
555.67	43257.78
555.83	43625.25
556.00	43456.73
556.16	43988.03
556.33	43650.99
556.50	43171.18
556.66	43721.21
556.83	43222.67
556.99	44055.90
557.16	43681.42
557.32	44414.01
557.49	43835.89
557.65	43477.79
557.82	43746.95
557.98	44006.75
558.15	44009.09
558.32	43863.98
558.48	43854.62
558.65	43613.54
558.81	43793.76
558.98	44020.80
559.14	43835.89
559.31	44023.14
559.47	43880.36
559.64	43674.40
559.80	44271.23
559.97	44406.98
560.13	43693.12
560.30	44142.50
560.46	44357.83
560.63	44322.72
560.79	44758.06
560.96	44353.15
561.12	44219.74
561.29	44165.91
561.45	44790.83
561.61	44381.24
561.78	44348.47
561.94	44596.57
562.11	44435.07
562.27	44006.75
562.44	44446.77
562.60	44765.09
562.77	45010.84
562.93	44416.35
563.10	44835.30
563.26	44612.95
563.42	44645.72
563.59	44531.03
563.75	44306.34
563.92	44406.98
564.08	44610.61
564.24	44524.01
564.41	44626.99
564.57	44905.52
564.74	44823.60
564.90	44655.08
565.07	44762.75
565.23	44858.71
565.39	44552.10
565.56	44935.95
565.72	44964.03
565.88	45146.59
566.05	45116.17
566.21	44814.24
566.38	45155.96
566.54	44655.08
566.70	44849.35
566.87	44818.92
567.03	44591.89
567.19	44945.31
567.36	44900.84
567.52	45076.38
567.68	45052.97
567.85	44847.00
568.01	44975.73
568.17	44842.32
568.34	45057.65
568.50	44807.22
568.66	45109.14
568.83	45031.91
568.99	45263.62
569.15	45146.59
569.32	45130.21
569.48	44896.16
569.64	45095.10
569.81	45256.60
569.97	45368.94
570.13	45521.08
570.30	45120.85
570.46	45539.80
570.62	45134.89
570.78	45111.49
570.95	45371.28
571.11	45333.84
571.27	45118.51
571.43	45282.34
571.60	45118.51
571.76	45570.23
571.92	45263.62
572.09	45280.00
572.25	45331.50
572.41	45003.82
572.57	45272.98
572.74	45951.74
572.90	45628.74
573.06	45223.83
573.22	45551.51
573.38	45874.50
573.55	45298.73
573.71	46000.89
573.87	45914.29
574.03	45081.06
574.20	45530.44
574.36	45996.21
574.52	45858.12
574.68	45860.46
574.84	45865.14
575.01	45488.31
575.17	45661.51
575.33	45586.61
575.49	45603.00
575.65	45661.51
575.82	46036.00
575.98	45200.43
576.14	46333.24
576.30	45556.19
576.46	46007.91
576.62	45820.67
576.79	45191.06
576.95	44891.48
577.11	45876.84
577.27	45532.78
577.43	45722.37
577.59	45645.13
577.75	45888.54
577.92	45380.65
578.08	45790.24
578.24	45661.51
578.40	45874.50
578.56	46148.34
578.72	45652.15
578.88	45628.74
579.04	45872.16
579.21	45727.05
579.37	46089.83
579.53	46092.17
579.69	45715.34
579.85	45502.35
580.01	45708.32
580.17	45509.38
580.33	45806.62
580.49	46089.83
580.65	46239.62
580.82	45869.82
580.98	46003.23
581.14	45769.18
581.30	45914.29
581.46	45886.20
581.62	46248.99
581.78	45544.48
581.94	45797.26
582.10	46012.59
582.26	46110.89
582.42	46138.98
582.58	45815.99
582.74	46380.06
582.90	46003.23
583.06	45993.87
583.22	45827.69
583.38	45490.65
583.54	45996.21
583.70	45865.14
583.86	45556.19
584.02	45823.01
584.18	46260.69
584.34	46253.67
584.50	46071.10
584.66	46295.80
584.82	45858.12
584.98	46089.83
585.14	46258.35
585.30	46087.49
585.46	46220.90
585.62	45998.55
585.78	46218.56
585.94	45731.73
586.10	45556.19
586.26	45886.20
586.42	45956.42
586.58	46171.75
586.74	46146.00
586.90	46267.71
587.06	45890.88
587.22	46096.85
587.38	46129.62
587.54	46354.31
587.70	46124.94
587.86	46335.59
588.02	46148.34
588.18	46494.74
588.34	46028.98
588.49	46263.03
588.65	45750.45
588.81	45673.21
588.97	45890.88
589.13	46244.30
589.29	46300.48
589.45	46513.47
589.61	46115.58
589.77	46220.90
589.93	46005.57
590.08	46588.36
