SpectraSuite Data File
++++++++++++++++++++++++++++++++++++
Date: Fri Oct 25 11:22:57 EDT 2013
User: price-jones
Dark Spectrum Present: No
Reference Spectrum Present: No
Number of Sampled Component Spectra: 1
Spectrometers: USB2+H05261
Integration Time (usec): 100000 (USB2+H05261)
Spectra Averaged: 1 (USB2+H05261)
Boxcar Smoothing: 0 (USB2+H05261)
Correct for Electrical Dark: No (USB2+H05261)
Strobe/Lamp Enabled: No (USB2+H05261)
Correct for Detector Non-linearity: No (USB2+H05261)
Correct for Stray Light: No (USB2+H05261)
Number of Pixels in Processed Spectrum: 2048
>>>>>Begin Processed Spectral Data<<<<<
365.73	252.78
365.92	252.78
366.12	252.78
366.32	77.24
366.52	81.92
366.72	135.75
366.91	84.26
367.11	105.32
367.31	67.88
367.51	110.01
367.70	138.09
367.90	173.20
368.10	126.39
368.30	147.45
368.49	2.34
368.69	135.75
368.89	79.58
369.09	142.77
369.28	212.99
369.48	166.18
369.68	243.42
369.87	131.07
370.07	229.37
370.27	255.12
370.47	341.72
370.66	514.92
370.86	690.46
371.06	613.22
371.25	676.41
371.45	580.45
371.65	667.05
371.84	681.10
372.04	704.50
372.24	727.91
372.44	624.92
372.63	777.06
372.83	711.52
373.03	737.27
373.22	774.72
373.42	739.61
373.62	753.65
373.81	748.97
374.01	727.91
374.21	744.29
374.40	837.91
374.60	840.25
374.79	814.51
374.99	812.17
375.19	699.82
375.38	814.51
375.58	861.32
375.78	819.19
375.97	809.83
376.17	866.00
376.37	854.30
376.56	901.11
376.76	858.98
376.95	854.30
377.15	924.51
377.35	809.83
377.54	894.08
377.74	826.21
377.93	1008.77
378.13	919.83
378.33	978.34
378.52	950.26
378.72	901.11
378.91	950.26
379.11	985.37
379.31	971.32
379.50	936.21
379.70	1008.77
379.89	1006.43
380.09	926.85
380.28	933.87
380.48	983.02
380.68	976.00
380.87	1022.81
381.07	994.73
381.26	1018.13
381.46	985.37
381.65	1006.43
381.85	1060.26
382.04	1081.33
382.24	1027.50
382.43	1135.16
382.63	1029.84
382.83	997.07
383.02	1102.39
383.22	1158.57
383.41	1074.31
383.61	1123.46
383.80	1156.22
384.00	1032.18
384.19	1048.56
384.39	1086.01
384.58	1104.73
384.78	1111.75
384.97	1181.97
385.17	1050.90
385.36	1196.01
385.56	1139.84
385.75	1135.16
385.95	1196.01
386.14	1181.97
386.34	1158.57
386.53	1184.31
386.72	1226.44
386.92	1289.64
387.11	1235.80
387.31	1282.61
387.50	1226.44
387.70	1210.06
387.89	1231.12
388.09	1203.04
388.28	1224.10
388.48	1240.48
388.67	1350.49
388.86	1287.29
389.06	1362.19
389.25	1301.34
389.45	1345.81
389.64	1380.92
389.84	1350.49
390.03	1327.08
390.22	1434.75
390.42	1371.55
390.61	1392.62
390.81	1322.40
391.00	1502.62
391.19	1465.18
391.39	1511.99
391.58	1575.18
391.78	1327.08
391.97	1469.86
392.16	1455.81
392.36	1647.74
392.55	1502.62
392.75	1451.13
392.94	1460.49
393.13	1511.99
393.33	1416.02
393.52	1673.48
393.71	1586.88
393.91	1584.54
394.10	1549.43
394.29	1617.31
394.49	1605.61
394.68	1682.85
394.88	1699.23
395.07	1666.46
395.26	1666.46
395.46	1568.16
395.65	1645.40
395.84	1739.02
396.04	1802.21
396.23	1837.32
396.42	1771.79
396.62	1872.43
396.81	1820.94
397.00	1715.61
397.19	1790.51
397.39	1778.81
397.58	1762.42
397.77	1795.19
397.97	1816.26
398.16	1930.94
398.35	1891.15
398.55	1816.26
398.74	1891.15
398.93	1830.30
399.12	1842.00
399.32	1982.43
399.51	1912.22
399.70	1991.80
399.90	1973.07
400.09	2029.24
400.28	2022.22
400.47	2033.93
400.67	2139.25
400.86	2085.42
401.05	2179.04
401.24	2118.18
401.44	2111.16
401.63	2153.29
401.82	2172.02
402.01	2108.82
402.21	2172.02
402.40	2209.47
402.59	2225.85
402.78	2230.53
402.97	2237.55
403.17	2270.32
403.36	2305.43
403.55	2326.49
403.74	2335.85
403.93	2331.17
404.13	2382.67
404.32	2321.81
404.51	2310.11
404.70	2436.50
404.89	2464.58
405.09	2605.02
405.28	2495.01
405.47	2462.24
405.66	2504.37
405.85	2612.04
406.05	2495.01
406.24	2497.35
406.43	2600.34
406.62	2539.48
406.81	2612.04
407.00	2539.48
407.20	2459.90
407.39	2752.47
407.58	2705.66
407.77	2757.15
407.96	2818.00
408.15	2745.45
408.34	2642.46
408.54	2846.09
408.73	2848.43
408.92	2850.77
409.11	2862.48
409.30	2949.08
409.49	2974.82
409.68	2977.16
409.87	2862.48
410.07	3000.57
410.26	2939.71
410.45	3119.93
410.64	2984.18
410.83	3129.30
411.02	3145.68
411.21	3227.60
411.40	3094.19
411.59	3199.51
411.78	3258.03
411.98	3155.04
412.17	3368.03
412.36	3239.30
412.55	3379.73
412.74	3440.59
412.93	3372.71
413.12	3480.38
413.31	3613.79
413.50	3454.63
413.69	3384.41
413.88	3592.72
414.07	3541.23
414.26	3543.57
414.45	3763.58
414.64	3749.54
414.83	3686.34
415.02	3765.92
415.22	3684.00
415.41	3896.99
415.60	3901.67
415.79	3871.25
415.98	3822.09
416.17	3906.35
416.36	3948.48
416.55	3859.54
416.74	4070.19
416.93	4030.40
417.12	4201.26
417.31	4252.75
417.50	4187.22
417.69	4264.46
417.88	4138.07
418.07	4250.41
418.26	4248.07
418.45	4241.05
418.64	4407.23
418.83	4550.00
419.02	4395.53
419.21	4458.72
419.39	4603.83
419.58	4416.59
419.77	4510.21
419.96	4578.09
420.15	4571.07
420.34	4620.22
420.53	4662.35
420.72	4744.27
420.91	4737.24
421.10	4723.20
421.29	4873.00
421.48	4720.86
421.67	4784.06
421.86	4865.97
422.05	4809.80
422.24	4765.33
422.43	4861.29
422.61	4882.36
422.80	5008.75
422.99	5032.15
423.18	5039.17
423.37	5142.16
423.56	4997.04
423.75	4978.32
423.94	4882.36
424.13	4624.90
424.32	4748.95
424.50	5057.90
424.69	5095.35
424.88	5001.72
425.07	4938.53
425.26	4870.65
425.45	4936.19
425.64	4964.28
425.83	4931.51
426.01	5151.52
426.20	5160.88
426.39	5107.05
426.58	5034.49
426.77	5060.24
426.96	5053.22
427.15	5064.92
427.33	5174.92
427.52	5233.44
427.71	5294.29
427.90	5212.37
428.09	5303.65
428.28	5268.55
428.46	5420.68
428.65	5315.36
428.84	5458.13
429.03	5579.84
429.22	5509.62
429.40	5294.29
429.59	5554.09
429.78	5369.19
429.97	5289.61
430.16	5544.73
430.34	5542.39
430.53	5528.35
430.72	5701.54
430.91	5708.57
431.10	5521.32
431.28	5783.46
431.47	5827.93
431.66	5877.09
431.85	5785.80
432.03	6024.54
432.22	6120.50
432.41	5959.00
432.60	5989.43
432.79	6008.16
432.97	6101.78
433.16	5994.11
433.35	6031.56
433.54	6162.63
433.72	6183.70
433.91	6047.94
434.10	6265.61
434.28	6141.57
434.47	6174.33
434.66	6211.78
434.85	6410.73
435.03	6504.35
435.22	6136.88
435.41	6567.54
435.59	6438.81
435.78	6392.00
435.97	6593.29
436.16	6509.03
436.34	6604.99
436.53	6443.49
436.72	6509.03
436.90	6483.28
437.09	6647.12
437.28	6466.90
437.46	6710.32
437.65	6583.93
437.84	6750.10
438.02	6794.58
438.21	6796.92
438.40	6612.01
438.58	7063.74
438.77	7176.08
438.96	7136.29
439.14	7129.27
439.33	7342.26
439.52	7300.13
439.70	7276.73
439.89	7452.27
440.08	7379.71
440.26	7384.39
440.45	7236.94
440.63	7452.27
440.82	7627.81
441.01	7590.36
441.19	7723.77
441.38	7648.87
441.57	7609.08
441.75	7801.01
441.94	8121.66
442.12	7920.37
442.31	8072.51
442.50	8135.70
442.68	8035.06
442.87	8091.23
443.05	8100.59
443.24	8278.47
443.43	8018.68
443.61	8109.96
443.80	8470.40
443.98	8208.26
444.17	8009.31
444.35	8152.09
444.54	8381.46
444.73	8308.90
444.91	8521.89
445.10	8243.37
445.28	8432.95
445.47	8381.46
445.65	8388.48
445.84	8388.48
446.02	8521.89
446.21	8491.46
446.39	8395.50
446.58	8397.84
446.77	8585.08
446.95	8411.89
447.14	8482.10
447.32	8446.99
447.51	8582.74
447.69	8531.25
447.88	8561.68
448.06	8589.77
448.25	8596.79
448.43	8566.36
448.62	8683.39
448.80	8545.30
448.99	8608.49
449.17	8861.27
449.36	8755.94
449.54	8884.67
449.73	9221.71
449.91	8940.85
450.10	9149.15
450.28	9062.55
450.46	9102.34
450.65	9020.42
450.83	9217.03
451.02	8982.98
451.20	9411.29
451.39	9273.20
451.57	9142.13
451.76	9146.81
451.94	9179.58
452.13	9362.14
452.31	9462.79
452.49	9322.35
452.68	9268.52
452.86	9289.59
453.05	9521.30
453.23	9430.02
453.42	9383.21
453.60	9528.32
453.78	9675.77
453.97	9493.21
454.15	9551.73
454.34	9563.43
454.52	9671.09
454.70	9628.96
454.89	9713.22
455.07	9865.36
455.26	10087.71
455.44	10115.80
455.62	9951.96
455.81	10099.41
455.99	10099.41
456.17	9980.04
456.36	10167.29
456.54	10106.43
456.73	10399.00
456.91	10427.09
457.09	10558.16
457.28	10513.69
457.46	10303.04
457.64	10644.76
457.83	10619.01
458.01	10499.64
458.19	10808.59
458.38	10558.16
458.56	10787.53
458.74	10677.52
458.93	10736.04
459.11	10878.81
459.29	10813.28
459.48	10885.83
459.66	10930.30
459.84	11070.73
460.03	11026.26
460.21	11232.23
460.39	11169.04
460.57	11112.86
460.76	11185.42
460.94	11318.83
461.12	11335.21
461.31	11201.80
461.49	11129.25
461.67	11000.52
461.85	11623.10
462.04	11351.60
462.22	11824.39
462.40	11613.74
462.59	11335.21
462.77	11644.17
462.95	11744.81
463.13	11681.61
463.32	11885.24
463.50	11733.11
463.68	11730.76
463.86	11939.07
464.05	11475.65
464.23	11838.43
464.41	12116.95
464.59	11908.65
464.78	12379.09
464.96	12067.80
465.14	12009.29
465.32	12173.13
465.50	12327.60
465.69	12187.17
465.87	12210.57
466.05	12100.57
466.23	12245.68
466.41	12114.61
466.60	12453.99
466.78	12233.98
466.96	12276.11
467.14	12306.54
467.32	12343.99
467.51	12589.74
467.69	12390.80
467.87	12442.29
468.05	12587.40
468.23	12493.78
468.41	12470.37
468.60	12676.34
468.78	12758.26
468.96	12498.46
469.14	12875.29
469.32	13149.13
469.50	12566.34
469.69	12917.42
469.87	13221.69
470.05	13036.78
470.23	13284.88
470.41	13226.37
470.59	13362.12
470.77	13291.90
470.95	13483.83
471.14	13848.95
471.32	13219.35
471.50	13743.63
471.68	13570.43
471.86	13912.14
472.04	14047.90
472.22	14127.47
472.40	13710.86
472.58	13994.06
472.77	14129.81
472.95	14401.32
473.13	14757.08
473.31	14068.96
473.49	14230.46
473.67	14317.06
473.85	14604.94
474.03	14871.76
474.21	14607.28
474.39	14895.17
474.57	14696.22
474.75	14843.68
474.93	15225.18
475.12	14862.40
475.30	15091.77
475.48	15021.56
475.66	15382.00
475.84	14958.36
476.02	15658.18
476.20	15442.85
476.38	15929.69
476.56	15969.48
476.74	16088.84
476.92	15789.25
477.10	15789.25
477.28	16149.70
477.46	16362.69
477.64	16510.14
477.82	16613.12
478.00	17261.45
478.18	16479.71
478.36	17020.38
478.54	17097.61
478.72	17338.69
478.90	17673.39
479.08	17160.81
479.26	17771.69
479.44	17769.35
479.62	17825.52
479.80	17972.97
479.98	18436.40
480.16	18623.64
480.34	18441.08
480.52	18787.48
480.70	18754.71
480.88	18366.18
481.06	18974.72
481.24	19077.71
481.41	19159.63
481.59	19487.30
481.77	19775.19
481.95	19559.86
482.13	19695.61
482.31	20025.62
482.49	20159.03
482.67	20512.46
482.85	20535.86
483.03	20477.35
483.21	21113.97
483.39	21458.03
483.57	20767.57
483.74	21319.94
483.92	21757.62
484.10	21376.11
484.28	21940.18
484.46	22405.95
484.64	22733.62
484.82	22108.70
485.00	22342.75
485.18	22724.26
485.35	22588.51
485.53	22675.11
485.71	23229.82
485.89	23838.36
486.07	23360.89
486.25	23522.38
486.43	23606.64
486.61	23672.18
486.78	23974.11
486.96	24329.87
487.14	24545.20
487.32	24840.11
487.50	24950.11
487.68	25221.61
487.85	25397.15
488.03	25844.20
488.21	25792.70
488.39	26122.72
488.57	26412.95
488.75	26361.45
488.92	27002.76
489.10	26906.80
489.28	27236.81
489.46	27388.95
489.64	27225.11
489.81	27997.49
489.99	27882.80
490.17	27810.25
490.35	28004.51
490.53	28201.11
490.70	28566.24
490.88	28203.46
491.06	29322.23
491.24	28769.86
491.41	29340.96
491.59	29546.92
491.77	29373.72
491.95	29743.53
492.13	29879.28
492.30	30122.69
492.48	30073.54
492.66	30686.76
492.84	30569.74
493.01	30897.41
493.19	30869.33
493.37	31349.14
493.54	31168.91
493.72	31473.18
493.90	32041.93
494.08	32034.91
494.25	31969.38
494.43	32416.42
494.61	32582.60
494.79	33308.16
494.96	32697.28
495.14	32978.15
495.32	33460.30
495.49	33600.73
495.67	33439.23
495.85	33996.28
496.02	34237.36
496.20	34478.43
496.38	34068.84
496.55	34323.96
496.73	35182.93
496.91	34682.06
497.09	35192.30
497.26	35143.14
497.44	35349.11
497.62	35601.89
497.79	36098.08
497.97	35618.27
498.14	35983.40
498.32	36332.14
498.50	36306.39
498.67	36767.48
498.85	36685.56
499.03	36669.17
499.20	36935.99
499.38	37352.61
499.56	37214.52
499.73	37392.40
499.91	37694.33
500.08	37965.83
500.26	37404.10
500.44	37991.58
500.61	38415.21
500.79	37984.55
500.97	38581.39
501.14	39159.50
501.32	38511.17
501.49	38768.63
501.67	38682.03
501.84	38967.58
502.02	39381.85
502.20	39180.57
502.37	39550.37
502.55	39484.84
502.72	39407.60
502.90	39653.36
503.07	39824.22
503.25	40236.15
503.43	40067.63
503.60	40247.85
503.78	40432.75
503.95	40556.80
504.13	40449.14
504.30	40832.99
504.48	40559.14
504.65	40985.12
504.83	41567.91
505.01	41441.53
505.18	41429.82
505.36	41944.74
505.53	41790.27
505.71	41862.82
505.88	42195.18
506.06	41598.34
506.23	42171.77
506.41	42043.04
506.58	42628.18
506.76	42216.24
506.93	42803.72
507.11	42651.58
507.28	42728.82
507.46	43042.45
507.63	42679.67
507.81	43285.87
507.98	43274.16
508.16	43679.08
508.33	44198.68
508.50	43753.97
508.68	44140.16
508.85	44184.63
509.03	44278.25
509.20	44311.02
509.38	45010.84
509.55	45010.84
509.73	44821.26
509.90	44755.72
510.08	44877.43
510.25	45155.96
510.42	45345.54
510.60	45429.80
510.77	45322.13
510.95	45521.08
511.12	45703.64
511.30	45305.75
511.47	45745.77
511.64	45797.26
511.82	46153.02
511.99	46040.68
512.17	46096.85
512.34	46040.68
512.51	46855.18
512.69	46485.38
512.86	46595.38
513.04	46838.80
513.21	47114.98
513.38	47012.00
513.56	47002.64
513.73	47023.70
513.90	47281.16
514.08	47332.65
514.25	47653.31
514.43	47629.90
514.60	47791.40
514.77	47892.04
514.95	47840.55
515.12	47856.93
515.29	48011.41
515.47	47973.96
515.64	48399.94
515.81	48210.35
515.99	48425.68
516.16	48910.17
516.33	48739.32
516.51	48725.27
516.68	48795.49
516.85	48636.33
517.03	49207.42
517.20	49415.73
517.37	49139.55
517.54	49467.22
517.72	49551.48
517.89	49366.58
518.06	49581.91
518.24	49469.56
518.41	49490.63
518.58	49649.78
518.75	49502.33
518.93	49846.39
519.10	49818.30
519.27	49830.01
519.45	49928.31
519.62	50059.38
519.79	50131.93
519.96	50134.28
520.14	50756.86
520.31	50248.96
520.48	50679.62
520.65	50628.13
520.83	51002.61
521.00	50904.31
521.17	50770.90
521.34	50988.57
521.52	51140.71
521.69	50958.14
521.86	51531.57
522.03	51433.27
522.20	51538.60
522.38	51711.80
522.55	51613.49
522.72	51473.06
522.89	51709.46
523.07	51849.89
523.24	51503.49
523.41	51910.74
523.58	51885.00
523.75	52343.74
523.92	51894.36
524.10	52247.78
524.27	51980.96
524.44	52303.95
524.61	52067.56
524.78	52762.70
524.96	52240.76
525.13	52563.75
525.30	52659.71
525.47	52748.65
525.64	52575.45
525.81	52720.57
525.98	53111.44
526.16	52832.91
526.33	52795.46
526.50	53200.38
526.67	53036.54
526.84	53242.51
527.01	53181.65
527.18	53200.38
527.36	53336.13
527.53	53118.46
527.70	53846.36
527.87	53345.49
528.04	53205.06
528.21	53902.54
528.38	53354.85
528.55	53783.17
528.72	53532.73
528.89	53914.24
529.07	53584.22
529.24	53563.16
529.41	54120.21
529.58	53684.87
529.75	53839.34
529.92	53787.85
530.09	54176.38
530.26	53951.69
530.43	54099.14
530.60	54031.27
530.77	54017.22
530.94	54562.57
531.11	54305.11
531.28	54497.03
531.46	54403.41
531.63	54412.77
531.80	54564.91
531.97	54871.52
532.14	54644.49
532.31	54714.70
532.48	54705.34
532.65	54883.22
532.82	54803.64
532.99	54857.48
533.16	54693.64
533.33	54993.23
533.50	55159.41
533.67	55285.79
533.84	54990.89
534.01	55283.45
534.18	55091.53
534.35	55536.23
534.52	55161.75
534.69	55290.48
534.86	55449.63
535.03	55147.70
535.20	55339.63
535.37	55524.53
535.54	55580.70
535.71	55543.25
535.88	55458.99
536.05	55889.65
536.22	55742.20
536.38	55714.11
536.55	55891.99
536.72	55835.82
536.89	55835.82
537.06	55842.84
537.23	55821.78
537.40	55840.50
537.57	55810.07
537.74	55779.65
537.91	56172.86
538.08	56104.98
538.25	55936.46
538.42	55901.36
538.59	56301.59
538.75	55971.57
538.92	56214.99
539.09	56568.41
539.26	56250.09
539.43	56090.94
539.60	56315.63
539.77	56533.30
539.94	56582.45
540.11	56575.43
540.28	56556.70
540.44	56690.12
540.61	56638.62
540.78	56720.54
540.95	56802.46
541.12	56601.18
541.29	56570.75
541.46	56783.74
541.62	56870.34
541.79	56842.25
541.96	56673.73
542.13	56746.29
542.30	57017.79
542.47	56975.66
542.63	56825.87
542.80	57038.86
542.97	57343.12
543.14	57282.27
543.31	57427.38
543.48	57336.10
543.64	57476.54
543.81	57490.58
543.98	57516.32
544.15	57331.42
544.32	57689.52
544.48	57684.84
544.65	57656.76
544.82	57476.54
544.99	57546.75
545.16	57535.05
545.32	57450.79
545.49	57942.30
545.66	57865.06
545.83	57949.32
546.00	58094.44
546.16	57801.87
546.33	57822.93
546.50	57745.70
546.67	57923.58
546.83	57565.48
547.00	58049.97
547.17	57911.88
547.34	57968.05
547.50	58272.32
547.67	58365.94
547.84	57961.03
548.00	58295.72
548.17	58429.13
548.34	58244.23
548.51	58511.05
548.67	58541.48
548.84	58251.25
549.01	58387.00
549.18	58468.92
549.34	58272.32
549.51	58438.50
549.68	58511.05
549.84	58710.00
550.01	58410.41
550.18	58225.51
550.34	58693.61
550.51	58611.70
550.68	58656.17
550.84	58426.79
551.01	58752.13
551.18	58494.67
551.34	58681.91
551.51	58670.21
551.68	58962.78
551.84	58674.89
552.01	58717.02
552.18	58763.83
552.34	58651.48
552.51	58988.52
552.68	58681.91
552.84	58784.90
553.01	59105.55
553.18	59079.80
553.34	59126.61
553.51	58817.66
553.67	58880.86
553.84	59175.76
554.01	59072.78
554.17	59023.63
554.34	59166.40
554.51	58834.05
554.67	59348.96
554.84	59185.13
555.00	59264.70
555.17	59140.66
555.33	59194.49
555.50	59199.17
555.67	59082.14
555.83	59084.48
556.00	59236.62
556.16	59571.32
556.33	59236.62
556.50	59480.03
556.66	59297.47
556.83	59435.56
556.99	59587.70
557.16	59622.81
557.32	59723.45
557.49	59765.58
557.65	59543.23
557.82	59554.93
557.98	59461.31
558.15	59468.33
558.32	59585.36
558.48	59503.44
558.65	59618.13
558.81	59812.39
558.98	59781.96
559.14	59716.43
559.31	59901.33
559.47	60053.47
559.64	59908.35
559.80	59929.42
559.97	60013.68
560.13	59716.43
560.30	59929.42
560.46	59955.16
560.63	59889.63
560.79	59985.59
560.96	59786.64
561.12	60051.12
561.29	60210.28
561.45	60097.94
561.61	60048.78
561.78	59906.01
561.94	59994.95
562.11	60086.23
562.27	59987.93
562.44	60062.83
562.60	60250.07
562.77	60144.75
562.93	59938.78
563.10	60030.06
563.26	60046.44
563.42	60308.58
563.59	60109.64
563.75	60114.32
563.92	60254.75
564.08	60163.47
564.24	60193.90
564.41	60390.50
564.57	60451.36
564.74	60449.02
564.90	60221.98
565.07	60324.97
565.23	60292.20
565.39	60259.43
565.56	60392.84
565.72	60402.21
565.88	60299.22
566.05	60172.83
566.21	60451.36
566.38	60423.27
566.54	60493.49
566.70	60449.02
566.87	60446.68
567.03	60552.00
567.19	60568.38
567.36	60383.48
567.52	60608.17
567.68	60753.29
567.85	60385.82
568.01	60453.70
568.17	60441.99
568.34	60544.98
568.50	60477.10
568.66	60381.14
568.83	60580.09
568.99	60528.59
569.15	60530.93
569.32	60643.28
569.48	60516.89
569.64	60694.77
569.81	60495.83
569.97	60624.56
570.13	60797.76
570.30	60643.28
570.46	60671.37
570.62	60811.80
570.78	60692.43
570.95	60643.28
571.11	60795.42
571.27	60589.45
571.43	60877.33
571.60	60896.06
571.76	60762.65
571.92	60882.02
572.09	60823.50
572.25	60460.72
572.41	60720.52
572.57	60720.52
572.74	61001.38
572.90	60816.48
573.06	60870.31
573.22	60713.50
573.38	60914.78
573.55	60809.46
573.71	61085.64
573.87	60823.50
574.03	60741.58
574.20	60795.42
574.36	60687.75
574.52	60921.80
574.68	60793.07
574.84	61064.58
575.01	60910.10
575.17	61057.56
575.33	60779.03
575.49	60774.35
575.65	61104.37
575.82	60867.97
575.98	60884.36
576.14	60947.55
576.30	61090.32
576.46	60949.89
576.62	60825.84
576.79	60779.03
576.95	60931.17
577.11	61106.71
577.27	61104.37
577.43	61015.43
577.59	60837.54
577.75	60884.36
577.92	60727.54
578.08	60544.98
578.24	60893.72
578.40	61099.68
578.56	61095.00
578.72	61027.13
578.88	61109.05
579.04	61087.98
579.21	60985.00
579.37	61172.24
579.53	61183.94
579.69	60893.72
579.85	61066.92
580.01	61038.83
580.17	60816.48
580.33	61162.88
580.49	61043.51
580.65	61048.19
580.82	61087.98
580.98	60762.65
581.14	61001.38
581.30	60982.66
581.46	61123.09
581.62	61066.92
581.78	61069.26
581.94	61071.60
582.10	61181.60
582.26	61015.43
582.42	61104.37
582.58	61240.12
582.74	60940.53
582.90	60896.06
583.06	60963.93
583.22	60926.49
583.38	61160.54
583.54	61092.66
583.70	61202.67
583.86	61099.68
584.02	60938.19
584.18	61148.84
584.34	61200.33
584.50	61017.77
584.66	61195.65
584.82	60907.76
584.98	61181.60
585.14	61364.17
585.30	61041.17
585.46	61137.13
585.62	61148.84
585.78	61286.93
585.94	60809.46
586.10	61233.10
586.26	61207.35
586.42	61357.14
586.58	61167.56
586.74	61214.37
586.90	61097.34
587.06	61336.08
587.22	61291.61
587.38	61193.31
587.54	61352.46
587.70	61291.61
587.86	61270.54
588.02	61293.95
588.18	61242.46
588.34	60938.19
588.49	61197.99
