SpectraSuite Data File
++++++++++++++++++++++++++++++++++++
Date: Fri Oct 25 10:44:35 EDT 2013
User: price-jones
Dark Spectrum Present: No
Reference Spectrum Present: No
Number of Sampled Component Spectra: 1
Spectrometers: USB2+H05261
Integration Time (usec): 100000 (USB2+H05261)
Spectra Averaged: 1 (USB2+H05261)
Boxcar Smoothing: 0 (USB2+H05261)
Correct for Electrical Dark: No (USB2+H05261)
Strobe/Lamp Enabled: No (USB2+H05261)
Correct for Detector Non-linearity: No (USB2+H05261)
Correct for Stray Light: No (USB2+H05261)
Number of Pixels in Processed Spectrum: 2048
>>>>>Begin Processed Spectral Data<<<<<
365.73	180.22
365.92	180.22
366.12	180.22
366.32	65.54
366.52	30.43
366.72	14.04
366.91	53.83
367.11	53.83
367.31	11.70
367.51	23.41
367.70	21.06
367.90	14.04
368.10	18.72
368.30	51.49
368.49	37.45
368.69	67.88
368.89	42.13
369.09	65.54
369.28	77.24
369.48	0.00
369.68	32.77
369.87	53.83
370.07	112.35
370.27	180.22
370.47	173.20
370.66	344.06
370.86	454.06
371.06	381.51
371.25	458.74
371.45	409.59
371.65	510.24
371.84	472.79
372.04	393.21
372.24	475.13
372.44	414.27
372.63	491.51
372.83	547.69
373.03	463.43
373.22	465.77
373.42	465.77
373.62	496.19
373.81	468.11
374.01	601.52
374.21	608.54
374.40	514.92
374.60	521.94
374.79	496.19
374.99	531.30
375.19	517.26
375.38	634.29
375.58	566.41
375.78	638.97
375.97	631.94
376.17	587.47
376.37	587.47
376.56	638.97
376.76	645.99
376.95	521.94
377.15	634.29
377.35	610.88
377.54	606.20
377.74	566.41
377.93	606.20
378.13	610.88
378.33	631.94
378.52	601.52
378.72	573.43
378.91	636.63
379.11	564.07
379.31	566.41
379.50	667.05
379.70	573.43
379.89	550.03
380.09	631.94
380.28	688.12
380.48	617.90
380.68	622.58
380.87	683.44
381.07	636.63
381.26	720.88
381.46	711.52
381.65	678.76
381.85	641.31
382.04	662.37
382.24	638.97
382.43	690.46
382.63	655.35
382.83	608.54
383.02	669.39
383.22	716.20
383.41	720.88
383.61	683.44
383.80	709.18
384.00	730.25
384.19	589.82
384.39	711.52
384.58	758.33
384.78	741.95
384.97	767.70
385.17	685.78
385.36	746.63
385.56	734.93
385.75	716.20
385.95	755.99
386.14	863.66
386.34	772.38
386.53	793.44
386.72	774.72
386.92	758.33
387.11	805.14
387.31	877.70
387.50	828.55
387.70	833.23
387.89	821.53
388.09	835.57
388.28	837.91
388.48	858.98
388.67	887.06
388.86	807.48
389.06	919.83
389.25	938.55
389.45	950.26
389.64	896.43
389.84	929.19
390.03	912.81
390.22	910.47
390.42	854.30
390.61	842.59
390.81	961.96
391.00	997.07
391.19	976.00
391.39	1039.20
391.58	919.83
391.78	908.13
391.97	997.07
392.16	901.11
392.36	985.37
392.55	980.68
392.75	938.55
392.94	994.73
393.13	1018.13
393.33	1022.81
393.52	959.62
393.71	1020.47
393.91	971.32
394.10	1076.65
394.29	999.41
394.49	1114.10
394.68	1090.69
394.88	1081.33
395.07	1174.95
395.26	1165.59
395.46	1165.59
395.65	1055.58
395.84	1200.69
396.04	1104.73
396.23	1107.07
396.42	1062.60
396.62	1102.39
396.81	1076.65
397.00	1179.63
397.19	1135.16
397.39	1214.74
397.58	1282.61
397.77	1259.21
397.97	1219.42
398.16	1348.15
398.35	1315.38
398.55	1231.12
398.74	1406.66
398.93	1394.96
399.12	1313.04
399.32	1362.19
399.51	1380.92
399.70	1469.86
399.90	1411.34
400.09	1310.70
400.28	1472.20
400.47	1469.86
400.67	1511.99
400.86	1502.62
401.05	1324.74
401.24	1455.81
401.44	1490.92
401.63	1486.24
401.82	1504.96
402.01	1523.69
402.21	1577.52
402.40	1526.03
402.59	1523.69
402.78	1603.27
402.97	1556.46
403.17	1624.33
403.36	1647.74
403.55	1640.72
403.74	1633.69
403.93	1575.18
404.13	1755.40
404.32	1572.84
404.51	1638.38
404.70	1643.06
404.89	1664.12
405.09	1715.61
405.28	1652.42
405.47	1748.38
405.66	1748.38
405.85	1760.08
406.05	1811.57
406.24	1834.98
406.43	1827.96
406.62	1893.49
406.81	1877.11
407.00	1839.66
407.20	1907.54
407.39	1930.94
407.58	1888.81
407.77	1970.73
407.96	2022.22
408.15	1865.41
408.34	1930.94
408.54	1942.64
408.73	1982.43
408.92	2059.67
409.11	2076.06
409.30	2099.46
409.49	2108.82
409.68	2012.86
409.87	2050.31
410.07	2031.58
410.26	2069.03
410.45	2179.04
410.64	2218.83
410.83	2216.49
411.02	2389.69
411.21	2452.88
411.40	2155.63
411.59	2354.58
411.78	2284.36
411.98	2375.64
412.17	2345.22
412.36	2455.22
412.55	2401.39
412.74	2385.01
412.93	2382.67
413.12	2457.56
413.31	2623.74
413.50	2532.46
413.69	2541.82
413.88	2590.97
414.07	2539.48
414.26	2736.09
414.45	2637.78
414.64	2562.89
414.83	2773.53
415.02	2818.00
415.22	2696.30
415.41	2775.88
415.60	2799.28
415.79	2799.28
415.98	2843.75
416.17	2995.89
416.36	2960.78
416.55	2860.13
416.74	3047.38
416.93	2944.39
417.12	2951.42
417.31	3000.57
417.50	3038.02
417.69	3098.87
417.88	3133.98
418.07	3112.91
418.26	3136.32
418.45	3183.13
418.64	3246.32
418.83	3232.28
419.02	3145.68
419.21	3239.30
419.39	3234.62
419.58	3206.53
419.77	3286.11
419.96	3386.76
420.15	3384.41
420.34	3307.18
420.53	3398.46
420.72	3463.99
420.91	3400.80
421.10	3410.16
421.29	3466.33
421.48	3276.75
421.67	3410.16
421.86	3492.08
422.05	3574.00
422.24	3489.74
422.43	3562.30
422.61	3576.34
422.80	3674.64
422.99	3478.04
423.18	3609.11
423.37	3763.58
423.56	3555.27
423.75	3452.29
423.94	3501.44
424.13	3356.33
424.32	3412.50
424.50	3583.36
424.69	3658.26
424.88	3620.81
425.07	3557.61
425.26	3581.02
425.45	3662.94
425.64	3548.25
425.83	3599.74
426.01	3658.26
426.20	3588.04
426.39	3686.34
426.58	3555.27
426.77	3637.19
426.96	3524.85
427.15	3681.66
427.33	3707.41
427.52	3644.21
427.71	3871.25
427.90	3794.01
428.09	3744.86
428.28	3899.33
428.46	3962.53
428.65	3957.85
428.84	3861.88
429.03	4154.45
429.22	3751.88
429.40	3868.91
429.59	3688.68
429.78	3695.71
429.97	3714.43
430.16	3899.33
430.34	3763.58
430.53	3974.23
430.72	3896.99
430.91	3950.82
431.10	4025.72
431.28	4100.62
431.47	4114.66
431.66	4435.32
431.85	4140.41
432.03	4280.84
432.22	4210.62
432.41	4306.59
432.60	4292.54
432.79	4315.95
432.97	4325.31
433.16	4348.72
433.35	4210.62
433.54	4304.25
433.72	4390.84
433.91	4332.33
434.10	4425.95
434.28	4461.06
434.47	4418.93
434.66	4489.15
434.85	4573.41
435.03	4514.89
435.22	4451.70
435.41	4847.25
435.59	4550.00
435.78	4620.22
435.97	4631.92
436.16	4629.58
436.34	4723.20
436.53	4678.73
436.72	4968.96
436.90	4695.11
437.09	4652.98
437.28	4786.40
437.46	4622.56
437.65	4660.01
437.84	4762.99
438.02	4765.33
438.21	4887.04
438.40	4720.86
438.58	4905.76
438.77	4861.29
438.96	4770.01
439.14	5060.24
439.33	5004.07
439.52	5156.20
439.70	5104.71
439.89	5301.31
440.08	5195.99
440.26	5231.10
440.45	5163.22
440.63	5303.65
440.82	5570.48
441.01	5418.34
441.19	5593.88
441.38	5584.52
441.57	5596.22
441.75	5577.50
441.94	5600.90
442.12	5652.39
442.31	5820.91
442.50	5769.42
442.68	5788.14
442.87	5769.42
443.05	5750.70
443.24	5713.25
443.43	5753.04
443.61	5825.59
443.80	5778.78
443.98	5895.81
444.17	5694.52
444.35	5881.77
444.54	5977.73
444.73	6012.84
444.91	5961.34
445.10	5921.56
445.28	5893.47
445.47	5851.34
445.65	6066.67
445.84	5870.06
446.02	6024.54
446.21	5966.03
446.39	5951.98
446.58	6176.67
446.77	6010.50
446.95	6122.84
447.14	6176.67
447.32	6214.12
447.51	6108.80
447.69	6022.20
447.88	6153.27
448.06	5996.45
448.25	5956.66
448.43	6113.48
448.62	6118.16
448.80	6036.24
448.99	6204.76
449.17	6312.42
449.36	6244.55
449.54	6328.81
449.73	6354.55
449.91	6370.94
450.10	6415.41
450.28	6562.86
450.46	6534.78
450.65	6518.39
450.83	6551.16
451.02	6452.86
451.20	6506.69
451.39	6656.48
451.57	6480.94
451.76	6623.72
451.94	6647.12
452.13	6530.09
452.31	6630.74
452.49	6469.24
452.68	6567.54
452.86	6623.72
453.05	6621.38
453.23	6801.60
453.42	6548.82
453.60	6586.27
453.78	6827.34
453.97	6766.49
454.15	6738.40
454.34	6747.76
454.52	6988.84
454.70	6864.79
454.89	6925.65
455.07	6848.41
455.26	6935.01
455.44	6892.88
455.62	7115.23
455.81	6960.75
455.99	6918.62
456.17	7021.61
456.36	7080.12
456.54	7187.79
456.73	7442.90
456.91	7431.20
457.09	7393.75
457.28	7499.08
457.46	7393.75
457.64	7463.97
457.83	7447.58
458.01	7201.83
458.19	7435.88
458.38	7485.03
458.56	7749.51
458.74	7611.42
458.93	7480.35
459.11	7606.74
459.29	7733.13
459.48	7777.60
459.66	7566.95
459.84	7693.34
460.03	7927.39
460.21	7782.28
460.39	7723.77
460.57	7770.58
460.76	7723.77
460.94	7941.44
461.12	7817.39
461.31	7875.90
461.49	7953.14
461.67	7903.99
461.85	7992.93
462.04	8037.40
462.22	8329.97
462.40	8180.17
462.59	8154.43
462.77	8114.64
462.95	8135.70
463.13	8116.98
463.32	8336.99
463.50	8271.45
463.68	8198.90
463.86	8152.09
464.05	8278.47
464.23	8276.13
464.41	8234.00
464.59	8311.24
464.78	8564.02
464.96	8428.27
465.14	8322.94
465.32	8493.80
465.50	8582.74
465.69	8519.55
465.87	8564.02
466.05	8512.53
466.23	8465.72
466.41	8355.71
466.60	8580.40
466.78	8264.43
466.96	8683.39
467.14	8568.70
467.32	8720.84
467.51	8688.07
467.69	8769.99
467.87	8723.18
468.05	8765.31
468.23	8575.72
468.41	8641.26
468.60	8643.60
468.78	8891.70
468.96	8683.39
469.14	8854.25
469.32	8975.95
469.50	8746.58
469.69	8990.00
469.87	8947.87
470.05	9139.79
470.23	9064.89
470.41	8898.72
470.59	9151.49
470.77	9064.89
470.95	9310.65
471.14	9390.23
471.32	9109.36
471.50	9490.87
471.68	9591.52
471.86	9411.29
472.04	9523.64
472.22	9811.53
472.40	9451.08
472.58	9455.76
472.77	9572.79
472.95	9509.60
473.13	9802.16
473.31	9701.52
473.49	9671.09
473.67	9727.27
473.85	9731.95
474.03	10132.18
474.21	10211.76
474.39	10125.16
474.57	10176.65
474.75	10281.97
474.93	10258.57
475.12	10427.09
475.30	10211.76
475.48	10345.17
475.66	10335.81
475.84	10602.63
476.02	10731.36
476.20	10590.92
476.38	10686.89
476.56	10752.42
476.74	11002.86
476.92	10693.91
477.10	10853.06
477.28	11290.74
477.46	11192.44
477.64	11037.97
477.82	11501.39
478.00	11384.37
478.18	11508.41
478.36	11597.35
478.54	11698.00
478.72	11782.26
478.90	11843.11
479.08	11960.14
479.26	12133.34
479.44	12147.38
479.62	12222.28
479.80	12154.40
479.98	12379.09
480.16	12615.49
480.34	12613.15
480.52	12528.89
480.70	12641.23
480.88	12468.03
481.06	12807.41
481.24	12795.71
481.41	12863.58
481.59	13207.64
481.77	13205.30
481.95	13315.31
482.13	13425.31
482.31	13472.12
482.49	13853.63
482.67	13614.90
482.85	13642.98
483.03	14169.60
483.21	14118.11
483.39	14146.20
483.57	14143.86
483.74	14422.38
483.92	14169.60
484.10	14291.31
484.28	14417.70
484.46	14913.89
484.64	14911.55
484.82	14572.18
485.00	14923.26
485.18	15520.09
485.35	15157.31
485.53	15208.80
485.71	15047.30
485.89	15484.98
486.07	15304.76
486.25	15700.31
486.43	15709.68
486.61	16060.76
486.78	16145.02
486.96	16210.55
487.14	16531.20
487.32	16643.55
487.50	16585.04
487.68	16713.77
487.85	16929.09
488.03	17228.68
488.21	17032.08
488.39	17235.70
488.57	17280.18
488.75	17565.72
488.92	18052.55
489.10	17722.54
489.28	17951.91
489.46	18291.29
489.64	18295.97
489.81	18480.87
489.99	18633.00
490.17	18984.09
490.35	18986.43
490.53	18703.22
490.70	19122.18
490.88	18801.52
491.06	19344.53
491.24	19250.91
491.41	19342.19
491.59	19599.65
491.77	19499.00
491.95	19812.63
492.13	19866.47
492.30	20327.55
492.48	20266.70
492.66	20432.88
492.84	20470.33
493.01	20683.31
493.19	20446.92
493.37	20828.43
493.54	20659.91
493.72	21092.91
493.90	21085.89
494.08	21341.00
494.25	21731.87
494.43	21544.63
494.61	21628.89
494.79	21490.80
494.96	21558.67
495.14	21713.15
495.32	22040.82
495.49	22314.67
495.67	22120.40
495.85	22593.19
496.02	22590.85
496.20	22471.48
496.38	22682.13
496.55	22843.63
496.73	23534.09
496.91	22993.42
497.09	23065.98
497.26	23187.69
497.44	23365.57
497.62	23412.38
497.79	23758.78
497.97	23697.92
498.14	24084.11
498.32	23742.39
498.50	24142.63
498.67	24072.41
498.85	24283.06
499.03	24517.11
499.20	24498.39
499.38	24325.19
499.56	24346.25
499.73	24369.66
499.91	24692.65
500.08	25046.07
500.26	24730.10
500.44	24788.61
500.61	25390.13
500.79	25319.92
500.97	25261.40
501.14	25741.21
501.32	25827.81
501.49	25633.55
501.67	25582.06
501.84	25921.43
502.02	25635.89
502.20	25783.34
502.37	25898.03
502.55	26026.76
502.72	26288.90
502.90	26017.40
503.07	26258.47
503.25	26347.41
503.43	26487.84
503.60	26480.82
503.78	26225.70
503.95	26703.17
504.13	26450.39
504.30	26686.79
504.48	26745.30
504.65	26778.07
504.83	27084.68
505.01	27229.79
505.18	27002.76
505.36	27470.87
505.53	27494.27
505.71	27868.76
505.88	27527.04
506.06	27349.16
506.23	27789.18
506.41	28023.23
506.58	27545.76
506.76	27887.48
506.93	27899.19
507.11	27899.19
507.28	28481.98
507.46	28325.16
507.63	28074.73
507.81	28613.05
507.98	28133.24
508.16	28449.21
508.33	28748.80
508.50	28842.42
508.68	28917.32
508.85	29291.80
509.03	29116.26
509.20	28823.70
509.38	29488.41
509.55	29331.59
509.73	29303.51
509.90	29680.33
510.08	29394.79
510.25	29584.37
510.42	29551.60
510.60	29675.65
510.77	29647.57
510.95	29947.15
511.12	29961.20
511.30	30064.18
511.47	30246.74
511.64	30052.48
511.82	30459.73
511.99	29923.75
512.17	30651.66
512.34	30541.65
512.51	30284.19
512.69	30614.21
512.86	30859.96
513.04	30972.31
513.21	30881.03
513.38	31021.46
513.56	31049.55
513.73	31129.12
513.90	31239.13
514.08	31234.45
514.25	30841.24
514.43	31307.01
514.60	30806.13
514.77	31276.58
514.95	31964.70
515.12	31789.16
515.29	31931.93
515.47	31952.99
515.64	31648.72
515.81	31702.56
515.99	31805.54
516.16	32023.21
516.33	31861.71
516.51	32116.83
516.68	31552.76
516.85	31868.73
517.03	32126.19
517.20	32198.75
517.37	32549.83
517.54	32648.13
517.72	32151.94
517.89	32421.10
518.06	32247.90
518.24	32734.73
518.41	32549.83
518.58	32765.16
518.75	33036.66
518.93	32973.47
519.10	32961.76
519.27	33165.39
519.45	32797.93
519.62	33024.96
519.79	32882.19
519.96	33912.02
520.14	33546.90
520.31	33453.28
520.48	33654.56
520.65	33731.80
520.83	34000.96
521.00	34387.15
521.17	34040.75
521.34	34113.31
521.52	34003.30
521.69	34071.18
521.86	34277.15
522.03	34457.37
522.20	34345.02
522.38	34806.11
522.55	34433.96
522.72	34543.97
522.89	34677.38
523.07	34703.12
523.24	34417.58
523.41	35016.75
523.58	35204.00
523.75	35798.49
523.92	35150.17
524.10	34913.77
524.27	35271.87
524.44	35414.65
524.61	35585.50
524.78	35557.42
524.96	35358.47
525.13	35859.35
525.30	35271.87
525.47	35927.22
525.64	35814.88
525.81	35721.26
525.98	35351.45
526.16	35629.98
526.33	35208.68
526.50	35714.23
526.67	35428.69
526.84	35756.36
527.01	35463.80
527.18	35981.06
527.36	36308.73
527.53	36449.16
527.70	36893.86
527.87	36605.98
528.04	36388.31
528.21	36311.07
528.38	36498.31
528.55	37244.94
528.72	36676.19
528.89	36980.46
529.07	37006.21
529.24	36542.78
529.41	37102.17
529.58	36662.15
529.75	36613.00
529.92	37223.88
530.09	37151.32
530.26	36985.15
530.43	37462.61
530.60	36978.12
530.77	37273.03
530.94	37464.96
531.11	37619.43
531.28	37041.32
531.46	37626.45
531.63	37659.22
531.80	37818.38
531.97	37762.20
532.14	37483.68
532.31	37340.91
532.48	37525.81
532.65	37635.81
532.82	37607.73
532.99	37755.18
533.16	38005.62
533.33	38370.74
533.50	38190.52
533.67	38080.52
533.84	38260.74
534.01	37991.58
534.18	37951.79
534.35	38375.42
534.52	38349.68
534.69	38356.70
534.86	38473.73
535.03	38101.58
535.20	38916.09
535.37	39356.11
535.54	38770.97
535.71	38822.47
535.88	38726.50
536.05	38747.57
536.22	38476.07
536.38	39225.04
536.55	38937.15
536.72	38876.30
536.89	38529.90
537.06	38396.49
537.23	39281.21
537.40	38892.68
537.57	39005.03
537.74	39498.88
537.91	39290.57
538.08	39077.58
538.25	38983.96
538.42	39182.91
538.59	39431.01
538.75	39423.98
538.92	39346.75
539.09	38955.88
539.26	39374.83
539.43	39463.77
539.60	39332.70
539.77	39510.58
539.94	39363.13
540.11	39543.35
540.28	39564.42
540.44	39966.99
540.61	39643.99
540.78	39754.00
540.95	39746.98
541.12	39503.56
541.29	39875.71
541.46	39543.35
541.62	40280.62
541.79	40201.04
541.96	39730.59
542.13	39882.73
542.30	39997.41
542.47	40605.95
542.63	39978.69
542.80	40030.18
542.97	40952.35
543.14	40966.40
543.31	40830.65
543.48	40999.16
543.64	41478.97
543.81	40788.52
543.98	40884.48
544.15	40828.30
544.32	41291.73
544.48	41228.54
544.65	40945.33
544.82	41207.47
544.99	40814.26
545.16	41027.25
545.32	41151.30
545.49	41380.67
545.66	41240.24
545.83	41095.13
546.00	41813.67
546.16	41635.79
546.33	41324.50
546.50	41214.49
546.67	41031.93
546.83	41027.25
547.00	41577.28
547.17	41181.73
547.34	41436.84
547.50	41881.55
547.67	41830.05
547.84	41488.34
548.00	41560.89
548.17	41830.05
548.34	41776.22
548.51	41743.45
548.67	42232.63
548.84	42005.59
549.01	42216.24
549.18	41551.53
549.34	41567.91
549.51	42045.38
549.68	42279.44
549.84	42572.00
550.01	42532.22
550.18	42209.22
550.34	42340.29
550.51	42169.43
550.68	42256.03
550.84	41914.31
551.01	42314.55
551.18	42548.60
551.34	42344.97
551.51	42141.35
551.68	42469.02
551.84	42260.71
552.01	42171.77
552.18	42529.87
552.34	42497.11
552.51	42466.68
552.68	42438.59
552.84	43063.52
553.01	42808.40
553.18	42387.10
553.34	42794.36
553.51	42183.48
553.67	42590.73
553.84	42981.60
554.01	42525.19
554.17	43033.09
554.34	43107.99
554.51	42934.79
554.67	43187.56
554.84	43044.79
555.00	42852.87
555.17	42822.44
555.33	43278.85
555.50	42616.47
555.67	42869.25
555.83	42986.28
556.00	42974.58
556.16	43253.10
556.33	42887.98
556.50	43133.73
556.66	43297.57
556.83	42955.85
556.99	43695.46
557.16	43536.30
557.32	43770.36
557.49	43421.62
557.65	43028.41
557.82	43356.08
557.98	43438.00
558.15	43388.85
558.32	43339.70
558.48	43337.36
558.65	43548.01
558.81	43386.51
558.98	43208.63
559.14	43306.93
559.31	43435.66
559.47	43150.12
559.64	43761.00
559.80	43510.56
559.97	43594.82
560.13	43178.20
560.30	43496.52
560.46	43545.67
560.63	43835.89
560.79	43758.66
560.96	44119.10
561.12	43779.72
561.29	43831.21
561.45	44002.07
561.61	43526.94
561.78	43709.50
561.94	43510.56
562.11	43957.60
562.27	43618.22
562.44	44025.48
562.60	44100.37
562.77	44091.01
562.93	43555.03
563.10	43875.68
563.26	43763.34
563.42	43863.98
563.59	43927.17
563.75	43732.91
563.92	44006.75
564.08	43966.96
564.24	43770.36
564.41	43913.13
564.57	43533.96
564.74	44198.68
564.90	43606.52
565.07	43842.92
565.23	44292.30
565.39	43882.70
565.56	44137.82
565.72	43901.43
565.88	44009.09
566.05	44201.02
566.21	44128.46
566.38	44278.25
566.54	44320.38
566.70	44486.56
566.87	44617.63
567.03	44596.57
567.19	44631.68
567.36	44706.57
567.52	43704.82
567.68	44938.29
567.85	43835.89
568.01	44081.65
568.17	44296.98
568.34	44561.46
568.50	44158.89
568.66	44404.64
568.83	44212.72
568.99	44135.48
569.15	44130.80
569.32	44296.98
569.48	43894.41
569.64	44818.92
569.81	44411.67
569.97	44158.89
570.13	44144.84
570.30	43828.87
570.46	43887.39
570.62	43995.05
570.78	44329.75
570.95	44086.33
571.11	44474.86
571.27	44081.65
571.43	44362.51
571.60	44421.03
571.76	44446.77
571.92	44439.75
572.09	44430.39
572.25	44371.88
572.41	44088.67
572.57	44524.01
572.74	45022.54
572.90	44643.38
573.06	44315.70
573.22	44540.39
573.38	44982.76
573.55	44238.47
573.71	44516.99
573.87	44580.18
574.03	44428.05
574.20	44275.91
574.36	44711.25
574.52	44783.81
574.68	44194.00
574.84	44737.00
575.01	44706.57
575.17	44467.84
575.33	44105.06
575.49	44222.08
575.65	44406.98
575.82	45013.18
575.98	44774.45
576.14	44439.75
576.30	44524.01
576.46	44828.28
576.62	44437.41
576.79	44385.92
576.95	44156.55
577.11	44486.56
577.27	44442.09
577.43	44666.78
577.59	44725.30
577.75	44179.95
577.92	44018.46
578.08	44376.56
578.24	44023.14
578.40	43863.98
578.56	44856.37
578.72	44105.06
578.88	45132.55
579.04	44687.85
579.21	44708.91
579.37	44678.49
579.53	44545.08
579.69	44729.98
579.85	44465.50
580.01	45244.90
580.17	44980.42
580.33	44870.41
580.49	44772.11
580.65	44577.84
580.82	44825.94
580.98	44858.71
581.14	44608.27
581.30	44767.43
581.46	44973.39
581.62	44650.40
581.78	44830.62
581.94	45041.27
582.10	44378.90
582.26	44783.81
582.42	44645.72
582.58	44886.79
582.74	44442.09
582.90	45067.02
583.06	44982.76
583.22	44893.82
583.38	45006.16
583.54	45099.78
583.70	44804.88
583.86	44797.85
584.02	44465.50
584.18	44706.57
584.34	44472.52
584.50	44388.26
584.66	44652.74
584.82	44472.52
584.98	44882.11
585.14	44795.51
585.30	43943.56
585.46	44680.83
585.62	44978.07
585.78	44715.93
585.94	44577.84
586.10	44643.38
586.26	44414.01
586.42	44645.72
586.58	44865.73
586.74	44720.62
586.90	44755.72
587.06	44402.30
587.22	44924.24
587.38	44886.79
587.54	44966.37
587.70	44514.65
587.86	44987.44
588.02	44868.07
588.18	44961.69
588.34	44516.99
588.49	44484.22
588.65	43973.98
588.81	44201.02
588.97	44657.42
589.13	44161.23
589.29	44690.19
589.45	44418.69
589.61	44643.38
589.77	45013.18
589.93	45003.82
590.08	45015.52
590.24	45008.50
