SpectraSuite Data File
++++++++++++++++++++++++++++++++++++
Date: Fri Oct 25 11:26:11 EDT 2013
User: price-jones
Dark Spectrum Present: No
Reference Spectrum Present: No
Number of Sampled Component Spectra: 1
Spectrometers: USB2+H05261
Integration Time (usec): 100000 (USB2+H05261)
Spectra Averaged: 1 (USB2+H05261)
Boxcar Smoothing: 0 (USB2+H05261)
Correct for Electrical Dark: No (USB2+H05261)
Strobe/Lamp Enabled: No (USB2+H05261)
Correct for Detector Non-linearity: No (USB2+H05261)
Correct for Stray Light: No (USB2+H05261)
Number of Pixels in Processed Spectrum: 2048
>>>>>Begin Processed Spectral Data<<<<<
365.73	217.67
365.92	217.67
366.12	217.67
366.32	184.90
366.52	201.29
366.72	79.58
366.91	145.11
367.11	126.39
367.31	140.43
367.51	147.45
367.70	112.35
367.90	149.79
368.10	170.86
368.30	126.39
368.49	189.58
368.69	154.48
368.89	262.14
369.09	112.35
369.28	149.79
369.48	156.82
369.68	205.97
369.87	156.82
370.07	173.20
370.27	266.82
370.47	320.65
370.66	514.92
370.86	613.22
371.06	669.39
371.25	683.44
371.45	667.05
371.65	615.56
371.84	688.12
372.04	697.48
372.24	697.48
372.44	669.39
372.63	702.16
372.83	753.65
373.03	767.70
373.22	725.57
373.42	732.59
373.62	716.20
373.81	851.96
374.01	830.89
374.21	924.51
374.40	863.66
374.60	758.33
374.79	821.53
374.99	828.55
375.19	856.64
375.38	802.80
375.58	854.30
375.78	936.21
375.97	980.68
376.17	915.15
376.37	854.30
376.56	903.45
376.76	849.61
376.95	901.11
377.15	884.72
377.35	903.45
377.54	933.87
377.74	889.40
377.93	952.60
378.13	947.92
378.33	961.96
378.52	990.05
378.72	938.55
378.91	905.79
379.11	940.90
379.31	873.02
379.50	854.30
379.70	931.53
379.89	931.53
380.09	945.58
380.28	997.07
380.48	1039.20
380.68	980.68
380.87	1039.20
381.07	1032.18
381.26	1116.44
381.46	1025.15
381.65	1071.97
381.85	915.15
382.04	1118.78
382.24	1013.45
382.43	973.66
382.63	1107.07
382.83	1107.07
383.02	1006.43
383.22	1076.65
383.41	1053.24
383.61	1081.33
383.80	1128.14
384.00	1181.97
384.19	1153.88
384.39	1205.38
384.58	1109.41
384.78	1231.12
384.97	1158.57
385.17	1137.50
385.36	1149.20
385.56	1137.50
385.75	1191.33
385.95	1207.72
386.14	1170.27
386.34	1226.44
386.53	1280.27
386.72	1144.52
386.92	1266.23
387.11	1198.35
387.31	1266.23
387.50	1142.18
387.70	1352.83
387.89	1266.23
388.09	1291.98
388.28	1343.47
388.48	1233.46
388.67	1362.19
388.86	1242.82
389.06	1376.24
389.25	1380.92
389.45	1387.94
389.64	1343.47
389.84	1320.06
390.03	1348.15
390.22	1427.73
390.42	1310.70
390.61	1308.36
390.81	1376.24
391.00	1434.75
391.19	1540.07
391.39	1423.05
391.58	1434.75
391.78	1376.24
391.97	1462.83
392.16	1416.02
392.36	1582.20
392.55	1418.36
392.75	1561.14
392.94	1561.14
393.13	1582.20
393.33	1526.03
393.52	1607.95
393.71	1624.33
393.91	1610.29
394.10	1584.54
394.29	1551.78
394.49	1600.93
394.68	1689.87
394.88	1689.87
395.07	1746.04
395.26	1586.88
395.46	1717.95
395.65	1727.32
395.84	1760.08
396.04	1717.95
396.23	1783.49
396.42	1666.46
396.62	1781.15
396.81	1732.00
397.00	1750.72
397.19	1813.92
397.39	1802.21
397.58	1748.38
397.77	1708.59
397.97	1783.49
398.16	1785.83
398.35	1834.98
398.55	1881.79
398.74	1837.32
398.93	1998.82
399.12	1935.62
399.32	1975.41
399.51	1963.71
399.70	2085.42
399.90	2052.65
400.09	2054.99
400.28	1989.46
400.47	1954.35
400.67	2120.53
400.86	2047.97
401.05	2143.93
401.24	1926.26
401.44	2150.95
401.63	2106.48
401.82	2150.95
402.01	2211.81
402.21	2162.66
402.40	2232.87
402.59	2190.74
402.78	2204.78
402.97	2143.93
403.17	2319.47
403.36	2286.70
403.55	2232.87
403.74	2335.85
403.93	2380.32
404.13	2333.51
404.32	2319.47
404.51	2434.16
404.70	2438.84
404.89	2394.37
405.09	2466.92
405.28	2443.52
405.47	2457.56
405.66	2511.39
405.85	2600.34
406.05	2551.18
406.24	2506.71
406.43	2574.59
406.62	2462.24
406.81	2544.16
407.00	2635.44
407.20	2497.35
407.39	2609.70
407.58	2752.47
407.77	2693.96
407.96	2850.77
408.15	2789.92
408.34	2834.39
408.54	2775.88
408.73	2897.58
408.92	2612.04
409.11	2738.43
409.30	2878.86
409.49	2991.20
409.68	2855.45
409.87	3016.95
410.07	3061.42
410.26	3098.87
410.45	2979.50
410.64	3049.72
410.83	2953.76
411.02	3082.49
411.21	3145.68
411.40	3080.14
411.59	3215.90
411.78	3236.96
411.98	3075.46
412.17	3344.63
412.36	3435.91
412.55	3389.10
412.74	3417.18
412.93	3403.14
413.12	3321.22
413.31	3452.29
413.50	3520.17
413.69	3344.63
413.88	3536.55
414.07	3606.77
414.26	3501.44
414.45	3597.40
414.64	3669.96
414.83	3684.00
415.02	3866.56
415.22	3770.60
415.41	3838.48
415.60	3756.56
415.79	3824.44
415.98	3861.88
416.17	4007.00
416.36	3981.25
416.55	4011.68
416.74	3969.55
416.93	4102.96
417.12	4065.51
417.31	4093.60
417.50	4124.02
417.69	4360.42
417.88	4313.61
418.07	4182.54
418.26	4227.01
418.45	4212.96
418.64	4449.36
418.83	4470.42
419.02	4306.59
419.21	4561.70
419.39	4458.72
419.58	4409.57
419.77	4468.08
419.96	4608.51
420.15	4599.15
420.34	4505.53
420.53	4624.90
420.72	4645.96
420.91	4615.54
421.10	4865.97
421.29	4681.07
421.48	4589.79
421.67	4784.06
421.86	4837.89
422.05	4709.16
422.24	4919.81
422.43	4840.23
422.61	5008.75
422.80	5039.17
422.99	4894.06
423.18	4954.91
423.37	5004.07
423.56	4999.38
423.75	4971.30
423.94	4903.42
424.13	4552.34
424.32	4847.25
424.50	4844.91
424.69	5043.85
424.88	5355.15
425.07	4938.53
425.26	4912.78
425.45	4903.42
425.64	4990.02
425.83	4966.62
426.01	5032.15
426.20	5142.16
426.39	5067.26
426.58	5071.94
426.77	5167.90
426.96	5158.54
427.15	5104.71
427.33	5142.16
427.52	5317.70
427.71	5221.74
427.90	5277.91
428.09	5186.63
428.28	5231.10
428.46	5181.95
428.65	5535.37
428.84	5448.77
429.03	5582.18
429.22	5413.66
429.40	5479.19
429.59	5418.34
429.78	5263.86
429.97	5338.76
430.16	5547.07
430.34	5561.11
430.53	5577.50
430.72	5600.90
430.91	5650.05
431.10	5589.20
431.28	5565.79
431.47	5673.46
431.66	5895.81
431.85	5788.14
432.03	5902.83
432.22	5895.81
432.41	5825.59
432.60	5788.14
432.79	5867.72
432.97	5823.25
433.16	5980.07
433.35	5907.51
433.54	6047.94
433.72	6134.54
433.91	5834.96
434.10	6115.82
434.28	6108.80
434.47	6279.66
434.66	6317.11
434.85	6211.78
435.03	6284.34
435.22	6239.87
435.41	6509.03
435.59	6462.22
435.78	6368.60
435.97	6363.92
436.16	6345.19
436.34	6443.49
436.53	6647.12
436.72	6621.38
436.90	6392.00
437.09	6640.10
437.28	6406.05
437.46	6590.95
437.65	6745.42
437.84	6626.06
438.02	6825.00
438.21	6813.30
438.40	6834.36
438.58	6799.26
438.77	6998.20
438.96	7023.95
439.14	7021.61
439.33	7070.76
439.52	7119.91
439.70	7094.16
439.89	7346.94
440.08	7541.21
440.26	7288.43
440.45	7283.75
440.63	7550.57
440.82	7405.46
441.01	7358.64
441.19	7611.42
441.38	7770.58
441.57	7662.91
441.75	7822.07
441.94	7922.71
442.12	8030.38
442.31	7985.91
442.50	8030.38
442.68	7894.63
442.87	8086.55
443.05	8107.62
443.24	8325.29
443.43	8013.99
443.61	8124.00
443.80	8585.08
443.98	7960.16
444.17	7899.31
444.35	8091.23
444.54	8292.52
444.73	8222.30
444.91	8332.31
445.10	8365.07
445.28	8194.22
445.47	8367.42
445.65	8421.25
445.84	8505.51
446.02	8332.31
446.21	8325.29
446.39	8383.80
446.58	8573.38
446.77	8425.93
446.95	8170.81
447.14	8416.57
447.32	8678.71
447.51	8585.08
447.69	8557.00
447.88	8437.63
448.06	8489.12
448.25	8734.88
448.43	8603.81
448.62	8585.08
448.80	8545.30
448.99	8454.02
449.17	8706.79
449.36	8685.73
449.54	8662.32
449.73	8814.46
449.91	8994.68
450.10	9027.45
450.28	9076.60
450.46	9156.18
450.65	9020.42
450.83	9006.38
451.02	9013.40
451.20	9214.69
451.39	9156.18
451.57	9074.26
451.76	8950.21
451.94	9207.67
452.13	9109.36
452.31	9320.01
452.49	8961.91
452.68	9195.96
452.86	9277.88
453.05	9336.40
453.23	9584.49
453.42	9343.42
453.60	9411.29
453.78	9547.05
453.97	9451.08
454.15	9474.49
454.34	9329.38
454.52	9741.31
454.70	9734.29
454.89	9694.50
455.07	9619.60
455.26	9837.27
455.44	9863.02
455.62	9919.19
455.81	9898.13
455.99	10097.07
456.17	10005.79
456.36	10003.45
456.54	10193.03
456.73	10338.15
456.91	10429.43
457.09	10204.74
457.28	10389.64
457.46	10513.69
457.64	10413.04
457.83	10370.91
458.01	10209.42
458.19	10822.64
458.38	10429.43
458.56	10665.82
458.74	10668.16
458.93	10623.69
459.11	10670.50
459.29	10682.20
459.48	10817.96
459.66	10817.96
459.84	10963.07
460.03	10930.30
460.21	11087.12
460.39	10927.96
460.57	10988.82
460.76	11105.84
460.94	11054.35
461.12	11255.64
461.31	11112.86
461.49	11253.30
461.67	11068.39
461.85	11323.51
462.04	11349.26
462.22	11726.08
462.40	11658.21
462.59	11269.68
462.77	11482.67
462.95	11630.12
463.13	11541.18
463.32	11852.47
463.50	11925.03
463.68	11648.85
463.86	11651.19
464.05	11653.53
464.23	11777.58
464.41	11868.86
464.59	11618.42
464.78	12098.23
464.96	11871.20
465.14	11831.41
465.32	12018.65
465.50	11990.56
465.69	12255.04
465.87	12074.82
466.05	12329.94
466.23	12016.31
466.41	12159.08
466.60	12404.84
466.78	12194.19
466.96	12170.79
467.14	12346.33
467.32	12437.61
467.51	12652.94
467.69	12114.61
467.87	12381.43
468.05	12461.01
468.23	12212.92
468.41	12400.16
468.60	12458.67
468.78	12821.45
468.96	12568.68
469.14	12751.24
469.32	13050.83
469.50	12505.48
469.69	12622.51
469.87	12961.89
470.05	13144.45
470.23	12800.39
470.41	13099.98
470.59	13383.18
470.77	13128.06
470.95	13289.56
471.14	13298.92
471.32	13352.76
471.50	13380.84
471.68	13479.15
471.86	13755.33
472.04	13687.45
472.22	13980.02
472.40	13743.63
472.58	13650.00
472.77	13893.42
472.95	14279.61
473.13	14253.86
473.31	14073.64
473.49	14319.40
473.67	14167.26
473.85	14413.02
474.03	14438.76
474.21	14462.17
474.39	14644.73
474.57	14516.00
474.75	14752.40
474.93	14860.06
475.12	14934.96
475.30	14752.40
475.48	15129.22
475.66	15330.51
475.84	15005.17
476.02	15283.70
476.20	15342.21
476.38	15810.32
476.56	15789.25
476.74	15901.60
476.92	15555.20
477.10	15644.14
477.28	16079.48
477.46	15971.82
477.64	16460.99
477.82	16332.26
478.00	16748.87
478.18	16863.56
478.36	16940.80
478.54	17273.15
478.72	17507.21
478.90	17259.11
479.08	17638.28
479.26	17710.83
479.44	17624.23
479.62	17832.54
479.80	18139.15
479.98	18106.38
480.16	18541.72
480.34	18047.87
480.52	18618.96
480.70	18616.62
480.88	18317.03
481.06	18555.77
481.24	18876.42
481.41	19204.10
481.59	19215.80
481.77	19405.38
481.95	19290.70
482.13	19459.21
482.31	19644.12
482.49	20264.36
482.67	19955.41
482.85	20458.62
483.03	20592.03
483.21	20580.33
483.39	21128.02
483.57	20704.38
483.74	20861.19
483.92	21315.26
484.10	21163.12
484.28	21921.46
484.46	22150.83
484.64	22207.00
484.82	21860.60
485.00	21986.99
485.18	22347.44
485.35	22918.53
485.53	23063.64
485.71	22916.19
485.89	23243.86
486.07	23115.13
486.25	23356.21
486.43	23496.64
486.61	23744.73
486.78	24067.73
486.96	24065.39
487.14	24526.47
487.32	24704.35
487.50	24556.90
487.68	24706.70
487.85	25008.62
488.03	25427.58
488.21	25453.33
488.39	25656.95
488.57	25928.45
488.75	25972.92
488.92	26431.67
489.10	26815.52
489.28	26436.35
489.46	26984.04
489.64	26986.38
489.81	27594.92
489.99	27683.86
490.17	27669.81
490.35	28290.06
490.53	28041.96
490.70	28311.12
490.88	28051.32
491.06	28690.29
491.24	28416.44
491.41	29069.45
491.59	29324.57
491.77	29039.03
491.95	29404.15
492.13	29738.85
492.30	30012.69
492.48	29799.70
492.66	29979.92
492.84	30185.89
493.01	30630.59
493.19	30323.98
493.37	31206.36
493.54	30897.41
493.72	31033.16
493.90	31201.68
494.08	31917.89
494.25	32128.53
494.43	31938.95
494.61	32041.93
494.79	32334.50
494.96	32027.89
495.14	32720.69
495.32	32795.59
495.49	32959.42
495.67	33029.64
495.85	33284.76
496.02	33699.03
496.20	34036.07
496.38	33652.22
496.55	33577.33
496.73	34501.84
496.91	34160.12
497.09	34773.34
497.26	34866.96
497.44	34808.45
497.62	35725.94
497.79	36023.19
497.97	35526.99
498.14	35681.47
498.32	35819.56
498.50	36091.06
498.67	36357.88
498.85	36453.84
499.03	36418.74
499.20	36187.02
499.38	36547.47
499.56	36945.36
499.73	36762.79
499.91	37413.46
500.08	37462.61
500.26	37450.91
500.44	37731.78
500.61	37696.67
500.79	37191.11
500.97	37914.34
501.14	38511.17
501.32	38642.24
501.49	38738.21
501.67	38176.48
501.84	38824.81
502.02	38703.10
502.20	38820.13
502.37	39332.70
502.55	39122.05
502.72	39452.07
502.90	39133.76
503.07	39129.08
503.25	39002.69
503.43	39585.48
503.60	39959.97
503.78	40069.97
503.95	40264.24
504.13	40112.10
504.30	40704.26
504.48	40282.96
504.65	40442.12
504.83	40561.48
505.01	41048.32
505.18	41125.55
505.36	41048.32
505.53	41141.94
505.71	41432.16
505.88	41420.46
506.06	41425.14
506.23	42066.45
506.41	41439.18
506.58	41794.95
506.76	42099.22
506.93	42487.74
507.11	42061.77
507.28	42478.38
507.46	42370.72
507.63	42665.63
507.81	43070.54
507.98	42637.54
508.16	43161.82
508.33	43445.02
508.50	43107.99
508.68	43583.12
508.85	44259.53
509.03	43501.20
509.20	43814.83
509.38	44385.92
509.55	44271.23
509.73	44456.14
509.90	43824.19
510.08	44280.60
510.25	44563.80
510.42	44289.96
510.60	44722.96
510.77	44776.79
510.95	45378.31
511.12	45170.00
511.30	45233.19
511.47	45067.02
511.64	44999.14
511.82	45446.18
511.99	45315.11
512.17	45708.32
512.34	45645.13
512.51	46213.88
512.69	46087.49
512.86	46160.05
513.04	46457.29
513.21	46728.80
513.38	46635.17
513.56	47030.72
513.73	46487.72
513.90	47049.45
514.08	46782.63
514.25	46904.34
514.43	47210.95
514.60	47093.92
514.77	47096.26
514.95	47152.43
515.12	47767.99
515.29	47365.42
515.47	47473.09
515.64	47948.21
515.81	47508.19
515.99	48086.31
516.16	48542.71
516.33	48133.12
516.51	48568.46
516.68	48369.51
516.85	48205.67
517.03	48507.60
517.20	48404.62
517.37	48467.81
517.54	48781.45
517.72	48687.82
517.89	48839.96
518.06	49118.48
518.24	49181.68
518.41	49155.93
518.58	49134.87
518.75	49146.57
518.93	49256.57
519.10	49146.57
519.27	49830.01
519.45	49343.17
519.62	49404.03
519.79	49965.76
519.96	49979.80
520.14	50141.30
520.31	49764.47
520.48	50401.10
520.65	50082.78
520.83	50412.80
521.00	50347.26
521.17	50422.16
521.34	50681.96
521.52	50483.01
521.69	50693.66
521.86	50759.20
522.03	50948.78
522.20	51274.12
522.38	51466.04
522.55	51370.08
522.72	51168.79
522.89	50623.45
523.07	51566.68
523.24	51033.04
523.41	51358.38
523.58	51114.96
523.75	51655.62
523.92	51639.24
524.10	51877.97
524.27	51648.60
524.44	51854.57
524.61	52067.56
524.78	52477.15
524.96	52083.94
525.13	51779.67
525.30	52200.97
525.47	52430.34
525.64	52315.65
525.81	52397.57
525.98	52575.45
526.16	52722.91
526.33	52416.30
526.50	53066.97
526.67	52505.24
526.84	52706.52
527.01	52598.86
527.18	52938.24
527.36	52718.23
527.53	52924.19
527.70	53305.70
527.87	53001.43
528.04	53099.73
528.21	53228.46
528.38	53240.17
528.55	53375.92
528.72	53296.34
528.89	53315.06
529.07	53088.03
529.24	53219.10
529.41	53420.39
529.58	53621.67
529.75	53169.95
529.92	53523.37
530.09	53490.60
530.26	53748.06
530.43	53811.26
530.60	53593.59
530.77	53734.02
530.94	53879.13
531.11	53998.50
531.28	53834.66
531.46	54157.66
531.63	54302.77
531.80	54136.59
531.97	54424.48
532.14	54354.26
532.31	54293.41
532.48	54438.52
532.65	54548.53
532.82	54443.20
532.99	54773.22
533.16	54424.48
533.33	54527.46
533.50	54801.30
533.67	54700.66
533.84	54557.89
534.01	54775.56
534.18	54915.99
534.35	55105.57
534.52	54944.08
534.69	55112.59
534.86	55416.86
535.03	54948.76
535.20	55098.55
535.37	55224.94
535.54	55379.42
535.71	54967.48
535.88	55309.20
536.05	55171.11
536.22	55489.42
536.38	55629.85
536.55	55264.73
536.72	55559.64
536.89	55285.79
537.06	55238.98
537.23	55751.56
537.40	55653.26
537.57	55810.07
537.74	55976.25
537.91	55859.23
538.08	55573.68
538.25	55573.68
538.42	55765.60
538.59	55800.71
538.75	55688.37
538.92	56142.43
539.09	56025.40
539.26	56058.17
539.43	56004.34
539.60	55983.27
539.77	56086.26
539.94	56540.32
540.11	56207.97
540.28	56439.68
540.44	56179.88
540.61	56313.29
540.78	56367.12
540.95	56442.02
541.12	56231.37
541.29	56261.80
541.46	56439.68
541.62	56404.57
541.79	56615.22
541.96	56224.35
542.13	56552.02
542.30	56446.70
542.47	56772.03
542.63	56830.55
542.80	56755.65
542.97	57041.20
543.14	57052.90
543.31	57104.39
543.48	57048.22
543.64	57422.70
543.81	57099.71
543.98	57167.58
544.15	57088.01
544.32	57413.34
544.48	57432.07
544.65	57146.52
544.82	57289.29
544.99	57347.81
545.16	57256.53
545.32	57460.15
545.49	57586.54
545.66	57549.09
545.83	57511.64
546.00	57633.35
546.16	57446.11
546.33	57483.56
546.50	57319.72
546.67	57516.32
546.83	57389.94
547.00	57647.39
547.17	57673.14
547.34	57820.59
547.50	57907.19
547.67	57942.30
547.84	57773.78
548.00	57928.26
548.17	58138.91
548.34	57946.98
548.51	58071.03
548.67	58253.59
548.84	58075.71
549.01	57874.43
549.18	57773.78
549.34	58340.19
549.51	58260.62
549.68	58314.45
549.84	58262.96
550.01	58363.60
550.18	57949.32
550.34	58237.21
550.51	58262.96
550.68	58281.68
550.84	58230.19
551.01	58443.18
551.18	58457.22
551.34	58351.90
551.51	58515.73
551.68	58356.58
551.84	58365.94
552.01	58326.15
552.18	58590.63
552.34	58349.56
552.51	58513.39
552.68	58431.47
552.84	58698.30
553.01	58906.60
553.18	58599.99
553.34	58766.17
553.51	58784.90
553.67	58642.12
553.84	58873.84
554.01	58904.26
554.17	58798.94
554.34	58939.37
554.51	58805.96
554.67	59061.08
554.84	58927.67
555.00	58852.77
555.17	58798.94
555.33	58562.54
555.50	58883.20
555.67	58885.54
555.83	58922.99
556.00	59028.31
556.16	59234.28
556.33	59285.77
556.50	59229.60
556.66	59288.11
556.83	58927.67
556.99	59201.51
557.16	59391.09
557.32	59398.12
557.49	59365.35
557.65	59381.73
557.82	59370.03
557.98	59416.84
558.15	59477.69
558.32	59346.62
558.48	59477.69
558.65	59461.31
558.81	59229.60
558.98	59351.30
559.14	59510.46
559.31	59367.69
559.47	59758.56
559.64	59608.76
559.80	59573.66
559.97	59674.30
560.13	59320.88
560.30	59583.02
560.46	59765.58
560.63	59512.80
560.79	59760.90
560.96	59847.50
561.12	59796.01
561.29	59779.62
561.45	59756.22
561.61	59695.36
561.78	59887.29
561.94	59580.68
562.11	59592.38
562.27	59643.87
562.44	59788.98
562.60	59959.84
562.77	59906.01
562.93	59714.09
563.10	60027.72
563.26	59709.41
563.42	60102.62
563.59	59906.01
563.75	59749.20
563.92	60060.49
564.08	59955.16
564.24	60046.44
564.41	60004.31
564.57	59955.16
564.74	60048.78
564.90	60016.02
565.07	59913.03
565.23	60111.98
565.39	60126.02
565.56	60037.08
565.72	59999.63
565.88	60172.83
566.05	60086.23
566.21	60090.91
566.38	60037.08
566.54	60292.20
566.70	60196.24
566.87	60362.42
567.03	60086.23
567.19	60357.74
567.36	60161.13
567.52	60065.17
567.68	60549.66
567.85	60294.54
568.01	60341.35
568.17	60238.37
568.34	60308.58
568.50	60238.37
568.66	60360.08
568.83	60486.46
568.99	60261.77
569.15	60268.79
569.32	60374.12
569.48	60406.89
569.64	60362.42
569.81	60395.18
569.97	60083.89
570.13	60336.67
570.30	60219.64
570.46	60329.65
570.62	60119.00
570.78	60243.05
570.95	60308.58
571.11	60568.38
571.27	60533.28
571.43	60456.04
571.60	60535.62
571.76	60243.05
571.92	60264.11
572.09	60348.37
572.25	60488.80
572.41	60378.80
572.57	60537.96
572.74	60619.88
572.90	60364.76
573.06	60507.53
573.22	60573.06
573.38	60530.93
573.55	60530.93
573.71	60683.07
573.87	60580.09
574.03	60636.26
574.20	60575.40
574.36	60416.25
574.52	60563.70
574.68	60498.17
574.84	60685.41
575.01	60446.68
575.17	60605.83
575.33	60315.61
575.49	60392.84
575.65	60481.78
575.82	60591.79
575.98	60664.35
576.14	60956.91
576.30	60631.58
576.46	60764.99
576.62	60601.15
576.79	60795.42
576.95	60479.44
577.11	60704.13
577.27	60615.19
577.43	60549.66
577.59	60999.04
577.75	60601.15
577.92	60441.99
578.08	60757.97
578.24	60596.47
578.40	60926.49
578.56	60867.97
578.72	60800.10
578.88	60942.87
579.04	60954.57
579.21	60673.71
579.37	60865.63
579.53	60954.57
579.69	60477.10
579.85	60640.94
580.01	60715.84
580.17	60647.96
580.33	60959.25
580.49	60767.33
580.65	60732.22
580.82	60804.78
580.98	60701.79
581.14	60793.07
581.30	60945.21
581.46	60882.02
581.62	60830.52
581.78	60573.06
581.94	60893.72
582.10	60676.05
582.26	60882.02
582.42	60479.44
582.58	60825.84
582.74	60790.73
582.90	60851.59
583.06	60879.67
583.22	60804.78
583.38	60825.84
583.54	60842.23
583.70	60769.67
583.86	60959.25
584.02	60762.65
584.18	60928.83
584.34	60891.38
584.50	60985.00
584.66	60889.04
584.82	60708.82
584.98	61069.26
585.14	61055.21
585.30	60652.64
585.46	60811.80
585.62	61008.40
585.78	60961.59
585.94	60757.97
586.10	60837.54
586.26	60800.10
586.42	60914.78
586.58	61151.18
586.74	61055.21
586.90	60818.82
587.06	60940.53
587.22	61008.40
587.38	61022.45
587.54	61120.75
587.70	61125.43
587.86	60940.53
588.02	60980.32
588.18	61052.87
588.34	60830.52
588.49	61162.88
