SpectraSuite Data File
++++++++++++++++++++++++++++++++++++
Date: Fri Oct 25 10:43:41 EDT 2013
User: price-jones
Dark Spectrum Present: No
Reference Spectrum Present: No
Number of Sampled Component Spectra: 1
Spectrometers: USB2+H05261
Integration Time (usec): 100000 (USB2+H05261)
Spectra Averaged: 1 (USB2+H05261)
Boxcar Smoothing: 0 (USB2+H05261)
Correct for Electrical Dark: No (USB2+H05261)
Strobe/Lamp Enabled: No (USB2+H05261)
Correct for Detector Non-linearity: No (USB2+H05261)
Correct for Stray Light: No (USB2+H05261)
Number of Pixels in Processed Spectrum: 2048
>>>>>Begin Processed Spectral Data<<<<<
365.73	56.17
365.92	56.17
366.12	56.17
366.32	18.72
366.52	21.06
366.72	7.02
366.91	7.02
367.11	0.00
367.31	49.15
367.51	2.34
367.70	42.13
367.90	51.49
368.10	0.00
368.30	0.00
368.49	0.00
368.69	0.00
368.89	2.34
369.09	72.56
369.28	98.30
369.48	79.58
369.68	98.30
369.87	51.49
370.07	110.01
370.27	117.03
370.47	198.95
370.66	301.93
370.86	433.00
371.06	425.98
371.25	550.03
371.45	327.68
371.65	512.58
371.84	433.00
372.04	475.13
372.24	475.13
372.44	477.47
372.63	521.94
372.83	531.30
373.03	564.07
373.22	484.49
373.42	491.51
373.62	636.63
373.81	578.11
374.01	594.50
374.21	538.32
374.40	489.17
374.60	582.79
374.79	568.75
374.99	578.11
375.19	535.98
375.38	575.77
375.58	568.75
375.78	641.31
375.97	543.00
376.17	641.31
376.37	615.56
376.56	617.90
376.76	620.24
376.95	599.18
377.15	711.52
377.35	674.07
377.54	697.48
377.74	709.18
377.93	634.29
378.13	596.84
378.33	800.46
378.52	634.29
378.72	624.92
378.91	641.31
379.11	678.76
379.31	702.16
379.50	606.20
379.70	716.20
379.89	727.91
380.09	690.46
380.28	730.25
380.48	643.65
380.68	739.61
380.87	727.91
381.07	739.61
381.26	753.65
381.46	704.50
381.65	713.86
381.85	711.52
382.04	725.57
382.24	723.23
382.43	753.65
382.63	770.04
382.83	751.31
383.02	821.53
383.22	753.65
383.41	753.65
383.61	833.23
383.80	842.59
384.00	737.27
384.19	777.06
384.39	737.27
384.58	807.48
384.78	837.91
384.97	849.61
385.17	819.19
385.36	793.44
385.56	856.64
385.75	809.83
385.95	791.10
386.14	788.76
386.34	826.21
386.53	898.77
386.72	835.57
386.92	866.00
387.11	877.70
387.31	891.74
387.50	882.38
387.70	887.06
387.89	866.00
388.09	933.87
388.28	882.38
388.48	894.08
388.67	933.87
388.86	954.94
389.06	985.37
389.25	938.55
389.45	931.53
389.64	919.83
389.84	954.94
390.03	997.07
390.22	1069.62
390.42	1025.15
390.61	1004.09
390.81	950.26
391.00	1064.94
391.19	1076.65
391.39	1104.73
391.58	1043.88
391.78	1067.28
391.97	1034.52
392.16	1055.58
392.36	1048.56
392.55	940.90
392.75	1008.77
392.94	961.96
393.13	1015.79
393.33	976.00
393.52	971.32
393.71	1114.10
393.91	1083.67
394.10	1172.61
394.29	1214.74
394.49	1095.37
394.68	1207.72
394.88	1224.10
395.07	1188.99
395.26	1308.36
395.46	1296.66
395.65	1179.63
395.84	1242.82
396.04	1282.61
396.23	1130.48
396.42	1121.12
396.62	1188.99
396.81	1217.08
397.00	1296.66
397.19	1207.72
397.39	1313.04
397.58	1451.13
397.77	1423.05
397.97	1462.83
398.16	1378.58
398.35	1483.90
398.55	1476.88
398.74	1458.15
398.93	1558.80
399.12	1504.96
399.32	1614.97
399.51	1441.77
399.70	1495.60
399.90	1591.56
400.09	1696.89
400.28	1621.99
400.47	1657.10
400.67	1727.32
400.86	1685.19
401.05	1675.82
401.24	1788.17
401.44	1682.85
401.63	1741.36
401.82	1863.07
402.01	1717.95
402.21	1771.79
402.40	1816.26
402.59	1746.04
402.78	1767.10
402.97	1746.04
403.17	1867.75
403.36	1739.02
403.55	1734.34
403.74	1881.79
403.93	1921.58
404.13	1930.94
404.32	1891.15
404.51	1844.34
404.70	1884.13
404.89	1928.60
405.09	2078.40
405.28	1935.62
405.47	1970.73
405.66	1984.77
405.85	1989.46
406.05	1949.67
406.24	2062.01
406.43	2040.95
406.62	2200.10
406.81	2045.63
407.00	2113.50
407.20	2087.76
407.39	2174.36
407.58	2165.00
407.77	2146.27
407.96	2293.72
408.15	2279.68
408.34	2239.89
408.54	2312.45
408.73	2300.75
408.92	2396.71
409.11	2277.34
409.30	2352.24
409.49	2275.00
409.68	2331.17
409.87	2361.60
410.07	2370.96
410.26	2480.97
410.45	2375.64
410.64	2434.16
410.83	2516.08
411.02	2420.11
411.21	2658.85
411.40	2602.68
411.59	2607.36
411.78	2642.46
411.98	2614.38
412.17	2630.76
412.36	2761.83
412.55	2719.70
412.74	2782.90
412.93	2855.45
413.12	2754.81
413.31	2960.78
413.50	2839.07
413.69	2853.11
413.88	2902.26
414.07	2899.92
414.26	3049.72
414.45	2981.84
414.64	2977.16
414.83	2979.50
415.02	3091.85
415.22	3073.12
415.41	3222.92
415.60	3133.98
415.79	3227.60
415.98	3204.19
416.17	3206.53
416.36	3297.81
416.55	3375.05
416.74	3288.45
416.93	3323.56
417.12	3208.87
417.31	3293.13
417.50	3307.18
417.69	3435.91
417.88	3466.33
418.07	3393.78
418.26	3459.31
418.45	3442.93
418.64	3571.66
418.83	3641.87
419.02	3489.74
419.21	3627.83
419.39	3609.11
419.58	3562.30
419.77	3637.19
419.96	3616.13
420.15	3716.77
420.34	3786.99
420.53	3784.65
420.72	4007.00
420.91	3864.22
421.10	3808.05
421.29	3915.72
421.48	3920.40
421.67	3854.86
421.86	3723.79
422.05	3946.14
422.24	3775.28
422.43	3822.09
422.61	3925.08
422.80	3992.95
422.99	3887.63
423.18	3957.85
423.37	4210.62
423.56	3967.21
423.75	4042.11
423.94	3859.54
424.13	3791.67
424.32	3791.67
424.50	3925.08
424.69	4086.58
424.88	4079.55
425.07	4037.42
425.26	3880.61
425.45	4030.40
425.64	4058.49
425.83	3997.64
426.01	4091.26
426.20	3967.21
426.39	4102.96
426.58	4007.00
426.77	4046.79
426.96	3974.23
427.15	4124.02
427.33	4074.87
427.52	4196.58
427.71	4128.70
427.90	4161.47
428.09	4180.20
428.28	4304.25
428.46	4421.27
428.65	4222.33
428.84	4416.59
429.03	4416.59
429.22	4042.11
429.40	4112.32
429.59	4248.07
429.78	4009.34
429.97	3922.74
430.16	4009.34
430.34	4177.86
430.53	4126.36
430.72	4334.67
430.91	4236.37
431.10	4262.12
431.28	4503.19
431.47	4641.28
431.66	4795.76
431.85	4650.64
432.03	4819.16
432.22	4884.70
432.41	4758.31
432.60	4683.41
432.79	4847.25
432.97	4795.76
433.16	4856.61
433.35	4765.33
433.54	4877.68
433.72	4770.01
433.91	4765.33
434.10	4702.14
434.28	4957.25
434.47	4837.89
434.66	4938.53
434.85	4992.36
435.03	5181.95
435.22	4959.60
435.41	5163.22
435.59	5163.22
435.78	5123.43
435.97	5240.46
436.16	5296.63
436.34	5102.37
436.53	5224.08
436.72	5280.25
436.90	5071.94
437.09	5296.63
437.28	5149.18
437.46	5376.21
437.65	5235.78
437.84	5296.63
438.02	5116.41
438.21	5179.61
438.40	5270.89
438.58	5345.78
438.77	5352.81
438.96	5523.66
439.14	5767.08
439.33	5706.23
439.52	5647.71
439.70	5724.95
439.89	5809.21
440.08	5781.12
440.26	5717.93
440.45	5877.09
440.63	5907.51
440.82	6050.28
441.01	6052.63
441.19	5980.07
441.38	6150.93
441.57	6188.38
441.75	6406.05
441.94	6296.04
442.12	6307.74
442.31	6473.92
442.50	6506.69
442.68	6415.41
442.87	6399.02
443.05	6392.00
443.24	6544.14
443.43	6525.41
443.61	6537.12
443.80	6661.16
443.98	6523.07
444.17	6134.54
444.35	6633.08
444.54	6534.78
444.73	6588.61
444.91	6684.57
445.10	6745.42
445.28	6583.93
445.47	6546.48
445.65	6560.52
445.84	6595.63
446.02	6703.29
446.21	6729.04
446.39	6396.68
446.58	6616.69
446.77	6651.80
446.95	6684.57
447.14	6801.60
447.32	6918.62
447.51	6736.06
447.69	6672.87
447.88	6867.13
448.06	6834.36
448.25	6815.64
448.43	6712.66
448.62	6745.42
448.80	6923.30
448.99	6691.59
449.17	6984.16
449.36	6930.33
449.54	6960.75
449.73	7176.08
449.91	7243.96
450.10	7150.34
450.28	7169.06
450.46	7337.58
450.65	7335.24
450.83	7400.77
451.02	7339.92
451.20	7321.20
451.39	7253.32
451.57	7265.02
451.76	7328.22
451.94	7265.02
452.13	7433.54
452.31	7463.97
452.49	7187.79
452.68	7304.81
452.86	7260.34
453.05	7358.64
453.23	7414.82
453.42	7396.09
453.60	7363.33
453.78	7513.12
453.97	7585.68
454.15	7463.97
454.34	7506.10
454.52	7705.04
454.70	7573.97
454.89	7709.72
455.07	7775.26
455.26	7826.75
455.44	7845.48
455.62	7749.51
455.81	7950.80
455.99	7885.26
456.17	7918.03
456.36	7932.08
456.54	7964.84
456.73	7936.76
456.91	8329.97
457.09	8145.06
457.28	8212.94
457.46	8077.19
457.64	8325.29
457.83	8142.72
458.01	8166.13
458.19	8411.89
458.38	8156.77
458.56	8341.67
458.74	8318.26
458.93	8292.52
459.11	8299.54
459.29	8477.42
459.48	8149.75
459.66	8205.92
459.84	8683.39
460.03	8786.37
460.21	8554.66
460.39	8725.52
460.57	8510.19
460.76	8643.60
460.94	8830.84
461.12	8887.01
461.31	8734.88
461.49	8638.92
461.67	8938.51
461.85	8786.37
462.04	8760.63
462.22	9343.42
462.40	9097.66
462.59	8823.82
462.77	8711.47
462.95	9083.62
463.13	9163.20
463.32	9242.78
463.50	9034.47
463.68	9097.66
463.86	9085.96
464.05	9008.72
464.23	8931.48
464.41	9198.31
464.59	9025.11
464.78	9334.06
464.96	9069.58
465.14	9205.33
465.32	9174.90
465.50	9345.76
465.69	9481.51
465.87	9301.29
466.05	9310.65
466.23	9284.91
466.41	9369.16
466.60	9640.67
466.78	9338.74
466.96	9320.01
467.14	9280.22
467.32	9490.87
467.51	9582.15
467.69	9465.13
467.87	9584.49
468.05	9612.58
468.23	9404.27
468.41	9490.87
468.60	9607.90
468.78	9708.54
468.96	9610.24
469.14	9647.69
469.32	9820.89
469.50	9542.36
469.69	9692.16
469.87	10008.13
470.05	10092.39
470.23	9998.77
470.41	9909.83
470.59	10228.14
470.77	9935.57
470.95	10080.69
471.14	10274.95
471.32	9963.66
471.50	10499.64
471.68	10443.47
471.86	10375.59
472.04	10289.00
472.22	10731.36
472.40	10527.73
472.58	10576.88
472.77	10724.33
472.95	10679.86
473.13	10991.16
473.31	10630.71
473.49	10602.63
473.67	10827.32
473.85	10691.57
474.03	11096.48
474.21	11016.90
474.39	11269.68
474.57	11234.57
474.75	11290.74
474.93	11468.62
475.12	11159.67
475.30	11569.27
475.48	11389.05
475.66	11358.62
475.84	11311.81
476.02	11557.57
476.20	11517.78
476.38	11489.69
476.56	12060.78
476.74	12002.27
476.92	11798.64
477.10	11971.84
477.28	12203.55
477.46	12081.85
477.64	12407.18
477.82	12372.07
478.00	12704.43
478.18	12514.84
478.36	12966.57
478.54	12655.28
478.72	12624.85
478.90	13039.12
479.08	13207.64
479.26	13289.56
479.44	13200.62
479.62	13757.67
479.80	13563.40
479.98	13678.09
480.16	13851.29
480.34	13675.75
480.52	13790.44
480.70	13851.29
480.88	14005.77
481.06	14129.81
481.24	14043.21
481.41	14651.75
481.59	14288.97
481.77	14682.18
481.95	14420.04
482.13	14469.19
482.31	14822.61
482.49	15145.61
482.67	14949.00
482.85	14984.11
483.03	15496.69
483.21	15655.84
483.39	15571.58
483.57	15232.21
483.74	15765.85
483.92	15779.89
484.10	15681.59
484.28	15770.53
484.46	16311.19
484.64	16311.19
484.82	16322.90
485.00	16269.06
485.18	16542.91
485.35	16685.68
485.53	16482.05
485.71	16386.09
485.89	16496.10
486.07	16460.99
486.25	16624.83
486.43	17020.38
486.61	17270.81
486.78	17315.28
486.96	17355.07
487.14	17980.00
487.32	17935.53
487.50	18125.11
487.68	18080.64
487.85	18560.45
488.03	18352.14
488.21	18628.32
488.39	18668.11
488.57	18845.99
488.75	18986.43
488.92	19283.67
489.10	19417.08
489.28	19527.09
489.46	19887.53
489.64	19985.83
489.81	20294.79
489.99	20507.77
490.17	20278.40
490.35	20807.36
490.53	20512.46
490.70	20554.58
490.88	20573.31
491.06	21247.38
491.24	21046.10
491.41	21018.01
491.59	20989.92
491.77	21034.39
491.95	21067.16
492.13	21605.49
492.30	21774.00
492.48	21977.63
492.66	21858.26
492.84	22331.05
493.01	22331.05
493.19	22047.85
493.37	22300.62
493.54	22295.94
493.72	22768.73
493.90	22768.73
494.08	23194.71
494.25	23208.75
494.43	23438.12
494.61	23838.36
494.79	23454.51
494.96	23756.44
495.14	23866.44
495.32	23831.33
495.49	23922.62
495.67	23946.02
495.85	24163.69
496.02	24891.60
496.20	24648.18
496.38	24592.01
496.55	24762.87
496.73	25092.88
496.91	25022.67
497.09	25127.99
497.26	25528.22
497.44	25448.64
497.62	25371.41
497.79	25729.51
497.97	25120.97
498.14	25715.47
498.32	25781.00
498.50	26022.08
498.67	26321.66
498.85	26480.82
499.03	26209.32
499.20	26136.76
499.38	26569.76
499.56	26794.45
499.73	26714.87
499.91	26764.03
500.08	26845.94
500.26	26754.66
500.44	26740.62
500.61	26927.86
500.79	26583.80
500.97	27136.17
501.14	27339.80
501.32	27564.49
501.49	27405.33
501.67	27164.26
501.84	27548.11
502.02	27800.88
502.20	27700.24
502.37	27992.81
502.55	28191.75
502.72	28367.29
502.90	28381.34
503.07	27936.63
503.25	28577.94
503.43	28229.20
503.60	28657.52
503.78	28383.68
503.95	28409.42
504.13	28620.07
504.30	29111.58
504.48	28868.17
504.65	29048.39
504.83	29160.73
505.01	29539.90
505.18	28978.17
505.36	29706.08
505.53	29773.95
505.71	30127.38
505.88	29837.15
506.06	29390.11
506.23	30061.84
506.41	29975.24
506.58	30457.39
506.76	30141.42
506.93	29872.26
507.11	29919.07
507.28	30012.69
507.46	30298.23
507.63	30389.52
507.81	30349.73
507.98	30361.43
508.16	30459.73
508.33	30925.50
508.50	30866.98
508.68	31110.40
508.85	31667.45
509.03	31358.50
509.20	31147.85
509.38	31487.23
509.55	31707.24
509.73	31536.38
509.90	31667.45
510.08	31922.57
510.25	31690.85
510.42	31800.86
510.60	32360.25
510.77	31833.63
510.95	32423.44
511.12	32247.90
511.30	32116.83
511.47	32694.94
511.64	32701.96
511.82	32987.51
511.99	32430.46
512.17	32694.94
512.34	32566.21
512.51	32559.19
512.69	33013.26
512.86	33081.13
513.04	33233.27
513.21	33134.96
513.38	33111.56
513.56	32980.49
513.73	33085.81
513.90	33525.83
514.08	33139.65
514.25	33113.90
514.43	33268.37
514.60	33769.25
514.77	32959.42
514.95	34223.31
515.12	33736.48
515.29	33305.82
515.47	34110.97
515.64	34543.97
515.81	33823.08
515.99	33949.47
516.16	33886.28
516.33	34005.64
516.51	33895.64
516.68	33474.34
516.85	33661.58
517.03	33893.30
517.20	34286.51
517.37	34773.34
517.54	34829.51
517.72	34293.53
517.89	34387.15
518.06	34361.40
518.24	34227.99
518.41	34787.38
518.58	34841.21
518.75	34738.23
518.93	35051.86
519.10	35342.09
519.27	35634.66
519.45	35044.84
519.62	35218.04
519.79	35594.87
519.96	35737.64
520.14	35957.65
520.31	35159.53
520.48	35587.85
520.65	35606.57
520.83	36168.30
521.00	36243.20
521.17	36156.60
521.34	36257.24
521.52	36243.20
521.69	36383.63
521.86	36718.32
522.03	36570.87
522.20	36598.96
522.38	37046.00
522.55	36727.69
522.72	36519.38
522.89	36755.77
523.07	37090.47
523.24	36835.35
523.41	36884.50
523.58	36926.63
523.75	37581.98
523.92	37476.66
524.10	37345.59
524.27	37481.34
524.44	37542.19
524.61	37523.47
524.78	37900.29
524.96	37427.51
525.13	37441.55
525.30	37916.68
525.47	37998.60
525.64	37432.19
525.81	37799.65
525.98	37603.05
526.16	38007.96
526.33	37387.72
526.50	37474.32
526.67	37652.20
526.84	37567.94
527.01	37565.60
527.18	38124.99
527.36	38307.55
527.53	38487.77
527.70	39058.86
527.87	38663.31
528.04	38621.18
528.21	38508.83
528.38	38485.43
528.55	39150.14
528.72	39154.82
528.89	39229.72
529.07	38541.60
529.24	38895.02
529.41	39239.08
529.58	39264.83
529.75	39012.05
529.92	39103.33
530.09	39501.22
530.26	39154.82
530.43	39533.99
530.60	39414.62
530.77	39555.05
530.94	39936.56
531.11	39683.78
531.28	39810.17
531.46	40030.18
531.63	39800.81
531.80	39835.92
531.97	39728.25
532.14	39833.58
532.31	39225.04
532.48	39658.04
532.65	40114.44
532.82	39688.46
532.99	39981.03
533.16	40231.47
533.33	40620.00
533.50	40261.90
533.67	39969.33
533.84	40039.54
534.01	40144.87
534.18	40081.67
534.35	40587.23
534.52	40126.14
534.69	40432.75
534.86	40720.64
535.03	40568.51
535.20	41022.57
535.37	41497.70
535.54	41509.40
535.71	41275.35
535.88	41125.55
536.05	40896.18
536.22	41083.42
536.38	41048.32
536.55	40772.13
536.72	40603.61
536.89	40645.74
537.06	41284.71
537.23	41282.37
537.40	41361.95
537.57	41687.28
537.74	40947.67
537.91	41598.34
538.08	41584.30
538.25	41713.03
538.42	41357.27
538.59	41764.52
538.75	41216.83
538.92	41401.74
539.09	41584.30
539.26	41787.92
539.43	41427.48
539.60	41876.86
539.77	41591.32
539.94	41319.82
540.11	41720.05
540.28	41621.75
540.44	41619.41
540.61	41794.95
540.78	41345.56
540.95	42148.37
541.12	42071.13
541.29	42064.11
541.46	42459.66
541.62	41935.38
541.79	42141.35
541.96	41631.11
542.13	41935.38
542.30	42333.27
542.47	41869.84
542.63	42333.27
542.80	42536.90
542.97	42553.28
543.14	42738.18
543.31	42822.44
543.48	43239.06
543.64	42972.24
543.81	42735.84
543.98	42997.98
544.15	43473.11
544.32	43154.80
544.48	43105.65
544.65	43400.55
544.82	43028.41
544.99	43030.75
545.16	43475.45
545.32	42777.97
545.49	43440.34
545.66	43533.96
545.83	43515.24
546.00	43601.84
546.16	43412.26
546.33	43433.32
546.50	42674.99
546.67	43803.13
546.83	43445.02
547.00	43756.32
547.17	43255.44
547.34	43409.92
547.50	43508.22
547.67	43693.12
547.84	43852.28
548.00	44009.09
548.17	43821.85
548.34	43667.37
548.51	43959.94
548.67	44182.29
548.84	44163.57
549.01	43770.36
549.18	43756.32
549.34	43873.34
549.51	44488.90
549.68	44271.23
549.84	44364.85
550.01	44280.60
550.18	43896.75
550.34	44423.37
550.51	44081.65
550.68	44032.50
550.84	43665.03
551.01	44589.55
551.18	44519.33
551.34	44540.39
551.51	44240.81
551.68	44570.82
551.84	44809.56
552.01	44437.41
552.18	44816.58
552.34	44378.90
552.51	44383.58
552.68	44605.93
552.84	44655.08
553.01	45095.10
553.18	44547.42
553.34	44671.46
553.51	44488.90
553.67	44872.75
553.84	44788.49
554.01	45125.53
554.17	45240.21
554.34	44856.37
554.51	45015.52
554.67	45373.63
554.84	45162.98
555.00	44804.88
555.17	44666.78
555.33	45003.82
555.50	44891.48
555.67	45116.17
555.83	44912.54
556.00	44856.37
556.16	45411.07
556.33	45223.83
556.50	45174.68
556.66	45174.68
556.83	44713.59
556.99	45200.43
557.16	45331.50
557.32	45413.41
557.49	45191.06
557.65	45270.64
557.82	45357.24
557.98	45514.06
558.15	45132.55
558.32	45434.48
558.48	45099.78
558.65	45354.90
558.81	45052.97
558.98	45132.55
559.14	44985.10
559.31	45052.97
559.47	45464.91
559.64	45261.28
559.80	45565.55
559.97	45502.35
560.13	45551.51
560.30	45677.90
560.46	45848.75
560.63	45773.86
560.79	45741.09
560.96	45663.85
561.12	45301.07
561.29	45310.43
561.45	45741.09
561.61	45635.77
561.78	45338.52
561.94	45291.71
562.11	45741.09
562.27	45385.33
562.44	45322.13
562.60	45331.50
562.77	45551.51
562.93	45837.05
563.10	45860.46
563.26	45521.08
563.42	46089.83
563.59	45914.29
563.75	45769.18
563.92	45921.31
564.08	45944.72
564.24	45755.13
564.41	45907.27
564.57	45682.58
564.74	45947.06
564.90	45982.16
565.07	45771.52
565.23	46344.95
565.39	45794.92
565.56	46080.47
565.72	45523.42
565.88	46054.72
566.05	45741.09
566.21	45607.68
566.38	45481.29
566.54	45645.13
566.70	45970.46
566.87	45977.48
567.03	45979.82
567.19	45993.87
567.36	46335.59
567.52	46227.92
567.68	46295.80
567.85	45820.67
568.01	46033.66
568.17	45605.34
568.34	46213.88
568.50	46162.39
568.66	45872.16
568.83	45846.41
568.99	45598.32
569.15	45731.73
569.32	45897.91
569.48	45631.08
569.64	46466.66
569.81	46244.30
569.97	45705.98
570.13	46181.11
570.30	45893.22
570.46	45823.01
570.62	45673.21
570.78	45511.72
570.95	45441.50
571.11	46209.20
571.27	45900.25
571.43	45818.33
571.60	46082.81
571.76	46096.85
571.92	45872.16
572.09	45998.55
572.25	46174.09
572.41	46213.88
572.57	46064.08
572.74	46543.89
572.90	46256.01
573.06	46358.99
573.22	46571.98
573.38	46333.24
573.55	46068.76
573.71	46368.35
573.87	46571.98
574.03	46164.73
574.20	46286.43
574.36	46623.47
574.52	46232.60
574.68	46188.13
574.84	45757.47
575.01	46117.92
575.17	46129.62
575.33	45713.00
575.49	45911.95
575.65	46454.95
575.82	46286.43
575.98	46267.71
576.14	46401.12
576.30	46370.69
576.46	46127.28
576.62	46326.22
576.79	46033.66
576.95	46244.30
577.11	46176.43
577.27	46508.79
577.43	46323.88
577.59	45928.33
577.75	45867.48
577.92	45483.63
578.08	45947.06
578.24	46075.79
578.40	45996.21
578.56	46066.42
578.72	46483.04
578.88	46328.56
579.04	46429.21
579.21	46005.57
579.37	46433.89
579.53	46396.44
579.69	45925.99
579.85	46295.80
580.01	46110.89
580.17	45759.81
580.33	46614.11
580.49	46267.71
580.65	46679.64
580.82	46309.84
580.98	46045.36
581.14	45855.78
581.30	46464.32
581.46	46213.88
581.62	46518.15
581.78	46248.99
581.94	46674.96
582.10	46358.99
582.26	46017.27
582.42	46461.97
582.58	46401.12
582.74	46342.61
582.90	46747.52
583.06	46293.46
583.22	46419.84
583.38	46595.38
583.54	46564.96
583.70	46609.43
583.86	46588.36
584.02	46426.87
584.18	46323.88
584.34	46237.28
584.50	46696.03
584.66	46199.83
584.82	46239.62
584.98	46663.26
585.14	46251.33
585.30	46007.91
585.46	46305.16
585.62	46019.61
585.78	46604.75
585.94	46129.62
586.10	46160.05
586.26	46445.59
586.42	46707.73
586.58	46417.50
586.74	46181.11
586.90	46232.60
587.06	46576.66
587.22	46199.83
587.38	46581.34
587.54	46396.44
587.70	46291.12
587.86	46440.91
588.02	45923.65
588.18	46447.93
588.34	46351.97
588.49	46000.89
588.65	45567.89
588.81	45727.05
588.97	46003.23
589.13	45752.79
589.29	45853.44
589.45	46033.66
589.61	46108.55
589.77	46504.10
589.93	46478.36
590.08	46607.09
