SpectraSuite Data File
++++++++++++++++++++++++++++++++++++
Date: Fri Oct 25 11:33:51 EDT 2013
User: price-jones
Dark Spectrum Present: No
Reference Spectrum Present: No
Number of Sampled Component Spectra: 1
Spectrometers: USB2+H05261
Integration Time (usec): 100000 (USB2+H05261)
Spectra Averaged: 1 (USB2+H05261)
Boxcar Smoothing: 0 (USB2+H05261)
Correct for Electrical Dark: No (USB2+H05261)
Strobe/Lamp Enabled: No (USB2+H05261)
Correct for Detector Non-linearity: No (USB2+H05261)
Correct for Stray Light: No (USB2+H05261)
Number of Pixels in Processed Spectrum: 2048
>>>>>Begin Processed Spectral Data<<<<<
365.73	262.14
365.92	262.14
366.12	262.14
366.32	140.43
366.52	184.90
366.72	159.16
366.91	168.52
367.11	208.31
367.31	175.54
367.51	229.37
367.70	170.86
367.90	126.39
368.10	142.77
368.30	224.69
368.49	187.24
368.69	191.92
368.89	198.95
369.09	255.12
369.28	187.24
369.48	210.65
369.68	191.92
369.87	198.95
370.07	238.73
370.27	271.50
370.47	322.99
370.66	540.66
370.86	507.90
371.06	472.79
371.25	568.75
371.45	463.43
371.65	571.09
371.84	505.56
372.04	589.82
372.24	608.54
372.44	575.77
372.63	533.64
372.83	592.16
373.03	620.24
373.22	622.58
373.42	697.48
373.62	601.52
373.81	636.63
374.01	667.05
374.21	702.16
374.40	662.37
374.60	596.84
374.79	627.26
374.99	650.67
375.19	669.39
375.38	643.65
375.58	573.43
375.78	643.65
375.97	610.88
376.17	674.07
376.37	634.29
376.56	667.05
376.76	678.76
376.95	664.71
377.15	645.99
377.35	650.67
377.54	669.39
377.74	711.52
377.93	676.41
378.13	725.57
378.33	730.25
378.52	727.91
378.72	734.93
378.91	732.59
379.11	702.16
379.31	683.44
379.50	737.27
379.70	739.61
379.89	716.20
380.09	697.48
380.28	725.57
380.48	709.18
380.68	706.84
380.87	795.78
381.07	741.95
381.26	716.20
381.46	727.91
381.65	732.59
381.85	720.88
382.04	763.01
382.24	837.91
382.43	863.66
382.63	774.72
382.83	777.06
383.02	753.65
383.22	851.96
383.41	770.04
383.61	866.00
383.80	898.77
384.00	786.42
384.19	779.40
384.39	887.06
384.58	805.14
384.78	889.40
384.97	805.14
385.17	767.70
385.36	805.14
385.56	774.72
385.75	816.85
385.95	800.46
386.14	898.77
386.34	814.51
386.53	889.40
386.72	856.64
386.92	950.26
387.11	926.85
387.31	910.47
387.50	917.49
387.70	842.59
387.89	971.32
388.09	884.72
388.28	875.36
388.48	917.49
388.67	985.37
388.86	966.64
389.06	903.45
389.25	994.73
389.45	929.19
389.64	898.77
389.84	908.13
390.03	929.19
390.22	987.71
390.42	915.15
390.61	875.36
390.81	891.74
391.00	947.92
391.19	1081.33
391.39	1008.77
391.58	980.68
391.78	1015.79
391.97	1048.56
392.16	1006.43
392.36	1083.67
392.55	1064.94
392.75	1050.90
392.94	1090.69
393.13	990.05
393.33	1083.67
393.52	1034.52
393.71	1057.92
393.91	1160.91
394.10	1046.22
394.29	1081.33
394.49	1090.69
394.68	1118.78
394.88	1029.84
395.07	1090.69
395.26	1093.03
395.46	1102.39
395.65	1032.18
395.84	1177.29
396.04	1158.57
396.23	1160.91
396.42	1132.82
396.62	1214.74
396.81	1231.12
397.00	1198.35
397.19	1144.52
397.39	1217.08
397.58	1181.97
397.77	1203.04
397.97	1282.61
398.16	1242.82
398.35	1254.53
398.55	1322.40
398.74	1317.72
398.93	1282.61
399.12	1247.51
399.32	1329.42
399.51	1355.17
399.70	1322.40
399.90	1364.53
400.09	1308.36
400.28	1373.89
400.47	1418.36
400.67	1448.79
400.86	1406.66
401.05	1387.94
401.24	1406.66
401.44	1483.90
401.63	1533.05
401.82	1432.41
402.01	1315.38
402.21	1455.81
402.40	1509.65
402.59	1474.54
402.78	1500.28
402.97	1596.25
403.17	1535.39
403.36	1526.03
403.55	1605.61
403.74	1579.86
403.93	1572.84
404.13	1565.82
404.32	1659.44
404.51	1575.18
404.70	1687.53
404.89	1638.38
405.09	1724.97
405.28	1659.44
405.47	1720.29
405.66	1699.23
405.85	1809.23
406.05	1708.59
406.24	1710.93
406.43	1668.80
406.62	1792.85
406.81	1699.23
407.00	1743.70
407.20	1699.23
407.39	1673.48
407.58	1778.81
407.77	1870.09
407.96	1879.45
408.15	1842.00
408.34	1874.77
408.54	1956.69
408.73	1928.60
408.92	1874.77
409.11	1898.17
409.30	1900.52
409.49	2040.95
409.68	1970.73
409.87	2064.35
410.07	1944.99
410.26	2031.58
410.45	2031.58
410.64	2157.97
410.83	2129.89
411.02	2050.31
411.21	2118.18
411.40	2052.65
411.59	2249.25
411.78	2207.13
411.98	2186.06
412.17	2188.40
412.36	2284.36
412.55	2291.38
412.74	2289.04
412.93	2373.30
413.12	2284.36
413.31	2363.94
413.50	2359.26
413.69	2389.69
413.88	2480.97
414.07	2415.43
414.26	2609.70
414.45	2588.63
414.64	2497.35
414.83	2534.80
415.02	2745.45
415.22	2576.93
415.41	2532.46
415.60	2513.74
415.79	2628.42
415.98	2736.09
416.17	2782.90
416.36	2696.30
416.55	2752.47
416.74	2829.71
416.93	2871.84
417.12	2841.41
417.31	2909.29
417.50	2906.95
417.69	2970.14
417.88	2925.67
418.07	2953.76
418.26	3045.04
418.45	3045.04
418.64	3150.36
418.83	2963.12
419.02	2974.82
419.21	3124.62
419.39	3105.89
419.58	3073.12
419.77	2960.78
419.96	3059.08
420.15	3201.85
420.34	3204.19
420.53	3248.66
420.72	3300.16
420.91	3225.26
421.10	3213.56
421.29	3356.33
421.48	3265.05
421.67	3349.31
421.86	3258.03
422.05	3318.88
422.24	3255.69
422.43	3391.44
422.61	3349.31
422.80	3365.69
422.99	3349.31
423.18	3421.86
423.37	3375.05
423.56	3428.88
423.75	3372.71
423.94	3353.99
424.13	3178.45
424.32	3442.93
424.50	3552.93
424.69	3473.36
424.88	3485.06
425.07	3466.33
425.26	3389.10
425.45	3590.38
425.64	3368.03
425.83	3499.10
426.01	3480.38
426.20	3424.20
426.39	3389.10
426.58	3424.20
426.77	3426.54
426.96	3419.52
427.15	3433.57
427.33	3618.47
427.52	3618.47
427.71	3571.66
427.90	3520.17
428.09	3653.58
428.28	3681.66
428.46	3693.37
428.65	3585.70
428.84	3691.02
429.03	3744.86
429.22	3728.47
429.40	3831.46
429.59	3698.05
429.78	3801.03
429.97	3609.11
430.16	3688.68
430.34	3873.59
430.53	3946.14
430.72	3861.88
430.91	3782.31
431.10	3826.78
431.28	3873.59
431.47	4002.32
431.66	3985.93
431.85	3955.51
432.03	3929.76
432.22	4018.70
432.41	4175.52
432.60	4030.40
432.79	4011.68
432.97	4142.75
433.16	4255.09
433.35	4058.49
433.54	4173.18
433.72	4208.28
433.91	4184.88
434.10	4154.45
434.28	4149.77
434.47	4208.28
434.66	4154.45
434.85	4306.59
435.03	4215.30
435.22	4149.77
435.41	4339.35
435.59	4451.70
435.78	4395.53
435.97	4308.93
436.16	4449.36
436.34	4306.59
436.53	4374.46
436.72	4500.85
436.90	4250.41
437.09	4564.04
437.28	4503.19
437.46	4526.60
437.65	4535.96
437.84	4573.41
438.02	4404.89
438.21	4638.94
438.40	4542.98
438.58	4517.23
438.77	4711.50
438.96	4592.13
439.14	4716.18
439.33	4959.60
439.52	4821.50
439.70	4997.04
439.89	4903.42
440.08	5027.47
440.26	5036.83
440.45	4980.66
440.63	5067.26
440.82	5048.54
441.01	5076.62
441.19	5268.55
441.38	5275.57
441.57	5238.12
441.75	5219.39
441.94	5387.91
442.12	5359.83
442.31	5423.02
442.50	5277.91
442.68	5451.11
442.87	5509.62
443.05	5486.22
443.24	5680.48
443.43	5460.47
443.61	5544.73
443.80	5715.59
443.98	5324.72
444.17	5366.85
444.35	5523.66
444.54	5717.93
444.73	5696.86
444.91	5493.24
445.10	5624.31
445.28	5596.22
445.47	5521.32
445.65	5617.29
445.84	5680.48
446.02	5849.00
446.21	5717.93
446.39	5652.39
446.58	5657.07
446.77	5689.84
446.95	5636.01
447.14	5769.42
447.32	5678.14
447.51	5743.67
447.69	5703.89
447.88	5795.17
448.06	5628.99
448.25	5692.18
448.43	5692.18
448.62	5734.31
448.80	5750.70
448.99	6010.50
449.17	5825.59
449.36	5830.27
449.54	5991.77
449.73	6043.26
449.91	5942.62
450.10	5998.79
450.28	6090.07
450.46	6108.80
450.65	6097.10
450.83	6118.16
451.02	6101.78
451.20	6258.59
451.39	6242.21
451.57	6113.48
451.76	6057.31
451.94	6225.82
452.13	6153.27
452.31	6127.52
452.49	6176.67
452.68	6155.61
452.86	6221.14
453.05	6363.92
453.23	6356.90
453.42	6415.41
453.60	6265.61
453.78	6490.31
453.97	6380.30
454.15	6256.25
454.34	6314.77
454.52	6490.31
454.70	6572.22
454.89	6647.12
455.07	6527.75
455.26	6658.82
455.44	6679.89
455.62	6670.53
455.81	6523.07
455.99	6764.15
456.17	6686.91
456.36	6633.08
456.54	6722.02
456.73	6967.77
456.91	6939.69
457.09	7080.12
457.28	7112.89
457.46	7009.90
457.64	7096.50
457.83	6878.83
458.01	6775.85
458.19	7229.91
458.38	7082.46
458.56	7272.04
458.74	7300.13
458.93	7096.50
459.11	7250.98
459.29	7150.34
459.48	7194.81
459.66	7358.64
459.84	7267.36
460.03	7503.76
460.21	7391.41
460.39	7206.51
460.57	7201.83
460.76	7513.12
460.94	7478.01
461.12	7449.93
461.31	7332.90
461.49	7421.84
461.67	7660.57
461.85	7765.90
462.04	7456.95
462.22	8168.47
462.40	7782.28
462.59	7674.62
462.77	7709.72
462.95	7889.95
463.13	7796.32
463.32	7679.30
463.50	7740.15
463.68	7866.54
463.86	7964.84
464.05	7784.62
464.23	7836.11
464.41	7845.48
464.59	7911.01
464.78	8028.04
464.96	8102.93
465.14	7950.80
465.32	7934.42
465.50	8121.66
465.69	8056.12
465.87	8116.98
466.05	8131.02
466.23	8161.45
466.41	8135.70
466.60	8308.90
466.78	8184.85
466.96	8131.02
467.14	8189.53
467.32	8128.68
467.51	8451.67
467.69	8189.53
467.87	8496.14
468.05	8437.63
468.23	8304.22
468.41	8121.66
468.60	8449.33
468.78	8390.82
468.96	8259.75
469.14	8592.11
469.32	8669.34
469.50	8468.06
469.69	8575.72
469.87	8720.84
470.05	8748.92
470.23	8641.26
470.41	8802.75
470.59	8765.31
470.77	8688.07
470.95	8933.82
471.14	9135.11
471.32	8697.43
471.50	8821.48
471.68	9050.85
471.86	9315.33
472.04	9226.39
472.22	9303.63
472.40	9226.39
472.58	9357.46
472.77	9348.10
472.95	9383.21
473.13	9458.10
473.31	9434.70
473.49	9504.92
473.67	9500.23
473.85	9404.27
474.03	9680.46
474.21	9689.82
474.39	9774.08
474.57	9673.43
474.75	9750.67
474.93	9984.73
475.12	9722.59
475.30	10024.51
475.48	9762.37
475.66	10068.98
475.84	10029.20
476.02	10272.61
476.20	10090.05
476.38	10466.88
476.56	10415.38
476.74	10366.23
476.92	10387.30
477.10	10513.69
477.28	10712.63
477.46	10668.16
477.64	10719.65
477.82	10808.59
478.00	11014.56
478.18	11342.24
478.36	11037.97
478.54	11349.26
478.72	11447.56
478.90	11545.86
479.08	11707.36
479.26	11520.12
479.44	11688.64
479.62	11702.68
479.80	11852.47
479.98	12131.00
480.16	12145.04
480.34	11934.39
480.52	12166.10
480.70	12224.62
480.88	12154.40
481.06	12343.99
481.24	12297.17
481.41	12322.92
481.59	12613.15
481.77	12877.63
481.95	12800.39
482.13	13118.70
482.31	12716.13
482.49	13235.73
482.67	13170.19
482.85	13256.79
483.03	13769.37
483.21	13605.53
483.39	13549.36
483.57	13741.29
483.74	13605.53
483.92	14043.21
484.10	13823.20
484.28	14237.48
484.46	14326.42
484.64	14541.75
484.82	14333.44
485.00	14766.44
485.18	14824.95
485.35	14953.68
485.53	14977.09
485.71	14988.79
485.89	15272.00
486.07	15180.71
486.25	15307.10
486.43	15566.90
486.61	15749.46
486.78	15840.75
486.96	15585.63
487.14	16102.89
487.32	16231.62
487.50	16355.66
487.68	16250.34
487.85	16210.55
488.03	16751.21
488.21	16563.97
488.39	16964.20
488.57	17116.34
488.75	16856.54
488.92	17284.86
489.10	17516.57
489.28	17387.84
489.46	17568.06
489.64	17647.64
489.81	18153.20
489.99	18174.26
490.17	18160.22
490.35	18260.86
490.53	18356.82
490.70	18457.46
490.88	18497.25
491.06	18824.93
491.24	18913.87
491.41	18970.04
491.59	19353.89
491.77	19091.75
491.95	19110.47
492.13	19405.38
492.30	19552.84
492.48	19587.94
492.66	19627.73
492.84	19955.41
493.01	20180.10
493.19	20203.50
493.37	19946.05
493.54	20203.50
493.72	20730.12
493.90	20732.47
494.08	20652.89
494.25	20896.30
494.43	20903.32
494.61	21146.74
494.79	21277.81
494.96	21118.65
495.14	21179.51
495.32	21654.64
495.49	21579.74
495.67	21467.39
495.85	21879.33
496.02	21965.93
496.20	22328.71
496.38	22611.92
496.55	22410.63
496.73	22621.28
496.91	22485.53
497.09	22796.82
497.26	22661.07
497.44	22909.16
497.62	22974.70
497.79	23152.58
497.97	23138.54
498.14	23159.60
498.32	23718.99
498.50	23482.59
498.67	23740.05
498.85	23761.12
499.03	23976.45
499.20	24058.37
499.38	24025.60
499.56	24063.05
499.73	24084.11
499.91	24648.18
500.08	24570.94
500.26	24418.81
500.44	24503.07
500.61	24922.02
500.79	24414.13
500.97	24835.42
501.14	24872.87
501.32	25401.83
501.49	25017.99
501.67	25427.58
501.84	25610.14
502.02	25179.48
502.20	25490.77
502.37	25525.88
502.55	25539.93
502.72	25675.68
502.90	25963.56
503.07	25612.48
503.25	25844.20
503.43	25748.23
503.60	26459.76
503.78	26412.95
503.95	26478.48
504.13	26228.04
504.30	26792.11
504.48	26654.02
504.65	26799.13
504.83	26719.56
505.01	27243.84
505.18	26913.82
505.36	27428.74
505.53	27080.00
505.71	27133.83
505.88	27314.05
506.06	26981.70
506.23	27819.61
506.41	27634.71
506.58	27566.83
506.76	27627.68
506.93	27929.61
507.11	28240.90
507.28	27962.38
507.46	28250.27
507.63	28011.53
507.81	28109.83
507.98	28128.56
508.16	28346.23
508.33	28559.22
508.50	28720.71
508.68	28540.49
508.85	28917.32
509.03	28727.74
509.20	29055.41
509.38	28936.04
509.55	28926.68
509.73	29041.37
509.90	29099.88
510.08	29069.45
510.25	29336.27
510.42	29352.66
510.60	29525.86
510.77	29563.31
510.95	29848.85
511.12	29766.93
511.30	29811.40
511.47	30059.50
511.64	29914.39
511.82	30256.11
511.99	30082.91
512.17	30441.01
512.34	30029.07
512.51	30618.89
512.69	31002.74
512.86	30422.28
513.04	30909.11
513.21	30775.70
513.38	30663.36
513.56	30979.33
513.73	30773.36
513.90	30866.98
514.08	30969.97
514.25	31269.56
514.43	31473.18
514.60	31648.72
514.77	31409.99
514.95	31330.41
515.12	31412.33
515.29	31299.98
515.47	31913.20
515.64	31840.65
515.81	32084.06
515.99	32046.62
516.16	32367.27
516.33	32304.07
516.51	32481.95
516.68	31866.39
516.85	32320.46
517.03	32683.24
517.20	32610.68
517.37	32769.84
517.54	32540.47
517.72	32650.47
517.89	32559.19
518.06	33053.05
518.24	32776.86
518.41	33111.56
518.58	32638.77
518.75	32891.55
518.93	33160.71
519.10	32748.78
519.27	33415.83
519.45	33483.70
519.62	33230.93
519.79	33605.41
519.96	33230.93
520.14	33872.23
520.31	33418.17
520.48	33668.61
520.65	33785.63
520.83	34319.28
521.00	33757.55
521.17	33977.56
521.34	34576.73
521.52	34274.80
521.69	34572.05
521.86	34455.03
522.03	34820.15
522.20	34583.76
522.38	34850.58
522.55	34546.31
522.72	34843.56
522.89	34850.58
523.07	35262.51
523.24	35054.20
523.41	35124.42
523.58	35077.61
523.75	35473.16
523.92	35201.66
524.10	35344.43
524.27	35267.19
524.44	35246.13
524.61	35611.25
524.78	35416.99
524.96	36018.50
525.13	36151.91
525.30	35805.52
525.47	36217.45
525.64	35871.05
525.81	36215.11
525.98	36165.96
526.16	35782.11
526.33	36011.48
526.50	36591.94
526.67	36222.13
526.84	36556.83
527.01	36369.58
527.18	36102.76
527.36	36524.06
527.53	37027.28
527.70	37258.99
527.87	37113.87
528.04	36711.30
528.21	36617.68
528.38	36767.48
528.55	37055.36
528.72	37113.87
528.89	36774.50
529.07	36734.71
529.24	37048.34
529.41	37352.61
529.58	37146.64
529.75	36898.55
529.92	37228.56
530.09	37340.91
530.26	37385.38
530.43	37305.80
530.60	37614.75
530.77	37502.40
530.94	37347.93
531.11	37493.04
531.28	37415.80
531.46	37275.37
531.63	37607.73
531.80	37727.10
531.97	38286.48
532.14	38424.57
532.31	37839.44
532.48	38309.89
532.65	38497.13
532.82	38094.56
532.99	38504.15
533.16	38227.97
533.33	38621.18
533.50	38759.27
533.67	38590.75
533.84	38562.67
534.01	39098.65
534.18	38803.74
534.35	39115.03
534.52	38897.36
534.69	39147.80
534.86	39503.56
535.03	38808.42
535.20	39391.22
535.37	38948.85
535.54	39651.02
535.71	39250.78
535.88	39206.31
536.05	39227.38
536.22	39580.80
536.38	39599.52
536.55	39356.11
536.72	39576.12
536.89	39468.45
537.06	39714.21
537.23	39990.39
537.40	40055.93
537.57	39431.01
537.74	39793.79
537.91	39840.60
538.08	40149.55
538.25	39508.24
538.42	40194.02
538.59	40088.70
538.75	40044.23
538.92	40151.89
539.09	40257.21
539.26	39995.07
539.43	40156.57
539.60	40472.54
539.77	40264.24
539.94	40832.99
540.11	40641.06
540.28	40587.23
540.44	40301.68
540.61	40247.85
540.78	40601.27
540.95	40528.72
541.12	40715.96
541.29	40479.57
541.46	40708.94
541.62	40919.59
541.79	40975.76
541.96	40715.96
542.13	40849.37
542.30	40800.22
542.47	41287.05
542.63	41078.74
542.80	41352.58
542.97	41439.18
543.14	41694.30
543.31	41504.72
543.48	41031.93
543.64	41956.44
543.81	41706.01
543.98	41799.63
544.15	41766.86
544.32	41944.74
544.48	42099.22
544.65	42160.07
544.82	42284.12
544.99	41429.82
545.16	42206.88
545.32	42272.42
545.49	42522.85
545.66	42117.94
545.83	42497.11
546.00	42553.28
546.16	42216.24
546.33	42174.11
546.50	42101.56
546.67	42389.44
546.83	42457.32
547.00	42618.81
547.17	42520.51
547.34	42581.37
547.50	42862.23
547.67	42873.93
547.84	43164.16
548.00	42431.57
548.17	43147.78
548.34	42997.98
548.51	43002.66
548.67	43054.15
548.84	43030.75
549.01	42958.19
549.18	43110.33
549.34	43285.87
549.51	43634.61
549.68	43192.25
549.84	43100.97
550.01	43199.27
550.18	43030.75
550.34	43168.84
550.51	43461.41
550.68	43374.81
550.84	43227.35
551.01	43784.40
551.18	43735.25
551.34	43278.85
551.51	43543.33
551.68	43784.40
551.84	43545.67
552.01	43622.90
552.18	43576.09
552.34	43335.02
552.51	43894.41
552.68	43407.58
552.84	43772.70
553.01	43959.94
553.18	43793.76
553.34	43627.59
553.51	43416.94
553.67	43728.23
553.84	44126.12
554.01	43770.36
554.17	43824.19
554.34	44362.51
554.51	44107.40
554.67	44355.49
554.84	43959.94
555.00	44406.98
555.17	44315.70
555.33	44282.94
555.50	44236.12
555.67	44491.24
555.83	44783.81
556.00	44760.40
556.16	44968.71
556.33	44713.59
556.50	44446.77
556.66	44561.46
556.83	44409.32
556.99	44854.03
557.16	45134.89
557.32	44861.05
557.49	45052.97
557.65	44769.77
557.82	44657.42
557.98	44629.34
558.15	45298.73
558.32	44830.62
558.48	44734.66
558.65	45034.25
558.81	44727.64
558.98	44800.19
559.14	44980.42
559.31	44701.89
559.47	45008.50
559.64	45338.52
559.80	45202.77
559.97	45158.30
560.13	44790.83
560.30	45291.71
560.46	45715.34
560.63	45418.10
560.79	45617.04
560.96	45272.98
561.12	45511.72
561.29	45516.40
561.45	45193.40
561.61	45759.81
561.78	45371.28
561.94	45507.04
562.11	45352.56
562.27	45610.02
562.44	45560.87
562.60	45539.80
562.77	45591.30
562.93	45549.17
563.10	45567.89
563.26	45050.63
563.42	45970.46
563.59	45661.51
563.75	45762.15
563.92	45556.19
564.08	45698.96
564.24	45815.99
564.41	45750.45
564.57	45354.90
564.74	45762.15
564.90	45736.41
565.07	45631.08
565.23	45600.66
565.39	45935.35
565.56	46120.26
565.72	45862.80
565.88	45663.85
566.05	45970.46
566.21	45998.55
566.38	46237.28
566.54	46263.03
566.70	46120.26
566.87	46274.73
567.03	45647.47
567.19	46270.05
567.36	46099.19
567.52	46080.47
567.68	46405.80
567.85	46274.73
568.01	46384.74
568.17	46019.61
568.34	46244.30
568.50	46309.84
568.66	45773.86
568.83	46150.68
568.99	46464.32
569.15	46143.66
569.32	46110.89
569.48	46220.90
569.64	46803.69
569.81	46211.54
569.97	46539.21
570.13	46522.83
570.30	45907.27
570.46	46342.61
570.62	46557.94
570.78	46574.32
570.95	46454.95
571.11	46628.15
571.27	46384.74
571.43	46356.65
571.60	46607.09
571.76	45951.74
571.92	46169.41
572.09	45801.94
572.25	46614.11
572.41	46532.19
572.57	46782.63
572.74	46815.40
572.90	46019.61
573.06	46574.32
573.22	46876.25
573.38	47136.05
573.55	46705.39
573.71	46948.81
573.87	46803.69
574.03	46768.58
574.20	46831.78
574.36	46487.72
574.52	46579.00
574.68	46817.74
574.84	46932.42
575.01	47103.28
575.17	46660.92
575.33	46583.68
575.49	46298.14
575.65	47168.82
575.82	46876.25
575.98	46808.37
576.14	47316.27
576.30	46958.17
576.46	47241.37
576.62	46733.48
576.79	46696.03
576.95	46412.82
577.11	46976.89
577.27	46698.37
577.43	46665.60
577.59	46894.97
577.75	46827.10
577.92	46529.85
578.08	46791.99
578.24	47086.90
578.40	47267.12
578.56	46906.68
578.72	46951.15
578.88	47180.52
579.04	47000.30
579.21	46525.17
579.37	46733.48
579.53	47416.91
579.69	47098.60
579.85	46693.69
580.01	46899.65
580.17	46522.83
580.33	47047.11
580.49	47147.75
580.65	46625.81
580.82	46698.37
580.98	47019.02
581.14	47147.75
581.30	47107.96
581.46	46499.42
581.62	46782.63
581.78	46614.11
581.94	46988.60
582.10	47004.98
582.26	46932.42
582.42	47304.57
582.58	47030.72
582.74	47267.12
582.90	46913.70
583.06	47154.77
583.22	46958.17
583.38	47033.07
583.54	47379.46
583.70	46979.23
583.86	47019.02
584.02	46838.80
584.18	47349.04
584.34	47283.50
584.50	47199.24
584.66	46918.38
584.82	47597.13
584.98	47470.75
585.14	47283.50
585.30	46820.08
585.46	47056.47
585.62	47278.82
585.78	46944.12
585.94	46597.73
586.10	46972.21
586.26	46960.51
586.42	47077.54
586.58	46953.49
586.74	46677.30
586.90	47239.03
587.06	47079.88
587.22	47351.38
587.38	46883.27
587.54	47290.52
587.70	47002.64
587.86	47297.55
588.02	47145.41
588.18	47433.30
588.34	47290.52
588.49	47416.91
588.65	47201.58
588.81	47100.94
588.97	46972.21
589.13	47435.64
589.29	47475.43
589.45	47573.73
589.61	47278.82
589.77	47817.14
589.93	47318.61
590.08	47718.84
