SpectraSuite Data File
++++++++++++++++++++++++++++++++++++
Date: Fri Oct 25 11:22:35 EDT 2013
User: price-jones
Dark Spectrum Present: No
Reference Spectrum Present: No
Number of Sampled Component Spectra: 1
Spectrometers: USB2+H05261
Integration Time (usec): 100000 (USB2+H05261)
Spectra Averaged: 1 (USB2+H05261)
Boxcar Smoothing: 0 (USB2+H05261)
Correct for Electrical Dark: No (USB2+H05261)
Strobe/Lamp Enabled: No (USB2+H05261)
Correct for Detector Non-linearity: No (USB2+H05261)
Correct for Stray Light: No (USB2+H05261)
Number of Pixels in Processed Spectrum: 2048
>>>>>Begin Processed Spectral Data<<<<<
365.73	208.31
365.92	208.31
366.12	208.31
366.32	154.48
366.52	124.05
366.72	177.88
366.91	98.30
367.11	112.35
367.31	98.30
367.51	105.32
367.70	133.41
367.90	142.77
368.10	159.16
368.30	145.11
368.49	133.41
368.69	140.43
368.89	107.66
369.09	91.28
369.28	163.84
369.48	95.96
369.68	156.82
369.87	198.95
370.07	243.42
370.27	189.58
370.47	276.18
370.66	573.43
370.86	641.31
371.06	631.94
371.25	711.52
371.45	709.18
371.65	648.33
371.84	763.01
372.04	725.57
372.24	772.38
372.44	695.14
372.63	830.89
372.83	650.67
373.03	751.31
373.22	737.27
373.42	763.01
373.62	840.25
373.81	748.97
374.01	737.27
374.21	800.46
374.40	751.31
374.60	751.31
374.79	777.06
374.99	753.65
375.19	791.10
375.38	791.10
375.58	786.42
375.78	873.02
375.97	826.21
376.17	833.23
376.37	863.66
376.56	868.34
376.76	861.32
376.95	870.68
377.15	784.08
377.35	894.08
377.54	898.77
377.74	866.00
377.93	784.08
378.13	884.72
378.33	957.28
378.52	938.55
378.72	994.73
378.91	1053.24
379.11	870.68
379.31	1015.79
379.50	924.51
379.70	978.34
379.89	980.68
380.09	957.28
380.28	1032.18
380.48	1008.77
380.68	954.94
380.87	999.41
381.07	1027.50
381.26	1043.88
381.46	1043.88
381.65	1074.31
381.85	992.39
382.04	1088.35
382.24	1137.50
382.43	1041.54
382.63	1027.50
382.83	1055.58
383.02	1135.16
383.22	1153.88
383.41	1118.78
383.61	1116.44
383.80	1235.80
384.00	1064.94
384.19	1207.72
384.39	1116.44
384.58	1177.29
384.78	1226.44
384.97	1132.82
385.17	1111.75
385.36	1130.48
385.56	1160.91
385.75	1207.72
385.95	1163.25
386.14	1163.25
386.34	1266.23
386.53	1235.80
386.72	1221.76
386.92	1261.55
387.11	1320.06
387.31	1373.89
387.50	1270.91
387.70	1270.91
387.89	1263.89
388.09	1287.29
388.28	1284.95
388.48	1242.82
388.67	1270.91
388.86	1355.17
389.06	1334.11
389.25	1348.15
389.45	1308.36
389.64	1317.72
389.84	1401.98
390.03	1348.15
390.22	1317.72
390.42	1371.55
390.61	1387.94
390.81	1387.94
391.00	1369.21
391.19	1481.56
391.39	1441.77
391.58	1444.11
391.78	1481.56
391.97	1439.43
392.16	1521.35
392.36	1535.39
392.55	1575.18
392.75	1533.05
392.94	1533.05
393.13	1612.63
393.33	1465.18
393.52	1579.86
393.71	1584.54
393.91	1654.76
394.10	1551.78
394.29	1654.76
394.49	1640.72
394.68	1664.12
394.88	1568.16
395.07	1626.67
395.26	1596.25
395.46	1657.10
395.65	1771.79
395.84	1624.33
396.04	1844.34
396.23	1767.10
396.42	1720.29
396.62	1856.04
396.81	1872.43
397.00	1792.85
397.19	1741.36
397.39	1825.62
397.58	1851.36
397.77	1785.83
397.97	1944.99
398.16	1907.54
398.35	1961.37
398.55	1886.47
398.74	1912.22
398.93	1963.71
399.12	1874.77
399.32	1877.11
399.51	1966.05
399.70	2015.20
399.90	2040.95
400.09	1898.17
400.28	2062.01
400.47	1966.05
400.67	2022.22
400.86	2036.27
401.05	2176.70
401.24	2118.18
401.44	2141.59
401.63	2216.49
401.82	2008.18
402.01	2080.74
402.21	2176.70
402.40	2179.04
402.59	2225.85
402.78	2321.81
402.97	2129.89
403.17	2204.78
403.36	2291.38
403.55	2345.22
403.74	2340.54
403.93	2370.96
404.13	2385.01
404.32	2406.07
404.51	2513.74
404.70	2420.11
404.89	2275.00
405.09	2476.29
405.28	2530.12
405.47	2478.63
405.66	2548.84
405.85	2462.24
406.05	2548.84
406.24	2649.49
406.43	2509.05
406.62	2579.27
406.81	2562.89
407.00	2626.08
407.20	2588.63
407.39	2607.36
407.58	2640.12
407.77	2771.19
407.96	2757.15
408.15	2771.19
408.34	2750.13
408.54	2806.30
408.73	2731.41
408.92	2888.22
409.11	2843.75
409.30	2925.67
409.49	2906.95
409.68	2876.52
409.87	3014.61
410.07	2995.89
410.26	2972.48
410.45	3007.59
410.64	3131.64
410.83	3061.42
411.02	3089.51
411.21	3199.51
411.40	3007.59
411.59	3141.00
411.78	3166.74
411.98	3173.77
412.17	3183.13
412.36	3407.82
412.55	3304.84
412.74	3412.50
412.93	3466.33
413.12	3449.95
413.31	3529.53
413.50	3613.79
413.69	3459.31
413.88	3634.85
414.07	3758.90
414.26	3576.34
414.45	3578.68
414.64	3700.39
414.83	3754.22
415.02	3796.35
415.22	3772.94
415.41	3840.82
415.60	3868.91
415.79	4009.34
415.98	3913.38
416.17	3946.14
416.36	3943.80
416.55	3962.53
416.74	4114.66
416.93	3983.59
417.12	4112.32
417.31	4119.34
417.50	4243.39
417.69	4325.31
417.88	4320.63
418.07	4280.84
418.26	4212.96
418.45	4224.67
418.64	4432.97
418.83	4428.29
419.02	4470.42
419.21	4512.55
419.39	4472.76
419.58	4685.75
419.77	4599.15
419.96	4510.21
420.15	4667.03
420.34	4615.54
420.53	4559.36
420.72	4660.01
420.91	4702.14
421.10	4676.39
421.29	4788.74
421.48	4599.15
421.67	4905.76
421.86	4816.82
422.05	4844.91
422.24	4894.06
422.43	4943.21
422.61	4865.97
422.80	4947.89
422.99	4964.28
423.18	4903.42
423.37	4858.95
423.56	4933.85
423.75	5046.20
423.94	4926.83
424.13	4713.84
424.32	4805.12
424.50	4985.34
424.69	5231.10
424.88	5074.28
425.07	5022.79
425.26	4943.21
425.45	5015.77
425.64	4873.00
425.83	4973.64
426.01	5097.69
426.20	4992.36
426.39	5076.62
426.58	5198.33
426.77	5132.79
426.96	5181.95
427.15	5076.62
427.33	5160.88
427.52	5247.48
427.71	5308.34
427.90	5313.02
428.09	5259.18
428.28	5425.36
428.46	5542.39
428.65	5348.12
428.84	5526.00
429.03	5645.37
429.22	5378.55
429.40	5675.80
429.59	5607.92
429.78	5313.02
429.97	5387.91
430.16	5493.24
430.34	5500.26
430.53	5881.77
430.72	5584.52
430.91	5612.60
431.10	5746.02
431.28	5802.19
431.47	5909.85
431.66	5849.00
431.85	5884.11
432.03	5954.32
432.22	6148.59
432.41	5919.21
432.60	5841.98
432.79	5785.80
432.97	6052.63
433.16	6244.55
433.35	5900.49
433.54	6169.65
433.72	6085.39
433.91	6136.88
434.10	6174.33
434.28	6183.70
434.47	6186.04
434.66	6324.13
434.85	6321.79
435.03	6204.76
435.22	6420.09
435.41	6569.88
435.59	6478.60
435.78	6249.23
435.97	6483.28
436.16	6565.20
436.34	6553.50
436.53	6773.51
436.72	6572.22
436.90	6513.71
437.09	6689.25
437.28	6679.89
437.46	6782.87
437.65	6946.71
437.84	6717.34
438.02	6691.59
438.21	6906.92
438.40	6846.07
438.58	7012.24
438.77	6930.33
438.96	7045.01
439.14	7152.68
439.33	7201.83
439.52	7283.75
439.70	7492.05
439.89	7452.27
440.08	7480.35
440.26	7590.36
440.45	7438.22
440.63	7515.46
440.82	7613.76
441.01	7569.29
441.19	7459.29
441.38	7728.45
441.57	7859.52
441.75	7976.55
441.94	8152.09
442.12	7967.18
442.31	8044.42
442.50	8112.30
442.68	7978.89
442.87	8201.24
443.05	8196.56
443.24	8341.67
443.43	8135.70
443.61	8217.62
443.80	8456.36
443.98	8056.12
444.17	8109.96
444.35	8388.48
444.54	8421.25
444.73	8493.80
444.91	8269.11
445.10	8360.39
445.28	8290.18
445.47	8395.50
445.65	8505.51
445.84	8489.12
446.02	8404.86
446.21	8351.03
446.39	8676.37
446.58	8575.72
446.77	8561.68
446.95	8290.18
447.14	8470.40
447.32	8692.75
447.51	8416.57
447.69	8468.06
447.88	8592.11
448.06	8645.94
448.25	8617.85
448.43	8795.73
448.62	8564.02
448.80	8683.39
448.99	8990.00
449.17	8798.07
449.36	8805.10
449.54	8828.50
449.73	8837.86
449.91	9221.71
450.10	9224.05
450.28	9184.26
450.46	9064.89
450.65	9083.62
450.83	9135.11
451.02	9149.15
451.20	9357.46
451.39	9188.94
451.57	9057.87
451.76	9235.75
451.94	9261.50
452.13	9483.85
452.31	9380.87
452.49	9324.69
452.68	9476.83
452.86	9460.45
453.05	9448.74
453.23	9570.45
453.42	9373.85
453.60	9324.69
453.78	9738.97
453.97	9696.84
454.15	9701.52
454.34	9488.53
454.52	9528.32
454.70	9652.37
454.89	9860.68
455.07	9729.61
455.26	10050.26
455.44	10221.12
455.62	9879.40
455.81	9973.02
455.99	10115.80
456.17	10272.61
456.36	10003.45
456.54	10183.67
456.73	10431.77
456.91	10513.69
457.09	10597.95
457.28	10604.97
457.46	10609.65
457.64	10604.97
457.83	10719.65
458.01	10480.92
458.19	10827.32
458.38	10789.87
458.56	10750.08
458.74	10768.80
458.93	10874.13
459.11	10883.49
459.29	10832.00
459.48	11007.54
459.66	10752.42
459.84	11091.80
460.03	11353.94
460.21	11023.92
460.39	10827.32
460.57	11126.91
460.76	11140.95
460.94	11332.87
461.12	11496.71
461.31	11339.90
461.49	11262.66
461.67	11262.66
461.85	11660.55
462.04	11435.86
462.22	12009.29
462.40	11777.58
462.59	11494.37
462.77	11545.86
462.95	11791.62
463.13	11501.39
463.32	11906.31
463.50	11962.48
463.68	11887.58
463.86	11969.50
464.05	11866.52
464.23	11852.47
464.41	12126.32
464.59	11829.07
464.78	12081.85
464.96	12039.72
465.14	11957.80
465.32	11990.56
465.50	12187.17
465.69	12285.47
465.87	12418.88
466.05	12222.28
466.23	12397.82
466.41	12156.74
466.60	12526.55
466.78	12397.82
466.96	12568.68
467.14	12477.40
467.32	12336.96
467.51	12636.55
467.69	12601.44
467.87	12666.98
468.05	12545.27
468.23	12629.53
468.41	12482.08
468.60	12933.80
468.78	12968.91
468.96	12491.44
469.14	12917.42
469.32	13322.33
469.50	12781.67
469.69	13118.70
469.87	13252.11
470.05	13104.66
470.23	13221.69
470.41	13411.27
470.59	13308.29
470.77	13165.51
470.95	13139.77
471.14	13465.10
471.32	13399.57
471.50	13493.19
471.68	13795.12
471.86	13738.94
472.04	13970.66
472.22	14326.42
472.40	14019.81
472.58	13877.04
472.77	14193.01
472.95	14183.65
473.13	14752.40
473.31	14375.57
473.49	14155.56
473.67	14279.61
473.85	14384.93
474.03	14815.59
474.21	14700.90
474.39	14925.60
474.57	14813.25
474.75	15122.20
474.93	15077.73
475.12	14988.79
475.30	15349.23
475.48	15374.98
475.66	15461.58
475.84	15328.17
476.02	15690.95
476.20	15552.86
476.38	15922.66
476.56	16135.65
476.74	15910.96
476.92	16011.60
477.10	15866.49
477.28	16397.79
477.46	16400.13
477.64	16599.08
477.82	16720.79
478.00	17186.55
478.18	16917.39
478.36	17252.09
478.54	17516.57
478.72	17488.48
478.90	17518.91
479.08	17956.59
479.26	17926.16
479.44	17680.41
479.62	18101.70
479.80	18321.71
479.98	18515.98
480.16	18829.61
480.34	18464.49
480.52	18654.07
480.70	18789.82
480.88	18799.18
481.06	18810.89
481.24	19197.07
481.41	19426.45
481.59	19702.63
481.77	19655.82
481.95	19735.40
482.13	19847.74
482.31	19875.83
482.49	20372.02
482.67	20493.73
482.85	20854.17
483.03	20884.60
483.21	21039.08
483.39	21090.57
483.57	21055.46
483.74	21305.90
483.92	21455.69
484.10	21692.08
484.28	21893.37
484.46	22195.30
484.64	22434.03
484.82	22494.89
485.00	22731.28
485.18	22511.27
485.35	22930.23
485.53	23105.77
485.71	23278.97
485.89	23721.33
486.07	23913.25
486.25	23821.97
486.43	23683.88
486.61	23960.06
486.78	24229.23
486.96	24592.01
487.14	24945.43
487.32	24875.21
487.50	24884.58
487.68	25586.74
487.85	25465.03
488.03	25542.27
488.21	26230.38
488.39	26031.44
488.57	26120.38
488.75	26670.40
488.92	26618.91
489.10	26909.14
489.28	26962.97
489.46	27290.65
489.64	27442.78
489.81	28208.14
489.99	27630.02
490.17	27990.47
490.35	28306.44
490.53	28318.14
490.70	28643.48
490.88	28493.68
491.06	29125.63
491.24	28622.41
491.41	28964.13
491.59	29722.46
491.77	29874.60
491.95	30148.44
492.13	30019.71
492.30	30490.16
492.48	30092.27
492.66	30450.37
492.84	30326.32
493.01	31040.18
493.19	30897.41
493.37	31161.89
493.54	31295.30
493.72	32240.88
493.90	31690.85
494.08	31908.52
494.25	32671.54
494.43	32123.85
494.61	32357.91
494.79	32680.90
494.96	32744.09
495.14	32987.51
495.32	33205.18
495.49	33380.72
495.67	33399.44
495.85	33862.87
496.02	34057.14
496.20	34129.69
496.38	34288.85
496.55	34227.99
496.73	34962.92
496.91	34944.20
497.09	35194.64
497.26	35250.81
497.44	35215.70
497.62	35775.09
497.79	36163.62
497.97	35873.39
498.14	36208.09
498.32	36334.48
498.50	36430.44
498.67	36980.46
498.85	36928.97
499.03	37186.43
499.20	36802.58
499.38	36760.45
499.56	37331.54
499.73	37530.49
499.91	37565.60
500.08	37649.86
500.26	37696.67
500.44	37806.67
500.61	38361.38
500.79	37703.69
500.97	38576.71
501.14	39187.59
501.32	38841.19
501.49	38937.15
501.67	39129.08
501.84	39576.12
502.02	39651.02
502.20	39791.45
502.37	39885.07
502.55	39491.86
502.72	39754.00
502.90	39945.92
503.07	39817.19
503.25	40137.85
503.43	39985.71
503.60	40765.11
503.78	40470.20
503.95	40697.24
504.13	40704.26
504.30	40643.40
504.48	40975.76
504.65	41244.92
504.83	41090.44
505.01	41563.23
505.18	41689.62
505.36	41991.55
505.53	41312.80
505.71	42267.73
505.88	42024.32
506.06	41614.72
506.23	42529.87
506.41	42330.93
506.58	42457.32
506.76	42281.78
506.93	42651.58
507.11	42820.10
507.28	42880.95
507.46	43164.16
507.63	43388.85
507.81	43557.37
507.98	43248.42
508.16	43667.37
508.33	44215.06
508.50	43765.68
508.68	44023.14
508.85	44610.61
509.03	43959.94
509.20	44289.96
509.38	44849.35
509.55	44968.71
509.73	44905.52
509.90	44858.71
510.08	45017.86
510.25	44762.75
510.42	45062.33
510.60	45776.20
510.77	45783.22
510.95	45858.12
511.12	45397.03
511.30	45387.67
511.47	45708.32
511.64	45677.90
511.82	46478.36
511.99	46237.28
512.17	46199.83
512.34	45996.21
512.51	47009.66
512.69	46644.54
512.86	47056.47
513.04	47171.16
513.21	46916.04
513.38	46773.27
513.56	46944.12
513.73	47065.83
513.90	47716.50
514.08	46958.17
514.25	47985.66
514.43	47601.82
514.60	47702.46
514.77	47569.05
514.95	48053.54
515.12	48147.16
515.29	47817.14
515.47	48257.17
515.64	48633.99
515.81	48378.87
515.99	48566.12
516.16	49076.35
516.33	48811.87
516.51	48992.09
516.68	49020.18
516.85	48992.09
517.03	49153.59
517.20	49354.88
517.37	49324.45
517.54	49279.98
517.72	49481.27
517.89	49134.87
518.06	49462.54
518.24	49993.84
518.41	49773.83
518.58	49624.04
518.75	49546.80
518.93	49750.43
519.10	49876.82
519.27	50082.78
519.45	49682.55
519.62	50099.17
519.79	50314.50
519.96	50237.26
520.14	50574.30
520.31	50120.23
520.48	50908.99
520.65	50483.01
520.83	51089.21
521.00	50852.82
521.17	50906.65
521.34	50733.45
521.52	51021.34
521.69	51339.65
521.86	51320.93
522.03	51512.85
522.20	51538.60
522.38	51882.66
522.55	51679.03
522.72	51765.63
522.89	51793.71
523.07	52383.53
523.24	51983.30
523.41	52016.07
523.58	51676.69
523.75	52097.98
523.92	52200.97
524.10	52610.56
524.27	52109.69
524.44	52580.13
524.61	52411.62
524.78	52549.71
524.96	52507.58
525.13	52428.00
525.30	52687.80
525.47	52781.42
525.64	52802.49
525.81	52924.19
525.98	52743.97
526.16	53020.16
526.33	53045.90
526.50	53392.30
526.67	53216.76
526.84	53050.58
527.01	53223.78
527.18	52961.64
527.36	53226.12
527.53	53240.17
527.70	53762.11
527.87	53544.44
528.04	53333.79
528.21	53673.16
528.38	53642.74
528.55	54012.54
528.72	53645.08
528.89	53631.04
529.07	53808.92
529.24	53727.00
529.41	53829.98
529.58	53659.12
529.75	53677.85
529.92	54057.01
530.09	54082.76
530.26	54101.48
530.43	53951.69
530.60	53932.96
530.77	54335.54
530.94	54106.16
531.11	53968.07
531.28	54284.04
531.46	54478.31
531.63	54646.83
531.80	54630.44
531.97	54688.96
532.14	54703.00
532.31	54457.24
532.48	54824.71
532.65	54904.29
532.82	54609.38
532.99	55199.19
533.16	54805.98
533.33	54756.83
533.50	55451.97
533.67	55241.32
533.84	55002.59
534.01	55271.75
534.18	55150.04
534.35	55646.24
534.52	55267.07
534.69	55458.99
534.86	55470.70
535.03	55381.76
535.20	55789.01
535.37	55370.05
535.54	55557.30
535.71	55494.10
535.88	55870.93
536.05	55723.47
536.22	56104.98
536.38	56004.34
536.55	55826.46
536.72	55861.57
536.89	55917.74
537.06	55924.76
537.23	56011.36
537.40	55707.09
537.57	56041.79
537.74	56114.34
537.91	56030.08
538.08	56016.04
538.25	56011.36
538.42	56149.45
538.59	56584.79
538.75	56378.82
538.92	56210.31
539.09	56535.64
539.26	56453.72
539.43	56442.02
539.60	56540.32
539.77	56432.66
539.94	56683.09
540.11	56530.96
540.28	56626.92
540.44	56676.07
540.61	56643.30
540.78	56530.96
540.95	56612.88
541.12	56793.10
541.29	56615.22
541.46	56736.93
541.62	56732.25
541.79	56743.95
541.96	56540.32
542.13	56807.14
542.30	56999.07
542.47	57095.03
542.63	57120.77
542.80	56914.81
542.97	57333.76
543.14	57387.60
543.31	57441.43
543.48	57560.79
543.64	57869.75
543.81	57815.91
543.98	57375.89
544.15	57476.54
544.32	57673.14
544.48	57736.34
544.65	57591.22
544.82	57712.93
544.99	57474.20
545.16	57846.34
545.32	57549.09
545.49	57904.85
545.66	57895.49
545.83	57820.59
546.00	57954.00
546.16	57855.70
546.33	57900.17
546.50	57698.89
546.67	58019.54
546.83	57668.46
547.00	57972.73
547.17	57946.98
547.34	58220.83
547.50	58078.05
547.67	58562.54
547.84	58272.32
548.00	58134.23
548.17	58417.43
548.34	58246.57
548.51	58595.31
548.67	58574.25
548.84	58379.98
549.01	58274.66
549.18	58298.06
549.34	58419.77
549.51	58241.89
549.68	58665.53
549.84	58637.44
550.01	58639.78
550.18	58417.43
550.34	58571.91
550.51	58824.68
550.68	58574.25
550.84	58450.20
551.01	58859.79
551.18	58550.84
551.34	58761.49
551.51	58789.58
551.68	58845.75
551.84	58782.55
552.01	58691.27
552.18	58897.24
552.34	58742.77
552.51	58939.37
552.68	58796.60
552.84	58941.71
553.01	59330.24
553.18	58946.39
553.34	59295.13
553.51	58958.09
553.67	58990.86
553.84	59238.96
554.01	59021.29
554.17	59386.41
554.34	59199.17
554.51	59250.66
554.67	59056.40
554.84	59194.49
555.00	59192.15
555.17	59264.70
555.33	59355.99
555.50	58939.37
555.67	59215.55
555.83	59320.88
556.00	59257.68
556.16	59641.53
556.33	59700.04
556.50	59465.99
556.66	59774.94
556.83	59367.69
556.99	59632.17
557.16	59927.08
557.32	59639.19
557.49	59973.89
557.65	59557.27
557.82	59592.38
557.98	59753.88
558.15	59756.22
558.32	59688.34
558.48	59627.49
558.65	59599.40
558.81	59444.93
558.98	59875.58
559.14	59700.04
559.31	59718.77
559.47	59971.55
559.64	59824.09
559.80	59842.82
559.97	60109.64
560.13	59718.77
560.30	60037.08
560.46	59955.16
560.63	59887.29
560.79	60053.47
560.96	60168.15
561.12	60170.49
561.29	60179.85
561.45	60137.72
561.61	60130.70
561.78	60062.83
561.94	59990.27
562.11	60081.55
562.27	60086.23
562.44	60170.49
562.60	60254.75
562.77	60177.51
562.93	60011.34
563.10	60341.35
563.26	59964.52
563.42	60425.61
563.59	60315.61
563.75	60219.64
563.92	60170.49
564.08	60214.96
564.24	60343.69
564.41	60402.21
564.57	60259.43
564.74	60367.10
564.90	60563.70
565.07	60432.63
565.23	60416.25
565.39	60402.21
565.56	60268.79
565.72	60257.09
565.88	60535.62
566.05	60556.68
566.21	60360.08
566.38	60444.33
566.54	60467.74
566.70	60631.58
566.87	60617.53
567.03	60266.45
567.19	60704.13
567.36	60491.15
567.52	60526.25
567.68	60601.15
567.85	60683.07
568.01	60727.54
568.17	60334.33
568.34	60910.10
568.50	60659.66
568.66	60523.91
568.83	60638.60
568.99	60432.63
569.15	60734.56
569.32	60603.49
569.48	60671.37
569.64	60746.26
569.81	60617.53
569.97	60615.19
570.13	60757.97
570.30	60760.31
570.46	60629.24
570.62	60992.02
570.78	60732.22
570.95	60734.56
571.11	60647.96
571.27	60905.42
571.43	60760.31
571.60	61048.19
571.76	60767.33
571.92	60823.50
572.09	60685.41
572.25	60935.85
572.41	60727.54
572.57	60828.18
572.74	60931.17
572.90	61006.06
573.06	60835.20
573.22	60912.44
573.38	60924.14
573.55	60907.76
573.71	61160.54
573.87	60996.70
574.03	60706.47
574.20	60856.27
574.36	60961.59
574.52	61003.72
574.68	60889.04
574.84	61066.92
575.01	61062.24
575.17	61010.74
575.33	60821.16
575.49	60802.44
575.65	61036.49
575.82	60828.18
575.98	60856.27
576.14	61167.56
576.30	61092.66
576.46	61024.79
576.62	60940.53
576.79	61179.26
576.95	60839.89
577.11	61050.53
577.27	61020.11
577.43	61113.73
577.59	60935.85
577.75	60823.50
577.92	61027.13
578.08	61087.98
578.24	61104.37
578.40	61080.96
578.56	60961.59
578.72	61024.79
578.88	61277.57
579.04	61190.97
579.21	60956.91
579.37	60966.27
579.53	61296.29
579.69	61073.94
579.85	61034.15
580.01	61106.71
580.17	61080.96
580.33	61099.68
580.49	61118.41
580.65	61085.64
580.82	60860.95
580.98	61132.45
581.14	61015.43
581.30	61041.17
581.46	61258.84
581.62	61305.65
581.78	61083.30
581.94	61296.29
582.10	61087.98
582.26	61076.28
582.42	61282.25
582.58	61116.07
582.74	61017.77
582.90	60982.66
583.06	61036.49
583.22	61029.47
583.38	61202.67
583.54	61265.86
583.70	61118.41
583.86	61230.75
584.02	61031.81
584.18	61336.08
584.34	61214.37
584.50	61209.69
584.66	61038.83
584.82	61120.75
584.98	61148.84
585.14	61478.85
585.30	60973.30
585.46	61118.41
585.62	61151.18
585.78	61174.58
585.94	60940.53
586.10	61277.57
586.26	61268.20
586.42	61249.48
586.58	61247.14
586.74	61144.16
586.90	61130.11
587.06	61228.41
587.22	61467.15
587.38	61322.04
587.54	61551.41
587.70	61357.14
587.86	61366.51
588.02	61275.22
588.18	61427.36
588.34	61380.55
588.49	61375.87
