SpectraSuite Data File
++++++++++++++++++++++++++++++++++++
Date: Fri Oct 25 11:23:15 EDT 2013
User: price-jones
Dark Spectrum Present: No
Reference Spectrum Present: No
Number of Sampled Component Spectra: 1
Spectrometers: USB2+H05261
Integration Time (usec): 100000 (USB2+H05261)
Spectra Averaged: 1 (USB2+H05261)
Boxcar Smoothing: 0 (USB2+H05261)
Correct for Electrical Dark: No (USB2+H05261)
Strobe/Lamp Enabled: No (USB2+H05261)
Correct for Detector Non-linearity: No (USB2+H05261)
Correct for Stray Light: No (USB2+H05261)
Number of Pixels in Processed Spectrum: 2048
>>>>>Begin Processed Spectral Data<<<<<
365.73	194.26
365.92	194.26
366.12	194.26
366.32	145.11
366.52	140.43
366.72	67.88
366.91	187.24
367.11	98.30
367.31	74.90
367.51	119.37
367.70	28.09
367.90	100.64
368.10	100.64
368.30	133.41
368.49	133.41
368.69	243.42
368.89	198.95
369.09	173.20
369.28	110.01
369.48	168.52
369.68	187.24
369.87	203.63
370.07	163.84
370.27	241.08
370.47	325.33
370.66	566.41
370.86	636.63
371.06	741.95
371.25	734.93
371.45	695.14
371.65	601.52
371.84	690.46
372.04	641.31
372.24	753.65
372.44	741.95
372.63	706.84
372.83	711.52
373.03	788.76
373.22	784.08
373.42	770.04
373.62	751.31
373.81	781.74
374.01	809.83
374.21	863.66
374.40	772.38
374.60	856.64
374.79	767.70
374.99	880.04
375.19	887.06
375.38	821.53
375.58	809.83
375.78	835.57
375.97	828.55
376.17	954.94
376.37	816.85
376.56	870.68
376.76	880.04
376.95	866.00
377.15	866.00
377.35	898.77
377.54	870.68
377.74	828.55
377.93	882.38
378.13	947.92
378.33	954.94
378.52	933.87
378.72	954.94
378.91	840.25
379.11	891.74
379.31	980.68
379.50	861.32
379.70	985.37
379.89	971.32
380.09	889.40
380.28	945.58
380.48	1015.79
380.68	1060.26
380.87	954.94
381.07	1025.15
381.26	1060.26
381.46	1081.33
381.65	1036.86
381.85	1004.09
382.04	1151.54
382.24	1043.88
382.43	1104.73
382.63	1097.71
382.83	983.02
383.02	1165.59
383.22	1104.73
383.41	1036.86
383.61	1027.50
383.80	1163.25
384.00	1142.18
384.19	1048.56
384.39	1130.48
384.58	1076.65
384.78	1219.42
384.97	1245.16
385.17	1219.42
385.36	1128.14
385.56	1116.44
385.75	1146.86
385.95	1130.48
386.14	1205.38
386.34	1217.08
386.53	1212.40
386.72	1282.61
386.92	1252.19
387.11	1270.91
387.31	1221.76
387.50	1207.72
387.70	1240.48
387.89	1238.14
388.09	1205.38
388.28	1371.55
388.48	1369.21
388.67	1324.74
388.86	1275.59
389.06	1383.26
389.25	1322.40
389.45	1338.79
389.64	1444.11
389.84	1348.15
390.03	1383.26
390.22	1404.32
390.42	1416.02
390.61	1425.39
390.81	1364.53
391.00	1392.62
391.19	1472.20
391.39	1425.39
391.58	1409.00
391.78	1514.33
391.97	1476.88
392.16	1476.88
392.36	1589.22
392.55	1514.33
392.75	1556.46
392.94	1469.86
393.13	1474.54
393.33	1577.52
393.52	1586.88
393.71	1701.57
393.91	1572.84
394.10	1600.93
394.29	1624.33
394.49	1570.50
394.68	1621.99
394.88	1748.38
395.07	1696.89
395.26	1647.74
395.46	1654.76
395.65	1809.23
395.84	1717.95
396.04	1732.00
396.23	1724.97
396.42	1671.14
396.62	1849.02
396.81	1699.23
397.00	1722.63
397.19	1774.13
397.39	1795.19
397.58	1860.73
397.77	1750.72
397.97	1846.68
398.16	1849.02
398.35	1937.96
398.55	1877.11
398.74	1849.02
398.93	1900.52
399.12	1902.86
399.32	1973.07
399.51	1991.80
399.70	1954.35
399.90	2012.86
400.09	1970.73
400.28	2113.50
400.47	1977.75
400.67	2001.16
400.86	2155.63
401.05	2197.76
401.24	2127.55
401.44	2160.31
401.63	2094.78
401.82	2106.48
402.01	2176.70
402.21	2209.47
402.40	2120.53
402.59	2214.15
402.78	2370.96
402.97	2258.62
403.17	2230.53
403.36	2289.04
403.55	2282.02
403.74	2422.45
403.93	2335.85
404.13	2424.80
404.32	2370.96
404.51	2373.30
404.70	2452.88
404.89	2471.61
405.09	2574.59
405.28	2487.99
405.47	2527.78
405.66	2450.54
405.85	2462.24
406.05	2480.97
406.24	2672.89
406.43	2663.53
406.62	2569.91
406.81	2633.10
407.00	2642.46
407.20	2518.42
407.39	2581.61
407.58	2700.98
407.77	2665.87
407.96	2792.26
408.15	2764.17
408.34	2724.38
408.54	2619.06
408.73	2876.52
408.92	2860.13
409.11	2825.03
409.30	2937.37
409.49	3026.31
409.68	2946.73
409.87	2984.18
410.07	3070.78
410.26	3098.87
410.45	3080.14
410.64	3077.80
410.83	3070.78
411.02	3166.74
411.21	3220.58
411.40	3192.49
411.59	3185.47
411.78	3152.70
411.98	3281.43
412.17	3265.05
412.36	3279.09
412.55	3325.90
412.74	3419.52
412.93	3485.06
413.12	3424.20
413.31	3485.06
413.50	3506.12
413.69	3559.95
413.88	3761.24
414.07	3590.38
414.26	3616.13
414.45	3688.68
414.64	3585.70
414.83	3833.80
415.02	3845.50
415.22	3845.50
415.41	3742.52
415.60	3794.01
415.79	3981.25
415.98	4189.56
416.17	4081.89
416.36	4007.00
416.55	3992.95
416.74	4121.68
416.93	4018.70
417.12	4250.41
417.31	4292.54
417.50	4184.88
417.69	4318.29
417.88	4187.22
418.07	4404.89
418.26	4306.59
418.45	4407.23
418.64	4510.21
418.83	4444.68
419.02	4468.08
419.21	4477.44
419.39	4620.22
419.58	4608.51
419.77	4442.34
419.96	4540.64
420.15	4650.64
420.34	4531.28
420.53	4652.98
420.72	4706.82
420.91	4674.05
421.10	4706.82
421.29	4898.74
421.48	4671.71
421.67	4915.12
421.86	4734.90
422.05	4835.55
422.24	4718.52
422.43	5025.13
422.61	4968.96
422.80	4952.57
422.99	4858.95
423.18	4887.04
423.37	5036.83
423.56	4959.60
423.75	5057.90
423.94	5039.17
424.13	4624.90
424.32	4798.10
424.50	4954.91
424.69	5198.33
424.88	5144.50
425.07	4997.04
425.26	4980.66
425.45	4964.28
425.64	5081.30
425.83	4964.28
426.01	5011.09
426.20	5062.58
426.39	5081.30
426.58	5177.26
426.77	4994.70
426.96	5252.16
427.15	5156.20
427.33	5331.74
427.52	5174.92
427.71	5430.04
427.90	5238.12
428.09	5472.17
428.28	5420.68
428.46	5378.55
428.65	5317.70
428.84	5589.20
429.03	5666.44
429.22	5458.13
429.40	5591.54
429.59	5376.21
429.78	5472.17
429.97	5139.82
430.16	5479.19
430.34	5526.00
430.53	5788.14
430.72	5731.97
430.91	5628.99
431.10	5579.84
431.28	5731.97
431.47	5837.30
431.66	5802.19
431.85	5912.19
432.03	5989.43
432.22	6036.24
432.41	6026.88
432.60	5994.11
432.79	6054.97
432.97	5949.64
433.16	6134.54
433.35	6071.35
433.54	6050.28
433.72	6193.06
433.91	6260.93
434.10	6359.24
434.28	6127.52
434.47	6148.59
434.66	6356.90
434.85	6553.50
435.03	6434.13
435.22	6265.61
435.41	6651.80
435.59	6480.94
435.78	6424.77
435.97	6504.35
436.16	6480.94
436.34	6511.37
436.53	6567.54
436.72	6782.87
436.90	6567.54
437.09	6846.07
437.28	6595.63
437.46	6726.70
437.65	6724.36
437.84	6768.83
438.02	6761.81
438.21	6876.49
438.40	6792.23
438.58	7098.84
438.77	7232.26
438.96	6988.84
439.14	7187.79
439.33	7328.22
439.52	7368.01
439.70	7410.14
439.89	7508.44
440.08	7445.24
440.26	7623.12
440.45	7447.58
440.63	7620.78
440.82	7742.49
441.01	7686.32
441.19	7644.19
441.38	7709.72
441.57	7927.39
441.75	7948.46
441.94	8058.46
442.12	8243.37
442.31	8182.51
442.50	8109.96
442.68	8049.10
442.87	8290.18
443.05	8051.44
443.24	8196.56
443.43	7997.61
443.61	8336.99
443.80	8421.25
443.98	8088.89
444.17	8063.15
444.35	8236.35
444.54	8365.07
444.73	8564.02
444.91	8484.44
445.10	8482.10
445.28	8472.74
445.47	8285.50
445.65	8402.52
445.84	8444.65
446.02	8432.95
446.21	8458.70
446.39	8442.31
446.58	8346.35
446.77	8437.63
446.95	8322.94
447.14	8533.59
447.32	8629.56
447.51	8575.72
447.69	8589.77
447.88	8741.90
448.06	8690.41
448.25	8542.96
448.43	8716.16
448.62	8606.15
448.80	8580.40
448.99	8791.05
449.17	8887.01
449.36	8631.90
449.54	9109.36
449.73	8854.25
449.91	8961.91
450.10	9011.06
450.28	9158.52
450.46	9146.81
450.65	9210.01
450.83	9163.20
451.02	9350.44
451.20	9114.05
451.39	9247.46
451.57	9109.36
451.76	9191.28
451.94	9451.08
452.13	9425.34
452.31	9355.12
452.49	9198.31
452.68	9291.93
452.86	9217.03
453.05	9582.15
453.23	9614.92
453.42	9427.68
453.60	9411.29
453.78	9617.26
453.97	9713.22
454.15	9673.43
454.34	9600.88
454.52	9933.23
454.70	9832.59
454.89	9839.61
455.07	9954.30
455.26	9886.42
455.44	10045.58
455.62	9891.10
455.81	10092.39
455.99	10064.30
456.17	10038.56
456.36	10111.11
456.54	10076.01
456.73	10347.51
456.91	10583.90
457.09	10782.85
457.28	10700.93
457.46	10347.51
457.64	10574.54
457.83	10614.33
458.01	10602.63
458.19	10609.65
458.38	10668.16
458.56	10743.06
458.74	10782.85
458.93	10778.17
459.11	10930.30
459.29	10995.84
459.48	10843.70
459.66	11194.78
459.84	10972.43
460.03	11087.12
460.21	11241.59
460.39	10988.82
460.57	11059.03
460.76	11297.77
460.94	11379.68
461.12	11473.31
461.31	11279.04
461.49	11304.79
461.67	11281.38
461.85	11358.62
462.04	11290.74
462.22	11538.84
462.40	11805.66
462.59	11520.12
462.77	11552.88
462.95	11960.14
463.13	11726.08
463.32	11758.85
463.50	11779.92
463.68	12133.34
463.86	12063.12
464.05	11957.80
464.23	11817.36
464.41	11843.11
464.59	11747.15
464.78	12084.19
464.96	11988.22
465.14	12219.94
465.32	11992.90
465.50	12273.77
465.69	12407.18
465.87	12215.26
466.05	12404.84
466.23	12348.67
466.41	12287.81
466.60	12842.52
466.78	11976.52
466.96	12360.37
467.14	12390.80
467.32	12514.84
467.51	12421.22
467.69	12355.69
467.87	12446.97
468.05	12683.36
468.23	12657.62
468.41	12292.49
468.60	12519.53
468.78	12821.45
468.96	12643.57
469.14	13078.91
469.32	13284.88
469.50	12615.49
469.69	13046.15
469.87	13483.83
470.05	13153.81
470.23	13167.85
470.41	13247.43
470.59	13563.40
470.77	13137.43
470.95	13408.93
471.14	13750.65
471.32	13453.40
471.50	13692.13
471.68	13848.95
471.86	13664.05
472.04	13951.93
472.22	14038.53
472.40	13886.40
472.58	14157.90
472.77	14045.55
472.95	14370.89
473.13	14743.03
473.31	14249.18
473.49	14307.69
473.67	14134.50
473.85	14420.04
474.03	14640.05
474.21	14494.94
474.39	14939.64
474.57	14834.32
474.75	14857.72
474.93	15384.34
475.12	14899.85
475.30	15215.82
475.48	15349.23
475.66	15262.63
475.84	15393.70
476.02	15302.42
476.20	15456.90
476.38	15995.22
476.56	16269.06
476.74	16123.95
476.92	16147.36
477.10	15798.62
477.28	16664.61
477.46	16554.61
477.64	16430.56
477.82	16711.42
478.00	17055.48
478.18	16840.15
478.36	16994.63
478.54	16978.25
478.72	17455.72
478.90	17710.83
479.08	17518.91
479.26	17837.22
479.44	18019.78
479.62	18190.64
479.80	18136.81
479.98	18389.59
480.16	18747.69
480.34	18274.90
480.52	18773.44
480.70	18745.35
480.88	18602.58
481.06	18906.85
481.24	18986.43
481.41	19213.46
481.59	19735.40
481.77	19585.60
481.95	19697.95
482.13	20231.59
482.31	19765.82
482.49	20540.54
482.67	20542.88
482.85	20367.34
483.03	20746.51
483.21	20807.36
483.39	21355.05
483.57	20858.85
483.74	21357.39
483.92	21565.70
484.10	21546.97
484.28	21916.78
484.46	22270.20
484.64	22560.42
484.82	22302.96
485.00	22562.76
485.18	22897.46
485.35	22941.93
485.53	23197.05
485.71	23428.76
485.89	23695.58
486.07	23255.56
486.25	24091.13
486.43	23697.92
486.61	24168.37
486.78	24271.36
486.96	24491.37
487.14	24835.42
487.32	25095.22
487.50	25001.60
487.68	25205.23
487.85	25443.96
488.03	25610.14
488.21	25748.23
488.39	26075.91
488.57	26789.77
488.75	26143.78
488.92	26845.94
489.10	26888.07
489.28	26874.03
489.46	27580.87
489.64	27400.65
489.81	27606.62
489.99	27857.06
490.17	28023.23
490.35	28505.38
490.53	28268.99
490.70	28657.52
490.88	28790.93
491.06	29207.55
491.24	29111.58
491.41	29163.08
491.59	29626.50
491.77	29521.18
491.95	29890.98
492.13	30094.61
492.30	30464.41
492.48	30431.65
492.66	30405.90
492.84	30342.70
493.01	30906.77
493.19	30820.17
493.37	31012.10
493.54	31517.65
493.72	31737.66
493.90	31732.98
494.08	32046.62
494.25	32287.69
494.43	32292.37
494.61	32554.51
494.79	32676.22
494.96	32818.99
495.14	32809.63
495.32	33017.94
495.49	33481.36
495.67	33680.31
495.85	33759.89
496.02	34026.71
496.20	34501.84
496.38	34153.10
496.55	34436.30
496.73	35005.05
496.91	34794.40
497.09	35283.58
497.26	35321.02
497.44	35566.78
497.62	35716.58
497.79	35990.42
497.97	35908.50
498.14	36039.57
498.32	36704.28
498.50	36559.17
498.67	37219.20
498.85	36842.37
499.03	37074.09
499.20	37034.30
499.38	37493.04
499.56	37404.10
499.73	37523.47
499.91	37944.76
500.08	37886.25
500.26	37689.65
500.44	38202.22
500.61	38153.07
500.79	37834.76
500.97	38539.26
501.14	38583.73
501.32	39047.16
501.49	38995.67
501.67	39124.40
501.84	39442.71
502.02	39042.48
502.20	39166.52
502.37	39512.92
502.55	39739.96
502.72	39693.15
502.90	39880.39
503.07	39658.04
503.25	39959.97
503.43	40095.72
503.60	40294.66
503.78	40807.24
503.95	40751.07
504.13	40821.28
504.30	40779.15
504.48	40889.16
504.65	40968.74
504.83	41027.25
505.01	41310.46
505.18	41654.51
505.36	41890.91
505.53	41713.03
505.71	42405.83
505.88	42403.49
506.06	42064.11
506.23	42368.38
506.41	42361.36
506.58	42438.59
506.76	42831.80
506.93	42394.12
507.11	42541.58
507.28	42777.97
507.46	43075.22
507.63	43349.06
507.81	43402.89
507.98	43313.95
508.16	43606.52
508.33	43845.26
508.50	44369.54
508.68	44154.21
508.85	43873.34
509.03	43824.19
509.20	44381.24
509.38	44673.81
509.55	44898.50
509.73	44755.72
509.90	45045.95
510.08	45069.36
510.25	44456.14
510.42	45228.51
510.60	45495.33
510.77	45581.93
510.95	45956.42
511.12	45268.30
511.30	45457.88
511.47	46358.99
511.64	45801.94
511.82	46021.95
511.99	46335.59
512.17	46382.40
512.34	46586.02
512.51	46373.03
512.69	47082.22
512.86	46677.30
513.04	46981.57
513.21	47119.66
513.38	47007.32
513.56	47297.55
513.73	47239.03
513.90	47271.80
514.08	47320.95
514.25	47737.57
514.43	47683.73
514.60	47494.15
514.77	47578.41
514.95	48126.10
515.12	47812.46
515.29	47714.16
515.47	48072.26
515.64	48240.78
515.81	47812.46
515.99	48566.12
516.16	48863.36
516.33	48322.70
516.51	49022.52
516.68	48821.23
516.85	49137.21
517.03	49450.84
517.20	49319.77
517.37	49228.49
517.54	49340.83
517.72	49532.76
517.89	49710.64
518.06	49488.29
518.24	49617.02
518.41	49783.19
518.58	49958.73
518.75	49504.67
518.93	50019.59
519.10	49928.31
519.27	50003.20
519.45	50380.03
519.62	50403.44
519.79	50515.78
519.96	50216.19
520.14	50349.60
520.31	50408.12
520.48	50525.14
520.65	50459.61
520.83	50810.69
521.00	51040.06
521.17	51035.38
521.34	50770.90
521.52	51185.18
521.69	51229.65
521.86	51356.03
522.03	51543.28
522.20	51732.86
522.38	51866.27
522.55	51983.30
522.72	51774.99
522.89	51634.56
523.07	52207.99
523.24	51774.99
523.41	52229.05
523.58	51552.64
523.75	52090.96
523.92	52079.26
524.10	52245.44
524.27	52341.40
524.44	52460.77
524.61	52442.04
524.78	52388.21
524.96	52519.28
525.13	52416.30
525.30	52687.80
525.47	52861.00
525.64	52547.37
525.81	53055.26
525.98	52952.28
526.16	52776.74
526.33	52776.74
526.50	53396.98
526.67	53291.66
526.84	53247.19
527.01	52989.73
527.18	53528.05
527.36	53230.80
527.53	53223.78
527.70	53579.54
527.87	53425.07
528.04	53478.90
528.21	53502.31
528.38	53736.36
528.55	53860.41
528.72	53563.16
528.89	53654.44
529.07	53722.32
529.24	53432.09
529.41	53914.24
529.58	53911.90
529.75	54171.70
529.92	53902.54
530.09	53914.24
530.26	54328.52
530.43	54396.39
530.60	54157.66
530.77	54389.37
530.94	54227.87
531.11	54197.44
531.28	54492.35
531.46	54300.43
531.63	54475.97
531.80	54403.41
531.97	54492.35
532.14	54857.48
532.31	54880.88
532.48	54731.09
532.65	54986.21
532.82	54908.97
532.99	54876.20
533.16	55004.93
533.33	55220.26
533.50	55234.30
533.67	55182.81
533.84	54768.54
534.01	55253.03
534.18	55229.62
534.35	55531.55
534.52	55365.37
534.69	55576.02
534.86	55641.56
535.03	55363.03
535.20	55341.97
535.37	55576.02
535.54	55810.07
535.71	55409.84
535.88	55842.84
536.05	55702.41
536.22	55814.76
536.38	56205.62
536.55	55714.11
536.72	55896.67
536.89	55948.17
537.06	56032.42
537.23	56112.00
537.40	55599.43
537.57	55760.92
537.74	55969.23
537.91	56116.68
538.08	55920.08
538.25	56039.45
538.42	56247.75
538.59	56360.10
538.75	56207.97
538.92	56385.85
539.09	56371.80
539.26	56355.42
539.43	56451.38
539.60	56381.16
539.77	56580.11
539.94	56596.49
540.11	56633.94
540.28	56647.99
540.44	57006.09
540.61	56690.12
540.78	56444.36
540.95	56690.12
541.12	56725.22
541.29	56725.22
541.46	56961.62
541.62	56779.06
541.79	56877.36
541.96	56685.43
542.13	56860.97
542.30	56830.55
542.47	57223.76
542.63	57144.18
542.80	57219.08
542.97	57237.80
543.14	57471.85
543.31	57275.25
543.48	57584.20
543.64	57411.00
543.81	57457.81
543.98	57619.31
544.15	57710.59
544.32	57883.79
544.48	57680.16
544.65	57546.75
544.82	57691.86
544.99	57455.47
545.16	57710.59
545.32	57645.05
545.49	57780.81
545.66	58042.95
545.83	58042.95
546.00	57993.79
546.16	58028.90
546.33	57710.59
546.50	57865.06
546.67	58185.72
546.83	57612.29
547.00	58019.54
547.17	58033.58
547.34	58209.12
547.50	58143.59
547.67	57975.07
547.84	58422.11
548.00	58485.31
548.17	58403.39
548.34	58122.52
548.51	58375.30
548.67	58564.88
548.84	58452.54
549.01	58206.78
549.18	58192.74
549.34	58504.03
549.51	58513.39
549.68	58431.47
549.84	58520.41
550.01	58651.48
550.18	58372.96
550.34	58461.90
550.51	58721.70
550.68	58616.38
550.84	58480.63
551.01	58766.17
551.18	58885.54
551.34	58677.23
551.51	58599.99
551.68	58798.94
551.84	58869.15
552.01	58719.36
552.18	58930.01
552.34	58901.92
552.51	59044.69
552.68	58775.53
552.84	58904.26
553.01	59159.38
553.18	59002.56
553.34	59058.74
553.51	58953.41
553.67	58911.28
553.84	58969.80
554.01	58946.39
554.17	59320.88
554.34	59334.92
554.51	59040.01
554.67	59288.11
554.84	59283.43
555.00	59355.99
555.17	59110.23
555.33	59126.61
555.50	59040.01
555.67	59320.88
555.83	59388.75
556.00	59463.65
556.16	59576.00
556.33	59407.48
556.50	59370.03
556.66	59690.68
556.83	59512.80
556.99	59475.35
557.16	59760.90
557.32	59936.44
557.49	59838.14
557.65	59538.55
557.82	59557.27
557.98	59618.13
558.15	59564.29
558.32	59688.34
558.48	59739.83
558.65	59728.13
558.81	59824.09
558.98	59873.24
559.14	59880.27
559.31	59779.62
559.47	60032.40
559.64	59807.71
559.80	59868.56
559.97	60053.47
560.13	59803.03
560.30	59978.57
560.46	59889.63
560.63	60023.04
560.79	60282.84
560.96	60168.15
561.12	60055.81
561.29	60123.68
561.45	60016.02
561.61	60009.00
561.78	60100.28
561.94	59920.05
562.11	60011.34
562.27	59924.74
562.44	60048.78
562.60	60381.14
562.77	60275.82
562.93	59943.46
563.10	60423.27
563.26	60175.17
563.42	60371.78
563.59	60193.90
563.75	60158.79
563.92	60200.92
564.08	60245.39
564.24	60383.48
564.41	60355.39
564.57	60418.59
564.74	60458.38
564.90	60425.61
565.07	60353.05
565.23	60449.02
565.39	60177.51
565.56	60427.95
565.72	60383.48
565.88	60346.03
566.05	60303.90
566.21	60502.85
566.38	60420.93
566.54	60425.61
566.70	60533.28
566.87	60647.96
567.03	60432.63
567.19	60552.00
567.36	60434.97
567.52	60718.18
567.68	60949.89
567.85	60608.17
568.01	60748.60
568.17	60388.16
568.34	60704.13
568.50	60617.53
568.66	60559.02
568.83	60692.43
568.99	60561.36
569.15	60577.75
569.32	60467.74
569.48	60549.66
569.64	60795.42
569.81	60601.15
569.97	60617.53
570.13	60633.92
570.30	60486.46
570.46	60755.63
570.62	60624.56
570.78	60767.33
570.95	60683.07
571.11	60900.74
571.27	60793.07
571.43	60774.35
571.60	60818.82
571.76	60860.95
571.92	60779.03
572.09	60860.95
572.25	60762.65
572.41	60987.34
572.57	60844.57
572.74	60896.06
572.90	60874.99
573.06	60882.02
573.22	60963.93
573.38	60828.18
573.55	60816.48
573.71	61048.19
573.87	60872.65
574.03	60849.25
574.20	60860.95
574.36	60865.63
574.52	60851.59
574.68	60889.04
574.84	61048.19
575.01	60999.04
575.17	61062.24
575.33	60846.91
575.49	60879.67
575.65	61155.86
575.82	61076.28
575.98	61015.43
576.14	61249.48
576.30	61104.37
576.46	60992.02
576.62	60856.27
576.79	60952.23
576.95	60898.40
577.11	61186.28
577.27	61029.47
577.43	61024.79
577.59	60874.99
577.75	60954.57
577.92	60973.30
578.08	60725.20
578.24	61102.03
578.40	61160.54
578.56	61111.39
578.72	60945.21
578.88	61256.50
579.04	61375.87
579.21	61155.86
579.37	61251.82
579.53	61244.80
579.69	60975.64
579.85	60921.80
580.01	60954.57
580.17	61230.75
580.33	61197.99
580.49	60942.87
580.65	60959.25
580.82	60905.42
580.98	60933.51
581.14	60924.14
581.30	61296.29
581.46	61167.56
581.62	61111.39
581.78	61017.77
581.94	61275.22
582.10	61244.80
582.26	61076.28
582.42	61134.79
582.58	61034.15
582.74	61235.44
582.90	61059.90
583.06	61123.09
583.22	61015.43
583.38	60954.57
583.54	61212.03
583.70	61146.50
583.86	61174.58
584.02	61050.53
584.18	61109.05
584.34	61275.22
584.50	61282.25
584.66	61092.66
584.82	60959.25
584.98	61422.68
585.14	61214.37
585.30	61165.22
585.46	61062.24
585.62	61333.74
585.78	61364.17
585.94	60980.32
586.10	61293.95
586.26	61059.90
586.42	61354.80
586.58	61296.29
586.74	61385.23
586.90	61193.31
587.06	61118.41
587.22	61389.91
587.38	61298.63
587.54	61464.81
587.70	61373.53
587.86	61263.52
588.02	61394.59
588.18	61357.14
588.34	61291.61
588.49	61354.80
