SpectraSuite Data File
++++++++++++++++++++++++++++++++++++
Date: Fri Oct 25 10:47:32 EDT 2013
User: price-jones
Dark Spectrum Present: No
Reference Spectrum Present: No
Number of Sampled Component Spectra: 1
Spectrometers: USB2+H05261
Integration Time (usec): 100000 (USB2+H05261)
Spectra Averaged: 1 (USB2+H05261)
Boxcar Smoothing: 0 (USB2+H05261)
Correct for Electrical Dark: No (USB2+H05261)
Strobe/Lamp Enabled: No (USB2+H05261)
Correct for Detector Non-linearity: No (USB2+H05261)
Correct for Stray Light: No (USB2+H05261)
Number of Pixels in Processed Spectrum: 2048
>>>>>Begin Processed Spectral Data<<<<<
365.73	126.39
365.92	126.39
366.12	126.39
366.32	114.69
366.52	93.62
366.72	49.15
366.91	0.00
367.11	0.00
367.31	32.77
367.51	0.00
367.70	51.49
367.90	126.39
368.10	21.06
368.30	18.72
368.49	44.47
368.69	18.72
368.89	39.79
369.09	107.66
369.28	74.90
369.48	114.69
369.68	56.17
369.87	201.29
370.07	67.88
370.27	86.60
370.47	271.50
370.66	376.83
370.86	360.44
371.06	486.83
371.25	484.49
371.45	423.64
371.65	402.57
371.84	421.30
372.04	348.74
372.24	500.87
372.44	468.11
372.63	531.30
372.83	498.53
373.03	554.71
373.22	477.47
373.42	507.90
373.62	465.77
373.81	552.37
374.01	503.22
374.21	620.24
374.40	496.19
374.60	594.50
374.79	550.03
374.99	505.56
375.19	540.66
375.38	580.45
375.58	582.79
375.78	585.13
375.97	528.96
376.17	592.16
376.37	568.75
376.56	587.47
376.76	564.07
376.95	592.16
377.15	580.45
377.35	552.37
377.54	603.86
377.74	564.07
377.93	564.07
378.13	692.80
378.33	655.35
378.52	622.58
378.72	669.39
378.91	617.90
379.11	622.58
379.31	599.18
379.50	531.30
379.70	634.29
379.89	617.90
380.09	599.18
380.28	641.31
380.48	650.67
380.68	627.26
380.87	667.05
381.07	613.22
381.26	620.24
381.46	655.35
381.65	713.86
381.85	727.91
382.04	653.01
382.24	755.99
382.43	580.45
382.63	671.73
382.83	774.72
383.02	763.01
383.22	704.50
383.41	720.88
383.61	702.16
383.80	627.26
384.00	709.18
384.19	709.18
384.39	716.20
384.58	744.29
384.78	830.89
384.97	763.01
385.17	744.29
385.36	767.70
385.56	725.57
385.75	711.52
385.95	741.95
386.14	755.99
386.34	772.38
386.53	788.76
386.72	779.40
386.92	798.12
387.11	711.52
387.31	807.48
387.50	802.80
387.70	777.06
387.89	842.59
388.09	709.18
388.28	730.25
388.48	812.17
388.67	894.08
388.86	866.00
389.06	894.08
389.25	858.98
389.45	840.25
389.64	896.43
389.84	947.92
390.03	894.08
390.22	903.45
390.42	837.91
390.61	922.17
390.81	945.58
391.00	933.87
391.19	976.00
391.39	964.30
391.58	997.07
391.78	973.66
391.97	866.00
392.16	976.00
392.36	1043.88
392.55	999.41
392.75	1006.43
392.94	889.40
393.13	917.49
393.33	849.61
393.52	976.00
393.71	1018.13
393.91	1027.50
394.10	983.02
394.29	983.02
394.49	1001.75
394.68	1048.56
394.88	1083.67
395.07	1086.01
395.26	1123.46
395.46	1153.88
395.65	1153.88
395.84	1086.01
396.04	1053.24
396.23	1123.46
396.42	1043.88
396.62	1177.29
396.81	1268.57
397.00	1064.94
397.19	1167.93
397.39	1111.75
397.58	1132.82
397.77	1224.10
397.97	1191.33
398.16	1273.25
398.35	1231.12
398.55	1160.91
398.74	1226.44
398.93	1359.85
399.12	1329.42
399.32	1315.38
399.51	1252.19
399.70	1350.49
399.90	1224.10
400.09	1301.34
400.28	1425.39
400.47	1324.74
400.67	1352.83
400.86	1387.94
401.05	1378.58
401.24	1441.77
401.44	1355.17
401.63	1401.98
401.82	1584.54
402.01	1390.28
402.21	1479.22
402.40	1497.94
402.59	1516.67
402.78	1509.65
402.97	1497.94
403.17	1542.41
403.36	1451.13
403.55	1549.43
403.74	1614.97
403.93	1462.83
404.13	1497.94
404.32	1561.14
404.51	1603.27
404.70	1610.29
404.89	1638.38
405.09	1680.50
405.28	1694.55
405.47	1757.74
405.66	1657.10
405.85	1671.14
406.05	1713.27
406.24	1689.87
406.43	1675.82
406.62	1732.00
406.81	1830.30
407.00	1661.78
407.20	1685.19
407.39	1804.55
407.58	1877.11
407.77	1870.09
407.96	1884.13
408.15	1940.30
408.34	1935.62
408.54	1940.30
408.73	1970.73
408.92	1834.98
409.11	1944.99
409.30	1961.37
409.49	1909.88
409.68	1947.33
409.87	1944.99
410.07	2026.90
410.26	2099.46
410.45	2036.27
410.64	2078.40
410.83	2113.50
411.02	2155.63
411.21	2092.44
411.40	2097.12
411.59	2298.41
411.78	2286.70
411.98	2183.72
412.17	2307.77
412.36	2317.13
412.55	2342.88
412.74	2399.05
412.93	2328.83
413.12	2289.04
413.31	2471.61
413.50	2370.96
413.69	2406.07
413.88	2452.88
414.07	2457.56
414.26	2548.84
414.45	2506.71
414.64	2583.95
414.83	2548.84
415.02	2640.12
415.22	2602.68
415.41	2696.30
415.60	2726.72
415.79	2710.34
415.98	2747.79
416.17	2736.09
416.36	2827.37
416.55	2796.94
416.74	2782.90
416.93	2799.28
417.12	2897.58
417.31	2836.73
417.50	2988.86
417.69	3000.57
417.88	2960.78
418.07	2909.29
418.26	2860.13
418.45	3000.57
418.64	3105.89
418.83	3045.04
419.02	3080.14
419.21	3197.17
419.39	3152.70
419.58	3112.91
419.77	3248.66
419.96	3283.77
420.15	3229.94
420.34	3316.54
420.53	3276.75
420.72	3192.49
420.91	3274.41
421.10	3407.82
421.29	3307.18
421.48	3274.41
421.67	3274.41
421.86	3267.39
422.05	3349.31
422.24	3176.11
422.43	3304.84
422.61	3328.24
422.80	3407.82
422.99	3386.76
423.18	3529.53
423.37	3550.59
423.56	3384.41
423.75	3480.38
423.94	3365.69
424.13	3276.75
424.32	3335.26
424.50	3302.50
424.69	3515.48
424.88	3424.20
425.07	3482.72
425.26	3541.23
425.45	3442.93
425.64	3459.31
425.83	3581.02
426.01	3552.93
426.20	3473.36
426.39	3604.42
426.58	3496.76
426.77	3522.51
426.96	3459.31
427.15	3585.70
427.33	3604.42
427.52	3637.19
427.71	3517.83
427.90	3597.40
428.09	3719.11
428.28	3693.37
428.46	3777.62
428.65	3557.61
428.84	3908.69
429.03	3798.69
429.22	3686.34
429.40	3728.47
429.59	3798.69
429.78	3660.60
429.97	3545.91
430.16	3517.83
430.34	3669.96
430.53	3768.26
430.72	3705.07
430.91	3791.67
431.10	3775.28
431.28	3957.85
431.47	4079.55
431.66	4112.32
431.85	3999.98
432.03	3871.25
432.22	4098.28
432.41	4119.34
432.60	4058.49
432.79	4131.05
432.97	4100.62
433.16	4117.00
433.35	4205.94
433.54	4053.81
433.72	4152.11
433.91	4227.01
434.10	4252.75
434.28	4187.22
434.47	4166.15
434.66	4184.88
434.85	4301.90
435.03	4461.06
435.22	4386.16
435.41	4524.26
435.59	4369.78
435.78	4358.08
435.97	4414.25
436.16	4454.04
436.34	4402.55
436.53	4381.48
436.72	4505.53
436.90	4486.81
437.09	4557.02
437.28	4482.13
437.46	4512.55
437.65	4648.30
437.84	4634.26
438.02	4657.67
438.21	4519.57
438.40	4667.03
438.58	4720.86
438.77	4746.61
438.96	4702.14
439.14	4767.67
439.33	4765.33
439.52	4985.34
439.70	4849.59
439.89	5167.90
440.08	5034.49
440.26	5020.45
440.45	5186.63
440.63	5144.50
440.82	5226.42
441.01	5104.71
441.19	5203.01
441.38	5205.35
441.57	5160.88
441.75	5387.91
441.94	5481.53
442.12	5500.26
442.31	5481.53
442.50	5455.79
442.68	5551.75
442.87	5584.52
443.05	5645.37
443.24	5572.82
443.43	5420.68
443.61	5666.44
443.80	5708.57
443.98	5530.69
444.17	5378.55
444.35	5589.20
444.54	5795.17
444.73	5547.07
444.91	5729.63
445.10	5682.82
445.28	5673.46
445.47	5593.88
445.65	5657.07
445.84	5802.19
446.02	5708.57
446.21	5741.33
446.39	5813.89
446.58	5783.46
446.77	5783.46
446.95	5738.99
447.14	5753.04
447.32	5900.49
447.51	5785.80
447.69	5582.18
447.88	5827.93
448.06	5715.59
448.25	5785.80
448.43	5975.39
448.62	5860.70
448.80	5877.09
448.99	5900.49
449.17	5891.13
449.36	5996.45
449.54	6108.80
449.73	6064.33
449.91	6001.13
450.10	6251.57
450.28	6445.84
450.46	6179.01
450.65	6244.55
450.83	6356.90
451.02	6104.12
451.20	6389.66
451.39	6422.43
451.57	6148.59
451.76	6179.01
451.94	6417.75
452.13	6401.37
452.31	6354.55
452.49	6204.76
452.68	6331.15
452.86	6361.58
453.05	6431.79
453.23	6310.08
453.42	6462.22
453.60	6239.87
453.78	6480.94
453.97	6272.64
454.15	6614.35
454.34	6443.49
454.52	6623.72
454.70	6555.84
454.89	6567.54
455.07	6698.61
455.26	6630.74
455.44	6782.87
455.62	6731.38
455.81	6712.66
455.99	6810.96
456.17	6853.09
456.36	6883.52
456.54	7040.33
456.73	6757.13
456.91	6832.02
457.09	6963.09
457.28	7148.00
457.46	7101.19
457.64	7145.66
457.83	7248.64
458.01	7077.78
458.19	7398.43
458.38	7208.85
458.56	7110.55
458.74	7419.50
458.93	7066.08
459.11	7295.45
459.29	7316.51
459.48	7239.28
459.66	7164.38
459.84	7377.37
460.03	7564.61
460.21	7339.92
460.39	7335.24
460.57	7360.98
460.76	7412.48
460.94	7541.21
461.12	7602.06
461.31	7651.21
461.49	7602.06
461.67	7485.03
461.85	7754.19
462.04	7644.19
462.22	8161.45
462.40	7744.83
462.59	7667.60
462.77	7756.54
462.95	7857.18
463.13	7653.55
463.32	7871.22
463.50	7791.64
463.68	8121.66
463.86	7868.88
464.05	7878.24
464.23	7777.60
464.41	7932.08
464.59	7817.39
464.78	8166.13
464.96	8184.85
465.14	7852.50
465.32	8124.00
465.50	8058.46
465.69	8105.28
465.87	8093.57
466.05	8051.44
466.23	8210.60
466.41	8304.22
466.60	8325.29
466.78	8131.02
466.96	7988.25
467.14	8025.70
467.32	8077.19
467.51	8503.17
467.69	8325.29
467.87	8418.91
468.05	8477.42
468.23	8468.06
468.41	8285.50
468.60	8299.54
468.78	8402.52
468.96	8491.46
469.14	8629.56
469.32	8664.66
469.50	8332.31
469.69	8762.97
469.87	8608.49
470.05	8535.93
470.23	8889.35
470.41	8805.10
470.59	8697.43
470.77	8835.52
470.95	8816.80
471.14	8943.19
471.32	8667.00
471.50	9123.41
471.68	8858.93
471.86	8922.12
472.04	9273.20
472.22	9355.12
472.40	8940.85
472.58	9029.79
472.77	9338.74
472.95	9469.81
473.13	9664.07
473.31	9280.22
473.49	9364.48
473.67	9348.10
473.85	9561.09
474.03	9619.60
474.21	9750.67
474.39	9818.55
474.57	9678.12
474.75	9745.99
474.93	9818.55
475.12	9832.59
475.30	10087.71
475.48	9998.77
475.66	9968.34
475.84	9975.36
476.02	10300.70
476.20	10146.22
476.38	10345.17
476.56	10410.70
476.74	10644.76
476.92	10211.76
477.10	10530.07
477.28	10930.30
477.46	10721.99
477.64	10822.64
477.82	10733.70
478.00	11396.07
478.18	11068.39
478.36	11169.04
478.54	11227.55
478.72	11234.57
478.90	11389.05
479.08	11595.01
479.26	11662.89
479.44	11454.58
479.62	11903.96
479.80	11833.75
479.98	12056.10
480.16	12182.49
480.34	11985.88
480.52	12100.57
480.70	12290.15
480.88	12273.77
481.06	12063.12
481.24	12107.59
481.41	12507.82
481.59	12599.10
481.77	12571.02
481.95	12856.56
482.13	12891.67
482.31	12989.97
482.49	13195.94
482.67	13415.95
482.85	13334.03
483.03	13432.33
483.21	13731.92
483.39	13664.05
483.57	13682.77
483.74	13750.65
483.92	14040.87
484.10	13834.91
484.28	13935.55
484.46	14581.54
484.64	14511.32
484.82	14106.41
485.00	14317.06
485.18	14565.15
485.35	14904.53
485.53	14511.32
485.71	14906.87
485.89	14993.47
486.07	15091.77
486.25	14862.40
486.43	15243.91
486.61	15344.55
486.78	15646.48
486.96	15496.69
487.14	15964.79
487.32	15957.77
487.50	16229.27
487.68	15917.98
487.85	16343.96
488.03	16409.50
488.21	16709.08
488.39	16793.34
488.57	16912.71
488.75	16952.50
488.92	17209.96
489.10	17397.20
489.28	17174.85
489.46	17706.15
489.64	17350.39
489.81	18017.44
489.99	17987.02
490.17	18293.63
490.35	18216.39
490.53	18321.71
490.70	18228.09
490.88	18230.43
491.06	18665.77
491.24	18686.84
491.41	18895.14
491.59	18553.43
491.77	18647.05
491.95	19000.47
492.13	19309.42
492.30	19417.08
492.48	19405.38
492.66	19625.39
492.84	19639.44
493.01	19653.48
493.19	19742.42
493.37	20177.76
493.54	20210.53
493.72	20343.94
493.90	20416.49
494.08	20772.25
494.25	20978.22
494.43	21235.68
494.61	20807.36
494.79	21095.25
494.96	21013.33
495.14	21172.49
495.32	21341.00
495.49	21188.87
495.67	21724.85
495.85	21546.97
496.02	21774.00
496.20	21778.68
496.38	22106.36
496.55	21947.20
496.73	22321.69
496.91	22309.99
497.09	22518.29
497.26	22555.74
497.44	22684.47
497.62	22771.07
497.79	22829.59
497.97	22750.01
498.14	22600.21
498.32	23243.86
498.50	23424.08
498.67	23257.90
498.85	23302.37
499.03	23648.77
499.20	23538.77
499.38	23468.55
499.56	23838.36
499.73	23646.43
499.91	23882.83
500.08	23934.32
500.26	23927.30
500.44	24039.64
500.61	24283.06
500.79	24151.99
500.97	24458.60
501.14	24765.21
501.32	24793.29
501.49	24624.78
501.67	25062.46
501.84	25032.03
502.02	24812.02
502.20	25160.76
502.37	25195.87
502.55	25146.72
502.72	25280.13
502.90	25432.26
503.07	25322.26
503.25	25685.04
503.43	25537.59
503.60	25504.82
503.78	25495.46
503.95	25858.24
504.13	25928.45
504.30	26181.23
504.48	26106.34
504.65	26324.01
504.83	26487.84
505.01	26464.44
505.18	26581.46
505.36	26719.56
505.53	26590.83
505.71	26838.92
505.88	27009.78
506.06	26616.57
506.23	26946.59
506.41	27112.77
506.58	27304.69
506.76	27037.87
506.93	27180.64
507.11	27517.68
507.28	27461.51
507.46	27190.00
507.63	27601.94
507.81	27398.31
507.98	27814.93
508.16	27850.03
508.33	27859.40
508.50	27562.15
508.68	28011.53
508.85	28297.08
509.03	27896.85
509.20	28346.23
509.38	28428.15
509.55	28566.24
509.73	28730.08
509.90	28636.45
510.08	28414.10
510.25	28734.76
510.42	28238.56
510.60	29076.48
510.77	28907.96
510.95	29006.26
511.12	29322.23
511.30	29263.72
511.47	29013.28
511.64	29390.11
511.82	29411.17
511.99	29214.57
512.17	29844.17
512.34	29785.66
512.51	30096.95
512.69	29783.32
512.86	29949.50
513.04	30122.69
513.21	30064.18
513.38	30169.51
513.56	30089.93
513.73	29755.23
513.90	30600.16
514.08	30433.99
514.25	29935.45
514.43	30235.04
514.60	30363.77
514.77	30387.18
514.95	30689.10
515.12	30668.04
515.29	30951.24
515.47	30972.31
515.64	31185.30
515.81	31117.42
515.99	30948.90
516.16	31285.94
516.33	31164.23
516.51	31040.18
516.68	30944.22
516.85	31143.17
517.03	31019.12
517.20	31309.35
517.37	31868.73
517.54	31555.10
517.72	31641.70
517.89	31697.88
518.06	31407.65
518.24	31604.25
518.41	31826.60
518.58	31850.01
518.75	31807.88
518.93	32320.46
519.10	32041.93
519.27	32072.36
519.45	32470.25
519.62	32678.56
519.79	32285.35
519.96	32540.47
520.14	32622.39
520.31	32290.03
520.48	32912.61
520.65	32907.93
520.83	33191.14
521.00	33200.50
521.17	32996.87
521.34	32945.38
521.52	33062.41
521.69	33296.46
521.86	33518.81
522.03	32891.55
522.20	33373.70
522.38	33633.50
522.55	33699.03
522.72	33479.02
522.89	33790.31
523.07	33921.38
523.24	33567.96
523.41	34375.45
523.58	33675.63
523.75	34431.62
523.92	33963.51
524.10	34288.85
524.27	34436.30
524.44	33818.40
524.61	34354.38
524.78	34541.63
524.96	34625.89
525.13	34988.67
525.30	34810.79
525.47	34829.51
525.64	34873.98
525.81	34869.30
525.98	34862.28
526.16	34756.96
526.33	35037.82
526.50	35239.11
526.67	34761.64
526.84	34738.23
527.01	34941.86
527.18	35161.87
527.36	35213.36
527.53	35435.71
527.70	35803.17
527.87	35555.08
528.04	35456.78
528.21	35215.70
528.38	35725.94
528.55	35791.47
528.72	35959.99
528.89	35880.41
529.07	35791.47
529.24	35503.59
529.41	35833.60
529.58	35585.50
529.75	36037.23
529.92	36187.02
530.09	36308.73
530.26	36400.01
530.43	36016.16
530.60	36020.84
530.77	36215.11
530.94	36577.89
531.11	36243.20
531.28	36741.73
531.46	36381.29
531.63	36973.44
531.80	36147.23
531.97	36711.30
532.14	36605.98
532.31	36641.09
532.48	37092.81
532.65	37170.05
532.82	37249.63
532.99	36568.53
533.16	37050.68
533.33	36687.90
533.50	37361.97
533.67	37137.28
533.84	37113.87
534.01	37132.60
534.18	37268.35
534.35	37539.85
534.52	37099.83
534.69	37310.48
534.86	37670.92
535.03	37111.53
535.20	38127.33
535.37	37883.91
535.54	38080.52
535.71	37511.77
535.88	37888.59
536.05	37507.08
536.22	37954.13
536.38	37724.75
536.55	38132.01
536.72	38022.00
536.89	37640.50
537.06	37993.92
537.23	38288.82
537.40	38216.27
537.57	38291.16
537.74	38590.75
537.91	38801.40
538.08	38455.00
538.25	38291.16
538.42	38307.55
538.59	38447.98
538.75	38211.59
538.92	38447.98
539.09	38747.57
539.26	38841.19
539.43	38630.54
539.60	38810.76
539.77	38857.57
539.94	38557.99
540.11	38504.15
540.28	38410.53
540.44	38986.30
540.61	38759.27
540.78	38948.85
540.95	39126.74
541.12	39007.37
541.29	38831.83
541.46	38904.38
541.62	39096.31
541.79	39255.46
541.96	38958.22
542.13	39407.60
542.30	39393.56
542.47	39517.60
542.63	39168.87
542.80	39337.38
542.97	40023.16
543.14	40025.50
543.31	39737.62
543.48	40156.57
543.64	40116.78
543.81	40006.78
543.98	39515.26
544.15	39833.58
544.32	40346.15
544.48	40554.46
544.65	40084.01
544.82	40095.72
544.99	39718.89
545.16	39754.00
545.32	40023.16
545.49	40643.40
545.66	40226.79
545.83	40437.44
546.00	40481.91
546.16	40652.76
546.33	40016.14
546.50	40055.93
546.67	40144.87
546.83	40079.33
547.00	40781.49
547.17	40254.87
547.34	40893.84
547.50	40999.16
547.67	40620.00
547.84	40790.86
548.00	40924.27
548.17	40999.16
548.34	41010.87
548.51	41146.62
548.67	41083.42
548.84	41153.64
549.01	41057.68
549.18	41057.68
549.34	41027.25
549.51	41390.03
549.68	40954.69
549.84	41303.43
550.01	41223.86
550.18	41132.57
550.34	41317.48
550.51	41284.71
550.68	40950.01
550.84	41368.97
551.01	41855.80
551.18	41619.41
551.34	41193.43
551.51	41588.98
551.68	41574.94
551.84	41759.84
552.01	41221.52
552.18	41883.89
552.34	41397.06
552.51	41530.47
552.68	41886.23
552.84	41713.03
553.01	42256.03
553.18	41565.57
553.34	41640.47
553.51	42000.91
553.67	41823.03
553.84	42220.92
554.01	42726.48
554.17	42270.08
554.34	42101.56
554.51	41949.42
554.67	42146.03
554.84	42410.51
555.00	42450.30
555.17	42164.75
555.33	42382.42
555.50	42497.11
555.67	42511.15
555.83	41921.34
556.00	42300.50
556.16	42885.64
556.33	42742.86
556.50	42506.47
556.66	42401.14
556.83	41972.83
556.99	42529.87
557.16	42405.83
557.32	42396.46
557.49	42600.09
557.65	42892.66
557.82	41996.23
557.98	42775.63
558.15	42422.21
558.32	42546.26
558.48	42511.15
558.65	42829.46
558.81	42569.66
558.98	42728.82
559.14	42476.04
559.31	42951.17
559.47	42773.29
559.64	43040.11
559.80	43288.21
559.97	43540.99
560.13	42848.19
560.30	42712.44
560.46	43096.28
560.63	43077.56
560.79	42918.40
560.96	43274.16
561.12	42995.64
561.29	43484.81
561.45	42813.08
561.61	43257.78
561.78	43124.37
561.94	43012.02
562.11	42895.00
562.27	42347.31
562.44	43653.33
562.60	43157.14
562.77	43367.79
562.93	43161.82
563.10	43131.39
563.26	43035.43
563.42	43367.79
563.59	43313.95
563.75	42768.61
563.92	43475.45
564.08	43714.19
564.24	43658.01
564.41	43597.16
564.57	43203.95
564.74	43515.24
564.90	43178.20
565.07	43154.80
565.23	43714.19
565.39	43215.65
565.56	43798.44
565.72	43325.66
565.88	43702.48
566.05	43498.86
566.21	43594.82
566.38	43428.64
566.54	43571.41
566.70	43662.69
566.87	44013.77
567.03	43538.65
567.19	43681.42
567.36	43379.49
567.52	43335.02
567.68	43772.70
567.85	43739.93
568.01	43660.35
568.17	43604.18
568.34	43725.89
568.50	43412.26
568.66	43540.99
568.83	43892.07
568.99	43793.76
569.15	43543.33
569.32	43679.08
569.48	43393.53
569.64	43482.47
569.81	43695.46
569.97	43807.81
570.13	43510.56
570.30	43700.14
570.46	43550.35
570.62	43700.14
570.78	43412.26
570.95	43503.54
571.11	43969.30
571.27	43447.36
571.43	43655.67
571.60	43929.51
571.76	43641.63
571.92	44212.72
572.09	43674.40
572.25	43768.02
572.41	43938.88
572.57	43489.49
572.74	44708.91
572.90	43978.67
573.06	44037.18
573.22	43976.33
573.38	44039.52
573.55	43709.50
573.71	43885.04
573.87	43646.31
574.03	43683.76
574.20	44264.21
574.36	43973.98
574.52	44336.77
574.68	44123.78
574.84	44065.27
575.01	43723.55
575.17	43952.92
575.33	43714.19
575.49	43798.44
575.65	44306.34
575.82	44418.69
575.98	44072.29
576.14	44538.05
576.30	44205.70
576.46	43894.41
576.62	44013.77
576.79	43669.72
576.95	43957.60
577.11	43955.26
577.27	44341.45
577.43	44219.74
577.59	43906.11
577.75	44123.78
577.92	43524.60
578.08	44083.99
578.24	43835.89
578.40	44121.44
578.56	43976.33
578.72	44079.31
578.88	44442.09
579.04	43988.03
579.21	43927.17
579.37	44135.48
579.53	44074.63
579.69	43824.19
579.85	43990.37
580.01	43894.41
580.17	44100.37
580.33	44268.89
580.49	44142.50
580.65	44481.88
580.82	44222.08
580.98	44430.39
581.14	43704.82
581.30	44615.29
581.46	44390.60
581.62	44116.76
581.78	43868.66
581.94	44491.24
582.10	44198.68
582.26	43990.37
582.42	44229.10
582.58	44264.21
582.74	44076.97
582.90	43749.29
583.06	44409.32
583.22	44549.76
583.38	44591.89
583.54	44540.39
583.70	44432.73
583.86	44165.91
584.02	43971.64
584.18	44191.65
584.34	44315.70
584.50	44685.51
584.66	44123.78
584.82	43915.47
584.98	44659.76
585.14	44158.89
585.30	44325.07
585.46	44460.82
585.62	43746.95
585.78	44512.31
585.94	43613.54
586.10	44268.89
586.26	44538.05
586.42	44051.22
586.58	44383.58
586.74	44329.75
586.90	44177.61
587.06	44112.08
587.22	44285.28
587.38	44020.80
587.54	44425.71
587.70	44526.35
587.86	44304.00
588.02	44170.59
588.18	44456.14
588.34	44465.50
588.49	44392.94
588.65	44079.31
588.81	43885.04
588.97	43744.61
589.13	44123.78
589.29	44367.20
589.45	44175.27
589.61	44774.45
589.77	45064.67
589.93	44818.92
590.08	44779.13
590.24	44666.78
590.40	44587.21
