SpectraSuite Data File
++++++++++++++++++++++++++++++++++++
Date: Fri Oct 25 11:25:18 EDT 2013
User: price-jones
Dark Spectrum Present: No
Reference Spectrum Present: No
Number of Sampled Component Spectra: 1
Spectrometers: USB2+H05261
Integration Time (usec): 100000 (USB2+H05261)
Spectra Averaged: 1 (USB2+H05261)
Boxcar Smoothing: 0 (USB2+H05261)
Correct for Electrical Dark: No (USB2+H05261)
Strobe/Lamp Enabled: No (USB2+H05261)
Correct for Detector Non-linearity: No (USB2+H05261)
Correct for Stray Light: No (USB2+H05261)
Number of Pixels in Processed Spectrum: 2048
>>>>>Begin Processed Spectral Data<<<<<
365.73	266.82
365.92	266.82
366.12	266.82
366.32	100.64
366.52	117.03
366.72	149.79
366.91	184.90
367.11	166.18
367.31	98.30
367.51	142.77
367.70	140.43
367.90	149.79
368.10	117.03
368.30	100.64
368.49	138.09
368.69	159.16
368.89	229.37
369.09	147.45
369.28	98.30
369.48	121.71
369.68	212.99
369.87	147.45
370.07	166.18
370.27	212.99
370.47	259.80
370.66	580.45
370.86	692.80
371.06	610.88
371.25	671.73
371.45	730.25
371.65	650.67
371.84	669.39
372.04	641.31
372.24	716.20
372.44	692.80
372.63	753.65
372.83	718.54
373.03	753.65
373.22	777.06
373.42	697.48
373.62	840.25
373.81	763.01
374.01	863.66
374.21	800.46
374.40	713.86
374.60	828.55
374.79	828.55
374.99	861.32
375.19	861.32
375.38	849.61
375.58	854.30
375.78	823.87
375.97	882.38
376.17	863.66
376.37	840.25
376.56	926.85
376.76	896.43
376.95	905.79
377.15	894.08
377.35	917.49
377.54	896.43
377.74	954.94
377.93	891.74
378.13	882.38
378.33	926.85
378.52	940.90
378.72	866.00
378.91	978.34
379.11	919.83
379.31	894.08
379.50	910.47
379.70	933.87
379.89	1015.79
380.09	1020.47
380.28	957.28
380.48	957.28
380.68	983.02
380.87	964.30
381.07	936.21
381.26	1081.33
381.46	894.08
381.65	966.64
381.85	1032.18
382.04	976.00
382.24	971.32
382.43	1097.71
382.63	1137.50
382.83	1046.22
383.02	1139.84
383.22	1034.52
383.41	1144.52
383.61	1177.29
383.80	1088.35
384.00	1069.62
384.19	1109.41
384.39	978.34
384.58	1191.33
384.78	1078.99
384.97	1076.65
385.17	1090.69
385.36	1144.52
385.56	1111.75
385.75	1125.80
385.95	1158.57
386.14	1196.01
386.34	1193.67
386.53	1203.04
386.72	1153.88
386.92	1205.38
387.11	1137.50
387.31	1329.42
387.50	1207.72
387.70	1207.72
387.89	1247.51
388.09	1238.14
388.28	1282.61
388.48	1310.70
388.67	1240.48
388.86	1245.16
389.06	1348.15
389.25	1350.49
389.45	1380.92
389.64	1336.45
389.84	1416.02
390.03	1366.87
390.22	1423.05
390.42	1334.11
390.61	1350.49
390.81	1352.83
391.00	1345.81
391.19	1404.32
391.39	1453.47
391.58	1425.39
391.78	1383.26
391.97	1502.62
392.16	1486.24
392.36	1500.28
392.55	1596.25
392.75	1460.49
392.94	1549.43
393.13	1493.26
393.33	1495.60
393.52	1596.25
393.71	1596.25
393.91	1549.43
394.10	1603.27
394.29	1544.75
394.49	1619.65
394.68	1652.42
394.88	1568.16
395.07	1703.91
395.26	1713.27
395.46	1755.40
395.65	1724.97
395.84	1666.46
396.04	1771.79
396.23	1767.10
396.42	1755.40
396.62	1657.10
396.81	1727.32
397.00	1694.55
397.19	1792.85
397.39	1809.23
397.58	1809.23
397.77	1858.39
397.97	1774.13
398.16	1720.29
398.35	1865.41
398.55	1818.60
398.74	1900.52
398.93	1902.86
399.12	1884.13
399.32	1902.86
399.51	1874.77
399.70	1942.64
399.90	2052.65
400.09	1996.48
400.28	2083.08
400.47	1996.48
400.67	1954.35
400.86	2040.95
401.05	2003.50
401.24	2012.86
401.44	2087.76
401.63	2134.57
401.82	2153.29
402.01	2099.46
402.21	2165.00
402.40	2179.04
402.59	2237.55
402.78	2132.23
402.97	2263.30
403.17	2218.83
403.36	2162.66
403.55	2289.04
403.74	2279.68
403.93	2277.34
404.13	2310.11
404.32	2307.77
404.51	2310.11
404.70	2246.91
404.89	2352.24
405.09	2368.62
405.28	2387.35
405.47	2408.41
405.66	2448.20
405.85	2455.22
406.05	2490.33
406.24	2530.12
406.43	2623.74
406.62	2647.15
406.81	2633.10
407.00	2569.91
407.20	2523.10
407.39	2658.85
407.58	2656.51
407.77	2693.96
407.96	2696.30
408.15	2724.38
408.34	2668.21
408.54	2710.34
408.73	2829.71
408.92	2822.69
409.11	2768.85
409.30	2911.63
409.49	2909.29
409.68	2988.86
409.87	2890.56
410.07	2944.39
410.26	2988.86
410.45	2951.42
410.64	2937.37
410.83	3070.78
411.02	3049.72
411.21	3108.23
411.40	3199.51
411.59	3185.47
411.78	3131.64
411.98	3215.90
412.17	3159.72
412.36	3290.79
412.55	3302.50
412.74	3328.24
412.93	3391.44
413.12	3304.84
413.31	3510.80
413.50	3398.46
413.69	3456.97
413.88	3536.55
414.07	3431.23
414.26	3520.17
414.45	3550.59
414.64	3826.78
414.83	3667.62
415.02	3632.51
415.22	3723.79
415.41	3852.52
415.60	3747.20
415.79	3913.38
415.98	3840.82
416.17	3871.25
416.36	3992.95
416.55	4011.68
416.74	4014.02
416.93	4018.70
417.12	4072.53
417.31	4093.60
417.50	4100.62
417.69	4301.90
417.88	4135.73
418.07	4290.20
418.26	4311.27
418.45	4461.06
418.64	4395.53
418.83	4435.32
419.02	4395.53
419.21	4503.19
419.39	4432.97
419.58	4285.52
419.77	4430.63
419.96	4500.85
420.15	4596.81
420.34	4589.79
420.53	4573.41
420.72	4601.49
420.91	4606.17
421.10	4678.73
421.29	4741.93
421.48	4622.56
421.67	4702.14
421.86	4802.78
422.05	4713.84
422.24	4809.80
422.43	4751.29
422.61	4807.46
422.80	4730.22
422.99	5008.75
423.18	4929.17
423.37	4903.42
423.56	4840.23
423.75	4894.06
423.94	4908.10
424.13	4496.17
424.32	4835.55
424.50	4889.38
424.69	5053.22
424.88	5081.30
425.07	4875.34
425.26	4922.15
425.45	4896.40
425.64	5020.45
425.83	4873.00
426.01	5048.54
426.20	5107.05
426.39	4990.02
426.58	4952.57
426.77	4964.28
426.96	5081.30
427.15	5015.77
427.33	4940.87
427.52	4966.62
427.71	5167.90
427.90	5118.75
428.09	5160.88
428.28	5371.53
428.46	5207.69
428.65	5303.65
428.84	5455.79
429.03	5493.24
429.22	5345.78
429.40	5383.23
429.59	5486.22
429.78	5298.97
429.97	5259.18
430.16	5486.22
430.34	5502.60
430.53	5584.52
430.72	5591.54
430.91	5352.81
431.10	5462.81
431.28	5710.91
431.47	5626.65
431.66	5769.42
431.85	5556.43
432.03	5834.96
432.22	5916.87
432.41	5731.97
432.60	5937.94
432.79	5757.72
432.97	6050.28
433.16	5891.13
433.35	5832.62
433.54	6052.63
433.72	6064.33
433.91	5933.26
434.10	6232.85
434.28	5982.41
434.47	6087.73
434.66	6300.72
434.85	6204.76
435.03	6403.71
435.22	6235.19
435.41	6448.18
435.59	6401.37
435.78	6438.81
435.97	6389.66
436.16	6349.87
436.34	6408.39
436.53	6384.98
436.72	6389.66
436.90	6239.87
437.09	6642.44
437.28	6319.45
437.46	6628.40
437.65	6558.18
437.84	6731.38
438.02	6518.39
438.21	6761.81
438.40	6700.95
438.58	6743.08
438.77	6958.41
438.96	6740.74
439.14	7162.04
439.33	7105.87
439.52	7056.72
439.70	7049.69
439.89	7323.54
440.08	7309.49
440.26	7410.14
440.45	7208.85
440.63	7403.11
440.82	7555.25
441.01	7435.88
441.19	7644.19
441.38	7662.91
441.57	7653.55
441.75	7744.83
441.94	7686.32
442.12	7885.26
442.31	7946.12
442.50	7733.13
442.68	7929.74
442.87	7880.58
443.05	8013.99
443.24	8102.93
443.43	8056.12
443.61	7999.95
443.80	8407.20
443.98	7941.44
444.17	7765.90
444.35	8121.66
444.54	8252.73
444.73	8421.25
444.91	8154.43
445.10	8315.92
445.28	8252.73
445.47	8072.51
445.65	8236.35
445.84	8393.16
446.02	8428.27
446.21	8187.19
446.39	8402.52
446.58	8376.78
446.77	8446.99
446.95	8187.19
447.14	8311.24
447.32	8559.34
447.51	8538.27
447.69	8582.74
447.88	8411.89
448.06	8479.76
448.25	8491.46
448.43	8491.46
448.62	8423.59
448.80	8439.97
448.99	8566.36
449.17	8519.55
449.36	8505.51
449.54	8744.24
449.73	8737.22
449.91	8849.57
450.10	8854.25
450.28	9074.26
450.46	9022.77
450.65	9011.06
450.83	9076.60
451.02	9011.06
451.20	9090.64
451.39	8917.44
451.57	9142.13
451.76	9078.94
451.94	9191.28
452.13	9128.09
452.31	9355.12
452.49	9275.54
452.68	9303.63
452.86	9399.59
453.05	9439.38
453.23	9341.08
453.42	9139.79
453.60	9200.65
453.78	9444.06
453.97	9423.00
454.15	9387.89
454.34	9430.02
454.52	9694.50
454.70	9605.56
454.89	9664.07
455.07	9769.40
455.26	9551.73
455.44	9722.59
455.62	9743.65
455.81	9738.97
455.99	9977.70
456.17	9994.09
456.36	9975.36
456.54	10113.45
456.73	10061.96
456.91	10328.78
457.09	10368.57
457.28	10455.17
457.46	10092.39
457.64	10462.19
457.83	10518.37
458.01	10176.65
458.19	10586.24
458.38	10373.25
458.56	10656.46
458.74	10583.90
458.93	10661.14
459.11	10745.40
459.29	10532.41
459.48	10698.59
459.66	10733.70
459.84	10817.96
460.03	11044.99
460.21	10998.18
460.39	10909.24
460.57	10817.96
460.76	10904.56
460.94	11234.57
461.12	11159.67
461.31	11033.29
461.49	11131.59
461.67	11059.03
461.85	11351.60
462.04	11063.71
462.22	11768.21
462.40	11543.52
462.59	11375.00
462.77	11370.32
462.95	11529.48
463.13	11375.00
463.32	11482.67
463.50	11585.65
463.68	11616.08
463.86	11686.29
464.05	11548.20
464.23	11580.97
464.41	11744.81
464.59	11463.94
464.78	11910.99
464.96	11929.71
465.14	11550.54
465.32	12002.27
465.50	11892.26
465.69	11957.80
465.87	11967.16
466.05	11939.07
466.23	12212.92
466.41	12168.45
466.60	12198.87
466.78	12128.66
466.96	12264.41
467.14	12215.26
467.32	12294.83
467.51	12437.61
467.69	12035.03
467.87	12503.14
468.05	12308.88
468.23	12231.64
468.41	12304.20
468.60	12603.78
468.78	12463.35
468.96	12524.21
469.14	12840.18
469.32	12669.32
469.50	12655.28
469.69	12760.60
469.87	12795.71
470.05	12903.37
470.23	12861.24
470.41	13123.38
470.59	13312.97
470.77	13097.64
470.95	13099.98
471.14	13408.93
471.32	13057.85
471.50	13256.79
471.68	13607.87
471.86	13561.06
472.04	13657.03
472.22	13872.36
472.40	13467.44
472.58	13689.79
472.77	13893.42
472.95	13778.73
473.13	14382.59
473.31	13797.46
473.49	13994.06
473.67	14057.26
473.85	14104.07
474.03	14410.68
474.21	14406.00
474.39	14567.49
474.57	14567.49
474.75	14630.69
474.93	14637.71
475.12	14820.27
475.30	15082.41
475.48	14991.13
475.66	15089.43
475.84	15005.17
476.02	15325.83
476.20	15126.88
476.38	15749.46
476.56	15896.92
476.74	15667.55
476.92	15800.96
477.10	15639.46
477.28	16067.78
477.46	16065.44
477.64	16133.31
477.82	16336.94
478.00	16765.26
478.18	16460.99
478.36	16425.88
478.54	17099.95
478.72	16996.97
478.90	17170.17
479.08	17387.84
479.26	17411.25
479.44	17607.85
479.62	17598.49
479.80	17839.56
479.98	18024.47
480.16	18389.59
480.34	18228.09
480.52	18246.82
480.70	18532.36
480.88	18132.13
481.06	18513.64
481.24	18511.30
481.41	18792.16
481.59	19037.92
481.77	19204.10
481.95	19538.79
482.13	19704.97
482.31	19653.48
482.49	19892.21
482.67	20037.33
482.85	20070.09
483.03	20280.74
483.21	20709.06
483.39	20842.47
483.57	20767.57
483.74	20875.24
483.92	21238.02
484.10	21116.31
484.28	21855.92
484.46	21649.96
484.64	22008.06
484.82	21689.74
485.00	21979.97
485.18	22773.41
485.35	22361.48
485.53	22628.30
485.71	22874.06
485.89	23040.23
486.07	23204.07
486.25	23379.61
486.43	23456.85
486.61	23735.37
486.78	23889.85
486.96	23805.59
487.14	24407.11
487.32	24379.02
487.50	24741.80
487.68	24975.86
487.85	24802.66
488.03	25425.24
488.21	25399.49
488.39	25614.82
488.57	25671.00
488.75	25865.26
488.92	26192.94
489.10	26443.37
489.28	26595.51
489.46	26670.40
489.64	27232.13
489.81	27072.98
489.99	27213.41
490.17	27466.19
490.35	28119.20
490.53	27910.89
490.70	28065.36
490.88	28177.71
491.06	28568.58
491.24	28601.35
491.41	28215.16
491.59	28826.04
491.77	28809.65
491.95	29268.40
492.13	29373.72
492.30	29043.71
492.48	29792.68
492.66	29743.53
492.84	30216.32
493.01	30588.46
493.19	30419.94
493.37	30452.71
493.54	31000.40
493.72	30909.11
493.90	31143.17
494.08	31424.03
494.25	31482.55
494.43	31578.51
494.61	31786.82
494.79	32100.45
494.96	32259.60
495.14	32669.20
495.32	32528.77
495.49	32802.61
495.67	32875.16
495.85	33397.10
496.02	33713.08
496.20	33628.82
496.38	33972.88
496.55	33907.34
496.73	34192.89
496.91	34209.27
497.09	34403.53
497.26	34581.42
497.44	34639.93
497.62	34710.14
497.79	35510.61
497.97	34944.20
498.14	35618.27
498.32	35831.26
498.50	36034.89
498.67	36217.45
498.85	35936.59
499.03	36306.39
499.20	36350.86
499.38	36287.67
499.56	36615.34
499.73	36793.22
499.91	36945.36
500.08	37574.96
500.26	37139.62
500.44	37289.42
500.61	37565.60
500.79	37144.30
500.97	37816.04
501.14	38258.40
501.32	37811.35
501.49	37954.13
501.67	38148.39
501.84	38880.98
502.02	38541.60
502.20	38707.78
502.37	38953.54
502.55	39192.27
502.72	39082.27
502.90	39021.41
503.07	38857.57
503.25	39599.52
503.43	39480.16
503.60	39955.29
503.78	40027.84
503.95	40023.16
504.13	39800.81
504.30	40158.91
504.48	39789.11
504.65	40130.83
504.83	40683.19
505.01	40828.30
505.18	40404.67
505.36	40961.72
505.53	40793.20
505.71	40921.93
505.88	41263.64
506.06	40800.22
506.23	41586.64
506.41	41195.77
506.58	41984.53
506.76	41940.06
506.93	42298.16
507.11	41977.51
507.28	42171.77
507.46	42134.32
507.63	42838.83
507.81	42831.80
507.98	42649.24
508.16	42995.64
508.33	43136.07
508.50	43236.72
508.68	43316.29
508.85	43292.89
509.03	43194.59
509.20	43540.99
509.38	43746.95
509.55	44154.21
509.73	44062.93
509.90	44081.65
510.08	44353.15
510.25	44105.06
510.42	44655.08
510.60	44755.72
510.77	44996.80
510.95	44694.87
511.12	44811.90
511.30	44830.62
511.47	44573.16
511.64	45308.09
511.82	45488.31
511.99	45329.16
512.17	45263.62
512.34	45296.39
512.51	46080.47
512.69	45668.53
512.86	45989.19
513.04	45991.53
513.21	46618.79
513.38	46230.26
513.56	46546.23
513.73	46295.80
513.90	46485.38
514.08	46492.40
514.25	46932.42
514.43	46871.57
514.60	46923.06
514.77	46712.41
514.95	47571.39
515.12	47292.86
515.29	47360.74
515.47	47316.27
515.64	47833.53
515.81	47601.82
515.99	47992.68
516.16	47901.40
516.33	48013.75
516.51	48385.89
516.68	47931.83
516.85	48184.61
517.03	48507.60
517.20	48215.04
517.37	48383.55
517.54	48402.28
517.72	48669.10
517.89	48168.22
518.06	48751.02
518.24	48788.47
518.41	49059.97
518.58	48828.26
518.75	48615.27
518.93	49223.81
519.10	48978.05
519.27	49275.30
519.45	49528.08
519.62	49617.02
519.79	49549.14
519.96	49558.50
520.14	49577.23
520.31	49549.14
520.48	49818.30
520.65	50480.67
520.83	50131.93
521.00	50096.83
521.17	50071.08
521.34	50375.35
521.52	50239.60
521.69	50160.02
521.86	50665.58
522.03	50951.12
522.20	51047.08
522.38	51112.62
522.55	50841.12
522.72	50827.07
522.89	50824.73
523.07	51482.42
523.24	51061.13
523.41	51356.03
523.58	51297.52
523.75	51318.59
523.92	51416.89
524.10	51540.94
524.27	51545.62
524.44	51903.72
524.61	51770.31
524.78	51805.42
524.96	51753.93
525.13	51789.03
525.30	52172.88
525.47	52292.25
525.64	52163.52
525.81	52222.03
525.98	52207.99
526.16	52456.09
526.33	52395.23
526.50	52659.71
526.67	52442.04
526.84	52828.23
527.01	52563.75
527.18	52439.70
527.36	52264.16
527.53	52692.48
527.70	52828.23
527.87	52942.92
528.04	52783.76
528.21	52933.56
528.38	52938.24
528.55	53237.83
528.72	53212.08
528.89	53181.65
529.07	53045.90
529.24	53099.73
529.41	53109.10
529.58	53413.37
529.75	53319.74
529.92	53511.67
530.09	53460.18
530.26	53680.19
530.43	53698.91
530.60	53581.88
530.77	53317.40
530.94	54010.20
531.11	53818.28
531.28	53602.95
531.46	53820.62
531.63	54005.52
531.80	53813.60
531.97	54005.52
532.14	54248.94
532.31	54059.35
532.48	54581.29
532.65	54309.79
532.82	54454.90
532.99	54265.32
533.16	54415.11
533.33	54461.93
533.50	54733.43
533.67	54401.07
533.84	54372.99
534.01	54763.85
534.18	54656.19
534.35	55248.35
534.52	54852.80
534.69	54960.46
534.86	55049.40
535.03	54794.28
535.20	54838.75
535.37	55231.96
535.54	55009.61
535.71	54817.69
535.88	55299.84
536.05	55393.46
536.22	55253.03
536.38	55206.22
536.55	55463.67
536.72	55332.60
536.89	55330.26
537.06	55334.95
537.23	55356.01
537.40	55320.90
537.57	55489.42
537.74	55405.16
537.91	55690.71
538.08	55627.51
538.25	55386.44
538.42	55772.63
538.59	55891.99
538.75	55800.71
538.92	55800.71
539.09	55880.29
539.26	55777.31
539.43	55777.31
539.60	55875.61
539.77	55936.46
539.94	56100.30
540.11	55906.04
540.28	56172.86
540.44	56182.22
540.61	56193.92
540.78	56140.09
540.95	56210.31
541.12	56079.24
541.29	56023.06
541.46	56320.31
541.62	56334.35
541.79	56584.79
541.96	56219.67
542.13	56088.60
542.30	56528.62
542.47	56615.22
542.63	56566.07
542.80	56746.29
542.97	56947.57
543.14	57104.39
543.31	56877.36
543.48	56868.00
543.64	56947.57
543.81	57193.33
543.98	57186.31
544.15	57048.22
544.32	57221.42
544.48	57420.36
544.65	56968.64
544.82	57090.35
544.99	57139.50
545.16	57144.18
545.32	57291.63
545.49	57408.66
545.66	57506.96
545.83	57284.61
546.00	57434.41
546.16	57429.72
546.33	57272.91
546.50	57209.71
546.67	57354.83
546.83	57214.40
547.00	57462.49
547.17	57492.92
547.34	57794.85
547.50	57513.98
547.67	57946.98
547.84	57932.94
548.00	57902.51
548.17	58045.29
548.34	57738.68
548.51	57970.39
548.67	57867.40
548.84	57911.88
549.01	57687.18
549.18	57869.75
549.34	57963.37
549.51	58012.52
549.68	57989.11
549.84	58096.78
550.01	58075.71
550.18	57893.15
550.34	58234.87
550.51	58176.36
550.68	57932.94
550.84	58054.65
551.01	58546.16
551.18	58291.04
551.34	58241.89
551.51	58326.15
551.68	58204.44
551.84	58384.66
552.01	58244.23
552.18	58382.32
552.34	58024.22
552.51	58539.14
552.68	58159.97
552.84	58614.04
553.01	58810.64
553.18	58595.31
553.34	58873.84
553.51	58532.12
553.67	58621.06
553.84	58501.69
554.01	58548.50
554.17	58841.07
554.34	58855.11
554.51	58848.09
554.67	58749.79
554.84	58728.72
555.00	58663.19
555.17	58663.19
555.33	58951.07
555.50	58773.19
555.67	58794.26
555.83	58798.94
556.00	59112.57
556.16	59135.98
556.33	59000.22
556.50	59173.42
556.66	59143.00
556.83	59011.93
556.99	59107.89
557.16	59231.94
557.32	59316.20
557.49	59564.29
557.65	59199.17
557.82	59072.78
557.98	59194.49
558.15	59128.95
558.32	59271.73
558.48	59089.16
558.65	59360.67
558.81	59304.49
558.98	59304.49
559.14	59288.11
559.31	59370.03
559.47	59440.24
559.64	59339.60
559.80	59519.82
559.97	59351.30
560.13	59161.72
560.30	59494.08
560.46	59400.46
560.63	59613.44
560.79	59494.08
560.96	59381.73
561.12	59571.32
561.29	59639.19
561.45	59613.44
561.61	59803.03
561.78	59538.55
561.94	59468.33
562.11	59594.72
562.27	59732.81
562.44	59657.91
562.60	60013.68
562.77	59894.31
562.93	59604.08
563.10	59999.63
563.26	59627.49
563.42	59945.80
563.59	59629.83
563.75	59870.90
563.92	59807.71
564.08	59721.11
564.24	59877.93
564.41	59938.78
564.57	59835.80
564.74	59803.03
564.90	60023.04
565.07	59760.90
565.23	59824.09
565.39	59564.29
565.56	59941.12
565.72	60100.28
565.88	60027.72
566.05	59891.97
566.21	60093.25
566.38	59943.46
566.54	60023.04
566.70	60186.88
566.87	60165.81
567.03	59983.25
567.19	60348.37
567.36	60114.32
567.52	60217.30
567.68	60294.54
567.85	60016.02
568.01	60257.09
568.17	60149.43
568.34	60322.63
568.50	59943.46
568.66	60097.94
568.83	60189.22
568.99	60287.52
569.15	60154.11
569.32	60111.98
569.48	60196.24
569.64	60336.67
569.81	60266.45
569.97	60374.12
570.13	60322.63
570.30	59938.78
570.46	60048.78
570.62	60371.78
570.78	60296.88
570.95	60198.58
571.11	60346.03
571.27	60296.88
571.43	60203.26
571.60	60528.59
571.76	60280.50
571.92	60172.83
572.09	60556.68
572.25	60418.59
572.41	60266.45
572.57	60198.58
572.74	60488.80
572.90	60308.58
573.06	60341.35
573.22	60446.68
573.38	60268.79
573.55	60434.97
573.71	60334.33
573.87	60395.18
574.03	60369.44
574.20	60420.93
574.36	60308.58
574.52	60512.21
574.68	60507.53
574.84	60732.22
575.01	60673.71
575.17	60481.78
575.33	60346.03
575.49	60512.21
575.65	60463.06
575.82	60631.58
575.98	60781.37
576.14	60853.93
576.30	60458.38
576.46	60411.57
576.62	60413.91
576.79	60491.15
576.95	60278.16
577.11	60566.04
577.27	60760.31
577.43	60596.47
577.59	60502.85
577.75	60505.19
577.92	60608.17
578.08	60521.57
578.24	60786.05
578.40	60673.71
578.56	60800.10
578.72	60556.68
578.88	60926.49
579.04	60580.09
579.21	60652.64
579.37	60781.37
579.53	60933.51
579.69	60533.28
579.85	60528.59
580.01	60636.26
580.17	60603.49
580.33	60793.07
580.49	60832.86
580.65	60676.05
580.82	60701.79
580.98	60542.64
581.14	60584.77
581.30	60636.26
581.46	60818.82
581.62	60779.03
581.78	60481.78
581.94	60523.91
582.10	60729.88
582.26	60697.11
582.42	60821.16
582.58	60769.67
582.74	60687.75
582.90	60779.03
583.06	60837.54
583.22	60657.32
583.38	60872.65
583.54	60772.01
583.70	60942.87
583.86	60690.09
584.02	60849.25
584.18	60729.88
584.34	60685.41
584.50	60938.19
584.66	60816.48
584.82	60542.64
584.98	60816.48
585.14	60750.94
585.30	60800.10
585.46	60753.29
585.62	60643.28
585.78	60947.55
585.94	60463.06
586.10	60790.73
586.26	60821.16
586.42	61017.77
586.58	60938.19
586.74	61144.16
586.90	60722.86
587.06	60867.97
587.22	60947.55
587.38	60851.59
587.54	60926.49
587.70	61179.26
587.86	60924.14
588.02	60622.22
588.18	60917.12
588.34	60788.39
588.49	60797.76
