SpectraSuite Data File
++++++++++++++++++++++++++++++++++++
Date: Fri Oct 25 10:47:04 EDT 2013
User: price-jones
Dark Spectrum Present: No
Reference Spectrum Present: No
Number of Sampled Component Spectra: 1
Spectrometers: USB2+H05261
Integration Time (usec): 100000 (USB2+H05261)
Spectra Averaged: 1 (USB2+H05261)
Boxcar Smoothing: 0 (USB2+H05261)
Correct for Electrical Dark: No (USB2+H05261)
Strobe/Lamp Enabled: No (USB2+H05261)
Correct for Detector Non-linearity: No (USB2+H05261)
Correct for Stray Light: No (USB2+H05261)
Number of Pixels in Processed Spectrum: 2048
>>>>>Begin Processed Spectral Data<<<<<
365.73	166.18
365.92	166.18
366.12	166.18
366.32	46.81
366.52	9.36
366.72	39.79
366.91	11.70
367.11	67.88
367.31	51.49
367.51	46.81
367.70	37.45
367.90	67.88
368.10	0.00
368.30	175.54
368.49	67.88
368.69	49.15
368.89	110.01
369.09	14.04
369.28	110.01
369.48	114.69
369.68	72.56
369.87	147.45
370.07	105.32
370.27	140.43
370.47	189.58
370.66	297.25
370.86	381.51
371.06	386.19
371.25	430.66
371.45	482.15
371.65	496.19
371.84	465.77
372.04	444.70
372.24	507.90
372.44	482.15
372.63	503.22
372.83	451.72
373.03	526.62
373.22	519.60
373.42	456.40
373.62	507.90
373.81	503.22
374.01	564.07
374.21	571.09
374.40	526.62
374.60	695.14
374.79	540.66
374.99	547.69
375.19	489.17
375.38	594.50
375.58	550.03
375.78	669.39
375.97	540.66
376.17	631.94
376.37	538.32
376.56	554.71
376.76	521.94
376.95	557.05
377.15	580.45
377.35	648.33
377.54	613.22
377.74	592.16
377.93	631.94
378.13	655.35
378.33	582.79
378.52	648.33
378.72	660.03
378.91	594.50
379.11	606.20
379.31	636.63
379.50	683.44
379.70	730.25
379.89	674.07
380.09	664.71
380.28	610.88
380.48	695.14
380.68	653.01
380.87	596.84
381.07	648.33
381.26	709.18
381.46	657.69
381.65	725.57
381.85	662.37
382.04	629.60
382.24	760.67
382.43	730.25
382.63	699.82
382.83	653.01
383.02	676.41
383.22	711.52
383.41	744.29
383.61	767.70
383.80	819.19
384.00	781.74
384.19	716.20
384.39	751.31
384.58	678.76
384.78	772.38
384.97	744.29
385.17	767.70
385.36	798.12
385.56	798.12
385.75	802.80
385.95	744.29
386.14	802.80
386.34	774.72
386.53	753.65
386.72	849.61
386.92	887.06
387.11	844.93
387.31	875.36
387.50	760.67
387.70	826.21
387.89	858.98
388.09	821.53
388.28	830.89
388.48	809.83
388.67	908.13
388.86	947.92
389.06	884.72
389.25	926.85
389.45	915.15
389.64	915.15
389.84	922.17
390.03	917.49
390.22	894.08
390.42	917.49
390.61	926.85
390.81	976.00
391.00	987.71
391.19	1057.92
391.39	966.64
391.58	992.39
391.78	964.30
391.97	959.62
392.16	933.87
392.36	1013.45
392.55	994.73
392.75	1025.15
392.94	1022.81
393.13	1025.15
393.33	922.17
393.52	1022.81
393.71	1022.81
393.91	1036.86
394.10	1064.94
394.29	1135.16
394.49	1071.97
394.68	1090.69
394.88	1118.78
395.07	1135.16
395.26	1036.86
395.46	1081.33
395.65	1149.20
395.84	1167.93
396.04	1228.78
396.23	1130.48
396.42	1102.39
396.62	1146.86
396.81	1128.14
397.00	1226.44
397.19	1210.06
397.39	1238.14
397.58	1226.44
397.77	1252.19
397.97	1301.34
398.16	1294.32
398.35	1294.32
398.55	1207.72
398.74	1397.30
398.93	1376.24
399.12	1423.05
399.32	1306.02
399.51	1282.61
399.70	1394.96
399.90	1401.98
400.09	1409.00
400.28	1497.94
400.47	1479.22
400.67	1500.28
400.86	1453.47
401.05	1507.30
401.24	1591.56
401.44	1535.39
401.63	1509.65
401.82	1476.88
402.01	1451.13
402.21	1572.84
402.40	1540.07
402.59	1643.06
402.78	1544.75
402.97	1575.18
403.17	1713.27
403.36	1666.46
403.55	1638.38
403.74	1657.10
403.93	1673.48
404.13	1626.67
404.32	1675.82
404.51	1739.02
404.70	1720.29
404.89	1736.68
405.09	1825.62
405.28	1802.21
405.47	1671.14
405.66	1858.39
405.85	1717.95
406.05	1797.53
406.24	1811.57
406.43	1891.15
406.62	1849.02
406.81	1935.62
407.00	1809.23
407.20	1827.96
407.39	1762.42
407.58	1874.77
407.77	2005.84
407.96	2099.46
408.15	2005.84
408.34	2001.16
408.54	1994.14
408.73	2064.35
408.92	2101.80
409.11	2059.67
409.30	2062.01
409.49	2108.82
409.68	2062.01
409.87	2071.37
410.07	2157.97
410.26	2190.74
410.45	2169.68
410.64	2172.02
410.83	2258.62
411.02	2172.02
411.21	2277.34
411.40	2349.90
411.59	2387.35
411.78	2310.11
411.98	2373.30
412.17	2434.16
412.36	2434.16
412.55	2469.27
412.74	2518.42
412.93	2504.37
413.12	2487.99
413.31	2663.53
413.50	2661.19
413.69	2495.01
413.88	2590.97
414.07	2637.78
414.26	2647.15
414.45	2635.44
414.64	2705.66
414.83	2715.02
415.02	2733.75
415.22	2789.92
415.41	2974.82
415.60	2750.13
415.79	2862.48
415.98	2960.78
416.17	2883.54
416.36	2935.03
416.55	3045.04
416.74	2970.14
416.93	3023.97
417.12	3014.61
417.31	3115.25
417.50	2951.42
417.69	3052.06
417.88	3061.42
418.07	3075.46
418.26	3124.62
418.45	3208.87
418.64	3274.41
418.83	3269.73
419.02	3302.50
419.21	3295.47
419.39	3297.81
419.58	3248.66
419.77	3204.19
419.96	3309.52
420.15	3466.33
420.34	3506.12
420.53	3440.59
420.72	3489.74
420.91	3382.07
421.10	3529.53
421.29	3482.72
421.48	3449.95
421.67	3548.25
421.86	3534.21
422.05	3536.55
422.24	3456.97
422.43	3529.53
422.61	3531.87
422.80	3644.21
422.99	3503.78
423.18	3534.21
423.37	3569.32
423.56	3543.57
423.75	3653.58
423.94	3637.19
424.13	3363.35
424.32	3552.93
424.50	3737.84
424.69	3662.94
424.88	3667.62
425.07	3648.90
425.26	3669.96
425.45	3602.08
425.64	3597.40
425.83	3669.96
426.01	3808.05
426.20	3627.83
426.39	3658.26
426.58	3606.77
426.77	3768.26
426.96	3693.37
427.15	3578.68
427.33	3857.20
427.52	3744.86
427.71	3779.97
427.90	3779.97
428.09	3803.37
428.28	3735.50
428.46	3817.41
428.65	3798.69
428.84	3969.55
429.03	3967.21
429.22	3953.16
429.40	3915.72
429.59	3794.01
429.78	3695.71
429.97	3786.99
430.16	3705.07
430.34	3927.42
430.53	3864.22
430.72	3992.95
430.91	4046.79
431.10	4135.73
431.28	4271.48
431.47	4278.50
431.66	4353.40
431.85	4149.77
432.03	4322.97
432.22	4393.19
432.41	4227.01
432.60	4395.53
432.79	4224.67
432.97	4365.10
433.16	4327.65
433.35	4276.16
433.54	4353.40
433.72	4372.12
433.91	4257.43
434.10	4414.25
434.28	4402.55
434.47	4486.81
434.66	4479.79
434.85	4552.34
435.03	4531.28
435.22	4477.44
435.41	4568.73
435.59	4678.73
435.78	4620.22
435.97	4816.82
436.16	4741.93
436.34	4617.88
436.53	4613.20
436.72	4830.87
436.90	4608.51
437.09	4671.71
437.28	4664.69
437.46	4699.80
437.65	4873.00
437.84	4854.27
438.02	4795.76
438.21	4732.56
438.40	4791.08
438.58	4915.12
438.77	4994.70
438.96	4905.76
439.14	5036.83
439.33	5158.54
439.52	5203.01
439.70	5210.03
439.89	5207.69
440.08	5338.76
440.26	5343.44
440.45	5263.86
440.63	5348.12
440.82	5528.35
441.01	5497.92
441.19	5507.28
441.38	5584.52
441.57	5738.99
441.75	5628.99
441.94	5540.05
442.12	5809.21
442.31	5785.80
442.50	5685.16
442.68	5654.73
442.87	5778.78
443.05	5881.77
443.24	5907.51
443.43	5877.09
443.61	5914.53
443.80	6026.88
443.98	5877.09
444.17	5689.84
444.35	5844.32
444.54	6050.28
444.73	5991.77
444.91	5987.09
445.10	5921.56
445.28	5935.60
445.47	5860.70
445.65	5888.79
445.84	6052.63
446.02	6026.88
446.21	6176.67
446.39	5872.40
446.58	6202.42
446.77	5998.79
446.95	6127.52
447.14	6132.20
447.32	6340.51
447.51	6073.69
447.69	6085.39
447.88	6265.61
448.06	6157.95
448.25	6202.42
448.43	6232.85
448.62	6230.51
448.80	6073.69
448.99	6104.12
449.17	6324.13
449.36	6108.80
449.54	6331.15
449.73	6534.78
449.91	6534.78
450.10	6370.94
450.28	6523.07
450.46	6544.14
450.65	6513.71
450.83	6478.60
451.02	6640.10
451.20	6614.35
451.39	6686.91
451.57	6670.53
451.76	6590.95
451.94	6642.44
452.13	6745.42
452.31	6799.26
452.49	6509.03
452.68	6719.68
452.86	6553.50
453.05	6532.44
453.23	6745.42
453.42	6668.19
453.60	6670.53
453.78	6829.68
453.97	6736.06
454.15	6899.90
454.34	6691.59
454.52	7124.59
454.70	6867.13
454.89	6853.09
455.07	6871.81
455.26	7145.66
455.44	7103.53
455.62	6897.56
455.81	7091.82
455.99	7157.36
456.17	7265.02
456.36	7225.23
456.54	7501.42
456.73	7276.73
456.91	7339.92
457.09	7456.95
457.28	7712.07
457.46	7351.62
457.64	7414.82
457.83	7335.24
458.01	7234.60
458.19	7758.88
458.38	7566.95
458.56	7742.49
458.74	7667.60
458.93	7503.76
459.11	7616.10
459.29	7679.30
459.48	7683.98
459.66	7613.76
459.84	7529.50
460.03	7885.26
460.21	7908.67
460.39	7695.68
460.57	7838.45
460.76	8028.04
460.94	7922.71
461.12	7955.48
461.31	7854.84
461.49	7901.65
461.67	7967.18
461.85	8212.94
462.04	8058.46
462.22	8535.93
462.40	8128.68
462.59	8088.89
462.77	8133.36
462.95	8142.72
463.13	8074.85
463.32	8184.85
463.50	8257.41
463.68	8360.39
463.86	8517.21
464.05	8098.25
464.23	8182.51
464.41	8468.06
464.59	8131.02
464.78	8568.70
464.96	8351.03
465.14	8327.63
465.32	8496.14
465.50	8716.16
465.69	8594.45
465.87	8575.72
466.05	8552.32
466.23	8397.84
466.41	8465.72
466.60	8816.80
466.78	8669.34
466.96	8585.08
467.14	8489.12
467.32	8690.41
467.51	8887.01
467.69	8514.87
467.87	8538.27
468.05	8828.50
468.23	8727.86
468.41	8727.86
468.60	8875.31
468.78	9064.89
468.96	8908.08
469.14	8992.34
469.32	9219.37
469.50	8636.58
469.69	8971.27
469.87	9050.85
470.05	9219.37
470.23	9029.79
470.41	9331.72
470.59	9238.09
470.77	9067.24
470.95	9343.42
471.14	9226.39
471.32	9018.08
471.50	9542.36
471.68	9551.73
471.86	9277.88
472.04	9542.36
472.22	9762.37
472.40	9507.26
472.58	9783.44
472.77	9708.54
472.95	9863.02
473.13	10186.01
473.31	9802.16
473.49	9598.54
473.67	9877.06
473.85	9937.91
474.03	10111.11
474.21	10258.57
474.39	10167.29
474.57	10490.28
474.75	10389.64
474.93	10399.00
475.12	10251.55
475.30	10530.07
475.48	10410.70
475.66	10459.85
475.84	10441.13
476.02	10759.44
476.20	10537.09
476.38	10684.55
476.56	10911.58
476.74	10911.58
476.92	10883.49
477.10	10855.40
477.28	11194.78
477.46	11035.63
477.64	11222.87
477.82	11307.13
478.00	11391.39
478.18	11672.25
478.36	11627.78
478.54	12009.29
478.72	11620.76
478.90	11903.96
479.08	12264.41
479.26	12241.00
479.44	12409.52
479.62	12196.53
479.80	12545.27
479.98	12629.53
480.16	12510.16
480.34	12552.29
480.52	12617.83
480.70	13008.70
480.88	12575.70
481.06	12889.33
481.24	12966.57
481.41	13165.51
481.59	13259.13
481.77	13404.25
481.95	13427.65
482.13	13493.19
482.31	13434.68
482.49	13734.26
482.67	13755.33
482.85	13888.74
483.03	14066.62
483.21	14183.65
483.39	14340.46
483.57	14347.48
483.74	14602.60
483.92	14272.59
484.10	14295.99
484.28	15007.52
484.46	14850.70
484.64	15243.91
484.82	15002.83
485.00	14984.11
485.18	15367.96
485.35	15564.56
485.53	15335.19
485.71	15316.47
485.89	15789.25
486.07	15702.65
486.25	15700.31
486.43	15833.72
486.61	16180.12
486.78	16348.64
486.96	16332.26
487.14	16198.85
487.32	16489.07
487.50	16695.04
487.68	17027.40
487.85	17256.77
488.03	17212.30
488.21	17500.19
488.39	17380.82
488.57	17586.79
488.75	17551.68
488.92	17888.71
489.10	18153.20
489.28	18216.39
489.46	18359.16
489.64	18270.22
489.81	18820.25
489.99	18813.23
490.17	18717.26
490.35	19002.81
490.53	19192.39
490.70	19157.28
490.88	19330.48
491.06	19374.95
491.24	19389.00
491.41	19667.52
491.59	19424.11
491.77	19501.34
491.95	20166.06
492.13	19950.73
492.30	20512.46
492.48	20144.99
492.66	20432.88
492.84	20482.03
493.01	20725.44
493.19	20751.19
493.37	21048.44
493.54	20692.68
493.72	21015.67
493.90	21223.98
494.08	21315.26
494.25	21488.46
494.43	21797.41
494.61	22202.32
494.79	21783.37
494.96	21944.86
495.14	21986.99
495.32	22232.75
495.49	22174.24
495.67	22232.75
495.85	22532.34
496.02	22368.50
496.20	22883.42
496.38	22979.38
496.55	22951.29
496.73	23726.01
496.91	22860.01
497.09	23300.03
497.26	23510.68
497.44	23019.17
497.62	23768.14
497.79	23786.86
497.97	23360.89
498.14	24142.63
498.32	23756.44
498.50	24297.10
498.67	24577.97
498.85	24271.36
499.03	24596.69
499.20	24814.36
499.38	24617.75
499.56	24732.44
499.73	24563.92
499.91	24851.81
500.08	25605.46
500.26	24706.70
500.44	24989.90
500.61	25188.85
500.79	25132.67
500.97	25132.67
501.14	25355.02
501.32	25565.67
501.49	25645.25
501.67	25846.54
501.84	25736.53
502.02	25919.09
502.20	25862.92
502.37	26197.62
502.55	26244.43
502.72	26466.78
502.90	26380.18
503.07	26632.96
503.25	26565.08
503.43	26623.59
503.60	26431.67
503.78	26717.22
503.95	26740.62
504.13	26815.52
504.30	27094.04
504.48	27096.38
504.65	27309.37
504.83	27269.58
505.01	27328.10
505.18	27613.64
505.36	27627.68
505.53	28112.17
505.71	27859.40
505.88	27735.35
506.06	27747.05
506.23	27875.78
506.41	28018.55
506.58	27962.38
506.76	28292.40
506.93	28479.64
507.11	28336.87
507.28	28552.20
507.46	28194.09
507.63	28587.30
507.81	28929.02
507.98	28556.88
508.16	28753.48
508.33	28140.26
508.50	28933.70
508.68	29303.51
508.85	29153.71
509.03	29076.48
509.20	29490.75
509.38	29612.46
509.55	29743.53
509.73	29696.72
509.90	29752.89
510.08	29046.05
510.25	29472.03
510.42	29504.79
510.60	30043.12
510.77	30164.82
510.95	30029.07
511.12	30218.66
511.30	30443.35
511.47	30438.67
511.64	30513.56
511.82	30614.21
511.99	30562.72
512.17	30679.74
512.34	30593.14
512.51	31084.65
512.69	30962.95
512.86	31087.00
513.04	31164.23
513.21	30944.22
513.38	30862.30
513.56	31248.49
513.73	31175.94
513.90	31143.17
514.08	31456.80
514.25	31421.69
514.43	31454.46
514.60	31807.88
514.77	31519.99
514.95	31700.22
515.12	32158.96
515.29	31847.67
515.47	32165.98
515.64	32161.30
515.81	32334.50
515.99	31974.06
516.16	32070.02
516.33	32142.58
516.51	32252.58
516.68	32002.14
516.85	32182.37
517.03	32266.63
517.20	32594.30
517.37	32620.05
517.54	32718.35
517.72	32772.18
517.89	32369.61
518.06	32807.29
518.24	32863.46
518.41	32540.47
518.58	32837.72
518.75	32631.75
518.93	33055.39
519.10	32964.10
519.27	33490.73
519.45	33495.41
519.62	33081.13
519.79	33467.32
519.96	33582.01
520.14	34103.95
520.31	33516.47
520.48	33902.66
520.65	34064.16
520.83	34497.16
521.00	34644.61
521.17	34316.93
521.34	34408.22
521.52	34391.83
521.69	34157.78
521.86	34438.64
522.03	34316.93
522.20	34536.94
522.38	34806.11
522.55	34953.56
522.72	34445.66
522.89	34813.13
523.07	34993.35
523.24	34660.99
523.41	34675.04
523.58	34539.29
523.75	35344.43
523.92	34955.90
524.10	35164.21
524.27	35409.96
524.44	35747.00
524.61	35564.44
524.78	35908.50
524.96	35772.75
525.13	36084.04
525.30	36034.89
525.47	35997.44
525.64	35754.02
525.81	36175.32
525.98	36100.42
526.16	35707.21
526.33	36051.27
526.50	35957.65
526.67	35728.28
526.84	36065.31
527.01	35819.56
527.18	35992.76
527.36	36662.15
527.53	36741.73
527.70	36765.14
527.87	36896.20
528.04	36451.50
528.21	36835.35
528.38	36961.74
528.55	37139.62
528.72	36961.74
528.89	37233.24
529.07	37081.11
529.24	36889.18
529.41	36919.61
529.58	36772.16
529.75	37031.96
529.92	37668.58
530.09	37137.28
530.26	37418.14
530.43	37673.26
530.60	37432.19
530.77	37418.14
530.94	37696.67
531.11	37717.73
531.28	37558.58
531.46	37635.81
531.63	37743.48
531.80	38155.41
531.97	37813.70
532.14	37888.59
532.31	37502.40
532.48	38033.71
532.65	38127.33
532.82	37902.64
532.99	38195.20
533.16	37617.09
533.33	38190.52
533.50	38745.23
533.67	38295.85
533.84	38295.85
534.01	38553.30
534.18	38452.66
534.35	38670.33
534.52	38597.77
534.69	38600.12
534.86	38801.40
535.03	38307.55
535.20	39100.99
535.37	38976.94
535.54	39409.94
535.71	38546.28
535.88	38660.97
536.05	38820.13
536.22	38955.88
536.38	39037.80
536.55	39119.71
536.72	39140.78
536.89	38885.66
537.06	39257.81
537.23	39412.28
537.40	39276.53
537.57	39208.65
537.74	39674.42
537.91	39899.11
538.08	39714.21
538.25	39555.05
538.42	39454.41
538.59	40172.96
538.75	39538.67
538.92	39559.73
539.09	40074.65
539.26	39665.06
539.43	39861.66
539.60	40025.50
539.77	40053.59
539.94	39959.97
540.11	40006.78
540.28	39971.67
540.44	40032.52
540.61	39910.82
540.78	39976.35
540.95	40201.04
541.12	40081.67
541.29	40147.21
541.46	40226.79
541.62	40299.34
541.79	40638.72
541.96	40636.38
542.13	40360.20
542.30	40575.53
542.47	40477.22
542.63	39985.71
542.80	40673.83
542.97	40795.54
543.14	41188.75
543.31	41134.92
543.48	40982.78
543.64	41256.62
543.81	41289.39
543.98	41165.34
544.15	41228.54
544.32	41350.24
544.48	41661.54
544.65	41429.82
544.82	41488.34
544.99	40524.04
545.16	41254.28
545.32	41050.66
545.49	41830.05
545.66	41525.78
545.83	41207.47
546.00	41579.62
546.16	41553.87
546.33	41603.02
546.50	41319.82
546.67	41895.59
546.83	41153.64
547.00	41455.57
547.17	41673.24
547.34	41464.93
547.50	41614.72
547.67	41675.58
547.84	42061.77
548.00	42160.07
548.17	42103.90
548.34	42087.51
548.51	42487.74
548.67	42136.66
548.84	42251.35
549.01	42223.26
549.18	42422.21
549.34	42359.02
549.51	42160.07
549.68	42239.65
549.84	42459.66
550.01	42543.92
550.18	42513.49
550.34	42501.79
550.51	42646.90
550.68	42824.78
550.84	42171.77
551.01	42618.81
551.18	42693.71
551.34	42438.59
551.51	42932.45
551.68	42773.29
551.84	42864.57
552.01	42476.04
552.18	42836.48
552.34	42464.34
552.51	43000.32
552.68	42642.22
552.84	43203.95
553.01	43571.41
553.18	43187.56
553.34	42941.81
553.51	43143.09
553.67	42983.94
553.84	43007.34
554.01	42920.74
554.17	43742.27
554.34	43629.93
554.51	42962.87
554.67	43454.39
554.84	43126.71
555.00	43035.43
555.17	43372.47
555.33	43042.45
555.50	43704.82
555.67	43639.29
555.83	43374.81
556.00	43871.00
556.16	43814.83
556.33	43573.75
556.50	43608.86
556.66	43470.77
556.83	43473.11
556.99	43901.43
557.16	43496.52
557.32	43386.51
557.49	43559.71
557.65	43622.90
557.82	43707.16
557.98	43756.32
558.15	43222.67
558.32	43899.09
558.48	43978.67
558.65	44032.50
558.81	44046.54
558.98	43683.76
559.14	43936.54
559.31	43784.40
559.47	43791.42
559.64	44140.16
559.80	44203.36
559.97	43786.74
560.13	44025.48
560.30	43882.70
560.46	43716.53
560.63	43817.17
560.79	44320.38
560.96	44430.39
561.12	44179.95
561.29	43969.30
561.45	43957.60
561.61	44191.65
561.78	44465.50
561.94	43950.58
562.11	44018.46
562.27	44259.53
562.44	44041.86
562.60	44289.96
562.77	44481.88
562.93	44318.04
563.10	44278.25
563.26	43988.03
563.42	44790.83
563.59	44292.30
563.75	44470.18
563.92	44411.67
564.08	44411.67
564.24	45001.48
564.41	44421.03
564.57	44673.81
564.74	44739.34
564.90	44678.49
565.07	44699.55
565.23	44282.94
565.39	44353.15
565.56	44421.03
565.72	44058.24
565.88	44329.75
566.05	43826.53
566.21	44385.92
566.38	44395.28
566.54	44795.51
566.70	44938.29
566.87	45153.62
567.03	44683.17
567.19	45172.34
567.36	44421.03
567.52	44507.63
567.68	44837.64
567.85	44591.89
568.01	44535.71
568.17	44589.55
568.34	44751.04
568.50	44554.44
568.66	44329.75
568.83	44912.54
568.99	44376.56
569.15	44655.08
569.32	44762.75
569.48	44456.14
569.64	45123.19
569.81	45127.87
569.97	44430.39
570.13	44856.37
570.30	44093.35
570.46	44397.62
570.62	44570.82
570.78	44545.08
570.95	44659.76
571.11	44973.39
571.27	44498.26
571.43	44816.58
571.60	44975.73
571.76	44954.67
571.92	44706.57
572.09	44582.52
572.25	44521.67
572.41	44563.80
572.57	44865.73
572.74	45062.33
572.90	44655.08
573.06	44891.48
573.22	44987.44
573.38	44971.05
573.55	44495.92
573.71	45172.34
573.87	45272.98
574.03	44741.68
574.20	45118.51
574.36	44545.08
574.52	45345.54
574.68	44985.10
574.84	45017.86
575.01	44842.32
575.17	44655.08
575.33	44863.39
575.49	44999.14
575.65	45418.10
575.82	45181.70
575.98	44832.96
576.14	45610.02
576.30	45013.18
576.46	44844.66
576.62	44605.93
576.79	45326.81
576.95	44612.95
577.11	44910.20
577.27	44896.16
577.43	45074.04
577.59	45022.54
577.75	45085.74
577.92	44989.78
578.08	44942.97
578.24	44737.00
578.40	44933.60
578.56	45057.65
578.72	45090.42
578.88	44989.78
579.04	45291.71
579.21	44945.31
579.37	44914.88
579.53	44830.62
579.69	44715.93
579.85	45095.10
580.01	45062.33
580.17	45361.92
580.33	45441.50
580.49	45139.57
580.65	45366.60
580.82	45301.07
580.98	45497.67
581.14	44870.41
581.30	45284.68
581.46	44835.30
581.62	44650.40
581.78	45319.79
581.94	45083.40
582.10	45347.88
582.26	44975.73
582.42	45207.45
582.58	44933.60
582.74	45177.02
582.90	45057.65
583.06	45193.40
583.22	45184.04
583.38	45331.50
583.54	45132.55
583.70	45024.89
583.86	45095.10
584.02	45144.25
584.18	45432.14
584.34	45200.43
584.50	45268.30
584.66	44868.07
584.82	44905.52
584.98	45558.53
585.14	45382.99
585.30	45144.25
585.46	45315.11
585.62	45268.30
585.78	44992.12
585.94	45116.17
586.10	44825.94
586.26	44856.37
586.42	45244.90
586.58	45481.29
586.74	45425.12
586.90	45324.47
587.06	45001.48
587.22	45324.47
587.38	44905.52
587.54	45420.44
587.70	45413.41
587.86	45399.37
588.02	45631.08
588.18	45446.18
588.34	45139.57
588.49	45500.01
588.65	44868.07
588.81	44856.37
588.97	44832.96
589.13	44959.35
589.29	44868.07
589.45	45102.12
589.61	45092.76
589.77	45333.84
589.93	45308.09
590.08	45352.56
