SpectraSuite Data File
++++++++++++++++++++++++++++++++++++
Date: Fri Oct 25 10:47:28 EDT 2013
User: price-jones
Dark Spectrum Present: No
Reference Spectrum Present: No
Number of Sampled Component Spectra: 1
Spectrometers: USB2+H05261
Integration Time (usec): 100000 (USB2+H05261)
Spectra Averaged: 1 (USB2+H05261)
Boxcar Smoothing: 0 (USB2+H05261)
Correct for Electrical Dark: No (USB2+H05261)
Strobe/Lamp Enabled: No (USB2+H05261)
Correct for Detector Non-linearity: No (USB2+H05261)
Correct for Stray Light: No (USB2+H05261)
Number of Pixels in Processed Spectrum: 2048
>>>>>Begin Processed Spectral Data<<<<<
365.73	159.16
365.92	159.16
366.12	159.16
366.32	30.43
366.52	58.51
366.72	60.85
366.91	0.00
367.11	7.02
367.31	0.00
367.51	28.09
367.70	28.09
367.90	51.49
368.10	63.19
368.30	0.00
368.49	32.77
368.69	58.51
368.89	74.90
369.09	93.62
369.28	30.43
369.48	60.85
369.68	86.60
369.87	79.58
370.07	70.22
370.27	145.11
370.47	184.90
370.66	346.40
370.86	322.99
371.06	393.21
371.25	418.96
371.45	447.04
371.65	425.98
371.84	383.85
372.04	383.85
372.24	477.47
372.44	423.64
372.63	482.15
372.83	491.51
373.03	533.64
373.22	449.38
373.42	512.58
373.62	503.22
373.81	484.49
374.01	496.19
374.21	578.11
374.40	550.03
374.60	559.39
374.79	496.19
374.99	533.64
375.19	554.71
375.38	566.41
375.58	568.75
375.78	573.43
375.97	627.26
376.17	608.54
376.37	582.79
376.56	594.50
376.76	589.82
376.95	524.28
377.15	636.63
377.35	552.37
377.54	617.90
377.74	650.67
377.93	580.45
378.13	627.26
378.33	638.97
378.52	711.52
378.72	573.43
378.91	596.84
379.11	620.24
379.31	573.43
379.50	564.07
379.70	631.94
379.89	634.29
380.09	566.41
380.28	650.67
380.48	587.47
380.68	566.41
380.87	676.41
381.07	620.24
381.26	660.03
381.46	660.03
381.65	699.82
381.85	758.33
382.04	622.58
382.24	638.97
382.43	653.01
382.63	685.78
382.83	676.41
383.02	706.84
383.22	753.65
383.41	681.10
383.61	711.52
383.80	784.08
384.00	727.91
384.19	676.41
384.39	690.46
384.58	741.95
384.78	723.23
384.97	772.38
385.17	674.07
385.36	744.29
385.56	730.25
385.75	685.78
385.95	685.78
386.14	793.44
386.34	741.95
386.53	802.80
386.72	664.71
386.92	805.14
387.11	802.80
387.31	788.76
387.50	732.59
387.70	856.64
387.89	767.70
388.09	821.53
388.28	753.65
388.48	828.55
388.67	809.83
388.86	868.34
389.06	898.77
389.25	863.66
389.45	943.24
389.64	826.21
389.84	952.60
390.03	926.85
390.22	823.87
390.42	833.23
390.61	919.83
390.81	945.58
391.00	966.64
391.19	915.15
391.39	910.47
391.58	943.24
391.78	826.21
391.97	1102.39
392.16	964.30
392.36	912.81
392.55	980.68
392.75	971.32
392.94	940.90
393.13	915.15
393.33	912.81
393.52	1013.45
393.71	992.39
393.91	1029.84
394.10	1020.47
394.29	997.07
394.49	1036.86
394.68	1109.41
394.88	1048.56
395.07	1015.79
395.26	1144.52
395.46	1137.50
395.65	1128.14
395.84	1139.84
396.04	1146.86
396.23	1076.65
396.42	1139.84
396.62	1153.88
396.81	1095.37
397.00	1048.56
397.19	1196.01
397.39	1121.12
397.58	1247.51
397.77	1238.14
397.97	1109.41
398.16	1240.48
398.35	1217.08
398.55	1277.93
398.74	1263.89
398.93	1327.08
399.12	1266.23
399.32	1214.74
399.51	1277.93
399.70	1371.55
399.90	1317.72
400.09	1331.76
400.28	1383.26
400.47	1444.11
400.67	1425.39
400.86	1320.06
401.05	1376.24
401.24	1563.48
401.44	1413.68
401.63	1465.18
401.82	1434.75
402.01	1359.85
402.21	1432.41
402.40	1495.60
402.59	1497.94
402.78	1425.39
402.97	1549.43
403.17	1537.73
403.36	1526.03
403.55	1603.27
403.74	1727.32
403.93	1584.54
404.13	1694.55
404.32	1647.74
404.51	1631.35
404.70	1610.29
404.89	1633.69
405.09	1708.59
405.28	1626.67
405.47	1682.85
405.66	1696.89
405.85	1645.40
406.05	1652.42
406.24	1727.32
406.43	1706.25
406.62	1710.93
406.81	1802.21
407.00	1851.36
407.20	1689.87
407.39	1849.02
407.58	1837.32
407.77	1877.11
407.96	1886.47
408.15	1949.67
408.34	1912.22
408.54	1963.71
408.73	1884.13
408.92	1940.30
409.11	2043.29
409.30	1937.96
409.49	1961.37
409.68	1973.07
409.87	2054.99
410.07	2069.03
410.26	2010.52
410.45	2111.16
410.64	2069.03
410.83	2181.38
411.02	2118.18
411.21	2132.23
411.40	2216.49
411.59	2251.60
411.78	2097.12
411.98	2223.51
412.17	2272.66
412.36	2310.11
412.55	2289.04
412.74	2352.24
412.93	2377.98
413.12	2359.26
413.31	2413.09
413.50	2335.85
413.69	2434.16
413.88	2504.37
414.07	2499.69
414.26	2546.50
414.45	2560.55
414.64	2612.04
414.83	2661.19
415.02	2581.61
415.22	2700.98
415.41	2747.79
415.60	2782.90
415.79	2710.34
415.98	2782.90
416.17	2827.37
416.36	2799.28
416.55	2708.00
416.74	2843.75
416.93	2846.09
417.12	2967.80
417.31	2967.80
417.50	2932.69
417.69	3080.14
417.88	2930.35
418.07	2939.71
418.26	3007.59
418.45	2937.37
418.64	3141.00
418.83	3145.68
419.02	3028.65
419.21	3192.49
419.39	3059.08
419.58	3122.27
419.77	3049.72
419.96	3155.04
420.15	3129.30
420.34	3269.73
420.53	3255.69
420.72	3424.20
420.91	3342.28
421.10	3391.44
421.29	3405.48
421.48	3337.60
421.67	3396.12
421.86	3274.41
422.05	3251.00
422.24	3328.24
422.43	3478.04
422.61	3522.51
422.80	3545.91
422.99	3471.01
423.18	3377.39
423.37	3440.59
423.56	3396.12
423.75	3592.72
423.94	3255.69
424.13	3218.24
424.32	3339.94
424.50	3489.74
424.69	3599.74
424.88	3463.99
425.07	3482.72
425.26	3396.12
425.45	3478.04
425.64	3475.70
425.83	3501.44
426.01	3613.79
426.20	3534.21
426.39	3468.67
426.58	3454.63
426.77	3459.31
426.96	3571.66
427.15	3431.23
427.33	3576.34
427.52	3595.06
427.71	3604.42
427.90	3765.92
428.09	3700.39
428.28	3716.77
428.46	3700.39
428.65	3712.09
428.84	3805.71
429.03	3770.60
429.22	3552.93
429.40	3737.84
429.59	3777.62
429.78	3660.60
429.97	3494.42
430.16	3691.02
430.34	3789.33
430.53	3852.52
430.72	3847.84
430.91	3840.82
431.10	3761.24
431.28	3913.38
431.47	4009.34
431.66	4182.54
431.85	3981.25
432.03	4180.20
432.22	4004.66
432.41	3955.51
432.60	4112.32
432.79	4133.39
432.97	4131.05
433.16	4182.54
433.35	4140.41
433.54	4119.34
433.72	4250.41
433.91	4140.41
434.10	4222.33
434.28	4234.03
434.47	4152.11
434.66	4353.40
434.85	4332.33
435.03	4388.50
435.22	4348.72
435.41	4519.57
435.59	4311.27
435.78	4475.10
435.97	4554.68
436.16	4475.10
436.34	4470.42
436.53	4381.48
436.72	4643.62
436.90	4437.66
437.09	4437.66
437.28	4411.91
437.46	4599.15
437.65	4557.02
437.84	4678.73
438.02	4681.07
438.21	4512.55
438.40	4559.36
438.58	4739.58
438.77	4812.14
438.96	4751.29
439.14	4873.00
439.33	4938.53
439.52	4908.10
439.70	5006.41
439.89	4940.87
440.08	5064.92
440.26	5032.15
440.45	5062.58
440.63	5097.69
440.82	5224.08
441.01	5198.33
441.19	5327.06
441.38	5446.43
441.57	5376.21
441.75	5481.53
441.94	5448.77
442.12	5549.41
442.31	5542.39
442.50	5593.88
442.68	5596.22
442.87	5526.00
443.05	5455.79
443.24	5621.97
443.43	5614.95
443.61	5687.50
443.80	5680.48
443.98	5598.56
444.17	5481.53
444.35	5600.90
444.54	5797.51
444.73	5762.40
444.91	5706.23
445.10	5762.40
445.28	5650.05
445.47	5596.22
445.65	5724.95
445.84	5694.52
446.02	5753.04
446.21	5788.14
446.39	5926.24
446.58	5928.58
446.77	5841.98
446.95	5820.91
447.14	5860.70
447.32	5907.51
447.51	5785.80
447.69	5799.85
447.88	5970.71
448.06	5881.77
448.25	5804.53
448.43	5872.40
448.62	5802.19
448.80	5954.32
448.99	5949.64
449.17	6132.20
449.36	5961.34
449.54	6157.95
449.73	6019.86
449.91	6097.10
450.10	6162.63
450.28	6237.53
450.46	6132.20
450.65	6286.68
450.83	6352.21
451.02	6284.34
451.20	6293.70
451.39	6483.28
451.57	6497.33
451.76	6260.93
451.94	6293.70
452.13	6263.27
452.31	6291.36
452.49	6195.40
452.68	6406.05
452.86	6204.76
453.05	6450.52
453.23	6363.92
453.42	6272.64
453.60	6548.82
453.78	6670.53
453.97	6558.18
454.15	6525.41
454.34	6312.42
454.52	6497.33
454.70	6572.22
454.89	6546.48
455.07	6834.36
455.26	6565.20
455.44	6719.68
455.62	6773.51
455.81	6764.15
455.99	6834.36
456.17	6932.67
456.36	6817.98
456.54	6834.36
456.73	6904.58
456.91	7155.02
457.09	7045.01
457.28	7260.34
457.46	7016.93
457.64	7016.93
457.83	7075.44
458.01	7176.08
458.19	7307.15
458.38	7246.30
458.56	7250.98
458.74	7192.47
458.93	7173.74
459.11	7192.47
459.29	7250.98
459.48	7370.35
459.66	7424.18
459.84	7508.44
460.03	7337.58
460.21	7515.46
460.39	7510.78
460.57	7529.50
460.76	7494.40
460.94	7602.06
461.12	7595.04
461.31	7470.99
461.49	7763.56
461.67	7646.53
461.85	7789.30
462.04	7698.02
462.22	8168.47
462.40	7801.01
462.59	7889.95
462.77	7866.54
462.95	7779.94
463.13	7716.75
463.32	7908.67
463.50	7845.48
463.68	7777.60
463.86	8161.45
464.05	7878.24
464.23	8175.49
464.41	8093.57
464.59	7899.31
464.78	8077.19
464.96	8140.38
465.14	7985.91
465.32	8053.78
465.50	8147.40
465.69	8142.72
465.87	8189.53
466.05	8074.85
466.23	8121.66
466.41	8236.35
466.60	8358.05
466.78	8222.30
466.96	8358.05
467.14	8250.39
467.32	8575.72
467.51	8315.92
467.69	8116.98
467.87	8255.07
468.05	8561.68
468.23	8170.81
468.41	8367.42
468.60	8449.33
468.78	8566.36
468.96	8690.41
469.14	8381.46
469.32	8732.54
469.50	8524.23
469.69	8652.96
469.87	8482.10
470.05	8772.33
470.23	8774.67
470.41	8767.65
470.59	8791.05
470.77	8788.71
470.95	8875.31
471.14	8945.53
471.32	8903.40
471.50	9195.96
471.68	8975.95
471.86	9107.02
472.04	9268.52
472.22	9572.79
472.40	9057.87
472.58	9231.07
472.77	9179.58
472.95	9383.21
473.13	9638.33
473.31	9352.78
473.49	9455.76
473.67	9448.74
473.85	9343.42
474.03	9734.29
474.21	9776.42
474.39	9827.91
474.57	9874.72
474.75	9958.98
474.93	9884.08
475.12	10024.51
475.30	10054.94
475.48	10216.44
475.66	10209.42
475.84	10001.11
476.02	9998.77
476.20	10080.69
476.38	10286.65
476.56	10534.75
476.74	10513.69
476.92	10574.54
477.10	10342.83
477.28	10644.76
477.46	10635.39
477.64	10665.82
477.82	10796.89
478.00	11112.86
478.18	11063.71
478.36	11110.52
478.54	11288.40
478.72	11187.76
478.90	11578.63
479.08	11709.70
479.26	11609.06
479.44	11714.38
479.62	11625.44
479.80	11946.09
479.98	12224.62
480.16	12418.88
480.34	12046.74
480.52	12409.52
480.70	12210.57
480.88	12102.91
481.06	12428.24
481.24	12484.42
481.41	12720.81
481.59	12894.01
481.77	12922.10
481.95	12526.55
482.13	13071.89
482.31	13018.06
482.49	13284.88
482.67	13198.28
482.85	13507.23
483.03	13460.42
483.21	13699.16
483.39	13781.07
483.57	13752.99
483.74	13781.07
483.92	13713.20
484.10	13963.64
484.28	13977.68
484.46	14321.74
484.64	14541.75
484.82	14300.67
485.00	14382.59
485.18	14855.38
485.35	15138.58
485.53	14679.84
485.71	14890.49
485.89	14925.60
486.07	15030.92
486.25	15007.52
486.43	15276.68
486.61	15405.41
486.78	15400.72
486.96	15941.39
487.14	16058.42
487.32	15962.45
487.50	15948.41
487.68	16128.63
487.85	16580.36
488.03	16624.83
488.21	16812.07
488.39	16786.32
488.57	16849.52
488.75	16844.84
488.92	17509.55
489.10	17273.15
489.28	17305.92
489.46	17722.54
489.64	17577.42
489.81	17905.10
489.99	18050.21
490.17	17914.46
490.35	18197.67
490.53	18293.63
490.70	18539.38
490.88	18370.86
491.06	18817.91
491.24	18778.12
491.41	18679.82
491.59	18820.25
491.77	18916.21
491.95	19208.78
492.13	19449.85
492.30	19487.30
492.48	19417.08
492.66	19459.21
492.84	19950.73
493.01	19920.30
493.19	19632.41
493.37	20208.19
493.54	20159.03
493.72	20648.21
493.90	20512.46
494.08	20280.74
494.25	20671.61
494.43	21095.25
494.61	21034.39
494.79	21015.67
494.96	21238.02
495.14	21097.59
495.32	21242.70
495.49	21333.98
495.67	21514.20
495.85	21638.25
496.02	21874.65
496.20	21797.41
496.38	22017.42
496.55	22036.14
496.73	22272.54
496.91	22033.80
497.09	22813.20
497.26	22654.05
497.44	22668.09
497.62	23185.35
497.79	22918.53
497.97	22878.74
498.14	23087.04
498.32	23206.41
498.50	23311.74
498.67	23431.10
498.85	23606.64
499.03	23845.38
499.20	23803.25
499.38	24250.29
499.56	24093.47
499.73	24301.78
499.91	24126.24
500.08	24135.60
500.26	24081.77
500.44	24278.38
500.61	24474.98
500.79	24060.71
500.97	24437.53
501.14	24865.85
501.32	24847.13
501.49	24954.79
501.67	24568.60
501.84	24954.79
502.02	25032.03
502.20	24978.20
502.37	25013.31
502.55	25378.43
502.72	25350.34
502.90	25640.57
503.07	25352.68
503.25	25553.97
503.43	25640.57
503.60	25495.46
503.78	25942.50
503.95	25876.96
504.13	26188.25
504.30	26174.21
504.48	26335.71
504.65	26043.14
504.83	26618.91
505.01	26649.34
505.18	26478.48
505.36	26733.60
505.53	26628.27
505.71	26836.58
505.88	27026.17
506.06	26909.14
506.23	27054.25
506.41	26895.10
506.58	27040.21
506.76	26761.69
506.93	27400.65
507.11	27023.83
507.28	27243.84
507.46	27393.63
507.63	27648.75
507.81	27800.88
507.98	27754.07
508.16	27889.82
508.33	28081.75
508.50	28156.64
508.68	27892.16
508.85	28088.77
509.03	28039.62
509.20	28486.66
509.38	28474.96
509.55	28486.66
509.73	28650.50
509.90	28659.86
510.08	28800.29
510.25	28929.02
510.42	29034.35
510.60	28563.90
510.77	29198.18
510.95	29184.14
511.12	29230.95
511.30	29111.58
511.47	29544.58
511.64	29841.83
511.82	29888.64
511.99	29230.95
512.17	29593.73
512.34	29563.31
512.51	29848.85
512.69	29890.98
512.86	30183.55
513.04	30405.90
513.21	30356.75
513.38	29853.53
513.56	30080.56
513.73	30096.95
513.90	30405.90
514.08	30221.00
514.25	30483.14
514.43	30426.96
514.60	30721.87
514.77	30705.49
514.95	30810.81
515.12	30899.75
515.29	30920.82
515.47	31213.38
515.64	30916.14
515.81	31384.24
515.99	31463.82
516.16	31363.18
516.33	31290.62
516.51	31395.95
516.68	30829.54
516.85	30705.49
517.03	31505.95
517.20	31777.45
517.37	31768.09
517.54	31405.31
517.72	31707.24
517.89	31700.22
518.06	31831.29
518.24	31847.67
518.41	31747.03
518.58	32006.83
518.75	31864.05
518.93	32552.17
519.10	32177.68
519.27	32442.17
519.45	32528.77
519.62	32339.18
519.79	32465.57
519.96	32718.35
520.14	32713.67
520.31	32961.76
520.48	32879.85
520.65	33202.84
520.83	33305.82
521.00	32966.45
521.17	33031.98
521.34	33415.83
521.52	33605.41
521.69	33570.30
521.86	33497.75
522.03	33226.24
522.20	33539.88
522.38	33949.47
522.55	33682.65
522.72	33317.53
522.89	33940.11
523.07	34012.66
523.24	33591.37
523.41	34174.16
523.58	33804.36
523.75	34635.25
523.92	34377.79
524.10	34548.65
524.27	34583.76
524.44	34522.90
524.61	34553.33
524.78	34792.06
524.96	34864.62
525.13	34532.26
525.30	35185.27
525.47	34983.99
525.64	34944.20
525.81	35318.68
525.98	34892.71
526.16	35012.07
526.33	35241.45
526.50	35180.59
526.67	34937.18
526.84	35262.51
527.01	35302.30
527.18	35400.60
527.36	35283.58
527.53	35449.75
527.70	35990.42
527.87	35627.63
528.04	35548.06
528.21	35538.69
528.38	35697.85
528.55	35798.49
528.72	36374.27
528.89	35768.07
529.07	36212.77
529.24	36077.02
529.41	36336.82
529.58	36268.94
529.75	36395.33
529.92	35999.78
530.09	36615.34
530.26	36327.45
530.43	36467.89
530.60	36121.49
530.77	36025.53
530.94	36896.20
531.11	36664.49
531.28	36376.61
531.46	37195.79
531.63	36765.14
531.80	36910.25
531.97	37010.89
532.14	36872.80
532.31	36835.35
532.48	36943.02
532.65	37467.30
532.82	36996.85
532.99	37170.05
533.16	36732.37
533.33	37158.34
533.50	37324.52
533.67	37258.99
533.84	37216.86
534.01	37794.97
534.18	37621.77
534.35	37780.93
534.52	38045.41
534.69	37738.80
534.86	37706.03
535.03	37390.06
535.20	37539.85
535.37	38124.99
535.54	38424.57
535.71	37626.45
535.88	37942.42
536.05	38036.05
536.22	38340.32
536.38	37954.13
536.55	38075.84
536.72	38204.56
536.89	38052.43
537.06	38012.64
537.23	37940.08
537.40	38436.28
537.57	38565.01
537.74	38436.28
537.91	38789.70
538.08	38752.25
538.25	38230.31
538.42	38265.42
538.59	38719.48
538.75	38632.88
538.92	39061.20
539.09	38689.06
539.26	38773.31
539.43	38937.15
539.60	39075.24
539.77	38593.09
539.94	39007.37
540.11	39075.24
540.28	39145.46
540.44	38897.36
540.61	39306.96
540.78	39140.78
540.95	39079.92
541.12	38976.94
541.29	39091.63
541.46	38967.58
541.62	39271.85
541.79	39363.13
541.96	39182.91
542.13	39377.17
542.30	39655.70
542.47	39915.50
542.63	39903.79
542.80	39728.25
542.97	40116.78
543.14	39985.71
543.31	40231.47
543.48	40318.07
543.64	40788.52
543.81	40224.45
543.98	39831.24
544.15	39896.77
544.32	40196.36
544.48	40767.45
544.65	40430.41
544.82	40308.71
544.99	39784.43
545.16	40636.38
545.32	39971.67
545.49	40825.96
545.66	40507.65
545.83	41118.53
546.00	40587.23
546.16	41139.60
546.33	40308.71
546.50	40465.52
546.67	40765.11
546.83	40069.97
547.00	40854.05
547.17	40893.84
547.34	40779.15
547.50	40638.72
547.67	40947.67
547.84	41083.42
548.00	41195.77
548.17	41221.52
548.34	41053.00
548.51	40994.48
548.67	41305.77
548.84	41282.37
549.01	40940.65
549.18	41656.85
549.34	41729.41
549.51	41478.97
549.68	41397.06
549.84	41481.31
550.01	41832.39
550.18	41593.66
550.34	41694.30
550.51	41401.74
550.68	41364.29
550.84	40893.84
551.01	41577.28
551.18	41626.43
551.34	41528.13
551.51	41935.38
551.68	41446.21
551.84	41799.63
552.01	41666.22
552.18	41748.14
552.34	41539.83
552.51	42096.88
552.68	41886.23
552.84	42019.64
553.01	42139.00
553.18	42000.91
553.34	42174.11
553.51	41876.86
553.67	42010.28
553.84	42162.41
554.01	42354.33
554.17	42789.67
554.34	42761.59
554.51	42424.55
554.67	42686.69
554.84	42227.95
555.00	42754.57
555.17	42155.39
555.33	42445.62
555.50	42560.30
555.67	42480.72
555.83	42373.06
556.00	42541.58
556.16	43236.72
556.33	42391.78
556.50	42630.52
556.66	42763.93
556.83	42452.64
556.99	42955.85
557.16	42665.63
557.32	42897.34
557.49	42588.39
557.65	42335.61
557.82	42721.80
557.98	42740.52
558.15	42869.25
558.32	42983.94
558.48	42958.19
558.65	42770.95
558.81	42899.68
558.98	43002.66
559.14	42719.46
559.31	43115.01
559.47	42815.42
559.64	43239.06
559.80	43456.73
559.97	43540.99
560.13	42789.67
560.30	42953.51
560.46	42705.41
560.63	42852.87
560.79	43749.29
560.96	43564.39
561.12	43189.91
561.29	43192.25
561.45	43274.16
561.61	42834.14
561.78	43271.82
561.94	42595.41
562.11	43269.48
562.27	43110.33
562.44	43580.78
562.60	43620.56
562.77	43683.76
562.93	43386.51
563.10	43601.84
563.26	43634.61
563.42	43276.51
563.59	43613.54
563.75	43615.88
563.92	43756.32
564.08	43452.05
564.24	43695.46
564.41	43793.76
564.57	43533.96
564.74	43786.74
564.90	43936.54
565.07	43885.04
565.23	43550.35
565.39	43665.03
565.56	43697.80
565.72	43611.20
565.88	43866.32
566.05	43271.82
566.21	43658.01
566.38	43075.22
566.54	43686.10
566.70	43936.54
566.87	43913.13
567.03	43447.36
567.19	44289.96
567.36	43990.37
567.52	43583.12
567.68	44069.95
567.85	44083.99
568.01	43875.68
568.17	43529.28
568.34	44100.37
568.50	44020.80
568.66	43559.71
568.83	44177.61
568.99	43810.15
569.15	43707.16
569.32	43548.01
569.48	43789.08
569.64	44201.02
569.81	43910.79
569.97	44060.58
570.13	43882.70
570.30	43735.25
570.46	44018.46
570.62	43793.76
570.78	43447.36
570.95	43653.33
571.11	43943.56
571.27	44130.80
571.43	43807.81
571.60	44360.17
571.76	43896.75
571.92	44264.21
572.09	43395.87
572.25	44292.30
572.41	43948.24
572.57	44114.42
572.74	44395.28
572.90	44161.23
573.06	44212.72
573.22	43997.39
573.38	43868.66
573.55	43913.13
573.71	44437.41
573.87	44006.75
574.03	44044.20
574.20	44280.60
574.36	43606.52
574.52	44210.38
574.68	44034.84
574.84	44418.69
575.01	43943.56
575.17	44114.42
575.33	44142.50
575.49	43892.07
575.65	44458.48
575.82	44655.08
575.98	44383.58
576.14	44626.99
576.30	44229.10
576.46	43597.16
576.62	43641.63
576.79	44198.68
576.95	44023.14
577.11	44175.27
577.27	44271.23
577.43	44254.85
577.59	44507.63
577.75	44484.22
577.92	44093.35
578.08	43592.48
578.24	43945.90
578.40	44378.90
578.56	44009.09
578.72	44257.19
578.88	44329.75
579.04	44378.90
579.21	44252.51
579.37	43931.86
579.53	44238.47
579.69	43999.73
579.85	44399.96
580.01	44772.11
580.17	44626.99
580.33	44428.05
580.49	44516.99
580.65	44208.04
580.82	44472.52
580.98	44074.63
581.14	44259.53
581.30	44273.57
581.46	44430.39
581.62	44039.52
581.78	43999.73
581.94	44694.87
582.10	44334.43
582.26	44580.18
582.42	43976.33
582.58	44231.44
582.74	44535.71
582.90	44362.51
583.06	44531.03
583.22	44179.95
583.38	44313.36
583.54	44229.10
583.70	44596.57
583.86	44521.67
584.02	44025.48
584.18	44446.77
584.34	44182.29
584.50	44154.21
584.66	44315.70
584.82	43969.30
584.98	44697.21
585.14	44470.18
585.30	44116.76
585.46	44201.02
585.62	44275.91
585.78	44346.13
585.94	44245.49
586.10	44514.65
586.26	44519.33
586.42	43871.00
586.58	44524.01
586.74	44514.65
586.90	44009.09
587.06	44257.19
587.22	44615.29
587.38	44587.21
587.54	44690.19
587.70	44573.16
587.86	44615.29
588.02	44554.44
588.18	44650.40
588.34	44343.79
588.49	44147.18
588.65	44325.07
588.81	43957.60
588.97	44402.30
589.13	44280.60
589.29	44196.34
589.45	44357.83
589.61	44446.77
589.77	44215.06
589.93	44362.51
590.08	44313.36
590.24	44732.32
590.40	44657.42
