SpectraSuite Data File
++++++++++++++++++++++++++++++++++++
Date: Fri Oct 25 11:34:33 EDT 2013
User: price-jones
Dark Spectrum Present: No
Reference Spectrum Present: No
Number of Sampled Component Spectra: 1
Spectrometers: USB2+H05261
Integration Time (usec): 100000 (USB2+H05261)
Spectra Averaged: 1 (USB2+H05261)
Boxcar Smoothing: 0 (USB2+H05261)
Correct for Electrical Dark: No (USB2+H05261)
Strobe/Lamp Enabled: No (USB2+H05261)
Correct for Detector Non-linearity: No (USB2+H05261)
Correct for Stray Light: No (USB2+H05261)
Number of Pixels in Processed Spectrum: 2048
>>>>>Begin Processed Spectral Data<<<<<
365.73	236.39
365.92	236.39
366.12	236.39
366.32	177.88
366.52	189.58
366.72	177.88
366.91	184.90
367.11	189.58
367.31	112.35
367.51	133.41
367.70	229.37
367.90	201.29
368.10	177.88
368.30	245.76
368.49	208.31
368.69	201.29
368.89	215.33
369.09	234.05
369.28	238.73
369.48	243.42
369.68	220.01
369.87	283.20
370.07	313.63
370.27	252.78
370.47	287.89
370.66	514.92
370.86	475.13
371.06	528.96
371.25	608.54
371.45	521.94
371.65	564.07
371.84	510.24
372.04	528.96
372.24	615.56
372.44	561.73
372.63	620.24
372.83	503.22
373.03	557.05
373.22	550.03
373.42	594.50
373.62	631.94
373.81	638.97
374.01	688.12
374.21	592.16
374.40	627.26
374.60	671.73
374.79	711.52
374.99	638.97
375.19	676.41
375.38	657.69
375.58	683.44
375.78	617.90
375.97	631.94
376.17	781.74
376.37	681.10
376.56	716.20
376.76	662.37
376.95	718.54
377.15	638.97
377.35	671.73
377.54	660.03
377.74	641.31
377.93	709.18
378.13	706.84
378.33	737.27
378.52	653.01
378.72	685.78
378.91	667.05
379.11	674.07
379.31	690.46
379.50	662.37
379.70	744.29
379.89	779.40
380.09	713.86
380.28	723.23
380.48	734.93
380.68	730.25
380.87	627.26
381.07	727.91
381.26	816.85
381.46	833.23
381.65	795.78
381.85	741.95
382.04	837.91
382.24	821.53
382.43	791.10
382.63	706.84
382.83	807.48
383.02	723.23
383.22	695.14
383.41	779.40
383.61	704.50
383.80	774.72
384.00	812.17
384.19	791.10
384.39	763.01
384.58	781.74
384.78	739.61
384.97	725.57
385.17	746.63
385.36	805.14
385.56	901.11
385.75	809.83
385.95	901.11
386.14	842.59
386.34	856.64
386.53	849.61
386.72	812.17
386.92	938.55
387.11	842.59
387.31	898.77
387.50	828.55
387.70	760.67
387.89	826.21
388.09	922.17
388.28	847.27
388.48	830.89
388.67	901.11
388.86	826.21
389.06	912.81
389.25	903.45
389.45	971.32
389.64	912.81
389.84	1015.79
390.03	863.66
390.22	954.94
390.42	858.98
390.61	954.94
390.81	933.87
391.00	896.43
391.19	1027.50
391.39	936.21
391.58	954.94
391.78	847.27
391.97	1008.77
392.16	968.98
392.36	1076.65
392.55	1013.45
392.75	1043.88
392.94	1069.62
393.13	1088.35
393.33	1036.86
393.52	1055.58
393.71	1090.69
393.91	1008.77
394.10	1048.56
394.29	1114.10
394.49	1008.77
394.68	1083.67
394.88	1050.90
395.07	1074.31
395.26	1048.56
395.46	1097.71
395.65	1160.91
395.84	1116.44
396.04	1263.89
396.23	1156.22
396.42	1114.10
396.62	1207.72
396.81	1191.33
397.00	1149.20
397.19	1207.72
397.39	1100.05
397.58	1205.38
397.77	1188.99
397.97	1207.72
398.16	1130.48
398.35	1172.61
398.55	1233.46
398.74	1310.70
398.93	1254.53
399.12	1322.40
399.32	1263.89
399.51	1315.38
399.70	1310.70
399.90	1345.81
400.09	1299.00
400.28	1345.81
400.47	1245.16
400.67	1385.60
400.86	1345.81
401.05	1301.34
401.24	1390.28
401.44	1352.83
401.63	1359.85
401.82	1423.05
402.01	1404.32
402.21	1497.94
402.40	1430.07
402.59	1364.53
402.78	1448.79
402.97	1425.39
403.17	1530.71
403.36	1483.90
403.55	1547.09
403.74	1533.05
403.93	1535.39
404.13	1558.80
404.32	1516.67
404.51	1605.61
404.70	1619.65
404.89	1565.82
405.09	1668.80
405.28	1586.88
405.47	1607.95
405.66	1614.97
405.85	1619.65
406.05	1561.14
406.24	1645.40
406.43	1743.70
406.62	1708.59
406.81	1715.61
407.00	1640.72
407.20	1647.74
407.39	1799.87
407.58	1783.49
407.77	1776.47
407.96	1937.96
408.15	1856.04
408.34	1760.08
408.54	1769.44
408.73	1877.11
408.92	1778.81
409.11	1851.36
409.30	1994.14
409.49	1893.49
409.68	1905.20
409.87	1933.28
410.07	1942.64
410.26	1888.81
410.45	1980.09
410.64	2015.20
410.83	1926.26
411.02	2019.88
411.21	2157.97
411.40	2090.10
411.59	2239.89
411.78	2136.91
411.98	2083.08
412.17	2167.34
412.36	2101.80
412.55	2214.15
412.74	2296.07
412.93	2200.10
413.12	2267.98
413.31	2356.92
413.50	2228.19
413.69	2401.39
413.88	2466.92
414.07	2382.67
414.26	2455.22
414.45	2457.56
414.64	2448.20
414.83	2445.86
415.02	2422.45
415.22	2499.69
415.41	2572.25
415.60	2553.52
415.79	2516.08
415.98	2588.63
416.17	2656.51
416.36	2527.78
416.55	2640.12
416.74	2682.25
416.93	2754.81
417.12	2647.15
417.31	2724.38
417.50	2759.49
417.69	2895.24
417.88	2750.13
418.07	2899.92
418.26	2843.75
418.45	2897.58
418.64	2932.69
418.83	2991.20
419.02	2911.63
419.21	2977.16
419.39	2876.52
419.58	2895.24
419.77	2892.90
419.96	2909.29
420.15	3070.78
420.34	3014.61
420.53	3087.17
420.72	3066.10
420.91	3091.85
421.10	3108.23
421.29	3112.91
421.48	3063.76
421.67	3164.40
421.86	3110.57
422.05	3208.87
422.24	3112.91
422.43	3201.85
422.61	3225.26
422.80	3318.88
422.99	3157.38
423.18	3148.02
423.37	3234.62
423.56	3353.99
423.75	3164.40
423.94	3098.87
424.13	2986.52
424.32	3131.64
424.50	3258.03
424.69	3398.46
424.88	3344.63
425.07	3300.16
425.26	3272.07
425.45	3190.15
425.64	3243.98
425.83	3417.18
426.01	3332.92
426.20	3288.45
426.39	3412.50
426.58	3403.14
426.77	3311.86
426.96	3293.13
427.15	3412.50
427.33	3489.74
427.52	3396.12
427.71	3480.38
427.90	3452.29
428.09	3595.06
428.28	3382.07
428.46	3419.52
428.65	3517.83
428.84	3557.61
429.03	3676.98
429.22	3463.99
429.40	3527.19
429.59	3566.98
429.78	3503.78
429.97	3515.48
430.16	3648.90
430.34	3630.17
430.53	3662.94
430.72	3784.65
430.91	3641.87
431.10	3543.57
431.28	3857.20
431.47	3892.31
431.66	3770.60
431.85	3878.27
432.03	3829.12
432.22	3983.59
432.41	3700.39
432.60	3794.01
432.79	3854.86
432.97	4044.45
433.16	3864.22
433.35	3999.98
433.54	3971.89
433.72	3957.85
433.91	3934.44
434.10	3894.65
434.28	3964.87
434.47	4194.24
434.66	4051.47
434.85	4051.47
435.03	4105.30
435.22	4189.56
435.41	4002.32
435.59	4121.68
435.78	4205.94
435.97	4245.73
436.16	4294.88
436.34	4156.79
436.53	4229.35
436.72	4365.10
436.90	4236.37
437.09	4304.25
437.28	4180.20
437.46	4194.24
437.65	4358.08
437.84	4444.68
438.02	4299.56
438.21	4393.19
438.40	4362.76
438.58	4594.47
438.77	4599.15
438.96	4407.23
439.14	4779.37
439.33	4678.73
439.52	4655.33
439.70	4685.75
439.89	4851.93
440.08	4786.40
440.26	4802.78
440.45	4784.06
440.63	4910.44
440.82	4990.02
441.01	4880.02
441.19	4973.64
441.38	4990.02
441.57	5032.15
441.75	5144.50
441.94	5142.16
442.12	5128.11
442.31	5132.79
442.50	5259.18
442.68	5228.76
442.87	5018.11
443.05	5259.18
443.24	5245.14
443.43	5224.08
443.61	5364.51
443.80	5298.97
443.98	5121.09
444.17	5025.13
444.35	5413.66
444.54	5434.72
444.73	5376.21
444.91	5310.68
445.10	5378.55
445.28	5287.27
445.47	5341.10
445.65	5453.45
445.84	5371.53
446.02	5678.14
446.21	5490.90
446.39	5411.32
446.58	5500.26
446.77	5493.24
446.95	5406.64
447.14	5486.22
447.32	5607.92
447.51	5521.32
447.69	5378.55
447.88	5390.25
448.06	5467.49
448.25	5577.50
448.43	5701.54
448.62	5572.82
448.80	5528.35
448.99	5563.45
449.17	5633.67
449.36	5799.85
449.54	5729.63
449.73	5731.97
449.91	5877.09
450.10	5734.31
450.28	5902.83
450.46	5973.05
450.65	5940.28
450.83	5944.96
451.02	5764.74
451.20	5933.26
451.39	5788.14
451.57	5867.72
451.76	5811.55
451.94	6031.56
452.13	5970.71
452.31	5989.43
452.49	5937.94
452.68	6015.18
452.86	6080.71
453.05	5998.79
453.23	6029.22
453.42	6258.59
453.60	5968.37
453.78	6162.63
453.97	6113.48
454.15	6183.70
454.34	5942.62
454.52	6303.06
454.70	6244.55
454.89	6246.89
455.07	6218.80
455.26	6427.11
455.44	6483.28
455.62	6375.62
455.81	6270.30
455.99	6176.67
456.17	6434.13
456.36	6490.31
456.54	6518.39
456.73	6733.72
456.91	6817.98
457.09	6569.88
457.28	6771.17
457.46	6745.42
457.64	6712.66
457.83	6724.36
458.01	6626.06
458.19	6719.68
458.38	6913.94
458.56	6932.67
458.74	6759.47
458.93	6862.45
459.11	6935.01
459.29	6932.67
459.48	7101.19
459.66	7030.97
459.84	6925.65
460.03	6913.94
460.21	6977.14
460.39	6981.82
460.57	7084.80
460.76	7063.74
460.94	7119.91
461.12	7232.26
461.31	7185.44
461.49	7150.34
461.67	7204.17
461.85	7311.83
462.04	7197.15
462.22	7648.87
462.40	7363.33
462.59	7368.01
462.77	7492.05
462.95	7541.21
463.13	7382.05
463.32	7527.16
463.50	7513.12
463.68	7503.76
463.86	7555.25
464.05	7398.43
464.23	7499.08
464.41	7417.16
464.59	7489.71
464.78	7676.96
464.96	7651.21
465.14	7592.70
465.32	7850.16
465.50	7604.40
465.69	7793.98
465.87	7700.36
466.05	7705.04
466.23	7662.91
466.41	7801.01
466.60	7983.57
466.78	7903.99
466.96	7758.88
467.14	7803.35
467.32	7845.48
467.51	7852.50
467.69	7779.94
467.87	8049.10
468.05	8114.64
468.23	7838.45
468.41	7906.33
468.60	7929.74
468.78	7896.97
468.96	7845.48
469.14	8072.51
469.32	8278.47
469.50	8105.28
469.69	8299.54
469.87	8262.09
470.05	8306.56
470.23	8376.78
470.41	8498.49
470.59	8627.21
470.77	8367.42
470.95	8313.58
471.14	8514.87
471.32	8446.99
471.50	8564.02
471.68	8599.13
471.86	8765.31
472.04	8807.44
472.22	8964.25
472.40	8667.00
472.58	8816.80
472.77	8872.97
472.95	9046.17
473.13	9090.64
473.31	8908.08
473.49	9022.77
473.67	8884.67
473.85	9004.04
474.03	9130.43
474.21	9273.20
474.39	9149.15
474.57	9446.40
474.75	9336.40
474.93	9476.83
475.12	9397.25
475.30	9647.69
475.48	9448.74
475.66	9432.36
475.84	9682.80
476.02	9741.31
476.20	9872.38
476.38	9895.78
476.56	10118.14
476.74	10174.31
476.92	9841.95
477.10	10036.22
477.28	10146.22
477.46	10331.12
477.64	10354.53
477.82	10141.54
478.00	10766.46
478.18	10623.69
478.36	10752.42
478.54	10934.98
478.72	10710.29
478.90	10970.09
479.08	11056.69
479.26	10892.85
479.44	11241.59
479.62	11421.81
479.80	11180.74
479.98	11288.40
480.16	11683.95
480.34	11531.82
480.52	11707.36
480.70	11730.76
480.88	11459.26
481.06	11932.05
481.24	11894.60
481.41	12016.31
481.59	12102.91
481.77	12044.40
481.95	12231.64
482.13	12159.08
482.31	12224.62
482.49	12425.90
482.67	12549.95
482.85	12603.78
483.03	13027.42
483.21	13090.62
483.39	13130.41
483.57	12957.21
483.74	13289.56
483.92	13198.28
484.10	13214.66
484.28	13680.43
484.46	13530.64
484.64	13797.46
484.82	13502.55
485.00	13860.65
485.18	14045.55
485.35	14328.76
485.53	14265.57
485.71	14181.31
485.89	14691.54
486.07	14534.73
486.25	14558.13
486.43	14813.25
486.61	14911.55
486.78	15007.52
486.96	14846.02
487.14	15442.85
487.32	15403.07
487.50	15667.55
487.68	15616.05
487.85	15859.47
488.03	15807.98
488.21	15726.06
488.39	16189.49
488.57	16264.38
488.75	16128.63
488.92	16559.29
489.10	16673.98
489.28	16491.41
489.46	16875.26
489.64	16821.43
489.81	17266.13
489.99	17165.49
490.17	17385.50
490.35	17373.80
490.53	17767.01
490.70	17598.49
490.88	17490.82
491.06	18015.10
491.24	17879.35
491.41	17965.95
491.59	18225.75
491.77	18176.60
491.95	18452.78
492.13	18448.10
492.30	18686.84
492.48	18860.04
492.66	18953.66
492.84	18803.86
493.01	19122.18
493.19	19152.60
493.37	19005.15
493.54	19405.38
493.72	19810.29
493.90	19653.48
494.08	19477.94
494.25	19955.41
494.43	19796.25
494.61	20243.29
494.79	20245.63
494.96	20348.62
495.14	20472.67
495.32	20517.14
495.49	20999.29
495.67	20580.33
495.85	20905.66
496.02	20917.37
496.20	21209.93
496.38	21144.40
496.55	21228.66
496.73	21848.90
496.91	21523.57
497.09	21476.76
497.26	21895.71
497.44	21717.83
497.62	21961.25
497.79	22326.37
497.97	22033.80
498.14	22209.34
498.32	22757.03
498.50	22562.76
498.67	22675.11
498.85	22785.12
499.03	22590.85
499.20	22647.02
499.38	22934.91
499.56	23000.44
499.73	23138.54
499.91	23175.98
500.08	23578.56
500.26	23412.38
500.44	23367.91
500.61	23847.72
500.79	23440.47
500.97	23873.46
501.14	23960.06
501.32	24217.52
501.49	24140.29
501.67	24201.14
501.84	24451.58
502.02	24247.95
502.20	24329.87
502.37	24229.23
502.55	24369.66
502.72	24388.38
502.90	24790.95
503.07	24458.60
503.25	24795.64
503.43	24833.08
503.60	25027.35
503.78	24985.22
503.95	24945.43
504.13	25120.97
504.30	25289.49
504.48	25305.87
504.65	25441.62
504.83	25495.46
505.01	25736.53
505.18	25860.58
505.36	26068.89
505.53	26085.27
505.71	26178.89
505.88	26071.23
506.06	26036.12
506.23	26572.10
506.41	26092.29
506.58	26260.81
506.76	26092.29
506.93	26539.33
507.11	26614.23
507.28	26560.40
507.46	26588.49
507.63	26932.54
507.81	26792.11
507.98	26441.03
508.16	27044.89
508.33	27257.88
508.50	26923.18
508.68	27452.14
508.85	27213.41
509.03	27232.13
509.20	27653.43
509.38	27800.88
509.55	27896.85
509.73	27283.62
509.90	27777.48
510.08	28004.51
510.25	28137.92
510.42	28060.68
510.60	28364.95
510.77	28070.04
510.95	28957.11
511.12	28596.67
511.30	28657.52
511.47	28393.04
511.64	28570.92
511.82	28484.32
511.99	29039.03
512.17	28760.50
512.34	28751.14
512.51	29296.49
512.69	29329.25
512.86	29244.99
513.04	29111.58
513.21	29486.07
513.38	29188.82
513.56	29780.98
513.73	29146.69
513.90	30087.59
514.08	29757.57
514.25	30279.51
514.43	29773.95
514.60	30017.37
514.77	30096.95
514.95	30118.01
515.12	30405.90
515.29	29989.28
515.47	30492.50
515.64	30242.06
515.81	30265.47
515.99	30590.80
516.16	30731.23
516.33	30417.60
516.51	30937.20
516.68	30808.47
516.85	30457.39
517.03	31082.31
517.20	31337.43
517.37	31206.36
517.54	31248.49
517.72	31274.24
517.89	31253.17
518.06	31166.57
518.24	31297.64
518.41	31550.42
518.58	31351.48
518.75	31007.42
518.93	31576.17
519.10	31732.98
519.27	32013.85
519.45	31772.77
519.62	32458.55
519.79	32170.66
519.96	32357.91
520.14	32381.31
520.31	31662.77
520.48	32112.15
520.65	32402.38
520.83	32804.95
521.00	32727.71
521.17	32734.73
521.34	32542.81
521.52	32589.62
521.69	32821.33
521.86	32774.52
522.03	33076.45
522.20	33170.07
522.38	33472.00
522.55	33507.11
522.72	32720.69
522.89	33500.09
523.07	33586.69
523.24	33296.46
523.41	33472.00
523.58	33043.68
523.75	33823.08
523.92	33675.63
524.10	33919.04
524.27	33926.07
524.44	34061.82
524.61	34054.79
524.78	33975.22
524.96	34223.31
525.13	34085.22
525.30	34319.28
525.47	34455.03
525.64	34216.29
525.81	34345.02
525.98	34373.11
526.16	34160.12
526.33	34649.29
526.50	34733.55
526.67	34553.33
526.84	34738.23
527.01	34768.66
527.18	34986.33
527.36	34700.78
527.53	34810.79
527.70	35302.30
527.87	35447.41
528.04	34888.03
528.21	35143.14
528.38	34991.01
528.55	35250.81
528.72	35208.68
528.89	35342.09
529.07	35178.25
529.24	35264.85
529.41	35842.96
529.58	35728.28
529.75	35639.34
529.92	35763.39
530.09	35796.15
530.26	35857.01
530.43	36041.91
530.60	35496.56
530.77	36011.48
530.94	36217.45
531.11	35564.44
531.28	35728.28
531.46	36280.64
531.63	36451.50
531.80	36154.26
531.97	36456.18
532.14	36137.87
532.31	36233.83
532.48	36444.48
532.65	36634.06
532.82	36889.18
532.99	36566.19
533.16	36341.50
533.33	37057.70
533.50	36671.51
533.67	37031.96
533.84	36851.73
534.01	36814.29
534.18	36662.15
534.35	36996.85
534.52	36912.59
534.69	37640.50
534.86	37661.56
535.03	37219.20
535.20	37352.61
535.37	37900.29
535.54	37326.86
535.71	37296.44
535.88	37771.57
536.05	37420.48
536.22	37958.81
536.38	37303.46
536.55	37703.69
536.72	37631.13
536.89	37457.93
537.06	37406.44
537.23	38242.01
537.40	37858.17
537.57	38190.52
537.74	37708.37
537.91	38089.88
538.08	37937.74
538.25	37862.85
538.42	38178.82
538.59	38642.24
538.75	37844.12
538.92	38288.82
539.09	38742.89
539.26	38476.07
539.43	38202.22
539.60	38843.53
539.77	38323.93
539.94	38827.15
540.11	38782.68
540.28	38728.84
540.44	38628.20
540.61	38906.73
540.78	38623.52
540.95	38387.13
541.12	38930.13
541.29	38616.50
541.46	38789.70
541.62	39243.76
541.79	38848.21
541.96	38836.51
542.13	38911.41
542.30	38925.45
542.47	39255.46
542.63	39014.39
542.80	39562.08
542.97	39555.05
543.14	40172.96
543.31	39920.18
543.48	39901.45
543.64	40004.44
543.81	40147.21
543.98	39810.17
544.15	39604.20
544.32	40011.46
544.48	40315.73
544.65	40055.93
544.82	40037.20
544.99	40053.59
545.16	40065.29
545.32	39943.58
545.49	40570.85
545.66	40582.55
545.83	40704.26
546.00	40456.16
546.16	40549.78
546.33	40060.61
546.50	40397.65
546.67	40502.97
546.83	39845.28
547.00	40392.97
547.17	40390.62
547.34	40453.82
547.50	40886.82
547.67	40837.67
547.84	40732.34
548.00	41273.01
548.17	41228.54
548.34	40411.69
548.51	41167.68
548.67	41338.54
548.84	41294.07
549.01	41146.62
549.18	40879.80
549.34	41624.09
549.51	41495.36
549.68	41237.90
549.84	41170.02
550.01	41584.30
550.18	41071.72
550.34	41352.58
550.51	41759.84
550.68	41542.17
550.84	41244.92
551.01	41659.20
551.18	41717.71
551.34	41600.68
551.51	41738.77
551.68	41528.13
551.84	41977.51
552.01	41673.24
552.18	41558.55
552.34	42384.76
552.51	42003.25
552.68	41755.16
552.84	41670.90
553.01	41930.70
553.18	41874.52
553.34	42059.43
553.51	42181.13
553.67	42415.19
553.84	42394.12
554.01	42319.23
554.17	41890.91
554.34	42260.71
554.51	42291.14
554.67	42639.88
554.84	42171.77
555.00	42134.32
555.17	42445.62
555.33	42433.91
555.50	42398.80
555.67	42471.36
555.83	42529.87
556.00	42696.05
556.16	43061.18
556.33	42780.31
556.50	42822.44
556.66	42344.97
556.83	42457.32
556.99	43187.56
557.16	42667.97
557.32	42827.12
557.49	42614.13
557.65	42335.61
557.82	43079.90
557.98	42974.58
558.15	42513.49
558.32	42705.41
558.48	43143.09
558.65	43072.88
558.81	43562.05
558.98	43005.00
559.14	42927.77
559.31	42749.88
559.47	43019.05
559.64	42864.57
559.80	43648.65
559.97	43143.09
560.13	43147.78
560.30	43299.91
560.46	43290.55
560.63	43580.78
560.79	43302.25
560.96	43601.84
561.12	43543.33
561.29	43606.52
561.45	43320.98
561.61	43674.40
561.78	43147.78
561.94	43470.77
562.11	43828.87
562.27	43484.81
562.44	43700.14
562.60	43222.67
562.77	43749.29
562.93	43405.23
563.10	43871.00
563.26	43519.92
563.42	44119.10
563.59	43868.66
563.75	43459.07
563.92	43969.30
564.08	43400.55
564.24	44107.40
564.41	43737.59
564.57	43714.19
564.74	43878.02
564.90	43899.09
565.07	43927.17
565.23	43742.27
565.39	44109.74
565.56	43611.20
565.72	43950.58
565.88	43667.37
566.05	43405.23
566.21	43917.81
566.38	43835.89
566.54	43950.58
566.70	44231.44
566.87	44039.52
567.03	43934.20
567.19	43988.03
567.36	43842.92
567.52	44289.96
567.68	44350.81
567.85	44100.37
568.01	44289.96
568.17	43660.35
568.34	44189.31
568.50	44311.02
568.66	44020.80
568.83	44191.65
568.99	44411.67
569.15	44184.63
569.32	44275.91
569.48	44491.24
569.64	44760.40
569.81	44046.54
569.97	44608.27
570.13	44538.05
570.30	43878.02
570.46	44493.58
570.62	44315.70
570.78	44259.53
570.95	44486.56
571.11	45092.76
571.27	44636.36
571.43	44292.30
571.60	44755.72
571.76	43973.98
571.92	43971.64
572.09	44615.29
572.25	44477.20
572.41	44201.02
572.57	44156.55
572.74	44907.86
572.90	44409.32
573.06	44753.38
573.22	44570.82
573.38	44470.18
573.55	44538.05
573.71	45090.42
573.87	44921.90
574.03	45127.87
574.20	45041.27
574.36	44519.33
574.52	45134.89
574.68	44577.84
574.84	45106.80
575.01	45099.78
575.17	45130.21
575.33	44704.23
575.49	44685.51
575.65	45034.25
575.82	45029.57
575.98	44568.48
576.14	45038.93
576.30	45034.25
576.46	44861.05
576.62	44795.51
576.79	44573.16
576.95	44318.04
577.11	44149.53
577.27	44847.00
577.43	44744.02
577.59	44886.79
577.75	44671.46
577.92	44383.58
578.08	44811.90
578.24	45062.33
578.40	45130.21
578.56	44856.37
578.72	44577.84
578.88	45139.57
579.04	44538.05
579.21	44851.69
579.37	45008.50
579.53	45017.86
579.69	45031.91
579.85	44568.48
580.01	45029.57
580.17	44968.71
580.33	44863.39
580.49	44931.26
580.65	45172.34
580.82	44893.82
580.98	44889.13
581.14	44697.21
581.30	45038.93
581.46	45155.96
581.62	44727.64
581.78	44814.24
581.94	45336.18
582.10	45074.04
582.26	45268.30
582.42	45003.82
582.58	45092.76
582.74	45291.71
582.90	44832.96
583.06	44959.35
583.22	44687.85
583.38	45132.55
583.54	44744.02
583.70	45120.85
583.86	44964.03
584.02	45090.42
584.18	45333.84
584.34	44940.63
584.50	45567.89
584.66	45050.63
584.82	45387.67
584.98	45806.62
585.14	45333.84
585.30	45235.53
585.46	44875.09
585.62	45265.96
585.78	45457.88
585.94	44872.75
586.10	45219.15
586.26	44989.78
586.42	45120.85
586.58	44966.37
586.74	44973.39
586.90	45148.93
587.06	44971.05
587.22	45165.32
587.38	44568.48
587.54	45247.24
587.70	45209.79
587.86	44727.64
588.02	45392.35
588.18	44971.05
588.34	45177.02
588.49	45095.10
588.65	44964.03
588.81	45202.77
588.97	45240.21
589.13	44968.71
589.29	45392.35
589.45	45235.53
589.61	45439.16
589.77	45221.49
589.93	45139.57
590.08	45488.31
