SpectraSuite Data File
++++++++++++++++++++++++++++++++++++
Date: Fri Oct 25 10:44:00 EDT 2013
User: price-jones
Dark Spectrum Present: No
Reference Spectrum Present: No
Number of Sampled Component Spectra: 1
Spectrometers: USB2+H05261
Integration Time (usec): 100000 (USB2+H05261)
Spectra Averaged: 1 (USB2+H05261)
Boxcar Smoothing: 0 (USB2+H05261)
Correct for Electrical Dark: No (USB2+H05261)
Strobe/Lamp Enabled: No (USB2+H05261)
Correct for Detector Non-linearity: No (USB2+H05261)
Correct for Stray Light: No (USB2+H05261)
Number of Pixels in Processed Spectrum: 2048
>>>>>Begin Processed Spectral Data<<<<<
365.73	210.65
365.92	210.65
366.12	210.65
366.32	51.49
366.52	0.00
366.72	39.79
366.91	0.00
367.11	18.72
367.31	18.72
367.51	0.00
367.70	21.06
367.90	0.00
368.10	0.00
368.30	0.00
368.49	21.06
368.69	4.68
368.89	11.70
369.09	30.43
369.28	32.77
369.48	35.11
369.68	42.13
369.87	44.47
370.07	58.51
370.27	170.86
370.47	208.31
370.66	454.06
370.86	402.57
371.06	411.93
371.25	423.64
371.45	423.64
371.65	468.11
371.84	470.45
372.04	493.85
372.24	545.34
372.44	482.15
372.63	482.15
372.83	554.71
373.03	470.45
373.22	540.66
373.42	545.34
373.62	580.45
373.81	568.75
374.01	550.03
374.21	592.16
374.40	580.45
374.60	554.71
374.79	552.37
374.99	594.50
375.19	564.07
375.38	594.50
375.58	622.58
375.78	620.24
375.97	610.88
376.17	627.26
376.37	578.11
376.56	643.65
376.76	690.46
376.95	617.90
377.15	629.60
377.35	671.73
377.54	660.03
377.74	638.97
377.93	634.29
378.13	704.50
378.33	622.58
378.52	662.37
378.72	716.20
378.91	643.65
379.11	695.14
379.31	662.37
379.50	631.94
379.70	648.33
379.89	713.86
380.09	601.52
380.28	641.31
380.48	734.93
380.68	730.25
380.87	744.29
381.07	746.63
381.26	739.61
381.46	711.52
381.65	692.80
381.85	641.31
382.04	706.84
382.24	795.78
382.43	667.05
382.63	725.57
382.83	688.12
383.02	634.29
383.22	725.57
383.41	744.29
383.61	732.59
383.80	774.72
384.00	737.27
384.19	844.93
384.39	688.12
384.58	760.67
384.78	856.64
384.97	755.99
385.17	763.01
385.36	819.19
385.56	753.65
385.75	863.66
385.95	873.02
386.14	863.66
386.34	891.74
386.53	784.08
386.72	807.48
386.92	891.74
387.11	868.34
387.31	936.21
387.50	898.77
387.70	849.61
387.89	903.45
388.09	805.14
388.28	901.11
388.48	952.60
388.67	976.00
388.86	961.96
389.06	929.19
389.25	1025.15
389.45	1053.24
389.64	1025.15
389.84	964.30
390.03	910.47
390.22	1015.79
390.42	954.94
390.61	1069.62
390.81	1011.11
391.00	1123.46
391.19	1114.10
391.39	1064.94
391.58	1086.01
391.78	1144.52
391.97	1057.92
392.16	1071.97
392.36	1032.18
392.55	1025.15
392.75	1036.86
392.94	1001.75
393.13	1078.99
393.33	1100.05
393.52	1067.28
393.71	1146.86
393.91	1198.35
394.10	1123.46
394.29	1174.95
394.49	1224.10
394.68	1193.67
394.88	1160.91
395.07	1287.29
395.26	1245.16
395.46	1320.06
395.65	1308.36
395.84	1064.94
396.04	1200.69
396.23	1245.16
396.42	1228.78
396.62	1231.12
396.81	1210.06
397.00	1205.38
397.19	1217.08
397.39	1383.26
397.58	1357.51
397.77	1373.89
397.97	1497.94
398.16	1472.20
398.35	1493.26
398.55	1495.60
398.74	1554.12
398.93	1561.14
399.12	1423.05
399.32	1486.24
399.51	1519.01
399.70	1586.88
399.90	1537.73
400.09	1551.78
400.28	1652.42
400.47	1647.74
400.67	1701.57
400.86	1729.66
401.05	1701.57
401.24	1673.48
401.44	1813.92
401.63	1886.47
401.82	1750.72
402.01	1696.89
402.21	1788.17
402.40	1753.06
402.59	1811.57
402.78	1778.81
402.97	1893.49
403.17	1820.94
403.36	1764.76
403.55	1895.83
403.74	1834.98
403.93	1923.92
404.13	1877.11
404.32	1935.62
404.51	1987.11
404.70	1980.09
404.89	1912.22
405.09	2043.29
405.28	1930.94
405.47	1937.96
405.66	2064.35
405.85	2076.06
406.05	2029.24
406.24	2043.29
406.43	2029.24
406.62	2174.36
406.81	2225.85
407.00	2122.87
407.20	2167.34
407.39	2134.57
407.58	2174.36
407.77	2211.81
407.96	2256.28
408.15	2296.07
408.34	2237.55
408.54	2389.69
408.73	2359.26
408.92	2328.83
409.11	2335.85
409.30	2345.22
409.49	2296.07
409.68	2263.30
409.87	2326.49
410.07	2450.54
410.26	2441.18
410.45	2516.08
410.64	2539.48
410.83	2558.21
411.02	2614.38
411.21	2691.62
411.40	2597.99
411.59	2651.83
411.78	2506.71
411.98	2619.06
412.17	2614.38
412.36	2789.92
412.55	2787.58
412.74	2771.19
412.93	2818.00
413.12	2733.75
413.31	2892.90
413.50	2909.29
413.69	2902.26
413.88	2899.92
414.07	2902.26
414.26	2883.54
414.45	2988.86
414.64	2946.73
414.83	3101.21
415.02	3187.81
415.22	3192.49
415.41	3234.62
415.60	3155.04
415.79	3300.16
415.98	3246.32
416.17	3239.30
416.36	3410.16
416.55	3353.99
416.74	3211.22
416.93	3276.75
417.12	3290.79
417.31	3410.16
417.50	3517.83
417.69	3471.01
417.88	3501.44
418.07	3393.78
418.26	3503.78
418.45	3655.92
418.64	3613.79
418.83	3543.57
419.02	3651.24
419.21	3604.42
419.39	3592.72
419.58	3534.21
419.77	3522.51
419.96	3721.45
420.15	3646.55
420.34	3709.75
420.53	3892.31
420.72	3815.07
420.91	3932.10
421.10	3819.75
421.29	3934.44
421.48	3758.90
421.67	3892.31
421.86	3885.29
422.05	3885.29
422.24	3805.71
422.43	3875.93
422.61	3918.06
422.80	4060.83
422.99	3838.48
423.18	4044.45
423.37	4007.00
423.56	3976.57
423.75	4011.68
423.94	4042.11
424.13	3911.04
424.32	3953.16
424.50	3985.93
424.69	4114.66
424.88	4004.66
425.07	3922.74
425.26	3955.51
425.45	4152.11
425.64	3955.51
425.83	3964.87
426.01	4156.79
426.20	4063.17
426.39	4149.77
426.58	4035.08
426.77	3997.64
426.96	4058.49
427.15	3997.64
427.33	4189.56
427.52	4135.73
427.71	4257.43
427.90	4126.36
428.09	4196.58
428.28	4187.22
428.46	4215.30
428.65	4250.41
428.84	4311.27
429.03	4337.01
429.22	4161.47
429.40	4227.01
429.59	4222.33
429.78	4079.55
429.97	3946.14
430.16	4030.40
430.34	4250.41
430.53	4224.67
430.72	4170.83
430.91	4311.27
431.10	4325.31
431.28	4503.19
431.47	4542.98
431.66	4622.56
431.85	4573.41
432.03	4737.24
432.22	4739.58
432.41	4596.81
432.60	4828.53
432.79	4702.14
432.97	4795.76
433.16	4865.97
433.35	4760.65
433.54	4807.46
433.72	4774.69
433.91	4592.13
434.10	4718.52
434.28	4823.84
434.47	4905.76
434.66	5107.05
434.85	5104.71
435.03	5060.24
435.22	5118.75
435.41	5071.94
435.59	5135.14
435.78	5167.90
435.97	5303.65
436.16	5270.89
436.34	5174.92
436.53	5153.86
436.72	5359.83
436.90	5135.14
437.09	5233.44
437.28	5334.08
437.46	5221.74
437.65	5322.38
437.84	5177.26
438.02	5327.06
438.21	5411.32
438.40	5390.25
438.58	5408.98
438.77	5376.21
438.96	5444.09
439.14	5593.88
439.33	5647.71
439.52	5781.12
439.70	5696.86
439.89	5762.40
440.08	5692.18
440.26	5771.76
440.45	5987.09
440.63	6001.13
440.82	6080.71
441.01	6047.94
441.19	6169.65
441.38	6277.32
441.57	6242.21
441.75	6120.50
441.94	6286.68
442.12	6251.57
442.31	6314.77
442.50	6342.85
442.68	6410.73
442.87	6361.58
443.05	6289.02
443.24	6600.31
443.43	6431.79
443.61	6558.18
443.80	6630.74
443.98	6459.88
444.17	6312.42
444.35	6796.92
444.54	6612.01
444.73	6640.10
444.91	6773.51
445.10	6633.08
445.28	6630.74
445.47	6384.98
445.65	6604.99
445.84	6572.22
446.02	6705.63
446.21	6705.63
446.39	6621.38
446.58	6726.70
446.77	6850.75
446.95	6719.68
447.14	7007.56
447.32	6911.60
447.51	6689.25
447.69	6715.00
447.88	6576.91
448.06	6855.43
448.25	6832.02
448.43	7028.63
448.62	6644.78
448.80	6782.87
448.99	6899.90
449.17	6939.69
449.36	6888.20
449.54	7187.79
449.73	7272.04
449.91	7208.85
450.10	7169.06
450.28	7449.93
450.46	7386.73
450.65	7342.26
450.83	7236.94
451.02	7405.46
451.20	7297.79
451.39	7232.26
451.57	7286.09
451.76	7344.60
451.94	7442.90
452.13	7520.14
452.31	7316.51
452.49	7211.19
452.68	7335.24
452.86	7403.11
453.05	7351.62
453.23	7424.18
453.42	7403.11
453.60	7358.64
453.78	7613.76
453.97	7449.93
454.15	7531.84
454.34	7360.98
454.52	7801.01
454.70	7707.38
454.89	7763.56
455.07	7609.08
455.26	7620.78
455.44	7899.31
455.62	7892.29
455.81	7761.22
455.99	7866.54
456.17	7779.94
456.36	8016.33
456.54	7981.23
456.73	8156.77
456.91	8231.66
457.09	8287.84
457.28	8402.52
457.46	8353.37
457.64	8353.37
457.83	8325.29
458.01	8060.80
458.19	8372.10
458.38	8217.62
458.56	8484.44
458.74	8524.23
458.93	8477.42
459.11	8393.16
459.29	8496.14
459.48	8344.01
459.66	8519.55
459.84	8514.87
460.03	8599.13
460.21	8755.94
460.39	8629.56
460.57	8702.11
460.76	8758.28
460.94	8774.67
461.12	8573.38
461.31	8861.27
461.49	8676.37
461.67	8760.63
461.85	9036.81
462.04	8814.46
462.22	9004.04
462.40	9200.65
462.59	8912.76
462.77	9015.74
462.95	9067.24
463.13	9163.20
463.32	9069.58
463.50	9289.59
463.68	9151.49
463.86	9137.45
464.05	9160.86
464.23	8884.67
464.41	9202.99
464.59	8884.67
464.78	9284.91
464.96	9193.62
465.14	9064.89
465.32	9280.22
465.50	9366.82
465.69	9406.61
465.87	9369.16
466.05	9516.62
466.23	9359.80
466.41	9167.88
466.60	9813.87
466.78	9195.96
466.96	9254.48
467.14	9607.90
467.32	9643.01
467.51	9425.34
467.69	9310.65
467.87	9481.51
468.05	9624.28
468.23	9462.79
468.41	9640.67
468.60	9631.30
468.78	9781.10
468.96	9729.61
469.14	9713.22
469.32	9919.19
469.50	9657.05
469.69	9806.84
469.87	10108.77
470.05	10092.39
470.23	9750.67
470.41	9795.14
470.59	10174.31
470.77	10111.11
470.95	10040.90
471.14	10284.31
471.32	10178.99
471.50	10289.00
471.68	10408.36
471.86	10534.75
472.04	10408.36
472.22	10555.82
472.40	10492.62
472.58	10569.86
472.77	10469.22
472.95	10768.80
473.13	10951.37
473.31	10689.23
473.49	10731.36
473.67	10743.06
473.85	10993.50
474.03	11019.24
474.21	11260.32
474.39	11154.99
474.57	11339.90
474.75	11363.30
474.93	11346.92
475.12	11375.00
475.30	11559.91
475.48	11353.94
475.66	11405.43
475.84	11435.86
476.02	11480.33
476.20	11648.85
476.38	11728.42
476.56	11971.84
476.74	12119.29
476.92	12046.74
477.10	11932.05
477.28	12255.04
477.46	12236.32
477.64	12446.97
477.82	12465.69
478.00	12772.30
478.18	12688.04
478.36	12713.79
478.54	12870.61
478.72	13004.02
478.90	12807.41
479.08	13146.79
479.26	13308.29
479.44	13565.74
479.62	13362.12
479.80	13341.05
479.98	13816.18
480.16	13902.78
480.34	13743.63
480.52	13788.10
480.70	14059.60
480.88	13741.29
481.06	14157.90
481.24	14155.56
481.41	14452.81
481.59	14403.66
481.77	14347.48
481.95	14717.29
482.13	14747.72
482.31	14927.94
482.49	15126.88
482.67	15211.14
482.85	15417.11
483.03	15424.13
483.21	15733.08
483.39	15527.11
483.57	15833.72
483.74	15920.32
483.92	15831.38
484.10	15566.90
484.28	15995.22
484.46	15978.84
484.64	16585.04
484.82	16276.09
485.00	16250.34
485.18	16758.24
485.35	16589.72
485.53	16397.79
485.71	16411.84
485.89	16465.67
486.07	16795.68
486.25	16814.41
486.43	16973.56
486.61	17296.56
486.78	17460.40
486.96	17844.24
487.14	17682.75
487.32	17937.87
487.50	18080.64
487.68	18501.93
487.85	18670.45
488.03	18398.95
488.21	18621.30
488.39	18822.59
488.57	19154.94
488.75	19260.27
488.92	19239.20
489.10	19681.56
489.28	19587.94
489.46	20002.22
489.64	19957.75
489.81	20418.83
489.99	20297.13
490.17	20390.75
490.35	20582.67
490.53	20610.76
490.70	20383.73
490.88	21008.65
491.06	21179.51
491.24	21144.40
491.41	21081.21
491.59	21153.76
491.77	21167.80
491.95	21495.48
492.13	21432.29
492.30	21738.90
492.48	22092.32
492.66	22384.88
492.84	21900.39
493.01	22061.89
493.19	22382.54
493.37	22640.00
493.54	22522.98
493.72	23080.02
493.90	23122.15
494.08	23459.19
494.25	23555.15
494.43	23599.62
494.61	23508.34
494.79	24020.92
494.96	23314.08
495.14	23939.00
495.32	23920.28
495.49	24357.96
495.67	24273.70
495.85	24486.68
496.02	24645.84
496.20	24861.17
496.38	24891.60
496.55	25032.03
496.73	25528.22
496.91	25130.33
497.09	25226.29
497.26	25151.40
497.44	25553.97
497.62	25736.53
497.79	25497.80
497.97	25722.49
498.14	25656.95
498.32	25806.75
498.50	25811.43
498.67	26218.68
498.85	26452.73
499.03	26373.16
499.20	26499.55
499.38	26892.76
499.56	26647.00
499.73	26609.55
499.91	26892.76
500.08	27094.04
500.26	26525.29
500.44	26773.39
500.61	27297.67
500.79	26916.16
500.97	27033.19
501.14	27548.11
501.32	27407.67
501.49	27290.65
501.67	27241.50
501.84	27693.22
502.02	27887.48
502.20	28163.67
502.37	28428.15
502.55	28247.93
502.72	28304.10
502.90	28353.25
503.07	28423.47
503.25	28807.31
503.43	27992.81
503.60	28666.88
503.78	28458.57
503.95	28769.86
504.13	28807.31
504.30	29226.27
504.48	28851.78
504.65	29383.09
504.83	29237.97
505.01	29516.50
505.18	29350.32
505.36	29797.36
505.53	29626.50
505.71	30068.86
505.88	29860.55
506.06	29902.68
506.23	30448.03
506.41	29851.19
506.58	30312.28
506.76	30188.23
506.93	30696.13
507.11	30286.53
507.28	30724.21
507.46	30178.87
507.63	30272.49
507.81	30726.55
507.98	30717.19
508.16	30785.07
508.33	30850.60
508.50	31042.53
508.68	31508.29
508.85	31569.15
509.03	31400.63
509.20	31747.03
509.38	31505.95
509.55	31498.93
509.73	31978.74
509.90	31845.33
510.08	31391.26
510.25	31887.46
510.42	32147.26
510.60	32018.53
510.77	32381.31
510.95	32266.63
511.12	32212.79
511.30	32584.94
511.47	33076.45
511.64	33013.26
511.82	33291.78
511.99	32479.61
512.17	32987.51
512.34	32725.37
512.51	32790.91
512.69	33001.55
512.86	33017.94
513.04	33326.89
513.21	33453.28
513.38	33139.65
513.56	33116.24
513.73	33055.39
513.90	33488.38
514.08	33549.24
514.25	33909.68
514.43	33656.90
514.60	33736.48
514.77	33816.06
514.95	34225.65
515.12	33692.01
515.29	34185.86
515.47	34068.84
515.64	34473.75
515.81	34190.55
515.99	34235.02
516.16	33935.43
516.33	34007.98
516.51	34490.13
516.68	33326.89
516.85	33832.44
517.03	33996.28
517.20	34380.13
517.37	34520.56
517.54	34883.34
517.72	34560.35
517.89	34398.85
518.06	34298.21
518.24	34724.19
518.41	35096.33
518.58	35096.33
518.75	35152.51
518.93	35264.85
519.10	34951.22
519.27	35718.92
519.45	35503.59
519.62	35218.04
519.79	35711.89
519.96	35709.55
520.14	35847.64
520.31	35716.58
520.48	35735.30
520.65	35660.40
520.83	36414.05
521.00	36128.51
521.17	36746.41
521.34	36495.97
521.52	36495.97
521.69	36503.00
521.86	37219.20
522.03	37170.05
522.20	36755.77
522.38	36952.38
522.55	36971.10
522.72	36900.89
522.89	36828.33
523.07	36992.17
523.24	37017.91
523.41	37036.64
523.58	37638.15
523.75	37645.18
523.92	37570.28
524.10	37596.03
524.27	37926.04
524.44	37502.40
524.61	37823.06
524.78	38066.47
524.96	37956.47
525.13	38124.99
525.30	38396.49
525.47	38675.01
525.64	38061.79
525.81	38220.95
525.98	37956.47
526.16	37717.73
526.33	37961.15
526.50	38223.29
526.67	37677.94
526.84	37710.71
527.01	37888.59
527.18	38258.40
527.36	38314.57
527.53	38583.73
527.70	38909.07
527.87	38763.95
528.04	38684.37
528.21	39042.48
528.38	39140.78
528.55	39510.58
528.72	39459.09
528.89	39470.79
529.07	39143.12
529.24	39459.09
529.41	39395.90
529.58	39248.44
529.75	39260.15
529.92	39337.38
530.09	39562.08
530.26	39512.92
530.43	39608.89
530.60	39608.89
530.77	39707.19
530.94	40362.54
531.11	39768.04
531.28	40151.89
531.46	40023.16
531.63	40004.44
531.80	39985.71
531.97	39798.47
532.14	39564.42
532.31	39175.89
532.48	40055.93
532.65	40217.43
532.82	40163.59
532.99	40210.40
533.16	40407.01
533.33	40552.12
533.50	40591.91
533.67	40755.75
533.84	40720.64
534.01	40954.69
534.18	40629.36
534.35	40940.65
534.52	40481.91
534.69	40662.13
534.86	40865.75
535.03	41310.46
535.20	41380.67
535.37	41167.68
535.54	41223.86
535.71	41387.69
535.88	41188.75
536.05	41270.67
536.22	41219.17
536.38	41249.60
536.55	41053.00
536.72	41200.45
536.89	40959.38
537.06	41212.15
537.23	41207.47
537.40	41448.55
537.57	41673.24
537.74	41542.17
537.91	41701.32
538.08	41624.09
538.25	41612.38
538.42	41408.76
538.59	41989.21
538.75	41099.81
538.92	41773.88
539.09	41429.82
539.26	42419.87
539.43	42143.69
539.60	41982.19
539.77	41790.27
539.94	42021.98
540.11	41521.10
540.28	42061.77
540.44	42213.90
540.61	41687.28
540.78	42216.24
540.95	41851.12
541.12	41984.53
541.29	42354.33
541.46	42204.54
541.62	42555.62
541.79	42656.26
541.96	42078.15
542.13	42356.67
542.30	42604.77
542.47	42249.01
542.63	42499.45
542.80	42719.46
542.97	42766.27
543.14	43229.69
543.31	43040.11
543.48	43185.22
543.64	43196.93
543.81	43103.31
543.98	43674.40
544.15	42948.83
544.32	43339.70
544.48	43681.42
544.65	43353.74
544.82	43697.80
544.99	43828.87
545.16	43466.09
545.32	43445.02
545.49	43585.46
545.66	43761.00
545.83	43945.90
546.00	44285.28
546.16	43793.76
546.33	43512.90
546.50	43215.65
546.67	43789.08
546.83	43751.63
547.00	43739.93
547.17	44079.31
547.34	43606.52
547.50	43861.64
547.67	44072.29
547.84	43583.12
548.00	44086.33
548.17	44107.40
548.34	44259.53
548.51	44568.48
548.67	44224.42
548.84	43978.67
549.01	43978.67
549.18	44355.49
549.34	44098.03
549.51	44486.56
549.68	44282.94
549.84	44601.25
550.01	44818.92
550.18	44196.34
550.34	44746.36
550.51	44172.93
550.68	44507.63
550.84	44194.00
551.01	44388.26
551.18	44289.96
551.34	44418.69
551.51	44491.24
551.68	45001.48
551.84	44760.40
552.01	44491.24
552.18	44641.04
552.34	44519.33
552.51	44751.04
552.68	44708.91
552.84	44816.58
553.01	45097.44
553.18	44739.34
553.34	44699.55
553.51	44851.69
553.67	45095.10
553.84	45123.19
554.01	44802.53
554.17	45448.52
554.34	45219.15
554.51	45652.15
554.67	45155.96
554.84	45237.87
555.00	45097.44
555.17	45188.72
555.33	45312.77
555.50	44879.77
555.67	45397.03
555.83	44964.03
556.00	45471.93
556.16	45345.54
556.33	45364.26
556.50	45186.38
556.66	45478.95
556.83	45064.67
556.99	45460.23
557.16	45666.19
557.32	45626.40
557.49	45851.09
557.65	45179.36
557.82	45673.21
557.98	45329.16
558.15	45502.35
558.32	45893.22
558.48	45509.38
558.65	45792.58
558.81	45525.76
558.98	45368.94
559.14	45645.13
559.31	45310.43
559.47	45998.55
559.64	45614.70
559.80	45757.47
559.97	46302.82
560.13	45280.00
560.30	45659.17
560.46	45757.47
560.63	45897.91
560.79	45696.62
560.96	46131.96
561.12	45752.79
561.29	45394.69
561.45	46110.89
561.61	45977.48
561.78	45731.73
561.94	45811.31
562.11	45610.02
562.27	45745.77
562.44	45881.52
562.60	46066.42
562.77	45998.55
562.93	46061.74
563.10	46473.68
563.26	45642.79
563.42	46108.55
563.59	46085.15
563.75	45883.86
563.92	46253.67
564.08	46536.87
564.24	46628.15
564.41	46192.81
564.57	45972.80
564.74	45977.48
564.90	46588.36
565.07	46321.54
565.23	46192.81
565.39	45888.54
565.56	46183.45
565.72	45827.69
565.88	46419.84
566.05	45996.21
566.21	46295.80
566.38	45993.87
566.54	45649.81
566.70	46326.22
566.87	46483.04
567.03	46227.92
567.19	46904.34
567.36	47157.11
567.52	46026.63
567.68	46536.87
567.85	46155.36
568.01	46735.82
568.17	46153.02
568.34	46742.84
568.50	46248.99
568.66	46358.99
568.83	46218.56
568.99	45832.37
569.15	46230.26
569.32	46101.53
569.48	46309.84
569.64	46511.13
569.81	46314.52
569.97	46527.51
570.13	46211.54
570.30	46110.89
570.46	46115.58
570.62	46003.23
570.78	45797.26
570.95	45982.16
571.11	46536.87
571.27	46047.70
571.43	46241.96
571.60	46433.89
571.76	46450.27
571.92	46251.33
572.09	46347.29
572.25	46525.17
572.41	46471.34
572.57	46436.23
572.74	46941.78
572.90	46429.21
573.06	46408.14
573.22	46223.24
573.38	46649.22
573.55	46305.16
573.71	46499.42
573.87	46401.12
574.03	46555.60
574.20	46735.82
574.36	46483.04
574.52	46312.18
574.68	46480.70
574.84	46583.68
575.01	46312.18
575.17	46560.28
575.33	46469.00
575.49	45979.82
575.65	46740.50
575.82	46433.89
575.98	46742.84
576.14	46602.41
576.30	46557.94
576.46	46251.33
576.62	46410.48
576.79	46075.79
576.95	46349.63
577.11	46134.30
577.27	46497.08
577.43	46583.68
577.59	46375.37
577.75	46274.73
577.92	46429.21
578.08	46593.04
578.24	46136.64
578.40	46476.02
578.56	46366.01
578.72	46602.41
578.88	46494.74
579.04	46923.06
579.21	46164.73
579.37	46305.16
579.53	46768.58
579.69	46593.04
579.85	46703.05
580.01	46862.21
580.17	46628.15
580.33	46745.18
580.49	46845.82
580.65	46344.95
580.82	46679.64
580.98	46550.91
581.14	46506.44
581.30	46546.23
581.46	46394.10
581.62	46880.93
581.78	46417.50
581.94	46738.16
582.10	46314.52
582.26	46766.24
582.42	46564.96
582.58	46522.83
582.74	46801.35
582.90	46466.66
583.06	46864.55
583.22	46883.27
583.38	46747.52
583.54	47009.66
583.70	46894.97
583.86	47002.64
584.02	46363.67
584.18	46405.80
584.34	46784.97
584.50	46501.76
584.66	46356.65
584.82	46562.62
584.98	46712.41
585.14	46681.98
585.30	46946.47
585.46	46660.92
585.62	46197.49
585.78	46366.01
585.94	46630.49
586.10	46164.73
586.26	46576.66
586.42	46866.89
586.58	46689.01
586.74	46663.26
586.90	46667.94
587.06	46885.61
587.22	46911.36
587.38	46539.21
587.54	46887.95
587.70	46775.61
587.86	46539.21
588.02	46557.94
588.18	46642.20
588.34	46206.86
588.49	45940.04
588.65	46153.02
588.81	46270.05
588.97	46230.26
589.13	45989.19
589.29	46614.11
589.45	46562.62
589.61	46689.01
589.77	46969.87
589.93	46937.10
