SpectraSuite Data File
++++++++++++++++++++++++++++++++++++
Date: Fri Oct 25 11:26:34 EDT 2013
User: price-jones
Dark Spectrum Present: No
Reference Spectrum Present: No
Number of Sampled Component Spectra: 1
Spectrometers: USB2+H05261
Integration Time (usec): 100000 (USB2+H05261)
Spectra Averaged: 1 (USB2+H05261)
Boxcar Smoothing: 0 (USB2+H05261)
Correct for Electrical Dark: No (USB2+H05261)
Strobe/Lamp Enabled: No (USB2+H05261)
Correct for Detector Non-linearity: No (USB2+H05261)
Correct for Stray Light: No (USB2+H05261)
Number of Pixels in Processed Spectrum: 2048
>>>>>Begin Processed Spectral Data<<<<<
365.73	231.71
365.92	231.71
366.12	231.71
366.32	102.98
366.52	201.29
366.72	102.98
366.91	131.07
367.11	135.75
367.31	138.09
367.51	105.32
367.70	98.30
367.90	114.69
368.10	180.22
368.30	133.41
368.49	173.20
368.69	173.20
368.89	133.41
369.09	161.50
369.28	205.97
369.48	166.18
369.68	220.01
369.87	142.77
370.07	126.39
370.27	227.03
370.47	311.29
370.66	599.18
370.86	678.76
371.06	648.33
371.25	690.46
371.45	631.94
371.65	732.59
371.84	589.82
372.04	784.08
372.24	741.95
372.44	702.16
372.63	767.70
372.83	819.19
373.03	837.91
373.22	760.67
373.42	809.83
373.62	786.42
373.81	849.61
374.01	760.67
374.21	763.01
374.40	854.30
374.60	840.25
374.79	861.32
374.99	849.61
375.19	819.19
375.38	891.74
375.58	784.08
375.78	826.21
375.97	936.21
376.17	868.34
376.37	884.72
376.56	812.17
376.76	894.08
376.95	910.47
377.15	992.39
377.35	912.81
377.54	957.28
377.74	985.37
377.93	950.26
378.13	910.47
378.33	933.87
378.52	884.72
378.72	938.55
378.91	889.40
379.11	896.43
379.31	884.72
379.50	896.43
379.70	992.39
379.89	966.64
380.09	938.55
380.28	947.92
380.48	1029.84
380.68	1008.77
380.87	1001.75
381.07	880.04
381.26	1088.35
381.46	1050.90
381.65	1020.47
381.85	1088.35
382.04	1076.65
382.24	978.34
382.43	1029.84
382.63	1076.65
382.83	1055.58
383.02	1125.80
383.22	1165.59
383.41	1121.12
383.61	1029.84
383.80	1179.63
384.00	1132.82
384.19	1076.65
384.39	1123.46
384.58	1205.38
384.78	1107.07
384.97	1205.38
385.17	1184.31
385.36	1170.27
385.56	1203.04
385.75	1135.16
385.95	1191.33
386.14	1186.65
386.34	1242.82
386.53	1226.44
386.72	1294.32
386.92	1254.53
387.11	1198.35
387.31	1280.27
387.50	1289.64
387.70	1235.80
387.89	1348.15
388.09	1287.29
388.28	1259.21
388.48	1277.93
388.67	1301.34
388.86	1289.64
389.06	1294.32
389.25	1322.40
389.45	1357.51
389.64	1329.42
389.84	1362.19
390.03	1458.15
390.22	1437.09
390.42	1364.53
390.61	1301.34
390.81	1322.40
391.00	1420.71
391.19	1490.92
391.39	1406.66
391.58	1362.19
391.78	1362.19
391.97	1462.83
392.16	1516.67
392.36	1533.05
392.55	1542.41
392.75	1598.59
392.94	1577.52
393.13	1584.54
393.33	1554.12
393.52	1570.50
393.71	1607.95
393.91	1596.25
394.10	1563.48
394.29	1699.23
394.49	1582.20
394.68	1603.27
394.88	1668.80
395.07	1645.40
395.26	1717.95
395.46	1746.04
395.65	1755.40
395.84	1783.49
396.04	1722.63
396.23	1764.76
396.42	1746.04
396.62	1724.97
396.81	1748.38
397.00	1886.47
397.19	1750.72
397.39	1804.55
397.58	1858.39
397.77	1762.42
397.97	1961.37
398.16	1867.75
398.35	1874.77
398.55	1863.07
398.74	1930.94
398.93	2010.52
399.12	1818.60
399.32	1914.56
399.51	1846.68
399.70	1933.28
399.90	2003.50
400.09	2054.99
400.28	2099.46
400.47	2092.44
400.67	2244.57
400.86	2001.16
401.05	2038.61
401.24	2111.16
401.44	2141.59
401.63	2148.61
401.82	2162.66
402.01	2237.55
402.21	2090.10
402.40	2148.61
402.59	2197.76
402.78	2225.85
402.97	2202.44
403.17	2232.87
403.36	2438.84
403.55	2286.70
403.74	2289.04
403.93	2413.09
404.13	2286.70
404.32	2373.30
404.51	2267.98
404.70	2394.37
404.89	2513.74
405.09	2441.18
405.28	2473.95
405.47	2445.86
405.66	2459.90
405.85	2555.86
406.05	2464.58
406.24	2492.67
406.43	2586.29
406.62	2696.30
406.81	2637.78
407.00	2569.91
407.20	2516.08
407.39	2600.34
407.58	2768.85
407.77	2794.60
407.96	2801.62
408.15	2843.75
408.34	2818.00
408.54	2841.41
408.73	2801.62
408.92	2782.90
409.11	2818.00
409.30	2829.71
409.49	2925.67
409.68	2925.67
409.87	2928.01
410.07	2986.52
410.26	2979.50
410.45	2984.18
410.64	3155.04
410.83	3148.02
411.02	3080.14
411.21	3176.11
411.40	3028.65
411.59	3283.77
411.78	3234.62
411.98	3218.24
412.17	3197.17
412.36	3449.95
412.55	3433.57
412.74	3485.06
412.93	3318.88
413.12	3386.76
413.31	3407.82
413.50	3468.67
413.69	3510.80
413.88	3496.76
414.07	3562.30
414.26	3681.66
414.45	3632.51
414.64	3672.30
414.83	3709.75
415.02	3950.82
415.22	3733.15
415.41	3908.69
415.60	3911.04
415.79	3861.88
415.98	4084.23
416.17	4119.34
416.36	3992.95
416.55	4187.22
416.74	4051.47
416.93	4042.11
417.12	4152.11
417.31	4112.32
417.50	4077.21
417.69	4362.76
417.88	4269.14
418.07	4234.03
418.26	4418.93
418.45	4337.01
418.64	4512.55
418.83	4540.64
419.02	4402.55
419.21	4341.69
419.39	4538.30
419.58	4545.32
419.77	4550.00
419.96	4608.51
420.15	4652.98
420.34	4601.49
420.53	4454.04
420.72	4587.45
420.91	4547.66
421.10	4830.87
421.29	4833.21
421.48	4688.09
421.67	4599.15
421.86	4901.08
422.05	4940.87
422.24	4873.00
422.43	4901.08
422.61	4854.27
422.80	4994.70
422.99	5032.15
423.18	5156.20
423.37	5165.56
423.56	4912.78
423.75	5022.79
423.94	4842.57
424.13	4617.88
424.32	4868.31
424.50	5083.64
424.69	4978.32
424.88	5006.41
425.07	4933.85
425.26	4844.91
425.45	4968.96
425.64	4882.36
425.83	4968.96
426.01	5067.26
426.20	5018.11
426.39	5102.37
426.58	4983.00
426.77	4961.94
426.96	5153.86
427.15	5118.75
427.33	5277.91
427.52	5186.63
427.71	5362.17
427.90	5226.42
428.09	5455.79
428.28	5408.98
428.46	5329.40
428.65	5259.18
428.84	5507.28
429.03	5575.16
429.22	5315.36
429.40	5359.83
429.59	5380.89
429.78	5331.74
429.97	5282.59
430.16	5296.63
430.34	5720.27
430.53	5549.41
430.72	5708.57
430.91	5528.35
431.10	5561.11
431.28	5753.04
431.47	5678.14
431.66	5727.29
431.85	5720.27
432.03	5849.00
432.22	5975.39
432.41	5893.47
432.60	5982.41
432.79	5867.72
432.97	6052.63
433.16	5944.96
433.35	6026.88
433.54	5771.76
433.72	6197.74
433.91	6099.44
434.10	6258.59
434.28	6057.31
434.47	6256.25
434.66	6207.10
434.85	6464.56
435.03	6300.72
435.22	6167.31
435.41	6448.18
435.59	6450.52
435.78	6476.26
435.97	6377.96
436.16	6459.88
436.34	6436.47
436.53	6579.25
436.72	6581.59
436.90	6427.11
437.09	6623.72
437.28	6471.58
437.46	6771.17
437.65	6684.57
437.84	6724.36
438.02	6651.80
438.21	6719.68
438.40	6733.72
438.58	6972.46
438.77	7108.21
438.96	6871.81
439.14	7084.80
439.33	7133.95
439.52	7192.47
439.70	7199.49
439.89	7426.52
440.08	7236.94
440.26	7398.43
440.45	7384.39
440.63	7307.15
440.82	7693.34
441.01	7494.40
441.19	7719.09
441.38	7786.96
441.57	7885.26
441.75	7602.06
441.94	7974.21
442.12	7819.73
442.31	7908.67
442.50	8215.28
442.68	7969.52
442.87	8201.24
443.05	8168.47
443.24	8355.71
443.43	8229.32
443.61	8149.75
443.80	8416.57
443.98	8079.53
444.17	7908.67
444.35	8245.71
444.54	8259.75
444.73	8315.92
444.91	8428.27
445.10	8287.84
445.28	8327.63
445.47	8329.97
445.65	8390.82
445.84	8461.04
446.02	8421.25
446.21	8336.99
446.39	8512.53
446.58	8540.61
446.77	8482.10
446.95	8414.23
447.14	8578.06
447.32	8514.87
447.51	8505.51
447.69	8318.26
447.88	8634.24
448.06	8505.51
448.25	8451.67
448.43	8683.39
448.62	8561.68
448.80	8582.74
448.99	8706.79
449.17	8781.69
449.36	8610.83
449.54	8798.07
449.73	8784.03
449.91	9053.19
450.10	8842.54
450.28	9029.79
450.46	9151.49
450.65	8971.27
450.83	9165.54
451.02	9022.77
451.20	9221.71
451.39	9259.16
451.57	9088.30
451.76	8879.99
451.94	9151.49
452.13	9380.87
452.31	9430.02
452.49	9310.65
452.68	9268.52
452.86	9399.59
453.05	9160.86
453.23	9472.15
453.42	9495.55
453.60	9207.67
453.78	9460.45
453.97	9699.18
454.15	9673.43
454.34	9713.22
454.52	9799.82
454.70	9722.59
454.89	9806.84
455.07	9813.87
455.26	9809.19
455.44	10036.22
455.62	9926.21
455.81	9951.96
455.99	10080.69
456.17	10122.82
456.36	10073.67
456.54	10246.87
456.73	10150.90
456.91	10469.22
457.09	10434.11
457.28	10693.91
457.46	10270.27
457.64	10527.73
457.83	10436.45
458.01	10289.00
458.19	10689.23
458.38	10424.75
458.56	10764.12
458.74	10829.66
458.93	10792.21
459.11	10817.96
459.29	10827.32
459.48	10977.11
459.66	10658.80
459.84	10888.17
460.03	11077.76
460.21	11037.97
460.39	11023.92
460.57	11115.20
460.76	11096.48
460.94	11288.40
461.12	11096.48
461.31	11026.26
461.49	10808.59
461.67	11180.74
461.85	11393.73
462.04	11356.28
462.22	11536.50
462.40	11499.05
462.59	11262.66
462.77	11709.70
462.95	11543.52
463.13	11637.14
463.32	11597.35
463.50	11939.07
463.68	11730.76
463.86	11702.68
464.05	11716.72
464.23	11829.07
464.41	11847.79
464.59	11660.55
464.78	12217.60
464.96	12168.45
465.14	12020.99
465.32	12196.53
465.50	11955.46
465.69	12257.39
465.87	12154.40
466.05	12135.68
466.23	12079.50
466.41	12283.13
466.60	12624.85
466.78	12152.06
466.96	12276.11
467.14	12278.45
467.32	12468.03
467.51	12484.42
467.69	12123.98
467.87	12587.40
468.05	12688.04
468.23	12571.02
468.41	12589.74
468.60	12634.21
468.78	12674.00
468.96	12556.97
469.14	12823.80
469.32	13050.83
469.50	12512.50
469.69	13055.51
469.87	13151.47
470.05	12856.56
470.23	13090.62
470.41	13404.25
470.59	13305.95
470.77	13291.90
470.95	13373.82
471.14	13486.17
471.32	13011.04
471.50	13540.00
471.68	13671.07
471.86	13722.56
472.04	13441.70
472.22	13893.42
472.40	13827.88
472.58	13928.53
472.77	13858.31
472.95	14211.73
473.13	14689.20
473.31	14160.24
473.49	13994.06
473.67	14197.69
473.85	14368.55
474.03	14455.15
474.21	14558.13
474.39	14986.45
474.57	14710.27
474.75	15164.33
474.93	15110.50
475.12	14726.65
475.30	15105.82
475.48	15101.14
475.66	14836.66
475.84	15213.48
476.02	15517.75
476.20	15562.22
476.38	15719.04
476.56	16027.99
476.74	16091.18
476.92	15936.71
477.10	15878.19
477.28	15833.72
477.46	16149.70
477.64	16327.58
477.82	16861.22
478.00	17001.65
478.18	16833.13
478.36	16985.27
478.54	17188.89
478.72	17294.22
478.90	17280.18
479.08	17397.20
479.26	17589.13
479.44	17813.82
479.62	17928.50
479.80	18239.79
479.98	18244.48
480.16	18654.07
480.34	18345.12
480.52	18740.67
480.70	18906.85
480.88	18452.78
481.06	18916.21
481.24	18806.20
481.41	18909.19
481.59	19360.91
481.77	19489.64
481.95	19414.74
482.13	19648.80
482.31	19548.15
482.49	20173.08
482.67	20360.32
482.85	20173.08
483.03	20809.70
483.21	20655.23
483.39	21015.67
483.57	20961.84
483.74	21116.31
483.92	21415.90
484.10	21076.52
484.28	21750.60
484.46	21963.59
484.64	22078.27
484.82	22113.38
485.00	22398.93
485.18	22600.21
485.35	22963.00
485.53	23068.32
485.71	23262.58
485.89	23419.40
486.07	23255.56
486.25	23576.22
486.43	23716.65
486.61	23786.86
486.78	24032.62
486.96	23953.04
487.14	24608.39
487.32	24741.80
487.50	24985.22
487.68	24826.06
487.85	25071.82
488.03	25446.30
488.21	25914.41
488.39	26054.84
488.57	25689.72
488.75	26092.29
488.92	26597.85
489.10	26787.43
489.28	26717.22
489.46	26948.93
489.64	27211.07
489.81	28154.30
489.99	27374.91
490.17	27658.11
490.35	27871.10
490.53	28044.30
490.70	28428.15
490.88	28393.04
491.06	28765.18
491.24	28835.40
491.41	29127.97
491.59	29244.99
491.77	29511.81
491.95	29771.61
492.13	29708.42
492.30	30167.16
492.48	29741.19
492.66	30375.47
492.84	30476.12
493.01	30611.87
493.19	30841.24
493.37	30780.39
493.54	31290.62
493.72	31393.61
493.90	31459.14
494.08	31800.86
494.25	31915.54
494.43	32135.56
494.61	31924.91
494.79	32500.68
494.96	32285.35
495.14	32465.57
495.32	33149.01
495.49	33081.13
495.67	33390.08
495.85	33633.50
496.02	33844.15
496.20	33645.20
496.38	33958.83
496.55	34195.23
496.73	34778.02
496.91	34801.43
497.09	34925.47
497.26	35288.26
497.44	34991.01
497.62	35196.98
497.79	35962.33
497.97	35463.80
498.14	36320.43
498.32	36355.54
498.50	36371.92
498.67	36842.37
498.85	36514.70
499.03	36858.76
499.20	36697.26
499.38	36669.17
499.56	37053.02
499.73	37486.02
499.91	37404.10
500.08	37830.08
500.26	37460.27
500.44	37401.76
500.61	37806.67
500.79	37912.00
500.97	38155.41
501.14	38892.68
501.32	38675.01
501.49	38649.27
501.67	38644.59
501.84	38675.01
502.02	39229.72
502.20	38820.13
502.37	39126.74
502.55	39681.44
502.72	39267.17
502.90	39690.80
503.07	39564.42
503.25	39639.31
503.43	39725.91
503.60	39793.79
503.78	39906.13
503.95	39648.68
504.13	40683.19
504.30	40615.32
504.48	40795.54
504.65	40889.16
504.83	41450.89
505.01	41551.53
505.18	41427.48
505.36	41488.34
505.53	40847.03
505.71	41862.82
505.88	42052.41
506.06	41689.62
506.23	42127.30
506.41	41741.11
506.58	42092.19
506.76	42143.69
506.93	42279.44
507.11	42127.30
507.28	42466.68
507.46	42497.11
507.63	43012.02
507.81	42878.61
507.98	43264.80
508.16	43208.63
508.33	43681.42
508.50	43587.80
508.68	43789.08
508.85	44327.41
509.03	43812.49
509.20	43889.73
509.38	43941.22
509.55	44240.81
509.73	44498.26
509.90	44514.65
510.08	44512.31
510.25	44669.12
510.42	44926.58
510.60	44715.93
510.77	45404.05
510.95	45118.51
511.12	45212.13
511.30	45083.40
511.47	45380.65
511.64	45893.22
511.82	46220.90
511.99	45750.45
512.17	46061.74
512.34	45841.73
512.51	46298.14
512.69	46408.14
512.86	46497.08
513.04	46824.76
513.21	46770.93
513.38	46656.24
513.56	47056.47
513.73	46953.49
513.90	46906.68
514.08	46787.31
514.25	47454.36
514.43	47206.26
514.60	47227.33
514.77	47606.50
514.95	47543.30
515.12	47681.39
515.29	47847.57
515.47	47922.47
515.64	48339.08
515.81	47573.73
515.99	48254.82
516.16	48781.45
516.33	48086.31
516.51	48423.34
516.68	48636.33
516.85	48165.88
517.03	48655.06
517.20	49272.96
517.37	48760.38
517.54	48690.16
517.72	49015.50
517.89	48961.67
518.06	49219.13
518.24	49151.25
518.41	49275.30
518.58	49071.67
518.75	49354.88
518.93	49333.81
519.10	49277.64
519.27	49827.66
519.45	49748.09
519.62	50293.43
519.79	50059.38
519.96	49925.97
520.14	50312.16
520.31	50040.65
520.48	50600.04
520.65	50012.57
520.83	50600.04
521.00	50405.78
521.17	50691.32
521.34	50361.31
521.52	50604.72
521.69	50883.25
521.86	51159.43
522.03	50965.17
522.20	51456.68
522.38	51227.31
522.55	51405.19
522.72	51508.17
522.89	51339.65
523.07	51620.52
523.24	51657.96
523.41	51711.80
523.58	51381.78
523.75	51828.82
523.92	51910.74
524.10	51983.30
524.27	51987.98
524.44	52147.14
524.61	52023.09
524.78	52200.97
524.96	52360.12
525.13	52406.94
525.30	52280.55
525.47	52678.44
525.64	52484.17
525.81	52587.16
525.98	52715.89
526.16	52626.95
526.33	52879.72
526.50	53277.61
526.67	52807.17
526.84	53160.59
527.01	52720.57
527.18	53186.33
527.36	53071.65
527.53	53336.13
527.70	53460.18
527.87	53415.71
528.04	53282.30
528.21	53558.48
528.38	53078.67
528.55	53731.68
528.72	53649.76
528.89	53425.07
529.07	53394.64
529.24	53621.67
529.41	53694.23
529.58	54012.54
529.75	53525.71
529.92	53724.66
530.09	53593.59
530.26	54103.82
530.43	53790.19
530.60	53841.68
530.77	53703.59
530.94	54244.26
531.11	54157.66
531.28	54387.03
531.46	54174.04
531.63	54284.04
531.80	54372.99
531.97	54258.30
532.14	54653.85
532.31	54211.49
532.48	54735.77
532.65	54635.13
532.82	54274.68
532.99	54789.60
533.16	54618.74
533.33	54836.41
533.50	55035.36
533.67	54738.11
533.84	54759.17
534.01	54932.37
534.18	55143.02
534.35	55255.37
534.52	55023.65
534.69	55337.29
534.86	55093.87
535.03	55138.34
535.20	55248.35
535.37	55458.99
535.54	55430.91
535.71	54948.76
535.88	55348.99
536.05	55515.17
536.22	55774.97
536.38	55695.39
536.55	55290.48
536.72	55557.30
536.89	55370.05
537.06	55842.84
537.23	55824.12
537.40	55683.69
537.57	55779.65
537.74	55777.31
537.91	56259.46
538.08	55845.18
538.25	55501.12
538.42	55934.12
538.59	56144.77
538.75	55849.86
538.92	55964.55
539.09	56214.99
539.26	56175.20
539.43	56037.11
539.60	56231.37
539.77	56182.22
539.94	56397.55
540.11	56327.33
540.28	56184.56
540.44	56397.55
540.61	56301.59
540.78	56465.42
540.95	56502.87
541.12	56594.15
541.29	56502.87
541.46	56729.90
541.62	56657.35
541.79	56701.82
541.96	56418.61
542.13	56364.78
542.30	56821.19
542.47	56999.07
542.63	56849.27
542.80	57111.41
542.97	57258.87
543.14	57125.46
543.31	57289.29
543.48	57055.24
543.64	57546.75
543.81	57350.15
543.98	57305.68
544.15	57403.98
544.32	57221.42
544.48	57635.69
544.65	57401.64
544.82	57518.67
544.99	57228.44
545.16	57528.03
545.32	57396.96
545.49	57801.87
545.66	57825.28
545.83	57755.06
546.00	57815.91
546.16	57748.04
546.33	57471.85
546.50	57600.58
546.67	57827.62
546.83	57513.98
547.00	57736.34
547.17	57757.40
547.34	57848.68
547.50	58007.84
547.67	57914.22
547.84	58131.89
548.00	58117.84
548.17	58335.51
548.34	58241.89
548.51	58241.89
548.67	58157.63
548.84	58316.79
549.01	58019.54
549.18	58120.18
549.34	58152.95
549.51	58216.14
549.68	58239.55
549.84	58192.74
550.01	58333.17
550.18	58248.91
550.34	58328.49
550.51	58529.78
550.68	58342.53
550.84	58372.96
551.01	58630.42
551.18	58445.52
551.34	58581.27
551.51	58333.17
551.68	58688.93
551.84	58394.03
552.01	58403.39
552.18	58829.37
552.34	58368.28
552.51	58808.30
552.68	58351.90
552.84	58801.28
553.01	58901.92
553.18	58822.34
553.34	58843.41
553.51	58677.23
553.67	58979.16
553.84	58892.56
554.01	58894.90
554.17	58960.44
554.34	59138.32
554.51	59171.08
554.67	59126.61
554.84	59000.22
555.00	59068.10
555.17	58986.18
555.33	58796.60
555.50	58946.39
555.67	58887.88
555.83	58925.33
556.00	59035.33
556.16	59449.61
556.33	59353.65
556.50	59222.58
556.66	59208.53
556.83	59054.06
556.99	59423.86
557.16	59599.40
557.32	59515.14
557.49	59594.72
557.65	59105.55
557.82	59372.37
557.98	59243.64
558.15	59526.84
558.32	59657.91
558.48	59461.31
558.65	59311.52
558.81	59650.89
558.98	59587.70
559.14	59576.00
559.31	59568.97
559.47	59793.67
559.64	59774.94
559.80	59693.02
559.97	59742.17
560.13	59709.41
560.30	59688.34
560.46	59751.54
560.63	59568.97
560.79	59922.40
560.96	59952.82
561.12	59924.74
561.29	59779.62
561.45	59803.03
561.61	59906.01
561.78	59929.42
561.94	59788.98
562.11	59819.41
562.27	59833.46
562.44	59894.31
562.60	60090.91
562.77	59957.50
562.93	59873.24
563.10	60149.43
563.26	59917.71
563.42	60233.69
563.59	60154.11
563.75	59943.46
563.92	60149.43
564.08	60020.70
564.24	60116.66
564.41	59964.52
564.57	60016.02
564.74	60140.07
564.90	60250.07
565.07	60343.69
565.23	60147.09
565.39	60016.02
565.56	60177.51
565.72	60107.30
565.88	60282.84
566.05	60086.23
566.21	60245.39
566.38	60229.01
566.54	60172.83
566.70	60273.48
566.87	60343.69
567.03	60062.83
567.19	60552.00
567.36	60385.82
567.52	60488.80
567.68	60680.73
567.85	60261.77
568.01	60397.52
568.17	60477.10
568.34	60369.44
568.50	60420.93
568.66	60371.78
568.83	60640.94
568.99	60320.29
569.15	60353.05
569.32	60418.59
569.48	60395.18
569.64	60591.79
569.81	60287.52
569.97	60495.83
570.13	60474.76
570.30	60320.29
570.46	60355.39
570.62	60509.87
570.78	60383.48
570.95	60456.04
571.11	60526.25
571.27	60559.02
571.43	60561.36
571.60	60739.24
571.76	60535.62
571.92	60664.35
572.09	60570.72
572.25	60647.96
572.41	60673.71
572.57	60472.42
572.74	60807.12
572.90	60605.83
573.06	60587.11
573.22	60706.47
573.38	60619.88
573.55	60629.24
573.71	60713.50
573.87	60708.82
574.03	60587.11
574.20	60898.40
574.36	60654.98
574.52	60779.03
574.68	60736.90
574.84	60907.76
575.01	60858.61
575.17	60509.87
575.33	60556.68
575.49	60537.96
575.65	60542.64
575.82	60940.53
575.98	61001.38
576.14	60935.85
576.30	60865.63
576.46	60601.15
576.62	60804.78
576.79	60821.16
576.95	60643.28
577.11	60821.16
577.27	60767.33
577.43	60762.65
577.59	60940.53
577.75	60818.82
577.92	60645.62
578.08	60882.02
578.24	60680.73
578.40	60947.55
578.56	60905.42
578.72	60706.47
578.88	61045.85
579.04	61041.17
579.21	60889.04
579.37	60938.19
579.53	61158.20
579.69	60601.15
579.85	60697.11
580.01	60762.65
580.17	60467.74
580.33	60804.78
580.49	61041.17
580.65	60989.68
580.82	60786.05
580.98	60898.40
581.14	60741.58
581.30	60889.04
581.46	61038.83
581.62	60893.72
581.78	60863.29
581.94	60832.86
582.10	60835.20
582.26	61062.24
582.42	60793.07
582.58	60999.04
582.74	60921.80
582.90	60837.54
583.06	60863.29
583.22	60687.75
583.38	60863.29
583.54	60992.02
583.70	61050.53
583.86	60896.06
584.02	60856.27
584.18	61099.68
584.34	61073.94
584.50	61071.60
584.66	60828.18
584.82	60896.06
584.98	61216.71
585.14	60931.17
585.30	60935.85
585.46	60755.63
585.62	61008.40
585.78	61176.92
585.94	60975.64
586.10	60940.53
586.26	61085.64
586.42	61036.49
586.58	61221.39
586.74	60973.30
586.90	61034.15
587.06	60928.83
587.22	61216.71
587.38	60959.25
587.54	61188.63
587.70	61268.20
587.86	61076.28
588.02	61076.28
588.18	61134.79
588.34	61099.68
588.49	61017.77
