SpectraSuite Data File
++++++++++++++++++++++++++++++++++++
Date: Fri Oct 25 11:26:25 EDT 2013
User: price-jones
Dark Spectrum Present: No
Reference Spectrum Present: No
Number of Sampled Component Spectra: 1
Spectrometers: USB2+H05261
Integration Time (usec): 100000 (USB2+H05261)
Spectra Averaged: 1 (USB2+H05261)
Boxcar Smoothing: 0 (USB2+H05261)
Correct for Electrical Dark: No (USB2+H05261)
Strobe/Lamp Enabled: No (USB2+H05261)
Correct for Detector Non-linearity: No (USB2+H05261)
Correct for Stray Light: No (USB2+H05261)
Number of Pixels in Processed Spectrum: 2048
>>>>>Begin Processed Spectral Data<<<<<
365.73	208.31
365.92	208.31
366.12	208.31
366.32	189.58
366.52	58.51
366.72	154.48
366.91	70.22
367.11	138.09
367.31	182.56
367.51	102.98
367.70	149.79
367.90	107.66
368.10	114.69
368.30	105.32
368.49	149.79
368.69	227.03
368.89	70.22
369.09	149.79
369.28	182.56
369.48	133.41
369.68	156.82
369.87	189.58
370.07	170.86
370.27	273.84
370.47	320.65
370.66	550.03
370.86	615.56
371.06	699.82
371.25	695.14
371.45	683.44
371.65	744.29
371.84	641.31
372.04	610.88
372.24	697.48
372.44	767.70
372.63	800.46
372.83	781.74
373.03	809.83
373.22	723.23
373.42	746.63
373.62	725.57
373.81	800.46
374.01	835.57
374.21	837.91
374.40	781.74
374.60	896.43
374.79	819.19
374.99	774.72
375.19	835.57
375.38	807.48
375.58	851.96
375.78	837.91
375.97	821.53
376.17	880.04
376.37	889.40
376.56	940.90
376.76	837.91
376.95	802.80
377.15	915.15
377.35	866.00
377.54	971.32
377.74	837.91
377.93	917.49
378.13	952.60
378.33	959.62
378.52	964.30
378.72	868.34
378.91	952.60
379.11	966.64
379.31	933.87
379.50	929.19
379.70	980.68
379.89	1006.43
380.09	936.21
380.28	947.92
380.48	968.98
380.68	1062.60
380.87	978.34
381.07	973.66
381.26	1107.07
381.46	954.94
381.65	1022.81
381.85	999.41
382.04	968.98
382.24	1053.24
382.43	1022.81
382.63	1064.94
382.83	1057.92
383.02	1041.54
383.22	1102.39
383.41	1074.31
383.61	1121.12
383.80	1172.61
384.00	1256.87
384.19	1048.56
384.39	1062.60
384.58	1146.86
384.78	1181.97
384.97	1135.16
385.17	1170.27
385.36	1270.91
385.56	1160.91
385.75	1128.14
385.95	1249.85
386.14	1205.38
386.34	1144.52
386.53	1198.35
386.72	1167.93
386.92	1277.93
387.11	1179.63
387.31	1259.21
387.50	1228.78
387.70	1196.01
387.89	1249.85
388.09	1362.19
388.28	1315.38
388.48	1331.76
388.67	1299.00
388.86	1380.92
389.06	1341.13
389.25	1355.17
389.45	1313.04
389.64	1317.72
389.84	1359.85
390.03	1439.43
390.22	1448.79
390.42	1362.19
390.61	1399.64
390.81	1427.73
391.00	1329.42
391.19	1404.32
391.39	1448.79
391.58	1327.08
391.78	1420.71
391.97	1413.68
392.16	1434.75
392.36	1455.81
392.55	1502.62
392.75	1533.05
392.94	1584.54
393.13	1537.73
393.33	1561.14
393.52	1614.97
393.71	1589.22
393.91	1540.07
394.10	1530.71
394.29	1565.82
394.49	1565.82
394.68	1647.74
394.88	1647.74
395.07	1673.48
395.26	1598.59
395.46	1593.90
395.65	1652.42
395.84	1650.08
396.04	1799.87
396.23	1816.26
396.42	1701.57
396.62	1657.10
396.81	1764.76
397.00	1769.44
397.19	1739.02
397.39	1806.89
397.58	1741.36
397.77	1825.62
397.97	1748.38
398.16	1849.02
398.35	1863.07
398.55	1820.94
398.74	1886.47
398.93	1856.04
399.12	1949.67
399.32	1921.58
399.51	1961.37
399.70	1956.69
399.90	1900.52
400.09	1975.41
400.28	2019.88
400.47	2012.86
400.67	2080.74
400.86	1987.11
401.05	2094.78
401.24	2183.72
401.44	2155.63
401.63	1989.46
401.82	2076.06
402.01	2120.53
402.21	2106.48
402.40	2235.21
402.59	2202.44
402.78	2143.93
402.97	2246.91
403.17	2221.17
403.36	2249.25
403.55	2165.00
403.74	2289.04
403.93	2303.09
404.13	2352.24
404.32	2396.71
404.51	2246.91
404.70	2415.43
404.89	2408.41
405.09	2347.56
405.28	2417.77
405.47	2471.61
405.66	2387.35
405.85	2541.82
406.05	2445.86
406.24	2588.63
406.43	2612.04
406.62	2691.62
406.81	2583.95
407.00	2513.74
407.20	2670.55
407.39	2672.89
407.58	2651.83
407.77	2668.21
407.96	2614.38
408.15	2696.30
408.34	2860.13
408.54	2764.17
408.73	2757.15
408.92	2803.96
409.11	2813.32
409.30	2864.82
409.49	2862.48
409.68	2832.05
409.87	2916.31
410.07	3007.59
410.26	2942.05
410.45	2960.78
410.64	2984.18
410.83	2981.84
411.02	3009.93
411.21	3091.85
411.40	3206.53
411.59	3183.13
411.78	3194.83
411.98	3176.11
412.17	3262.71
412.36	3307.18
412.55	3258.03
412.74	3452.29
412.93	3325.90
413.12	3361.01
413.31	3569.32
413.50	3356.33
413.69	3492.08
413.88	3510.80
414.07	3515.48
414.26	3566.98
414.45	3637.19
414.64	3679.32
414.83	3674.64
415.02	3747.20
415.22	3768.26
415.41	3976.57
415.60	3758.90
415.79	3882.95
415.98	3812.73
416.17	3918.06
416.36	3861.88
416.55	3925.08
416.74	4035.08
416.93	4063.17
417.12	4049.13
417.31	4081.89
417.50	4079.55
417.69	4318.29
417.88	4252.75
418.07	4269.14
418.26	4304.25
418.45	4325.31
418.64	4470.42
418.83	4269.14
419.02	4320.63
419.21	4339.35
419.39	4423.61
419.58	4521.92
419.77	4535.96
419.96	4533.62
420.15	4596.81
420.34	4685.75
420.53	4557.02
420.72	4645.96
420.91	4746.61
421.10	4793.42
421.29	4805.12
421.48	4669.37
421.67	4683.41
421.86	4791.08
422.05	4840.23
422.24	4681.07
422.43	4851.93
422.61	4903.42
422.80	4786.40
422.99	4922.15
423.18	5006.41
423.37	5050.88
423.56	4901.08
423.75	4833.21
423.94	4748.95
424.13	4606.17
424.32	4727.88
424.50	5022.79
424.69	5132.79
424.88	4910.44
425.07	4875.34
425.26	4739.58
425.45	4898.74
425.64	4812.14
425.83	4968.96
426.01	5200.67
426.20	5004.07
426.39	5165.56
426.58	5018.11
426.77	5184.29
426.96	5107.05
427.15	5029.81
427.33	5137.48
427.52	5186.63
427.71	5228.76
427.90	5125.77
428.09	5238.12
428.28	5313.02
428.46	5411.32
428.65	5373.87
428.84	5528.35
429.03	5465.15
429.22	5170.24
429.40	5313.02
429.59	5547.07
429.78	5441.75
429.97	5184.29
430.16	5416.00
430.34	5540.05
430.53	5556.43
430.72	5596.22
430.91	5586.86
431.10	5675.80
431.28	5699.20
431.47	5701.54
431.66	5769.42
431.85	5849.00
432.03	5937.94
432.22	5900.49
432.41	5867.72
432.60	6019.86
432.79	5895.81
432.97	5975.39
433.16	5912.19
433.35	5905.17
433.54	6040.92
433.72	6001.13
433.91	6033.90
434.10	6225.82
434.28	6076.03
434.47	6347.53
434.66	6216.46
434.85	6333.49
435.03	6108.80
435.22	5989.43
435.41	6675.21
435.59	6286.68
435.78	6384.98
435.97	6169.65
436.16	6417.75
436.34	6312.42
436.53	6537.12
436.72	6530.09
436.90	6382.64
437.09	6511.37
437.28	6392.00
437.46	6448.18
437.65	6544.14
437.84	6815.64
438.02	6635.42
438.21	6679.89
438.40	6558.18
438.58	6932.67
438.77	7103.53
438.96	6850.75
439.14	7157.36
439.33	7260.34
439.52	7101.19
439.70	7131.61
439.89	7379.71
440.08	7260.34
440.26	7337.58
440.45	7143.32
440.63	7468.65
440.82	7541.21
441.01	7522.48
441.19	7370.35
441.38	7487.37
441.57	7588.02
441.75	7779.94
441.94	7824.41
442.12	7953.14
442.31	7962.50
442.50	7824.41
442.68	7957.82
442.87	7913.35
443.05	8187.19
443.24	8131.02
443.43	8056.12
443.61	8308.90
443.80	8320.60
443.98	8002.29
444.17	7978.89
444.35	8205.92
444.54	8238.69
444.73	8109.96
444.91	8189.53
445.10	8255.07
445.28	8191.88
445.47	8341.67
445.65	8257.41
445.84	8346.35
446.02	8554.66
446.21	8327.63
446.39	8336.99
446.58	8629.56
446.77	8496.14
446.95	8365.07
447.14	8428.27
447.32	8421.25
447.51	8503.17
447.69	8376.78
447.88	8395.50
448.06	8329.97
448.25	8449.33
448.43	8608.49
448.62	8587.43
448.80	8486.78
448.99	8624.87
449.17	8564.02
449.36	8594.45
449.54	8915.10
449.73	8959.57
449.91	8830.84
450.10	8840.20
450.28	8987.66
450.46	9202.99
450.65	9179.58
450.83	9125.75
451.02	9022.77
451.20	9055.53
451.39	9048.51
451.57	9296.61
451.76	8929.14
451.94	8994.68
452.13	9085.96
452.31	9343.42
452.49	9057.87
452.68	9301.29
452.86	9273.20
453.05	9530.66
453.23	9413.63
453.42	9500.23
453.60	9217.03
453.78	9423.00
453.97	9469.81
454.15	9387.89
454.34	9364.48
454.52	9600.88
454.70	9745.99
454.89	9738.97
455.07	9666.41
455.26	9696.84
455.44	9820.89
455.62	9919.19
455.81	9872.38
455.99	10052.60
456.17	10108.77
456.36	10050.26
456.54	10087.71
456.73	10097.07
456.91	10504.32
457.09	10345.17
457.28	10448.15
457.46	10363.89
457.64	10530.07
457.83	10396.66
458.01	10286.65
458.19	10717.31
458.38	10422.41
458.56	10504.32
458.74	10665.82
458.93	10672.84
459.11	10808.59
459.29	10736.04
459.48	10857.75
459.66	10679.86
459.84	10817.96
460.03	11145.63
460.21	10991.16
460.39	10967.75
460.57	10839.02
460.76	11049.67
460.94	10934.98
461.12	11115.20
461.31	11012.22
461.49	11096.48
461.67	11023.92
461.85	11304.79
462.04	11178.40
462.22	11765.87
462.40	11496.71
462.59	11485.01
462.77	11438.20
462.95	11627.78
463.13	11763.53
463.32	11667.57
463.50	11613.74
463.68	11791.62
463.86	11737.79
464.05	11433.52
464.23	11571.61
464.41	11798.64
464.59	11613.74
464.78	12100.57
464.96	11817.36
465.14	11749.49
465.32	11826.73
465.50	12156.74
465.69	12063.12
465.87	12184.83
466.05	12093.55
466.23	11990.56
466.41	11873.54
466.60	12379.09
466.78	12163.76
466.96	11845.45
467.14	12266.75
467.32	12283.13
467.51	12325.26
467.69	12156.74
467.87	12669.32
468.05	12659.96
468.23	12482.08
468.41	12362.71
468.60	12599.10
468.78	12762.94
468.96	12435.27
469.14	12638.89
469.32	12678.68
469.50	12622.51
469.69	12819.11
469.87	12947.84
470.05	13029.76
470.23	12929.12
470.41	13191.26
470.59	13240.41
470.77	13025.08
470.95	13158.49
471.14	13341.05
471.32	12987.63
471.50	13504.89
471.68	13345.73
471.86	13605.53
472.04	13589.15
472.22	13996.40
472.40	13680.43
472.58	13699.16
472.77	13968.32
472.95	13982.36
473.13	14431.74
473.31	13813.84
473.49	13935.55
473.67	13919.17
473.85	14169.60
474.03	14544.09
474.21	14508.98
474.39	14595.58
474.57	14532.39
474.75	14745.38
474.93	15166.67
475.12	14801.55
475.30	15063.69
475.48	14740.69
475.66	15075.39
475.84	15147.95
476.02	15049.64
476.20	15051.99
476.38	15499.03
476.56	15885.22
476.74	15639.46
476.92	15630.10
477.10	15606.69
477.28	16161.40
477.46	16044.37
477.64	16208.21
477.82	16404.81
478.00	16931.44
478.18	16666.95
478.36	16748.87
478.54	16889.31
478.72	16926.75
478.90	17102.29
479.08	17523.59
479.26	17406.56
479.44	17626.57
479.62	17741.26
479.80	17980.00
479.98	17909.78
480.16	18221.07
480.34	18588.53
480.52	18473.85
480.70	18691.52
480.88	18190.64
481.06	18459.81
481.24	18548.75
481.41	18787.48
481.59	19484.96
481.77	19269.63
481.95	19290.70
482.13	19555.18
482.31	19328.14
482.49	20154.35
482.67	20114.56
482.85	20318.19
483.03	20411.81
483.21	20332.23
483.39	20957.16
483.57	20826.09
483.74	21015.67
483.92	21027.37
484.10	21120.99
484.28	21654.64
484.46	21975.29
484.64	22125.08
484.82	21556.33
485.00	22146.15
485.18	22476.16
485.35	23054.28
485.53	22544.04
485.71	22862.35
485.89	23548.13
486.07	23407.70
486.25	23370.25
486.43	23564.51
486.61	23777.50
486.78	24151.99
486.96	24254.97
487.14	24524.13
487.32	24247.95
487.50	24709.04
487.68	25151.40
487.85	24872.87
488.03	25039.05
488.21	25612.48
488.39	25589.08
488.57	25769.30
488.75	25736.53
488.92	26249.11
489.10	26199.96
489.28	26672.74
489.46	27096.38
489.64	26764.03
489.81	27190.00
489.99	27323.41
490.17	27796.20
490.35	27859.40
490.53	27988.13
490.70	28716.03
490.88	27967.06
491.06	28217.50
491.24	28540.49
491.41	28762.84
491.59	29235.63
491.77	29057.75
491.95	29600.76
492.13	29362.02
492.30	29755.23
492.48	30141.42
492.66	29986.94
492.84	30455.05
493.01	30345.05
493.19	30452.71
493.37	30913.80
493.54	31042.53
493.72	31358.50
493.90	31395.95
494.08	31716.60
494.25	31835.97
494.43	31580.85
494.61	31868.73
494.79	32332.16
494.96	32428.12
495.14	32652.81
495.32	32996.87
495.49	32772.18
495.67	33294.12
495.85	33219.22
496.02	33799.68
496.20	33542.22
496.38	33907.34
496.55	33579.67
496.73	34251.40
496.91	34270.12
497.09	34625.89
497.26	34649.29
497.44	34424.60
497.62	35204.00
497.79	35756.36
497.97	35264.85
498.14	35634.66
498.32	35941.27
498.50	35894.46
498.67	36538.10
498.85	35852.33
499.03	36250.22
499.20	36254.90
499.38	36465.55
499.56	36645.77
499.73	36582.57
499.91	37268.35
500.08	37195.79
500.26	37111.53
500.44	37635.81
500.61	37376.01
500.79	37312.82
500.97	37427.51
501.14	38557.99
501.32	38438.62
501.49	38352.02
501.67	38424.57
501.84	38998.01
502.02	38429.26
502.20	38888.00
502.37	38515.86
502.55	38703.10
502.72	38890.34
502.90	39370.15
503.07	39538.67
503.25	39681.44
503.43	39711.87
503.60	39821.87
503.78	39880.39
503.95	40112.10
504.13	40484.25
504.30	40236.15
504.48	40289.98
504.65	40339.13
504.83	40966.40
505.01	41296.41
505.18	40701.92
505.36	41478.97
505.53	41368.97
505.71	41256.62
505.88	41570.25
506.06	41375.99
506.23	41755.16
506.41	41703.67
506.58	42103.90
506.76	41603.02
506.93	42174.11
507.11	41846.44
507.28	42143.69
507.46	42241.99
507.63	42483.06
507.81	42426.89
507.98	42344.97
508.16	42932.45
508.33	43107.99
508.50	43033.09
508.68	43557.37
508.85	43697.80
509.03	43260.12
509.20	43840.57
509.38	44327.41
509.55	44069.95
509.73	44273.57
509.90	44399.96
510.08	44692.53
510.25	44732.32
510.42	44556.78
510.60	44821.26
510.77	45195.74
510.95	44996.80
511.12	44898.50
511.30	44362.51
511.47	45254.26
511.64	45422.78
511.82	45570.23
511.99	45041.27
512.17	45766.84
512.34	45319.79
512.51	46028.98
512.69	45944.72
512.86	46515.81
513.04	46667.94
513.21	46419.84
513.38	46562.62
513.56	46693.69
513.73	46305.16
513.90	46913.70
514.08	46419.84
514.25	46756.88
514.43	47098.60
514.60	47320.95
514.77	46623.47
514.95	47445.00
515.12	46951.15
515.29	47168.82
515.47	47578.41
515.64	47723.52
515.81	47599.47
515.99	47943.53
516.16	47835.87
516.33	48076.94
516.51	48224.40
516.68	48336.74
516.85	48465.47
517.03	48442.07
517.20	48746.34
517.37	48397.60
517.54	48718.25
517.72	48744.00
517.89	48772.08
518.06	49076.35
518.24	48971.03
518.41	48769.74
518.58	49158.27
518.75	49045.93
518.93	49371.26
519.10	49514.03
519.27	49436.80
519.45	49350.20
519.62	49794.90
519.79	49626.38
519.96	49532.76
520.14	50279.39
520.31	49844.05
520.48	50061.72
520.65	49876.82
520.83	50375.35
521.00	50478.33
521.17	50188.11
521.34	50429.18
521.52	50623.45
521.69	50373.01
521.86	50752.18
522.03	50691.32
522.20	51119.64
522.38	51065.81
522.55	51098.58
522.72	50930.06
522.89	51056.45
523.07	51290.50
523.24	51332.63
523.41	51470.72
523.58	51241.35
523.75	51468.38
523.92	51554.98
524.10	51503.49
524.27	51784.35
524.44	51686.05
524.61	51969.26
524.78	51990.32
524.96	52018.41
525.13	51798.40
525.30	52186.92
525.47	52243.10
525.64	52294.59
525.81	52371.83
525.98	52446.72
526.16	52420.98
526.33	52336.72
526.50	52699.50
526.67	52390.55
526.84	52797.80
527.01	52589.50
527.18	52650.35
527.36	52793.12
527.53	53183.99
527.70	53059.94
527.87	53172.29
528.04	52884.40
528.21	53214.42
528.38	53254.21
528.55	53378.26
528.72	53319.74
528.89	53235.48
529.07	53305.70
529.24	53048.24
529.41	53640.40
529.58	53581.88
529.75	53289.32
529.92	53666.14
530.09	53787.85
530.26	53642.74
530.43	53605.29
530.60	53457.84
530.77	53736.36
530.94	54061.69
531.11	54049.99
531.28	53872.11
531.46	53764.45
531.63	53965.73
531.80	54078.08
531.97	54309.79
532.14	54057.01
532.31	54387.03
532.48	54258.30
532.65	54492.35
532.82	54234.89
532.99	54621.08
533.16	54213.83
533.33	54616.40
533.50	54766.20
533.67	54539.16
533.84	54419.80
534.01	54593.00
534.18	54831.73
534.35	54958.12
534.52	55033.02
534.69	54913.65
534.86	54932.37
535.03	54742.79
535.20	55145.36
535.37	55339.63
535.54	55234.30
535.71	55128.98
535.88	55206.22
536.05	55224.94
536.22	55180.47
536.38	55370.05
536.55	55461.33
536.72	55236.64
536.89	55393.46
537.06	55334.95
537.23	55599.43
537.40	55470.70
537.57	55714.11
537.74	55519.85
537.91	55833.48
538.08	55466.02
538.25	55370.05
538.42	55608.79
538.59	56250.09
538.75	55650.92
538.92	55969.23
539.09	55964.55
539.26	56121.37
539.43	56112.00
539.60	56072.21
539.77	56163.50
539.94	56444.36
540.11	56229.03
540.28	56568.41
540.44	56200.94
540.61	56374.14
540.78	56350.74
540.95	56301.59
541.12	56135.41
541.29	56334.35
541.46	56254.78
541.62	56362.44
541.79	56404.57
541.96	56210.31
542.13	56257.12
542.30	56451.38
542.47	56928.85
542.63	56725.22
542.80	56713.52
542.97	56926.51
543.14	57048.22
543.31	56917.15
543.48	57176.95
543.64	57120.77
543.81	57237.80
543.98	57336.10
544.15	57031.83
544.32	57095.03
544.48	57354.83
544.65	57226.10
544.82	57083.33
544.99	57165.24
545.16	57420.36
545.32	57181.63
545.49	57549.09
545.66	57626.33
545.83	57476.54
546.00	57525.69
546.16	57371.21
546.33	57312.70
546.50	57331.42
546.67	57549.09
546.83	57322.06
547.00	57537.39
547.17	57572.50
547.34	57591.22
547.50	57577.18
547.67	58075.71
547.84	57560.79
548.00	57970.39
548.17	57975.07
548.34	58052.31
548.51	58155.29
548.67	57883.79
548.84	57972.73
549.01	57797.19
549.18	58073.37
549.34	58024.22
549.51	58075.71
549.68	58159.97
549.84	58337.85
550.01	58284.02
550.18	58071.03
550.34	58202.10
550.51	58232.53
550.68	58192.74
550.84	58028.90
551.01	58546.16
551.18	58281.68
551.34	58274.66
551.51	58429.13
551.68	58417.43
551.84	58375.30
552.01	58494.67
552.18	58485.31
552.34	58284.02
552.51	58548.50
552.68	58405.73
552.84	58548.50
553.01	58576.59
553.18	58396.37
553.34	58525.10
553.51	58548.50
553.67	58660.85
553.84	58869.15
554.01	58780.21
554.17	58953.41
554.34	58906.60
554.51	58780.21
554.67	58990.86
554.84	58738.08
555.00	58747.45
555.17	58733.40
555.33	58899.58
555.50	58728.72
555.67	58920.65
555.83	58770.85
556.00	58979.16
556.16	59089.16
556.33	59110.23
556.50	58983.84
556.66	59157.04
556.83	58885.54
556.99	59269.39
557.16	59194.49
557.32	59337.26
557.49	59463.65
557.65	59152.36
557.82	59201.51
557.98	59040.01
558.15	59267.05
558.32	59337.26
558.48	59407.48
558.65	59281.09
558.81	59206.19
558.98	59414.50
559.14	59503.44
559.31	59515.14
559.47	59355.99
559.64	59456.63
559.80	59554.93
559.97	59484.72
560.13	59458.97
560.30	59465.99
560.46	59597.06
560.63	59576.00
560.79	59791.33
560.96	59861.54
561.12	59690.68
561.29	59777.28
561.45	59662.60
561.61	59545.57
561.78	59627.49
561.94	59700.04
562.11	59760.90
562.27	59718.77
562.44	59901.33
562.60	59856.86
562.77	59915.37
562.93	59697.70
563.10	60065.17
563.26	59812.39
563.42	60095.60
563.59	59849.84
563.75	59910.69
563.92	59814.73
564.08	59856.86
564.24	60090.91
564.41	59976.23
564.57	60069.85
564.74	59941.12
564.90	59903.67
565.07	60004.31
565.23	59868.56
565.39	59983.25
565.56	60097.94
565.72	59863.88
565.88	59955.16
566.05	59772.60
566.21	60013.68
566.38	60062.83
566.54	60074.53
566.70	60196.24
566.87	60130.70
567.03	59859.20
567.19	60273.48
567.36	60247.73
567.52	60217.30
567.68	60212.62
567.85	60147.09
568.01	60339.01
568.17	60062.83
568.34	60257.09
568.50	60069.85
568.66	60243.05
568.83	60278.16
568.99	60102.62
569.15	60280.50
569.32	60233.69
569.48	60350.71
569.64	60446.68
569.81	60296.88
569.97	60013.68
570.13	60458.38
570.30	60067.51
570.46	60411.57
570.62	60294.54
570.78	60519.23
570.95	60247.73
571.11	60371.78
571.27	60329.65
571.43	60327.31
571.60	60427.95
571.76	60378.80
571.92	60374.12
572.09	60430.29
572.25	60465.40
572.41	60334.33
572.57	60456.04
572.74	60385.82
572.90	60584.77
573.06	60556.68
573.22	60315.61
573.38	60563.70
573.55	60636.26
573.71	60633.92
573.87	60465.40
574.03	60378.80
574.20	60552.00
574.36	60245.39
574.52	60645.62
574.68	60603.49
574.84	60430.29
575.01	60711.16
575.17	60626.90
575.33	60584.77
575.49	60519.23
575.65	60495.83
575.82	60762.65
575.98	60678.39
576.14	60793.07
576.30	60659.66
576.46	60411.57
576.62	60552.00
576.79	60734.56
576.95	60540.30
577.11	60860.95
577.27	60753.29
577.43	60580.09
577.59	60657.32
577.75	60725.20
577.92	60802.44
578.08	60514.55
578.24	60498.17
578.40	60954.57
578.56	60853.93
578.72	60577.75
578.88	60954.57
579.04	60874.99
579.21	60786.05
579.37	60860.95
579.53	60931.17
579.69	60456.04
579.85	60671.37
580.01	60725.20
580.17	60409.23
580.33	60694.77
580.49	60856.27
580.65	60790.73
580.82	60701.79
580.98	60645.62
581.14	60601.15
581.30	60781.37
581.46	60540.30
581.62	60800.10
581.78	60402.21
581.94	60666.69
582.10	60711.16
582.26	60619.88
582.42	60673.71
582.58	60664.35
582.74	60650.30
582.90	60853.93
583.06	60748.60
583.22	60839.89
583.38	60594.13
583.54	60856.27
583.70	60910.10
583.86	60809.46
584.02	60575.40
584.18	60921.80
584.34	60870.31
584.50	60732.22
584.66	60669.03
584.82	60493.49
584.98	60903.08
585.14	60968.61
585.30	60921.80
585.46	61006.06
585.62	60652.64
585.78	60949.89
585.94	60654.98
586.10	60928.83
586.26	60706.47
586.42	60896.06
586.58	60954.57
586.74	60917.12
586.90	60851.59
587.06	60748.60
587.22	61183.94
587.38	60830.52
587.54	61043.51
587.70	61258.84
587.86	60886.70
588.02	60942.87
588.18	61057.56
588.34	60870.31
588.49	60884.36
