SpectraSuite Data File
++++++++++++++++++++++++++++++++++++
Date: Fri Oct 25 11:24:02 EDT 2013
User: price-jones
Dark Spectrum Present: No
Reference Spectrum Present: No
Number of Sampled Component Spectra: 1
Spectrometers: USB2+H05261
Integration Time (usec): 100000 (USB2+H05261)
Spectra Averaged: 1 (USB2+H05261)
Boxcar Smoothing: 0 (USB2+H05261)
Correct for Electrical Dark: No (USB2+H05261)
Strobe/Lamp Enabled: No (USB2+H05261)
Correct for Detector Non-linearity: No (USB2+H05261)
Correct for Stray Light: No (USB2+H05261)
Number of Pixels in Processed Spectrum: 2048
>>>>>Begin Processed Spectral Data<<<<<
365.73	276.18
365.92	276.18
366.12	276.18
366.32	140.43
366.52	119.37
366.72	243.42
366.91	140.43
367.11	84.26
367.31	84.26
367.51	140.43
367.70	173.20
367.90	114.69
368.10	175.54
368.30	128.73
368.49	156.82
368.69	224.69
368.89	119.37
369.09	135.75
369.28	170.86
369.48	227.03
369.68	152.13
369.87	182.56
370.07	255.12
370.27	238.73
370.47	339.38
370.66	540.66
370.86	599.18
371.06	592.16
371.25	660.03
371.45	636.63
371.65	657.69
371.84	631.94
372.04	657.69
372.24	723.23
372.44	681.10
372.63	732.59
372.83	746.63
373.03	727.91
373.22	720.88
373.42	786.42
373.62	798.12
373.81	755.99
374.01	788.76
374.21	781.74
374.40	798.12
374.60	823.87
374.79	802.80
374.99	800.46
375.19	718.54
375.38	858.98
375.58	800.46
375.78	884.72
375.97	807.48
376.17	840.25
376.37	837.91
376.56	849.61
376.76	896.43
376.95	882.38
377.15	915.15
377.35	896.43
377.54	812.17
377.74	882.38
377.93	894.08
378.13	849.61
378.33	882.38
378.52	940.90
378.72	983.02
378.91	1034.52
379.11	1057.92
379.31	936.21
379.50	877.70
379.70	940.90
379.89	959.62
380.09	947.92
380.28	943.24
380.48	957.28
380.68	1001.75
380.87	950.26
381.07	1076.65
381.26	1004.09
381.46	976.00
381.65	1020.47
381.85	1149.20
382.04	973.66
382.24	1039.20
382.43	1043.88
382.63	1064.94
382.83	1055.58
383.02	1090.69
383.22	1132.82
383.41	1151.54
383.61	1022.81
383.80	1219.42
384.00	1184.31
384.19	1114.10
384.39	1132.82
384.58	1130.48
384.78	1158.57
384.97	1158.57
385.17	1235.80
385.36	1188.99
385.56	1144.52
385.75	1158.57
385.95	1139.84
386.14	1284.95
386.34	1177.29
386.53	1203.04
386.72	1263.89
386.92	1247.51
387.11	1289.64
387.31	1191.33
387.50	1261.55
387.70	1217.08
387.89	1254.53
388.09	1275.59
388.28	1287.29
388.48	1331.76
388.67	1273.25
388.86	1334.11
389.06	1352.83
389.25	1296.66
389.45	1317.72
389.64	1313.04
389.84	1261.55
390.03	1327.08
390.22	1401.98
390.42	1462.83
390.61	1366.87
390.81	1359.85
391.00	1446.45
391.19	1411.34
391.39	1401.98
391.58	1411.34
391.78	1373.89
391.97	1418.36
392.16	1397.30
392.36	1490.92
392.55	1427.73
392.75	1451.13
392.94	1479.22
393.13	1526.03
393.33	1535.39
393.52	1563.48
393.71	1619.65
393.91	1521.35
394.10	1462.83
394.29	1575.18
394.49	1619.65
394.68	1624.33
394.88	1575.18
395.07	1706.25
395.26	1774.13
395.46	1748.38
395.65	1703.91
395.84	1720.29
396.04	1809.23
396.23	1774.13
396.42	1675.82
396.62	1750.72
396.81	1781.15
397.00	1849.02
397.19	1844.34
397.39	1767.10
397.58	1762.42
397.77	1846.68
397.97	1933.28
398.16	1881.79
398.35	1834.98
398.55	1891.15
398.74	1928.60
398.93	1881.79
399.12	1926.26
399.32	1942.64
399.51	1975.41
399.70	1982.43
399.90	1912.22
400.09	2031.58
400.28	2106.48
400.47	2012.86
400.67	2097.12
400.86	2111.16
401.05	2087.76
401.24	2235.21
401.44	2134.57
401.63	2143.93
401.82	2174.36
402.01	2148.61
402.21	2228.19
402.40	2101.80
402.59	2193.08
402.78	2193.08
402.97	2263.30
403.17	2300.75
403.36	2272.66
403.55	2328.83
403.74	2284.36
403.93	2410.75
404.13	2385.01
404.32	2300.75
404.51	2368.62
404.70	2492.67
404.89	2462.24
405.09	2457.56
405.28	2413.09
405.47	2511.39
405.66	2616.72
405.85	2567.57
406.05	2574.59
406.24	2462.24
406.43	2558.21
406.62	2691.62
406.81	2736.09
407.00	2649.49
407.20	2712.68
407.39	2736.09
407.58	2724.38
407.77	2703.32
407.96	2700.98
408.15	2855.45
408.34	2740.77
408.54	2682.25
408.73	2757.15
408.92	2967.80
409.11	2869.50
409.30	2771.19
409.49	2864.82
409.68	2951.42
409.87	3042.70
410.07	3026.31
410.26	2897.58
410.45	3005.25
410.64	3110.57
410.83	3141.00
411.02	3103.55
411.21	3183.13
411.40	3215.90
411.59	3166.74
411.78	3232.28
411.98	3255.69
412.17	3272.07
412.36	3407.82
412.55	3396.12
412.74	3562.30
412.93	3480.38
413.12	3335.26
413.31	3485.06
413.50	3431.23
413.69	3522.51
413.88	3588.04
414.07	3574.00
414.26	3688.68
414.45	3747.20
414.64	3700.39
414.83	3700.39
415.02	3805.71
415.22	3758.90
415.41	3845.50
415.60	3803.37
415.79	3894.65
415.98	3936.78
416.17	3868.91
416.36	4102.96
416.55	4053.81
416.74	4175.52
416.93	3953.16
417.12	4266.80
417.31	4086.58
417.50	4184.88
417.69	4290.20
417.88	4348.72
418.07	4299.56
418.26	4386.16
418.45	4456.38
418.64	4461.06
418.83	4477.44
419.02	4447.02
419.21	4517.23
419.39	4470.42
419.58	4650.64
419.77	4475.10
419.96	4615.54
420.15	4594.47
420.34	4552.34
420.53	4596.81
420.72	4652.98
420.91	4720.86
421.10	4835.55
421.29	4748.95
421.48	4767.67
421.67	4847.25
421.86	4737.24
422.05	4837.89
422.24	4681.07
422.43	4816.82
422.61	4945.55
422.80	5076.62
422.99	4844.91
423.18	4926.83
423.37	5104.71
423.56	4952.57
423.75	4990.02
423.94	4842.57
424.13	4564.04
424.32	4655.33
424.50	4905.76
424.69	5170.24
424.88	5062.58
425.07	5160.88
425.26	4842.57
425.45	4954.91
425.64	5078.96
425.83	4954.91
426.01	5071.94
426.20	5139.82
426.39	5146.84
426.58	4983.00
426.77	5109.39
426.96	5076.62
427.15	5118.75
427.33	5331.74
427.52	5149.18
427.71	5411.32
427.90	5404.30
428.09	5324.72
428.28	5303.65
428.46	5313.02
428.65	5313.02
428.84	5432.38
429.03	5521.32
429.22	5296.63
429.40	5329.40
429.59	5593.88
429.78	5263.86
429.97	5301.31
430.16	5507.28
430.34	5776.44
430.53	5554.09
430.72	5579.84
430.91	5479.19
431.10	5645.37
431.28	5671.12
431.47	5788.14
431.66	5954.32
431.85	5891.13
432.03	5940.28
432.22	5877.09
432.41	5792.83
432.60	5809.21
432.79	5963.68
432.97	6094.76
433.16	6085.39
433.35	6073.69
433.54	6090.07
433.72	6249.23
433.91	6181.35
434.10	6083.05
434.28	6141.57
434.47	6176.67
434.66	6340.51
434.85	6312.42
435.03	6366.26
435.22	6483.28
435.41	6387.32
435.59	6370.94
435.78	6347.53
435.97	6590.95
436.16	6518.39
436.34	6485.62
436.53	6560.52
436.72	6544.14
436.90	6384.98
437.09	6733.72
437.28	6471.58
437.46	6511.37
437.65	6799.26
437.84	6799.26
438.02	6780.53
438.21	6759.47
438.40	6672.87
438.58	7016.93
438.77	6981.82
438.96	6965.43
439.14	7201.83
439.33	7080.12
439.52	7267.36
439.70	7052.03
439.89	7424.18
440.08	7468.65
440.26	7492.05
440.45	7466.31
440.63	7555.25
440.82	7644.19
441.01	7620.78
441.19	7693.34
441.38	7887.61
441.57	7845.48
441.75	7868.88
441.94	7927.39
442.12	7967.18
442.31	8107.62
442.50	8004.63
442.68	7859.52
442.87	8156.77
443.05	8273.79
443.24	8201.24
443.43	8189.53
443.61	8248.05
443.80	8610.83
443.98	8231.66
444.17	7864.20
444.35	8456.36
444.54	8362.73
444.73	8329.97
444.91	8358.05
445.10	8203.58
445.28	8402.52
445.47	8170.81
445.65	8329.97
445.84	8552.32
446.02	8367.42
446.21	8613.17
446.39	8582.74
446.58	8524.23
446.77	8477.42
446.95	8336.99
447.14	8358.05
447.32	8374.44
447.51	8444.65
447.69	8461.04
447.88	8449.33
448.06	8428.27
448.25	8624.87
448.43	8692.75
448.62	8521.89
448.80	8311.24
448.99	8727.86
449.17	8762.97
449.36	8744.24
449.54	8933.82
449.73	9088.30
449.91	9081.28
450.10	8891.70
450.28	9212.35
450.46	9193.62
450.65	8765.31
450.83	9181.92
451.02	9039.15
451.20	9235.75
451.39	9268.52
451.57	9121.07
451.76	9191.28
451.94	9130.43
452.13	9467.47
452.31	9338.74
452.49	9231.07
452.68	9411.29
452.86	9502.58
453.05	9404.27
453.23	9439.38
453.42	9408.95
453.60	9352.78
453.78	9535.34
453.97	9507.26
454.15	9575.13
454.34	9635.99
454.52	9769.40
454.70	9650.03
454.89	9926.21
455.07	9764.72
455.26	9816.21
455.44	10019.83
455.62	9895.78
455.81	10003.45
455.99	10171.97
456.17	10040.90
456.36	10120.48
456.54	10333.47
456.73	10298.36
456.91	10583.90
457.09	10469.22
457.28	10511.35
457.46	10473.90
457.64	10525.39
457.83	10537.09
458.01	10401.34
458.19	10902.22
458.38	10565.18
458.56	10787.53
458.74	10516.03
458.93	10640.08
459.11	10796.89
459.29	10869.45
459.48	10839.02
459.66	10902.22
459.84	10782.85
460.03	11037.97
460.21	11176.06
460.39	11016.90
460.57	11115.20
460.76	11140.95
460.94	11323.51
461.12	11115.20
461.31	11103.50
461.49	11042.65
461.67	11267.34
461.85	11454.58
462.04	11297.77
462.22	11726.08
462.40	11726.08
462.59	11777.58
462.77	11473.31
462.95	11700.34
463.13	11786.94
463.32	11815.02
463.50	11775.24
463.68	11798.64
463.86	12013.97
464.05	11503.73
464.23	11583.31
464.41	11761.19
464.59	11927.37
464.78	12238.66
464.96	12063.12
465.14	12002.27
465.32	11847.79
465.50	12264.41
465.69	12423.56
465.87	12365.05
466.05	12285.47
466.23	12250.36
466.41	12294.83
466.60	12514.84
466.78	12203.55
466.96	12290.15
467.14	12215.26
467.32	12449.31
467.51	12578.04
467.69	12198.87
467.87	12524.21
468.05	12648.26
468.23	12500.80
468.41	12578.04
468.60	12566.34
468.78	12854.22
468.96	12734.85
469.14	12793.37
469.32	13053.17
469.50	12741.88
469.69	13130.41
469.87	13114.02
470.05	13369.14
470.23	13254.45
470.41	13022.74
470.59	13488.51
470.77	13362.12
470.95	13256.79
471.14	13699.16
471.32	13238.07
471.50	13437.02
471.68	13652.34
471.86	13909.80
472.04	13844.27
472.22	14207.05
472.40	13954.27
472.58	13769.37
472.77	13954.27
472.95	14384.93
473.13	14209.39
473.31	13958.96
473.49	14045.55
473.67	14274.93
473.85	14487.92
474.03	14771.12
474.21	14789.85
474.39	14759.42
474.57	15059.01
474.75	14698.56
474.93	15349.23
475.12	14904.53
475.30	14984.11
475.48	15157.31
475.66	14984.11
475.84	15183.06
476.02	15489.67
476.20	15449.88
476.38	15508.39
476.56	16030.33
476.74	16074.80
476.92	15948.41
477.10	15889.90
477.28	16095.86
477.46	16444.60
477.64	16676.32
477.82	16650.57
478.00	17039.10
478.18	16802.71
478.36	17097.61
478.54	17001.65
478.72	16975.91
478.90	17317.62
479.08	17614.87
479.26	17448.69
479.44	17682.75
479.62	17816.16
479.80	17944.89
479.98	18408.31
480.16	18719.60
480.34	18408.31
480.52	18803.86
480.70	18618.96
480.88	18553.43
481.06	18724.29
481.24	18728.97
481.41	19110.47
481.59	19688.59
481.77	19592.62
481.95	19777.53
482.13	20060.73
482.31	19674.54
482.49	20348.62
482.67	20493.73
482.85	20908.01
483.03	20524.16
483.21	20877.58
483.39	20856.51
483.57	20915.03
483.74	21132.70
483.92	21486.12
484.10	21333.98
484.28	21633.57
484.46	22061.89
484.64	22293.60
484.82	22267.86
485.00	22658.73
485.18	22782.77
485.35	22951.29
485.53	22834.27
485.71	23178.33
485.89	23648.77
486.07	23592.60
486.25	23672.18
486.43	23800.91
486.61	23896.87
486.78	24250.29
486.96	23791.55
487.14	24503.07
487.32	24814.36
487.50	25139.69
487.68	25212.25
487.85	25366.73
488.03	25692.06
488.21	26267.83
488.39	26064.21
488.57	25895.69
488.75	26291.24
488.92	26384.86
489.10	26824.88
489.28	26899.78
489.46	27143.19
489.64	27159.58
489.81	27960.04
489.99	27793.86
490.17	27803.22
490.35	28285.37
490.53	28133.24
490.70	28711.35
490.88	28535.81
491.06	29099.88
491.24	28870.51
491.41	29230.95
491.59	29551.60
491.77	29317.55
491.95	29860.55
492.13	30099.29
492.30	30251.42
492.48	30174.19
492.66	30281.85
492.84	30590.80
493.01	30663.36
493.19	30852.94
493.37	31094.02
493.54	31419.35
493.72	31519.99
493.90	31461.48
494.08	31866.39
494.25	31997.46
494.43	31824.26
494.61	32547.49
494.79	32521.74
494.96	32783.88
495.14	32945.38
495.32	33146.67
495.49	33333.91
495.67	33277.74
495.85	33668.61
496.02	33961.17
496.20	34110.97
496.38	34494.82
496.55	34057.14
496.73	35086.97
496.91	34380.13
497.09	34761.64
497.26	35379.54
497.44	35126.76
497.62	35285.92
497.79	36285.33
497.97	35739.98
498.14	36133.19
498.32	36477.25
498.50	36294.69
498.67	36987.49
498.85	36943.02
499.03	36882.16
499.20	36966.42
499.38	36842.37
499.56	37390.06
499.73	37673.26
499.91	37373.67
500.08	37823.06
500.26	37605.39
500.44	37736.46
500.61	37993.92
500.79	38153.07
500.97	38457.34
501.14	38904.38
501.32	38574.37
501.49	38675.01
501.67	39063.54
501.84	39086.95
502.02	39082.27
502.20	39311.64
502.37	39641.65
502.55	39435.69
502.72	39992.73
502.90	39737.62
503.07	39739.96
503.25	40245.51
503.43	39936.56
503.60	40240.83
503.78	40437.44
503.95	40514.67
504.13	40381.26
504.30	41085.76
504.48	40449.14
504.65	40758.09
504.83	41237.90
505.01	41839.42
505.18	40842.35
505.36	41734.09
505.53	41191.09
505.71	41603.02
505.88	41539.83
506.06	41724.73
506.23	41979.85
506.41	42181.13
506.58	42110.92
506.76	42665.63
506.93	42333.27
507.11	42845.85
507.28	42904.36
507.46	42817.76
507.63	43201.61
507.81	43255.44
507.98	43143.09
508.16	43463.75
508.33	43557.37
508.50	43494.18
508.68	43887.39
508.85	43756.32
509.03	43896.75
509.20	44357.83
509.38	44547.42
509.55	44762.75
509.73	44500.61
509.90	44414.01
510.08	44603.59
510.25	44648.06
510.42	44842.32
510.60	45172.34
510.77	45614.70
510.95	45752.79
511.12	45177.02
511.30	45148.93
511.47	45649.81
511.64	45347.88
511.82	46401.12
511.99	45904.93
512.17	46134.30
512.34	45757.47
512.51	46337.93
512.69	46841.14
512.86	46658.58
513.04	46803.69
513.21	47210.95
513.38	46745.18
513.56	47239.03
513.73	47126.69
513.90	46960.51
514.08	46916.04
514.25	47728.20
514.43	47714.16
514.60	47686.07
514.77	47461.38
514.95	47988.00
515.12	47784.38
515.29	47655.65
515.47	48273.55
515.64	48540.37
515.81	48046.52
515.99	48641.01
516.16	48432.71
516.33	49097.42
516.51	49020.18
516.68	48531.01
516.85	48832.94
517.03	49006.14
517.20	49052.95
517.37	49001.46
517.54	49090.40
517.72	49120.82
517.89	48938.26
518.06	49483.61
518.24	49226.15
518.41	49125.50
518.58	49668.51
518.75	49446.16
518.93	49818.30
519.10	49556.16
519.27	50042.99
519.45	50260.66
519.62	50066.40
519.79	50225.56
519.96	50258.32
520.14	50281.73
520.31	50263.00
520.48	50284.07
520.65	50424.50
520.83	50838.78
521.00	50904.31
521.17	50756.86
521.34	50908.99
521.52	50997.93
521.69	50794.31
521.86	51456.68
522.03	51341.99
522.20	51838.18
522.38	51344.33
522.55	51550.30
522.72	51332.63
522.89	51508.17
523.07	51779.67
523.24	51763.29
523.41	51746.90
523.58	51517.53
523.75	52069.90
523.92	51966.91
524.10	52121.39
524.27	52264.16
524.44	52315.65
524.61	52278.21
524.78	51990.32
524.96	52523.96
525.13	52587.16
525.30	52708.86
525.47	52547.37
525.64	52966.32
525.81	52762.70
525.98	52846.96
526.16	52828.23
526.33	52739.29
526.50	53125.48
526.67	52856.32
526.84	53162.93
527.01	53095.05
527.18	53008.45
527.36	53301.02
527.53	53446.13
527.70	53710.61
527.87	53474.22
528.04	53422.73
528.21	53598.27
528.38	53429.75
528.55	53551.46
528.72	53729.34
528.89	53673.16
529.07	53645.08
529.24	53256.55
529.41	53811.26
529.58	53792.53
529.75	53581.88
529.92	54160.00
530.09	53965.73
530.26	53837.00
530.43	54082.76
530.60	53888.49
530.77	54101.48
530.94	54234.89
531.11	54340.22
531.28	54532.14
531.46	54019.56
531.63	54260.64
531.80	54593.00
531.97	54742.79
532.14	54724.07
532.31	54490.01
532.48	54698.32
532.65	54794.28
532.82	54691.30
532.99	54658.53
533.16	55100.89
533.33	54939.39
533.50	55164.09
533.67	54951.10
533.84	54887.90
534.01	55173.45
534.18	54981.52
534.35	55447.29
534.52	55187.49
534.69	55384.10
534.86	55519.85
535.03	55119.62
535.20	55327.92
535.37	55533.89
535.54	55421.55
535.71	55290.48
535.88	55491.76
536.05	55557.30
536.22	55861.57
536.38	55564.32
536.55	55793.69
536.72	55686.03
536.89	55772.63
537.06	55758.58
537.23	55884.97
537.40	55810.07
537.57	55854.54
537.74	56135.41
537.91	56266.48
538.08	56025.40
538.25	55889.65
538.42	56002.00
538.59	56289.88
538.75	56112.00
538.92	56343.72
539.09	56336.69
539.26	56193.92
539.43	56245.41
539.60	56133.07
539.77	56378.82
539.94	56594.15
540.11	56280.52
540.28	56392.87
540.44	56701.82
540.61	56896.08
540.78	56575.43
540.95	56488.83
541.12	56683.09
541.29	56526.28
541.46	56704.16
541.62	56863.32
541.79	56629.26
541.96	56500.53
542.13	56463.08
542.30	56868.00
542.47	57001.41
542.63	57071.62
542.80	57003.75
542.97	57137.16
543.14	57230.78
543.31	57338.44
543.48	57359.51
543.64	57813.57
543.81	57492.92
543.98	57375.89
544.15	57411.00
544.32	57368.87
544.48	57759.74
544.65	57528.03
544.82	57638.03
544.99	57420.36
545.16	57584.20
545.32	57485.90
545.49	57687.18
545.66	57844.00
545.83	57628.67
546.00	57895.49
546.16	57799.53
546.33	57726.97
546.50	57703.57
546.67	57652.08
546.83	57670.80
547.00	58024.22
547.17	57925.92
547.34	57925.92
547.50	58199.76
547.67	58096.78
547.84	58019.54
548.00	58066.35
548.17	58429.13
548.34	58204.44
548.51	58410.41
548.67	58482.97
548.84	58164.65
549.01	58108.48
549.18	58447.86
549.34	58342.53
549.51	58436.16
549.68	58344.87
549.84	58621.06
550.01	58391.68
550.18	58379.98
550.34	58546.16
550.51	58553.18
550.68	58679.57
550.84	58567.23
551.01	58564.88
551.18	58550.84
551.34	58848.09
551.51	58906.60
551.68	58712.34
551.84	58637.44
552.01	58728.72
552.18	58719.36
552.34	58639.78
552.51	58885.54
552.68	58569.57
552.84	58651.48
553.01	59004.91
553.18	59056.40
553.34	59168.74
553.51	59028.31
553.67	58738.08
553.84	58812.98
554.01	59058.74
554.17	59082.14
554.34	59070.44
554.51	58981.50
554.67	59037.67
554.84	59178.10
555.00	59065.76
555.17	59227.26
555.33	59243.64
555.50	59152.36
555.67	58944.05
555.83	59264.70
556.00	59203.85
556.16	59510.46
556.33	59253.00
556.50	59416.84
556.66	59578.34
556.83	59222.58
556.99	59358.33
557.16	59510.46
557.32	59529.19
557.49	59903.67
557.65	59613.44
557.82	59379.39
557.98	59465.99
558.15	59458.97
558.32	59580.68
558.48	59648.55
558.65	59601.74
558.81	59681.32
558.98	59629.83
559.14	59737.49
559.31	59709.41
559.47	59845.16
559.64	59861.54
559.80	59997.29
559.97	59973.89
560.13	59852.18
560.30	59814.73
560.46	59667.28
560.63	59842.82
560.79	59880.27
560.96	60011.34
561.12	60065.17
561.29	60065.17
561.45	59948.14
561.61	59964.52
561.78	60097.94
561.94	59863.88
562.11	59835.80
562.27	60147.09
562.44	60151.77
562.60	60074.53
562.77	60067.51
562.93	59999.63
563.10	60238.37
563.26	60039.42
563.42	60353.05
563.59	60154.11
563.75	60313.26
563.92	60137.72
564.08	60205.60
564.24	60317.95
564.41	60388.16
564.57	60317.95
564.74	60088.57
564.90	60329.65
565.07	60282.84
565.23	60381.14
565.39	60409.23
565.56	60196.24
565.72	60278.16
565.88	60317.95
566.05	60289.86
566.21	60245.39
566.38	60573.06
566.54	60500.51
566.70	60322.63
566.87	60544.98
567.03	60348.37
567.19	60481.78
567.36	60500.51
567.52	60364.76
567.68	60720.52
567.85	60374.12
568.01	60481.78
568.17	60327.31
568.34	60566.04
568.50	60423.27
568.66	60367.10
568.83	60465.40
568.99	60350.71
569.15	60591.79
569.32	60509.87
569.48	60409.23
569.64	60582.43
569.81	60544.98
569.97	60303.90
570.13	60498.17
570.30	60381.14
570.46	60507.53
570.62	60584.77
570.78	60741.58
570.95	60563.70
571.11	60659.66
571.27	60654.98
571.43	60697.11
571.60	60685.41
571.76	60650.30
571.92	60666.69
572.09	60767.33
572.25	60598.81
572.41	60561.36
572.57	60753.29
572.74	60884.36
572.90	60685.41
573.06	60849.25
573.22	60877.33
573.38	60729.88
573.55	60999.04
573.71	61010.74
573.87	60727.54
574.03	60603.49
574.20	60823.50
574.36	60573.06
574.52	60860.95
574.68	60994.36
574.84	60987.34
575.01	60832.86
575.17	60687.75
575.33	61010.74
575.49	60912.44
575.65	60797.76
575.82	61104.37
575.98	60727.54
576.14	61289.27
576.30	60924.14
576.46	60594.13
576.62	60839.89
576.79	60851.59
576.95	60764.99
577.11	61109.05
577.27	60753.29
577.43	61062.24
577.59	60867.97
577.75	60851.59
577.92	60940.53
578.08	60977.98
578.24	60931.17
578.40	61099.68
578.56	61134.79
578.72	61045.85
578.88	61179.26
579.04	60952.23
579.21	61109.05
579.37	61130.11
579.53	61172.24
579.69	60867.97
579.85	60938.19
580.01	60994.36
580.17	61038.83
580.33	60982.66
580.49	61085.64
580.65	60898.40
580.82	60898.40
580.98	61017.77
581.14	60931.17
581.30	61268.20
581.46	60772.01
581.62	60933.51
581.78	60882.02
581.94	61186.28
582.10	61062.24
582.26	61048.19
582.42	60966.27
582.58	60816.48
582.74	61127.77
582.90	60994.36
583.06	60884.36
583.22	60907.76
583.38	61219.05
583.54	61099.68
583.70	61038.83
583.86	61146.50
584.02	61038.83
584.18	61179.26
584.34	60999.04
584.50	60809.46
584.66	61104.37
584.82	61085.64
584.98	61315.01
585.14	61034.15
585.30	61069.26
585.46	61134.79
585.62	61024.79
585.78	61095.00
585.94	61024.79
586.10	61111.39
586.26	61221.39
586.42	61174.58
586.58	61205.01
586.74	61090.32
586.90	61205.01
587.06	61013.08
587.22	61165.22
587.38	61064.58
587.54	61324.38
587.70	61300.97
587.86	61216.71
588.02	61216.71
588.18	61151.18
588.34	61315.01
588.49	61095.00
