SpectraSuite Data File
++++++++++++++++++++++++++++++++++++
Date: Fri Oct 25 11:34:25 EDT 2013
User: price-jones
Dark Spectrum Present: No
Reference Spectrum Present: No
Number of Sampled Component Spectra: 1
Spectrometers: USB2+H05261
Integration Time (usec): 100000 (USB2+H05261)
Spectra Averaged: 1 (USB2+H05261)
Boxcar Smoothing: 0 (USB2+H05261)
Correct for Electrical Dark: No (USB2+H05261)
Strobe/Lamp Enabled: No (USB2+H05261)
Correct for Detector Non-linearity: No (USB2+H05261)
Correct for Stray Light: No (USB2+H05261)
Number of Pixels in Processed Spectrum: 2048
>>>>>Begin Processed Spectral Data<<<<<
365.73	276.18
365.92	276.18
366.12	276.18
366.32	173.20
366.52	255.12
366.72	175.54
366.91	142.77
367.11	145.11
367.31	159.16
367.51	107.66
367.70	182.56
367.90	138.09
368.10	212.99
368.30	119.37
368.49	191.92
368.69	117.03
368.89	149.79
369.09	184.90
369.28	196.60
369.48	208.31
369.68	196.60
369.87	227.03
370.07	229.37
370.27	327.68
370.47	301.93
370.66	428.32
370.86	503.22
371.06	599.18
371.25	561.73
371.45	477.47
371.65	475.13
371.84	521.94
372.04	622.58
372.24	505.56
372.44	629.60
372.63	622.58
372.83	573.43
373.03	643.65
373.22	519.60
373.42	685.78
373.62	568.75
373.81	655.35
374.01	674.07
374.21	653.01
374.40	669.39
374.60	681.10
374.79	624.92
374.99	601.52
375.19	622.58
375.38	681.10
375.58	596.84
375.78	674.07
375.97	648.33
376.17	697.48
376.37	596.84
376.56	638.97
376.76	702.16
376.95	615.56
377.15	697.48
377.35	657.69
377.54	697.48
377.74	638.97
377.93	603.86
378.13	690.46
378.33	624.92
378.52	730.25
378.72	695.14
378.91	727.91
379.11	699.82
379.31	706.84
379.50	732.59
379.70	709.18
379.89	753.65
380.09	685.78
380.28	650.67
380.48	709.18
380.68	732.59
380.87	695.14
381.07	734.93
381.26	805.14
381.46	751.31
381.65	702.16
381.85	760.67
382.04	751.31
382.24	774.72
382.43	800.46
382.63	795.78
382.83	805.14
383.02	802.80
383.22	875.36
383.41	748.97
383.61	755.99
383.80	779.40
384.00	821.53
384.19	821.53
384.39	809.83
384.58	791.10
384.78	770.04
384.97	791.10
385.17	763.01
385.36	772.38
385.56	823.87
385.75	842.59
385.95	795.78
386.14	807.48
386.34	866.00
386.53	870.68
386.72	816.85
386.92	908.13
387.11	840.25
387.31	863.66
387.50	849.61
387.70	889.40
387.89	861.32
388.09	870.68
388.28	880.04
388.48	861.32
388.67	905.79
388.86	828.55
389.06	894.08
389.25	987.71
389.45	901.11
389.64	1004.09
389.84	938.55
390.03	936.21
390.22	950.26
390.42	919.83
390.61	884.72
390.81	931.53
391.00	961.96
391.19	1076.65
391.39	950.26
391.58	1018.13
391.78	938.55
391.97	1055.58
392.16	976.00
392.36	1025.15
392.55	1104.73
392.75	1018.13
392.94	1004.09
393.13	1095.37
393.33	1001.75
393.52	1048.56
393.71	1046.22
393.91	990.05
394.10	1006.43
394.29	1064.94
394.49	1116.44
394.68	1123.46
394.88	1107.07
395.07	1048.56
395.26	1170.27
395.46	1107.07
395.65	1116.44
395.84	1188.99
396.04	1238.14
396.23	1245.16
396.42	1200.69
396.62	1252.19
396.81	1261.55
397.00	1235.80
397.19	1233.46
397.39	1086.01
397.58	1284.95
397.77	1146.86
397.97	1224.10
398.16	1207.72
398.35	1172.61
398.55	1205.38
398.74	1252.19
398.93	1329.42
399.12	1322.40
399.32	1205.38
399.51	1284.95
399.70	1315.38
399.90	1261.55
400.09	1366.87
400.28	1324.74
400.47	1317.72
400.67	1439.43
400.86	1336.45
401.05	1380.92
401.24	1439.43
401.44	1383.26
401.63	1359.85
401.82	1409.00
402.01	1334.11
402.21	1371.55
402.40	1362.19
402.59	1467.52
402.78	1413.68
402.97	1322.40
403.17	1483.90
403.36	1460.49
403.55	1460.49
403.74	1509.65
403.93	1535.39
404.13	1570.50
404.32	1565.82
404.51	1575.18
404.70	1633.69
404.89	1624.33
405.09	1624.33
405.28	1624.33
405.47	1643.06
405.66	1661.78
405.85	1638.38
406.05	1650.08
406.24	1673.48
406.43	1710.93
406.62	1799.87
406.81	1666.46
407.00	1778.81
407.20	1689.87
407.39	1668.80
407.58	1760.08
407.77	1851.36
407.96	1916.90
408.15	1909.88
408.34	1769.44
408.54	1743.70
408.73	1919.24
408.92	1776.47
409.11	1858.39
409.30	1888.81
409.49	1853.70
409.68	1879.45
409.87	1919.24
410.07	1942.64
410.26	1863.07
410.45	1947.33
410.64	2012.86
410.83	2036.27
411.02	2066.69
411.21	2024.56
411.40	2136.91
411.59	2225.85
411.78	2146.27
411.98	1975.41
412.17	2047.97
412.36	2127.55
412.55	2286.70
412.74	2214.15
412.93	2289.04
413.12	2033.93
413.31	2338.20
413.50	2399.05
413.69	2324.15
413.88	2340.54
414.07	2375.64
414.26	2455.22
414.45	2310.11
414.64	2523.10
414.83	2502.03
415.02	2495.01
415.22	2532.46
415.41	2476.29
415.60	2586.29
415.79	2675.23
415.98	2682.25
416.17	2562.89
416.36	2661.19
416.55	2693.96
416.74	2738.43
416.93	2686.94
417.12	2780.56
417.31	2810.98
417.50	2782.90
417.69	2815.66
417.88	2841.41
418.07	2759.49
418.26	2822.69
418.45	2846.09
418.64	2981.84
418.83	2958.44
419.02	2876.52
419.21	2890.56
419.39	2995.89
419.58	3002.91
419.77	3059.08
419.96	3152.70
420.15	2958.44
420.34	3108.23
420.53	2930.35
420.72	3045.04
420.91	3178.45
421.10	3035.67
421.29	3258.03
421.48	3133.98
421.67	3260.37
421.86	3089.51
422.05	3246.32
422.24	3276.75
422.43	3141.00
422.61	3304.84
422.80	3328.24
422.99	3267.39
423.18	3279.09
423.37	3351.65
423.56	3403.14
423.75	3295.47
423.94	3194.83
424.13	3122.27
424.32	3220.58
424.50	3272.07
424.69	3323.56
424.88	3302.50
425.07	3208.87
425.26	3351.65
425.45	3215.90
425.64	3222.92
425.83	3346.97
426.01	3440.59
426.20	3480.38
426.39	3438.25
426.58	3220.58
426.77	3426.54
426.96	3342.28
427.15	3559.95
427.33	3487.40
427.52	3421.86
427.71	3463.99
427.90	3480.38
428.09	3508.46
428.28	3489.74
428.46	3599.74
428.65	3698.05
428.84	3662.94
429.03	3658.26
429.22	3438.25
429.40	3588.04
429.59	3646.55
429.78	3552.93
429.97	3410.16
430.16	3676.98
430.34	3651.24
430.53	3709.75
430.72	3653.58
430.91	3712.09
431.10	3637.19
431.28	3784.65
431.47	3812.73
431.66	3805.71
431.85	3831.46
432.03	3904.01
432.22	3955.51
432.41	3871.25
432.60	3847.84
432.79	3967.21
432.97	3925.08
433.16	3885.29
433.35	4014.02
433.54	4037.42
433.72	4037.42
433.91	3967.21
434.10	4152.11
434.28	4030.40
434.47	4035.08
434.66	4102.96
434.85	4032.74
435.03	4198.92
435.22	4065.51
435.41	4259.78
435.59	4208.28
435.78	4278.50
435.97	4205.94
436.16	4322.97
436.34	4304.25
436.53	4250.41
436.72	4425.95
436.90	4222.33
437.09	4437.66
437.28	4311.27
437.46	4442.34
437.65	4367.44
437.84	4444.68
438.02	4367.44
438.21	4465.74
438.40	4390.84
438.58	4550.00
438.77	4645.96
438.96	4552.34
439.14	4540.64
439.33	4643.62
439.52	4793.42
439.70	4648.30
439.89	4662.35
440.08	4753.63
440.26	4823.84
440.45	4863.63
440.63	4837.89
440.82	5020.45
441.01	4933.85
441.19	5055.56
441.38	5156.20
441.57	5036.83
441.75	5032.15
441.94	5289.61
442.12	5034.49
442.31	5249.82
442.50	5401.96
442.68	5280.25
442.87	5303.65
443.05	5392.59
443.24	5324.72
443.43	5284.93
443.61	5385.57
443.80	5572.82
443.98	5369.19
444.17	5055.56
444.35	5366.85
444.54	5451.11
444.73	5380.89
444.91	5329.40
445.10	5528.35
445.28	5434.72
445.47	5533.03
445.65	5479.19
445.84	5408.98
446.02	5455.79
446.21	5554.09
446.39	5600.90
446.58	5542.39
446.77	5518.98
446.95	5383.23
447.14	5490.90
447.32	5589.20
447.51	5406.64
447.69	5535.37
447.88	5612.60
448.06	5603.24
448.25	5551.75
448.43	5624.31
448.62	5710.91
448.80	5507.28
448.99	5596.22
449.17	5851.34
449.36	5554.09
449.54	5579.84
449.73	5762.40
449.91	5753.04
450.10	5816.23
450.28	5909.85
450.46	6059.65
450.65	5987.09
450.83	5874.74
451.02	5750.70
451.20	6092.41
451.39	6193.06
451.57	6036.24
451.76	5973.05
451.94	5846.66
452.13	6125.18
452.31	6127.52
452.49	5973.05
452.68	5959.00
452.86	6155.61
453.05	6333.49
453.23	6134.54
453.42	6050.28
453.60	5888.79
453.78	6197.74
453.97	6186.04
454.15	5989.43
454.34	5912.19
454.52	6118.16
454.70	6345.19
454.89	6359.24
455.07	6441.15
455.26	6244.55
455.44	6466.90
455.62	6459.88
455.81	6473.92
455.99	6455.20
456.17	6415.41
456.36	6450.52
456.54	6544.14
456.73	6726.70
456.91	6647.12
457.09	6752.45
457.28	6785.21
457.46	6757.13
457.64	6878.83
457.83	6761.81
458.01	6820.32
458.19	7131.61
458.38	6759.47
458.56	7103.53
458.74	6853.09
458.93	6892.88
459.11	6951.39
459.29	6937.35
459.48	6965.43
459.66	7129.27
459.84	7115.23
460.03	7105.87
460.21	7119.91
460.39	7007.56
460.57	7087.14
460.76	7145.66
460.94	7040.33
461.12	7250.98
461.31	7105.87
461.49	7152.68
461.67	7152.68
461.85	7499.08
462.04	7300.13
462.22	7894.63
462.40	7527.16
462.59	7470.99
462.77	7412.48
462.95	7492.05
463.13	7529.50
463.32	7648.87
463.50	7536.52
463.68	7637.17
463.86	7819.73
464.05	7571.63
464.23	7676.96
464.41	7496.74
464.59	7286.09
464.78	7744.83
464.96	7712.07
465.14	7618.44
465.32	7815.05
465.50	7747.17
465.69	7791.64
465.87	7887.61
466.05	7693.34
466.23	7744.83
466.41	7674.62
466.60	7964.84
466.78	7948.46
466.96	8044.42
467.14	7908.67
467.32	7990.59
467.51	8121.66
467.69	7985.91
467.87	7976.55
468.05	8070.17
468.23	7997.61
468.41	8065.49
468.60	8053.78
468.78	8215.28
468.96	7988.25
469.14	8255.07
469.32	8386.14
469.50	8025.70
469.69	8376.78
469.87	8458.70
470.05	8376.78
470.23	8423.59
470.41	8348.69
470.59	8493.80
470.77	8339.33
470.95	8484.44
471.14	8514.87
471.32	8409.54
471.50	8748.92
471.68	8648.28
471.86	8692.75
472.04	8648.28
472.22	9039.15
472.40	8561.68
472.58	8791.05
472.77	8807.44
472.95	8980.64
473.13	9041.49
473.31	8938.51
473.49	8957.23
473.67	8837.86
473.85	9062.55
474.03	9364.48
474.21	9263.84
474.39	9219.37
474.57	9537.68
474.75	9523.64
474.93	9760.03
475.12	9493.21
475.30	9643.01
475.48	9500.23
475.66	9914.51
475.84	9659.39
476.02	10012.81
476.20	9710.88
476.38	10085.37
476.56	10076.01
476.74	10202.40
476.92	10040.90
477.10	10054.94
477.28	10284.31
477.46	10399.00
477.64	10434.11
477.82	10406.02
478.00	10724.33
478.18	10621.35
478.36	10789.87
478.54	10939.66
478.72	11019.24
478.90	10874.13
479.08	11199.46
479.26	11061.37
479.44	11255.64
479.62	11279.04
479.80	11236.91
479.98	11571.61
480.16	11808.00
480.34	11440.54
480.52	11939.07
480.70	11700.34
480.88	11906.31
481.06	11857.15
481.24	11946.09
481.41	12070.14
481.59	12264.41
481.77	12222.28
481.95	12381.43
482.13	12685.70
482.31	12390.80
482.49	12814.43
482.67	12482.08
482.85	12910.40
483.03	12922.10
483.21	13116.36
483.39	13060.19
483.57	12870.61
483.74	13268.50
483.92	13525.96
484.10	13355.10
484.28	13682.77
484.46	13757.67
484.64	13982.36
484.82	14050.24
485.00	13937.89
485.18	14413.02
485.35	14644.73
485.53	14518.34
485.71	14441.11
485.89	14864.74
486.07	14785.16
486.25	14920.92
486.43	14937.30
486.61	15035.60
486.78	15297.74
486.96	15513.07
487.14	15269.66
487.32	15534.14
487.50	15653.50
487.68	15447.54
487.85	16053.73
488.03	16147.36
488.21	16425.88
488.39	16271.40
488.57	16475.03
488.75	16154.38
488.92	16695.04
489.10	16912.71
489.28	16992.29
489.46	17015.69
489.64	16919.73
489.81	17355.07
489.99	17451.03
490.17	17649.98
490.35	17525.93
490.53	17563.38
490.70	17930.84
490.88	18122.77
491.06	18272.56
491.24	18225.75
491.41	18253.84
491.59	18155.54
491.77	18071.28
491.95	18778.12
492.13	18707.90
492.30	18684.50
492.48	19190.05
492.66	19075.37
492.84	19061.32
493.01	19208.78
493.19	19122.18
493.37	19274.31
493.54	19400.70
493.72	19585.60
493.90	19903.92
494.08	19770.51
494.25	20325.21
494.43	20311.17
494.61	20437.56
494.79	20390.75
494.96	20144.99
495.14	20556.93
495.32	20711.40
495.49	20837.79
495.67	20938.43
495.85	21209.93
496.02	21219.30
496.20	21191.21
496.38	21551.65
496.55	21273.13
496.73	21951.88
496.91	21685.06
497.09	21731.87
497.26	22097.00
497.44	21860.60
497.62	22111.04
497.79	22501.91
497.97	22508.93
498.14	22506.59
498.32	22574.47
498.50	22457.44
498.67	22960.66
498.85	23035.55
499.03	23051.94
499.20	22899.80
499.38	23243.86
499.56	23321.10
499.73	23527.06
499.91	23651.11
500.08	23506.00
500.26	23662.82
500.44	23594.94
500.61	23733.03
500.79	23435.78
500.97	24240.93
501.14	24489.03
501.32	24212.84
501.49	24219.86
501.67	24458.60
501.84	24514.77
502.02	24301.78
502.20	24830.74
502.37	24800.32
502.55	24680.95
502.72	24861.17
502.90	24748.82
503.07	24673.93
503.25	25151.40
503.43	24915.00
503.60	25099.90
503.78	24999.26
503.95	25233.32
504.13	25654.61
504.30	25635.89
504.48	25476.73
504.65	25752.91
504.83	25958.88
505.01	26005.69
505.18	26103.99
505.36	26305.28
505.53	26040.80
505.71	26012.71
505.88	26417.63
506.06	26103.99
506.23	26295.92
506.41	26270.17
506.58	26513.59
506.76	26499.55
506.93	26654.02
507.11	26771.05
507.28	27267.24
507.46	27091.70
507.63	27089.36
507.81	27271.92
507.98	26719.56
508.16	27126.81
508.33	27302.35
508.50	27625.34
508.68	27613.64
508.85	28161.33
509.03	27302.35
509.20	27557.47
509.38	28264.31
509.55	27852.38
509.73	28154.30
509.90	28002.17
510.08	27906.21
510.25	28346.23
510.42	28322.82
510.60	28517.09
510.77	28580.28
510.95	28863.49
511.12	28856.46
511.30	28830.72
511.47	28615.39
511.64	29102.22
511.82	29034.35
511.99	29221.59
512.17	29188.82
512.34	29113.92
512.51	29490.75
512.69	29567.99
512.86	29624.16
513.04	29453.30
513.21	29989.28
513.38	29788.00
513.56	30132.06
513.73	29883.96
513.90	29855.87
514.08	29797.36
514.25	30281.85
514.43	30277.17
514.60	30122.69
514.77	29998.65
514.95	30567.40
515.12	30419.94
515.29	30520.59
515.47	30976.99
515.64	30700.81
515.81	30562.72
515.99	30630.59
516.16	31150.19
516.33	30761.66
516.51	30883.37
516.68	30569.74
516.85	30944.22
517.03	31370.20
517.20	31431.05
517.37	31028.48
517.54	31489.57
517.72	31630.00
517.89	31622.98
518.06	31831.29
518.24	32060.66
518.41	31653.40
518.58	31791.50
518.75	32037.25
518.93	31819.58
519.10	32013.85
519.27	32402.38
519.45	32023.21
519.62	32353.23
519.79	32292.37
519.96	32299.39
520.14	32161.30
520.31	32065.34
520.48	32294.71
520.65	32540.47
520.83	32673.88
521.00	32907.93
521.17	32943.04
521.34	33125.60
521.52	32978.15
521.69	32844.74
521.86	33371.36
522.03	33617.11
522.20	33383.06
522.38	33687.33
522.55	33759.89
522.72	33649.88
522.89	33769.25
523.07	34206.93
523.24	33649.88
523.41	33785.63
523.58	33607.75
523.75	33715.42
523.92	33986.92
524.10	34120.33
524.27	34279.49
524.44	34286.51
524.61	34256.08
524.78	34085.22
524.96	34623.54
525.13	34408.22
525.30	34560.35
525.47	34759.30
525.64	34527.58
525.81	34527.58
525.98	34450.35
526.16	34916.11
526.33	34616.52
526.50	35126.76
526.67	35042.50
526.84	34679.72
527.01	35175.91
527.18	35431.03
527.36	35175.91
527.53	35157.19
527.70	35349.11
527.87	35721.26
528.04	35360.81
528.21	35400.60
528.38	35578.48
528.55	35496.56
528.72	35704.87
528.89	36114.47
529.07	35349.11
529.24	35606.57
529.41	36226.81
529.58	35372.52
529.75	35676.79
529.92	36051.27
530.09	36002.12
530.26	36004.46
530.43	36175.32
530.60	35887.43
530.77	36311.07
530.94	36652.79
531.11	36229.15
531.28	36280.64
531.46	36411.71
531.63	36664.49
531.80	36460.87
531.97	36917.27
532.14	37010.89
532.31	36825.99
532.48	37111.53
532.65	37144.30
532.82	36957.06
532.99	36886.84
533.16	36835.35
533.33	37284.73
533.50	37167.71
533.67	37635.81
533.84	36863.44
534.01	37493.04
534.18	37303.46
534.35	37633.47
534.52	37539.85
534.69	37916.68
534.86	37837.10
535.03	37612.41
535.20	37617.09
535.37	37975.19
535.54	37769.22
535.71	37460.27
535.88	37947.11
536.05	38087.54
536.22	38113.28
536.38	37867.53
536.55	38405.85
536.72	38480.75
536.89	38113.28
537.06	37916.68
537.23	38506.49
537.40	37816.04
537.57	38071.15
537.74	38033.71
537.91	38600.12
538.08	38588.41
538.25	38043.07
538.42	38918.43
538.59	39108.01
538.75	38766.29
538.92	38595.43
539.09	38859.91
539.26	39061.20
539.43	38719.48
539.60	38742.89
539.77	39103.33
539.94	38782.68
540.11	39269.51
540.28	39215.68
540.44	38866.94
540.61	39234.40
540.78	38616.50
540.95	38990.98
541.12	38866.94
541.29	39014.39
541.46	39468.45
541.62	39672.08
541.79	39871.03
541.96	39096.31
542.13	39215.68
542.30	39618.25
542.47	39636.97
542.63	39931.88
542.80	39777.40
542.97	40013.80
543.14	40369.56
543.31	40020.82
543.48	39917.84
543.64	40566.16
543.81	40414.03
543.98	40191.68
544.15	40657.45
544.32	40589.57
544.48	40509.99
544.65	40336.79
544.82	40591.91
544.99	40851.71
545.16	40624.68
545.32	40549.78
545.49	40713.62
545.66	40898.52
545.83	40416.37
546.00	40957.03
546.16	40781.49
546.33	40786.18
546.50	40549.78
546.67	41076.40
546.83	40477.22
547.00	41092.79
547.17	40704.26
547.34	41280.03
547.50	41160.66
547.67	41392.37
547.84	41181.73
548.00	41188.75
548.17	41474.29
548.34	41490.68
548.51	41551.53
548.67	41394.71
548.84	41354.93
549.01	41317.48
549.18	41610.04
549.34	41834.74
549.51	41743.45
549.68	41904.95
549.84	41837.08
550.01	41715.37
550.18	41780.90
550.34	42227.95
550.51	41965.81
550.68	42082.83
550.84	41844.10
551.01	42021.98
551.18	41745.80
551.34	41993.89
551.51	42143.69
551.68	42108.58
551.84	42239.65
552.01	42230.29
552.18	42288.80
552.34	41879.21
552.51	42387.10
552.68	42227.95
552.84	42522.85
553.01	42490.09
553.18	42564.98
553.34	42499.45
553.51	42476.04
553.67	42316.89
553.84	42412.85
554.01	43337.36
554.17	42646.90
554.34	42777.97
554.51	42419.87
554.67	42689.03
554.84	43035.43
555.00	42892.66
555.17	42684.35
555.33	42539.24
555.50	42902.02
555.67	42710.10
555.83	42780.31
556.00	43227.35
556.16	43620.56
556.33	42962.87
556.50	43051.81
556.66	43297.57
556.83	42932.45
556.99	42806.06
557.16	43124.37
557.32	43470.77
557.49	43466.09
557.65	42955.85
557.82	42960.53
557.98	43281.19
558.15	42799.04
558.32	43213.31
558.48	43063.52
558.65	43246.08
558.81	43107.99
558.98	42925.42
559.14	43292.89
559.31	43515.24
559.47	43763.34
559.64	43496.52
559.80	43531.62
559.97	43971.64
560.13	43491.83
560.30	43548.01
560.46	43744.61
560.63	43791.42
560.79	43948.24
560.96	43711.84
561.12	43803.13
561.29	43868.66
561.45	44315.70
561.61	43899.09
561.78	43629.93
561.94	43562.05
562.11	43997.39
562.27	43690.78
562.44	44027.82
562.60	44320.38
562.77	44062.93
562.93	43789.08
563.10	44374.22
563.26	43934.20
563.42	44495.92
563.59	43753.97
563.75	44130.80
563.92	44137.82
564.08	44271.23
564.24	44186.97
564.41	44406.98
564.57	43688.44
564.74	44182.29
564.90	44151.87
565.07	43777.38
565.23	44165.91
565.39	44067.61
565.56	44568.48
565.72	44318.04
565.88	44697.21
566.05	44662.10
566.21	44589.55
566.38	43913.13
566.54	44311.02
566.70	44634.02
566.87	44694.87
567.03	44495.92
567.19	44692.53
567.36	44378.90
567.52	44493.58
567.68	44907.86
567.85	44978.07
568.01	44804.88
568.17	44107.40
568.34	44545.08
568.50	44392.94
568.66	44444.43
568.83	44926.58
568.99	44598.91
569.15	44994.46
569.32	44502.95
569.48	44559.12
569.64	45359.58
569.81	44964.03
569.97	44795.51
570.13	45015.52
570.30	44463.16
570.46	45102.12
570.62	44701.89
570.78	44664.44
570.95	44502.95
571.11	45015.52
571.27	44414.01
571.43	44664.44
571.60	44772.11
571.76	44825.94
571.92	44680.83
572.09	45284.68
572.25	44823.60
572.41	44568.48
572.57	44739.34
572.74	45270.64
572.90	45544.48
573.06	45221.49
573.22	45020.20
573.38	45256.60
573.55	45235.53
573.71	45258.94
573.87	45137.23
574.03	44942.97
574.20	45188.72
574.36	45481.29
574.52	45530.44
574.68	45336.18
574.84	45277.66
575.01	45172.34
575.17	45064.67
575.33	45329.16
575.49	45418.10
575.65	45401.71
575.82	45422.78
575.98	45146.59
576.14	45532.78
576.30	45294.05
576.46	44945.31
576.62	45368.94
576.79	45422.78
576.95	44575.50
577.11	45275.32
577.27	45233.19
577.43	44938.29
577.59	45485.97
577.75	44875.09
577.92	44971.05
578.08	44847.00
578.24	45130.21
578.40	45511.72
578.56	45280.00
578.72	45525.76
578.88	45226.17
579.04	45595.98
579.21	45261.28
579.37	45230.85
579.53	45628.74
579.69	45450.86
579.85	45120.85
580.01	45586.61
580.17	45390.01
580.33	45544.48
580.49	45141.91
580.65	45476.61
580.82	45385.33
580.98	45343.20
581.14	45099.78
581.30	45102.12
581.46	45247.24
581.62	45647.47
581.78	44903.18
581.94	45570.23
582.10	45537.46
582.26	45748.11
582.42	45626.40
582.58	45298.73
582.74	45500.01
582.90	45146.59
583.06	45792.58
583.22	45303.41
583.38	45244.90
583.54	45743.43
583.70	45186.38
583.86	45523.42
584.02	45427.46
584.18	45858.12
584.34	45680.24
584.50	45661.51
584.66	45881.52
584.82	45883.86
584.98	46241.96
585.14	45986.85
585.30	45361.92
585.46	45525.76
585.62	45212.13
585.78	45523.42
585.94	45446.18
586.10	45170.00
586.26	45303.41
586.42	45233.19
586.58	45635.77
586.74	45439.16
586.90	45280.00
587.06	45111.49
587.22	45734.07
587.38	45586.61
587.54	45645.13
587.70	45696.62
587.86	45666.19
588.02	45771.52
588.18	45902.59
588.34	45492.99
588.49	45612.36
588.65	45371.28
588.81	46150.68
588.97	45677.90
589.13	45488.31
589.29	45078.72
589.45	46146.00
589.61	45687.26
589.77	45649.81
589.93	45694.28
590.08	46103.87
