SpectraSuite Data File
++++++++++++++++++++++++++++++++++++
Date: Fri Oct 25 10:48:18 EDT 2013
User: price-jones
Dark Spectrum Present: No
Reference Spectrum Present: No
Number of Sampled Component Spectra: 1
Spectrometers: USB2+H05261
Integration Time (usec): 100000 (USB2+H05261)
Spectra Averaged: 1 (USB2+H05261)
Boxcar Smoothing: 0 (USB2+H05261)
Correct for Electrical Dark: No (USB2+H05261)
Strobe/Lamp Enabled: No (USB2+H05261)
Correct for Detector Non-linearity: No (USB2+H05261)
Correct for Stray Light: No (USB2+H05261)
Number of Pixels in Processed Spectrum: 2048
>>>>>Begin Processed Spectral Data<<<<<
365.73	124.05
365.92	124.05
366.12	124.05
366.32	0.00
366.52	65.54
366.72	49.15
366.91	56.17
367.11	105.32
367.31	46.81
367.51	32.77
367.70	0.00
367.90	77.24
368.10	95.96
368.30	0.00
368.49	0.00
368.69	86.60
368.89	72.56
369.09	63.19
369.28	93.62
369.48	131.07
369.68	81.92
369.87	152.13
370.07	107.66
370.27	112.35
370.47	161.50
370.66	400.23
370.86	475.13
371.06	500.87
371.25	559.39
371.45	524.28
371.65	505.56
371.84	531.30
372.04	402.57
372.24	491.51
372.44	475.13
372.63	521.94
372.83	454.06
373.03	521.94
373.22	440.02
373.42	496.19
373.62	603.86
373.81	543.00
374.01	571.09
374.21	589.82
374.40	505.56
374.60	613.22
374.79	540.66
374.99	610.88
375.19	575.77
375.38	653.01
375.58	636.63
375.78	674.07
375.97	697.48
376.17	683.44
376.37	650.67
376.56	657.69
376.76	636.63
376.95	592.16
377.15	624.92
377.35	697.48
377.54	660.03
377.74	596.84
377.93	786.42
378.13	667.05
378.33	711.52
378.52	716.20
378.72	631.94
378.91	671.73
379.11	725.57
379.31	697.48
379.50	676.41
379.70	751.31
379.89	704.50
380.09	671.73
380.28	767.70
380.48	709.18
380.68	730.25
380.87	669.39
381.07	772.38
381.26	779.40
381.46	690.46
381.65	697.48
381.85	746.63
382.04	748.97
382.24	779.40
382.43	772.38
382.63	784.08
382.83	711.52
383.02	791.10
383.22	741.95
383.41	809.83
383.61	802.80
383.80	758.33
384.00	802.80
384.19	828.55
384.39	851.96
384.58	763.01
384.78	791.10
384.97	828.55
385.17	875.36
385.36	835.57
385.56	755.99
385.75	779.40
385.95	870.68
386.14	858.98
386.34	807.48
386.53	908.13
386.72	861.32
386.92	912.81
387.11	910.47
387.31	924.51
387.50	919.83
387.70	898.77
387.89	973.66
388.09	971.32
388.28	910.47
388.48	908.13
388.67	994.73
388.86	903.45
389.06	971.32
389.25	999.41
389.45	926.85
389.64	968.98
389.84	1043.88
390.03	1102.39
390.22	1055.58
390.42	1004.09
390.61	1060.26
390.81	1062.60
391.00	1095.37
391.19	1107.07
391.39	1097.71
391.58	1104.73
391.78	1071.97
391.97	1048.56
392.16	1116.44
392.36	1109.41
392.55	1132.82
392.75	1025.15
392.94	1039.20
393.13	1121.12
393.33	1081.33
393.52	1132.82
393.71	1074.31
393.91	1165.59
394.10	1114.10
394.29	1188.99
394.49	1221.76
394.68	1296.66
394.88	1313.04
395.07	1366.87
395.26	1317.72
395.46	1238.14
395.65	1261.55
395.84	1331.76
396.04	1249.85
396.23	1242.82
396.42	1203.04
396.62	1156.22
396.81	1256.87
397.00	1212.40
397.19	1275.59
397.39	1383.26
397.58	1324.74
397.77	1366.87
397.97	1448.79
398.16	1486.24
398.35	1455.81
398.55	1458.15
398.74	1638.38
398.93	1614.97
399.12	1614.97
399.32	1561.14
399.51	1504.96
399.70	1614.97
399.90	1511.99
400.09	1556.46
400.28	1689.87
400.47	1619.65
400.67	1687.53
400.86	1659.44
401.05	1785.83
401.24	1734.34
401.44	1781.15
401.63	1799.87
401.82	1710.93
402.01	1760.08
402.21	1790.51
402.40	1900.52
402.59	1755.40
402.78	1694.55
402.97	1813.92
403.17	1919.24
403.36	1926.26
403.55	1839.66
403.74	1944.99
403.93	1905.20
404.13	1987.11
404.32	1916.90
404.51	2012.86
404.70	1877.11
404.89	1930.94
405.09	1975.41
405.28	2078.40
405.47	2054.99
405.66	2143.93
405.85	2111.16
406.05	2094.78
406.24	2141.59
406.43	2059.67
406.62	2050.31
406.81	2129.89
407.00	2104.14
407.20	2083.08
407.39	2186.06
407.58	2303.09
407.77	2260.96
407.96	2239.89
408.15	2216.49
408.34	2293.72
408.54	2382.67
408.73	2333.51
408.92	2291.38
409.11	2335.85
409.30	2370.96
409.49	2342.88
409.68	2356.92
409.87	2429.48
410.07	2401.39
410.26	2335.85
410.45	2455.22
410.64	2532.46
410.83	2600.34
411.02	2579.27
411.21	2684.59
411.40	2682.25
411.59	2642.46
411.78	2717.36
411.98	2675.23
412.17	2787.58
412.36	2743.11
412.55	2883.54
412.74	2757.15
412.93	2857.79
413.12	2818.00
413.31	2939.71
413.50	2937.37
413.69	2949.08
413.88	3035.67
414.07	3002.91
414.26	3009.93
414.45	3176.11
414.64	2977.16
414.83	3038.02
415.02	3143.34
415.22	3089.51
415.41	3258.03
415.60	3248.66
415.79	3232.28
415.98	3389.10
416.17	3328.24
416.36	3152.70
416.55	3274.41
416.74	3318.88
416.93	3438.25
417.12	3478.04
417.31	3384.41
417.50	3424.20
417.69	3578.68
417.88	3578.68
418.07	3520.17
418.26	3585.70
418.45	3578.68
418.64	3721.45
418.83	3562.30
419.02	3581.02
419.21	3632.51
419.39	3756.56
419.58	3660.60
419.77	3585.70
419.96	3712.09
420.15	3674.64
420.34	3702.73
420.53	3737.84
420.72	4023.38
420.91	3850.18
421.10	3953.16
421.29	3941.46
421.48	3955.51
421.67	4025.72
421.86	3786.99
422.05	3939.12
422.24	3779.97
422.43	3873.59
422.61	3836.14
422.80	3992.95
422.99	4035.08
423.18	4159.13
423.37	4142.75
423.56	4095.94
423.75	4049.13
423.94	3974.23
424.13	3702.73
424.32	3939.12
424.50	4030.40
424.69	4058.49
424.88	4074.87
425.07	4009.34
425.26	3810.39
425.45	4138.07
425.64	4095.94
425.83	4091.26
426.01	4117.00
426.20	4156.79
426.39	4070.19
426.58	3953.16
426.77	4053.81
426.96	4124.02
427.15	4117.00
427.33	4102.96
427.52	4072.53
427.71	4224.67
427.90	4227.01
428.09	4201.26
428.28	4248.07
428.46	4367.44
428.65	4344.03
428.84	4379.14
429.03	4421.27
429.22	4203.60
429.40	4234.03
429.59	4208.28
429.78	3955.51
429.97	3957.85
430.16	4159.13
430.34	4313.61
430.53	4353.40
430.72	4315.95
430.91	4369.78
431.10	4376.80
431.28	4650.64
431.47	4795.76
431.66	4828.53
431.85	4573.41
432.03	4746.61
432.22	4816.82
432.41	4772.35
432.60	4746.61
432.79	4770.01
432.97	4718.52
433.16	4835.55
433.35	4784.06
433.54	4854.27
433.72	4842.57
433.91	4688.09
434.10	4823.84
434.28	4915.12
434.47	5006.41
434.66	5015.77
434.85	5076.62
435.03	5170.24
435.22	4966.62
435.41	5032.15
435.59	5165.56
435.78	5275.57
435.97	5313.02
436.16	5324.72
436.34	5324.72
436.53	5287.27
436.72	5390.25
436.90	5277.91
437.09	5331.74
437.28	5231.10
437.46	5331.74
437.65	5324.72
437.84	5383.23
438.02	5210.03
438.21	5329.40
438.40	5233.44
438.58	5444.09
438.77	5432.38
438.96	5439.40
439.14	5671.12
439.33	5809.21
439.52	5734.31
439.70	5612.60
439.89	5907.51
440.08	5980.07
440.26	5872.40
440.45	5806.87
440.63	5980.07
440.82	6230.51
441.01	6139.23
441.19	6284.34
441.38	6174.33
441.57	6328.81
441.75	6303.06
441.94	6410.73
442.12	6424.77
442.31	6502.01
442.50	6452.86
442.68	6469.24
442.87	6448.18
443.05	6429.45
443.24	6778.19
443.43	6815.64
443.61	6626.06
443.80	6724.36
443.98	6427.11
444.17	6289.02
444.35	6696.27
444.54	6867.13
444.73	6612.01
444.91	6712.66
445.10	6651.80
445.28	6691.59
445.47	6420.09
445.65	6691.59
445.84	6569.88
446.02	6743.08
446.21	6726.70
446.39	6546.48
446.58	6850.75
446.77	6747.76
446.95	6738.40
447.14	6745.42
447.32	7023.95
447.51	6927.99
447.69	6839.05
447.88	6942.03
448.06	6654.14
448.25	6789.89
448.43	6930.33
448.62	6942.03
448.80	6853.09
448.99	7070.76
449.17	7054.37
449.36	6977.14
449.54	7094.16
449.73	7138.63
449.91	7290.77
450.10	7201.83
450.28	7302.47
450.46	7269.70
450.65	7417.16
450.83	7370.35
451.02	7258.00
451.20	7365.67
451.39	7267.36
451.57	7363.33
451.76	7239.28
451.94	7297.79
452.13	7466.31
452.31	7585.68
452.49	7194.81
452.68	7386.73
452.86	7335.24
453.05	7344.60
453.23	7440.56
453.42	7433.54
453.60	7573.97
453.78	7492.05
453.97	7581.00
454.15	7524.82
454.34	7573.97
454.52	7789.30
454.70	7665.25
454.89	7695.68
455.07	7822.07
455.26	7829.09
455.44	8025.70
455.62	7939.10
455.81	7978.89
455.99	7840.79
456.17	7962.50
456.36	7925.05
456.54	8217.62
456.73	8102.93
456.91	8395.50
457.09	8336.99
457.28	8435.29
457.46	8037.40
457.64	8444.65
457.83	8496.14
458.01	8238.69
458.19	8428.27
458.38	8159.11
458.56	8322.94
458.74	8400.18
458.93	8531.25
459.11	8517.21
459.29	8362.73
459.48	8587.43
459.66	8409.54
459.84	8704.45
460.03	8865.95
460.21	8573.38
460.39	8837.86
460.57	8716.16
460.76	8744.24
460.94	8758.28
461.12	8879.99
461.31	9018.08
461.49	8854.25
461.67	8882.33
461.85	9221.71
462.04	9013.40
462.22	9362.14
462.40	9172.56
462.59	9029.79
462.77	9041.49
462.95	9256.82
463.13	9039.15
463.32	8992.34
463.50	9170.22
463.68	9039.15
463.86	9135.11
464.05	9046.17
464.23	9170.22
464.41	9301.29
464.59	9125.75
464.78	9392.57
464.96	9441.72
465.14	9233.41
465.32	9481.51
465.50	9530.66
465.69	9434.70
465.87	9408.95
466.05	9247.46
466.23	9488.53
466.41	9334.06
466.60	9689.82
466.78	9383.21
466.96	9387.89
467.14	9315.33
467.32	9394.91
467.51	9877.06
467.69	9593.86
467.87	9722.59
468.05	9561.09
468.23	9724.93
468.41	9745.99
468.60	9760.03
468.78	9689.82
468.96	9729.61
469.14	9958.98
469.32	10029.20
469.50	9521.30
469.69	9942.60
469.87	10136.86
470.05	10214.10
470.23	9951.96
470.41	10001.11
470.59	10178.99
470.77	10068.98
470.95	10010.47
471.14	10492.62
471.32	10127.50
471.50	10466.88
471.68	10614.33
471.86	10785.19
472.04	10595.61
472.22	10740.72
472.40	10420.06
472.58	10619.01
472.77	10602.63
472.95	10696.25
473.13	10977.11
473.31	10850.72
473.49	10729.02
473.67	10902.22
473.85	10934.98
474.03	11351.60
474.21	11094.14
474.39	11033.29
474.57	11204.14
474.75	11300.11
474.93	11248.61
475.12	11187.76
475.30	11693.32
475.48	11557.57
475.66	11569.27
475.84	11679.27
476.02	11646.51
476.20	11803.32
476.38	11981.20
476.56	12088.87
476.74	11871.20
476.92	11955.46
477.10	12318.24
477.28	12233.98
477.46	12425.90
477.64	12498.46
477.82	12737.20
478.00	12842.52
478.18	12641.23
478.36	12959.55
478.54	12877.63
478.72	13261.48
478.90	13111.68
479.08	13099.98
479.26	13209.98
479.44	13518.93
479.62	13509.57
479.80	13657.03
479.98	13762.35
480.16	13973.00
480.34	13844.27
480.52	13837.25
480.70	13951.93
480.88	13785.76
481.06	14188.33
481.24	14207.05
481.41	14626.01
481.59	14700.90
481.77	14806.23
481.95	14824.95
482.13	14822.61
482.31	14803.89
482.49	15262.63
482.67	15264.97
482.85	15243.91
483.03	15630.10
483.21	15655.84
483.39	15810.32
483.57	15709.68
483.74	16088.84
483.92	15929.69
484.10	15859.47
484.28	16315.87
484.46	16540.57
484.64	16746.53
484.82	16325.24
485.00	16465.67
485.18	16861.22
485.35	16879.94
485.53	16322.90
485.71	16718.45
485.89	17097.61
486.07	16994.63
486.25	17216.98
486.43	17135.06
486.61	17270.81
486.78	17797.43
486.96	17792.75
487.14	17944.89
487.32	18129.79
487.50	18185.96
487.68	18607.26
487.85	18434.06
488.03	18913.87
488.21	18899.83
488.39	19185.37
488.57	18958.34
488.75	19147.92
488.92	19695.61
489.10	19962.43
489.28	19824.34
489.46	19997.54
489.64	19950.73
489.81	20360.32
489.99	20435.22
490.17	20966.52
490.35	20713.74
490.53	20788.64
490.70	20889.28
490.88	20781.62
491.06	21273.13
491.24	21275.47
491.41	21209.93
491.59	21153.76
491.77	21158.44
491.95	21664.00
492.13	21731.87
492.30	21809.11
492.48	22214.02
492.66	22537.02
492.84	22277.22
493.01	22405.95
493.19	22483.19
493.37	22862.35
493.54	23295.35
493.72	23175.98
493.90	22948.95
494.08	23454.51
494.25	23267.27
494.43	23580.90
494.61	23861.76
494.79	24430.51
494.96	23686.22
495.14	24170.71
495.32	24233.91
495.49	24063.05
495.67	24407.11
495.85	24720.74
496.02	24720.74
496.20	24837.76
496.38	24795.64
496.55	24800.32
496.73	25790.36
496.91	25443.96
497.09	25228.63
497.26	25783.34
497.44	25516.52
497.62	25785.68
497.79	25993.99
497.97	25528.22
498.14	25792.70
498.32	25958.88
498.50	26146.12
498.67	26438.69
498.85	26647.00
499.03	26951.27
499.20	27033.19
499.38	26906.80
499.56	26857.65
499.73	27204.05
499.91	27208.73
500.08	27363.20
500.26	26775.73
500.44	27182.98
500.61	27388.95
500.79	27190.00
500.97	27583.21
501.14	28053.66
501.32	27405.33
501.49	27566.83
501.67	28030.26
501.84	27873.44
502.02	27885.14
502.20	28070.04
502.37	28603.69
502.55	28540.49
502.72	28481.98
502.90	28627.09
503.07	28559.22
503.25	28393.04
503.43	28814.34
503.60	28945.41
503.78	29167.76
503.95	28561.56
504.13	28968.81
504.30	29200.52
504.48	29139.67
504.65	29268.40
504.83	29465.00
505.01	29912.05
505.18	29689.70
505.36	29916.73
505.53	30244.40
505.71	30206.95
505.88	30316.96
506.06	29975.24
506.23	30326.32
506.41	30459.73
506.58	30621.23
506.76	30504.20
506.93	30546.33
507.11	30628.25
507.28	30841.24
507.46	30682.08
507.63	31091.68
507.81	30703.15
507.98	30866.98
508.16	30918.48
508.33	31189.98
508.50	31290.62
508.68	31424.03
508.85	31805.54
509.03	31660.43
509.20	31835.97
509.38	31964.70
509.55	31882.78
509.73	32273.65
509.90	32070.02
510.08	31676.81
510.25	31964.70
510.42	32238.54
510.60	32421.10
510.77	32439.82
510.95	32800.27
511.12	32568.55
511.30	33090.49
511.47	33146.67
511.64	33132.62
511.82	33324.55
511.99	32996.87
512.17	33104.54
512.34	33184.12
512.51	33263.69
512.69	33460.30
512.86	32872.82
513.04	33837.12
513.21	33350.29
513.38	33750.52
513.56	33872.23
513.73	33289.44
513.90	33563.28
514.08	33958.83
514.25	34157.78
514.43	33680.31
514.60	34167.14
514.77	34277.15
514.95	34422.26
515.12	34106.29
515.29	34117.99
515.47	34742.91
515.64	34359.06
515.81	34164.80
515.99	34712.49
516.16	33993.94
516.33	34099.26
516.51	34134.37
516.68	34202.25
516.85	34178.84
517.03	34471.41
517.20	34443.32
517.37	34869.30
517.54	35363.15
517.72	34834.19
517.89	34906.75
518.06	34841.21
518.24	34885.68
518.41	35278.89
518.58	35412.31
518.75	34845.90
518.93	35367.84
519.10	35606.57
519.27	35915.52
519.45	36020.84
519.62	36130.85
519.79	36119.15
519.96	36348.52
520.14	36601.30
520.31	36144.89
520.48	35967.01
520.65	36196.38
520.83	36528.74
521.00	36350.86
521.17	36325.11
521.34	36924.29
521.52	36666.83
521.69	36900.89
521.86	37535.17
522.03	37179.41
522.20	37200.47
522.38	37558.58
522.55	37216.86
522.72	36903.23
522.89	36961.74
523.07	37542.19
523.24	37275.37
523.41	37750.50
523.58	37481.34
523.75	38462.02
523.92	37986.89
524.10	38174.14
524.27	38284.14
524.44	37968.17
524.61	37970.51
524.78	38256.06
524.96	38712.46
525.13	38651.61
525.30	38380.10
525.47	38761.61
525.64	38347.34
525.81	38637.56
525.98	38658.63
526.16	38155.41
526.33	37862.85
526.50	38478.41
526.67	37982.21
526.84	38120.31
527.01	38270.10
527.18	38618.84
527.36	38876.30
527.53	39105.67
527.70	39290.57
527.87	38972.26
528.04	38911.41
528.21	39065.88
528.38	39749.32
528.55	39550.37
528.72	39522.29
528.89	39938.90
529.07	39983.37
529.24	39695.49
529.41	39714.21
529.58	39360.79
529.75	39505.90
529.92	39292.91
530.09	40100.40
530.26	40079.33
530.43	40177.64
530.60	39849.96
530.77	39791.45
530.94	40397.65
531.11	40147.21
531.28	40259.55
531.46	40196.36
531.63	40334.45
531.80	40055.93
531.97	40357.86
532.14	40446.80
532.31	40100.40
532.48	40254.87
532.65	40519.35
532.82	40671.49
532.99	40692.55
533.16	40360.20
533.33	40903.20
533.50	40994.48
533.67	40533.40
533.84	40655.11
534.01	41160.66
534.18	40858.73
534.35	41265.99
534.52	40718.30
534.69	41230.88
534.86	40882.14
535.03	41013.21
535.20	41125.55
535.37	41858.14
535.54	41717.71
535.71	41530.47
535.88	41706.01
536.05	41141.94
536.22	41368.97
536.38	41680.26
536.55	41642.81
536.72	41427.48
536.89	41607.70
537.06	41727.07
537.23	41848.78
537.40	41792.61
537.57	42218.58
537.74	41439.18
537.91	42394.12
538.08	42033.68
538.25	41823.03
538.42	42026.66
538.59	42665.63
538.75	42293.48
538.92	42080.49
539.09	42438.59
539.26	42831.80
539.43	42038.36
539.60	42160.07
539.77	42185.82
539.94	42286.46
540.11	42092.19
540.28	42445.62
540.44	42244.33
540.61	42436.25
540.78	42600.09
540.95	42057.09
541.12	41989.21
541.29	42761.59
541.46	42740.52
541.62	43100.97
541.79	42930.11
541.96	42036.02
542.13	43037.77
542.30	43107.99
542.47	43232.04
542.63	43079.90
542.80	43084.58
542.97	43412.26
543.14	43646.31
543.31	43653.33
543.48	43709.50
543.64	43929.51
543.81	44053.56
543.98	43751.63
544.15	43578.43
544.32	43746.95
544.48	44151.87
544.65	43854.62
544.82	43566.73
544.99	43512.90
545.16	43501.20
545.32	43796.10
545.49	44198.68
545.66	44172.93
545.83	44186.97
546.00	44643.38
546.16	43992.71
546.33	44289.96
546.50	44060.58
546.67	44144.84
546.83	43842.92
547.00	43971.64
547.17	44051.22
547.34	43955.26
547.50	43910.79
547.67	44411.67
547.84	44238.47
548.00	44432.73
548.17	44369.54
548.34	44601.25
548.51	45008.50
548.67	44926.58
548.84	44662.10
549.01	45052.97
549.18	44505.29
549.34	44814.24
549.51	44596.57
549.68	44729.98
549.84	44528.69
550.01	44685.51
550.18	44713.59
550.34	45109.14
550.51	44722.96
550.68	44727.64
550.84	44624.65
551.01	45256.60
551.18	45373.63
551.34	44926.58
551.51	45567.89
551.68	45408.73
551.84	45067.02
552.01	44678.49
552.18	44687.85
552.34	45064.67
552.51	45612.36
552.68	44802.53
552.84	45488.31
553.01	45471.93
553.18	45263.62
553.34	45284.68
553.51	45448.52
553.67	45352.56
553.84	45455.54
554.01	45584.27
554.17	45411.07
554.34	45984.51
554.51	45485.97
554.67	45748.11
554.84	45581.93
555.00	45420.44
555.17	45631.08
555.33	45710.66
555.50	45666.19
555.67	45471.93
555.83	45780.88
556.00	45631.08
556.16	46438.57
556.33	45846.41
556.50	45694.28
556.66	45762.15
556.83	45432.14
556.99	45890.88
557.16	45958.76
557.32	45603.00
557.49	45841.73
557.65	45876.84
557.82	45830.03
557.98	45549.17
558.15	45722.37
558.32	46031.32
558.48	45521.08
558.65	46110.89
558.81	45848.75
558.98	46078.13
559.14	45921.31
559.31	45911.95
559.47	46471.34
559.64	46277.07
559.80	46305.16
559.97	46216.22
560.13	45961.10
560.30	46321.54
560.46	46054.72
560.63	46225.58
560.79	46300.48
560.96	46443.25
561.12	46103.87
561.29	46295.80
561.45	46328.56
561.61	46050.04
561.78	46483.04
561.94	46263.03
562.11	46141.32
562.27	46298.14
562.44	46464.32
562.60	47070.51
562.77	46490.06
562.93	46899.65
563.10	46501.76
563.26	46253.67
563.42	46705.39
563.59	46567.30
563.75	46806.03
563.92	46356.65
564.08	46260.69
564.24	46604.75
564.41	46721.77
564.57	46419.84
564.74	46520.49
564.90	46452.61
565.07	46649.22
565.23	46277.07
565.39	46487.72
565.56	46644.54
565.72	46213.88
565.88	46700.71
566.05	46576.66
566.21	46618.79
566.38	46373.03
566.54	46548.57
566.70	46892.63
566.87	46855.18
567.03	46534.53
567.19	46817.74
567.36	46775.61
567.52	46450.27
567.68	46862.21
567.85	46969.87
568.01	46616.45
568.17	46665.60
568.34	46597.73
568.50	46714.75
568.66	46567.30
568.83	47105.62
568.99	46698.37
569.15	46681.98
569.32	46433.89
569.48	46649.22
569.64	47147.75
569.81	46988.60
569.97	46892.63
570.13	46806.03
570.30	46363.67
570.46	46724.11
570.62	46522.83
570.78	46534.53
570.95	46265.37
571.11	46656.24
571.27	46721.77
571.43	46777.95
571.60	46871.57
571.76	46724.11
571.92	46939.44
572.09	46635.17
572.25	46815.40
572.41	46937.10
572.57	46742.84
572.74	47496.49
572.90	46972.21
573.06	47070.51
573.22	47042.43
573.38	47131.37
573.55	46700.71
573.71	47103.28
573.87	46806.03
574.03	46506.44
574.20	46990.94
574.36	46742.84
574.52	47189.88
574.68	47299.89
574.84	46925.40
575.01	46674.96
575.17	46679.64
575.33	46789.65
575.49	46630.49
575.65	47119.66
575.82	46967.53
575.98	46782.63
576.14	47089.24
576.30	47208.61
576.46	46864.55
576.62	46990.94
576.79	46883.27
576.95	46405.80
577.11	46990.94
577.27	46742.84
577.43	47058.81
577.59	46609.43
577.75	46731.14
577.92	46674.96
578.08	46738.16
578.24	46291.12
578.40	47070.51
578.56	46995.62
578.72	46848.16
578.88	46583.68
579.04	46791.99
579.21	46710.07
579.37	46677.30
579.53	46803.69
579.69	46969.87
579.85	46813.05
580.01	47297.55
580.17	46906.68
580.33	47150.09
580.49	47241.37
580.65	46799.01
580.82	47136.05
580.98	46883.27
581.14	46745.18
581.30	47096.26
581.46	46976.89
581.62	47735.23
581.78	47091.58
581.94	47217.97
582.10	47337.33
582.26	47267.12
582.42	47002.64
582.58	46761.56
582.74	47234.35
582.90	47208.61
583.06	47012.00
583.22	47283.50
583.38	47281.16
583.54	47562.03
583.70	47009.66
583.86	47292.86
584.02	46937.10
584.18	47543.30
584.34	47339.68
584.50	47150.09
584.66	46953.49
584.82	46927.74
584.98	46885.61
585.14	46986.25
585.30	46604.75
585.46	47037.75
585.62	46859.87
585.78	46791.99
585.94	46810.71
586.10	46806.03
586.26	47194.56
586.42	47126.69
586.58	47339.68
586.74	46731.14
586.90	47049.45
587.06	46653.90
587.22	47388.83
587.38	46492.40
587.54	47477.77
587.70	47159.45
587.86	47002.64
588.02	46990.94
588.18	47283.50
588.34	46817.74
588.49	47342.02
588.65	46511.13
588.81	46447.93
588.97	46560.28
589.13	46873.91
589.29	46899.65
589.45	46916.04
589.61	47178.18
589.77	47430.96
