SpectraSuite Data File
++++++++++++++++++++++++++++++++++++
Date: Fri Oct 25 10:44:20 EDT 2013
User: price-jones
Dark Spectrum Present: No
Reference Spectrum Present: No
Number of Sampled Component Spectra: 1
Spectrometers: USB2+H05261
Integration Time (usec): 100000 (USB2+H05261)
Spectra Averaged: 1 (USB2+H05261)
Boxcar Smoothing: 0 (USB2+H05261)
Correct for Electrical Dark: No (USB2+H05261)
Strobe/Lamp Enabled: No (USB2+H05261)
Correct for Detector Non-linearity: No (USB2+H05261)
Correct for Stray Light: No (USB2+H05261)
Number of Pixels in Processed Spectrum: 2048
>>>>>Begin Processed Spectral Data<<<<<
365.73	177.88
365.92	177.88
366.12	177.88
366.32	91.28
366.52	95.96
366.72	74.90
366.91	0.00
367.11	0.00
367.31	60.85
367.51	0.00
367.70	21.06
367.90	67.88
368.10	72.56
368.30	74.90
368.49	95.96
368.69	95.96
368.89	91.28
369.09	63.19
369.28	91.28
369.48	16.38
369.68	110.01
369.87	28.09
370.07	7.02
370.27	86.60
370.47	255.12
370.66	374.49
370.86	435.34
371.06	491.51
371.25	470.45
371.45	428.32
371.65	517.26
371.84	491.51
372.04	451.72
372.24	475.13
372.44	538.32
372.63	519.60
372.83	559.39
373.03	458.74
373.22	514.92
373.42	491.51
373.62	482.15
373.81	585.13
374.01	510.24
374.21	573.43
374.40	528.96
374.60	601.52
374.79	540.66
374.99	599.18
375.19	627.26
375.38	608.54
375.58	634.29
375.78	589.82
375.97	681.10
376.17	641.31
376.37	683.44
376.56	671.73
376.76	620.24
376.95	573.43
377.15	657.69
377.35	739.61
377.54	667.05
377.74	662.37
377.93	688.12
378.13	692.80
378.33	695.14
378.52	664.71
378.72	685.78
378.91	669.39
379.11	629.60
379.31	692.80
379.50	608.54
379.70	643.65
379.89	702.16
380.09	692.80
380.28	662.37
380.48	706.84
380.68	671.73
380.87	774.72
381.07	720.88
381.26	744.29
381.46	734.93
381.65	746.63
381.85	657.69
382.04	660.03
382.24	746.63
382.43	662.37
382.63	685.78
382.83	784.08
383.02	767.70
383.22	725.57
383.41	730.25
383.61	798.12
383.80	812.17
384.00	751.31
384.19	788.76
384.39	849.61
384.58	767.70
384.78	816.85
384.97	877.70
385.17	821.53
385.36	774.72
385.56	922.17
385.75	765.36
385.95	809.83
386.14	793.44
386.34	851.96
386.53	889.40
386.72	877.70
386.92	929.19
387.11	891.74
387.31	877.70
387.50	875.36
387.70	936.21
387.89	922.17
388.09	961.96
388.28	933.87
388.48	915.15
388.67	952.60
388.86	917.49
389.06	1029.84
389.25	957.28
389.45	1057.92
389.64	992.39
389.84	1050.90
390.03	1081.33
390.22	1008.77
390.42	1020.47
390.61	968.98
390.81	943.24
391.00	1006.43
391.19	1170.27
391.39	1090.69
391.58	1020.47
391.78	1032.18
391.97	1104.73
392.16	1090.69
392.36	1146.86
392.55	973.66
392.75	1046.22
392.94	976.00
393.13	957.28
393.33	1135.16
393.52	1078.99
393.71	1158.57
393.91	1118.78
394.10	1268.57
394.29	1249.85
394.49	1167.93
394.68	1327.08
394.88	1327.08
395.07	1270.91
395.26	1331.76
395.46	1289.64
395.65	1327.08
395.84	1268.57
396.04	1313.04
396.23	1196.01
396.42	1261.55
396.62	1306.02
396.81	1188.99
397.00	1273.25
397.19	1397.30
397.39	1327.08
397.58	1336.45
397.77	1277.93
397.97	1383.26
398.16	1500.28
398.35	1448.79
398.55	1502.62
398.74	1619.65
398.93	1591.56
399.12	1465.18
399.32	1605.61
399.51	1568.16
399.70	1598.59
399.90	1577.52
400.09	1650.08
400.28	1713.27
400.47	1748.38
400.67	1699.23
400.86	1666.46
401.05	1795.19
401.24	1746.04
401.44	1781.15
401.63	1809.23
401.82	1746.04
402.01	1799.87
402.21	1832.64
402.40	1856.04
402.59	1757.74
402.78	1811.57
402.97	1809.23
403.17	1851.36
403.36	1874.77
403.55	1872.43
403.74	1947.33
403.93	1884.13
404.13	1970.73
404.32	2003.50
404.51	1905.20
404.70	2104.14
404.89	1867.75
405.09	2024.56
405.28	2045.63
405.47	2031.58
405.66	2052.65
405.85	1991.80
406.05	2155.63
406.24	2057.33
406.43	2078.40
406.62	2239.89
406.81	2197.76
407.00	2160.31
407.20	2104.14
407.39	2094.78
407.58	2223.51
407.77	2232.87
407.96	2331.17
408.15	2326.49
408.34	2338.20
408.54	2438.84
408.73	2359.26
408.92	2335.85
409.11	2413.09
409.30	2401.39
409.49	2340.54
409.68	2305.43
409.87	2349.90
410.07	2427.14
410.26	2429.48
410.45	2609.70
410.64	2452.88
410.83	2616.72
411.02	2567.57
411.21	2715.02
411.40	2665.87
411.59	2656.51
411.78	2759.49
411.98	2693.96
412.17	2731.41
412.36	2841.41
412.55	2818.00
412.74	2977.16
412.93	2808.64
413.12	2841.41
413.31	3047.38
413.50	2963.12
413.69	3019.29
413.88	3005.25
414.07	3000.57
414.26	3042.70
414.45	3159.72
414.64	3199.51
414.83	3255.69
415.02	3023.97
415.22	3239.30
415.41	3295.47
415.60	3328.24
415.79	3349.31
415.98	3515.48
416.17	3279.09
416.36	3391.44
416.55	3344.63
416.74	3391.44
416.93	3419.52
417.12	3403.14
417.31	3349.31
417.50	3487.40
417.69	3637.19
417.88	3627.83
418.07	3676.98
418.26	3630.17
418.45	3592.72
418.64	3735.50
418.83	3674.64
419.02	3698.05
419.21	3726.13
419.39	3508.46
419.58	3625.49
419.77	3562.30
419.96	3686.34
420.15	3812.73
420.34	3723.79
420.53	3990.61
420.72	3997.64
420.91	3815.07
421.10	4032.74
421.29	4007.00
421.48	3955.51
421.67	3981.25
421.86	4011.68
422.05	3964.87
422.24	3915.72
422.43	4025.72
422.61	3962.53
422.80	4049.13
422.99	3962.53
423.18	4070.19
423.37	4032.74
423.56	4210.62
423.75	4070.19
423.94	4088.92
424.13	3819.75
424.32	3974.23
424.50	4175.52
424.69	4098.28
424.88	4229.35
425.07	4009.34
425.26	4081.89
425.45	4086.58
425.64	4133.39
425.83	4060.83
426.01	4311.27
426.20	4250.41
426.39	4224.67
426.58	4163.81
426.77	3981.25
426.96	4086.58
427.15	4070.19
427.33	4163.81
427.52	4173.18
427.71	4241.05
427.90	4264.46
428.09	4273.82
428.28	4325.31
428.46	4432.97
428.65	4276.16
428.84	4348.72
429.03	4442.34
429.22	4229.35
429.40	4196.58
429.59	4250.41
429.78	3999.98
429.97	4035.08
430.16	4210.62
430.34	4210.62
430.53	4236.37
430.72	4290.20
430.91	4362.76
431.10	4521.92
431.28	4688.09
431.47	4758.31
431.66	4772.35
431.85	4800.44
432.03	4819.16
432.22	4784.06
432.41	4837.89
432.60	4645.96
432.79	4856.61
432.97	4812.14
433.16	4812.14
433.35	4760.65
433.54	5025.13
433.72	4847.25
433.91	4940.87
434.10	4968.96
434.28	4966.62
434.47	4978.32
434.66	4983.00
434.85	5069.60
435.03	5214.71
435.22	5097.69
435.41	5502.60
435.59	5252.16
435.78	5221.74
435.97	5420.68
436.16	5270.89
436.34	5308.34
436.53	5320.04
436.72	5413.66
436.90	5315.36
437.09	5291.95
437.28	5104.71
437.46	5380.89
437.65	5455.79
437.84	5376.21
438.02	5500.26
438.21	5294.29
438.40	5310.68
438.58	5526.00
438.77	5568.13
438.96	5661.76
439.14	5748.36
439.33	5816.23
439.52	5818.57
439.70	5769.42
439.89	5940.28
440.08	5886.45
440.26	5884.11
440.45	5877.09
440.63	5949.64
440.82	6286.68
441.01	6349.87
441.19	6218.80
441.38	6326.47
441.57	6260.93
441.75	6466.90
441.94	6499.67
442.12	6506.69
442.31	6523.07
442.50	6600.31
442.68	6609.67
442.87	6663.51
443.05	6576.91
443.24	6705.63
443.43	6743.08
443.61	6766.49
443.80	6995.86
443.98	6630.74
444.17	6511.37
444.35	6759.47
444.54	6888.20
444.73	6906.92
444.91	6520.73
445.10	6677.55
445.28	6525.41
445.47	6640.10
445.65	6717.34
445.84	6637.76
446.02	6743.08
446.21	6621.38
446.39	6780.53
446.58	6782.87
446.77	6960.75
446.95	6832.02
447.14	6761.81
447.32	7115.23
447.51	7000.54
447.69	6965.43
447.88	6932.67
448.06	6946.71
448.25	6906.92
448.43	6848.41
448.62	6892.88
448.80	6857.77
448.99	7103.53
449.17	7080.12
449.36	7192.47
449.54	7276.73
449.73	7365.67
449.91	7321.20
450.10	7398.43
450.28	7531.84
450.46	7454.61
450.65	7286.09
450.83	7337.58
451.02	7433.54
451.20	7716.75
451.39	7728.45
451.57	7356.30
451.76	7555.25
451.94	7463.97
452.13	7721.43
452.31	7499.08
452.49	7602.06
452.68	7637.17
452.86	7499.08
453.05	7566.95
453.23	7632.49
453.42	7550.57
453.60	7768.24
453.78	7875.90
453.97	7676.96
454.15	7747.17
454.34	7665.25
454.52	7763.56
454.70	7709.72
454.89	7939.10
455.07	7735.47
455.26	7967.18
455.44	8037.40
455.62	7836.11
455.81	8077.19
455.99	7950.80
456.17	8021.02
456.36	8070.17
456.54	8159.11
456.73	8418.91
456.91	8407.20
457.09	8355.71
457.28	8564.02
457.46	8365.07
457.64	8402.52
457.83	8297.20
458.01	8133.36
458.19	8664.66
458.38	8503.17
458.56	8540.61
458.74	8540.61
458.93	8390.82
459.11	8517.21
459.29	8781.69
459.48	8545.30
459.66	8676.37
459.84	8917.44
460.03	8924.46
460.21	8734.88
460.39	8753.60
460.57	8662.32
460.76	8957.23
460.94	8872.97
461.12	8758.28
461.31	8997.02
461.49	9046.17
461.67	8877.65
461.85	9310.65
462.04	9067.24
462.22	9076.60
462.40	9193.62
462.59	9188.94
462.77	9338.74
462.95	9287.25
463.13	9151.49
463.32	9191.28
463.50	9439.38
463.68	9533.00
463.86	9228.73
464.05	9055.53
464.23	9165.54
464.41	9275.54
464.59	9156.18
464.78	9415.98
464.96	9373.85
465.14	9509.60
465.32	9685.14
465.50	9694.50
465.69	9530.66
465.87	9596.20
466.05	9390.23
466.23	9589.17
466.41	9481.51
466.60	9556.41
466.78	9570.45
466.96	9635.99
467.14	9582.15
467.32	9540.02
467.51	9645.35
467.69	9441.72
467.87	9727.27
468.05	10010.47
468.23	9614.92
468.41	9717.90
468.60	9839.61
468.78	9958.98
468.96	9991.75
469.14	9916.85
469.32	10279.63
469.50	9753.01
469.69	10104.09
469.87	10214.10
470.05	10211.76
470.23	9989.41
470.41	10108.77
470.59	10078.35
470.77	10164.95
470.95	10281.97
471.14	10527.73
471.32	10216.44
471.50	10476.24
471.68	10565.18
471.86	10525.39
472.04	10832.00
472.22	10916.26
472.40	10619.01
472.58	10717.31
472.77	10600.29
472.95	10780.51
473.13	11426.50
473.31	10874.13
473.49	10761.78
473.67	11035.63
473.85	11337.56
474.03	11309.47
474.21	11080.10
474.39	11501.39
474.57	11325.85
474.75	11433.52
474.93	11627.78
475.12	11470.97
475.30	11520.12
475.48	11651.19
475.66	11566.93
475.84	11386.71
476.02	11768.21
476.20	11882.90
476.38	12114.61
476.56	12287.81
476.74	12210.57
476.92	12222.28
477.10	12383.77
477.28	12594.42
477.46	12580.38
477.64	12643.57
477.82	13184.24
478.00	13081.25
478.18	12858.90
478.36	12933.80
478.54	13095.30
478.72	13137.43
478.90	13479.15
479.08	13453.40
479.26	13741.29
479.44	13331.69
479.62	13685.11
479.80	13664.05
479.98	14157.90
480.16	14094.71
480.34	13961.30
480.52	14328.76
480.70	14602.60
480.88	14012.79
481.06	14298.33
481.24	14553.45
481.41	14752.40
481.59	14897.51
481.77	14796.87
481.95	15105.82
482.13	15042.62
482.31	14820.27
482.49	15428.81
482.67	15571.58
482.85	15550.52
483.03	15580.95
483.21	15826.70
483.39	16121.61
483.57	15910.96
483.74	15868.83
483.92	16084.16
484.10	16046.71
484.28	16432.90
484.46	16720.79
484.64	16788.66
484.82	16451.63
485.00	16475.03
485.18	16704.40
485.35	16774.62
485.53	16421.20
485.71	16482.05
485.89	17041.44
486.07	17067.19
486.25	17151.45
486.43	17334.01
486.61	17481.46
486.78	17572.74
486.96	17994.04
487.14	18331.08
487.32	18324.05
487.50	18602.58
487.68	18551.09
487.85	18609.60
488.03	19133.88
488.21	19103.45
488.39	19051.96
488.57	19030.90
488.75	19239.20
488.92	19580.92
489.10	19845.40
489.28	20056.05
489.46	20016.26
489.64	20266.70
489.81	20610.76
489.99	20690.34
490.17	20636.50
490.35	21055.46
490.53	20844.81
490.70	20662.25
490.88	21083.55
491.06	21572.72
491.24	21254.40
491.41	21392.50
491.59	21586.76
491.77	21228.66
491.95	21731.87
492.13	21893.37
492.30	21965.93
492.48	22288.92
492.66	22183.60
492.84	22630.64
493.01	22665.75
493.19	22899.80
493.37	22885.76
493.54	22677.45
493.72	23459.19
493.90	23197.05
494.08	23527.06
494.25	23915.59
494.43	23761.12
494.61	24273.70
494.79	24236.25
494.96	24098.16
495.14	24114.54
495.32	23964.75
495.49	24517.11
495.67	24627.12
495.85	24533.50
496.02	25310.55
496.20	25252.04
496.38	24947.77
496.55	25287.15
496.73	25652.27
496.91	25558.65
497.09	25773.98
497.26	26099.31
497.44	26029.10
497.62	26073.57
497.79	26424.65
497.97	25827.81
498.14	26108.68
498.32	25928.45
498.50	26239.75
498.67	26834.24
498.85	26499.55
499.03	26787.43
499.20	27297.67
499.38	26892.76
499.56	27386.61
499.73	27569.17
499.91	27370.22
500.08	27587.89
500.26	26757.00
500.44	27475.55
500.61	27384.27
500.79	27367.88
500.97	27438.10
501.14	28100.47
501.32	27859.40
501.49	28149.62
501.67	27964.72
501.84	28264.31
502.02	28233.88
502.20	28568.58
502.37	28561.56
502.55	28133.24
502.72	29034.35
502.90	28851.78
503.07	28842.42
503.25	29010.94
503.43	28767.52
503.60	28130.90
503.78	29106.90
503.95	29020.30
504.13	28957.11
504.30	29448.62
504.48	29184.14
504.65	29481.39
504.83	29916.73
505.01	30136.74
505.18	29752.89
505.36	30382.49
505.53	30579.10
505.71	30834.22
505.88	30560.37
506.06	30059.50
506.23	30522.93
506.41	30738.26
506.58	30492.50
506.76	30445.69
506.93	30946.56
507.11	30742.94
507.28	30543.99
507.46	30937.20
507.63	31063.59
507.81	30787.41
507.98	31044.87
508.16	31311.69
508.33	31328.07
508.50	31976.40
508.68	31419.35
508.85	31864.05
509.03	31707.24
509.20	31955.33
509.38	31894.48
509.55	31995.12
509.73	31999.80
509.90	32364.93
510.08	32133.21
510.25	32301.73
510.42	32423.44
510.60	32467.91
510.77	32393.01
510.95	32886.87
511.12	32577.92
511.30	33315.19
511.47	33282.42
511.64	32870.48
511.82	33338.59
511.99	32971.13
512.17	33099.86
512.34	33542.22
512.51	33755.21
512.69	33397.10
512.86	33305.82
513.04	33710.74
513.21	33223.90
513.38	33621.80
513.56	33600.73
513.73	33560.94
513.90	34190.55
514.08	34007.98
514.25	34040.75
514.43	33944.79
514.60	34232.68
514.77	34185.86
514.95	34197.57
515.12	34618.86
515.29	34593.12
515.47	35098.67
515.64	34698.44
515.81	34660.99
515.99	34614.18
516.16	34644.61
516.33	34232.68
516.51	34593.12
516.68	33759.89
516.85	34113.31
517.03	34506.52
517.20	34546.31
517.37	35421.67
517.54	35398.26
517.72	35388.90
517.89	35091.65
518.06	34925.47
518.24	34913.77
518.41	34937.18
518.58	35365.49
518.75	35215.70
518.93	35957.65
519.10	35438.05
519.27	35714.23
519.45	35791.47
519.62	35868.71
519.79	36016.16
519.96	36100.42
520.14	36605.98
520.31	36547.47
520.48	36594.28
520.65	36177.66
520.83	36847.05
521.00	36730.03
521.17	36870.46
521.34	37095.15
521.52	36931.31
521.69	36954.72
521.86	37490.70
522.03	37226.22
522.20	37546.87
522.38	37867.53
522.55	37317.50
522.72	37240.26
522.89	37195.79
523.07	37212.18
523.24	37525.81
523.41	38078.18
523.58	37703.69
523.75	38506.49
523.92	38487.77
524.10	38368.40
524.27	37975.19
524.44	38466.70
524.61	38059.45
524.78	38534.58
524.96	38450.32
525.13	38824.81
525.30	38897.36
525.47	38986.30
525.64	38464.36
525.81	38810.76
525.98	38789.70
526.16	38291.16
526.33	38237.33
526.50	38162.43
526.67	37895.61
526.84	38335.63
527.01	38459.68
527.18	39086.95
527.36	39000.35
527.53	39124.40
527.70	39210.99
527.87	39297.59
528.04	39306.96
528.21	39178.23
528.38	39213.34
528.55	39370.15
528.72	39758.68
528.89	40018.48
529.07	40055.93
529.24	39594.84
529.41	39819.53
529.58	39559.73
529.75	39814.85
529.92	40116.78
530.09	39622.93
530.26	40554.46
530.43	40177.64
530.60	40383.60
530.77	40254.87
530.94	40594.25
531.11	40252.53
531.28	40095.72
531.46	40662.13
531.63	40617.66
531.80	40690.21
531.97	40133.17
532.14	40271.26
532.31	40048.91
532.48	40315.73
532.65	40727.66
532.82	40336.79
532.99	40727.66
533.16	40481.91
533.33	40968.74
533.50	41064.70
533.67	40938.31
533.84	40863.41
534.01	40811.92
534.18	40818.94
534.35	41858.14
534.52	40769.79
534.69	41289.39
534.86	41275.35
535.03	41532.81
535.20	41670.90
535.37	41968.15
535.54	41930.70
535.71	41710.69
535.88	42024.32
536.05	41698.98
536.22	41710.69
536.38	41881.55
536.55	41596.00
536.72	41521.10
536.89	41354.93
537.06	41347.90
537.23	42244.33
537.40	41846.44
537.57	42064.11
537.74	42405.83
537.91	42225.60
538.08	41841.76
538.25	41834.74
538.42	42019.64
538.59	42312.20
538.75	42298.16
538.92	41904.95
539.09	42667.97
539.26	42188.16
539.43	41930.70
539.60	42298.16
539.77	42295.82
539.94	42572.00
540.11	42309.86
540.28	42213.90
540.44	42590.73
540.61	42272.42
540.78	42394.12
540.95	42607.11
541.12	42312.20
541.29	42925.42
541.46	42738.18
541.62	42705.41
541.79	42967.55
541.96	42653.92
542.13	42880.95
542.30	43072.88
542.47	42967.55
542.63	42981.60
542.80	43014.37
542.97	43171.18
543.14	43447.36
543.31	43112.67
543.48	43545.67
543.64	44004.41
543.81	43550.35
543.98	43810.15
544.15	43548.01
544.32	43955.26
544.48	44458.48
544.65	43826.53
544.82	44285.28
544.99	43531.62
545.16	43906.11
545.32	43854.62
545.49	44369.54
545.66	44357.83
545.83	44385.92
546.00	44102.71
546.16	44135.48
546.33	43655.67
546.50	43985.69
546.67	44362.51
546.83	44191.65
547.00	43976.33
547.17	44105.06
547.34	44158.89
547.50	44463.16
547.67	44332.09
547.84	44383.58
548.00	44339.11
548.17	44680.83
548.34	44685.51
548.51	44589.55
548.67	44774.45
548.84	44575.50
549.01	44788.49
549.18	44531.03
549.34	44725.30
549.51	44891.48
549.68	44935.95
549.84	44638.70
550.01	45043.61
550.18	44659.76
550.34	44746.36
550.51	44568.48
550.68	44755.72
550.84	44556.78
551.01	44814.24
551.18	44992.12
551.34	45198.09
551.51	45158.30
551.68	45361.92
551.84	45567.89
552.01	45069.36
552.18	45209.79
552.34	44746.36
552.51	45338.52
552.68	44910.20
552.84	45453.20
553.01	45570.23
553.18	45134.89
553.34	45340.86
553.51	45052.97
553.67	45170.00
553.84	45563.21
554.01	45397.03
554.17	45598.32
554.34	45963.44
554.51	45673.21
554.67	46183.45
554.84	45436.82
555.00	45261.28
555.17	45460.23
555.33	45691.94
555.50	45640.45
555.67	45448.52
555.83	45600.66
556.00	45904.93
556.16	45914.29
556.33	45476.61
556.50	45457.88
556.66	46019.61
556.83	45825.35
556.99	45755.13
557.16	46092.17
557.32	45598.32
557.49	45958.76
557.65	45794.92
557.82	45420.44
557.98	45890.88
558.15	45867.48
558.32	45909.61
558.48	45626.40
558.65	46019.61
558.81	45675.55
558.98	45895.56
559.14	45684.92
559.31	45942.38
559.47	46073.45
559.64	45918.97
559.80	46340.27
559.97	46288.77
560.13	45970.46
560.30	45979.82
560.46	46450.27
560.63	46302.82
560.79	46518.15
560.96	47082.22
561.12	46293.46
561.29	46473.68
561.45	46110.89
561.61	46483.04
561.78	46422.19
561.94	45682.58
562.11	46267.71
562.27	46567.30
562.44	46164.73
562.60	46550.91
562.77	46330.90
562.93	46539.21
563.10	46438.57
563.26	46169.41
563.42	46471.34
563.59	45940.04
563.75	46232.60
563.92	46469.00
564.08	46794.33
564.24	46508.79
564.41	46387.08
564.57	46653.90
564.74	46506.44
564.90	46323.88
565.07	46550.91
565.23	46557.94
565.39	46237.28
565.56	46693.69
565.72	46426.87
565.88	46469.00
566.05	46164.73
566.21	46459.63
566.38	46443.25
566.54	46586.02
566.70	47070.51
566.87	47096.26
567.03	46808.37
567.19	47388.83
567.36	46424.53
567.52	46178.77
567.68	46756.88
567.85	46597.73
568.01	46745.18
568.17	46707.73
568.34	46447.93
568.50	46464.32
568.66	46607.09
568.83	46309.84
568.99	46131.96
569.15	46562.62
569.32	46564.96
569.48	46021.95
569.64	46885.61
569.81	47072.85
569.97	46586.02
570.13	46969.87
570.30	46473.68
570.46	46277.07
570.62	46480.70
570.78	46417.50
570.95	46169.41
571.11	46925.40
571.27	46890.29
571.43	46817.74
571.60	46639.86
571.76	46529.85
571.92	46827.10
572.09	46548.57
572.25	47049.45
572.41	46389.42
572.57	46897.31
572.74	47182.86
572.90	47178.18
573.06	46873.91
573.22	46740.50
573.38	46951.15
573.55	46838.80
573.71	47047.11
573.87	46986.25
574.03	46387.08
574.20	46635.17
574.36	46997.96
574.52	46579.00
574.68	46693.69
574.84	46595.38
575.01	46822.42
575.17	46614.11
575.33	46459.63
575.49	46829.44
575.65	46274.73
575.82	46763.90
575.98	46897.31
576.14	47103.28
576.30	47026.04
576.46	46674.96
576.62	46834.12
576.79	46674.96
576.95	46902.00
577.11	46848.16
577.27	46653.90
577.43	46712.41
577.59	47133.71
577.75	46483.04
577.92	46169.41
578.08	46096.85
578.24	46604.75
578.40	46541.55
578.56	46244.30
578.72	46663.26
578.88	47049.45
579.04	47084.56
579.21	46824.76
579.37	46817.74
579.53	46745.18
579.69	46820.08
579.85	46658.58
580.01	47161.79
580.17	46993.28
580.33	47000.30
580.49	47536.28
580.65	46749.86
580.82	46756.88
580.98	47084.56
581.14	46815.40
581.30	47161.79
581.46	47313.93
581.62	46953.49
581.78	46981.57
581.94	47232.01
582.10	47023.70
582.26	47063.49
582.42	46958.17
582.58	46777.95
582.74	46927.74
582.90	47014.34
583.06	47313.93
583.22	47084.56
583.38	47437.98
583.54	46878.59
583.70	46864.55
583.86	47264.78
584.02	46787.31
584.18	46834.12
584.34	47386.49
584.50	46965.19
584.66	47021.36
584.82	47119.66
584.98	47419.25
585.14	47082.22
585.30	46810.71
585.46	47306.91
585.62	46368.35
585.78	46726.46
585.94	46368.35
586.10	46862.21
586.26	47009.66
586.42	46850.50
586.58	47047.11
586.74	47213.29
586.90	46883.27
587.06	46838.80
587.22	46981.57
587.38	46649.22
587.54	47510.53
587.70	46838.80
587.86	47107.96
588.02	46646.88
588.18	47077.54
588.34	46679.64
588.49	46211.54
588.65	46361.33
588.81	46185.79
588.97	46679.64
589.13	46412.82
589.29	46571.98
589.45	46656.24
589.61	46653.90
589.77	47114.98
589.93	46824.76
