SpectraSuite Data File
++++++++++++++++++++++++++++++++++++
Date: Fri Oct 25 10:43:44 EDT 2013
User: price-jones
Dark Spectrum Present: No
Reference Spectrum Present: No
Number of Sampled Component Spectra: 1
Spectrometers: USB2+H05261
Integration Time (usec): 100000 (USB2+H05261)
Spectra Averaged: 1 (USB2+H05261)
Boxcar Smoothing: 0 (USB2+H05261)
Correct for Electrical Dark: No (USB2+H05261)
Strobe/Lamp Enabled: No (USB2+H05261)
Correct for Detector Non-linearity: No (USB2+H05261)
Correct for Stray Light: No (USB2+H05261)
Number of Pixels in Processed Spectrum: 2048
>>>>>Begin Processed Spectral Data<<<<<
365.73	112.35
365.92	112.35
366.12	112.35
366.32	112.35
366.52	65.54
366.72	93.62
366.91	49.15
367.11	0.00
367.31	77.24
367.51	39.79
367.70	0.00
367.90	0.00
368.10	39.79
368.30	60.85
368.49	74.90
368.69	30.43
368.89	0.00
369.09	51.49
369.28	39.79
369.48	79.58
369.68	88.94
369.87	135.75
370.07	100.64
370.27	124.05
370.47	220.01
370.66	400.23
370.86	393.21
371.06	498.53
371.25	498.53
371.45	468.11
371.65	514.92
371.84	440.02
372.04	440.02
372.24	498.53
372.44	514.92
372.63	496.19
372.83	561.73
373.03	500.87
373.22	449.38
373.42	531.30
373.62	599.18
373.81	592.16
374.01	592.16
374.21	524.28
374.40	580.45
374.60	514.92
374.79	557.05
374.99	571.09
375.19	564.07
375.38	608.54
375.58	601.52
375.78	575.77
375.97	568.75
376.17	634.29
376.37	524.28
376.56	603.86
376.76	564.07
376.95	624.92
377.15	617.90
377.35	627.26
377.54	613.22
377.74	533.64
377.93	648.33
378.13	690.46
378.33	695.14
378.52	660.03
378.72	624.92
378.91	716.20
379.11	580.45
379.31	582.79
379.50	629.60
379.70	657.69
379.89	645.99
380.09	660.03
380.28	711.52
380.48	650.67
380.68	704.50
380.87	685.78
381.07	695.14
381.26	746.63
381.46	702.16
381.65	641.31
381.85	767.70
382.04	755.99
382.24	777.06
382.43	770.04
382.63	711.52
382.83	732.59
383.02	662.37
383.22	770.04
383.41	751.31
383.61	732.59
383.80	753.65
384.00	709.18
384.19	741.95
384.39	711.52
384.58	814.51
384.78	884.72
384.97	926.85
385.17	732.59
385.36	772.38
385.56	861.32
385.75	737.27
385.95	653.01
386.14	791.10
386.34	950.26
386.53	823.87
386.72	784.08
386.92	837.91
387.11	926.85
387.31	929.19
387.50	851.96
387.70	905.79
387.89	826.21
388.09	929.19
388.28	835.57
388.48	854.30
388.67	1050.90
388.86	964.30
389.06	924.51
389.25	950.26
389.45	1018.13
389.64	1027.50
389.84	968.98
390.03	940.90
390.22	994.73
390.42	961.96
390.61	938.55
390.81	1027.50
391.00	966.64
391.19	997.07
391.39	1057.92
391.58	1069.62
391.78	1029.84
391.97	1018.13
392.16	1043.88
392.36	1039.20
392.55	1018.13
392.75	1004.09
392.94	889.40
393.13	1008.77
393.33	940.90
393.52	915.15
393.71	1004.09
393.91	1006.43
394.10	1146.86
394.29	1163.25
394.49	1151.54
394.68	1203.04
394.88	1142.18
395.07	1200.69
395.26	1121.12
395.46	1193.67
395.65	1252.19
395.84	1210.06
396.04	1219.42
396.23	1188.99
396.42	1139.84
396.62	1179.63
396.81	1156.22
397.00	1160.91
397.19	1219.42
397.39	1284.95
397.58	1355.17
397.77	1453.47
397.97	1399.64
398.16	1481.56
398.35	1423.05
398.55	1526.03
398.74	1465.18
398.93	1561.14
399.12	1416.02
399.32	1481.56
399.51	1490.92
399.70	1483.90
399.90	1619.65
400.09	1586.88
400.28	1540.07
400.47	1607.95
400.67	1636.03
400.86	1643.06
401.05	1760.08
401.24	1577.52
401.44	1657.10
401.63	1668.80
401.82	1703.91
402.01	1675.82
402.21	1750.72
402.40	1741.36
402.59	1778.81
402.78	1710.93
402.97	1790.51
403.17	1774.13
403.36	1806.89
403.55	1767.10
403.74	1842.00
403.93	1886.47
404.13	1853.70
404.32	1916.90
404.51	1900.52
404.70	1884.13
404.89	1816.26
405.09	1996.48
405.28	1902.86
405.47	1991.80
405.66	1984.77
405.85	2003.50
406.05	1963.71
406.24	1954.35
406.43	2059.67
406.62	2010.52
406.81	2118.18
407.00	1984.77
407.20	2012.86
407.39	2033.93
407.58	2099.46
407.77	2132.23
407.96	2218.83
408.15	2146.27
408.34	2211.81
408.54	2331.17
408.73	2303.09
408.92	2251.60
409.11	2352.24
409.30	2347.56
409.49	2214.15
409.68	2087.76
409.87	2305.43
410.07	2307.77
410.26	2275.00
410.45	2347.56
410.64	2314.79
410.83	2499.69
411.02	2401.39
411.21	2539.48
411.40	2476.29
411.59	2612.04
411.78	2619.06
411.98	2628.42
412.17	2569.91
412.36	2740.77
412.55	2672.89
412.74	2773.53
412.93	2771.19
413.12	2675.23
413.31	2846.09
413.50	2780.56
413.69	2815.66
413.88	2778.22
414.07	2862.48
414.26	2834.39
414.45	2832.05
414.64	2913.97
414.83	2972.48
415.02	2998.23
415.22	3117.59
415.41	3089.51
415.60	3049.72
415.79	3171.43
415.98	3243.98
416.17	3183.13
416.36	3248.66
416.55	3236.96
416.74	3138.66
416.93	3176.11
417.12	3225.26
417.31	3152.70
417.50	3328.24
417.69	3307.18
417.88	3372.71
418.07	3407.82
418.26	3403.14
418.45	3494.42
418.64	3513.14
418.83	3552.93
419.02	3576.34
419.21	3515.48
419.39	3728.47
419.58	3489.74
419.77	3447.61
419.96	3597.40
420.15	3728.47
420.34	3655.92
420.53	3744.86
420.72	3824.44
420.91	3735.50
421.10	3761.24
421.29	3911.04
421.48	3712.09
421.67	3765.92
421.86	3606.77
422.05	3712.09
422.24	3698.05
422.43	3822.09
422.61	3854.86
422.80	3838.48
422.99	3894.65
423.18	3817.41
423.37	3911.04
423.56	3969.55
423.75	3969.55
423.94	3840.82
424.13	3454.63
424.32	3679.32
424.50	3913.38
424.69	3969.55
424.88	3932.10
425.07	3798.69
425.26	3791.67
425.45	3784.65
425.64	3763.58
425.83	3925.08
426.01	3918.06
426.20	4023.38
426.39	3981.25
426.58	3904.01
426.77	3822.09
426.96	3946.14
427.15	3904.01
427.33	3892.31
427.52	4004.66
427.71	4095.94
427.90	4135.73
428.09	4067.85
428.28	4238.71
428.46	4187.22
428.65	4234.03
428.84	4271.48
429.03	4304.25
429.22	3918.06
429.40	4173.18
429.59	3983.59
429.78	3932.10
429.97	3941.46
430.16	4009.34
430.34	4086.58
430.53	4079.55
430.72	4142.75
430.91	4257.43
431.10	4301.90
431.28	4423.61
431.47	4531.28
431.66	4479.79
431.85	4437.66
432.03	4594.47
432.22	4540.64
432.41	4608.51
432.60	4458.72
432.79	4648.30
432.97	4774.69
433.16	4795.76
433.35	4472.76
433.54	4631.92
433.72	4660.01
433.91	4760.65
434.10	4627.24
434.28	4685.75
434.47	4849.59
434.66	4800.44
434.85	4858.95
435.03	4884.70
435.22	4896.40
435.41	5032.15
435.59	4854.27
435.78	5048.54
435.97	5004.07
436.16	5074.28
436.34	5083.64
436.53	5107.05
436.72	5256.84
436.90	5043.85
437.09	5242.80
437.28	4968.96
437.46	5186.63
437.65	5207.69
437.84	5139.82
438.02	5071.94
438.21	5160.88
438.40	5090.67
438.58	5324.72
438.77	5397.28
438.96	5240.46
439.14	5591.54
439.33	5509.62
439.52	5612.60
439.70	5528.35
439.89	5680.48
440.08	5689.84
440.26	5673.46
440.45	5612.60
440.63	5746.02
440.82	5853.68
441.01	5804.53
441.19	5856.02
441.38	6157.95
441.57	5919.21
441.75	6108.80
441.94	6085.39
442.12	6244.55
442.31	6209.44
442.50	6373.28
442.68	6263.27
442.87	6190.72
443.05	6209.44
443.24	6424.77
443.43	6291.36
443.61	6312.42
443.80	6436.47
443.98	6118.16
444.17	6120.50
444.35	6333.49
444.54	6534.78
444.73	6462.22
444.91	6352.21
445.10	6363.92
445.28	6403.71
445.47	6331.15
445.65	6368.60
445.84	6576.91
446.02	6427.11
446.21	6375.62
446.39	6445.84
446.58	6490.31
446.77	6607.33
446.95	6487.96
447.14	6612.01
447.32	6499.67
447.51	6626.06
447.69	6642.44
447.88	6436.47
448.06	6626.06
448.25	6483.28
448.43	6803.94
448.62	6593.29
448.80	6525.41
448.99	6796.92
449.17	6752.45
449.36	6726.70
449.54	6913.94
449.73	6944.37
449.91	7042.67
450.10	7143.32
450.28	7166.72
450.46	7101.19
450.65	7171.40
450.83	7150.34
451.02	7023.95
451.20	7023.95
451.39	7049.69
451.57	7108.21
451.76	7283.75
451.94	7239.28
452.13	7021.61
452.31	7091.82
452.49	7033.31
452.68	7225.23
452.86	7178.42
453.05	7227.57
453.23	7112.89
453.42	7276.73
453.60	7169.06
453.78	7396.09
453.97	7508.44
454.15	7304.81
454.34	7414.82
454.52	7417.16
454.70	7351.62
454.89	7552.91
455.07	7529.50
455.26	7506.10
455.44	7672.28
455.62	7616.10
455.81	7756.54
455.99	7819.73
456.17	7665.25
456.36	7850.16
456.54	7903.99
456.73	7714.41
456.91	8135.70
457.09	8006.97
457.28	8112.30
457.46	7885.26
457.64	8152.09
457.83	7967.18
458.01	7915.69
458.19	8102.93
458.38	7805.69
458.56	8107.62
458.74	8138.04
458.93	8215.28
459.11	8283.16
459.29	8210.60
459.48	8332.31
459.66	8109.96
459.84	8496.14
460.03	8484.44
460.21	8451.67
460.39	8390.82
460.57	8615.51
460.76	8416.57
460.94	8730.20
461.12	8461.04
461.31	8362.73
461.49	8521.89
461.67	8650.62
461.85	8777.01
462.04	8580.40
462.22	9186.60
462.40	8690.41
462.59	8727.86
462.77	8746.58
462.95	8828.50
463.13	8741.90
463.32	8671.68
463.50	8755.94
463.68	8877.65
463.86	8905.74
464.05	8905.74
464.23	8910.42
464.41	8847.22
464.59	8788.71
464.78	9179.58
464.96	8938.51
465.14	8985.32
465.32	9167.88
465.50	9167.88
465.69	9369.16
465.87	9158.52
466.05	9181.92
466.23	9025.11
466.41	9046.17
466.60	9282.56
466.78	9233.41
466.96	9317.67
467.14	9198.31
467.32	9123.41
467.51	9453.42
467.69	9078.94
467.87	9305.97
468.05	9341.08
468.23	9322.35
468.41	9312.99
468.60	9479.17
468.78	9507.26
468.96	9647.69
469.14	9575.13
469.32	9600.88
469.50	9305.97
469.69	9549.39
469.87	9710.88
470.05	9893.44
470.23	9577.47
470.41	9706.20
470.59	9816.21
470.77	9820.89
470.95	10094.73
471.14	10155.58
471.32	9715.56
471.50	10080.69
471.68	10246.87
471.86	10347.51
472.04	10094.73
472.22	10647.10
472.40	10162.61
472.58	10202.40
472.77	10427.09
472.95	10232.82
473.13	10590.92
473.31	10267.93
473.49	10501.98
473.67	10579.22
473.85	10581.56
474.03	10672.84
474.21	11063.71
474.39	11138.61
474.57	10979.45
474.75	10977.11
474.93	11166.70
475.12	10817.96
475.30	11183.08
475.48	11033.29
475.66	11169.04
475.84	11377.34
476.02	11449.90
476.20	11178.40
476.38	11545.86
476.56	11721.40
476.74	11903.96
476.92	11714.38
477.10	11688.64
477.28	11871.20
477.46	12016.31
477.64	12063.12
477.82	12140.36
478.00	12367.39
478.18	12512.50
478.36	12299.52
478.54	12798.05
478.72	12573.36
478.90	12704.43
479.08	12940.82
479.26	13114.02
479.44	12931.46
479.62	13142.11
479.80	13099.98
479.98	13296.58
480.16	13664.05
480.34	13301.26
480.52	13736.60
480.70	13528.30
480.88	13434.68
481.06	13877.04
481.24	13888.74
481.41	13823.20
481.59	14459.83
481.77	14167.26
481.95	14319.40
482.13	14614.30
482.31	14443.45
482.49	14991.13
482.67	14794.53
482.85	14918.57
483.03	15047.30
483.21	15075.39
483.39	14963.04
483.57	15250.93
483.74	15358.60
483.92	15288.38
484.10	15407.75
484.28	15878.19
484.46	15971.82
484.64	16325.24
484.82	15716.70
485.00	16053.73
485.18	16285.45
485.35	16306.51
485.53	16208.21
485.71	16079.48
485.89	16430.56
486.07	16287.79
486.25	16430.56
486.43	16917.39
486.61	16725.47
486.78	17174.85
486.96	17214.64
487.14	17493.16
487.32	17582.10
487.50	17738.92
487.68	18029.15
487.85	18185.96
488.03	18246.82
488.21	18295.97
488.39	18256.18
488.57	18361.50
488.75	18424.70
488.92	18523.00
489.10	19264.95
489.28	18939.62
489.46	19468.58
489.64	19470.92
489.81	20074.77
489.99	19920.30
490.17	20156.69
490.35	20175.42
490.53	19941.36
490.70	20386.07
490.88	20086.48
491.06	20360.32
491.24	20561.61
491.41	20585.01
491.59	20755.87
491.77	20297.13
491.95	21041.42
492.13	21235.68
492.30	21305.90
492.48	21415.90
492.66	21528.25
492.84	21912.10
493.01	21708.47
493.19	21645.27
493.37	21958.91
493.54	22188.28
493.72	22260.84
493.90	22284.24
494.08	22775.75
494.25	23119.81
494.43	22710.22
494.61	22883.42
494.79	23033.21
494.96	23374.93
495.14	23061.30
495.32	23536.43
495.49	23484.94
495.67	23555.15
495.85	24030.28
496.02	24018.58
496.20	24247.95
496.38	23747.08
496.55	24156.67
496.73	24971.18
496.91	24690.31
497.09	24790.95
497.26	24793.29
497.44	25085.86
497.62	25104.59
497.79	25060.12
497.97	24610.73
498.14	25074.16
498.32	25453.33
498.50	25523.54
498.67	25778.66
498.85	25678.02
499.03	25874.62
499.20	25947.18
499.38	26054.84
499.56	26202.30
499.73	25848.88
499.91	26733.60
500.08	26684.45
500.26	26438.69
500.44	26492.52
500.61	26476.14
500.79	26546.36
500.97	26771.05
501.14	26766.37
501.32	26810.84
501.49	26693.81
501.67	26897.44
501.84	27159.58
502.02	27072.98
502.20	27082.34
502.37	27725.99
502.55	27349.16
502.72	27798.54
502.90	27793.86
503.07	27730.67
503.25	27515.34
503.43	27927.27
503.60	27878.12
503.78	27798.54
503.95	28018.55
504.13	28343.89
504.30	28404.74
504.48	28369.63
504.65	28519.43
504.83	28830.72
505.01	28907.96
505.18	28957.11
505.36	29092.86
505.53	29067.11
505.71	29205.20
505.88	29570.33
506.06	29284.78
506.23	29532.88
506.41	29270.74
506.58	29357.34
506.76	29546.92
506.93	29450.96
507.11	29816.08
507.28	29771.61
507.46	29614.80
507.63	29780.98
507.81	30113.33
507.98	29701.40
508.16	30075.88
508.33	30146.10
508.50	30450.37
508.68	30979.33
508.85	30857.62
509.03	30614.21
509.20	30499.52
509.38	30558.03
509.55	31007.42
509.73	30890.39
509.90	30988.69
510.08	30918.48
510.25	31012.10
510.42	31503.61
510.60	31711.92
510.77	31641.70
510.95	31599.57
511.12	31232.11
511.30	31850.01
511.47	32182.37
511.64	31782.13
511.82	32023.21
511.99	31941.29
512.17	31805.54
512.34	31786.82
512.51	32065.34
512.69	32563.87
512.86	32601.32
513.04	32758.14
513.21	32507.70
513.38	32460.89
513.56	32694.94
513.73	32170.66
513.90	32723.03
514.08	32697.28
514.25	32851.76
514.43	33104.54
514.60	32879.85
514.77	33387.74
514.95	33113.90
515.12	33350.29
515.29	33441.57
515.47	33792.65
515.64	33598.39
515.81	33343.27
515.99	33486.04
516.16	33472.00
516.33	33240.29
516.51	33350.29
516.68	33085.81
516.85	32996.87
517.03	33200.50
517.20	33525.83
517.37	34181.18
517.54	34033.73
517.72	33979.90
517.89	33900.32
518.06	33603.07
518.24	33755.21
518.41	33841.81
518.58	33916.70
518.75	34188.21
518.93	34576.73
519.10	34635.25
519.27	35042.50
519.45	34813.13
519.62	35133.78
519.79	34616.52
519.96	35037.82
520.14	35283.58
520.31	34670.36
520.48	34993.35
520.65	35283.58
520.83	35288.26
521.00	35501.25
521.17	35861.69
521.34	35866.37
521.52	35756.36
521.69	35887.43
521.86	36084.04
522.03	35599.55
522.20	35812.54
522.38	36392.99
522.55	36371.92
522.72	36205.75
522.89	36072.34
523.07	36268.94
523.24	36500.65
523.41	36336.82
523.58	36650.45
523.75	37319.84
523.92	36856.42
524.10	37132.60
524.27	36870.46
524.44	37439.21
524.61	36734.71
524.78	37340.91
524.96	37261.33
525.13	37251.97
525.30	37867.53
525.47	37720.07
525.64	37003.87
525.81	37139.62
525.98	37249.63
526.16	37132.60
526.33	36992.17
526.50	36818.97
526.67	36996.85
526.84	36601.30
527.01	37284.73
527.18	37589.00
527.36	37628.79
527.53	38375.42
527.70	38249.03
527.87	38157.75
528.04	37900.29
528.21	38218.61
528.38	38260.74
528.55	38244.35
528.72	38258.40
528.89	38892.68
529.07	38602.46
529.24	38546.28
529.41	38782.68
529.58	38288.82
529.75	38726.50
529.92	38965.24
530.09	38712.46
530.26	39086.95
530.43	38778.00
530.60	38927.79
530.77	38899.70
530.94	39185.25
531.11	38990.98
531.28	38916.09
531.46	39051.84
531.63	38775.66
531.80	39028.43
531.97	39117.37
532.14	39564.42
532.31	38871.62
532.48	39267.17
532.65	39199.29
532.82	39227.38
532.99	39470.79
533.16	39100.99
533.33	39856.98
533.50	39959.97
533.67	39236.74
533.84	39653.36
534.01	39763.36
534.18	39744.64
534.35	40236.15
534.52	39721.23
534.69	39873.37
534.86	40238.49
535.03	40273.60
535.20	40107.42
535.37	40315.73
535.54	40517.01
535.71	40727.66
535.88	40528.72
536.05	40163.59
536.22	40650.42
536.38	40652.76
536.55	40624.68
536.72	40392.97
536.89	40341.47
537.06	40233.81
537.23	40811.92
537.40	40531.06
537.57	40931.29
537.74	40933.63
537.91	41219.17
538.08	40664.47
538.25	40753.41
538.42	41064.70
538.59	40917.25
538.75	40638.72
538.92	41312.80
539.09	40987.46
539.26	41088.10
539.43	41123.21
539.60	41188.75
539.77	41045.97
539.94	41097.47
540.11	40793.20
540.28	41467.27
540.44	41373.65
540.61	41207.47
540.78	41277.69
540.95	41628.77
541.12	41357.27
541.29	41661.54
541.46	41397.06
541.62	42092.19
541.79	42050.06
541.96	41373.65
542.13	41329.18
542.30	41476.63
542.47	41572.60
542.63	41359.61
542.80	41558.55
542.97	42380.08
543.14	42274.76
543.31	41902.61
543.48	41916.65
543.64	42223.26
543.81	42274.76
543.98	42579.03
544.15	42298.16
544.32	42504.13
544.48	42988.62
544.65	42951.17
544.82	42768.61
544.99	42277.10
545.16	42775.63
545.32	42806.06
545.49	43302.25
545.66	43290.55
545.83	43445.02
546.00	42674.99
546.16	42625.84
546.33	42763.93
546.50	42515.83
546.67	43007.34
546.83	42820.10
547.00	42749.88
547.17	42649.24
547.34	43119.69
547.50	43129.05
547.67	43484.81
547.84	43136.07
548.00	43239.06
548.17	43501.20
548.34	43931.86
548.51	43526.94
548.67	43494.18
548.84	43428.64
549.01	43330.34
549.18	43466.09
549.34	43601.84
549.51	43887.39
549.68	43847.60
549.84	43711.84
550.01	43948.24
550.18	42890.32
550.34	44039.52
550.51	43622.90
550.68	44086.33
550.84	43201.61
551.01	43948.24
551.18	43777.38
551.34	44002.07
551.51	43786.74
551.68	44191.65
551.84	44053.56
552.01	43510.56
552.18	44105.06
552.34	44016.11
552.51	44306.34
552.68	44034.84
552.84	44205.70
553.01	43868.66
553.18	43924.83
553.34	43938.88
553.51	43772.70
553.67	44079.31
553.84	44584.86
554.01	44170.59
554.17	44451.45
554.34	44538.05
554.51	44659.76
554.67	44573.16
554.84	44634.02
555.00	43971.64
555.17	44247.83
555.33	44591.89
555.50	44662.10
555.67	44320.38
555.83	44013.77
556.00	44336.77
556.16	44629.34
556.33	44643.38
556.50	44631.68
556.66	44505.29
556.83	44837.64
556.99	44676.15
557.16	44561.46
557.32	45052.97
557.49	45230.85
557.65	44849.35
557.82	45097.44
557.98	45256.60
558.15	44612.95
558.32	45343.20
558.48	44549.76
558.65	44570.82
558.81	44488.90
558.98	44722.96
559.14	44802.53
559.31	44744.02
559.47	44727.64
559.64	45097.44
559.80	44982.76
559.97	45326.81
560.13	45216.81
560.30	44917.22
560.46	45029.57
560.63	45511.72
560.79	45844.07
560.96	45429.80
561.12	45092.76
561.29	45097.44
561.45	45050.63
561.61	44711.25
561.78	45071.70
561.94	45048.29
562.11	45151.27
562.27	45111.49
562.44	44896.16
562.60	45219.15
562.77	45123.19
562.93	45497.67
563.10	45226.17
563.26	45235.53
563.42	45305.75
563.59	45373.63
563.75	45076.38
563.92	45652.15
564.08	45705.98
564.24	45244.90
564.41	45191.06
564.57	45226.17
564.74	45228.51
564.90	45364.26
565.07	45542.14
565.23	45453.20
565.39	45179.36
565.56	45652.15
565.72	44814.24
565.88	45904.93
566.05	45184.04
566.21	44959.35
566.38	45642.79
566.54	45605.34
566.70	45766.84
566.87	45722.37
567.03	45895.56
567.19	45750.45
567.36	45811.31
567.52	44935.95
567.68	45485.97
567.85	45684.92
568.01	45474.27
568.17	45312.77
568.34	45895.56
568.50	45717.68
568.66	45748.11
568.83	45673.21
568.99	45720.02
569.15	45642.79
569.32	45675.55
569.48	45429.80
569.64	46057.06
569.81	45525.76
569.97	45881.52
570.13	45649.81
570.30	45378.31
570.46	45392.35
570.62	45340.86
570.78	45497.67
570.95	45324.47
571.11	45544.48
571.27	45298.73
571.43	45457.88
571.60	45317.45
571.76	45422.78
571.92	45661.51
572.09	45727.05
572.25	45661.51
572.41	45687.26
572.57	46157.70
572.74	45982.16
572.90	45830.03
573.06	45703.64
573.22	45476.61
573.38	46038.34
573.55	45911.95
573.71	46272.39
573.87	45764.49
574.03	46122.60
574.20	45928.33
574.36	46043.02
574.52	45605.34
574.68	45413.41
574.84	45514.06
575.01	45617.04
575.17	45439.16
575.33	45715.34
575.49	45811.31
575.65	46188.13
575.82	46050.04
575.98	45734.07
576.14	45918.97
576.30	45743.43
576.46	45558.53
576.62	45881.52
576.79	45848.75
576.95	45090.42
577.11	45759.81
577.27	45766.84
577.43	45336.18
577.59	45818.33
577.75	45652.15
577.92	45343.20
578.08	45523.42
578.24	45338.52
578.40	45467.25
578.56	46211.54
578.72	45680.24
578.88	46199.83
579.04	45975.14
579.21	45368.94
579.37	45783.22
579.53	46340.27
579.69	45205.11
579.85	45808.96
580.01	45923.65
580.17	45481.29
580.33	45858.12
580.49	45621.72
580.65	45741.09
580.82	46265.37
580.98	45502.35
581.14	45837.05
581.30	45947.06
581.46	45801.94
581.62	46038.34
581.78	45574.91
581.94	46422.19
582.10	45727.05
582.26	46101.53
582.42	46131.96
582.58	46017.27
582.74	46036.00
582.90	46014.93
583.06	45876.84
583.22	46021.95
583.38	46298.14
583.54	46300.48
583.70	45918.97
583.86	45752.79
584.02	45989.19
584.18	46328.56
584.34	46103.87
584.50	45841.73
584.66	45490.65
584.82	45638.11
584.98	45734.07
585.14	46047.70
585.30	46134.30
585.46	46106.21
585.62	45565.55
585.78	45565.55
585.94	45605.34
586.10	45738.75
586.26	45888.54
586.42	46223.24
586.58	46169.41
586.74	46036.00
586.90	45794.92
587.06	45881.52
587.22	46127.28
587.38	45673.21
587.54	46045.36
587.70	46401.12
587.86	46188.13
588.02	45698.96
588.18	46038.34
588.34	45998.55
588.49	45275.32
588.65	45015.52
588.81	45282.34
588.97	45614.70
589.13	45682.58
589.29	45886.20
589.45	45661.51
589.61	45783.22
589.77	46012.59
589.93	46017.27
