SpectraSuite Data File
++++++++++++++++++++++++++++++++++++
Date: Fri Oct 25 10:43:35 EDT 2013
User: price-jones
Dark Spectrum Present: No
Reference Spectrum Present: No
Number of Sampled Component Spectra: 1
Spectrometers: USB2+H05261
Integration Time (usec): 100000 (USB2+H05261)
Spectra Averaged: 1 (USB2+H05261)
Boxcar Smoothing: 0 (USB2+H05261)
Correct for Electrical Dark: No (USB2+H05261)
Strobe/Lamp Enabled: No (USB2+H05261)
Correct for Detector Non-linearity: No (USB2+H05261)
Correct for Stray Light: No (USB2+H05261)
Number of Pixels in Processed Spectrum: 2048
>>>>>Begin Processed Spectral Data<<<<<
365.73	154.48
365.92	154.48
366.12	154.48
366.32	9.36
366.52	28.09
366.72	0.00
366.91	14.04
367.11	65.54
367.31	18.72
367.51	2.34
367.70	0.00
367.90	67.88
368.10	44.47
368.30	14.04
368.49	0.00
368.69	51.49
368.89	39.79
369.09	25.75
369.28	79.58
369.48	0.00
369.68	37.45
369.87	86.60
370.07	135.75
370.27	180.22
370.47	196.60
370.66	306.61
370.86	468.11
371.06	414.27
371.25	552.37
371.45	402.57
371.65	526.62
371.84	554.71
372.04	528.96
372.24	526.62
372.44	447.04
372.63	575.77
372.83	526.62
373.03	423.64
373.22	486.83
373.42	550.03
373.62	493.85
373.81	484.49
374.01	561.73
374.21	622.58
374.40	557.05
374.60	519.60
374.79	578.11
374.99	594.50
375.19	552.37
375.38	568.75
375.58	554.71
375.78	580.45
375.97	594.50
376.17	711.52
376.37	582.79
376.56	535.98
376.76	613.22
376.95	589.82
377.15	606.20
377.35	629.60
377.54	634.29
377.74	662.37
377.93	585.13
378.13	678.76
378.33	723.23
378.52	720.88
378.72	732.59
378.91	690.46
379.11	671.73
379.31	622.58
379.50	603.86
379.70	697.48
379.89	732.59
380.09	711.52
380.28	650.67
380.48	730.25
380.68	683.44
380.87	730.25
381.07	734.93
381.26	697.48
381.46	699.82
381.65	751.31
381.85	737.27
382.04	741.95
382.24	676.41
382.43	678.76
382.63	786.42
382.83	599.18
383.02	770.04
383.22	739.61
383.41	650.67
383.61	732.59
383.80	739.61
384.00	793.44
384.19	835.57
384.39	830.89
384.58	833.23
384.78	800.46
384.97	870.68
385.17	854.30
385.36	800.46
385.56	828.55
385.75	791.10
385.95	863.66
386.14	868.34
386.34	870.68
386.53	861.32
386.72	887.06
386.92	868.34
387.11	873.02
387.31	875.36
387.50	835.57
387.70	868.34
387.89	851.96
388.09	973.66
388.28	896.43
388.48	964.30
388.67	896.43
388.86	959.62
389.06	971.32
389.25	1043.88
389.45	936.21
389.64	1008.77
389.84	1008.77
390.03	1034.52
390.22	1053.24
390.42	1034.52
390.61	987.71
390.81	1060.26
391.00	1032.18
391.19	1083.67
391.39	1053.24
391.58	1022.81
391.78	1090.69
391.97	1100.05
392.16	1114.10
392.36	1011.11
392.55	1060.26
392.75	1006.43
392.94	1011.11
393.13	1001.75
393.33	1053.24
393.52	1032.18
393.71	1118.78
393.91	1102.39
394.10	1121.12
394.29	1235.80
394.49	1172.61
394.68	1252.19
394.88	1249.85
395.07	1263.89
395.26	1259.21
395.46	1191.33
395.65	1256.87
395.84	1287.29
396.04	1308.36
396.23	1100.05
396.42	1200.69
396.62	1191.33
396.81	1249.85
397.00	1186.65
397.19	1296.66
397.39	1366.87
397.58	1523.69
397.77	1437.09
397.97	1488.58
398.16	1460.49
398.35	1446.45
398.55	1451.13
398.74	1542.41
398.93	1631.35
399.12	1497.94
399.32	1626.67
399.51	1589.22
399.70	1631.35
399.90	1605.61
400.09	1589.22
400.28	1671.14
400.47	1593.90
400.67	1720.29
400.86	1682.85
401.05	1624.33
401.24	1685.19
401.44	1724.97
401.63	1860.73
401.82	1666.46
402.01	1631.35
402.21	1846.68
402.40	1820.94
402.59	1797.53
402.78	1776.47
402.97	1727.32
403.17	1881.79
403.36	1781.15
403.55	1963.71
403.74	1795.19
403.93	1926.26
404.13	1947.33
404.32	1832.64
404.51	1898.17
404.70	1916.90
404.89	1863.07
405.09	2040.95
405.28	1989.46
405.47	2012.86
405.66	2036.27
405.85	2040.95
406.05	1977.75
406.24	1998.82
406.43	2005.84
406.62	2031.58
406.81	2108.82
407.00	2087.76
407.20	2099.46
407.39	2190.74
407.58	2108.82
407.77	2317.13
407.96	2251.60
408.15	2260.96
408.34	2256.28
408.54	2408.41
408.73	2328.83
408.92	2389.69
409.11	2319.47
409.30	2406.07
409.49	2335.85
409.68	2363.94
409.87	2363.94
410.07	2361.60
410.26	2319.47
410.45	2408.41
410.64	2532.46
410.83	2609.70
411.02	2462.24
411.21	2607.36
411.40	2731.41
411.59	2670.55
411.78	2658.85
411.98	2670.55
412.17	2619.06
412.36	2745.45
412.55	2825.03
412.74	2778.22
412.93	2789.92
413.12	2867.16
413.31	2967.80
413.50	2647.15
413.69	2857.79
413.88	2972.48
414.07	2913.97
414.26	2951.42
414.45	2925.67
414.64	3009.93
414.83	3129.30
415.02	3033.33
415.22	3229.94
415.41	3133.98
415.60	3192.49
415.79	3269.73
415.98	3410.16
416.17	3431.23
416.36	3386.76
416.55	3206.53
416.74	3480.38
416.93	3330.58
417.12	3459.31
417.31	3339.94
417.50	3463.99
417.69	3478.04
417.88	3353.99
418.07	3400.80
418.26	3489.74
418.45	3585.70
418.64	3684.00
418.83	3501.44
419.02	3660.60
419.21	3698.05
419.39	3524.85
419.58	3566.98
419.77	3602.08
419.96	3786.99
420.15	3695.71
420.34	3768.26
420.53	3765.92
420.72	3885.29
420.91	3847.84
421.10	3866.56
421.29	4051.47
421.48	3878.27
421.67	3988.27
421.86	3761.24
422.05	3915.72
422.24	3805.71
422.43	3899.33
422.61	3932.10
422.80	3943.80
422.99	4095.94
423.18	3880.61
423.37	4095.94
423.56	4058.49
423.75	4009.34
423.94	3906.35
424.13	3637.19
424.32	3894.65
424.50	4023.38
424.69	3964.87
424.88	4007.00
425.07	3964.87
425.26	3859.54
425.45	4117.00
425.64	4086.58
425.83	3922.74
426.01	4212.96
426.20	3918.06
426.39	4196.58
426.58	4051.47
426.77	4028.06
426.96	4060.83
427.15	4107.64
427.33	4107.64
427.52	4243.39
427.71	4217.65
427.90	4194.24
428.09	4131.05
428.28	4243.39
428.46	4273.82
428.65	4301.90
428.84	4208.28
429.03	4255.09
429.22	4147.43
429.40	4187.22
429.59	4149.77
429.78	4058.49
429.97	3962.53
430.16	4051.47
430.34	4018.70
430.53	4210.62
430.72	4248.07
430.91	4234.03
431.10	4358.08
431.28	4650.64
431.47	4676.39
431.66	4819.16
431.85	4690.43
432.03	4681.07
432.22	4812.14
432.41	4793.42
432.60	4765.33
432.79	4786.40
432.97	4746.61
433.16	4812.14
433.35	4753.63
433.54	4791.08
433.72	4685.75
433.91	4748.95
434.10	4830.87
434.28	4844.91
434.47	5069.60
434.66	4945.55
434.85	5055.56
435.03	5069.60
435.22	5034.49
435.41	5146.84
435.59	5238.12
435.78	5233.44
435.97	5259.18
436.16	5275.57
436.34	5069.60
436.53	5184.29
436.72	5408.98
436.90	5207.69
437.09	5317.70
437.28	5156.20
437.46	5399.62
437.65	5364.51
437.84	5228.76
438.02	5102.37
438.21	5254.50
438.40	5135.14
438.58	5418.34
438.77	5509.62
438.96	5465.15
439.14	5628.99
439.33	5820.91
439.52	5790.49
439.70	5795.17
439.89	5870.06
440.08	5696.86
440.26	5762.40
440.45	5682.82
440.63	5905.17
440.82	6069.01
441.01	6099.44
441.19	6085.39
441.38	6181.35
441.57	6207.10
441.75	6267.95
441.94	6567.54
442.12	6490.31
442.31	6518.39
442.50	6485.62
442.68	6401.37
442.87	6497.33
443.05	6593.29
443.24	6623.72
443.43	6445.84
443.61	6670.53
443.80	6773.51
443.98	6415.41
444.17	6394.34
444.35	6675.21
444.54	6726.70
444.73	6644.78
444.91	6766.49
445.10	6628.40
445.28	6476.26
445.47	6469.24
445.65	6502.01
445.84	6487.96
446.02	6630.74
446.21	6679.89
446.39	6619.04
446.58	6597.97
446.77	6712.66
446.95	6806.28
447.14	6909.26
447.32	6913.94
447.51	6883.52
447.69	6834.36
447.88	6757.13
448.06	6778.19
448.25	6930.33
448.43	6883.52
448.62	6895.22
448.80	6916.28
448.99	6864.79
449.17	6953.73
449.36	6995.86
449.54	7342.26
449.73	7290.77
449.91	7335.24
450.10	7150.34
450.28	7330.56
450.46	7386.73
450.65	7478.01
450.83	7426.52
451.02	7428.86
451.20	7302.47
451.39	7337.58
451.57	7133.95
451.76	7370.35
451.94	7419.50
452.13	7375.03
452.31	7269.70
452.49	7157.36
452.68	7489.71
452.86	7227.57
453.05	7353.96
453.23	7541.21
453.42	7480.35
453.60	7272.04
453.78	7744.83
453.97	7468.65
454.15	7660.57
454.34	7576.31
454.52	7637.17
454.70	7550.57
454.89	7676.96
455.07	7775.26
455.26	7782.28
455.44	7829.09
455.62	7911.01
455.81	7805.69
455.99	7983.57
456.17	8063.15
456.36	8042.08
456.54	7943.78
456.73	8039.74
456.91	8184.85
457.09	8400.18
457.28	8250.39
457.46	8189.53
457.64	8409.54
457.83	8320.60
458.01	8088.89
458.19	8266.77
458.38	8208.26
458.56	8423.59
458.74	8360.39
458.93	8021.02
459.11	8456.36
459.29	8336.99
459.48	8517.21
459.66	8264.43
459.84	8514.87
460.03	8851.91
460.21	8451.67
460.39	8615.51
460.57	8732.54
460.76	8734.88
460.94	8877.65
461.12	8636.58
461.31	8896.38
461.49	8695.09
461.67	8842.54
461.85	9090.64
462.04	8936.17
462.22	9530.66
462.40	9088.30
462.59	8910.42
462.77	8842.54
462.95	9114.05
463.13	8992.34
463.32	9062.55
463.50	9146.81
463.68	8971.27
463.86	9036.81
464.05	9153.84
464.23	9142.13
464.41	9430.02
464.59	8875.31
464.78	9329.38
464.96	9207.67
465.14	9184.26
465.32	9238.09
465.50	9430.02
465.69	9453.42
465.87	9437.04
466.05	9446.40
466.23	9247.46
466.41	9284.91
466.60	9549.39
466.78	9364.48
466.96	9284.91
467.14	9441.72
467.32	9631.30
467.51	9722.59
467.69	9193.62
467.87	9415.98
468.05	9666.41
468.23	9727.27
468.41	9533.00
468.60	9722.59
468.78	9659.39
468.96	9731.95
469.14	9762.37
469.32	9874.72
469.50	9699.18
469.69	9935.57
469.87	9797.48
470.05	10017.49
470.23	9928.55
470.41	9937.91
470.59	10015.15
470.77	10050.26
470.95	10281.97
471.14	10296.02
471.32	9989.41
471.50	10597.95
471.68	10480.92
471.86	10321.76
472.04	10579.22
472.22	10813.28
472.40	10258.57
472.58	10518.37
472.77	10396.66
472.95	10827.32
473.13	11105.84
473.31	10693.91
473.49	10565.18
473.67	10637.73
473.85	10820.30
474.03	11286.06
474.21	11309.47
474.39	11056.69
474.57	11370.32
474.75	11192.44
474.93	11499.05
475.12	11382.03
475.30	11363.30
475.48	11363.30
475.66	11424.15
475.84	11609.06
476.02	11595.01
476.20	11672.25
476.38	11880.56
476.56	11758.85
476.74	12109.93
476.92	11838.43
477.10	12086.53
477.28	12126.32
477.46	12334.62
477.64	12510.16
477.82	12524.21
478.00	12720.81
478.18	12755.92
478.36	12615.49
478.54	12947.84
478.72	13099.98
478.90	12952.52
479.08	13181.90
479.26	13275.52
479.44	13303.60
479.62	13392.55
479.80	13607.87
479.98	13610.22
480.16	13958.96
480.34	13692.13
480.52	14111.09
480.70	13902.78
480.88	13640.64
481.06	14272.59
481.24	13970.66
481.41	14279.61
481.59	14761.76
481.77	14621.33
481.95	14382.59
482.13	15105.82
482.31	14766.44
482.49	15241.57
482.67	15143.27
482.85	15417.11
483.03	15281.36
483.21	15594.99
483.39	15646.48
483.57	15487.32
483.74	15913.30
483.92	15719.04
484.10	15726.06
484.28	16147.36
484.46	16166.08
484.64	16592.06
484.82	16325.24
485.00	16304.17
485.18	16702.06
485.35	16823.77
485.53	16526.52
485.71	16500.78
485.89	16540.57
486.07	16718.45
486.25	17034.42
486.43	17151.45
486.61	17268.47
486.78	17357.41
486.96	17362.09
487.14	17834.88
487.32	17975.31
487.50	18204.69
487.68	18457.46
487.85	18640.03
488.03	18686.84
488.21	18808.54
488.39	18895.14
488.57	18862.38
488.75	18953.66
488.92	19428.79
489.10	19328.14
489.28	19601.99
489.46	19981.15
489.64	20276.06
489.81	20430.54
489.99	20503.09
490.17	20105.20
490.35	20781.62
490.53	20594.37
490.70	20798.00
490.88	20837.79
491.06	20926.73
491.24	21111.63
491.41	21324.62
491.59	21336.32
491.77	21010.99
491.95	21240.36
492.13	21500.16
492.30	21989.33
492.48	22129.77
492.66	22281.90
492.84	22005.72
493.01	22195.30
493.19	22235.09
493.37	22494.89
493.54	22579.15
493.72	22726.60
493.90	22869.37
494.08	23459.19
494.25	23559.83
494.43	23229.82
494.61	23709.63
494.79	23931.98
494.96	23779.84
495.14	23906.23
495.32	24002.19
495.49	24107.52
495.67	23747.08
495.85	24322.85
496.02	24716.06
496.20	24493.71
496.38	24751.17
496.55	24922.02
496.73	25319.92
496.91	25502.48
497.09	25352.68
497.26	25546.95
497.44	25387.79
497.62	25626.53
497.79	25682.70
497.97	25565.67
498.14	25809.09
498.32	26019.74
498.50	26089.95
498.67	26078.25
498.85	26532.31
499.03	26738.28
499.20	26902.12
499.38	26546.36
499.56	26548.70
499.73	26726.58
499.91	26876.37
500.08	27161.92
500.26	26586.15
500.44	26867.01
500.61	26614.23
500.79	26691.47
500.97	27168.94
501.14	27522.36
501.32	27531.72
501.49	27262.56
501.67	27763.43
501.84	27402.99
502.02	27630.02
502.20	28261.97
502.37	28044.30
502.55	27910.89
502.72	28512.41
502.90	28664.54
503.07	28240.90
503.25	28442.19
503.43	28231.54
503.60	28339.21
503.78	28545.17
503.95	28624.75
504.13	29092.86
504.30	28992.22
504.48	29041.37
504.65	29448.62
504.83	29713.10
505.01	29514.16
505.18	29528.20
505.36	29841.83
505.53	29851.19
505.71	29855.87
505.88	30024.39
506.06	29745.87
506.23	29860.55
506.41	29893.32
506.58	30110.99
506.76	29944.81
506.93	30228.02
507.11	30040.78
507.28	30342.70
507.46	30817.83
507.63	30213.98
507.81	30881.03
507.98	30532.29
508.16	30494.84
508.33	31065.93
508.50	31056.57
508.68	30960.61
508.85	31339.77
509.03	31456.80
509.20	31379.56
509.38	31503.61
509.55	31791.50
509.73	31938.95
509.90	31632.34
510.08	31583.19
510.25	31489.57
510.42	31910.86
510.60	31922.57
510.77	32280.67
510.95	32547.49
511.12	32456.21
511.30	32601.32
511.47	32868.14
511.64	32685.58
511.82	32954.74
511.99	32528.77
512.17	32847.08
512.34	32201.09
512.51	32884.53
512.69	33165.39
512.86	33120.92
513.04	32945.38
513.21	32907.93
513.38	32900.91
513.56	33411.15
513.73	33188.80
513.90	33392.42
514.08	33500.09
514.25	33233.27
514.43	34010.32
514.60	33535.20
514.77	33717.76
514.95	33993.94
515.12	34050.11
515.29	34029.05
515.47	34216.29
515.64	34768.66
515.81	33905.00
515.99	34101.61
516.16	34136.71
516.33	34078.20
516.51	34000.96
516.68	33605.41
516.85	33642.86
517.03	33954.15
517.20	34501.84
517.37	34789.72
517.54	35206.34
517.72	34642.27
517.89	34483.11
518.06	34384.81
518.24	34572.05
518.41	34389.49
518.58	35105.70
518.75	34703.12
518.93	35246.13
519.10	35002.71
519.27	35463.80
519.45	35234.42
519.62	35538.69
519.79	35831.26
519.96	35744.66
520.14	36046.59
520.31	35440.39
520.48	35749.34
520.65	35683.81
520.83	36084.04
521.00	36486.61
521.17	36180.00
521.34	35938.93
521.52	36610.66
521.69	36477.25
521.86	36680.88
522.03	36362.56
522.20	36945.36
522.38	36517.04
522.55	37134.94
522.72	36907.91
522.89	36430.44
523.07	37191.11
523.24	37144.30
523.41	37076.43
523.58	37031.96
523.75	37663.90
523.92	37694.33
524.10	37436.87
524.27	37904.98
524.44	37474.32
524.61	37677.94
524.78	37759.86
524.96	37563.26
525.13	37640.50
525.30	38401.17
525.47	38387.13
525.64	38075.84
525.81	37619.43
525.98	37670.92
526.16	37965.83
526.33	37553.90
526.50	37881.57
526.67	37656.88
526.84	37453.25
527.01	37682.62
527.18	37923.70
527.36	38359.04
527.53	38555.64
527.70	38902.04
527.87	38630.54
528.04	38857.57
528.21	38756.93
528.38	38742.89
528.55	39161.84
528.72	39098.65
528.89	39398.24
529.07	39225.04
529.24	38897.36
529.41	38876.30
529.58	38927.79
529.75	39168.87
529.92	39377.17
530.09	39526.97
530.26	39388.88
530.43	39423.98
530.60	39625.27
530.77	39447.39
530.94	39683.78
531.11	39807.83
531.28	39562.08
531.46	39950.60
531.63	40154.23
531.80	40018.48
531.97	39831.24
532.14	39875.71
532.31	39199.29
532.48	39789.11
532.65	40079.33
532.82	40376.58
532.99	40271.26
533.16	40292.32
533.33	40399.99
533.50	40212.74
533.67	40495.95
533.84	39943.58
534.01	39917.84
534.18	40421.05
534.35	40678.51
534.52	40610.64
534.69	40980.44
534.86	40390.62
535.03	40514.67
535.20	41310.46
535.37	41368.97
535.54	41837.08
535.71	40676.17
535.88	41184.07
536.05	40746.39
536.22	41205.13
536.38	41273.01
536.55	40973.42
536.72	40842.35
536.89	40708.94
537.06	40882.14
537.23	41191.09
537.40	41434.50
537.57	41509.40
537.74	41670.90
537.91	41823.03
538.08	41528.13
538.25	41230.88
538.42	41773.88
538.59	41478.97
538.75	41284.71
538.92	41706.01
539.09	41794.95
539.26	41855.80
539.43	41741.11
539.60	41612.38
539.77	41486.00
539.94	41619.41
540.11	41481.31
540.28	42043.04
540.44	41876.86
540.61	41909.63
540.78	41614.72
540.95	42019.64
541.12	41921.34
541.29	41968.15
541.46	42281.78
541.62	42417.53
541.79	42260.71
541.96	42110.92
542.13	42036.02
542.30	42522.85
542.47	42073.47
542.63	42237.31
542.80	42937.13
542.97	42831.80
543.14	42836.48
543.31	42731.16
543.48	43023.73
543.64	43157.14
543.81	43299.91
543.98	43189.91
544.15	43119.69
544.32	43349.06
544.48	43658.01
544.65	43267.14
544.82	43335.02
544.99	43646.31
545.16	43372.47
545.32	42817.76
545.49	43583.12
545.66	44278.25
545.83	43536.30
546.00	43828.87
546.16	43229.69
546.33	43606.52
546.50	43414.60
546.67	43976.33
546.83	43316.29
547.00	43533.96
547.17	43388.85
547.34	43466.09
547.50	43800.79
547.67	43634.61
547.84	43906.11
548.00	43756.32
548.17	44350.81
548.34	44210.38
548.51	44472.52
548.67	44231.44
548.84	44112.08
549.01	43817.17
549.18	44259.53
549.34	44348.47
549.51	44100.37
549.68	44254.85
549.84	44201.02
550.01	44163.57
550.18	43995.05
550.34	44142.50
550.51	44296.98
550.68	44678.49
550.84	44076.97
551.01	44285.28
551.18	44439.75
551.34	44280.60
551.51	44388.26
551.68	44484.22
551.84	44652.74
552.01	44362.51
552.18	44762.75
552.34	44428.05
552.51	44795.51
552.68	44596.57
552.84	44701.89
553.01	44734.66
553.18	44692.53
553.34	44935.95
553.51	44823.60
553.67	45123.19
553.84	45125.53
554.01	44985.10
554.17	45347.88
554.34	45170.00
554.51	45067.02
554.67	44900.84
554.84	45319.79
555.00	45083.40
555.17	45034.25
555.33	45226.17
555.50	45492.99
555.67	45539.80
555.83	45043.61
556.00	45212.13
556.16	45621.72
556.33	44748.70
556.50	45460.23
556.66	45137.23
556.83	44870.41
556.99	45193.40
557.16	45123.19
557.32	44982.76
557.49	44823.60
557.65	45137.23
557.82	45434.48
557.98	45413.41
558.15	45640.45
558.32	45516.40
558.48	44706.57
558.65	45132.55
558.81	44931.26
558.98	45088.08
559.14	45294.05
559.31	45034.25
559.47	45340.86
559.64	45223.83
559.80	45258.94
559.97	46012.59
560.13	45497.67
560.30	45652.15
560.46	45925.99
560.63	45743.43
560.79	45858.12
560.96	45752.79
561.12	45467.25
561.29	45312.77
561.45	45319.79
561.61	45586.61
561.78	45434.48
561.94	45406.39
562.11	45750.45
562.27	45595.98
562.44	45647.47
562.60	45586.61
562.77	45741.09
562.93	45764.49
563.10	45956.42
563.26	45605.34
563.42	45701.30
563.59	45766.84
563.75	45598.32
563.92	45865.14
564.08	45820.67
564.24	46043.02
564.41	45911.95
564.57	45949.40
564.74	45584.27
564.90	45923.65
565.07	45773.86
565.23	45830.03
565.39	45617.04
565.56	46108.55
565.72	45162.98
565.88	45621.72
566.05	45701.30
566.21	45670.87
566.38	45731.73
566.54	45972.80
566.70	46396.44
566.87	46637.51
567.03	46485.38
567.19	46305.16
567.36	46426.87
567.52	46272.39
567.68	46356.65
567.85	45713.00
568.01	45745.77
568.17	46134.30
568.34	45965.78
568.50	45879.18
568.66	45574.91
568.83	46209.20
568.99	45872.16
569.15	46251.33
569.32	45593.64
569.48	45916.63
569.64	46068.76
569.81	46321.54
569.97	45977.48
570.13	46127.28
570.30	45752.79
570.46	45897.91
570.62	45925.99
570.78	45830.03
570.95	45825.35
571.11	45888.54
571.27	45944.72
571.43	45797.26
571.60	45808.96
571.76	45928.33
571.92	46206.86
572.09	45909.61
572.25	46050.04
572.41	46508.79
572.57	46639.86
572.74	46548.57
572.90	46520.49
573.06	46522.83
573.22	46279.41
573.38	46464.32
573.55	46003.23
573.71	46602.41
573.87	46506.44
574.03	46110.89
574.20	46071.10
574.36	45780.88
574.52	46171.75
574.68	46433.89
574.84	46504.10
575.01	45755.13
575.17	46225.58
575.33	46141.32
575.49	46033.66
575.65	46188.13
575.82	46291.12
575.98	45837.05
576.14	46550.91
576.30	46258.35
576.46	46323.88
576.62	46213.88
576.79	45984.51
576.95	46293.46
577.11	46415.16
577.27	46312.18
577.43	46323.88
577.59	46162.39
577.75	45743.43
577.92	45750.45
578.08	45869.82
578.24	46131.96
578.40	46054.72
578.56	46438.57
578.72	46237.28
578.88	46705.39
579.04	46534.53
579.21	46110.89
579.37	46192.81
579.53	46527.51
579.69	46057.06
579.85	45841.73
580.01	46356.65
580.17	46202.18
580.33	46241.96
580.49	46405.80
580.65	46389.42
580.82	46534.53
580.98	46461.97
581.14	45928.33
581.30	46447.93
581.46	46181.11
581.62	46188.13
581.78	46160.05
581.94	46780.29
582.10	46326.22
582.26	46361.33
582.42	46150.68
582.58	46216.22
582.74	46286.43
582.90	46281.75
583.06	46583.68
583.22	46857.52
583.38	46464.32
583.54	46667.94
583.70	46447.93
583.86	46543.89
584.02	46204.52
584.18	46316.86
584.34	46340.27
584.50	46440.91
584.66	46227.92
584.82	46410.48
584.98	46609.43
585.14	46380.06
585.30	46087.49
585.46	46405.80
585.62	45914.29
585.78	46293.46
585.94	46155.36
586.10	46108.55
586.26	46246.65
586.42	46670.28
586.58	46550.91
586.74	46164.73
586.90	46321.54
587.06	46387.08
587.22	46403.46
587.38	46794.33
587.54	46588.36
587.70	46045.36
587.86	46113.23
588.02	46319.20
588.18	46333.24
588.34	45998.55
588.49	45574.91
588.65	45918.97
588.81	45830.03
588.97	45830.03
589.13	45893.22
589.29	45645.13
589.45	46433.89
589.61	46237.28
589.77	46272.39
589.93	46220.90
