SpectraSuite Data File
++++++++++++++++++++++++++++++++++++
Date: Fri Oct 25 10:44:24 EDT 2013
User: price-jones
Dark Spectrum Present: No
Reference Spectrum Present: No
Number of Sampled Component Spectra: 1
Spectrometers: USB2+H05261
Integration Time (usec): 100000 (USB2+H05261)
Spectra Averaged: 1 (USB2+H05261)
Boxcar Smoothing: 0 (USB2+H05261)
Correct for Electrical Dark: No (USB2+H05261)
Strobe/Lamp Enabled: No (USB2+H05261)
Correct for Detector Non-linearity: No (USB2+H05261)
Correct for Stray Light: No (USB2+H05261)
Number of Pixels in Processed Spectrum: 2048
>>>>>Begin Processed Spectral Data<<<<<
365.73	84.26
365.92	84.26
366.12	84.26
366.32	44.47
366.52	0.00
366.72	72.56
366.91	18.72
367.11	11.70
367.31	0.00
367.51	14.04
367.70	11.70
367.90	42.13
368.10	63.19
368.30	42.13
368.49	35.11
368.69	77.24
368.89	91.28
369.09	0.00
369.28	77.24
369.48	0.00
369.68	145.11
369.87	152.13
370.07	74.90
370.27	168.52
370.47	152.13
370.66	383.85
370.86	421.30
371.06	437.68
371.25	512.58
371.45	479.81
371.65	428.32
371.84	409.59
372.04	409.59
372.24	498.53
372.44	437.68
372.63	411.93
372.83	491.51
373.03	470.45
373.22	561.73
373.42	533.64
373.62	575.77
373.81	510.24
374.01	634.29
374.21	582.79
374.40	594.50
374.60	575.77
374.79	571.09
374.99	589.82
375.19	589.82
375.38	671.73
375.58	519.60
375.78	636.63
375.97	599.18
376.17	629.60
376.37	608.54
376.56	653.01
376.76	678.76
376.95	561.73
377.15	744.29
377.35	718.54
377.54	704.50
377.74	653.01
377.93	578.11
378.13	772.38
378.33	699.82
378.52	617.90
378.72	748.97
378.91	678.76
379.11	716.20
379.31	758.33
379.50	681.10
379.70	681.10
379.89	685.78
380.09	739.61
380.28	779.40
380.48	692.80
380.68	711.52
380.87	737.27
381.07	711.52
381.26	765.36
381.46	784.08
381.65	744.29
381.85	702.16
382.04	643.65
382.24	692.80
382.43	676.41
382.63	645.99
382.83	650.67
383.02	699.82
383.22	657.69
383.41	763.01
383.61	748.97
383.80	753.65
384.00	748.97
384.19	833.23
384.39	880.04
384.58	861.32
384.78	912.81
384.97	849.61
385.17	730.25
385.36	748.97
385.56	819.19
385.75	755.99
385.95	690.46
386.14	807.48
386.34	781.74
386.53	873.02
386.72	866.00
386.92	823.87
387.11	926.85
387.31	814.51
387.50	816.85
387.70	931.53
387.89	880.04
388.09	938.55
388.28	905.79
388.48	910.47
388.67	1071.97
388.86	985.37
389.06	947.92
389.25	1032.18
389.45	912.81
389.64	903.45
389.84	997.07
390.03	999.41
390.22	990.05
390.42	968.98
390.61	1041.54
390.81	954.94
391.00	1088.35
391.19	1165.59
391.39	1109.41
391.58	1135.16
391.78	1186.65
391.97	1107.07
392.16	1001.75
392.36	1048.56
392.55	1013.45
392.75	1062.60
392.94	1057.92
393.13	1013.45
393.33	1057.92
393.52	1107.07
393.71	1132.82
393.91	1277.93
394.10	1121.12
394.29	1165.59
394.49	1158.57
394.68	1196.01
394.88	1210.06
395.07	1343.47
395.26	1231.12
395.46	1282.61
395.65	1259.21
395.84	1261.55
396.04	1231.12
396.23	1224.10
396.42	1064.94
396.62	1137.50
396.81	1268.57
397.00	1282.61
397.19	1291.98
397.39	1280.27
397.58	1533.05
397.77	1432.41
397.97	1423.05
398.16	1523.69
398.35	1497.94
398.55	1418.36
398.74	1493.26
398.93	1600.93
399.12	1554.12
399.32	1617.31
399.51	1509.65
399.70	1621.99
399.90	1612.63
400.09	1694.55
400.28	1680.50
400.47	1626.67
400.67	1715.61
400.86	1746.04
401.05	1640.72
401.24	1762.42
401.44	1785.83
401.63	1834.98
401.82	1771.79
402.01	1722.63
402.21	1846.68
402.40	1774.13
402.59	1853.70
402.78	1806.89
402.97	1790.51
403.17	1834.98
403.36	1813.92
403.55	1909.88
403.74	1994.14
403.93	1916.90
404.13	1895.83
404.32	1940.30
404.51	1963.71
404.70	2003.50
404.89	1977.75
405.09	2104.14
405.28	2031.58
405.47	2113.50
405.66	2005.84
405.85	1975.41
406.05	1944.99
406.24	2083.08
406.43	2087.76
406.62	2052.65
406.81	2279.68
407.00	2230.53
407.20	2150.95
407.39	2129.89
407.58	2216.49
407.77	2235.21
407.96	2417.77
408.15	2282.02
408.34	2354.58
408.54	2413.09
408.73	2445.86
408.92	2434.16
409.11	2445.86
409.30	2314.79
409.49	2380.32
409.68	2228.19
409.87	2385.01
410.07	2328.83
410.26	2478.63
410.45	2544.16
410.64	2396.71
410.83	2520.76
411.02	2562.89
411.21	2548.84
411.40	2719.70
411.59	2647.15
411.78	2607.36
411.98	2768.85
412.17	2710.34
412.36	2780.56
412.55	2836.73
412.74	2834.39
412.93	2764.17
413.12	2764.17
413.31	2949.08
413.50	2972.48
413.69	2995.89
413.88	3019.29
414.07	2958.44
414.26	3040.36
414.45	3162.06
414.64	2960.78
414.83	3192.49
415.02	2970.14
415.22	3070.78
415.41	3260.37
415.60	3164.40
415.79	3169.09
415.98	3403.14
416.17	3307.18
416.36	3258.03
416.55	3300.16
416.74	3398.46
416.93	3419.52
417.12	3576.34
417.31	3318.88
417.50	3452.29
417.69	3515.48
417.88	3569.32
418.07	3522.51
418.26	3543.57
418.45	3637.19
418.64	3674.64
418.83	3700.39
419.02	3794.01
419.21	3613.79
419.39	3655.92
419.58	3620.81
419.77	3637.19
419.96	3805.71
420.15	3801.03
420.34	3871.25
420.53	3868.91
420.72	3889.97
420.91	3918.06
421.10	3939.12
421.29	3976.57
421.48	3873.59
421.67	3957.85
421.86	3925.08
422.05	3796.35
422.24	3871.25
422.43	3889.97
422.61	3913.38
422.80	3929.76
422.99	4121.68
423.18	4112.32
423.37	4037.42
423.56	4095.94
423.75	3929.76
423.94	3983.59
424.13	3740.18
424.32	3878.27
424.50	4053.81
424.69	4053.81
424.88	4091.26
425.07	4084.23
425.26	4025.72
425.45	3960.19
425.64	4023.38
425.83	3999.98
426.01	4140.41
426.20	4021.04
426.39	4196.58
426.58	4025.72
426.77	4152.11
426.96	4098.28
427.15	4159.13
427.33	4060.83
427.52	4138.07
427.71	4285.52
427.90	4259.78
428.09	4205.94
428.28	4266.80
428.46	4234.03
428.65	4273.82
428.84	4456.38
429.03	4411.91
429.22	4231.69
429.40	4250.41
429.59	4266.80
429.78	3995.29
429.97	4070.19
430.16	4145.09
430.34	4201.26
430.53	4229.35
430.72	4278.50
430.91	4332.33
431.10	4475.10
431.28	4765.33
431.47	4851.93
431.66	4814.48
431.85	4734.90
432.03	4821.50
432.22	4744.27
432.41	4674.05
432.60	4777.03
432.79	4847.25
432.97	4940.87
433.16	4880.02
433.35	4847.25
433.54	4903.42
433.72	4674.05
433.91	4734.90
434.10	4877.68
434.28	4781.71
434.47	4896.40
434.66	5034.49
434.85	5217.05
435.03	5132.79
435.22	5128.11
435.41	5228.76
435.59	5132.79
435.78	5210.03
435.97	5195.99
436.16	5245.14
436.34	5376.21
436.53	5376.21
436.72	5273.23
436.90	5245.14
437.09	5432.38
437.28	5334.08
437.46	5327.06
437.65	5207.69
437.84	5380.89
438.02	5373.87
438.21	5219.39
438.40	5362.17
438.58	5432.38
438.77	5696.86
438.96	5476.85
439.14	5638.35
439.33	5781.12
439.52	5898.15
439.70	5685.16
439.89	5832.62
440.08	5870.06
440.26	5942.62
440.45	5895.81
440.63	6050.28
440.82	6054.97
441.01	6101.78
441.19	6176.67
441.38	6270.30
441.57	6314.77
441.75	6450.52
441.94	6546.48
442.12	6548.82
442.31	6644.78
442.50	6541.80
442.68	6534.78
442.87	6562.86
443.05	6593.29
443.24	6640.10
443.43	6696.27
443.61	6609.67
443.80	6841.39
443.98	6469.24
444.17	6443.49
444.35	6614.35
444.54	6771.17
444.73	6724.36
444.91	6464.56
445.10	6689.25
445.28	6815.64
445.47	6567.54
445.65	6572.22
445.84	6623.72
446.02	6827.34
446.21	6764.15
446.39	6993.52
446.58	6780.53
446.77	6822.66
446.95	6700.95
447.14	6906.92
447.32	7077.78
447.51	6920.96
447.69	6853.09
447.88	6832.02
448.06	6942.03
448.25	6843.73
448.43	6998.20
448.62	6942.03
448.80	7047.35
448.99	6935.01
449.17	7206.51
449.36	7021.61
449.54	7339.92
449.73	7363.33
449.91	7564.61
450.10	7283.75
450.28	7466.31
450.46	7470.99
450.65	7489.71
450.83	7527.16
451.02	7431.20
451.20	7435.88
451.39	7513.12
451.57	7454.61
451.76	7398.43
451.94	7445.24
452.13	7536.52
452.31	7234.60
452.49	7391.41
452.68	7360.98
452.86	7293.11
453.05	7473.33
453.23	7639.51
453.42	7564.61
453.60	7623.12
453.78	7810.37
453.97	7634.83
454.15	7620.78
454.34	7604.40
454.52	7779.94
454.70	7812.71
454.89	7775.26
455.07	7843.14
455.26	7817.39
455.44	7861.86
455.62	8009.31
455.81	8105.28
455.99	8152.09
456.17	7962.50
456.36	8102.93
456.54	8287.84
456.73	8217.62
456.91	8238.69
457.09	8280.82
457.28	8379.12
457.46	8365.07
457.64	8362.73
457.83	8301.88
458.01	8175.49
458.19	8521.89
458.38	8259.75
458.56	8568.70
458.74	8514.87
458.93	8678.71
459.11	8601.47
459.29	8730.20
459.48	8416.57
459.66	8634.24
459.84	8671.68
460.03	8755.94
460.21	8809.78
460.39	8669.34
460.57	8741.90
460.76	8879.99
460.94	8929.14
461.12	8833.18
461.31	8671.68
461.49	8905.74
461.67	8950.21
461.85	9060.21
462.04	9200.65
462.22	9177.24
462.40	9151.49
462.59	9259.16
462.77	9156.18
462.95	9228.73
463.13	9179.58
463.32	9146.81
463.50	9263.84
463.68	9404.27
463.86	9308.31
464.05	9146.81
464.23	9078.94
464.41	9322.35
464.59	9062.55
464.78	9423.00
464.96	9160.86
465.14	9174.90
465.32	9437.04
465.50	9502.58
465.69	9689.82
465.87	9413.63
466.05	9399.59
466.23	9392.57
466.41	9334.06
466.60	9783.44
466.78	9570.45
466.96	9504.92
467.14	9565.77
467.32	9640.67
467.51	9769.40
467.69	9423.00
467.87	9596.20
468.05	9605.56
468.23	9692.16
468.41	9731.95
468.60	10008.13
468.78	9867.70
468.96	9741.31
469.14	10047.92
469.32	9982.38
469.50	9928.55
469.69	10150.90
469.87	10115.80
470.05	10148.56
470.23	10005.79
470.41	9902.81
470.59	10237.50
470.77	9968.34
470.95	10235.16
471.14	10281.97
471.32	10148.56
471.50	10518.37
471.68	10565.18
471.86	10750.08
472.04	10939.66
472.22	10944.34
472.40	10560.50
472.58	10824.98
472.77	10773.49
472.95	10733.70
473.13	11080.10
473.31	10850.72
473.49	10885.83
473.67	10963.07
473.85	11126.91
474.03	11417.13
474.21	11412.45
474.39	11119.89
474.57	11421.81
474.75	11442.88
474.93	11499.05
475.12	11506.07
475.30	11492.03
475.48	11452.24
475.66	11562.25
475.84	11524.80
476.02	11719.06
476.20	11534.16
476.38	11796.30
476.56	12180.15
476.74	11983.54
476.92	12049.08
477.10	11868.86
477.28	12463.35
477.46	12428.24
477.64	12521.87
477.82	12706.77
478.00	12938.48
478.18	12971.25
478.36	12833.16
478.54	13174.88
478.72	13123.38
478.90	13041.46
479.08	13378.50
479.26	13542.34
479.44	13537.66
479.62	13874.70
479.80	13605.53
479.98	13799.80
480.16	14204.71
480.34	14059.60
480.52	14293.65
480.70	14171.94
480.88	13727.24
481.06	14178.97
481.24	14242.16
481.41	14885.81
481.59	14834.32
481.77	14988.79
481.95	14738.35
482.13	15094.11
482.31	15016.88
482.49	15152.63
482.67	14981.77
482.85	15531.80
483.03	15690.95
483.21	15875.85
483.39	15758.83
483.57	15775.21
483.74	15826.70
483.92	15927.35
484.10	16025.65
484.28	16187.14
484.46	16538.23
484.64	16959.52
484.82	16496.10
485.00	16849.52
485.18	17046.12
485.35	16936.12
485.53	16458.65
485.71	16418.86
485.89	16786.32
486.07	16664.61
486.25	17069.53
486.43	17408.90
486.61	17219.32
486.78	17743.60
486.96	18115.75
487.14	17877.01
487.32	18317.03
487.50	18321.71
487.68	18623.64
487.85	18658.75
488.03	18728.97
488.21	19269.63
488.39	19138.56
488.57	19262.61
488.75	19110.47
488.92	19311.76
489.10	19822.00
489.28	19995.20
489.46	20290.10
489.64	19913.28
489.81	20573.31
489.99	20596.71
490.17	20655.23
490.35	20985.24
490.53	20821.41
490.70	21298.88
490.88	21046.10
491.06	21575.06
491.24	21373.77
491.41	21223.98
491.59	21420.58
491.77	21006.31
491.95	21544.63
492.13	21689.74
492.30	22101.68
492.48	22216.36
492.66	22185.94
492.84	22082.95
493.01	22642.34
493.19	22494.89
493.37	22705.54
493.54	22843.63
493.72	23082.36
493.90	22991.08
494.08	23302.37
494.25	23541.11
494.43	23625.37
494.61	24215.18
494.79	23779.84
494.96	23927.30
495.14	24266.67
495.32	23953.04
495.49	24514.77
495.67	24641.16
495.85	24973.52
496.02	24954.79
496.20	24971.18
496.38	24929.05
496.55	24980.54
496.73	25678.02
496.91	25380.77
497.09	25839.51
497.26	25710.78
497.44	25671.00
497.62	25909.73
497.79	25979.95
497.97	25685.04
498.14	25804.41
498.32	25933.14
498.50	26443.37
498.67	26333.37
498.85	26766.37
499.03	27178.30
499.20	26953.61
499.38	27126.81
499.56	26955.95
499.73	26740.62
499.91	27075.32
500.08	26967.65
500.26	26745.30
500.44	27391.29
500.61	27353.84
500.79	27199.37
500.97	27367.88
501.14	27744.71
501.32	27520.02
501.49	27878.12
501.67	27924.93
501.84	27796.20
502.02	28367.29
502.20	28364.95
502.37	28552.20
502.55	28311.12
502.72	28734.76
502.90	28652.84
503.07	28687.95
503.25	28992.22
503.43	28828.38
503.60	28914.98
503.78	28683.27
503.95	28987.53
504.13	29462.66
504.30	29624.16
504.48	29474.37
504.65	29876.94
504.83	29692.04
505.01	30403.56
505.18	29804.38
505.36	30551.01
505.53	30265.47
505.71	30333.34
505.88	30621.23
506.06	30274.83
506.23	30607.19
506.41	30298.23
506.58	30658.68
506.76	30178.87
506.93	30651.66
507.11	30866.98
507.28	30649.32
507.46	30635.27
507.63	30726.55
507.81	31218.07
507.98	30759.32
508.16	31021.46
508.33	31147.85
508.50	31395.95
508.68	31847.67
508.85	31857.03
509.03	32156.62
509.20	31700.22
509.38	31716.60
509.55	32105.13
509.73	31756.39
509.90	32198.75
510.08	31948.31
510.25	31924.91
510.42	32140.24
510.60	32233.86
510.77	32177.68
510.95	32528.77
511.12	32496.00
511.30	32938.36
511.47	33022.62
511.64	33174.75
511.82	33282.42
511.99	33036.66
512.17	33633.50
512.34	32807.29
512.51	33563.28
512.69	33235.61
512.86	33392.42
513.04	33598.39
513.21	33493.07
513.38	33745.84
513.56	33706.05
513.73	33273.06
513.90	33851.17
514.08	33654.56
514.25	34087.56
514.43	33846.49
514.60	34066.50
514.77	34132.03
514.95	34536.94
515.12	34651.63
515.29	34279.49
515.47	34749.93
515.64	34785.04
515.81	34478.43
515.99	34258.42
516.16	34726.53
516.33	34307.57
516.51	34508.86
516.68	33717.76
516.85	33993.94
517.03	34504.18
517.20	34188.21
517.37	34778.02
517.54	35117.40
517.72	34920.79
517.89	34817.81
518.06	34881.00
518.24	34775.68
518.41	34843.56
518.58	35288.26
518.75	35372.52
518.93	35557.42
519.10	35573.80
519.27	35777.43
519.45	35639.34
519.62	35824.24
519.79	35658.06
519.96	36297.03
520.14	36409.37
520.31	35988.08
520.48	36290.01
520.65	36409.37
520.83	37146.64
521.00	37006.21
521.17	36732.37
521.34	36811.95
521.52	36519.38
521.69	36884.50
521.86	37095.15
522.03	37092.81
522.20	37062.38
522.38	37144.30
522.55	37027.28
522.72	37109.19
522.89	37020.25
523.07	37376.01
523.24	37071.75
523.41	37436.87
523.58	37511.77
523.75	38167.12
523.92	38082.86
524.10	37792.63
524.27	37708.37
524.44	37783.27
524.61	38007.96
524.78	38300.53
524.96	38242.01
525.13	38265.42
525.30	37904.98
525.47	38583.73
525.64	38534.58
525.81	38717.14
525.98	38368.40
526.16	38047.75
526.33	37888.59
526.50	38586.07
526.67	37907.32
526.84	37876.89
527.01	38206.90
527.18	39012.05
527.36	38691.40
527.53	38773.31
527.70	39489.52
527.87	39613.57
528.04	39009.71
528.21	39412.28
528.38	39393.56
528.55	39643.99
528.72	39742.30
528.89	39728.25
529.07	39339.72
529.24	39255.46
529.41	39840.60
529.58	40126.14
529.75	39433.35
529.92	39966.99
530.09	39992.73
530.26	40350.84
530.43	39693.15
530.60	40009.12
530.77	39718.89
530.94	40477.22
531.11	40168.27
531.28	40257.21
531.46	40367.22
531.63	40423.39
531.80	40397.65
531.97	40474.88
532.14	40383.60
532.31	39569.10
532.48	40130.83
532.65	40460.84
532.82	40687.87
532.99	40524.04
533.16	40364.88
533.33	40797.88
533.50	40989.80
533.67	40837.67
533.84	40554.46
534.01	40832.99
534.18	40634.04
534.35	41057.68
534.52	40678.51
534.69	41125.55
534.86	41509.40
535.03	41200.45
535.20	41464.93
535.37	41867.50
535.54	41743.45
535.71	41294.07
535.88	41743.45
536.05	41488.34
536.22	41488.34
536.38	41471.95
536.55	41904.95
536.72	41820.69
536.89	40896.18
537.06	41539.83
537.23	41500.04
537.40	41551.53
537.57	41769.20
537.74	42019.64
537.91	42618.81
538.08	42036.02
538.25	41958.78
538.42	41837.08
538.59	42171.77
538.75	42045.38
538.92	41996.23
539.09	42082.83
539.26	42040.70
539.43	42185.82
539.60	42153.05
539.77	41741.11
539.94	42131.98
540.11	41563.23
540.28	42157.73
540.44	42433.91
540.61	42281.78
540.78	42373.06
540.95	42316.89
541.12	42274.76
541.29	42286.46
541.46	42637.54
541.62	42300.50
541.79	42667.97
541.96	42389.44
542.13	42941.81
542.30	42623.50
542.47	43012.02
542.63	42789.67
542.80	42937.13
542.97	43445.02
543.14	43388.85
543.31	43468.43
543.48	43449.70
543.64	44004.41
543.81	44367.20
543.98	43758.66
544.15	43585.46
544.32	43536.30
544.48	44229.10
544.65	43515.24
544.82	43751.63
544.99	43597.16
545.16	43709.50
545.32	43555.03
545.49	44154.21
545.66	44432.73
545.83	44226.76
546.00	44507.63
546.16	43899.09
546.33	43545.67
546.50	43782.06
546.67	44186.97
546.83	43805.47
547.00	43742.27
547.17	44175.27
547.34	43924.83
547.50	44154.21
547.67	44107.40
547.84	44383.58
548.00	44559.12
548.17	45038.93
548.34	44671.46
548.51	44690.19
548.67	44582.52
548.84	44563.80
549.01	44385.92
549.18	44463.16
549.34	44289.96
549.51	44463.16
549.68	44755.72
549.84	44931.26
550.01	44987.44
550.18	44692.53
550.34	44741.68
550.51	44561.46
550.68	44783.81
550.84	44488.90
551.01	45071.70
551.18	44657.42
551.34	44889.13
551.51	45172.34
551.68	45242.56
551.84	45186.38
552.01	44734.66
552.18	44926.58
552.34	44638.70
552.51	45036.59
552.68	44729.98
552.84	45223.83
553.01	45429.80
553.18	45333.84
553.34	45371.28
553.51	44809.56
553.67	45272.98
553.84	45282.34
554.01	45682.58
554.17	45476.61
554.34	45322.13
554.51	45844.07
554.67	45701.30
554.84	45752.79
555.00	45336.18
555.17	45551.51
555.33	45668.53
555.50	44989.78
555.67	44765.09
555.83	45691.94
556.00	45530.44
556.16	45617.04
556.33	46078.13
556.50	45570.23
556.66	46241.96
556.83	45624.06
556.99	45734.07
557.16	45663.85
557.32	46204.52
557.49	45846.41
557.65	45352.56
557.82	46089.83
557.98	46012.59
558.15	45764.49
558.32	45996.21
558.48	45811.31
558.65	45755.13
558.81	45806.62
558.98	46026.63
559.14	45488.31
559.31	45696.62
559.47	45998.55
559.64	46190.47
559.80	45949.40
559.97	45949.40
560.13	45883.86
560.30	45970.46
560.46	45951.74
560.63	46422.19
560.79	46452.61
560.96	46583.68
561.12	46401.12
561.29	46202.18
561.45	46370.69
561.61	46073.45
561.78	46155.36
561.94	46230.26
562.11	45888.54
562.27	46138.98
562.44	46092.17
562.60	46431.55
562.77	46340.27
562.93	46438.57
563.10	46784.97
563.26	45743.43
563.42	46541.55
563.59	46403.46
563.75	46202.18
563.92	46557.94
564.08	46120.26
564.24	46574.32
564.41	46124.94
564.57	46333.24
564.74	46286.43
564.90	46635.17
565.07	46564.96
565.23	46501.76
565.39	46368.35
565.56	46436.23
565.72	46239.62
565.88	46225.58
566.05	45993.87
566.21	46148.34
566.38	46485.38
566.54	46658.58
566.70	46672.62
566.87	46841.14
567.03	46508.79
567.19	46909.02
567.36	46712.41
567.52	46518.15
567.68	46880.93
567.85	46452.61
568.01	46461.97
568.17	46454.95
568.34	46841.14
568.50	46595.38
568.66	46248.99
568.83	46567.30
568.99	45998.55
569.15	46195.15
569.32	46314.52
569.48	46316.86
569.64	46632.83
569.81	46742.84
569.97	46562.62
570.13	46461.97
570.30	45958.76
570.46	46571.98
570.62	46277.07
570.78	46209.20
570.95	46143.66
571.11	46899.65
571.27	46239.62
571.43	46614.11
571.60	46948.81
571.76	46555.60
571.92	46375.37
572.09	46878.59
572.25	46897.31
572.41	46576.66
572.57	46616.45
572.74	47019.02
572.90	46464.32
573.06	46780.29
573.22	46614.11
573.38	47075.19
573.55	46295.80
573.71	47161.79
573.87	46869.23
574.03	46698.37
574.20	46340.27
574.36	46307.50
574.52	46827.10
574.68	46590.70
574.84	46188.13
575.01	46600.07
575.17	46876.25
575.33	46487.72
575.49	46340.27
575.65	47026.04
575.82	46951.15
575.98	46958.17
576.14	47290.52
576.30	46960.51
576.46	46766.24
576.62	46906.68
576.79	46836.46
576.95	46649.22
577.11	46770.93
577.27	47262.44
577.43	47037.75
577.59	46522.83
577.75	46497.08
577.92	46167.07
578.08	46368.35
578.24	46527.51
578.40	46529.85
578.56	47117.32
578.72	46738.16
578.88	47217.97
579.04	46553.26
579.21	46689.01
579.37	46880.93
579.53	46742.84
579.69	46707.73
579.85	46614.11
580.01	47033.07
580.17	46827.10
580.33	46639.86
580.49	46897.31
580.65	46829.44
580.82	46827.10
580.98	46712.41
581.14	46438.57
581.30	47035.41
581.46	46913.70
581.62	47026.04
581.78	46958.17
581.94	47232.01
582.10	46960.51
582.26	46890.29
582.42	47250.74
582.58	47227.33
582.74	46859.87
582.90	47175.84
583.06	46810.71
583.22	47250.74
583.38	47323.29
583.54	47180.52
583.70	47295.21
583.86	47037.75
584.02	46894.97
584.18	47082.22
584.34	47295.21
584.50	46791.99
584.66	46979.23
584.82	46408.14
584.98	47278.82
585.14	46932.42
585.30	46810.71
585.46	46534.53
585.62	46684.33
585.78	47103.28
585.94	46389.42
586.10	46962.85
586.26	46546.23
586.42	46995.62
586.58	47349.04
586.74	47196.90
586.90	46609.43
587.06	46836.46
587.22	46735.82
587.38	46630.49
587.54	47117.32
587.70	47035.41
587.86	47019.02
588.02	47096.26
588.18	47271.80
588.34	46681.98
588.49	46520.49
588.65	46010.25
588.81	46579.00
588.97	46564.96
589.13	46234.94
589.29	46742.84
589.45	46454.95
589.61	46693.69
589.77	47105.62
589.93	46850.50
