SpectraSuite Data File
++++++++++++++++++++++++++++++++++++
Date: Fri Oct 25 10:48:27 EDT 2013
User: price-jones
Dark Spectrum Present: No
Reference Spectrum Present: No
Number of Sampled Component Spectra: 1
Spectrometers: USB2+H05261
Integration Time (usec): 100000 (USB2+H05261)
Spectra Averaged: 1 (USB2+H05261)
Boxcar Smoothing: 0 (USB2+H05261)
Correct for Electrical Dark: No (USB2+H05261)
Strobe/Lamp Enabled: No (USB2+H05261)
Correct for Detector Non-linearity: No (USB2+H05261)
Correct for Stray Light: No (USB2+H05261)
Number of Pixels in Processed Spectrum: 2048
>>>>>Begin Processed Spectral Data<<<<<
365.73	119.37
365.92	119.37
366.12	119.37
366.32	102.98
366.52	51.49
366.72	58.51
366.91	74.90
367.11	72.56
367.31	4.68
367.51	74.90
367.70	32.77
367.90	102.98
368.10	53.83
368.30	72.56
368.49	0.00
368.69	86.60
368.89	21.06
369.09	42.13
369.28	70.22
369.48	7.02
369.68	74.90
369.87	110.01
370.07	16.38
370.27	238.73
370.47	280.86
370.66	351.08
370.86	400.23
371.06	486.83
371.25	559.39
371.45	454.06
371.65	444.70
371.84	500.87
372.04	470.45
372.24	521.94
372.44	528.96
372.63	526.62
372.83	521.94
373.03	524.28
373.22	519.60
373.42	503.22
373.62	606.20
373.81	519.60
374.01	627.26
374.21	603.86
374.40	505.56
374.60	615.56
374.79	575.77
374.99	587.47
375.19	615.56
375.38	596.84
375.58	601.52
375.78	606.20
375.97	580.45
376.17	681.10
376.37	681.10
376.56	688.12
376.76	587.47
376.95	543.00
377.15	683.44
377.35	692.80
377.54	678.76
377.74	592.16
377.93	732.59
378.13	683.44
378.33	706.84
378.52	737.27
378.72	697.48
378.91	664.71
379.11	741.95
379.31	727.91
379.50	655.35
379.70	737.27
379.89	683.44
380.09	634.29
380.28	692.80
380.48	744.29
380.68	741.95
380.87	688.12
381.07	737.27
381.26	624.92
381.46	667.05
381.65	730.25
381.85	772.38
382.04	753.65
382.24	711.52
382.43	699.82
382.63	734.93
382.83	704.50
383.02	758.33
383.22	772.38
383.41	711.52
383.61	718.54
383.80	786.42
384.00	851.96
384.19	739.61
384.39	784.08
384.58	784.08
384.78	816.85
384.97	770.04
385.17	844.93
385.36	905.79
385.56	772.38
385.75	751.31
385.95	844.93
386.14	809.83
386.34	919.83
386.53	887.06
386.72	840.25
386.92	844.93
387.11	896.43
387.31	898.77
387.50	908.13
387.70	807.48
387.89	861.32
388.09	891.74
388.28	898.77
388.48	870.68
388.67	856.64
388.86	978.34
389.06	910.47
389.25	973.66
389.45	936.21
389.64	994.73
389.84	1036.86
390.03	1032.18
390.22	976.00
390.42	968.98
390.61	966.64
390.81	968.98
391.00	992.39
391.19	1093.03
391.39	1116.44
391.58	1036.86
391.78	994.73
391.97	1069.62
392.16	980.68
392.36	1008.77
392.55	1006.43
392.75	1020.47
392.94	940.90
393.13	973.66
393.33	994.73
393.52	1025.15
393.71	1142.18
393.91	1057.92
394.10	1118.78
394.29	1074.31
394.49	1151.54
394.68	1334.11
394.88	1158.57
395.07	1188.99
395.26	1231.12
395.46	1261.55
395.65	1247.51
395.84	1179.63
396.04	1273.25
396.23	1203.04
396.42	1186.65
396.62	1221.76
396.81	1214.74
397.00	1188.99
397.19	1303.68
397.39	1266.23
397.58	1277.93
397.77	1401.98
397.97	1364.53
398.16	1371.55
398.35	1399.64
398.55	1397.30
398.74	1434.75
398.93	1446.45
399.12	1378.58
399.32	1413.68
399.51	1420.71
399.70	1504.96
399.90	1490.92
400.09	1399.64
400.28	1495.60
400.47	1561.14
400.67	1561.14
400.86	1657.10
401.05	1572.84
401.24	1589.22
401.44	1605.61
401.63	1579.86
401.82	1675.82
402.01	1654.76
402.21	1689.87
402.40	1631.35
402.59	1589.22
402.78	1776.47
402.97	1809.23
403.17	1675.82
403.36	1802.21
403.55	1827.96
403.74	1870.09
403.93	1724.97
404.13	1783.49
404.32	1799.87
404.51	1837.32
404.70	1858.39
404.89	1799.87
405.09	2036.27
405.28	1839.66
405.47	1823.28
405.66	1930.94
405.85	1930.94
406.05	1984.77
406.24	1959.03
406.43	1989.46
406.62	2040.95
406.81	1970.73
407.00	2017.54
407.20	2019.88
407.39	2043.29
407.58	2054.99
407.77	2153.29
407.96	2139.25
408.15	2165.00
408.34	2136.91
408.54	2267.98
408.73	2253.94
408.92	2174.36
409.11	2237.55
409.30	2300.75
409.49	2179.04
409.68	2314.79
409.87	2169.68
410.07	2310.11
410.26	2279.68
410.45	2232.87
410.64	2303.09
410.83	2427.14
411.02	2324.15
411.21	2450.54
411.40	2473.95
411.59	2513.74
411.78	2534.80
411.98	2588.63
412.17	2483.31
412.36	2509.05
412.55	2637.78
412.74	2649.49
412.93	2679.91
413.12	2628.42
413.31	2766.51
413.50	2675.23
413.69	2829.71
413.88	2841.41
414.07	2848.43
414.26	2881.20
414.45	2942.05
414.64	2843.75
414.83	2906.95
415.02	2909.29
415.22	2939.71
415.41	2993.55
415.60	3009.93
415.79	3049.72
415.98	3155.04
416.17	3108.23
416.36	3084.83
416.55	3201.85
416.74	3094.19
416.93	3185.47
417.12	3138.66
417.31	3281.43
417.50	3159.72
417.69	3335.26
417.88	3398.46
418.07	3487.40
418.26	3353.99
418.45	3356.33
418.64	3538.89
418.83	3438.25
419.02	3499.10
419.21	3438.25
419.39	3578.68
419.58	3471.01
419.77	3440.59
419.96	3613.79
420.15	3644.21
420.34	3641.87
420.53	3698.05
420.72	3597.40
420.91	3733.15
421.10	3686.34
421.29	3854.86
421.48	3859.54
421.67	3716.77
421.86	3714.43
422.05	3794.01
422.24	3655.92
422.43	3674.64
422.61	3700.39
422.80	3833.80
422.99	3857.20
423.18	3822.09
423.37	3941.46
423.56	3765.92
423.75	3845.50
423.94	3756.56
424.13	3583.36
424.32	3676.98
424.50	3927.42
424.69	3920.40
424.88	3948.48
425.07	3850.18
425.26	3925.08
425.45	3805.71
425.64	3779.97
425.83	3913.38
426.01	3852.52
426.20	3964.87
426.39	3988.27
426.58	3887.63
426.77	3798.69
426.96	3896.99
427.15	3829.12
427.33	4049.13
427.52	3981.25
427.71	3971.89
427.90	3922.74
428.09	4112.32
428.28	4042.11
428.46	4196.58
428.65	4065.51
428.84	4222.33
429.03	4109.98
429.22	3889.97
429.40	4067.85
429.59	4053.81
429.78	3777.62
429.97	3826.78
430.16	4004.66
430.34	4135.73
430.53	4102.96
430.72	4112.32
430.91	4212.96
431.10	4255.09
431.28	4521.92
431.47	4416.59
431.66	4479.79
431.85	4447.02
432.03	4386.16
432.22	4456.38
432.41	4573.41
432.60	4559.36
432.79	4519.57
432.97	4526.60
433.16	4608.51
433.35	4660.01
433.54	4636.60
433.72	4575.75
433.91	4634.26
434.10	4678.73
434.28	4748.95
434.47	4919.81
434.66	4713.84
434.85	4840.23
435.03	4758.31
435.22	4915.12
435.41	4917.47
435.59	4887.04
435.78	4990.02
435.97	4887.04
436.16	4854.27
436.34	5078.96
436.53	5055.56
436.72	5022.79
436.90	5029.81
437.09	4959.60
437.28	4968.96
437.46	5097.69
437.65	5090.67
437.84	5025.13
438.02	4983.00
438.21	5097.69
438.40	4975.98
438.58	5160.88
438.77	5200.67
438.96	5434.72
439.14	5563.45
439.33	5430.04
439.52	5535.37
439.70	5488.56
439.89	5502.60
440.08	5586.86
440.26	5493.24
440.45	5621.97
440.63	5678.14
440.82	5811.55
441.01	5687.50
441.19	5916.87
441.38	6033.90
441.57	5951.98
441.75	6085.39
441.94	6221.14
442.12	6005.81
442.31	6256.25
442.50	6143.91
442.68	6190.72
442.87	6064.33
443.05	6169.65
443.24	6340.51
443.43	6197.74
443.61	6148.59
443.80	6443.49
443.98	6179.01
444.17	6162.63
444.35	6368.60
444.54	6487.96
444.73	6434.13
444.91	6394.34
445.10	6366.26
445.28	6237.53
445.47	6167.31
445.65	6160.29
445.84	6286.68
446.02	6399.02
446.21	6340.51
446.39	6366.26
446.58	6560.52
446.77	6450.52
446.95	6499.67
447.14	6286.68
447.32	6675.21
447.51	6445.84
447.69	6471.58
447.88	6602.65
448.06	6441.15
448.25	6518.39
448.43	6705.63
448.62	6619.04
448.80	6277.32
448.99	6586.27
449.17	6555.84
449.36	6612.01
449.54	6775.85
449.73	6899.90
449.91	6782.87
450.10	7042.67
450.28	6885.86
450.46	6965.43
450.65	6974.80
450.83	6988.84
451.02	6970.12
451.20	6981.82
451.39	7091.82
451.57	6843.73
451.76	6918.62
451.94	6927.99
452.13	7070.76
452.31	7166.72
452.49	6871.81
452.68	7068.42
452.86	7007.56
453.05	6944.37
453.23	7171.40
453.42	7033.31
453.60	7164.38
453.78	7145.66
453.97	7197.15
454.15	7262.68
454.34	7194.81
454.52	7330.56
454.70	7318.86
454.89	7304.81
455.07	7330.56
455.26	7286.09
455.44	7660.57
455.62	7550.57
455.81	7438.22
455.99	7492.05
456.17	7602.06
456.36	7527.16
456.54	7564.61
456.73	7655.89
456.91	7978.89
457.09	7775.26
457.28	7985.91
457.46	7906.33
457.64	8072.51
457.83	7793.98
458.01	7864.20
458.19	8051.44
458.38	7995.27
458.56	8049.10
458.74	8107.62
458.93	8053.78
459.11	8147.40
459.29	8063.15
459.48	8116.98
459.66	8084.21
459.84	8273.79
460.03	8184.85
460.21	8224.64
460.39	8449.33
460.57	8173.15
460.76	8290.18
460.94	8287.84
461.12	8404.86
461.31	8465.72
461.49	8535.93
461.67	8269.11
461.85	8535.93
462.04	8308.90
462.22	9057.87
462.40	8592.11
462.59	8718.50
462.77	8547.64
462.95	8685.73
463.13	8758.28
463.32	8571.04
463.50	8807.44
463.68	8734.88
463.86	8650.62
464.05	8786.37
464.23	8861.27
464.41	8769.99
464.59	8725.52
464.78	9015.74
464.96	8950.21
465.14	8915.10
465.32	8891.70
465.50	9055.53
465.69	9015.74
465.87	8856.59
466.05	9109.36
466.23	8784.03
466.41	9011.06
466.60	9083.62
466.78	8985.32
466.96	8929.14
467.14	8835.52
467.32	9207.67
467.51	9273.20
467.69	8908.08
467.87	9177.24
468.05	9071.92
468.23	9387.89
468.41	9394.91
468.60	9303.63
468.78	9280.22
468.96	9390.23
469.14	9408.95
469.32	9462.79
469.50	9392.57
469.69	9523.64
469.87	9858.34
470.05	9448.74
470.23	9666.41
470.41	9614.92
470.59	9867.70
470.77	9682.80
470.95	9659.39
471.14	9921.53
471.32	9638.33
471.50	10047.92
471.68	9942.60
471.86	9898.13
472.04	9966.00
472.22	10228.14
472.40	9963.66
472.58	10036.22
472.77	10125.16
472.95	10242.18
473.13	10820.30
473.31	10399.00
473.49	10174.31
473.67	10487.94
473.85	10429.43
474.03	10553.48
474.21	10839.02
474.39	10773.49
474.57	10953.71
474.75	10883.49
474.93	10951.37
475.12	11000.52
475.30	10967.75
475.48	10904.56
475.66	11257.98
475.84	11035.63
476.02	11089.46
476.20	11215.85
476.38	11485.01
476.56	11716.72
476.74	11344.58
476.92	11566.93
477.10	11265.00
477.28	11747.15
477.46	11611.40
477.64	11875.88
477.82	12152.06
478.00	12355.69
478.18	12278.45
478.36	12215.26
478.54	12205.89
478.72	12236.32
478.90	12718.47
479.08	12889.33
479.26	12891.67
479.44	12865.92
479.62	13097.64
479.80	13069.55
479.98	13137.43
480.16	13446.38
480.34	13158.49
480.52	13277.86
480.70	13500.21
480.88	13099.98
481.06	13427.65
481.24	13532.98
481.41	13867.67
481.59	13933.21
481.77	14193.01
481.95	13853.63
482.13	14490.26
482.31	14052.58
482.49	14609.62
482.67	14647.07
482.85	14785.16
483.03	14712.61
483.21	14853.04
483.39	15087.09
483.57	15140.93
483.74	15152.63
483.92	15396.04
484.10	15351.57
484.28	15466.26
484.46	15770.53
484.64	15941.39
484.82	15721.38
485.00	15967.13
485.18	16116.93
485.35	16077.14
485.53	16044.37
485.71	15899.26
485.89	16240.98
486.07	16362.69
486.25	16292.47
486.43	16266.72
486.61	16812.07
486.78	16924.41
486.96	17209.96
487.14	17275.49
487.32	17488.48
487.50	17591.47
487.68	17649.98
487.85	18288.95
488.03	18291.29
488.21	18317.03
488.39	17935.53
488.57	18422.36
488.75	18750.03
488.92	18651.73
489.10	18684.50
489.28	19070.68
489.46	19192.39
489.64	19463.90
489.81	19688.59
489.99	19726.04
490.17	19777.53
490.35	20194.14
490.53	20067.75
490.70	20088.82
490.88	19974.13
491.06	20432.88
491.24	19988.18
491.41	20374.36
491.59	20519.48
491.77	20463.30
491.95	20603.74
492.13	20655.23
492.30	21289.51
492.48	21099.93
492.66	21008.65
492.84	21345.69
493.01	21837.20
493.19	21551.65
493.37	21598.46
493.54	21965.93
493.72	22380.20
493.90	22391.91
494.08	21869.97
494.25	23047.26
494.43	22932.57
494.61	22836.61
494.79	23133.86
494.96	22895.12
495.14	22817.88
495.32	23410.04
495.49	23101.09
495.67	23342.16
495.85	23630.05
496.02	23599.62
496.20	23707.29
496.38	23651.11
496.55	23924.96
496.73	24496.05
496.91	24226.89
497.09	24964.15
497.26	24624.78
497.44	24503.07
497.62	24418.81
497.79	24931.39
497.97	24973.52
498.14	25130.33
498.32	25266.08
498.50	25106.93
498.67	25462.69
498.85	25333.96
499.03	25563.33
499.20	25539.93
499.38	25977.61
499.56	26415.29
499.73	26164.85
499.91	26331.03
500.08	26242.09
500.26	25858.24
500.44	26288.90
500.61	26529.97
500.79	26286.56
500.97	26450.39
501.14	26391.88
501.32	26974.67
501.49	26672.74
501.67	26895.10
501.84	27000.42
502.02	26974.67
502.20	27344.48
502.37	27587.89
502.55	27508.32
502.72	27484.91
502.90	27407.67
503.07	27517.68
503.25	27578.53
503.43	27625.34
503.60	27693.22
503.78	27583.21
503.95	27861.74
504.13	28086.43
504.30	28306.44
504.48	28360.27
504.65	28514.75
504.83	28671.56
505.01	28313.46
505.18	28868.17
505.36	28924.34
505.53	29097.54
505.71	29130.31
505.88	28968.81
506.06	28774.55
506.23	29191.16
506.41	28893.91
506.58	29465.00
506.76	29404.15
506.93	29710.76
507.11	29844.17
507.28	30094.61
507.46	29446.28
507.63	29542.24
507.81	29446.28
507.98	29797.36
508.16	30031.41
508.33	30141.42
508.50	29963.54
508.68	30272.49
508.85	30478.46
509.03	30625.91
509.20	30787.41
509.38	30843.58
509.55	30532.29
509.73	31056.57
509.90	30925.50
510.08	30944.22
510.25	30925.50
510.42	31204.02
510.60	31316.37
510.77	31372.54
510.95	31388.92
511.12	31608.93
511.30	31398.29
511.47	31718.94
511.64	32027.89
511.82	32100.45
511.99	31740.00
512.17	31414.67
512.34	32041.93
512.51	32273.65
512.69	32009.17
512.86	32236.20
513.04	32713.67
513.21	32173.00
513.38	32526.42
513.56	32280.67
513.73	32526.42
513.90	32837.72
514.08	32257.26
514.25	32371.95
514.43	33022.62
514.60	32840.06
514.77	32856.44
514.95	33184.12
515.12	32781.54
515.29	33200.50
515.47	33624.14
515.64	33839.47
515.81	33521.15
515.99	33237.95
516.16	33420.51
516.33	33572.64
516.51	33376.04
516.68	33219.22
516.85	33233.27
517.03	33359.66
517.20	33797.34
517.37	33497.75
517.54	33652.22
517.72	34377.79
517.89	33720.10
518.06	33490.73
518.24	34141.39
518.41	33752.87
518.58	33858.19
518.75	34342.68
518.93	34562.69
519.10	34576.73
519.27	34637.59
519.45	34590.78
519.62	34866.96
519.79	34955.90
519.96	34761.64
520.14	35412.31
520.31	34827.17
520.48	35047.18
520.65	35353.79
520.83	35791.47
521.00	35557.42
521.17	35962.33
521.34	35732.96
521.52	36016.16
521.69	35878.07
521.86	35962.33
522.03	35828.92
522.20	35852.33
522.38	36002.12
522.55	36224.47
522.72	35541.03
522.89	35920.20
523.07	36182.34
523.24	35950.63
523.41	36374.27
523.58	36301.71
523.75	36655.13
523.92	36996.85
524.10	36563.85
524.27	36861.10
524.44	36907.91
524.61	36954.72
524.78	37312.82
524.96	37584.32
525.13	36851.73
525.30	37436.87
525.47	37591.34
525.64	37240.26
525.81	37127.92
525.98	37233.24
526.16	37064.72
526.33	37160.69
526.50	37731.78
526.67	37055.36
526.84	36982.80
527.01	37134.94
527.18	37715.39
527.36	37591.34
527.53	37514.11
527.70	38609.48
527.87	38106.26
528.04	38141.37
528.21	38150.73
528.38	38094.56
528.55	38672.67
528.72	38429.26
528.89	38665.65
529.07	38328.61
529.24	38117.96
529.41	38246.69
529.58	38487.77
529.75	38689.06
529.92	38682.03
530.09	38513.52
530.26	38679.69
530.43	38904.38
530.60	38759.27
530.77	38782.68
530.94	39154.82
531.11	38831.83
531.28	39070.56
531.46	39454.41
531.63	39358.45
531.80	39239.08
531.97	39210.99
532.14	39070.56
532.31	39379.51
532.48	39168.87
532.65	39112.69
532.82	38873.96
532.99	39573.78
533.16	39379.51
533.33	39782.09
533.50	39716.55
533.67	39522.29
533.84	39419.30
534.01	39840.60
534.18	39639.31
534.35	40177.64
534.52	39957.63
534.69	39927.20
534.86	39978.69
535.03	39861.66
535.20	40278.28
535.37	40561.48
535.54	40409.35
535.71	40346.15
535.88	40041.88
536.05	40463.18
536.22	40357.86
536.38	40367.22
536.55	40596.59
536.72	40704.26
536.89	40023.16
537.06	40299.34
537.23	40725.32
537.40	40545.10
537.57	40652.76
537.74	40577.87
537.91	41172.36
538.08	40800.22
538.25	40746.39
538.42	40734.68
538.59	41263.64
538.75	40226.79
538.92	41565.57
539.09	41062.36
539.26	41317.48
539.43	40835.33
539.60	41343.22
539.77	41048.32
539.94	41340.88
540.11	41329.18
540.28	40980.44
540.44	41329.18
540.61	41186.41
540.78	41036.61
540.95	41113.85
541.12	41698.98
541.29	42089.85
541.46	41612.38
541.62	41890.91
541.79	41907.29
541.96	41673.24
542.13	41486.00
542.30	41436.84
542.47	41759.84
542.63	41895.59
542.80	42279.44
542.97	42344.97
543.14	42302.84
543.31	42583.71
543.48	42363.70
543.64	43220.33
543.81	42602.43
543.98	42293.48
544.15	42068.79
544.32	42667.97
544.48	42911.38
544.65	42721.80
544.82	42784.99
544.99	42298.16
545.16	42918.40
545.32	42710.10
545.49	43229.69
545.66	43035.43
545.83	43091.60
546.00	42927.77
546.16	43089.26
546.33	42988.62
546.50	42361.36
546.67	42890.32
546.83	43180.54
547.00	42955.85
547.17	43091.60
547.34	42546.26
547.50	43409.92
547.67	43365.45
547.84	43189.91
548.00	43115.01
548.17	43828.87
548.34	43040.11
548.51	43721.21
548.67	43807.81
548.84	43648.65
549.01	43597.16
549.18	43433.32
549.34	43206.29
549.51	43622.90
549.68	43789.08
549.84	43438.00
550.01	44041.86
550.18	43592.48
550.34	43526.94
550.51	43695.46
550.68	43585.46
550.84	43210.97
551.01	43672.06
551.18	43786.74
551.34	43756.32
551.51	43999.73
551.68	44229.10
551.84	43885.04
552.01	44081.65
552.18	44037.18
552.34	43590.14
552.51	44065.27
552.68	43971.64
552.84	44428.05
553.01	44692.53
553.18	44304.00
553.34	44018.46
553.51	43793.76
553.67	44463.16
553.84	44346.13
554.01	44847.00
554.17	44575.50
554.34	44383.58
554.51	44521.67
554.67	44617.63
554.84	44526.35
555.00	44507.63
555.17	44395.28
555.33	44751.04
555.50	44711.25
555.67	44402.30
555.83	44341.45
556.00	44362.51
556.16	45153.62
556.33	45074.04
556.50	44940.63
556.66	44807.22
556.83	44486.56
556.99	44898.50
557.16	45228.51
557.32	45418.10
557.49	45041.27
557.65	44619.97
557.82	45338.52
557.98	44975.73
558.15	44961.69
558.32	44870.41
558.48	44617.63
558.65	44662.10
558.81	44596.57
558.98	45170.00
559.14	45041.27
559.31	45113.83
559.47	45092.76
559.64	45268.30
559.80	45621.72
559.97	45368.94
560.13	44863.39
560.30	45214.47
560.46	45298.73
560.63	44807.22
560.79	45738.75
560.96	45525.76
561.12	45027.23
561.29	45109.14
561.45	45268.30
561.61	45492.99
561.78	44982.76
561.94	45464.91
562.11	45296.39
562.27	45411.07
562.44	45523.42
562.60	45598.32
562.77	45839.39
562.93	45200.43
563.10	45720.02
563.26	45141.91
563.42	45799.60
563.59	45572.57
563.75	45230.85
563.92	45338.52
564.08	45542.14
564.24	45769.18
564.41	45670.87
564.57	46061.74
564.74	45993.87
564.90	45925.99
565.07	45633.42
565.23	45610.02
565.39	45270.64
565.56	45656.83
565.72	45844.07
565.88	45750.45
566.05	45710.66
566.21	45448.52
566.38	45820.67
566.54	45521.08
566.70	45989.19
566.87	46174.09
567.03	45607.68
567.19	45954.08
567.36	45979.82
567.52	45759.81
567.68	45736.41
567.85	45876.84
568.01	45727.05
568.17	45752.79
568.34	46169.41
568.50	45790.24
568.66	45619.38
568.83	45701.30
568.99	45832.37
569.15	45799.60
569.32	45883.86
569.48	45415.76
569.64	46314.52
569.81	46167.07
569.97	46028.98
570.13	45841.73
570.30	45560.87
570.46	45357.24
570.62	45502.35
570.78	45546.82
570.95	45886.20
571.11	45872.16
571.27	45911.95
571.43	45909.61
571.60	46089.83
571.76	45769.18
571.92	45823.01
572.09	45713.00
572.25	45925.99
572.41	45844.07
572.57	45844.07
572.74	46490.06
572.90	46534.53
573.06	46143.66
573.22	46433.89
573.38	46323.88
573.55	45270.64
573.71	45799.60
573.87	45865.14
574.03	45713.00
574.20	46110.89
574.36	45787.90
574.52	46270.05
574.68	46227.92
574.84	46476.02
575.01	45820.67
575.17	46337.93
575.33	46157.70
575.49	45961.10
575.65	46321.54
575.82	46019.61
575.98	45914.29
576.14	46312.18
576.30	46232.60
576.46	45830.03
576.62	45645.13
576.79	46071.10
576.95	45806.62
577.11	45965.78
577.27	46143.66
577.43	46429.21
577.59	46036.00
577.75	46323.88
577.92	45640.45
578.08	45628.74
578.24	45813.65
578.40	45895.56
578.56	46522.83
578.72	46124.94
578.88	46040.68
579.04	46354.31
579.21	46110.89
579.37	46237.28
579.53	45893.22
579.69	45514.06
579.85	46103.87
580.01	46450.27
580.17	46277.07
580.33	46410.48
580.49	46160.05
580.65	46527.51
580.82	46227.92
580.98	46234.94
581.14	45986.85
581.30	46092.17
581.46	46270.05
581.62	46192.81
581.78	46162.39
581.94	46536.87
582.10	46223.24
582.26	46206.86
582.42	45991.53
582.58	46281.75
582.74	46417.50
582.90	46328.56
583.06	46216.22
583.22	46855.18
583.38	46513.47
583.54	46670.28
583.70	46579.00
583.86	45933.01
584.02	46143.66
584.18	46298.14
584.34	46483.04
584.50	46279.41
584.66	46124.94
584.82	46323.88
584.98	46658.58
585.14	46429.21
585.30	45729.39
585.46	46073.45
585.62	46197.49
585.78	45961.10
585.94	45965.78
586.10	45984.51
586.26	45853.44
586.42	46721.77
586.58	46153.02
586.74	46036.00
586.90	46450.27
587.06	46373.03
587.22	46464.32
587.38	45979.82
587.54	46476.02
587.70	46333.24
587.86	46174.09
588.02	46344.95
588.18	46476.02
588.34	46012.59
588.49	45890.88
588.65	45799.60
588.81	45640.45
588.97	45698.96
589.13	45701.30
589.29	45851.09
589.45	45970.46
589.61	45895.56
589.77	46389.42
589.93	46354.31
590.08	46506.44
