SpectraSuite Data File
++++++++++++++++++++++++++++++++++++
Date: Fri Oct 25 11:34:47 EDT 2013
User: price-jones
Dark Spectrum Present: No
Reference Spectrum Present: No
Number of Sampled Component Spectra: 1
Spectrometers: USB2+H05261
Integration Time (usec): 100000 (USB2+H05261)
Spectra Averaged: 1 (USB2+H05261)
Boxcar Smoothing: 0 (USB2+H05261)
Correct for Electrical Dark: No (USB2+H05261)
Strobe/Lamp Enabled: No (USB2+H05261)
Correct for Detector Non-linearity: No (USB2+H05261)
Correct for Stray Light: No (USB2+H05261)
Number of Pixels in Processed Spectrum: 2048
>>>>>Begin Processed Spectral Data<<<<<
365.73	297.25
365.92	297.25
366.12	297.25
366.32	203.63
366.52	208.31
366.72	212.99
366.91	138.09
367.11	234.05
367.31	166.18
367.51	175.54
367.70	159.16
367.90	215.33
368.10	145.11
368.30	142.77
368.49	189.58
368.69	248.10
368.89	224.69
369.09	208.31
369.28	243.42
369.48	212.99
369.68	220.01
369.87	222.35
370.07	168.52
370.27	283.20
370.47	301.93
370.66	538.32
370.86	540.66
371.06	505.56
371.25	540.66
371.45	479.81
371.65	617.90
371.84	543.00
372.04	514.92
372.24	622.58
372.44	622.58
372.63	491.51
372.83	620.24
373.03	557.05
373.22	510.24
373.42	566.41
373.62	566.41
373.81	657.69
374.01	653.01
374.21	664.71
374.40	596.84
374.60	660.03
374.79	641.31
374.99	650.67
375.19	636.63
375.38	674.07
375.58	704.50
375.78	624.92
375.97	643.65
376.17	746.63
376.37	692.80
376.56	730.25
376.76	685.78
376.95	730.25
377.15	688.12
377.35	676.41
377.54	634.29
377.74	690.46
377.93	620.24
378.13	648.33
378.33	720.88
378.52	709.18
378.72	683.44
378.91	725.57
379.11	692.80
379.31	667.05
379.50	667.05
379.70	744.29
379.89	802.80
380.09	692.80
380.28	676.41
380.48	631.94
380.68	725.57
380.87	788.76
381.07	713.86
381.26	779.40
381.46	720.88
381.65	800.46
381.85	716.20
382.04	807.48
382.24	805.14
382.43	727.91
382.63	720.88
382.83	791.10
383.02	718.54
383.22	772.38
383.41	765.36
383.61	821.53
383.80	690.46
384.00	798.12
384.19	819.19
384.39	781.74
384.58	713.86
384.78	819.19
384.97	851.96
385.17	732.59
385.36	849.61
385.56	781.74
385.75	847.27
385.95	779.40
386.14	842.59
386.34	763.01
386.53	851.96
386.72	821.53
386.92	889.40
387.11	791.10
387.31	854.30
387.50	873.02
387.70	863.66
387.89	842.59
388.09	873.02
388.28	837.91
388.48	798.12
388.67	915.15
388.86	938.55
389.06	884.72
389.25	973.66
389.45	936.21
389.64	805.14
389.84	851.96
390.03	947.92
390.22	894.08
390.42	858.98
390.61	912.81
390.81	873.02
391.00	957.28
391.19	976.00
391.39	898.77
391.58	1008.77
391.78	964.30
391.97	976.00
392.16	926.85
392.36	943.24
392.55	1004.09
392.75	1078.99
392.94	1015.79
393.13	1057.92
393.33	952.60
393.52	1008.77
393.71	1048.56
393.91	976.00
394.10	957.28
394.29	1034.52
394.49	1043.88
394.68	1081.33
394.88	1025.15
395.07	1118.78
395.26	1097.71
395.46	1130.48
395.65	1172.61
395.84	1050.90
396.04	1160.91
396.23	1151.54
396.42	1104.73
396.62	1146.86
396.81	1196.01
397.00	1228.78
397.19	1114.10
397.39	1196.01
397.58	1170.27
397.77	1186.65
397.97	1146.86
398.16	1179.63
398.35	1287.29
398.55	1142.18
398.74	1172.61
398.93	1261.55
399.12	1277.93
399.32	1296.66
399.51	1219.42
399.70	1259.21
399.90	1284.95
400.09	1238.14
400.28	1320.06
400.47	1287.29
400.67	1280.27
400.86	1336.45
401.05	1315.38
401.24	1446.45
401.44	1406.66
401.63	1350.49
401.82	1380.92
402.01	1404.32
402.21	1427.73
402.40	1383.26
402.59	1434.75
402.78	1383.26
402.97	1441.77
403.17	1401.98
403.36	1465.18
403.55	1472.20
403.74	1600.93
403.93	1460.49
404.13	1544.75
404.32	1507.30
404.51	1472.20
404.70	1633.69
404.89	1544.75
405.09	1549.43
405.28	1624.33
405.47	1631.35
405.66	1551.78
405.85	1685.19
406.05	1687.53
406.24	1685.19
406.43	1675.82
406.62	1722.63
406.81	1816.26
407.00	1710.93
407.20	1685.19
407.39	1647.74
407.58	1811.57
407.77	1867.75
407.96	1764.76
408.15	1781.15
408.34	1694.55
408.54	1760.08
408.73	1856.04
408.92	1799.87
409.11	1863.07
409.30	1846.68
409.49	1909.88
409.68	1933.28
409.87	1853.70
410.07	1914.56
410.26	1921.58
410.45	2031.58
410.64	1947.33
410.83	2033.93
411.02	1963.71
411.21	2064.35
411.40	2064.35
411.59	2148.61
411.78	2054.99
411.98	2062.01
412.17	2183.72
412.36	2153.29
412.55	2193.08
412.74	2291.38
412.93	2258.62
413.12	2179.04
413.31	2342.88
413.50	2282.02
413.69	2172.02
413.88	2270.32
414.07	2389.69
414.26	2424.80
414.45	2417.77
414.64	2394.37
414.83	2499.69
415.02	2455.22
415.22	2462.24
415.41	2502.03
415.60	2579.27
415.79	2499.69
415.98	2567.57
416.17	2616.72
416.36	2630.76
416.55	2569.91
416.74	2663.53
416.93	2574.59
417.12	2794.60
417.31	2782.90
417.50	2759.49
417.69	2850.77
417.88	2836.73
418.07	2808.64
418.26	2771.19
418.45	2913.97
418.64	2911.63
418.83	2958.44
419.02	2850.77
419.21	2977.16
419.39	2970.14
419.58	2899.92
419.77	2899.92
419.96	3000.57
420.15	2986.52
420.34	3028.65
420.53	2944.39
420.72	3030.99
420.91	2988.86
421.10	3141.00
421.29	3138.66
421.48	2953.76
421.67	3096.53
421.86	3033.33
422.05	3180.79
422.24	3094.19
422.43	3136.32
422.61	3213.56
422.80	3194.83
422.99	3145.68
423.18	3171.43
423.37	3194.83
423.56	3307.18
423.75	3227.60
423.94	3148.02
424.13	3054.40
424.32	3115.25
424.50	3307.18
424.69	3370.37
424.88	3211.22
425.07	3204.19
425.26	3248.66
425.45	3325.90
425.64	3236.96
425.83	3148.02
426.01	3325.90
426.20	3229.94
426.39	3358.67
426.58	3325.90
426.77	3272.07
426.96	3400.80
427.15	3272.07
427.33	3428.88
427.52	3346.97
427.71	3574.00
427.90	3407.82
428.09	3398.46
428.28	3442.93
428.46	3534.21
428.65	3555.27
428.84	3609.11
429.03	3627.83
429.22	3482.72
429.40	3578.68
429.59	3536.55
429.78	3459.31
429.97	3475.70
430.16	3658.26
430.34	3585.70
430.53	3686.34
430.72	3779.97
430.91	3691.02
431.10	3630.17
431.28	3698.05
431.47	3840.82
431.66	3735.50
431.85	3861.88
432.03	3915.72
432.22	3866.56
432.41	3955.51
432.60	3929.76
432.79	3850.18
432.97	3852.52
433.16	3803.37
433.35	3882.95
433.54	3995.29
433.72	3957.85
433.91	3932.10
434.10	3964.87
434.28	3999.98
434.47	3908.69
434.66	4074.87
434.85	4159.13
435.03	4257.43
435.22	4053.81
435.41	4234.03
435.59	4304.25
435.78	4189.56
435.97	3997.64
436.16	4212.96
436.34	4114.66
436.53	4168.49
436.72	4278.50
436.90	4229.35
437.09	4262.12
437.28	4170.83
437.46	4266.80
437.65	4334.67
437.84	4322.97
438.02	4526.60
438.21	4496.17
438.40	4292.54
438.58	4524.26
438.77	4535.96
438.96	4393.19
439.14	4517.23
439.33	4751.29
439.52	4622.56
439.70	4606.17
439.89	4683.41
440.08	4652.98
440.26	4535.96
440.45	4641.28
440.63	4706.82
440.82	4877.68
441.01	4741.93
441.19	4753.63
441.38	5004.07
441.57	4938.53
441.75	5163.22
441.94	5191.31
442.12	5128.11
442.31	5266.21
442.50	5294.29
442.68	5022.79
442.87	5219.39
443.05	5270.89
443.24	5291.95
443.43	5238.12
443.61	5327.06
443.80	5343.44
443.98	5132.79
444.17	5032.15
444.35	5303.65
444.54	5465.15
444.73	5210.03
444.91	5425.36
445.10	5338.76
445.28	5455.79
445.47	5263.86
445.65	5245.14
445.84	5460.47
446.02	5380.89
446.21	5341.10
446.39	5263.86
446.58	5518.98
446.77	5364.51
446.95	5261.52
447.14	5371.53
447.32	5540.05
447.51	5437.06
447.69	5411.32
447.88	5462.81
448.06	5584.52
448.25	5401.96
448.43	5490.90
448.62	5481.53
448.80	5474.51
448.99	5413.66
449.17	5544.73
449.36	5565.79
449.54	5687.50
449.73	5640.69
449.91	5647.71
450.10	5617.29
450.28	5839.64
450.46	5813.89
450.65	5682.82
450.83	5727.29
451.02	6019.86
451.20	5982.41
451.39	5963.68
451.57	5731.97
451.76	5870.06
451.94	5893.47
452.13	5959.00
452.31	5909.85
452.49	5860.70
452.68	5895.81
452.86	5975.39
453.05	5966.03
453.23	6090.07
453.42	6038.58
453.60	5949.64
453.78	6073.69
453.97	5982.41
454.15	5984.75
454.34	6127.52
454.52	6190.72
454.70	6277.32
454.89	6333.49
455.07	6277.32
455.26	6253.91
455.44	6401.37
455.62	6221.14
455.81	6333.49
455.99	6377.96
456.17	6361.58
456.36	6455.20
456.54	6537.12
456.73	6509.03
456.91	6696.27
457.09	6656.48
457.28	6799.26
457.46	6499.67
457.64	6644.78
457.83	6736.06
458.01	6628.40
458.19	6862.45
458.38	6705.63
458.56	6633.08
458.74	6862.45
458.93	6661.16
459.11	6829.68
459.29	6822.66
459.48	6712.66
459.66	6883.52
459.84	7045.01
460.03	7047.35
460.21	6993.52
460.39	6911.60
460.57	7103.53
460.76	6890.54
460.94	7178.42
461.12	7316.51
461.31	7272.04
461.49	6993.52
461.67	7124.59
461.85	7368.01
462.04	7112.89
462.22	7328.22
462.40	7145.66
462.59	7332.90
462.77	7108.21
462.95	7365.67
463.13	7276.73
463.32	7314.17
463.50	7501.42
463.68	7290.77
463.86	7522.48
464.05	7445.24
464.23	7335.24
464.41	7489.71
464.59	7288.43
464.78	7515.46
464.96	7590.36
465.14	7534.18
465.32	7386.73
465.50	7641.85
465.69	7878.24
465.87	7714.41
466.05	7489.71
466.23	7442.90
466.41	7468.65
466.60	7918.03
466.78	7733.13
466.96	7698.02
467.14	7625.47
467.32	7948.46
467.51	7850.16
467.69	7712.07
467.87	7712.07
468.05	7892.29
468.23	7665.25
468.41	7784.62
468.60	8009.31
468.78	8013.99
468.96	7892.29
469.14	8006.97
469.32	8006.97
469.50	7955.48
469.69	8224.64
469.87	8498.49
470.05	8121.66
470.23	8222.30
470.41	8198.90
470.59	8402.52
470.77	8121.66
470.95	8341.67
471.14	8451.67
471.32	8339.33
471.50	8552.32
471.68	8479.76
471.86	8571.04
472.04	8727.86
472.22	8795.73
472.40	8723.18
472.58	8802.75
472.77	8891.70
472.95	8872.97
473.13	9025.11
473.31	8861.27
473.49	8968.93
473.67	8802.75
473.85	8851.91
474.03	9231.07
474.21	9172.56
474.39	9249.80
474.57	9434.70
474.75	9210.01
474.93	9504.92
475.12	9446.40
475.30	9231.07
475.48	9514.28
475.66	9525.98
475.84	9362.14
476.02	9617.26
476.20	9612.58
476.38	9724.93
476.56	9877.06
476.74	10033.88
476.92	9806.84
477.10	9944.94
477.28	10111.11
477.46	9951.96
477.64	10303.04
477.82	10370.91
478.00	10602.63
478.18	10391.98
478.36	10546.45
478.54	10658.80
478.72	10759.44
478.90	10733.70
479.08	10949.03
479.26	10951.37
479.44	10895.19
479.62	10972.43
479.80	10918.60
479.98	11150.31
480.16	11351.60
480.34	11316.49
480.52	11499.05
480.70	11644.17
480.88	11543.52
481.06	11800.98
481.24	11723.74
481.41	11918.01
481.59	12006.95
481.77	12084.19
481.95	12079.50
482.13	12257.39
482.31	12259.73
482.49	12400.16
482.67	12688.04
482.85	12688.04
483.03	12561.66
483.21	12978.27
483.39	13083.59
483.57	13011.04
483.74	12982.95
483.92	13167.85
484.10	13111.68
484.28	13479.15
484.46	13727.24
484.64	13493.19
484.82	13666.39
485.00	13797.46
485.18	14167.26
485.35	14253.86
485.53	13998.74
485.71	14237.48
485.89	14394.29
486.07	14310.04
486.25	14616.65
486.43	14738.35
486.61	14949.00
486.78	14787.50
486.96	14951.34
487.14	15091.77
487.32	15239.23
487.50	15346.89
487.68	15367.96
487.85	15789.25
488.03	15763.51
488.21	15906.28
488.39	15985.86
488.57	15960.11
488.75	16184.80
488.92	16365.03
489.10	16334.60
489.28	16566.31
489.46	16475.03
489.64	16718.45
489.81	16985.27
489.99	17022.72
490.17	17109.32
490.35	17436.99
490.53	17195.92
490.70	17872.33
490.88	17413.59
491.06	17872.33
491.24	17568.06
491.41	17895.74
491.59	17767.01
491.77	17881.69
491.95	18295.97
492.13	18462.15
492.30	18567.47
492.48	18328.74
492.66	18733.65
492.84	18710.24
493.01	18843.65
493.19	18656.41
493.37	18731.31
493.54	18871.74
493.72	19161.97
493.90	19463.90
494.08	19639.44
494.25	19630.07
494.43	19620.71
494.61	19763.48
494.79	20203.50
494.96	19763.48
495.14	20224.57
495.32	20292.44
495.49	20547.56
495.67	20402.45
495.85	20390.75
496.02	20922.05
496.20	20772.25
496.38	21411.22
496.55	21310.58
496.73	21678.04
496.91	21371.43
497.09	21458.03
497.26	21546.97
497.44	21380.79
497.62	21678.04
497.79	22064.23
497.97	21848.90
498.14	22045.51
498.32	22202.32
498.50	22108.70
498.67	22368.50
498.85	22721.92
499.03	22787.46
499.20	22675.11
499.38	22642.34
499.56	23220.45
499.73	22787.46
499.91	22867.03
500.08	23482.59
500.26	23311.74
500.44	23150.24
500.61	23290.67
500.79	23047.26
500.97	23520.04
501.14	23599.62
501.32	23669.84
501.49	23971.77
501.67	23711.97
501.84	23931.98
502.02	24400.08
502.20	23988.15
502.37	24252.63
502.55	23992.83
502.72	24362.64
502.90	24236.25
503.07	24348.59
503.25	24247.95
503.43	24334.55
503.60	24636.48
503.78	24872.87
503.95	24683.29
504.13	25017.99
504.30	24793.29
504.48	25071.82
504.65	25099.90
504.83	25263.74
505.01	25120.97
505.18	25308.21
505.36	25621.84
505.53	25163.10
505.71	25766.96
505.88	25727.17
506.06	25628.87
506.23	25923.77
506.41	26061.87
506.58	25701.42
506.76	26206.98
506.93	26382.52
507.11	26169.53
507.28	26230.38
507.46	26455.08
507.63	26551.04
507.81	26834.24
507.98	26630.62
508.16	27023.83
508.33	26974.67
508.50	26639.98
508.68	27255.54
508.85	27136.17
509.03	27187.66
509.20	26932.54
509.38	27557.47
509.55	27583.21
509.73	27812.59
509.90	27391.29
510.08	27304.69
510.25	27737.69
510.42	27723.65
510.60	27974.08
510.77	27866.42
510.95	28257.29
511.12	28144.94
511.30	27857.06
511.47	28126.22
511.64	28449.21
511.82	28636.45
511.99	28156.64
512.17	28547.51
512.34	28683.27
512.51	28968.81
512.69	28861.15
512.86	28929.02
513.04	29373.72
513.21	29289.46
513.38	29413.51
513.56	29476.71
513.73	29081.16
513.90	29422.87
514.08	29298.83
514.25	29511.81
514.43	29539.90
514.60	29577.35
514.77	29844.17
514.95	29820.77
515.12	29694.38
515.29	29867.58
515.47	30302.92
515.64	30354.41
515.81	29914.39
515.99	30190.57
516.16	30345.05
516.33	30340.36
516.51	30773.36
516.68	30092.27
516.85	30548.67
517.03	30597.82
517.20	31047.21
517.37	30796.77
517.54	30766.34
517.72	30773.36
517.89	30869.33
518.06	31337.43
518.24	30782.73
518.41	30862.30
518.58	31248.49
518.75	31218.07
518.93	30965.29
519.10	31194.66
519.27	31571.49
519.45	31503.61
519.62	31728.30
519.79	31775.11
519.96	31899.16
520.14	31524.68
520.31	31950.65
520.48	32114.49
520.65	32201.09
520.83	32505.36
521.00	32271.31
521.17	31995.12
521.34	32577.92
521.52	32638.77
521.69	32301.73
521.86	32311.10
522.03	32875.16
522.20	32786.22
522.38	32720.69
522.55	33153.69
522.72	32938.36
522.89	33017.94
523.07	33329.23
523.24	33078.79
523.41	33301.14
523.58	32966.45
523.75	33263.69
523.92	33427.53
524.10	33509.45
524.27	33652.22
524.44	33315.19
524.61	34003.30
524.78	33340.93
524.96	34003.30
525.13	33940.11
525.30	33830.10
525.47	34227.99
525.64	33706.05
525.81	33680.31
525.98	34370.77
526.16	34260.76
526.33	33907.34
526.50	34342.68
526.67	34211.61
526.84	34677.38
527.01	34389.49
527.18	34455.03
527.36	34700.78
527.53	34663.33
527.70	34995.69
527.87	34841.21
528.04	34555.67
528.21	34848.24
528.38	34988.67
528.55	35030.80
528.72	34969.94
528.89	34955.90
529.07	35042.50
529.24	34843.56
529.41	35531.67
529.58	35325.71
529.75	35349.11
529.92	35756.36
530.09	35248.47
530.26	35459.12
530.43	36032.55
530.60	35409.96
530.77	35269.53
530.94	35805.52
531.11	35323.36
531.28	35800.83
531.46	35587.85
531.63	35775.09
531.80	35639.34
531.97	36360.22
532.14	35772.75
532.31	35910.84
532.48	35995.10
532.65	36247.88
532.82	36212.77
532.99	36858.76
533.16	36053.61
533.33	36385.97
533.50	36781.52
533.67	36367.24
533.84	36257.24
534.01	36348.52
534.18	36285.33
534.35	36861.10
534.52	36795.56
534.69	37102.17
534.86	36715.98
535.03	37017.91
535.20	36893.86
535.37	37144.30
535.54	37013.23
535.71	36463.21
535.88	37310.48
536.05	37340.91
536.22	37528.15
536.38	37408.78
536.55	37174.73
536.72	37397.08
536.89	37104.51
537.06	37249.63
537.23	37720.07
537.40	37296.44
537.57	37125.58
537.74	37621.77
537.91	38113.28
538.08	37745.82
538.25	37406.44
538.42	37729.44
538.59	38146.05
538.75	37759.86
538.92	37989.24
539.09	38209.25
539.26	38026.68
539.43	37694.33
539.60	38354.36
539.77	38047.75
539.94	38281.80
540.11	38719.48
540.28	38583.73
540.44	38497.13
540.61	38490.11
540.78	38038.39
540.95	38630.54
541.12	38380.10
541.29	38380.10
541.46	38824.81
541.62	38656.29
541.79	38787.36
541.96	38478.41
542.13	38176.48
542.30	38656.29
542.47	38794.38
542.63	38742.89
542.80	39108.01
542.97	39040.14
543.14	39285.89
543.31	39271.85
543.48	39529.31
543.64	39826.56
543.81	39323.34
543.98	39805.49
544.15	39466.11
544.32	39573.78
544.48	39871.03
544.65	39817.19
544.82	39613.57
544.99	39491.86
545.16	39962.31
545.32	39374.83
545.49	40217.43
545.66	40203.38
545.83	39866.34
546.00	39983.37
546.16	39920.18
546.33	39999.76
546.50	39924.86
546.67	40044.23
546.83	39728.25
547.00	40098.06
547.17	40329.77
547.34	40004.44
547.50	40404.67
547.67	40641.06
547.84	40067.63
548.00	40608.29
548.17	40999.16
548.34	40804.90
548.51	40666.81
548.67	41003.85
548.84	40538.08
549.01	40825.96
549.18	40694.89
549.34	40624.68
549.51	41600.68
549.68	41233.22
549.84	40481.91
550.01	41137.26
550.18	40790.86
550.34	40617.66
550.51	41532.81
550.68	40987.46
550.84	40713.62
551.01	41181.73
551.18	41516.42
551.34	41116.19
551.51	41368.97
551.68	41273.01
551.84	41303.43
552.01	40725.32
552.18	41347.90
552.34	41071.72
552.51	41219.17
552.68	41488.34
552.84	41598.34
553.01	41399.40
553.18	41198.11
553.34	41808.99
553.51	41441.53
553.67	41750.48
553.84	41556.21
554.01	42078.15
554.17	41748.14
554.34	41666.22
554.51	41818.35
554.67	41904.95
554.84	41970.49
555.00	41778.56
555.17	42052.41
555.33	42326.25
555.50	41872.18
555.67	42265.39
555.83	42368.38
556.00	41593.66
556.16	43028.41
556.33	42272.42
556.50	42078.15
556.66	42106.24
556.83	41825.37
556.99	42590.73
557.16	42436.25
557.32	42761.59
557.49	42639.88
557.65	42108.58
557.82	42220.92
557.98	42642.22
558.15	42085.17
558.32	42869.25
558.48	42483.06
558.65	42466.68
558.81	42850.53
558.98	42628.18
559.14	42761.59
559.31	42609.45
559.47	42986.28
559.64	43021.39
559.80	42607.11
559.97	42829.46
560.13	42520.51
560.30	42836.48
560.46	42892.66
560.63	42960.53
560.79	43145.44
560.96	43695.46
561.12	43107.99
561.29	42976.92
561.45	43147.78
561.61	42656.26
561.78	43019.05
561.94	42885.64
562.11	42993.30
562.27	43082.24
562.44	43161.82
562.60	43196.93
562.77	43154.80
562.93	43435.66
563.10	43283.53
563.26	43028.41
563.42	43643.97
563.59	42990.96
563.75	43023.73
563.92	42997.98
564.08	43115.01
564.24	43428.64
564.41	43438.00
564.57	43402.89
564.74	43236.72
564.90	43438.00
565.07	43487.15
565.23	43524.60
565.39	43262.46
565.56	43597.16
565.72	43077.56
565.88	43515.24
566.05	43512.90
566.21	43545.67
566.38	43367.79
566.54	43805.47
566.70	43412.26
566.87	43608.86
567.03	43629.93
567.19	43756.32
567.36	43849.94
567.52	43880.36
567.68	44264.21
567.85	43604.18
568.01	43894.41
568.17	43611.20
568.34	43922.49
568.50	43831.21
568.66	43419.28
568.83	43821.85
568.99	43435.66
569.15	43533.96
569.32	43381.83
569.48	43753.97
569.64	44196.34
569.81	44011.43
569.97	43992.71
570.13	44142.50
570.30	43540.99
570.46	44367.20
570.62	43505.88
570.78	44215.06
570.95	44275.91
571.11	44652.74
571.27	44121.44
571.43	43894.41
571.60	43896.75
571.76	43856.96
571.92	44170.59
572.09	44011.43
572.25	43978.67
572.41	43749.29
572.57	44238.47
572.74	44491.24
572.90	44130.80
573.06	44589.55
573.22	44025.48
573.38	44336.77
573.55	44194.00
573.71	44395.28
573.87	44566.14
574.03	44287.62
574.20	44327.41
574.36	44252.51
574.52	44252.51
574.68	44477.20
574.84	44334.43
575.01	44545.08
575.17	44301.66
575.33	44584.86
575.49	44458.48
575.65	44406.98
575.82	44376.56
575.98	44240.81
576.14	44615.29
576.30	44552.10
576.46	44460.82
576.62	44484.22
576.79	44493.58
576.95	43859.30
577.11	43945.90
577.27	44254.85
577.43	44631.68
577.59	44514.65
577.75	44250.17
577.92	44418.69
578.08	44463.16
578.24	44252.51
578.40	44708.91
578.56	44643.38
578.72	44570.82
578.88	44339.11
579.04	44039.52
579.21	44383.58
579.37	44418.69
579.53	44486.56
579.69	44598.91
579.85	44350.81
580.01	44830.62
580.17	44381.24
580.33	44704.23
580.49	44781.47
580.65	45116.17
580.82	44601.25
580.98	44526.35
581.14	44236.12
581.30	44332.09
581.46	44215.06
581.62	44608.27
581.78	44495.92
581.94	44641.04
582.10	44603.59
582.26	44287.62
582.42	44570.82
582.58	44713.59
582.74	44549.76
582.90	44423.37
583.06	44748.70
583.22	44456.14
583.38	44329.75
583.54	44582.52
583.70	44561.46
583.86	44605.93
584.02	44432.73
584.18	44879.77
584.34	44957.01
584.50	44619.97
584.66	44739.34
584.82	44921.90
584.98	45291.71
585.14	44512.31
585.30	44863.39
585.46	44261.87
585.62	44402.30
585.78	44706.57
585.94	44231.44
586.10	44673.81
586.26	44484.22
586.42	44685.51
586.58	45045.95
586.74	44793.17
586.90	44453.79
587.06	44781.47
587.22	45034.25
587.38	44648.06
587.54	45418.10
587.70	44978.07
587.86	44854.03
588.02	44673.81
588.18	44624.65
588.34	44758.06
588.49	45186.38
588.65	44685.51
588.81	44603.59
588.97	45322.13
589.13	44552.10
589.29	44917.22
589.45	45179.36
589.61	45354.90
589.77	45186.38
589.93	45013.18
590.08	44856.37
590.24	45172.34
