SpectraSuite Data File
++++++++++++++++++++++++++++++++++++
Date: Fri Oct 25 11:25:45 EDT 2013
User: price-jones
Dark Spectrum Present: No
Reference Spectrum Present: No
Number of Sampled Component Spectra: 1
Spectrometers: USB2+H05261
Integration Time (usec): 100000 (USB2+H05261)
Spectra Averaged: 1 (USB2+H05261)
Boxcar Smoothing: 0 (USB2+H05261)
Correct for Electrical Dark: No (USB2+H05261)
Strobe/Lamp Enabled: No (USB2+H05261)
Correct for Detector Non-linearity: No (USB2+H05261)
Correct for Stray Light: No (USB2+H05261)
Number of Pixels in Processed Spectrum: 2048
>>>>>Begin Processed Spectral Data<<<<<
365.73	212.99
365.92	212.99
366.12	212.99
366.32	168.52
366.52	105.32
366.72	110.01
366.91	91.28
367.11	121.71
367.31	126.39
367.51	159.16
367.70	88.94
367.90	147.45
368.10	138.09
368.30	140.43
368.49	102.98
368.69	100.64
368.89	147.45
369.09	159.16
369.28	182.56
369.48	117.03
369.68	182.56
369.87	182.56
370.07	222.35
370.27	255.12
370.47	348.74
370.66	596.84
370.86	624.92
371.06	711.52
371.25	713.86
371.45	683.44
371.65	744.29
371.84	697.48
372.04	643.65
372.24	688.12
372.44	791.10
372.63	809.83
372.83	748.97
373.03	748.97
373.22	718.54
373.42	774.72
373.62	777.06
373.81	786.42
374.01	821.53
374.21	873.02
374.40	744.29
374.60	805.14
374.79	807.48
374.99	788.76
375.19	873.02
375.38	809.83
375.58	823.87
375.78	992.39
375.97	866.00
376.17	894.08
376.37	816.85
376.56	959.62
376.76	788.76
376.95	842.59
377.15	898.77
377.35	905.79
377.54	805.14
377.74	917.49
377.93	849.61
378.13	866.00
378.33	910.47
378.52	966.64
378.72	952.60
378.91	957.28
379.11	950.26
379.31	964.30
379.50	964.30
379.70	1055.58
379.89	1055.58
380.09	880.04
380.28	943.24
380.48	940.90
380.68	1020.47
380.87	976.00
381.07	1008.77
381.26	997.07
381.46	1071.97
381.65	1069.62
381.85	1060.26
382.04	1076.65
382.24	1057.92
382.43	1102.39
382.63	1046.22
382.83	1032.18
383.02	1102.39
383.22	1144.52
383.41	1125.80
383.61	1102.39
383.80	1174.95
384.00	1146.86
384.19	1181.97
384.39	1083.67
384.58	1203.04
384.78	1149.20
384.97	1174.95
385.17	1160.91
385.36	1191.33
385.56	1128.14
385.75	1179.63
385.95	1149.20
386.14	1214.74
386.34	1294.32
386.53	1252.19
386.72	1224.10
386.92	1254.53
387.11	1242.82
387.31	1233.46
387.50	1291.98
387.70	1172.61
387.89	1329.42
388.09	1233.46
388.28	1268.57
388.48	1233.46
388.67	1364.53
388.86	1362.19
389.06	1277.93
389.25	1373.89
389.45	1313.04
389.64	1338.79
389.84	1406.66
390.03	1383.26
390.22	1397.30
390.42	1364.53
390.61	1324.74
390.81	1355.17
391.00	1371.55
391.19	1439.43
391.39	1409.00
391.58	1427.73
391.78	1469.86
391.97	1514.33
392.16	1486.24
392.36	1556.46
392.55	1540.07
392.75	1523.69
392.94	1476.88
393.13	1563.48
393.33	1558.80
393.52	1605.61
393.71	1582.20
393.91	1547.09
394.10	1488.58
394.29	1542.41
394.49	1540.07
394.68	1673.48
394.88	1626.67
395.07	1778.81
395.26	1661.78
395.46	1713.27
395.65	1694.55
395.84	1757.74
396.04	1877.11
396.23	1732.00
396.42	1647.74
396.62	1778.81
396.81	1720.29
397.00	1804.55
397.19	1795.19
397.39	1764.76
397.58	1755.40
397.77	1806.89
397.97	1809.23
398.16	1881.79
398.35	1921.58
398.55	1874.77
398.74	1781.15
398.93	1844.34
399.12	1839.66
399.32	1912.22
399.51	1919.24
399.70	1984.77
399.90	1926.26
400.09	2045.63
400.28	2090.10
400.47	1987.11
400.67	2069.03
400.86	2040.95
401.05	2120.53
401.24	2001.16
401.44	2120.53
401.63	2036.27
401.82	2181.38
402.01	2143.93
402.21	2094.78
402.40	2230.53
402.59	2216.49
402.78	2111.16
402.97	2092.44
403.17	2335.85
403.36	2427.14
403.55	2321.81
403.74	2279.68
403.93	2462.24
404.13	2347.56
404.32	2352.24
404.51	2347.56
404.70	2424.80
404.89	2375.64
405.09	2392.03
405.28	2370.96
405.47	2565.23
405.66	2448.20
405.85	2396.71
406.05	2546.50
406.24	2473.95
406.43	2717.36
406.62	2675.23
406.81	2630.76
407.00	2546.50
407.20	2600.34
407.39	2647.15
407.58	2775.88
407.77	2789.92
407.96	2785.24
408.15	2661.19
408.34	2663.53
408.54	2775.88
408.73	2890.56
408.92	2803.96
409.11	2913.97
409.30	2839.07
409.49	2848.43
409.68	2925.67
409.87	2967.80
410.07	2953.76
410.26	3021.63
410.45	3028.65
410.64	3049.72
410.83	3035.67
411.02	2939.71
411.21	3105.89
411.40	3080.14
411.59	3075.46
411.78	3152.70
411.98	3269.73
412.17	3208.87
412.36	3253.34
412.55	3260.37
412.74	3321.22
412.93	3344.63
413.12	3480.38
413.31	3639.53
413.50	3449.95
413.69	3545.91
413.88	3527.19
414.07	3543.57
414.26	3595.06
414.45	3674.64
414.64	3705.07
414.83	3751.88
415.02	3824.44
415.22	3880.61
415.41	3754.22
415.60	3894.65
415.79	3742.52
415.98	3861.88
416.17	4044.45
416.36	3918.06
416.55	4025.72
416.74	4028.06
416.93	4107.64
417.12	3974.23
417.31	4004.66
417.50	4184.88
417.69	4217.65
417.88	4042.11
418.07	4294.88
418.26	4297.22
418.45	4292.54
418.64	4409.57
418.83	4414.25
419.02	4381.48
419.21	4512.55
419.39	4463.40
419.58	4367.44
419.77	4512.55
419.96	4517.23
420.15	4524.26
420.34	4409.57
420.53	4613.20
420.72	4683.41
420.91	4603.83
421.10	4793.42
421.29	4779.37
421.48	4629.58
421.67	4660.01
421.86	4793.42
422.05	4760.65
422.24	4765.33
422.43	4940.87
422.61	4887.04
422.80	5039.17
422.99	4978.32
423.18	4910.44
423.37	4896.40
423.56	4770.01
423.75	4936.19
423.94	4746.61
424.13	4559.36
424.32	4774.69
424.50	4994.70
424.69	5043.85
424.88	5020.45
425.07	4833.21
425.26	4809.80
425.45	4854.27
425.64	4877.68
425.83	4887.04
426.01	5090.67
426.20	5067.26
426.39	5104.71
426.58	5013.43
426.77	4901.08
426.96	5060.24
427.15	5128.11
427.33	5083.64
427.52	5170.24
427.71	5210.03
427.90	5153.86
428.09	5291.95
428.28	5376.21
428.46	5324.72
428.65	5434.72
428.84	5420.68
429.03	5474.51
429.22	5303.65
429.40	5511.96
429.59	5614.95
429.78	5287.27
429.97	5252.16
430.16	5558.77
430.34	5549.41
430.53	5565.79
430.72	5621.97
430.91	5563.45
431.10	5689.84
431.28	5565.79
431.47	5827.93
431.66	5841.98
431.85	5724.95
432.03	5736.65
432.22	5849.00
432.41	5891.13
432.60	5900.49
432.79	5891.13
432.97	6047.94
433.16	6005.81
433.35	6024.54
433.54	5980.07
433.72	5935.60
433.91	6057.31
434.10	6162.63
434.28	6111.14
434.47	6204.76
434.66	6284.34
434.85	6183.70
435.03	6289.02
435.22	6279.66
435.41	6333.49
435.59	6387.32
435.78	6462.22
435.97	6443.49
436.16	6251.57
436.34	6263.27
436.53	6445.84
436.72	6600.31
436.90	6588.61
437.09	6422.43
437.28	6394.34
437.46	6597.97
437.65	6689.25
437.84	6949.05
438.02	6651.80
438.21	6588.61
438.40	6637.76
438.58	7084.80
438.77	7045.01
438.96	6977.14
439.14	7192.47
439.33	6970.12
439.52	7033.31
439.70	7110.55
439.89	7119.91
440.08	7318.86
440.26	7236.94
440.45	7353.96
440.63	7398.43
440.82	7655.89
441.01	7655.89
441.19	7419.50
441.38	7873.56
441.57	7723.77
441.75	7620.78
441.94	7831.43
442.12	7826.75
442.31	7990.59
442.50	8021.02
442.68	7880.58
442.87	8131.02
443.05	8070.17
443.24	8124.00
443.43	8175.49
443.61	8205.92
443.80	8411.89
443.98	8044.42
444.17	7861.86
444.35	8203.58
444.54	8292.52
444.73	8351.03
444.91	8229.32
445.10	8269.11
445.28	8196.56
445.47	8168.47
445.65	8386.14
445.84	8156.77
446.02	8486.78
446.21	8379.12
446.39	8372.10
446.58	8540.61
446.77	8479.76
446.95	8231.66
447.14	8339.33
447.32	8489.12
447.51	8615.51
447.69	8542.96
447.88	8554.66
448.06	8580.40
448.25	8514.87
448.43	8683.39
448.62	8629.56
448.80	8531.25
448.99	8610.83
449.17	8652.96
449.36	8449.33
449.54	8758.28
449.73	8933.82
449.91	8833.18
450.10	9102.34
450.28	8994.68
450.46	8926.80
450.65	9153.84
450.83	9025.11
451.02	8959.57
451.20	9233.41
451.39	9053.19
451.57	9135.11
451.76	9004.04
451.94	9217.03
452.13	9357.46
452.31	9261.50
452.49	9004.04
452.68	9266.18
452.86	9310.65
453.05	9434.70
453.23	9565.77
453.42	9476.83
453.60	9268.52
453.78	9579.81
453.97	9247.46
454.15	9661.73
454.34	9521.30
454.52	9631.30
454.70	9565.77
454.89	9701.52
455.07	9743.65
455.26	9921.53
455.44	9778.76
455.62	9902.81
455.81	9745.99
455.99	9949.62
456.17	10111.11
456.36	10017.49
456.54	10113.45
456.73	10335.81
456.91	10518.37
457.09	10272.61
457.28	10633.05
457.46	10298.36
457.64	10607.31
457.83	10551.14
458.01	10560.50
458.19	10537.09
458.38	10548.79
458.56	10530.07
458.74	10537.09
458.93	10689.23
459.11	10799.23
459.29	10721.99
459.48	10993.50
459.66	10635.39
459.84	10888.17
460.03	11094.14
460.21	10731.36
460.39	10988.82
460.57	10916.26
460.76	11094.14
460.94	10977.11
461.12	11152.65
461.31	10930.30
461.49	11073.07
461.67	11300.11
461.85	11510.75
462.04	11176.06
462.22	11683.95
462.40	11442.88
462.59	11524.80
462.77	11342.24
462.95	11548.20
463.13	11534.16
463.32	11557.57
463.50	11910.99
463.68	11700.34
463.86	11903.96
464.05	11604.38
464.23	11688.64
464.41	11985.88
464.59	11508.41
464.78	12154.40
464.96	11831.41
465.14	11578.63
465.32	12088.87
465.50	12056.10
465.69	12161.42
465.87	12063.12
466.05	12037.38
466.23	12182.49
466.41	12126.32
466.60	12561.66
466.78	12037.38
466.96	12189.51
467.14	12095.89
467.32	12428.24
467.51	12475.06
467.69	11974.18
467.87	12479.74
468.05	12568.68
468.23	12374.41
468.41	12559.31
468.60	12629.53
468.78	12690.38
468.96	12681.02
469.14	12762.94
469.32	13032.10
469.50	12383.77
469.69	12800.39
469.87	12999.34
470.05	13137.43
470.23	13195.94
470.41	12938.48
470.59	13453.40
470.77	13011.04
470.95	13207.64
471.14	13345.73
471.32	13097.64
471.50	13387.86
471.68	13355.10
471.86	13757.67
472.04	13727.24
472.22	14001.08
472.40	13645.32
472.58	13647.66
472.77	13692.13
472.95	13991.72
473.13	14555.79
473.31	13830.23
473.49	14134.50
473.67	14176.62
473.85	14167.26
474.03	14682.18
474.21	14361.53
474.39	14597.92
474.57	14771.12
474.75	14871.76
474.93	15040.28
475.12	14988.79
475.30	15059.01
475.48	14843.68
475.66	15101.14
475.84	15213.48
476.02	15398.38
476.20	15194.76
476.38	15686.27
476.56	15932.03
476.74	15829.04
476.92	15779.89
477.10	15747.12
477.28	16130.97
477.46	16095.86
477.64	16484.39
477.82	16205.87
478.00	16744.19
478.18	16669.30
478.36	16704.40
478.54	17123.36
478.72	17106.98
478.90	17298.90
479.08	17462.74
479.26	17694.45
479.44	17699.13
479.62	17888.71
479.80	18223.41
479.98	18047.87
480.16	18375.55
480.34	18396.61
480.52	18438.74
480.70	18258.52
480.88	18277.24
481.06	18698.54
481.24	18855.36
481.41	18906.85
481.59	19019.19
481.77	19339.85
481.95	19360.91
482.13	19482.62
482.31	19459.21
482.49	19964.77
482.67	19974.13
482.85	20152.01
483.03	20566.29
483.21	20594.37
483.39	21029.71
483.57	20762.89
483.74	21252.06
483.92	21193.55
484.10	21055.46
484.28	21685.06
484.46	22045.51
484.64	22057.21
484.82	21876.99
485.00	22001.04
485.18	22707.88
485.35	22822.56
485.53	22808.52
485.71	23047.26
485.89	23358.55
486.07	23138.54
486.25	23285.99
486.43	23653.45
486.61	23747.08
486.78	24079.43
486.96	23775.16
487.14	24404.77
487.32	24451.58
487.50	24592.01
487.68	25046.07
487.85	24999.26
488.03	25357.36
488.21	25537.59
488.39	25584.40
488.57	25888.67
488.75	25769.30
488.92	26181.23
489.10	26544.02
489.28	26354.43
489.46	27255.54
489.64	26855.31
489.81	27613.64
489.99	27405.33
490.17	27255.54
490.35	28250.27
490.53	27880.46
490.70	28194.09
490.88	28046.64
491.06	28545.17
491.24	28819.02
491.41	29130.31
491.59	29118.60
491.77	29172.44
491.95	29523.52
492.13	29429.90
492.30	29593.73
492.48	29797.36
492.66	29919.07
492.84	29968.22
493.01	30323.98
493.19	30338.02
493.37	30576.76
493.54	31101.04
493.72	31388.92
493.90	31370.20
494.08	31611.28
494.25	31908.52
494.43	31744.69
494.61	32346.20
494.79	32381.31
494.96	32196.41
495.14	32737.07
495.32	32943.04
495.49	33240.29
495.67	32905.59
495.85	33256.67
496.02	33666.27
496.20	33907.34
496.38	33841.81
496.55	33846.49
496.73	34356.72
496.91	34117.99
497.09	34752.27
497.26	34925.47
497.44	34813.13
497.62	35033.14
497.79	35431.03
497.97	35182.93
498.14	35786.79
498.32	36116.81
498.50	35665.08
498.67	36739.39
498.85	36404.69
499.03	36598.96
499.20	36690.24
499.38	36933.65
499.56	36760.45
499.73	37565.60
499.91	37261.33
500.08	37191.11
500.26	37490.70
500.44	37254.31
500.61	37596.03
500.79	37422.83
500.97	38157.75
501.14	38197.54
501.32	38181.16
501.49	37914.34
501.67	38534.58
501.84	38979.28
502.02	38658.63
502.20	38593.09
502.37	39145.46
502.55	39021.41
502.72	39306.96
502.90	39194.61
503.07	39519.95
503.25	39868.69
503.43	39498.88
503.60	39772.72
503.78	40034.86
503.95	39601.86
504.13	40341.47
504.30	40502.97
504.48	40121.46
504.65	40598.93
504.83	40802.56
505.01	40767.45
505.18	41067.04
505.36	41476.63
505.53	41375.99
505.71	41659.20
505.88	41790.27
506.06	41090.44
506.23	41607.70
506.41	41862.82
506.58	42033.68
506.76	42197.52
506.93	42443.27
507.11	42129.64
507.28	42237.31
507.46	42583.71
507.63	42958.19
507.81	42967.55
507.98	42454.98
508.16	43276.51
508.33	43515.24
508.50	43187.56
508.68	43531.62
508.85	44048.88
509.03	43667.37
509.20	43948.24
509.38	44027.82
509.55	43966.96
509.73	44421.03
509.90	44364.85
510.08	44397.62
510.25	44308.68
510.42	44301.66
510.60	44739.34
510.77	44795.51
510.95	45059.99
511.12	45198.09
511.30	44905.52
511.47	45382.99
511.64	45219.15
511.82	45624.06
511.99	45804.28
512.17	45705.98
512.34	45373.63
512.51	45628.74
512.69	46113.23
512.86	46363.67
513.04	46698.37
513.21	46581.34
513.38	46567.30
513.56	46700.71
513.73	46625.81
513.90	46827.10
514.08	46618.79
514.25	47337.33
514.43	47070.51
514.60	47386.49
514.77	47461.38
514.95	47803.10
515.12	47473.09
515.29	47653.31
515.47	47643.94
515.64	47962.26
515.81	47922.47
515.99	47948.21
516.16	48383.55
516.33	47969.28
516.51	48774.42
516.68	48161.20
516.85	48208.01
517.03	48360.15
517.20	48573.14
517.37	48914.86
517.54	49137.21
517.72	48996.77
517.89	48680.80
518.06	48912.52
518.24	48851.66
518.41	49216.78
518.58	49544.46
518.75	49385.30
518.93	49778.51
519.10	49074.01
519.27	49621.70
519.45	49579.57
519.62	50038.31
519.79	49638.08
519.96	49577.23
520.14	50003.20
520.31	49766.81
520.48	50328.54
520.65	50157.68
520.83	50382.37
521.00	50237.26
521.17	50550.89
521.34	50646.85
521.52	50602.38
521.69	50995.59
521.86	50960.48
522.03	51021.34
522.20	51210.92
522.38	51454.34
522.55	51133.68
522.72	50923.04
522.89	51187.52
523.07	51536.26
523.24	51409.87
523.41	51433.27
523.58	51405.19
523.75	51597.11
523.92	51882.66
524.10	51662.64
524.27	51545.62
524.44	52088.62
524.61	51901.38
524.78	52109.69
524.96	51889.68
525.13	52100.32
525.30	52392.89
525.47	52329.70
525.64	52374.17
525.81	52390.55
525.98	52432.68
526.16	52428.00
526.33	52807.17
526.50	52718.23
526.67	52416.30
526.84	52814.19
527.01	52640.99
527.18	52748.65
527.36	52741.63
527.53	52706.52
527.70	53130.16
527.87	53303.36
528.04	53162.93
528.21	53216.76
528.38	53394.64
528.55	53565.50
528.72	53214.42
528.89	53167.61
529.07	53223.78
529.24	53212.08
529.41	53602.95
529.58	53497.62
529.75	53298.68
529.92	53602.95
530.09	53818.28
530.26	53879.13
530.43	53712.95
530.60	53595.93
530.77	53553.80
530.94	53867.43
531.11	53710.61
531.28	54021.90
531.46	53965.73
531.63	54068.72
531.80	53993.82
531.97	54291.07
532.14	54461.93
532.31	54045.31
532.48	54300.43
532.65	54445.54
532.82	54307.45
532.99	54492.35
533.16	54485.33
533.33	54754.49
533.50	54841.09
533.67	54600.02
533.84	54567.25
534.01	54576.61
534.18	54864.50
534.35	54979.18
534.52	55009.61
534.69	55054.08
534.86	55337.29
535.03	55051.74
535.20	55061.10
535.37	55360.69
535.54	55515.17
535.71	55098.55
535.88	55267.07
536.05	55458.99
536.22	55451.97
536.38	55281.11
536.55	55454.31
536.72	55449.63
536.89	55405.16
537.06	55454.31
537.23	55585.38
537.40	55508.14
537.57	55571.34
537.74	55723.47
537.91	55934.12
538.08	55927.10
538.25	55667.30
538.42	55826.46
538.59	55852.20
538.75	55870.93
538.92	55868.59
539.09	55941.14
539.26	55948.17
539.43	55882.63
539.60	56182.22
539.77	55994.98
539.94	56479.47
540.11	56133.07
540.28	56360.10
540.44	56200.94
540.61	56224.35
540.78	56149.45
540.95	56395.21
541.12	56392.87
541.29	56423.29
541.46	56425.64
541.62	56430.32
541.79	56736.93
541.96	56252.44
542.13	56442.02
542.30	56762.67
542.47	56554.36
542.63	56655.01
542.80	56633.94
542.97	56762.67
543.14	57249.50
543.31	57162.90
543.48	57439.09
543.64	57251.84
543.81	57083.33
543.98	57270.57
544.15	57219.08
544.32	57244.82
544.48	57546.75
544.65	57106.73
544.82	57542.07
544.99	57511.64
545.16	57244.82
545.32	57326.74
545.49	57598.24
545.66	57635.69
545.83	57497.60
546.00	57530.37
546.16	57691.86
546.33	57268.23
546.50	57319.72
546.67	57333.76
546.83	57244.82
547.00	57874.43
547.17	57581.86
547.34	57780.81
547.50	57724.63
547.67	57883.79
547.84	57914.22
548.00	58007.84
548.17	58010.18
548.34	58049.97
548.51	58190.40
548.67	58134.23
548.84	57961.03
549.01	57986.77
549.18	57869.75
549.34	58258.27
549.51	58073.37
549.68	58157.63
549.84	58162.31
550.01	58305.09
550.18	58213.80
550.34	58307.43
550.51	58379.98
550.68	58398.71
550.84	57993.79
551.01	58422.11
551.18	58515.73
551.34	58564.88
551.51	58548.50
551.68	58429.13
551.84	58356.58
552.01	58230.19
552.18	58599.99
552.34	58384.66
552.51	58504.03
552.68	58398.71
552.84	58635.10
553.01	58639.78
553.18	58543.82
553.34	58946.39
553.51	58590.63
553.67	58649.14
553.84	58944.05
554.01	58759.15
554.17	58822.34
554.34	59126.61
554.51	58955.75
554.67	58752.13
554.84	58927.67
555.00	58831.71
555.17	58941.71
555.33	58960.44
555.50	58869.15
555.67	58920.65
555.83	59143.00
556.00	59040.01
556.16	59400.46
556.33	59110.23
556.50	59267.05
556.66	59152.36
556.83	59164.06
556.99	59264.70
557.16	59412.16
557.32	59360.67
557.49	59543.23
557.65	59468.33
557.82	59353.65
557.98	59077.46
558.15	59496.42
558.32	59552.59
558.48	59260.02
558.65	59320.88
558.81	59503.44
558.98	59440.24
559.14	59498.76
559.31	59379.39
559.47	59496.42
559.64	59456.63
559.80	59550.25
559.97	59716.43
560.13	59583.02
560.30	59625.15
560.46	59590.04
560.63	59503.44
560.79	59784.30
560.96	59756.22
561.12	59678.98
561.29	59718.77
561.45	59917.71
561.61	59835.80
561.78	59669.62
561.94	59690.68
562.11	59693.02
562.27	59856.86
562.44	59688.34
562.60	60006.65
562.77	59805.37
562.93	59744.51
563.10	60126.02
563.26	59730.47
563.42	60018.36
563.59	59943.46
563.75	59840.48
563.92	59770.26
564.08	59964.52
564.24	60140.07
564.41	60032.40
564.57	60055.81
564.74	60130.70
564.90	60100.28
565.07	59898.99
565.23	59936.44
565.39	59999.63
565.56	59845.16
565.72	60046.44
565.88	60147.09
566.05	59924.74
566.21	60083.89
566.38	60009.00
566.54	60074.53
566.70	60151.77
566.87	60193.90
567.03	60027.72
567.19	60472.42
567.36	59990.27
567.52	60013.68
567.68	60271.14
567.85	60090.91
568.01	60341.35
568.17	60243.05
568.34	60432.63
568.50	60313.26
568.66	60406.89
568.83	60491.15
568.99	60231.35
569.15	60317.95
569.32	60301.56
569.48	60418.59
569.64	60369.44
569.81	60346.03
569.97	60168.15
570.13	60360.08
570.30	60163.47
570.46	60477.10
570.62	60463.06
570.78	60266.45
570.95	60561.36
571.11	60610.51
571.27	60221.98
571.43	60523.91
571.60	60580.09
571.76	60474.76
571.92	60540.30
572.09	60507.53
572.25	60512.21
572.41	60477.10
572.57	60692.43
572.74	60650.30
572.90	60329.65
573.06	60685.41
573.22	60425.61
573.38	60615.19
573.55	60552.00
573.71	60839.89
573.87	60690.09
574.03	60453.70
574.20	60542.64
574.36	60694.77
574.52	60619.88
574.68	60605.83
574.84	60685.41
575.01	60715.84
575.17	60673.71
575.33	60654.98
575.49	60479.44
575.65	60563.70
575.82	60385.82
575.98	60683.07
576.14	60816.48
576.30	60626.90
576.46	60544.98
576.62	60603.49
576.79	60523.91
576.95	60736.90
577.11	60767.33
577.27	60626.90
577.43	60781.37
577.59	60725.20
577.75	60654.98
577.92	60521.57
578.08	60748.60
578.24	60680.73
578.40	60786.05
578.56	60935.85
578.72	60846.91
578.88	60664.35
579.04	60926.49
579.21	60729.88
579.37	60804.78
579.53	60919.46
579.69	60596.47
579.85	60643.28
580.01	60645.62
580.17	60481.78
580.33	60739.24
580.49	60980.32
580.65	60767.33
580.82	60839.89
580.98	60804.78
581.14	60757.97
581.30	60956.91
581.46	60622.22
581.62	60725.20
581.78	60767.33
581.94	60772.01
582.10	60809.46
582.26	60704.13
582.42	60573.06
582.58	60872.65
582.74	60692.43
582.90	60685.41
583.06	60795.42
583.22	60701.79
583.38	60860.95
583.54	60949.89
583.70	60683.07
583.86	61010.74
584.02	60755.63
584.18	60954.57
584.34	61118.41
584.50	60910.10
584.66	60638.60
584.82	60804.78
584.98	60959.25
585.14	60863.29
585.30	60828.18
585.46	60816.48
585.62	61048.19
585.78	61087.98
585.94	60406.89
586.10	60975.64
586.26	60837.54
586.42	61153.52
586.58	60874.99
586.74	61062.24
586.90	61055.21
587.06	61057.56
587.22	61097.34
587.38	60992.02
587.54	61200.33
587.70	60975.64
587.86	61041.17
588.02	60863.29
588.18	60928.83
588.34	60966.27
588.49	60755.63
