SpectraSuite Data File
++++++++++++++++++++++++++++++++++++
Date: Fri Oct 25 11:23:51 EDT 2013
User: price-jones
Dark Spectrum Present: No
Reference Spectrum Present: No
Number of Sampled Component Spectra: 1
Spectrometers: USB2+H05261
Integration Time (usec): 100000 (USB2+H05261)
Spectra Averaged: 1 (USB2+H05261)
Boxcar Smoothing: 0 (USB2+H05261)
Correct for Electrical Dark: No (USB2+H05261)
Strobe/Lamp Enabled: No (USB2+H05261)
Correct for Detector Non-linearity: No (USB2+H05261)
Correct for Stray Light: No (USB2+H05261)
Number of Pixels in Processed Spectrum: 2048
>>>>>Begin Processed Spectral Data<<<<<
365.73	248.10
365.92	248.10
366.12	248.10
366.32	140.43
366.52	168.52
366.72	128.73
366.91	149.79
367.11	112.35
367.31	119.37
367.51	159.16
367.70	205.97
367.90	128.73
368.10	135.75
368.30	77.24
368.49	112.35
368.69	147.45
368.89	166.18
369.09	133.41
369.28	128.73
369.48	184.90
369.68	175.54
369.87	205.97
370.07	159.16
370.27	250.44
370.47	301.93
370.66	519.60
370.86	650.67
371.06	653.01
371.25	634.29
371.45	627.26
371.65	648.33
371.84	690.46
372.04	692.80
372.24	681.10
372.44	667.05
372.63	678.76
372.83	781.74
373.03	727.91
373.22	793.44
373.42	748.97
373.62	744.29
373.81	770.04
374.01	713.86
374.21	828.55
374.40	805.14
374.60	807.48
374.79	936.21
374.99	828.55
375.19	840.25
375.38	856.64
375.58	821.53
375.78	809.83
375.97	936.21
376.17	924.51
376.37	833.23
376.56	847.27
376.76	823.87
376.95	856.64
377.15	875.36
377.35	847.27
377.54	873.02
377.74	894.08
377.93	919.83
378.13	917.49
378.33	992.39
378.52	905.79
378.72	917.49
378.91	997.07
379.11	896.43
379.31	1004.09
379.50	922.17
379.70	971.32
379.89	1034.52
380.09	929.19
380.28	1032.18
380.48	1043.88
380.68	940.90
380.87	936.21
381.07	945.58
381.26	1013.45
381.46	1090.69
381.65	1090.69
381.85	1029.84
382.04	1008.77
382.24	1041.54
382.43	990.05
382.63	1011.11
382.83	947.92
383.02	1146.86
383.22	1151.54
383.41	1041.54
383.61	1050.90
383.80	1093.03
384.00	1060.26
384.19	1071.97
384.39	1153.88
384.58	1139.84
384.78	1111.75
384.97	1102.39
385.17	1132.82
385.36	1100.05
385.56	1228.78
385.75	1156.22
385.95	1128.14
386.14	1121.12
386.34	1130.48
386.53	1212.40
386.72	1268.57
386.92	1259.21
387.11	1160.91
387.31	1217.08
387.50	1338.79
387.70	1245.16
387.89	1186.65
388.09	1200.69
388.28	1259.21
388.48	1341.13
388.67	1289.64
388.86	1420.71
389.06	1291.98
389.25	1282.61
389.45	1378.58
389.64	1355.17
389.84	1371.55
390.03	1455.81
390.22	1378.58
390.42	1387.94
390.61	1345.81
390.81	1416.02
391.00	1413.68
391.19	1502.62
391.39	1329.42
391.58	1432.41
391.78	1327.08
391.97	1542.41
392.16	1446.45
392.36	1612.63
392.55	1537.73
392.75	1542.41
392.94	1607.95
393.13	1589.22
393.33	1502.62
393.52	1668.80
393.71	1516.67
393.91	1537.73
394.10	1514.33
394.29	1678.16
394.49	1577.52
394.68	1556.46
394.88	1734.34
395.07	1659.44
395.26	1633.69
395.46	1685.19
395.65	1703.91
395.84	1753.06
396.04	1720.29
396.23	1732.00
396.42	1610.29
396.62	1710.93
396.81	1813.92
397.00	1767.10
397.19	1809.23
397.39	1776.47
397.58	1865.41
397.77	1823.28
397.97	1865.41
398.16	1839.66
398.35	1895.83
398.55	1937.96
398.74	1912.22
398.93	1900.52
399.12	1921.58
399.32	1750.72
399.51	1844.34
399.70	2015.20
399.90	1919.24
400.09	2040.95
400.28	2073.71
400.47	2076.06
400.67	2057.33
400.86	2045.63
401.05	2179.04
401.24	2141.59
401.44	2153.29
401.63	2113.50
401.82	2230.53
402.01	2207.13
402.21	2228.19
402.40	2181.38
402.59	2174.36
402.78	2160.31
402.97	2267.98
403.17	2253.94
403.36	2352.24
403.55	2214.15
403.74	2387.35
403.93	2363.94
404.13	2401.39
404.32	2328.83
404.51	2377.98
404.70	2455.22
404.89	2417.77
405.09	2492.67
405.28	2485.65
405.47	2527.78
405.66	2569.91
405.85	2504.37
406.05	2523.10
406.24	2497.35
406.43	2518.42
406.62	2633.10
406.81	2754.81
407.00	2726.72
407.20	2492.67
407.39	2626.08
407.58	2703.32
407.77	2813.32
407.96	2808.64
408.15	2754.81
408.34	2761.83
408.54	2855.45
408.73	2712.68
408.92	2832.05
409.11	2864.82
409.30	2860.13
409.49	3042.70
409.68	2911.63
409.87	2958.44
410.07	2984.18
410.26	3080.14
410.45	3009.93
410.64	2986.52
410.83	3176.11
411.02	3068.44
411.21	3171.43
411.40	3141.00
411.59	3251.00
411.78	3311.86
411.98	3260.37
412.17	3283.77
412.36	3204.19
412.55	3342.28
412.74	3353.99
412.93	3461.65
413.12	3349.31
413.31	3386.76
413.50	3473.36
413.69	3508.46
413.88	3543.57
414.07	3597.40
414.26	3550.59
414.45	3660.60
414.64	3686.34
414.83	3595.06
415.02	3871.25
415.22	3784.65
415.41	3824.44
415.60	3899.33
415.79	3932.10
415.98	4032.74
416.17	3920.40
416.36	4023.38
416.55	4025.72
416.74	4023.38
416.93	4163.81
417.12	4234.03
417.31	4184.88
417.50	4140.41
417.69	4360.42
417.88	4311.27
418.07	4264.46
418.26	4219.99
418.45	4421.27
418.64	4575.75
418.83	4582.77
419.02	4425.95
419.21	4575.75
419.39	4608.51
419.58	4685.75
419.77	4507.87
419.96	4568.73
420.15	4564.04
420.34	4524.26
420.53	4690.43
420.72	4791.08
420.91	4781.71
421.10	4762.99
421.29	4919.81
421.48	4669.37
421.67	4851.93
421.86	4812.14
422.05	4868.31
422.24	4828.53
422.43	4919.81
422.61	4929.17
422.80	4950.23
422.99	4947.89
423.18	5121.09
423.37	5144.50
423.56	5083.64
423.75	5015.77
423.94	4891.72
424.13	4606.17
424.32	4706.82
424.50	4823.84
424.69	5123.43
424.88	5179.61
425.07	5074.28
425.26	4847.25
425.45	4908.10
425.64	5069.60
425.83	4985.34
426.01	5001.72
426.20	5181.95
426.39	5137.48
426.58	5167.90
426.77	5102.37
426.96	5156.20
427.15	5174.92
427.33	5139.82
427.52	5093.01
427.71	5331.74
427.90	5245.14
428.09	5275.57
428.28	5411.32
428.46	5430.04
428.65	5509.62
428.84	5645.37
429.03	5596.22
429.22	5331.74
429.40	5647.71
429.59	5556.43
429.78	5320.04
429.97	5448.77
430.16	5537.71
430.34	5664.10
430.53	5820.91
430.72	5579.84
430.91	5696.86
431.10	5708.57
431.28	5682.82
431.47	5933.26
431.66	6017.52
431.85	5846.66
432.03	5951.98
432.22	6040.92
432.41	6073.69
432.60	6087.73
432.79	6050.28
432.97	5959.00
433.16	5937.94
433.35	5987.09
433.54	6092.41
433.72	6104.12
433.91	6160.29
434.10	6101.78
434.28	6169.65
434.47	6263.27
434.66	6237.53
434.85	6317.11
435.03	6452.86
435.22	6296.04
435.41	6499.67
435.59	6523.07
435.78	6626.06
435.97	6441.15
436.16	6553.50
436.34	6462.22
436.53	6349.87
436.72	6684.57
436.90	6431.79
437.09	6740.74
437.28	6696.27
437.46	6476.26
437.65	6724.36
437.84	6862.45
438.02	6733.72
438.21	6892.88
438.40	6705.63
438.58	6993.52
438.77	7012.24
438.96	7117.57
439.14	7105.87
439.33	7265.02
439.52	7269.70
439.70	7080.12
439.89	7288.43
440.08	7365.67
440.26	7267.36
440.45	7283.75
440.63	7475.67
440.82	7779.94
441.01	7555.25
441.19	7681.64
441.38	7763.56
441.57	7721.43
441.75	7911.01
441.94	7992.93
442.12	7826.75
442.31	8053.78
442.50	7913.35
442.68	7983.57
442.87	8154.43
443.05	8105.28
443.24	8217.62
443.43	8308.90
443.61	8313.58
443.80	8624.87
443.98	8280.82
444.17	8067.83
444.35	8262.09
444.54	8468.06
444.73	8397.84
444.91	8238.69
445.10	8245.71
445.28	8278.47
445.47	8093.57
445.65	8472.74
445.84	8388.48
446.02	8568.70
446.21	8526.57
446.39	8505.51
446.58	8538.27
446.77	8716.16
446.95	8079.53
447.14	8528.91
447.32	8603.81
447.51	8533.59
447.69	8566.36
447.88	8519.55
448.06	8547.64
448.25	8603.81
448.43	8491.46
448.62	8690.41
448.80	8723.18
448.99	8538.27
449.17	8631.90
449.36	8730.20
449.54	8882.33
449.73	8961.91
449.91	9006.38
450.10	9050.85
450.28	8877.65
450.46	9078.94
450.65	9050.85
450.83	8961.91
451.02	8997.02
451.20	9362.14
451.39	9320.01
451.57	9116.39
451.76	9195.96
451.94	8987.66
452.13	9430.02
452.31	9392.57
452.49	9296.61
452.68	9254.48
452.86	9357.46
453.05	9444.06
453.23	9502.58
453.42	9357.46
453.60	9631.30
453.78	9556.41
453.97	9305.97
454.15	9631.30
454.34	9638.33
454.52	9774.08
454.70	9631.30
454.89	9444.06
455.07	9825.57
455.26	9963.66
455.44	9818.55
455.62	9860.68
455.81	9853.66
455.99	10136.86
456.17	10176.65
456.36	10101.75
456.54	10125.16
456.73	10298.36
456.91	10424.75
457.09	10576.88
457.28	10464.54
457.46	10132.18
457.64	10511.35
457.83	10335.81
458.01	10345.17
458.19	10696.25
458.38	10445.81
458.56	10848.38
458.74	10703.27
458.93	10635.39
459.11	10857.75
459.29	10658.80
459.48	10876.47
459.66	10895.19
459.84	10892.85
460.03	11056.69
460.21	10995.84
460.39	10925.62
460.57	10998.18
460.76	11176.06
460.94	11283.72
461.12	11330.53
461.31	11185.42
461.49	11218.19
461.67	11192.44
461.85	11641.82
462.04	11353.94
462.22	11836.09
462.40	11667.57
462.59	11630.12
462.77	11564.59
462.95	11805.66
463.13	11880.56
463.32	11630.12
463.50	11836.09
463.68	11990.56
463.86	12025.67
464.05	11854.81
464.23	11735.45
464.41	11918.01
464.59	11690.98
464.78	12203.55
464.96	12046.74
465.14	11918.01
465.32	12035.03
465.50	12320.58
465.69	12126.32
465.87	12102.91
466.05	12266.75
466.23	12177.81
466.41	12360.37
466.60	12496.12
466.78	12241.00
466.96	12334.62
467.14	12351.01
467.32	12320.58
467.51	12571.02
467.69	12086.53
467.87	12250.36
468.05	12695.07
468.23	12472.71
468.41	12568.68
468.60	12615.49
468.78	12994.65
468.96	12704.43
469.14	12961.89
469.32	13114.02
469.50	12971.25
469.69	12924.44
469.87	13254.45
470.05	13240.41
470.23	13097.64
470.41	13270.84
470.59	13376.16
470.77	13343.39
470.95	13277.86
471.14	13652.34
471.32	13135.09
471.50	13472.12
471.68	13834.91
471.86	13935.55
472.04	13907.46
472.22	13989.38
472.40	13713.20
472.58	13813.84
472.77	13942.57
472.95	14083.00
473.13	14469.19
473.31	14207.05
473.49	14003.43
473.67	14288.97
473.85	14314.72
474.03	14626.01
474.21	14661.12
474.39	14876.44
474.57	14717.29
474.75	14958.36
474.93	15089.43
475.12	15122.20
475.30	15169.01
475.48	15138.58
475.66	15421.79
475.84	15187.74
476.02	15583.29
476.20	15307.10
476.38	15653.50
476.56	16180.12
476.74	15950.75
476.92	15932.03
477.10	15878.19
477.28	16229.27
477.46	16395.45
477.64	16367.37
477.82	16957.18
478.00	16947.82
478.18	16844.84
478.36	16952.50
478.54	17490.82
478.72	17348.05
478.90	17343.37
479.08	17488.48
479.26	17528.27
479.44	17963.61
479.62	17664.02
479.80	18223.41
479.98	18249.16
480.16	18565.13
480.34	18403.63
480.52	18630.66
480.70	18658.75
480.88	18492.57
481.06	19047.28
481.24	18970.04
481.41	18948.98
481.59	19433.47
481.77	19332.82
481.95	19655.82
482.13	19747.10
482.31	19852.42
482.49	20383.73
482.67	20271.38
482.85	20615.44
483.03	20695.02
483.21	20999.29
483.39	21151.42
483.57	20854.17
483.74	21305.90
483.92	21455.69
484.10	21289.51
484.28	21701.45
484.46	22008.06
484.64	22300.62
484.82	21921.46
485.00	22335.73
485.18	23087.04
485.35	23098.75
485.53	23103.43
485.71	22974.70
485.89	23833.68
486.07	23456.85
486.25	23412.38
486.43	23821.97
486.61	24091.13
486.78	24173.05
486.96	24493.71
487.14	24608.39
487.32	24678.61
487.50	25364.39
487.68	25170.12
487.85	25443.96
488.03	25781.00
488.21	25907.39
488.39	26029.10
488.57	26111.02
488.75	26331.03
488.92	26541.68
489.10	26841.26
489.28	27082.34
489.46	27201.71
489.64	26930.20
489.81	27950.68
489.99	27658.11
490.17	27784.50
490.35	28510.07
490.53	28212.82
490.70	28788.59
490.88	28383.68
491.06	28896.25
491.24	29193.50
491.41	28971.15
491.59	29497.77
491.77	29266.06
491.95	29677.99
492.13	30108.65
492.30	30150.78
492.48	30031.41
492.66	30071.20
492.84	30103.97
493.01	30813.15
493.19	30785.07
493.37	31047.21
493.54	31084.65
493.72	31435.74
493.90	31772.77
494.08	32142.58
494.25	32556.85
494.43	32086.40
494.61	32151.94
494.79	32547.49
494.96	32369.61
495.14	33235.61
495.32	33574.98
495.49	33371.36
495.67	33144.33
495.85	33837.12
496.02	33684.99
496.20	33996.28
496.38	34316.93
496.55	34146.08
496.73	34857.60
496.91	34796.74
497.09	35166.55
497.26	34710.14
497.44	35253.15
497.62	35896.80
497.79	35929.56
497.97	35920.20
498.14	36299.37
498.32	36093.40
498.50	36568.53
498.67	36418.74
498.85	36624.70
499.03	37186.43
499.20	36964.08
499.38	36985.15
499.56	37434.53
499.73	37258.99
499.91	37509.43
500.08	37661.56
500.26	37493.04
500.44	38316.91
500.61	37804.33
500.79	37823.06
500.97	38529.90
501.14	38288.82
501.32	38878.64
501.49	38658.63
501.67	38780.34
501.84	39019.07
502.02	39047.16
502.20	39234.40
502.37	39367.81
502.55	39562.08
502.72	39566.76
502.90	39861.66
503.07	39782.09
503.25	39992.73
503.43	39976.35
503.60	40484.25
503.78	40376.58
503.95	40409.35
504.13	40385.94
504.30	40734.68
504.48	40608.29
504.65	41359.61
504.83	41251.94
505.01	41481.31
505.18	41462.59
505.36	41579.62
505.53	41544.51
505.71	41745.80
505.88	42387.10
506.06	41759.84
506.23	41956.44
506.41	41839.42
506.58	42047.72
506.76	42106.24
506.93	42506.47
507.11	42469.02
507.28	42761.59
507.46	42838.83
507.63	42976.92
507.81	43077.56
507.98	43533.96
508.16	43182.88
508.33	43793.76
508.50	43423.96
508.68	44009.09
508.85	43922.49
509.03	44074.63
509.20	44215.06
509.38	44505.29
509.55	44481.88
509.73	44545.08
509.90	45048.29
510.08	44212.72
510.25	44561.46
510.42	45237.87
510.60	45099.78
510.77	45488.31
510.95	45858.12
511.12	45497.67
511.30	45130.21
511.47	45586.61
511.64	45401.71
511.82	45989.19
511.99	45579.59
512.17	45944.72
512.34	46237.28
512.51	46745.18
512.69	46834.12
512.86	46246.65
513.04	46700.71
513.21	46738.16
513.38	47227.33
513.56	47629.90
513.73	47012.00
513.90	47091.58
514.08	47330.31
514.25	47416.91
514.43	47562.03
514.60	47767.99
514.77	47384.15
514.95	47695.44
515.12	47833.53
515.29	47749.27
515.47	48004.39
515.64	48378.87
515.81	47997.37
515.99	47978.64
516.16	48465.47
516.33	48502.92
516.51	49368.92
516.68	48825.92
516.85	48561.44
517.03	48973.37
517.20	49195.72
517.37	48992.09
517.54	48790.81
517.72	49289.34
517.89	49214.44
518.06	49169.97
518.24	49595.95
518.41	49425.09
518.58	49661.49
518.75	49766.81
518.93	49729.36
519.10	49645.10
519.27	49996.18
519.45	49916.61
519.62	50099.17
519.79	50026.61
519.96	50199.81
520.14	50160.02
520.31	50408.12
520.48	50663.24
520.65	50705.37
520.83	51051.76
521.00	50808.35
521.17	50700.68
521.34	50672.60
521.52	50707.71
521.69	51166.45
521.86	51019.00
522.03	51241.35
522.20	51599.45
522.38	51672.01
522.55	51732.86
522.72	51807.76
522.89	51749.24
523.07	51774.99
523.24	51714.14
523.41	51990.32
523.58	51482.42
523.75	52289.91
523.92	51976.28
524.10	51917.76
524.27	52238.42
524.44	52189.27
524.61	52521.62
524.78	52175.22
524.96	52467.79
525.13	52453.75
525.30	52615.24
525.47	52842.27
525.64	52835.25
525.81	52994.41
525.98	52816.53
526.16	52559.07
526.33	52853.98
526.50	52954.62
526.67	52825.89
526.84	53474.22
527.01	52783.76
527.18	53083.35
527.36	53036.54
527.53	53141.86
527.70	53462.52
527.87	53364.21
528.04	53542.10
528.21	53319.74
528.38	53399.32
528.55	53619.33
528.72	53394.64
528.89	53738.70
529.07	53478.90
529.24	53455.50
529.41	53820.62
529.58	53741.04
529.75	53813.60
529.92	53640.40
530.09	54190.42
530.26	54211.49
530.43	54113.19
530.60	53900.20
530.77	53972.75
530.94	54220.85
531.11	54248.94
531.28	54279.36
531.46	53794.87
531.63	54614.06
531.80	54513.42
531.97	54433.84
532.14	54492.35
532.31	54602.36
532.48	54878.54
532.65	54918.33
532.82	54604.70
532.99	54749.81
533.16	54721.72
533.33	55079.83
533.50	54976.84
533.67	54930.03
533.84	54820.03
534.01	54962.80
534.18	54993.23
534.35	55166.43
534.52	55473.04
534.69	55147.70
534.86	55491.76
535.03	55337.29
535.20	55196.85
535.37	55255.37
535.54	55519.85
535.71	55253.03
535.88	55458.99
536.05	55620.49
536.22	55573.68
536.38	55765.60
536.55	55704.75
536.72	55814.76
536.89	55882.63
537.06	55807.73
537.23	55957.53
537.40	55566.66
537.57	55756.24
537.74	55957.53
537.91	56041.79
538.08	56109.66
538.25	55777.31
538.42	55889.65
538.59	56217.33
538.75	56100.30
538.92	56081.58
539.09	56229.03
539.26	56170.52
539.43	56245.41
539.60	56355.42
539.77	56439.68
539.94	56540.32
540.11	56526.28
540.28	56355.42
540.44	56467.76
540.61	56697.14
540.78	56498.19
540.95	56528.62
541.12	56528.62
541.29	56364.78
541.46	56640.96
541.62	56561.39
541.79	56765.01
541.96	56484.15
542.13	56530.96
542.30	56767.35
542.47	57050.56
542.63	57043.54
542.80	57008.43
542.97	57132.48
543.14	57518.67
543.31	57364.19
543.48	57195.67
543.64	57392.28
543.81	57616.97
543.98	57446.11
544.15	57235.46
544.32	57661.44
544.48	57532.71
544.65	57696.55
544.82	57521.01
544.99	57516.32
545.16	57656.76
545.32	57553.77
545.49	57848.68
545.66	57799.53
545.83	57691.86
546.00	57787.83
546.16	57675.48
546.33	57738.68
546.50	57677.82
546.67	58005.50
546.83	57553.77
547.00	57776.12
547.17	57862.72
547.34	58096.78
547.50	58190.40
547.67	58277.00
547.84	58255.93
548.00	58293.38
548.17	58384.66
548.34	58141.25
548.51	58220.83
548.67	58405.73
548.84	58209.12
549.01	58052.31
549.18	58342.53
549.34	58291.04
549.51	58344.87
549.68	58541.48
549.84	58672.55
550.01	58445.52
550.18	58489.99
550.34	58740.42
550.51	58569.57
550.68	58789.58
550.84	58309.77
551.01	58829.37
551.18	58541.48
551.34	58487.65
551.51	58693.61
551.68	58667.87
551.84	58834.05
552.01	58550.84
552.18	59030.65
552.34	58674.89
552.51	58913.62
552.68	58607.01
552.84	58791.92
553.01	59093.85
553.18	58972.14
553.34	59028.31
553.51	58749.79
553.67	59037.67
553.84	59117.25
554.01	59086.82
554.17	59222.58
554.34	59192.15
554.51	59157.04
554.67	59077.46
554.84	58948.73
555.00	59140.66
555.17	59114.91
555.33	59117.25
555.50	59351.30
555.67	59126.61
555.83	59100.87
556.00	59276.41
556.16	59442.59
556.33	59384.07
556.50	59320.88
556.66	59365.35
556.83	59344.28
556.99	59447.27
557.16	59533.87
557.32	59676.64
557.49	59737.49
557.65	59512.80
557.82	59557.27
557.98	59753.88
558.15	59522.16
558.32	59803.03
558.48	59355.99
558.65	59451.95
558.81	59594.72
558.98	59636.85
559.14	59728.13
559.31	59847.50
559.47	59524.50
559.64	59744.51
559.80	59852.18
559.97	59662.60
560.13	59880.27
560.30	59735.15
560.46	59842.82
560.63	59777.28
560.79	59833.46
560.96	59934.10
561.12	59999.63
561.29	60076.87
561.45	59936.44
561.61	59906.01
561.78	59817.07
561.94	59875.58
562.11	60067.51
562.27	60088.57
562.44	60090.91
562.60	60093.25
562.77	60163.47
562.93	59898.99
563.10	60175.17
563.26	60001.97
563.42	60364.76
563.59	60315.61
563.75	59889.63
563.92	60104.96
564.08	60240.71
564.24	60509.87
564.41	60170.49
564.57	60303.90
564.74	60261.77
564.90	59971.55
565.07	60339.01
565.23	60034.74
565.39	60156.45
565.56	60339.01
565.72	60306.24
565.88	60320.29
566.05	60163.47
566.21	60303.90
566.38	60409.23
566.54	60357.74
566.70	60409.23
566.87	60601.15
567.03	60271.14
567.19	60505.19
567.36	60416.25
567.52	60339.01
567.68	60718.18
567.85	60453.70
568.01	60584.77
568.17	60418.59
568.34	60519.23
568.50	60439.65
568.66	60374.12
568.83	60542.64
568.99	60470.08
569.15	60561.36
569.32	60388.16
569.48	60392.84
569.64	60636.26
569.81	60566.04
569.97	60343.69
570.13	60566.04
570.30	60425.61
570.46	60580.09
570.62	60582.43
570.78	60697.11
570.95	60268.79
571.11	60772.01
571.27	60587.11
571.43	60584.77
571.60	60865.63
571.76	60654.98
571.92	60772.01
572.09	60542.64
572.25	60849.25
572.41	60509.87
572.57	60535.62
572.74	60926.49
572.90	60568.38
573.06	60809.46
573.22	60561.36
573.38	60612.85
573.55	60793.07
573.71	60947.55
573.87	60704.13
574.03	60552.00
574.20	60755.63
574.36	60722.86
574.52	60870.31
574.68	60779.03
574.84	60938.19
575.01	60804.78
575.17	60828.18
575.33	60837.54
575.49	60683.07
575.65	60893.72
575.82	60973.30
575.98	60816.48
576.14	61017.77
576.30	60886.70
576.46	60863.29
576.62	60825.84
576.79	60910.10
576.95	60739.24
577.11	60886.70
577.27	60975.64
577.43	60750.94
577.59	60774.35
577.75	60617.53
577.92	60842.23
578.08	60734.56
578.24	60867.97
578.40	61052.87
578.56	61137.13
578.72	60807.12
578.88	61235.44
579.04	61020.11
579.21	60917.12
579.37	61322.04
579.53	61137.13
579.69	60872.65
579.85	60818.82
580.01	61066.92
580.17	60839.89
580.33	60992.02
580.49	61275.22
580.65	60917.12
580.82	60947.55
580.98	61034.15
581.14	60926.49
581.30	61064.58
581.46	61076.28
581.62	61097.34
581.78	61137.13
581.94	60945.21
582.10	61104.37
582.26	60982.66
582.42	60996.70
582.58	60996.70
582.74	60994.36
582.90	61015.43
583.06	61307.99
583.22	60926.49
583.38	60931.17
583.54	61085.64
583.70	61219.05
583.86	61083.30
584.02	60743.92
584.18	61186.28
584.34	61120.75
584.50	61118.41
584.66	61153.52
584.82	60966.27
584.98	61240.12
585.14	61059.90
585.30	61146.50
585.46	61263.52
585.62	61153.52
585.78	61230.75
585.94	60933.51
586.10	60786.05
586.26	61141.81
586.42	61258.84
586.58	61261.18
586.74	61038.83
586.90	61226.07
587.06	60968.61
587.22	61408.64
587.38	61155.86
587.54	61352.46
587.70	61265.86
587.86	61085.64
588.02	60996.70
588.18	61153.52
588.34	61104.37
588.49	61130.11
