SpectraSuite Data File
++++++++++++++++++++++++++++++++++++
Date: Fri Oct 25 11:25:29 EDT 2013
User: price-jones
Dark Spectrum Present: No
Reference Spectrum Present: No
Number of Sampled Component Spectra: 1
Spectrometers: USB2+H05261
Integration Time (usec): 100000 (USB2+H05261)
Spectra Averaged: 1 (USB2+H05261)
Boxcar Smoothing: 0 (USB2+H05261)
Correct for Electrical Dark: No (USB2+H05261)
Strobe/Lamp Enabled: No (USB2+H05261)
Correct for Detector Non-linearity: No (USB2+H05261)
Correct for Stray Light: No (USB2+H05261)
Number of Pixels in Processed Spectrum: 2048
>>>>>Begin Processed Spectral Data<<<<<
365.73	166.18
365.92	166.18
366.12	166.18
366.32	227.03
366.52	117.03
366.72	126.39
366.91	128.73
367.11	128.73
367.31	149.79
367.51	72.56
367.70	84.26
367.90	149.79
368.10	133.41
368.30	140.43
368.49	93.62
368.69	154.48
368.89	110.01
369.09	105.32
369.28	205.97
369.48	220.01
369.68	173.20
369.87	234.05
370.07	198.95
370.27	252.78
370.47	355.76
370.66	573.43
370.86	557.05
371.06	671.73
371.25	699.82
371.45	725.57
371.65	622.58
371.84	685.78
372.04	688.12
372.24	718.54
372.44	716.20
372.63	664.71
372.83	634.29
373.03	641.31
373.22	751.31
373.42	748.97
373.62	704.50
373.81	734.93
374.01	802.80
374.21	786.42
374.40	842.59
374.60	901.11
374.79	819.19
374.99	784.08
375.19	802.80
375.38	896.43
375.58	837.91
375.78	800.46
375.97	910.47
376.17	894.08
376.37	833.23
376.56	877.70
376.76	833.23
376.95	835.57
377.15	924.51
377.35	828.55
377.54	868.34
377.74	926.85
377.93	952.60
378.13	830.89
378.33	919.83
378.52	929.19
378.72	908.13
378.91	903.45
379.11	903.45
379.31	959.62
379.50	894.08
379.70	1015.79
379.89	1022.81
380.09	966.64
380.28	894.08
380.48	936.21
380.68	961.96
380.87	880.04
381.07	1055.58
381.26	1004.09
381.46	968.98
381.65	1043.88
381.85	978.34
382.04	1139.84
382.24	1043.88
382.43	1032.18
382.63	1069.62
382.83	1011.11
383.02	1163.25
383.22	1055.58
383.41	1137.50
383.61	1029.84
383.80	1240.48
384.00	1123.46
384.19	1064.94
384.39	1123.46
384.58	1179.63
384.78	1158.57
384.97	1224.10
385.17	1149.20
385.36	1188.99
385.56	1259.21
385.75	1160.91
385.95	1210.06
386.14	1214.74
386.34	1137.50
386.53	1184.31
386.72	1188.99
386.92	1263.89
387.11	1273.25
387.31	1207.72
387.50	1186.65
387.70	1156.22
387.89	1219.42
388.09	1343.47
388.28	1294.32
388.48	1308.36
388.67	1289.64
388.86	1268.57
389.06	1310.70
389.25	1425.39
389.45	1308.36
389.64	1362.19
389.84	1270.91
390.03	1483.90
390.22	1322.40
390.42	1331.76
390.61	1362.19
390.81	1343.47
391.00	1373.89
391.19	1409.00
391.39	1362.19
391.58	1448.79
391.78	1486.24
391.97	1430.07
392.16	1479.22
392.36	1586.88
392.55	1481.56
392.75	1469.86
392.94	1509.65
393.13	1556.46
393.33	1458.15
393.52	1549.43
393.71	1643.06
393.91	1535.39
394.10	1570.50
394.29	1577.52
394.49	1481.56
394.68	1652.42
394.88	1755.40
395.07	1657.10
395.26	1739.02
395.46	1717.95
395.65	1757.74
395.84	1724.97
396.04	1760.08
396.23	1722.63
396.42	1706.25
396.62	1757.74
396.81	1799.87
397.00	1811.57
397.19	1736.68
397.39	1755.40
397.58	1909.88
397.77	1783.49
397.97	1923.92
398.16	1842.00
398.35	1813.92
398.55	1870.09
398.74	1799.87
398.93	1940.30
399.12	1886.47
399.32	2045.63
399.51	1877.11
399.70	2003.50
399.90	1942.64
400.09	1980.09
400.28	2064.35
400.47	1975.41
400.67	2188.40
400.86	2120.53
401.05	2179.04
401.24	2132.23
401.44	2064.35
401.63	2118.18
401.82	2108.82
402.01	2064.35
402.21	2127.55
402.40	2176.70
402.59	2125.21
402.78	2195.42
402.97	2153.29
403.17	2253.94
403.36	2230.53
403.55	2242.23
403.74	2392.03
403.93	2401.39
404.13	2373.30
404.32	2413.09
404.51	2347.56
404.70	2354.58
404.89	2408.41
405.09	2490.33
405.28	2516.08
405.47	2469.27
405.66	2471.61
405.85	2502.03
406.05	2509.05
406.24	2562.89
406.43	2597.99
406.62	2597.99
406.81	2801.62
407.00	2548.84
407.20	2502.03
407.39	2745.45
407.58	2738.43
407.77	2773.53
407.96	2705.66
408.15	2834.39
408.34	2665.87
408.54	2853.11
408.73	2794.60
408.92	2752.47
409.11	2920.99
409.30	2825.03
409.49	2874.18
409.68	2986.52
409.87	2935.03
410.07	2946.73
410.26	2923.33
410.45	3089.51
410.64	2949.08
410.83	3019.29
411.02	3096.53
411.21	3105.89
411.40	3159.72
411.59	3279.09
411.78	3173.77
411.98	3162.06
412.17	3272.07
412.36	3281.43
412.55	3274.41
412.74	3456.97
412.93	3452.29
413.12	3295.47
413.31	3421.86
413.50	3574.00
413.69	3445.27
413.88	3531.87
414.07	3503.78
414.26	3538.89
414.45	3545.91
414.64	3620.81
414.83	3548.25
415.02	3742.52
415.22	3784.65
415.41	3815.07
415.60	3885.29
415.79	3918.06
415.98	3899.33
416.17	3929.76
416.36	3967.21
416.55	3929.76
416.74	4035.08
416.93	4152.11
417.12	4145.09
417.31	4051.47
417.50	4138.07
417.69	4252.75
417.88	4189.56
418.07	4332.33
418.26	4229.35
418.45	4294.88
418.64	4484.47
418.83	4585.11
419.02	4278.50
419.21	4554.68
419.39	4498.51
419.58	4376.80
419.77	4498.51
419.96	4531.28
420.15	4596.81
420.34	4491.49
420.53	4526.60
420.72	4610.86
420.91	4664.69
421.10	4664.69
421.29	4753.63
421.48	4561.70
421.67	4877.68
421.86	4695.11
422.05	4894.06
422.24	4943.21
422.43	4791.08
422.61	4861.29
422.80	4908.10
422.99	4997.04
423.18	5071.94
423.37	5008.75
423.56	5025.13
423.75	4868.31
423.94	4992.36
424.13	4643.62
424.32	4739.58
424.50	4898.74
424.69	5006.41
424.88	4943.21
425.07	4931.51
425.26	4816.82
425.45	4952.57
425.64	4945.55
425.83	5062.58
426.01	5034.49
426.20	5153.86
426.39	4990.02
426.58	5114.07
426.77	5231.10
426.96	5149.18
427.15	5069.60
427.33	5298.97
427.52	5100.03
427.71	5212.37
427.90	5277.91
428.09	5287.27
428.28	5313.02
428.46	5343.44
428.65	5296.63
428.84	5310.68
429.03	5572.82
429.22	5268.55
429.40	5408.98
429.59	5540.05
429.78	5165.56
429.97	5158.54
430.16	5416.00
430.34	5495.58
430.53	5694.52
430.72	5743.67
430.91	5619.63
431.10	5650.05
431.28	5678.14
431.47	5668.78
431.66	5621.97
431.85	5701.54
432.03	5982.41
432.22	5933.26
432.41	5832.62
432.60	5949.64
432.79	5818.57
432.97	6003.47
433.16	6012.84
433.35	5933.26
433.54	5982.41
433.72	6160.29
433.91	6029.22
434.10	5923.90
434.28	6047.94
434.47	6258.59
434.66	6253.91
434.85	6307.74
435.03	6223.48
435.22	6317.11
435.41	6466.90
435.59	6429.45
435.78	6342.85
435.97	6490.31
436.16	6469.24
436.34	6363.92
436.53	6483.28
436.72	6670.53
436.90	6401.37
437.09	6520.73
437.28	6473.92
437.46	6607.33
437.65	6654.14
437.84	6733.72
438.02	6661.16
438.21	6782.87
438.40	6682.23
438.58	6766.49
438.77	6890.54
438.96	7047.35
439.14	7133.95
439.33	7035.65
439.52	7140.97
439.70	7082.46
439.89	7360.98
440.08	7407.80
440.26	7445.24
440.45	7370.35
440.63	7529.50
440.82	7524.82
441.01	7588.02
441.19	7557.59
441.38	7782.28
441.57	7618.44
441.75	7709.72
441.94	7950.80
442.12	7943.78
442.31	8049.10
442.50	8044.42
442.68	7793.98
442.87	7943.78
443.05	8044.42
443.24	8088.89
443.43	8060.80
443.61	8133.36
443.80	8393.16
443.98	7843.14
444.17	7674.62
444.35	8124.00
444.54	8582.74
444.73	8163.79
444.91	8212.94
445.10	8348.69
445.28	8374.44
445.47	8166.13
445.65	8407.20
445.84	8250.39
446.02	8512.53
446.21	8234.00
446.39	8322.94
446.58	8521.89
446.77	8351.03
446.95	8112.30
447.14	8521.89
447.32	8638.92
447.51	8372.10
447.69	8280.82
447.88	8285.50
448.06	8388.48
448.25	8449.33
448.43	8620.19
448.62	8615.51
448.80	8580.40
448.99	8774.67
449.17	8739.56
449.36	8690.41
449.54	8777.01
449.73	9064.89
449.91	9163.20
450.10	8898.72
450.28	8975.95
450.46	8982.98
450.65	8968.93
450.83	9036.81
451.02	8982.98
451.20	9240.44
451.39	9034.47
451.57	8999.36
451.76	9212.35
451.94	9034.47
452.13	9320.01
452.31	9233.41
452.49	9193.62
452.68	9249.80
452.86	9228.73
453.05	9305.97
453.23	9479.17
453.42	9385.55
453.60	9254.48
453.78	9458.10
453.97	9341.08
454.15	9420.66
454.34	9448.74
454.52	9544.70
454.70	9764.72
454.89	9708.54
455.07	9678.12
455.26	9895.78
455.44	9994.09
455.62	9914.51
455.81	9898.13
455.99	10078.35
456.17	9933.23
456.36	10097.07
456.54	10270.27
456.73	10176.65
456.91	10195.37
457.09	10445.81
457.28	10480.92
457.46	10342.83
457.64	10569.86
457.83	10525.39
458.01	10408.36
458.19	10619.01
458.38	10450.49
458.56	10682.20
458.74	10572.20
458.93	10548.79
459.11	10794.55
459.29	10839.02
459.48	10808.59
459.66	10841.36
459.84	10904.56
460.03	11126.91
460.21	11105.84
460.39	11030.94
460.57	10949.03
460.76	11272.02
460.94	11276.70
461.12	11143.29
461.31	11250.96
461.49	11150.31
461.67	11098.82
461.85	11454.58
462.04	11269.68
462.22	11705.02
462.40	11456.92
462.59	11492.03
462.77	11363.30
462.95	11538.84
463.13	11499.05
463.32	11700.34
463.50	11686.29
463.68	11726.08
463.86	12086.53
464.05	11520.12
464.23	11730.76
464.41	11894.60
464.59	11758.85
464.78	11808.00
464.96	11887.58
465.14	11676.93
465.32	12046.74
465.50	11953.12
465.69	11894.60
465.87	12060.78
466.05	11964.82
466.23	12081.85
466.41	12030.35
466.60	12243.34
466.78	12266.75
466.96	12049.08
467.14	12259.73
467.32	12468.03
467.51	12210.57
467.69	12304.20
467.87	12325.26
468.05	12674.00
468.23	12250.36
468.41	12608.47
468.60	12552.29
468.78	12718.47
468.96	12512.50
469.14	12690.38
469.32	13036.78
469.50	12624.85
469.69	12835.50
469.87	13198.28
470.05	13266.16
470.23	12975.93
470.41	13097.64
470.59	13312.97
470.77	13371.48
470.95	13235.73
471.14	13399.57
471.32	12992.31
471.50	13359.78
471.68	13645.32
471.86	13444.04
472.04	13872.36
472.22	13963.64
472.40	13472.12
472.58	13626.60
472.77	13816.18
472.95	14291.31
473.13	14410.68
473.31	13898.10
473.49	14281.95
473.67	13942.57
473.85	14146.20
474.03	14499.62
474.21	14621.33
474.39	14658.78
474.57	14534.73
474.75	14974.75
474.93	15019.22
475.12	15026.24
475.30	14972.41
475.48	14883.47
475.66	15222.84
475.84	14923.26
476.02	15206.46
476.20	15339.87
476.38	15342.21
476.56	15864.15
476.74	15910.96
476.92	15943.73
477.10	15712.02
477.28	16168.42
477.46	16210.55
477.64	16449.28
477.82	16706.74
478.00	16669.30
478.18	16606.10
478.36	16737.17
478.54	17092.93
478.72	17032.08
478.90	17376.14
479.08	17582.10
479.26	17451.03
479.44	17596.15
479.62	18040.85
479.80	17977.65
479.98	17844.24
480.16	18040.85
480.34	18200.01
480.52	18333.42
480.70	18452.78
480.88	18115.75
481.06	18684.50
481.24	18876.42
481.41	19087.07
481.59	19075.37
481.77	18998.13
481.95	19878.17
482.13	19477.94
482.31	19754.12
482.49	20379.04
482.67	19999.88
482.85	20320.53
483.03	20608.42
483.21	20503.09
483.39	21036.74
483.57	20669.27
483.74	21104.61
483.92	21411.22
484.10	21076.52
484.28	21406.54
484.46	21785.71
484.64	22274.88
484.82	21675.70
485.00	21970.61
485.18	22483.19
485.35	23103.43
485.53	22464.46
485.71	23204.07
485.89	23276.63
486.07	23307.05
486.25	23473.23
486.43	23522.38
486.61	23709.63
486.78	23931.98
486.96	24261.99
487.14	24643.50
487.32	24266.67
487.50	24889.26
487.68	24816.70
487.85	25193.53
488.03	25195.87
488.21	25682.70
488.39	26094.63
488.57	26010.37
488.75	26228.04
488.92	26300.60
489.10	26546.36
489.28	26799.13
489.46	27346.82
489.64	27042.55
489.81	27615.98
489.99	27625.34
490.17	27608.96
490.35	28044.30
490.53	27889.82
490.70	28261.97
490.88	28208.14
491.06	28627.09
491.24	28804.97
491.41	29123.29
491.59	28994.56
491.77	29118.60
491.95	29418.19
492.13	29497.77
492.30	29883.96
492.48	30347.39
492.66	29905.02
492.84	30213.98
493.01	30548.67
493.19	30679.74
493.37	31096.36
493.54	31058.91
493.72	31068.27
493.90	31454.46
494.08	31517.65
494.25	31976.40
494.43	31754.05
494.61	32189.39
494.79	32158.96
494.96	32327.48
495.14	32655.15
495.32	33118.58
495.49	32636.43
495.67	32971.13
495.85	33682.65
496.02	33888.62
496.20	33893.30
496.38	33926.07
496.55	33773.93
496.73	34829.51
496.91	34251.40
497.09	34494.82
497.26	34639.93
497.44	34644.61
497.62	34855.26
497.79	35473.16
497.97	35112.72
498.14	35641.68
498.32	36018.50
498.50	35758.70
498.67	36180.00
498.85	36573.21
499.03	36751.09
499.20	36613.00
499.38	36596.62
499.56	36823.65
499.73	36914.93
499.91	37181.75
500.08	37003.87
500.26	37085.79
500.44	37488.36
500.61	37244.94
500.79	37855.82
500.97	37874.55
501.14	38251.38
501.32	38452.66
501.49	38380.10
501.67	38817.78
501.84	38639.90
502.02	38843.53
502.20	38885.66
502.37	39082.27
502.55	38880.98
502.72	38930.13
502.90	39332.70
503.07	39234.40
503.25	39531.65
503.43	39693.15
503.60	40039.54
503.78	40044.23
503.95	40161.25
504.13	40505.31
504.30	40605.95
504.48	40402.33
504.65	40769.79
504.83	40938.31
505.01	41177.04
505.18	40811.92
505.36	41420.46
505.53	40725.32
505.71	41265.99
505.88	41525.78
506.06	41399.40
506.23	41701.32
506.41	41422.80
506.58	41993.89
506.76	42164.75
506.93	42064.11
507.11	42426.89
507.28	42682.01
507.46	42766.27
507.63	43157.14
507.81	42969.90
507.98	42932.45
508.16	43206.29
508.33	43278.85
508.50	43283.53
508.68	43342.04
508.85	43899.09
509.03	43688.44
509.20	44112.08
509.38	44318.04
509.55	44336.77
509.73	44086.33
509.90	44147.18
510.08	44676.15
510.25	44507.63
510.42	44664.44
510.60	45001.48
510.77	45202.77
510.95	45298.73
511.12	44622.31
511.30	44900.84
511.47	45666.19
511.64	45357.24
511.82	46021.95
511.99	45600.66
512.17	46071.10
512.34	45408.73
512.51	46078.13
512.69	46569.64
512.86	46424.53
513.04	46614.11
513.21	46321.54
513.38	46766.24
513.56	46822.42
513.73	46579.00
513.90	46745.18
514.08	46642.20
514.25	46899.65
514.43	47180.52
514.60	47199.24
514.77	47196.90
514.95	47405.21
515.12	47297.55
515.29	47543.30
515.47	47650.97
515.64	47522.24
515.81	47833.53
515.99	48121.41
516.16	47966.94
516.33	48266.53
516.51	48399.94
516.68	48343.77
516.85	48219.72
517.03	48282.91
517.20	48954.64
517.37	48706.55
517.54	48612.93
517.72	48601.22
517.89	49036.56
518.06	48849.32
518.24	49312.75
518.41	49059.97
518.58	49588.93
518.75	49298.70
518.93	49249.55
519.10	49303.38
519.27	49855.75
519.45	49172.31
519.62	49839.37
519.79	50129.59
519.96	49968.10
520.14	50085.12
520.31	49977.46
520.48	50188.11
520.65	50401.10
520.83	50677.28
521.00	50719.41
521.17	50408.12
521.34	50361.31
521.52	50700.68
521.69	50543.87
521.86	50651.53
522.03	50960.48
522.20	51196.88
522.38	51365.40
522.55	51105.60
522.72	51353.69
522.89	51196.88
523.07	51959.89
523.24	51358.38
523.41	51571.36
523.58	51061.13
523.75	51709.46
523.92	51569.02
524.10	51796.06
524.27	52011.38
524.44	52294.59
524.61	52044.15
524.78	52280.55
524.96	52336.72
525.13	52229.05
525.30	52329.70
525.47	52222.03
525.64	52266.50
525.81	52399.91
525.98	52664.39
526.16	52605.88
526.33	52690.14
526.50	52631.63
526.67	52453.75
526.84	52706.52
527.01	52846.96
527.18	52931.22
527.36	52790.78
527.53	52720.57
527.70	53200.38
527.87	53247.19
528.04	53172.29
528.21	53214.42
528.38	53043.56
528.55	53315.06
528.72	53443.79
528.89	53411.02
529.07	53361.87
529.24	53268.25
529.41	53928.28
529.58	53418.05
529.75	53563.16
529.92	53724.66
530.09	53502.31
530.26	53811.26
530.43	53804.24
530.60	53546.78
530.77	53895.52
530.94	54021.90
531.11	53998.50
531.28	54094.46
531.46	53970.41
531.63	54178.72
531.80	53874.45
531.97	54340.22
532.14	54454.90
532.31	54478.31
532.48	54344.90
532.65	54389.37
532.82	54316.81
532.99	54581.29
533.16	54365.96
533.33	54611.72
533.50	54805.98
533.67	54855.14
533.84	54831.73
534.01	55004.93
534.18	54536.82
534.35	55103.23
534.52	54958.12
534.69	55037.70
534.86	55334.95
535.03	54766.20
535.20	55192.17
535.37	55405.16
535.54	55173.45
535.71	55051.74
535.88	55351.33
536.05	55243.66
536.22	55688.37
536.38	55569.00
536.55	55358.35
536.72	55238.98
536.89	55671.98
537.06	55742.20
537.23	55606.45
537.40	55360.69
537.57	55674.32
537.74	55730.50
537.91	55955.19
538.08	56137.75
538.25	55671.98
538.42	55700.07
538.59	56081.58
538.75	55650.92
538.92	55992.64
539.09	56079.24
539.26	55833.48
539.43	56025.40
539.60	56119.02
539.77	56175.20
539.94	56556.70
540.11	56104.98
540.28	56418.61
540.44	56217.33
540.61	56222.01
540.78	56423.29
540.95	56381.16
541.12	56324.99
541.29	56282.86
541.46	56580.11
541.62	56317.97
541.79	56573.09
541.96	56257.12
542.13	56596.49
542.30	56598.83
542.47	56741.61
542.63	56783.74
542.80	56875.02
542.97	57120.77
543.14	57022.47
543.31	57099.71
543.48	57322.06
543.64	57565.48
543.81	57429.72
543.98	57373.55
544.15	57350.15
544.32	57689.52
544.48	57403.98
544.65	57453.13
544.82	57183.97
544.99	57125.46
545.16	57464.83
545.32	57132.48
545.49	57757.40
545.66	57403.98
545.83	57495.26
546.00	57670.80
546.16	57659.10
546.33	57305.68
546.50	57443.77
546.67	57844.00
546.83	57537.39
547.00	57593.56
547.17	57595.90
547.34	57738.68
547.50	57902.51
547.67	58005.50
547.84	58031.24
548.00	57914.22
548.17	58251.25
548.34	58047.63
548.51	58073.37
548.67	58230.19
548.84	58185.72
549.01	58232.53
549.18	58085.07
549.34	58115.50
549.51	58117.84
549.68	58010.18
549.84	58384.66
550.01	58515.73
550.18	58075.71
550.34	58482.97
550.51	58377.64
550.68	58213.80
550.84	58115.50
551.01	58621.06
551.18	58431.47
551.34	58351.90
551.51	58429.13
551.68	58541.48
551.84	58431.47
552.01	58267.64
552.18	58518.07
552.34	58487.65
552.51	58527.44
552.68	58522.76
552.84	58562.54
553.01	58901.92
553.18	58597.65
553.34	58880.86
553.51	58623.40
553.67	58674.89
553.84	58913.62
554.01	58927.67
554.17	58904.26
554.34	58866.81
554.51	58700.64
554.67	58948.73
554.84	59044.69
555.00	58869.15
555.17	58836.39
555.33	58887.88
555.50	58763.83
555.67	58981.50
555.83	59000.22
556.00	58920.65
556.16	59412.16
556.33	59318.54
556.50	58946.39
556.66	59147.68
556.83	59011.93
556.99	59428.54
557.16	59442.59
557.32	59334.92
557.49	59487.06
557.65	59178.10
557.82	59363.01
557.98	59131.29
558.15	59430.88
558.32	59468.33
558.48	59070.44
558.65	59426.20
558.81	59613.44
558.98	59442.59
559.14	59494.08
559.31	59554.93
559.47	59353.65
559.64	59683.66
559.80	59723.45
559.97	59732.81
560.13	59636.85
560.30	59552.59
560.46	59683.66
560.63	59550.25
560.79	59714.09
560.96	59943.46
561.12	59765.58
561.29	59877.93
561.45	59856.86
561.61	59938.78
561.78	59807.71
561.94	59648.55
562.11	59550.25
562.27	59737.49
562.44	59824.09
562.60	59936.44
562.77	59887.29
562.93	59796.01
563.10	59786.64
563.26	59807.71
563.42	60016.02
563.59	59910.69
563.75	59934.10
563.92	60067.51
564.08	59648.55
564.24	60137.72
564.41	60156.45
564.57	59985.59
564.74	59934.10
564.90	59978.57
565.07	59980.91
565.23	60046.44
565.39	60055.81
565.56	60051.12
565.72	60107.30
565.88	60074.53
566.05	60060.49
566.21	59997.29
566.38	60093.25
566.54	60179.85
566.70	60252.41
566.87	60072.19
567.03	60051.12
567.19	60219.64
567.36	60301.56
567.52	60320.29
567.68	60280.50
567.85	60025.38
568.01	60441.99
568.17	60292.20
568.34	60472.42
568.50	60041.76
568.66	60346.03
568.83	60343.69
568.99	60355.39
569.15	60275.82
569.32	60336.67
569.48	60310.92
569.64	60556.68
569.81	60331.99
569.97	60016.02
570.13	60257.09
570.30	60371.78
570.46	60582.43
570.62	60369.44
570.78	60364.76
570.95	60406.89
571.11	60626.90
571.27	60470.08
571.43	60364.76
571.60	60540.30
571.76	60446.68
571.92	60566.04
572.09	60425.61
572.25	60341.35
572.41	60554.34
572.57	60500.51
572.74	60797.76
572.90	60523.91
573.06	60687.75
573.22	60617.53
573.38	60568.38
573.55	60444.33
573.71	60772.01
573.87	60554.34
574.03	60570.72
574.20	60481.78
574.36	60500.51
574.52	60795.42
574.68	60645.62
574.84	60870.31
575.01	60903.08
575.17	60521.57
575.33	60540.30
575.49	60573.06
575.65	60629.24
575.82	60659.66
575.98	60753.29
576.14	60750.94
576.30	60526.25
576.46	60556.68
576.62	60484.12
576.79	60797.76
576.95	60582.43
577.11	60715.84
577.27	60856.27
577.43	60947.55
577.59	60760.31
577.75	60652.64
577.92	60575.40
578.08	60877.33
578.24	60816.48
578.40	60830.52
578.56	60917.12
578.72	60722.86
578.88	60963.93
579.04	60743.92
579.21	60757.97
579.37	61095.00
579.53	60912.44
579.69	60706.47
579.85	60575.40
580.01	60692.43
580.17	60636.26
580.33	60725.20
580.49	60844.57
580.65	60844.57
580.82	61041.17
580.98	60739.24
581.14	60732.22
581.30	60790.73
581.46	60762.65
581.62	60966.27
581.78	60823.50
581.94	60802.44
582.10	60891.38
582.26	60893.72
582.42	60725.20
582.58	60921.80
582.74	60853.93
582.90	60722.86
583.06	60764.99
583.22	60715.84
583.38	60793.07
583.54	60898.40
583.70	60802.44
583.86	60795.42
584.02	60800.10
584.18	60975.64
584.34	61062.24
584.50	61080.96
584.66	60924.14
584.82	60788.39
584.98	61062.24
585.14	61083.30
585.30	60732.22
585.46	60767.33
585.62	60802.44
585.78	60907.76
585.94	60786.05
586.10	60931.17
586.26	60945.21
586.42	60907.76
586.58	61045.85
586.74	61022.45
586.90	60977.98
587.06	61001.38
587.22	61059.90
587.38	60961.59
587.54	61172.24
587.70	61223.73
587.86	60963.93
588.02	61153.52
588.18	61226.07
588.34	61017.77
588.49	60982.66
