SpectraSuite Data File
++++++++++++++++++++++++++++++++++++
Date: Fri Oct 25 11:25:33 EDT 2013
User: price-jones
Dark Spectrum Present: No
Reference Spectrum Present: No
Number of Sampled Component Spectra: 1
Spectrometers: USB2+H05261
Integration Time (usec): 100000 (USB2+H05261)
Spectra Averaged: 1 (USB2+H05261)
Boxcar Smoothing: 0 (USB2+H05261)
Correct for Electrical Dark: No (USB2+H05261)
Strobe/Lamp Enabled: No (USB2+H05261)
Correct for Detector Non-linearity: No (USB2+H05261)
Correct for Stray Light: No (USB2+H05261)
Number of Pixels in Processed Spectrum: 2048
>>>>>Begin Processed Spectral Data<<<<<
365.73	266.82
365.92	266.82
366.12	266.82
366.32	184.90
366.52	156.82
366.72	166.18
366.91	210.65
367.11	117.03
367.31	124.05
367.51	128.73
367.70	102.98
367.90	124.05
368.10	154.48
368.30	168.52
368.49	114.69
368.69	145.11
368.89	72.56
369.09	156.82
369.28	161.50
369.48	124.05
369.68	168.52
369.87	152.13
370.07	187.24
370.27	173.20
370.47	257.46
370.66	564.07
370.86	669.39
371.06	627.26
371.25	734.93
371.45	741.95
371.65	755.99
371.84	653.01
372.04	781.74
372.24	753.65
372.44	704.50
372.63	753.65
372.83	676.41
373.03	720.88
373.22	795.78
373.42	755.99
373.62	716.20
373.81	791.10
374.01	737.27
374.21	741.95
374.40	866.00
374.60	798.12
374.79	772.38
374.99	748.97
375.19	870.68
375.38	800.46
375.58	863.66
375.78	821.53
375.97	828.55
376.17	912.81
376.37	833.23
376.56	884.72
376.76	877.70
376.95	1001.75
377.15	870.68
377.35	1001.75
377.54	929.19
377.74	884.72
377.93	922.17
378.13	976.00
378.33	901.11
378.52	922.17
378.72	938.55
378.91	915.15
379.11	954.94
379.31	894.08
379.50	950.26
379.70	968.98
379.89	1015.79
380.09	950.26
380.28	997.07
380.48	945.58
380.68	973.66
380.87	891.74
381.07	1015.79
381.26	973.66
381.46	992.39
381.65	947.92
381.85	1020.47
382.04	990.05
382.24	1102.39
382.43	1060.26
382.63	1093.03
382.83	1125.80
383.02	1069.62
383.22	1076.65
383.41	1078.99
383.61	1048.56
383.80	1116.44
384.00	1060.26
384.19	1158.57
384.39	1088.35
384.58	1165.59
384.78	1146.86
384.97	1233.46
385.17	1188.99
385.36	1174.95
385.56	1214.74
385.75	1137.50
385.95	1217.08
386.14	1165.59
386.34	1132.82
386.53	1181.97
386.72	1240.48
386.92	1200.69
387.11	1280.27
387.31	1299.00
387.50	1256.87
387.70	1191.33
387.89	1263.89
388.09	1254.53
388.28	1369.21
388.48	1224.10
388.67	1266.23
388.86	1280.27
389.06	1235.80
389.25	1364.53
389.45	1394.96
389.64	1310.70
389.84	1474.54
390.03	1315.38
390.22	1345.81
390.42	1366.87
390.61	1313.04
390.81	1380.92
391.00	1350.49
391.19	1416.02
391.39	1458.15
391.58	1401.98
391.78	1460.49
391.97	1385.60
392.16	1479.22
392.36	1453.47
392.55	1516.67
392.75	1448.79
392.94	1516.67
393.13	1549.43
393.33	1533.05
393.52	1544.75
393.71	1565.82
393.91	1659.44
394.10	1565.82
394.29	1657.10
394.49	1556.46
394.68	1643.06
394.88	1547.09
395.07	1743.70
395.26	1621.99
395.46	1678.16
395.65	1673.48
395.84	1657.10
396.04	1769.44
396.23	1720.29
396.42	1804.55
396.62	1734.34
396.81	1739.02
397.00	1746.04
397.19	1865.41
397.39	1750.72
397.58	1760.08
397.77	1898.17
397.97	1839.66
398.16	1933.28
398.35	1952.01
398.55	1863.07
398.74	1891.15
398.93	1991.80
399.12	1912.22
399.32	1893.49
399.51	1937.96
399.70	1998.82
399.90	2019.88
400.09	1984.77
400.28	2090.10
400.47	2001.16
400.67	2043.29
400.86	1968.39
401.05	2118.18
401.24	1942.64
401.44	2040.95
401.63	2083.08
401.82	2099.46
402.01	2136.91
402.21	2186.06
402.40	2214.15
402.59	2134.57
402.78	2246.91
402.97	2265.64
403.17	2237.55
403.36	2230.53
403.55	2284.36
403.74	2258.62
403.93	2347.56
404.13	2319.47
404.32	2270.32
404.51	2457.56
404.70	2377.98
404.89	2464.58
405.09	2375.64
405.28	2476.29
405.47	2478.63
405.66	2457.56
405.85	2441.18
406.05	2441.18
406.24	2574.59
406.43	2637.78
406.62	2691.62
406.81	2808.64
407.00	2581.61
407.20	2518.42
407.39	2588.63
407.58	2747.79
407.77	2626.08
407.96	2649.49
408.15	2764.17
408.34	2686.94
408.54	2729.06
408.73	2597.99
408.92	2782.90
409.11	2855.45
409.30	2813.32
409.49	3021.63
409.68	2885.88
409.87	2850.77
410.07	2956.10
410.26	3019.29
410.45	2991.20
410.64	3122.27
410.83	3047.38
411.02	3131.64
411.21	3103.55
411.40	3023.97
411.59	3255.69
411.78	3220.58
411.98	3241.64
412.17	3215.90
412.36	3267.39
412.55	3283.77
412.74	3344.63
412.93	3389.10
413.12	3321.22
413.31	3581.02
413.50	3351.65
413.69	3375.05
413.88	3660.60
414.07	3492.08
414.26	3541.23
414.45	3684.00
414.64	3667.62
414.83	3695.71
415.02	3611.45
415.22	3641.87
415.41	3735.50
415.60	3896.99
415.79	3936.78
415.98	4018.70
416.17	3705.07
416.36	3967.21
416.55	3976.57
416.74	3946.14
416.93	3974.23
417.12	4107.64
417.31	4168.49
417.50	4189.56
417.69	4135.73
417.88	4329.99
418.07	4273.82
418.26	4393.19
418.45	4346.37
418.64	4528.94
418.83	4421.27
419.02	4447.02
419.21	4573.41
419.39	4535.96
419.58	4423.61
419.77	4337.01
419.96	4519.57
420.15	4655.33
420.34	4320.63
420.53	4557.02
420.72	4655.33
420.91	4622.56
421.10	4674.05
421.29	4746.61
421.48	4648.30
421.67	4718.52
421.86	4835.55
422.05	4727.88
422.24	4793.42
422.43	4746.61
422.61	4812.14
422.80	4952.57
422.99	5008.75
423.18	4868.31
423.37	5050.88
423.56	4873.00
423.75	4877.68
423.94	4826.18
424.13	4592.13
424.32	4706.82
424.50	5048.54
424.69	5156.20
424.88	4861.29
425.07	4896.40
425.26	4957.25
425.45	4683.41
425.64	4985.34
425.83	4875.34
426.01	5121.09
426.20	4968.96
426.39	5050.88
426.58	4961.94
426.77	5004.07
426.96	5172.58
427.15	5048.54
427.33	5130.45
427.52	5090.67
427.71	5310.68
427.90	5116.41
428.09	5277.91
428.28	5366.85
428.46	5270.89
428.65	5259.18
428.84	5626.65
429.03	5617.29
429.22	5193.65
429.40	5411.32
429.59	5614.95
429.78	5334.08
429.97	5245.14
430.16	5357.49
430.34	5474.51
430.53	5563.45
430.72	5507.28
430.91	5584.52
431.10	5717.93
431.28	5809.21
431.47	5867.72
431.66	5898.15
431.85	5689.84
432.03	5830.27
432.22	5959.00
432.41	6090.07
432.60	5841.98
432.79	5884.11
432.97	6001.13
433.16	5944.96
433.35	5989.43
433.54	6045.60
433.72	6157.95
433.91	6061.99
434.10	6239.87
434.28	6179.01
434.47	6090.07
434.66	6235.19
434.85	6153.27
435.03	6282.00
435.22	6204.76
435.41	6471.58
435.59	6282.00
435.78	6483.28
435.97	6471.58
436.16	6448.18
436.34	6347.53
436.53	6413.07
436.72	6679.89
436.90	6464.56
437.09	6642.44
437.28	6506.69
437.46	6401.37
437.65	6413.07
437.84	6719.68
438.02	6609.67
438.21	6780.53
438.40	6616.69
438.58	6993.52
438.77	6986.50
438.96	6862.45
439.14	7096.50
439.33	7321.20
439.52	7061.40
439.70	7166.72
439.89	7410.14
440.08	7307.15
440.26	7286.09
440.45	7440.56
440.63	7445.24
440.82	7602.06
441.01	7494.40
441.19	7630.15
441.38	7602.06
441.57	7665.25
441.75	7691.00
441.94	7826.75
442.12	7655.89
442.31	7782.28
442.50	7953.14
442.68	7801.01
442.87	7995.27
443.05	7936.76
443.24	8126.34
443.43	8032.72
443.61	8142.72
443.80	8376.78
443.98	7927.39
444.17	7906.33
444.35	8250.39
444.54	8184.85
444.73	8266.77
444.91	8208.26
445.10	8430.61
445.28	8297.20
445.47	8224.64
445.65	8142.72
445.84	8203.58
446.02	8418.91
446.21	8421.25
446.39	8290.18
446.58	8533.59
446.77	8545.30
446.95	8187.19
447.14	8454.02
447.32	8383.80
447.51	8601.47
447.69	8365.07
447.88	8535.93
448.06	8325.29
448.25	8435.29
448.43	8622.53
448.62	8652.96
448.80	8559.34
448.99	8842.54
449.17	8610.83
449.36	8461.04
449.54	8854.25
449.73	8889.35
449.91	9137.45
450.10	8861.27
450.28	8910.42
450.46	9109.36
450.65	8879.99
450.83	9261.50
451.02	8985.32
451.20	9291.93
451.39	9069.58
451.57	9142.13
451.76	8987.66
451.94	9172.56
452.13	9235.75
452.31	9247.46
452.49	9032.13
452.68	9247.46
452.86	9128.09
453.05	9469.81
453.23	9488.53
453.42	9413.63
453.60	9423.00
453.78	9530.66
453.97	9390.23
454.15	9369.16
454.34	9366.82
454.52	9795.14
454.70	9462.79
454.89	9951.96
455.07	9846.63
455.26	9867.70
455.44	9797.48
455.62	9989.41
455.81	9872.38
455.99	10031.54
456.17	10001.11
456.36	10136.86
456.54	10146.22
456.73	10057.28
456.91	10420.06
457.09	10183.67
457.28	10368.57
457.46	10176.65
457.64	10548.79
457.83	10436.45
458.01	10333.47
458.19	10808.59
458.38	10593.26
458.56	10778.17
458.74	10656.46
458.93	10808.59
459.11	10836.68
459.29	10855.40
459.48	10675.18
459.66	10544.11
459.84	10764.12
460.03	10970.09
460.21	10967.75
460.39	10689.23
460.57	11028.60
460.76	10946.69
460.94	11213.51
461.12	11077.76
461.31	11248.61
461.49	11215.85
461.67	11222.87
461.85	11410.11
462.04	11204.14
462.22	11782.26
462.40	11595.01
462.59	11398.41
462.77	11552.88
462.95	11508.41
463.13	11602.04
463.32	11602.04
463.50	11735.45
463.68	11737.79
463.86	11927.37
464.05	11506.07
464.23	11562.25
464.41	11723.74
464.59	11726.08
464.78	12241.00
464.96	11896.94
465.14	11700.34
465.32	11889.92
465.50	12004.61
465.69	12084.19
465.87	11892.26
466.05	11920.35
466.23	12072.48
466.41	12049.08
466.60	12374.41
466.78	11974.18
466.96	12173.13
467.14	12189.51
467.32	12432.93
467.51	12411.86
467.69	12210.57
467.87	12545.27
468.05	12381.43
468.23	12517.18
468.41	12683.36
468.60	12793.37
468.78	12681.02
468.96	12400.16
469.14	12652.94
469.32	13062.53
469.50	12737.20
469.69	12952.52
469.87	12926.78
470.05	13060.19
470.23	13242.75
470.41	12992.31
470.59	13378.50
470.77	13008.70
470.95	13319.99
471.14	13380.84
471.32	13006.36
471.50	13530.64
471.68	13446.38
471.86	13408.93
472.04	13493.19
472.22	14202.37
472.40	13476.80
472.58	13799.80
472.77	13858.31
472.95	13738.94
473.13	14511.32
473.31	14019.81
473.49	13874.70
473.67	14146.20
473.85	14305.35
474.03	14717.29
474.21	14618.99
474.39	14752.40
474.57	14710.27
474.75	14867.08
474.93	14822.61
475.12	14867.08
475.30	15007.52
475.48	14785.16
475.66	15129.22
475.84	15150.29
476.02	15363.28
476.20	15133.90
476.38	15660.52
476.56	15967.13
476.74	15941.39
476.92	15817.34
477.10	15749.46
477.28	15957.77
477.46	16086.50
477.64	16271.40
477.82	16479.71
478.00	16877.60
478.18	16751.21
478.36	16812.07
478.54	17284.86
478.72	17383.16
478.90	17371.46
479.08	17537.63
479.26	17617.21
479.44	17736.58
479.62	17439.33
479.80	18029.15
479.98	18057.23
480.16	18401.29
480.34	18148.51
480.52	18834.29
480.70	18359.16
480.88	18525.34
481.06	18532.36
481.24	18787.48
481.41	19192.39
481.59	19583.26
481.77	19377.30
481.95	19693.27
482.13	19805.61
482.31	19496.66
482.49	19983.49
482.67	20079.46
482.85	20505.43
483.03	20589.69
483.21	20854.17
483.39	20519.48
483.57	20889.28
483.74	21128.02
483.92	21322.28
484.10	21123.33
484.28	21497.82
484.46	21675.70
484.64	21949.54
484.82	21654.64
485.00	22082.95
485.18	22497.23
485.35	22768.73
485.53	22824.90
485.71	22712.56
485.89	23346.84
486.07	23168.96
486.25	23159.60
486.43	23138.54
486.61	23616.01
486.78	24034.96
486.96	23974.11
487.14	24357.96
487.32	24599.03
487.50	24929.05
487.68	25113.95
487.85	25069.48
488.03	25296.51
488.21	25432.26
488.39	25855.90
488.57	25413.54
488.75	25844.20
488.92	26452.73
489.10	26127.40
489.28	26476.14
489.46	26981.70
489.64	27117.45
489.81	27175.96
489.99	27550.45
490.17	27707.26
490.35	28044.30
490.53	28039.62
490.70	28194.09
490.88	27861.74
491.06	28760.50
491.24	28678.58
491.41	28933.70
491.59	28924.34
491.77	29048.39
491.95	29425.22
492.13	29294.14
492.30	29558.63
492.48	29855.87
492.66	30361.43
492.84	30295.89
493.01	30455.05
493.19	30522.93
493.37	30551.01
493.54	31126.78
493.72	31133.81
493.90	31138.49
494.08	31658.09
494.25	31765.75
494.43	31569.15
494.61	31854.69
494.79	32357.91
494.96	32409.40
495.14	32374.29
495.32	33006.23
495.49	33106.88
495.67	33069.43
495.85	33270.72
496.02	33457.96
496.20	33991.60
496.38	34068.84
496.55	34108.63
496.73	34696.10
496.91	34455.03
497.09	35002.71
497.26	34768.66
497.44	34794.40
497.62	34972.28
497.79	35526.99
497.97	35318.68
498.14	35908.50
498.32	35786.79
498.50	35885.09
498.67	36725.35
498.85	36376.61
499.03	36776.84
499.20	36376.61
499.38	36605.98
499.56	36905.57
499.73	36741.73
499.91	37064.72
500.08	37467.30
500.26	37715.39
500.44	37092.81
500.61	37507.08
500.79	37551.56
500.97	38134.35
501.14	38220.95
501.32	38532.24
501.49	38373.08
501.67	38071.15
501.84	38541.60
502.02	38866.94
502.20	39147.80
502.37	39084.61
502.55	38902.04
502.72	39133.76
502.90	39276.53
503.07	39065.88
503.25	39803.15
503.43	38981.62
503.60	39992.73
503.78	39882.73
503.95	40140.19
504.13	40315.73
504.30	40910.22
504.48	39833.58
504.65	40439.78
504.83	40531.06
505.01	41682.60
505.18	41268.33
505.36	41322.16
505.53	41076.40
505.71	41523.44
505.88	41588.98
506.06	41584.30
506.23	41567.91
506.41	41581.96
506.58	41888.57
506.76	41724.73
506.93	42227.95
507.11	41720.05
507.28	42518.17
507.46	42246.67
507.63	42698.39
507.81	42911.38
507.98	42754.57
508.16	42387.10
508.33	43182.88
508.50	43414.60
508.68	43339.70
508.85	43758.66
509.03	43384.17
509.20	43973.98
509.38	44100.37
509.55	43955.26
509.73	44105.06
509.90	44296.98
510.08	44285.28
510.25	44619.97
510.42	44219.74
510.60	44687.85
510.77	44872.75
510.95	45111.49
511.12	44421.03
511.30	44889.13
511.47	45308.09
511.64	45275.32
511.82	45738.75
511.99	45067.02
512.17	45837.05
512.34	45563.21
512.51	46153.02
512.69	46380.06
512.86	46274.73
513.04	45940.04
513.21	46487.72
513.38	46600.07
513.56	46340.27
513.73	46920.72
513.90	46871.57
514.08	46827.10
514.25	46946.47
514.43	46836.46
514.60	47016.68
514.77	46951.15
514.95	47346.70
515.12	47138.39
515.29	47503.51
515.47	47625.22
515.64	47599.47
515.81	47599.47
515.99	48182.27
516.16	48336.74
516.33	48114.39
516.51	47913.11
516.68	48399.94
516.85	48182.27
517.03	48355.47
517.20	48505.26
517.37	48552.07
517.54	48453.77
517.72	48886.77
517.89	48919.54
518.06	48821.23
518.24	48861.02
518.41	49008.48
518.58	49141.89
518.75	49228.49
518.93	49310.41
519.10	49633.40
519.27	49184.02
519.45	49305.73
519.62	49638.08
519.79	49490.63
519.96	49752.77
520.14	50293.43
520.31	50014.91
520.48	50321.52
520.65	49647.44
520.83	50403.44
521.00	50670.26
521.17	50511.10
521.34	50497.06
521.52	50937.08
521.69	50403.44
521.86	50684.30
522.03	51086.87
522.20	51019.00
522.38	50960.48
522.55	51077.51
522.72	50756.86
522.89	51079.85
523.07	51578.39
523.24	51470.72
523.41	51517.53
523.58	51283.48
523.75	51831.16
523.92	51782.01
524.10	51772.65
524.27	51789.03
524.44	51667.33
524.61	51957.55
524.78	51943.51
524.96	51999.68
525.13	52140.11
525.30	51978.62
525.47	52474.81
525.64	52149.48
525.81	52491.19
525.98	52776.74
526.16	52516.94
526.33	52547.37
526.50	53015.47
526.67	52690.14
526.84	52952.28
527.01	52830.57
527.18	52617.58
527.36	52863.34
527.53	52811.85
527.70	53127.82
527.87	53031.86
528.04	52863.34
528.21	53120.80
528.38	53069.31
528.55	53481.24
528.72	53303.36
528.89	53036.54
529.07	53258.89
529.24	53043.56
529.41	53296.34
529.58	53635.72
529.75	53366.55
529.92	53626.35
530.09	53743.38
530.26	54040.63
530.43	53860.41
530.60	53654.44
530.77	53722.32
530.94	53970.41
531.11	53748.06
531.28	53944.67
531.46	54078.08
531.63	53993.82
531.80	53909.56
531.97	54012.54
532.14	54340.22
532.31	54387.03
532.48	54049.99
532.65	54363.62
532.82	54307.45
532.99	54681.94
533.16	54326.17
533.33	54307.45
533.50	54915.99
533.67	54529.80
533.84	54567.25
534.01	54775.56
534.18	54578.95
534.35	54859.82
534.52	54913.65
534.69	54939.39
534.86	55348.99
535.03	54820.03
535.20	55058.76
535.37	54974.50
535.54	55344.31
535.71	55103.23
535.88	55278.77
536.05	55475.38
536.22	55435.59
536.38	55227.28
536.55	55622.83
536.72	55491.76
536.89	55236.64
537.06	55201.53
537.23	55814.76
537.40	55501.12
537.57	55653.26
537.74	55592.40
537.91	55817.10
538.08	55781.99
538.25	55543.25
538.42	55559.64
538.59	55997.32
538.75	55917.74
538.92	55922.42
539.09	56055.83
539.26	55973.91
539.43	55955.19
539.60	55819.44
539.77	56058.17
539.94	56435.00
540.11	56310.95
540.28	56240.73
540.44	56093.28
540.61	56126.05
540.78	56320.31
540.95	56217.33
541.12	56170.52
541.29	56243.07
541.46	56385.85
541.62	56332.01
541.79	56561.39
541.96	56334.35
542.13	56369.46
542.30	56357.76
542.47	56914.81
542.63	56755.65
542.80	56921.83
542.97	56811.82
543.14	57176.95
543.31	56872.68
543.48	56966.30
543.64	57301.00
543.81	57261.21
543.98	57291.63
544.15	57099.71
544.32	57265.89
544.48	57535.05
544.65	57202.69
544.82	57492.92
544.99	57219.08
545.16	57329.08
545.32	57338.44
545.49	57467.17
545.66	57602.92
545.83	57354.83
546.00	57722.29
546.16	57406.32
546.33	57188.65
546.50	57385.25
546.67	57815.91
546.83	57303.34
547.00	57626.33
547.17	57766.76
547.34	57724.63
547.50	57778.46
547.67	57944.64
547.84	57958.69
548.00	57698.89
548.17	57787.83
548.34	57907.19
548.51	58101.46
548.67	58162.31
548.84	57993.79
549.01	58056.99
549.18	57841.66
549.34	58155.29
549.51	58223.17
549.68	58347.21
549.84	58237.21
550.01	58248.91
550.18	58291.04
550.34	58209.12
550.51	58356.58
550.68	58178.70
550.84	58148.27
551.01	58454.88
551.18	58293.38
551.34	58431.47
551.51	58337.85
551.68	58529.78
551.84	58358.92
552.01	58241.89
552.18	58525.10
552.34	58506.37
552.51	58667.87
552.68	58241.89
552.84	58791.92
553.01	58911.28
553.18	58630.42
553.34	58843.41
553.51	58560.20
553.67	58810.64
553.84	58843.41
554.01	58876.18
554.17	58908.94
554.34	58990.86
554.51	58843.41
554.67	59009.59
554.84	58721.70
555.00	58770.85
555.17	58894.90
555.33	58789.58
555.50	58763.83
555.67	58862.13
555.83	58946.39
556.00	58932.35
556.16	59274.07
556.33	59330.24
556.50	59164.06
556.66	59089.16
556.83	58974.48
556.99	59348.96
557.16	59274.07
557.32	59363.01
557.49	59334.92
557.65	59231.94
557.82	59290.45
557.98	59044.69
558.15	59313.86
558.32	59363.01
558.48	59290.45
558.65	59341.94
558.81	59388.75
558.98	59367.69
559.14	59372.37
559.31	59702.38
559.47	59540.89
559.64	59437.90
559.80	59416.84
559.97	59501.10
560.13	59395.77
560.30	59648.55
560.46	59824.09
560.63	59557.27
560.79	59622.81
560.96	59842.82
561.12	59491.74
561.29	59690.68
561.45	59554.93
561.61	59629.83
561.78	59742.17
561.94	59632.17
562.11	59625.15
562.27	59597.06
562.44	59877.93
562.60	59819.41
562.77	59814.73
562.93	59583.02
563.10	59868.56
563.26	60004.31
563.42	60081.55
563.59	59821.75
563.75	59889.63
563.92	59964.52
564.08	59866.22
564.24	60046.44
564.41	59812.39
564.57	59873.24
564.74	59957.50
564.90	60020.70
565.07	59976.23
565.23	60126.02
565.39	59882.61
565.56	60170.49
565.72	59969.21
565.88	60053.47
566.05	59870.90
566.21	59980.91
566.38	59908.35
566.54	60090.91
566.70	60144.75
566.87	60109.64
567.03	60076.87
567.19	60203.26
567.36	60299.22
567.52	60161.13
567.68	60331.99
567.85	60200.92
568.01	60339.01
568.17	60009.00
568.34	60301.56
568.50	60240.71
568.66	60128.36
568.83	60313.26
568.99	60193.90
569.15	60245.39
569.32	60245.39
569.48	60200.92
569.64	60542.64
569.81	60257.09
569.97	60046.44
570.13	60268.79
570.30	60200.92
570.46	60432.63
570.62	60198.58
570.78	60495.83
570.95	60495.83
571.11	60596.47
571.27	60308.58
571.43	60521.57
571.60	60413.91
571.76	60369.44
571.92	60507.53
572.09	60397.52
572.25	60369.44
572.41	60353.05
572.57	60385.82
572.74	60704.13
572.90	60355.39
573.06	60507.53
573.22	60521.57
573.38	60814.14
573.55	60264.11
573.71	60622.22
573.87	60374.12
574.03	60390.50
574.20	60676.05
574.36	60547.32
574.52	60683.07
574.68	60633.92
574.84	60711.16
575.01	60715.84
575.17	60568.38
575.33	60608.17
575.49	60477.10
575.65	60666.69
575.82	60882.02
575.98	60561.36
576.14	60968.61
576.30	60790.73
576.46	60692.43
576.62	60507.53
576.79	60498.17
576.95	60542.64
577.11	60678.39
577.27	60601.15
577.43	60774.35
577.59	60589.45
577.75	60645.62
577.92	60484.12
578.08	60615.19
578.24	60591.79
578.40	60671.37
578.56	61057.56
578.72	60722.86
578.88	60844.57
579.04	60975.64
579.21	60846.91
579.37	60760.31
579.53	60720.52
579.69	60570.72
579.85	60509.87
580.01	60657.32
580.17	60701.79
580.33	60650.30
580.49	60650.30
580.65	60736.90
580.82	60907.76
580.98	60629.24
581.14	60523.91
581.30	60996.70
581.46	60598.81
581.62	60654.98
581.78	60851.59
581.94	60891.38
582.10	60594.13
582.26	60678.39
582.42	60753.29
582.58	60683.07
582.74	60870.31
582.90	60809.46
583.06	60807.12
583.22	60669.03
583.38	60945.21
583.54	60638.60
583.70	60849.25
583.86	60769.67
584.02	60795.42
584.18	61015.43
584.34	60811.80
584.50	60865.63
584.66	60762.65
584.82	60549.66
584.98	60985.00
585.14	60823.50
585.30	60631.58
585.46	60999.04
585.62	60818.82
585.78	60968.61
585.94	60755.63
586.10	60844.57
586.26	60683.07
586.42	60942.87
586.58	60882.02
586.74	60872.65
586.90	60750.94
587.06	60867.97
587.22	60982.66
587.38	60910.10
587.54	61050.53
587.70	61034.15
587.86	60968.61
588.02	61015.43
588.18	61123.09
588.34	61050.53
588.49	61076.28
