SpectraSuite Data File
++++++++++++++++++++++++++++++++++++
Date: Fri Oct 25 10:44:39 EDT 2013
User: price-jones
Dark Spectrum Present: No
Reference Spectrum Present: No
Number of Sampled Component Spectra: 1
Spectrometers: USB2+H05261
Integration Time (usec): 100000 (USB2+H05261)
Spectra Averaged: 1 (USB2+H05261)
Boxcar Smoothing: 0 (USB2+H05261)
Correct for Electrical Dark: No (USB2+H05261)
Strobe/Lamp Enabled: No (USB2+H05261)
Correct for Detector Non-linearity: No (USB2+H05261)
Correct for Stray Light: No (USB2+H05261)
Number of Pixels in Processed Spectrum: 2048
>>>>>Begin Processed Spectral Data<<<<<
365.73	156.82
365.92	156.82
366.12	156.82
366.32	32.77
366.52	72.56
366.72	58.51
366.91	53.83
367.11	37.45
367.31	0.00
367.51	2.34
367.70	63.19
367.90	79.58
368.10	4.68
368.30	0.00
368.49	23.41
368.69	56.17
368.89	100.64
369.09	58.51
369.28	46.81
369.48	23.41
369.68	60.85
369.87	145.11
370.07	51.49
370.27	135.75
370.47	194.26
370.66	334.70
370.86	379.17
371.06	407.25
371.25	510.24
371.45	418.96
371.65	510.24
371.84	435.34
372.04	447.04
372.24	402.57
372.44	472.79
372.63	500.87
372.83	475.13
373.03	489.17
373.22	503.22
373.42	554.71
373.62	514.92
373.81	524.28
374.01	486.83
374.21	566.41
374.40	468.11
374.60	538.32
374.79	514.92
374.99	587.47
375.19	538.32
375.38	564.07
375.58	531.30
375.78	568.75
375.97	519.60
376.17	638.97
376.37	575.77
376.56	585.13
376.76	594.50
376.95	636.63
377.15	589.82
377.35	552.37
377.54	578.11
377.74	606.20
377.93	585.13
378.13	538.32
378.33	643.65
378.52	650.67
378.72	725.57
378.91	624.92
379.11	524.28
379.31	610.88
379.50	676.41
379.70	653.01
379.89	667.05
380.09	568.75
380.28	657.69
380.48	624.92
380.68	624.92
380.87	610.88
381.07	667.05
381.26	688.12
381.46	587.47
381.65	688.12
381.85	615.56
382.04	674.07
382.24	755.99
382.43	627.26
382.63	613.22
382.83	657.69
383.02	681.10
383.22	669.39
383.41	676.41
383.61	667.05
383.80	763.01
384.00	732.59
384.19	767.70
384.39	664.71
384.58	709.18
384.78	711.52
384.97	786.42
385.17	727.91
385.36	748.97
385.56	723.23
385.75	690.46
385.95	767.70
386.14	840.25
386.34	807.48
386.53	751.31
386.72	786.42
386.92	781.74
387.11	741.95
387.31	737.27
387.50	732.59
387.70	828.55
387.89	807.48
388.09	732.59
388.28	819.19
388.48	795.78
388.67	870.68
388.86	933.87
389.06	830.89
389.25	842.59
389.45	943.24
389.64	863.66
389.84	908.13
390.03	954.94
390.22	858.98
390.42	851.96
390.61	908.13
390.81	833.23
391.00	983.02
391.19	884.72
391.39	992.39
391.58	919.83
391.78	926.85
391.97	990.05
392.16	870.68
392.36	926.85
392.55	964.30
392.75	954.94
392.94	959.62
393.13	961.96
393.33	961.96
393.52	1029.84
393.71	1006.43
393.91	959.62
394.10	917.49
394.29	1006.43
394.49	936.21
394.68	1083.67
394.88	1095.37
395.07	1067.28
395.26	1102.39
395.46	1121.12
395.65	1137.50
395.84	1043.88
396.04	1188.99
396.23	1135.16
396.42	1165.59
396.62	1196.01
396.81	1174.95
397.00	1123.46
397.19	1179.63
397.39	1153.88
397.58	1217.08
397.77	1193.67
397.97	1270.91
398.16	1203.04
398.35	1313.04
398.55	1224.10
398.74	1355.17
398.93	1331.76
399.12	1320.06
399.32	1245.16
399.51	1350.49
399.70	1446.45
399.90	1252.19
400.09	1366.87
400.28	1390.28
400.47	1437.09
400.67	1519.01
400.86	1418.36
401.05	1397.30
401.24	1500.28
401.44	1500.28
401.63	1509.65
401.82	1504.96
402.01	1451.13
402.21	1409.00
402.40	1502.62
402.59	1490.92
402.78	1579.86
402.97	1638.38
403.17	1533.05
403.36	1504.96
403.55	1563.48
403.74	1537.73
403.93	1577.52
404.13	1673.48
404.32	1631.35
404.51	1619.65
404.70	1750.72
404.89	1682.85
405.09	1664.12
405.28	1729.66
405.47	1675.82
405.66	1710.93
405.85	1659.44
406.05	1720.29
406.24	1778.81
406.43	1769.44
406.62	1802.21
406.81	1893.49
407.00	1816.26
407.20	1809.23
407.39	1870.09
407.58	1755.40
407.77	1830.30
407.96	1947.33
408.15	1930.94
408.34	1851.36
408.54	2054.99
408.73	1914.56
408.92	1949.67
409.11	1989.46
409.30	2024.56
409.49	1959.03
409.68	2076.06
409.87	2036.27
410.07	2064.35
410.26	1935.62
410.45	2125.21
410.64	1991.80
410.83	2066.69
411.02	2165.00
411.21	2218.83
411.40	2228.19
411.59	2270.32
411.78	2298.41
411.98	2347.56
412.17	2387.35
412.36	2328.83
412.55	2504.37
412.74	2413.09
412.93	2466.92
413.12	2455.22
413.31	2473.95
413.50	2448.20
413.69	2525.44
413.88	2658.85
414.07	2509.05
414.26	2626.08
414.45	2574.59
414.64	2586.29
414.83	2569.91
415.02	2569.91
415.22	2686.94
415.41	2750.13
415.60	2761.83
415.79	2745.45
415.98	2883.54
416.17	2843.75
416.36	2841.41
416.55	2775.88
416.74	2892.90
416.93	2820.35
417.12	2998.23
417.31	2869.50
417.50	2995.89
417.69	2993.55
417.88	3091.85
418.07	2944.39
418.26	3033.33
418.45	3005.25
418.64	3164.40
418.83	3180.79
419.02	3194.83
419.21	3171.43
419.39	3145.68
419.58	3133.98
419.77	3108.23
419.96	3248.66
420.15	3126.96
420.34	3382.07
420.53	3297.81
420.72	3449.95
420.91	3337.60
421.10	3311.86
421.29	3492.08
421.48	3253.34
421.67	3370.37
421.86	3417.18
422.05	3290.79
422.24	3445.27
422.43	3356.33
422.61	3463.99
422.80	3389.10
422.99	3475.70
423.18	3471.01
423.37	3449.95
423.56	3529.53
423.75	3456.97
423.94	3421.86
424.13	3262.71
424.32	3316.54
424.50	3632.51
424.69	3522.51
424.88	3571.66
425.07	3485.06
425.26	3524.85
425.45	3428.88
425.64	3538.89
425.83	3419.52
426.01	3487.40
426.20	3480.38
426.39	3515.48
426.58	3456.97
426.77	3480.38
426.96	3555.27
427.15	3611.45
427.33	3571.66
427.52	3590.38
427.71	3686.34
427.90	3742.52
428.09	3826.78
428.28	3709.75
428.46	3880.61
428.65	3709.75
428.84	3882.95
429.03	3873.59
429.22	3632.51
429.40	3817.41
429.59	3768.26
429.78	3515.48
429.97	3545.91
430.16	3613.79
430.34	3784.65
430.53	3936.78
430.72	3775.28
430.91	3756.56
431.10	3822.09
431.28	3960.19
431.47	4198.92
431.66	4074.87
431.85	4030.40
432.03	4161.47
432.22	4276.16
432.41	4149.77
432.60	4095.94
432.79	4248.07
432.97	4269.14
433.16	4271.48
433.35	4231.69
433.54	4205.94
433.72	4208.28
433.91	4140.41
434.10	4390.84
434.28	4404.89
434.47	4257.43
434.66	4369.78
434.85	4613.20
435.03	4411.91
435.22	4318.29
435.41	4498.51
435.59	4477.44
435.78	4404.89
435.97	4578.09
436.16	4587.45
436.34	4512.55
436.53	4561.70
436.72	4692.77
436.90	4552.34
437.09	4514.89
437.28	4547.66
437.46	4650.64
437.65	4592.13
437.84	4770.01
438.02	4552.34
438.21	4744.27
438.40	4627.24
438.58	4660.01
438.77	4748.95
438.96	4987.68
439.14	4873.00
439.33	4856.61
439.52	5111.73
439.70	5144.50
439.89	5125.77
440.08	5029.81
440.26	5121.09
440.45	4994.70
440.63	5270.89
440.82	5334.08
441.01	5249.82
441.19	5383.23
441.38	5378.55
441.57	5495.58
441.75	5530.69
441.94	5425.36
442.12	5643.03
442.31	5717.93
442.50	5523.66
442.68	5397.28
442.87	5479.19
443.05	5647.71
443.24	5778.78
443.43	5717.93
443.61	5678.14
443.80	6052.63
443.98	5673.46
444.17	5446.43
444.35	5795.17
444.54	5954.32
444.73	5724.95
444.91	5790.49
445.10	5731.97
445.28	5832.62
445.47	5806.87
445.65	5877.09
445.84	5703.89
446.02	5949.64
446.21	5795.17
446.39	5930.92
446.58	5776.44
446.77	5928.58
446.95	5696.86
447.14	5874.74
447.32	6092.41
447.51	6038.58
447.69	5727.29
447.88	5935.60
448.06	5907.51
448.25	5966.03
448.43	5963.68
448.62	5832.62
448.80	5996.45
448.99	5923.90
449.17	6113.48
449.36	5764.74
449.54	6179.01
449.73	6209.44
449.91	6190.72
450.10	6375.62
450.28	6429.45
450.46	6303.06
450.65	6525.41
450.83	6267.95
451.02	6232.85
451.20	6436.47
451.39	6466.90
451.57	6326.47
451.76	6368.60
451.94	6410.73
452.13	6483.28
452.31	6363.92
452.49	6328.81
452.68	6354.55
452.86	6394.34
453.05	6597.97
453.23	6422.43
453.42	6298.38
453.60	6377.96
453.78	6602.65
453.97	6455.20
454.15	6544.14
454.34	6509.03
454.52	6843.73
454.70	6609.67
454.89	6609.67
455.07	6736.06
455.26	6904.58
455.44	6754.79
455.62	6815.64
455.81	6806.28
455.99	6836.70
456.17	6729.04
456.36	7035.65
456.54	6970.12
456.73	7059.06
456.91	7115.23
457.09	7311.83
457.28	7328.22
457.46	7150.34
457.64	7295.45
457.83	7148.00
458.01	7028.63
458.19	7293.11
458.38	7243.96
458.56	7377.37
458.74	7229.91
458.93	7215.87
459.11	7372.69
459.29	7222.89
459.48	7559.93
459.66	7435.88
459.84	7377.37
460.03	7683.98
460.21	7676.96
460.39	7730.79
460.57	7616.10
460.76	7761.22
460.94	7714.41
461.12	7716.75
461.31	7639.51
461.49	7651.21
461.67	7674.62
461.85	7911.01
462.04	7765.90
462.22	8018.68
462.40	8037.40
462.59	7840.79
462.77	7983.57
462.95	7969.52
463.13	7852.50
463.32	7960.16
463.50	8056.12
463.68	8084.21
463.86	8030.38
464.05	8011.65
464.23	7833.77
464.41	8203.58
464.59	7896.97
464.78	8273.79
464.96	8039.74
465.14	8107.62
465.32	8203.58
465.50	8149.75
465.69	8271.45
465.87	8180.17
466.05	8346.35
466.23	8072.51
466.41	8313.58
466.60	8564.02
466.78	8273.79
466.96	8170.81
467.14	8332.31
467.32	8294.86
467.51	8578.06
467.69	8329.97
467.87	8470.40
468.05	8549.98
468.23	8524.23
468.41	8549.98
468.60	8617.85
468.78	8367.42
468.96	8496.14
469.14	8610.83
469.32	8896.38
469.50	8636.58
469.69	8872.97
469.87	8861.27
470.05	8861.27
470.23	8870.63
470.41	8821.48
470.59	8940.85
470.77	8975.95
470.95	8844.88
471.14	9132.77
471.32	9114.05
471.50	9186.60
471.68	9238.09
471.86	9184.26
472.04	9352.78
472.22	9544.70
472.40	9254.48
472.58	9385.55
472.77	9462.79
472.95	9682.80
473.13	9870.04
473.31	9348.10
473.49	9479.17
473.67	9579.81
473.85	9764.72
474.03	9867.70
474.21	9804.50
474.39	9919.19
474.57	9954.30
474.75	9802.16
474.93	10214.10
475.12	10097.07
475.30	10171.97
475.48	10040.90
475.66	10181.33
475.84	10237.50
476.02	10249.21
476.20	10204.74
476.38	10391.98
476.56	10733.70
476.74	10712.63
476.92	10555.82
477.10	10478.58
477.28	10960.73
477.46	10675.18
477.64	10909.24
477.82	10991.16
478.00	11351.60
478.18	11185.42
478.36	11246.27
478.54	11454.58
478.72	11414.79
478.90	11700.34
479.08	11599.70
479.26	11878.22
479.44	11990.56
479.62	11627.78
479.80	12070.14
479.98	11941.41
480.16	12376.75
480.34	12397.82
480.52	12456.33
480.70	12358.03
480.88	12292.49
481.06	12547.61
481.24	12564.00
481.41	12737.20
481.59	12868.27
481.77	12821.45
481.95	12959.55
482.13	13114.02
482.31	13088.28
482.49	13209.98
482.67	13607.87
482.85	13497.87
483.03	13673.41
483.21	13715.54
483.39	13958.96
483.57	13778.73
483.74	14087.68
483.92	14274.93
484.10	13706.18
484.28	14246.84
484.46	14370.89
484.64	14806.23
484.82	14647.07
485.00	14658.78
485.18	14703.25
485.35	15051.99
485.53	14925.60
485.71	14918.57
485.89	15232.21
486.07	15051.99
486.25	15311.78
486.43	15250.93
486.61	15426.47
486.78	15875.85
486.96	15829.04
487.14	16072.46
487.32	16018.63
487.50	16236.30
487.68	16517.16
487.85	16517.16
488.03	16772.28
488.21	16898.67
488.39	16814.41
488.57	16830.79
488.75	17263.79
488.92	17441.67
489.10	17790.41
489.28	17703.81
489.46	17921.48
489.64	17802.11
489.81	18139.15
489.99	18368.52
490.17	18216.39
490.35	18345.12
490.53	18094.68
490.70	18256.18
490.88	18665.77
491.06	18895.14
491.24	19091.75
491.41	19171.33
491.59	18860.04
491.77	18897.49
491.95	19091.75
492.13	19775.19
492.30	19658.16
492.48	19782.21
492.66	19880.51
492.84	19763.48
493.01	20175.42
493.19	20189.46
493.37	20149.67
493.54	20203.50
493.72	20582.67
493.90	20917.37
494.08	20809.70
494.25	21097.59
494.43	21104.61
494.61	20957.16
494.79	21165.46
494.96	20924.39
495.14	21315.26
495.32	21748.26
495.49	21497.82
495.67	21441.65
495.85	21898.05
496.02	22167.21
496.20	22270.20
496.38	22003.38
496.55	22153.17
496.73	22635.32
496.91	22572.13
497.09	22831.93
497.26	23054.28
497.44	22883.42
497.62	22810.86
497.79	23068.32
497.97	23016.83
498.14	23491.96
498.32	23494.30
498.50	23419.40
498.67	23543.45
498.85	23498.98
499.03	23929.64
499.20	24182.42
499.38	23967.09
499.56	24063.05
499.73	24105.18
499.91	24229.23
500.08	24208.16
500.26	24147.31
500.44	24109.86
500.61	24435.19
500.79	24353.27
500.97	24664.57
501.14	25046.07
501.32	24940.75
501.49	24666.91
501.67	25074.16
501.84	25158.42
502.02	25015.65
502.20	25280.13
502.37	25380.77
502.55	25355.02
502.72	25376.09
502.90	25287.15
503.07	25511.84
503.25	25907.39
503.43	25764.62
503.60	25905.05
503.78	25766.96
503.95	26209.32
504.13	25818.45
504.30	26242.09
504.48	26143.78
504.65	26787.43
504.83	26721.90
505.01	26773.39
505.18	26614.23
505.36	27089.36
505.53	27353.84
505.71	27274.26
505.88	27028.51
506.06	26834.24
506.23	27211.07
506.41	27157.24
506.58	27204.05
506.76	27009.78
506.93	27861.74
507.11	27119.79
507.28	27637.05
507.46	27737.69
507.63	27681.52
507.81	27924.93
507.98	27466.19
508.16	27557.47
508.33	27997.49
508.50	28109.83
508.68	27922.59
508.85	28402.40
509.03	28503.04
509.20	28844.76
509.38	28950.09
509.55	28627.09
509.73	28966.47
509.90	29022.64
510.08	28716.03
510.25	28823.70
510.42	28807.31
510.60	29193.50
510.77	29172.44
510.95	29926.09
511.12	29516.50
511.30	29626.50
511.47	29549.26
511.64	29525.86
511.82	29771.61
511.99	29593.73
512.17	29841.83
512.34	29832.47
512.51	29954.18
512.69	30099.29
512.86	30391.86
513.04	30202.27
513.21	30441.01
513.38	30288.87
513.56	30490.16
513.73	30146.10
513.90	30485.48
514.08	30742.94
514.25	30401.22
514.43	30405.90
514.60	30469.09
514.77	30778.04
514.95	31194.66
515.12	31138.49
515.29	30899.75
515.47	31952.99
515.64	31262.54
515.81	31337.43
515.99	31211.04
516.16	31730.64
516.33	31197.00
516.51	31307.01
516.68	31105.72
516.85	30841.24
517.03	31094.02
517.20	31297.64
517.37	31840.65
517.54	32596.64
517.72	31634.68
517.89	31850.01
518.06	31983.42
518.24	32034.91
518.41	31931.93
518.58	32329.82
518.75	32020.87
518.93	32273.65
519.10	32510.04
519.27	32491.32
519.45	32177.68
519.62	32547.49
519.79	32907.93
519.96	32514.72
520.14	32989.85
520.31	33153.69
520.48	32800.27
520.65	32823.67
520.83	33188.80
521.00	33331.57
521.17	33371.36
521.34	33003.89
521.52	33303.48
521.69	33612.43
521.86	33729.46
522.03	33251.99
522.20	33663.93
522.38	33759.89
522.55	34017.35
522.72	33902.66
522.89	33825.42
523.07	34120.33
523.24	33869.89
523.41	34148.42
523.58	34408.22
523.75	34602.48
523.92	34448.00
524.10	34550.99
524.27	34724.19
524.44	35178.25
524.61	34979.31
524.78	34628.23
524.96	35119.74
525.13	35019.10
525.30	35330.39
525.47	35234.42
525.64	34768.66
525.81	35105.70
525.98	35061.22
526.16	35093.99
526.33	35339.75
526.50	35512.95
526.67	34808.45
526.84	35250.81
527.01	35332.73
527.18	35274.21
527.36	35421.67
527.53	35552.74
527.70	35931.90
527.87	35985.74
528.04	35903.82
528.21	35449.75
528.38	35866.37
528.55	35974.03
528.72	35950.63
528.89	35936.59
529.07	36149.57
529.24	35887.43
529.41	36264.26
529.58	36142.55
529.75	36027.87
529.92	36023.19
530.09	36510.02
530.26	36552.15
530.43	36671.51
530.60	36687.90
530.77	36552.15
530.94	37158.34
531.11	36669.17
531.28	37017.91
531.46	37160.69
531.63	36678.54
531.80	36900.89
531.97	37071.75
532.14	37090.47
532.31	36947.70
532.48	36634.06
532.65	37251.97
532.82	37057.70
532.99	37104.51
533.16	37043.66
533.33	37104.51
533.50	37567.94
533.67	37532.83
533.84	37268.35
534.01	37645.18
534.18	37390.06
534.35	37825.40
534.52	37546.87
534.69	37507.08
534.86	37741.14
535.03	37865.19
535.20	38120.31
535.37	38363.72
535.54	38183.50
535.71	37647.52
535.88	37914.34
536.05	37834.76
536.22	38036.05
536.38	38124.99
536.55	38209.25
536.72	38288.82
536.89	38333.29
537.06	38213.93
537.23	38249.03
537.40	38169.46
537.57	38462.02
537.74	38817.78
537.91	38967.58
538.08	38600.12
538.25	38625.86
538.42	38665.65
538.59	39164.18
538.75	38354.36
538.92	38539.26
539.09	38637.56
539.26	38873.96
539.43	39414.62
539.60	38787.36
539.77	38974.60
539.94	38689.06
540.11	38455.00
540.28	38859.91
540.44	38848.21
540.61	38913.75
540.78	39445.05
540.95	38958.22
541.12	38794.38
541.29	39164.18
541.46	39447.39
541.62	39140.78
541.79	39803.15
541.96	39564.42
542.13	39349.09
542.30	39042.48
542.47	39700.17
542.63	39847.62
542.80	39793.79
542.97	39976.35
543.14	40165.93
543.31	40409.35
543.48	40112.10
543.64	40446.80
543.81	40341.47
543.98	40404.67
544.15	40016.14
544.32	40594.25
544.48	40521.69
544.65	40315.73
544.82	40105.08
544.99	40671.49
545.16	40512.33
545.32	40769.79
545.49	40781.49
545.66	41015.55
545.83	40959.38
546.00	40666.81
546.16	40598.93
546.33	40423.39
546.50	40453.82
546.67	40528.72
546.83	40289.98
547.00	40844.69
547.17	40596.59
547.34	40697.24
547.50	40432.75
547.67	41106.83
547.84	40615.32
548.00	40718.30
548.17	41579.62
548.34	41244.92
548.51	41441.53
548.67	41228.54
548.84	41141.94
549.01	40879.80
549.18	41219.17
549.34	41635.79
549.51	41141.94
549.68	41572.60
549.84	41532.81
550.01	41853.46
550.18	41354.93
550.34	41823.03
550.51	41752.82
550.68	41371.31
550.84	41401.74
551.01	41778.56
551.18	41605.36
551.34	41177.04
551.51	41790.27
551.68	41996.23
551.84	42043.04
552.01	41722.39
552.18	41851.12
552.34	41921.34
552.51	42087.51
552.68	41521.10
552.84	42230.29
553.01	42122.62
553.18	42305.18
553.34	41469.61
553.51	41633.45
553.67	41933.04
553.84	42321.57
554.01	42263.05
554.17	42026.66
554.34	42415.19
554.51	41979.85
554.67	42817.76
554.84	42234.97
555.00	42277.10
555.17	42148.37
555.33	42150.71
555.50	42251.35
555.67	42370.72
555.83	42291.14
556.00	42499.45
556.16	42784.99
556.33	42176.45
556.50	42768.61
556.66	43054.15
556.83	41979.85
556.99	42665.63
557.16	42850.53
557.32	43124.37
557.49	42824.78
557.65	42555.62
557.82	42696.05
557.98	42429.23
558.15	42609.45
558.32	42759.25
558.48	42740.52
558.65	42873.93
558.81	42476.04
558.98	42658.60
559.14	42782.65
559.31	42726.48
559.47	43320.98
559.64	43107.99
559.80	43082.24
559.97	42899.68
560.13	42897.34
560.30	43063.52
560.46	42784.99
560.63	42756.91
560.79	42822.44
560.96	43449.70
561.12	43091.60
561.29	43042.45
561.45	43040.11
561.61	42951.17
561.78	43604.18
561.94	43363.11
562.11	42869.25
562.27	43232.04
562.44	43288.21
562.60	43175.86
562.77	43601.84
562.93	43454.39
563.10	43402.89
563.26	43189.91
563.42	43358.42
563.59	43178.20
563.75	43274.16
563.92	43730.57
564.08	43590.14
564.24	43086.92
564.41	43428.64
564.57	43246.08
564.74	43688.44
564.90	43803.13
565.07	43449.70
565.23	43494.18
565.39	43473.11
565.56	43927.17
565.72	43012.02
565.88	43398.21
566.05	43386.51
566.21	43400.55
566.38	43887.39
566.54	43791.42
566.70	43423.96
566.87	43803.13
567.03	43524.60
567.19	43807.81
567.36	43889.73
567.52	43501.20
567.68	43910.79
567.85	43496.52
568.01	43257.78
568.17	43636.95
568.34	43894.41
568.50	43667.37
568.66	43686.10
568.83	43330.34
568.99	43569.07
569.15	43866.32
569.32	43510.56
569.48	43370.13
569.64	43550.35
569.81	43632.27
569.97	43697.80
570.13	43693.12
570.30	43662.69
570.46	43459.07
570.62	43271.82
570.78	43606.52
570.95	43676.74
571.11	43826.53
571.27	43854.62
571.43	43758.66
571.60	43407.58
571.76	43704.82
571.92	43955.26
572.09	43922.49
572.25	43491.83
572.41	43966.96
572.57	43683.76
572.74	44027.82
572.90	43899.09
573.06	44002.07
573.22	44154.21
573.38	43569.07
573.55	43519.92
573.71	44013.77
573.87	43756.32
574.03	43758.66
574.20	43753.97
574.36	43606.52
574.52	43971.64
574.68	44470.18
574.84	43875.68
575.01	44009.09
575.17	44203.36
575.33	43737.59
575.49	44032.50
575.65	44163.57
575.82	44367.20
575.98	43973.98
576.14	44477.20
576.30	44170.59
576.46	43969.30
576.62	43971.64
576.79	44222.08
576.95	43786.74
577.11	44093.35
577.27	43868.66
577.43	44046.54
577.59	44194.00
577.75	43943.56
577.92	43592.48
578.08	43880.36
578.24	43608.86
578.40	43421.62
578.56	44041.86
578.72	44044.20
578.88	44198.68
579.04	44170.59
579.21	43941.22
579.37	44058.24
579.53	43777.38
579.69	43786.74
579.85	43889.73
580.01	44715.93
580.17	44172.93
580.33	44395.28
580.49	44584.86
580.65	44304.00
580.82	44168.25
580.98	43981.01
581.14	43768.02
581.30	44507.63
581.46	44266.55
581.62	44641.04
581.78	44194.00
581.94	44346.13
582.10	44107.40
582.26	44217.40
582.42	43791.42
582.58	43695.46
582.74	43931.86
582.90	44301.66
583.06	44245.49
583.22	44229.10
583.38	44463.16
583.54	44514.65
583.70	44091.01
583.86	44147.18
584.02	43871.00
584.18	43821.85
584.34	44055.90
584.50	44390.60
584.66	44430.39
584.82	43899.09
584.98	44414.01
585.14	44170.59
585.30	44079.31
585.46	44168.25
585.62	44362.51
585.78	43906.11
585.94	44030.16
586.10	44041.86
586.26	44282.94
586.42	44598.91
586.58	44406.98
586.74	44339.11
586.90	44278.25
587.06	44067.61
587.22	44123.78
587.38	43505.88
587.54	44086.33
587.70	44502.95
587.86	44294.64
588.02	44196.34
588.18	44612.95
588.34	43826.53
588.49	44170.59
588.65	44055.90
588.81	43540.99
588.97	43817.17
589.13	44058.24
589.29	44184.63
589.45	44467.84
589.61	44182.29
589.77	44580.18
589.93	44399.96
590.08	44655.08
590.24	44032.50
590.40	44076.97
