SpectraSuite Data File
++++++++++++++++++++++++++++++++++++
Date: Fri Oct 25 11:23:57 EDT 2013
User: price-jones
Dark Spectrum Present: No
Reference Spectrum Present: No
Number of Sampled Component Spectra: 1
Spectrometers: USB2+H05261
Integration Time (usec): 100000 (USB2+H05261)
Spectra Averaged: 1 (USB2+H05261)
Boxcar Smoothing: 0 (USB2+H05261)
Correct for Electrical Dark: No (USB2+H05261)
Strobe/Lamp Enabled: No (USB2+H05261)
Correct for Detector Non-linearity: No (USB2+H05261)
Correct for Stray Light: No (USB2+H05261)
Number of Pixels in Processed Spectrum: 2048
>>>>>Begin Processed Spectral Data<<<<<
365.73	220.01
365.92	220.01
366.12	220.01
366.32	107.66
366.52	133.41
366.72	117.03
366.91	105.32
367.11	173.20
367.31	114.69
367.51	114.69
367.70	124.05
367.90	177.88
368.10	126.39
368.30	145.11
368.49	142.77
368.69	131.07
368.89	145.11
369.09	166.18
369.28	224.69
369.48	163.84
369.68	128.73
369.87	191.92
370.07	203.63
370.27	245.76
370.47	301.93
370.66	631.94
370.86	596.84
371.06	578.11
371.25	741.95
371.45	657.69
371.65	667.05
371.84	716.20
372.04	585.13
372.24	697.48
372.44	718.54
372.63	737.27
372.83	706.84
373.03	697.48
373.22	720.88
373.42	664.71
373.62	779.40
373.81	751.31
374.01	793.44
374.21	763.01
374.40	847.27
374.60	842.59
374.79	814.51
374.99	807.48
375.19	807.48
375.38	868.34
375.58	798.12
375.78	891.74
375.97	826.21
376.17	898.77
376.37	823.87
376.56	798.12
376.76	880.04
376.95	870.68
377.15	908.13
377.35	873.02
377.54	861.32
377.74	957.28
377.93	887.06
378.13	912.81
378.33	973.66
378.52	936.21
378.72	985.37
378.91	950.26
379.11	912.81
379.31	870.68
379.50	915.15
379.70	983.02
379.89	1020.47
380.09	1025.15
380.28	954.94
380.48	961.96
380.68	1022.81
380.87	952.60
381.07	1027.50
381.26	985.37
381.46	999.41
381.65	1050.90
381.85	1020.47
382.04	966.64
382.24	1032.18
382.43	1064.94
382.63	1041.54
382.83	1086.01
383.02	1081.33
383.22	1121.12
383.41	1146.86
383.61	1102.39
383.80	1160.91
384.00	1252.19
384.19	1151.54
384.39	1128.14
384.58	1081.33
384.78	1083.67
384.97	1146.86
385.17	1111.75
385.36	1144.52
385.56	1263.89
385.75	1193.67
385.95	1128.14
386.14	1174.95
386.34	1233.46
386.53	1179.63
386.72	1104.73
386.92	1287.29
387.11	1203.04
387.31	1268.57
387.50	1210.06
387.70	1212.40
387.89	1268.57
388.09	1245.16
388.28	1282.61
388.48	1210.06
388.67	1359.85
388.86	1254.53
389.06	1315.38
389.25	1366.87
389.45	1324.74
389.64	1343.47
389.84	1327.08
390.03	1324.74
390.22	1324.74
390.42	1341.13
390.61	1352.83
390.81	1486.24
391.00	1369.21
391.19	1467.52
391.39	1289.64
391.58	1460.49
391.78	1453.47
391.97	1502.62
392.16	1416.02
392.36	1598.59
392.55	1423.05
392.75	1504.96
392.94	1479.22
393.13	1472.20
393.33	1483.90
393.52	1551.78
393.71	1554.12
393.91	1579.86
394.10	1556.46
394.29	1600.93
394.49	1572.84
394.68	1619.65
394.88	1593.90
395.07	1720.29
395.26	1568.16
395.46	1654.76
395.65	1708.59
395.84	1680.50
396.04	1771.79
396.23	1788.17
396.42	1776.47
396.62	1813.92
396.81	1776.47
397.00	1755.40
397.19	1771.79
397.39	1797.53
397.58	1881.79
397.77	1842.00
397.97	1760.08
398.16	1842.00
398.35	1919.24
398.55	1930.94
398.74	1839.66
398.93	1947.33
399.12	1914.56
399.32	1930.94
399.51	1909.88
399.70	2050.31
399.90	1867.75
400.09	2047.97
400.28	2108.82
400.47	2008.18
400.67	2104.14
400.86	2071.37
401.05	2019.88
401.24	2078.40
401.44	2143.93
401.63	2106.48
401.82	2099.46
402.01	2157.97
402.21	2284.36
402.40	2286.70
402.59	2216.49
402.78	2150.95
402.97	2167.34
403.17	2228.19
403.36	2202.44
403.55	2345.22
403.74	2260.96
403.93	2303.09
404.13	2265.64
404.32	2298.41
404.51	2314.79
404.70	2422.45
404.89	2443.52
405.09	2464.58
405.28	2448.20
405.47	2410.75
405.66	2586.29
405.85	2621.40
406.05	2476.29
406.24	2530.12
406.43	2602.68
406.62	2693.96
406.81	2708.00
407.00	2600.34
407.20	2483.31
407.39	2588.63
407.58	2780.56
407.77	2644.81
407.96	2663.53
408.15	2815.66
408.34	2738.43
408.54	2834.39
408.73	2850.77
408.92	2813.32
409.11	2878.86
409.30	2862.48
409.49	2787.58
409.68	2984.18
409.87	2949.08
410.07	3082.49
410.26	3103.55
410.45	2913.97
410.64	3082.49
410.83	3012.27
411.02	3173.77
411.21	3150.36
411.40	3138.66
411.59	3124.62
411.78	3089.51
411.98	3190.15
412.17	3300.16
412.36	3265.05
412.55	3386.76
412.74	3372.71
412.93	3344.63
413.12	3342.28
413.31	3581.02
413.50	3545.91
413.69	3431.23
413.88	3468.67
414.07	3723.79
414.26	3658.26
414.45	3789.33
414.64	3698.05
414.83	3618.47
415.02	3775.28
415.22	3913.38
415.41	4058.49
415.60	3824.44
415.79	3798.69
415.98	3960.19
416.17	3927.42
416.36	4007.00
416.55	4070.19
416.74	4109.98
416.93	4030.40
417.12	4133.39
417.31	4175.52
417.50	4374.46
417.69	4292.54
417.88	4215.30
418.07	4184.88
418.26	4285.52
418.45	4339.35
418.64	4484.47
418.83	4397.87
419.02	4344.03
419.21	4631.92
419.39	4533.62
419.58	4517.23
419.77	4444.68
419.96	4648.30
420.15	4624.90
420.34	4706.82
420.53	4627.24
420.72	4606.17
420.91	4706.82
421.10	4660.01
421.29	4870.65
421.48	4671.71
421.67	4861.29
421.86	4732.56
422.05	4795.76
422.24	4762.99
422.43	4844.91
422.61	4905.76
422.80	5069.60
422.99	5008.75
423.18	4975.98
423.37	5114.07
423.56	4947.89
423.75	4901.08
423.94	4807.46
424.13	4561.70
424.32	4709.16
424.50	4975.98
424.69	5193.65
424.88	5064.92
425.07	4990.02
425.26	4802.78
425.45	4950.23
425.64	4919.81
425.83	4908.10
426.01	5090.67
426.20	5102.37
426.39	4936.19
426.58	5039.17
426.77	4983.00
426.96	5144.50
427.15	4966.62
427.33	5095.35
427.52	5144.50
427.71	5327.06
427.90	5198.33
428.09	5458.13
428.28	5252.16
428.46	5336.42
428.65	5373.87
428.84	5437.06
429.03	5593.88
429.22	5387.91
429.40	5523.66
429.59	5689.84
429.78	5214.71
429.97	5416.00
430.16	5465.15
430.34	5528.35
430.53	5696.86
430.72	5813.89
430.91	5771.76
431.10	5579.84
431.28	5898.15
431.47	5757.72
431.66	5762.40
431.85	5909.85
432.03	5991.77
432.22	5998.79
432.41	5900.49
432.60	5909.85
432.79	5975.39
432.97	6087.73
433.16	5977.73
433.35	5968.37
433.54	6136.88
433.72	6270.30
433.91	6038.58
434.10	6141.57
434.28	6029.22
434.47	6169.65
434.66	6277.32
434.85	6431.79
435.03	6377.96
435.22	6310.08
435.41	6602.65
435.59	6354.55
435.78	6429.45
435.97	6462.22
436.16	6452.86
436.34	6473.92
436.53	6490.31
436.72	6518.39
436.90	6317.11
437.09	6572.22
437.28	6553.50
437.46	6609.67
437.65	6565.20
437.84	6715.00
438.02	6789.89
438.21	6743.08
438.40	6595.63
438.58	6951.39
438.77	7030.97
438.96	7091.82
439.14	7150.34
439.33	7124.59
439.52	7307.15
439.70	7302.47
439.89	7351.62
440.08	7398.43
440.26	7473.33
440.45	7487.37
440.63	7330.56
440.82	7714.41
441.01	7475.67
441.19	7730.79
441.38	7726.11
441.57	7625.47
441.75	7730.79
441.94	7843.14
442.12	7922.71
442.31	7810.37
442.50	7990.59
442.68	8098.25
442.87	8121.66
443.05	8198.90
443.24	8241.03
443.43	8142.72
443.61	8102.93
443.80	8297.20
443.98	7990.59
444.17	8021.02
444.35	8168.47
444.54	8336.99
444.73	8318.26
444.91	8196.56
445.10	8327.63
445.28	8301.88
445.47	8271.45
445.65	8332.31
445.84	8538.27
446.02	8477.42
446.21	8390.82
446.39	8395.50
446.58	8463.38
446.77	8482.10
446.95	8210.60
447.14	8512.53
447.32	8512.53
447.51	8596.79
447.69	8692.75
447.88	8610.83
448.06	8592.11
448.25	8538.27
448.43	8627.21
448.62	8683.39
448.80	8580.40
448.99	8748.92
449.17	8842.54
449.36	8505.51
449.54	8849.57
449.73	9149.15
449.91	8910.42
450.10	9036.81
450.28	9118.73
450.46	9022.77
450.65	9090.64
450.83	9303.63
451.02	9011.06
451.20	9186.60
451.39	9266.18
451.57	9163.20
451.76	8943.19
451.94	9294.27
452.13	9188.94
452.31	9364.48
452.49	9064.89
452.68	9219.37
452.86	9207.67
453.05	9502.58
453.23	9692.16
453.42	9516.62
453.60	9287.25
453.78	9453.42
453.97	9458.10
454.15	9549.39
454.34	9514.28
454.52	9699.18
454.70	9387.89
454.89	9912.17
455.07	9872.38
455.26	9856.00
455.44	9851.31
455.62	9951.96
455.81	9893.44
455.99	9977.70
456.17	10003.45
456.36	10202.40
456.54	10359.21
456.73	10167.29
456.91	10506.66
457.09	10340.49
457.28	10396.66
457.46	10420.06
457.64	10389.64
457.83	10616.67
458.01	10436.45
458.19	10764.12
458.38	10516.03
458.56	10796.89
458.74	10717.31
458.93	10700.93
459.11	10895.19
459.29	10696.25
459.48	10778.17
459.66	10839.02
459.84	10658.80
460.03	11014.56
460.21	11187.76
460.39	11194.78
460.57	10963.07
460.76	11307.13
460.94	11075.42
461.12	11309.47
461.31	11152.65
461.49	11152.65
461.67	11255.64
461.85	11330.53
462.04	11316.49
462.22	11508.41
462.40	11646.51
462.59	11421.81
462.77	11674.59
462.95	11400.75
463.13	11630.12
463.32	11508.41
463.50	11585.65
463.68	11772.89
463.86	11922.69
464.05	11569.27
464.23	11796.30
464.41	12020.99
464.59	11620.76
464.78	12217.60
464.96	11819.71
465.14	12046.74
465.32	11988.22
465.50	12189.51
465.69	12102.91
465.87	12023.33
466.05	12058.44
466.23	12264.41
466.41	12269.09
466.60	12463.35
466.78	11997.59
466.96	12355.69
467.14	12243.34
467.32	12336.96
467.51	12737.20
467.69	12484.42
467.87	12697.41
468.05	12496.12
468.23	12315.90
468.41	12603.78
468.60	12772.30
468.78	12599.10
468.96	12655.28
469.14	12844.86
469.32	12936.14
469.50	12521.87
469.69	13029.76
469.87	13128.06
470.05	12795.71
470.23	13146.79
470.41	13139.77
470.59	13404.25
470.77	13050.83
470.95	13523.62
471.14	13568.09
471.32	13369.14
471.50	13596.17
471.68	13268.50
471.86	13774.05
472.04	13542.34
472.22	14230.46
472.40	13853.63
472.58	14047.90
472.77	14066.62
472.95	14202.37
473.13	14342.80
473.31	14008.11
473.49	14153.22
473.67	14148.54
473.85	14169.60
474.03	14623.67
474.21	14298.33
474.39	14743.03
474.57	14656.43
474.75	14974.75
474.93	15002.83
475.12	14991.13
475.30	15136.24
475.48	14956.02
475.66	15367.96
475.84	15171.35
476.02	15342.21
476.20	15496.69
476.38	15604.35
476.56	16123.95
476.74	16184.80
476.92	15758.83
477.10	15824.36
477.28	16152.04
477.46	16135.65
477.64	16058.42
477.82	16767.60
478.00	16982.93
478.18	16919.73
478.36	16931.44
478.54	17081.23
478.72	17212.30
478.90	17359.75
479.08	17633.60
479.26	17844.24
479.44	17664.02
479.62	17778.71
479.80	18272.56
479.98	18178.94
480.16	18838.97
480.34	18230.43
480.52	18860.04
480.70	18857.70
480.88	18398.95
481.06	18675.13
481.24	18705.56
481.41	19012.17
481.59	19585.60
481.77	19529.43
481.95	19894.55
482.13	19761.14
482.31	19796.25
482.49	20163.72
482.67	20346.28
482.85	20435.22
483.03	20713.74
483.21	20697.36
483.39	21298.88
483.57	20769.91
483.74	21001.63
483.92	21621.87
484.10	21226.32
484.28	21862.94
484.46	21635.91
484.64	22235.09
484.82	22188.28
485.00	22033.80
485.18	22757.03
485.35	22740.64
485.53	22766.39
485.71	23089.38
485.89	23440.47
486.07	23232.16
486.25	23112.79
486.43	23470.89
486.61	23857.08
486.78	23814.95
486.96	24257.31
487.14	24877.55
487.32	24432.85
487.50	24912.66
487.68	24973.52
487.85	25303.53
488.03	25425.24
488.21	25465.03
488.39	25956.54
488.57	26249.11
488.75	26382.52
488.92	26434.01
489.10	26431.67
489.28	26890.41
489.46	27278.94
489.64	27026.17
489.81	27559.81
489.99	27967.06
490.17	28060.68
490.35	28315.80
490.53	28374.31
490.70	28231.54
490.88	28517.09
491.06	28779.23
491.24	28931.36
491.41	29179.46
491.59	29371.38
491.77	29383.09
491.95	29528.20
492.13	29893.32
492.30	30122.69
492.48	30015.03
492.66	30824.86
492.84	30237.38
493.01	30843.58
493.19	30925.50
493.37	30876.35
493.54	31201.68
493.72	31405.31
493.90	31714.26
494.08	31927.25
494.25	32154.28
494.43	32063.00
494.61	32601.32
494.79	32758.14
494.96	32896.23
495.14	33118.58
495.32	33280.08
495.49	33198.16
495.67	33441.57
495.85	33954.15
496.02	33867.55
496.20	33991.60
496.38	34040.75
496.55	34167.14
496.73	34614.18
496.91	34672.70
497.09	34813.13
497.26	35002.71
497.44	34862.28
497.62	35718.92
497.79	36006.80
497.97	35569.12
498.14	35952.97
498.32	36086.38
498.50	36559.17
498.67	36680.88
498.85	36348.52
499.03	36884.50
499.20	36994.51
499.38	37071.75
499.56	37076.43
499.73	37532.83
499.91	36868.12
500.08	37914.34
500.26	37394.74
500.44	37493.04
500.61	37858.17
500.79	37734.12
500.97	37890.93
501.14	38946.51
501.32	38361.38
501.49	38925.45
501.67	38464.36
501.84	38873.96
502.02	39222.70
502.20	38998.01
502.37	39625.27
502.55	39091.63
502.72	39482.50
502.90	39344.41
503.07	39601.86
503.25	39871.03
503.43	40046.57
503.60	39915.50
503.78	40245.51
503.95	40346.15
504.13	40421.05
504.30	40549.78
504.48	40701.92
504.65	40744.05
504.83	41038.95
505.01	41736.43
505.18	41368.97
505.36	41734.09
505.53	40823.62
505.71	41752.82
505.88	42136.66
506.06	41469.61
506.23	42033.68
506.41	41806.65
506.58	41951.76
506.76	42550.94
506.93	42806.06
507.11	42508.81
507.28	42569.66
507.46	42682.01
507.63	42899.68
507.81	43445.02
507.98	42897.34
508.16	42983.94
508.33	43765.68
508.50	43552.69
508.68	43772.70
508.85	44039.52
509.03	43810.15
509.20	43959.94
509.38	44507.63
509.55	44772.11
509.73	44472.52
509.90	44708.91
510.08	44751.04
510.25	44844.66
510.42	44809.56
510.60	44931.26
510.77	45249.58
510.95	45881.52
511.12	45287.03
511.30	45312.77
511.47	45661.51
511.64	45483.63
511.82	46073.45
511.99	46005.57
512.17	46050.04
512.34	46087.49
512.51	46328.56
512.69	46733.48
512.86	45837.05
513.04	46770.93
513.21	46616.45
513.38	46789.65
513.56	46988.60
513.73	47070.51
513.90	47271.80
514.08	47079.88
514.25	47056.47
514.43	47533.94
514.60	47555.00
514.77	47665.01
514.95	47763.31
515.12	47831.19
515.29	47627.56
515.47	48002.05
515.64	48439.73
515.81	47971.62
515.99	48399.94
516.16	48758.04
516.33	48406.96
516.51	48956.99
516.68	48428.02
516.85	48458.45
517.03	48903.15
517.20	49387.64
517.37	48832.94
517.54	49059.97
517.72	49106.78
517.89	49024.86
518.06	49116.14
518.24	49392.33
518.41	49294.02
518.58	49368.92
518.75	49378.28
518.93	49624.04
519.10	49771.49
519.27	49940.01
519.45	50094.49
519.62	50286.41
519.79	49872.14
519.96	49958.73
520.14	50335.56
520.31	50251.30
520.48	50333.22
520.65	50735.79
520.83	50473.65
521.00	50777.92
521.17	50543.87
521.34	50445.57
521.52	51011.98
521.69	50691.32
521.86	51386.46
522.03	51423.91
522.20	51466.04
522.38	51461.36
522.55	51437.95
522.72	51388.80
522.89	51552.64
523.07	51774.99
523.24	51634.56
523.41	51653.28
523.58	51423.91
523.75	52081.60
523.92	51725.84
524.10	51882.66
524.27	52027.77
524.44	52575.45
524.61	52399.91
524.78	52390.55
524.96	52189.27
525.13	52336.72
525.30	52605.88
525.47	52715.89
525.64	52603.54
525.81	52692.48
525.98	52863.34
526.16	52460.77
526.33	52701.84
526.50	53151.23
526.67	52741.63
526.84	52832.91
527.01	53045.90
527.18	53226.12
527.36	53034.20
527.53	53324.43
527.70	53329.11
527.87	53553.80
528.04	53158.25
528.21	53420.39
528.38	53521.03
528.55	53785.51
528.72	53591.25
528.89	53703.59
529.07	53588.91
529.24	53315.06
529.41	53813.60
529.58	53820.62
529.75	53572.52
529.92	53897.86
530.09	53815.94
530.26	53947.01
530.43	53996.16
530.60	53490.60
530.77	53806.58
530.94	54169.36
531.11	54047.65
531.28	54288.73
531.46	54436.18
531.63	54377.67
531.80	54443.20
531.97	54391.71
532.14	54609.38
532.31	54658.53
532.48	54691.30
532.65	54768.54
532.82	54693.64
532.99	54787.26
533.16	54920.67
533.33	54904.29
533.50	55133.66
533.67	54784.92
533.84	54663.21
534.01	55096.21
534.18	55049.40
534.35	55136.00
534.52	55084.51
534.69	55236.64
534.86	55288.13
535.03	55339.63
535.20	55222.60
535.37	55348.99
535.54	55316.22
535.71	55203.88
535.88	55313.88
536.05	55543.25
536.22	55641.56
536.38	55751.56
536.55	55456.65
536.72	55573.68
536.89	55398.14
537.06	55662.62
537.23	56016.04
537.40	55489.42
537.57	55552.62
537.74	55868.59
537.91	56048.81
538.08	55810.07
538.25	55702.41
538.42	56126.05
538.59	56060.51
538.75	55976.25
538.92	55978.59
539.09	56498.19
539.26	56360.10
539.43	56207.97
539.60	56378.82
539.77	56121.37
539.94	56690.12
540.11	56268.82
540.28	56582.45
540.44	56491.17
540.61	56484.15
540.78	56533.30
540.95	56718.20
541.12	56495.85
541.29	56533.30
541.46	56594.15
541.62	56601.18
541.79	56750.97
541.96	56523.94
542.13	56573.09
542.30	56750.97
542.47	56776.72
542.63	57013.11
542.80	56900.76
542.97	57008.43
543.14	57485.90
543.31	57027.15
543.48	57207.37
543.64	57504.62
543.81	57544.41
543.98	57532.71
544.15	57371.21
544.32	57481.22
544.48	57539.73
544.65	57439.09
544.82	57506.96
544.99	57595.90
545.16	57516.32
545.32	57628.67
545.49	57872.09
545.66	57663.78
545.83	57773.78
546.00	57874.43
546.16	57851.02
546.33	57701.23
546.50	57394.62
546.67	57729.31
546.83	57708.25
547.00	57778.46
547.17	57851.02
547.34	57895.49
547.50	58162.31
547.67	58099.12
547.84	57951.66
548.00	58248.91
548.17	58291.04
548.34	58152.95
548.51	58127.20
548.67	58141.25
548.84	58513.39
549.01	58024.22
549.18	58101.46
549.34	58192.74
549.51	58403.39
549.68	58431.47
549.84	58599.99
550.01	58688.93
550.18	58557.86
550.34	58370.62
550.51	58653.82
550.68	58585.95
550.84	58134.23
551.01	58578.93
551.18	58422.11
551.34	58567.23
551.51	58569.57
551.68	58656.17
551.84	58574.25
552.01	58604.67
552.18	58927.67
552.34	58525.10
552.51	58644.46
552.68	58731.06
552.84	58782.55
553.01	58939.37
553.18	59000.22
553.34	58906.60
553.51	58756.81
553.67	58780.21
553.84	58930.01
554.01	58965.12
554.17	58967.46
554.34	59103.21
554.51	59260.02
554.67	59098.53
554.84	59203.85
555.00	59250.66
555.17	58981.50
555.33	59032.99
555.50	58925.33
555.67	58997.88
555.83	58967.46
556.00	59143.00
556.16	59484.72
556.33	59381.73
556.50	59274.07
556.66	59283.43
556.83	59072.78
556.99	59407.48
557.16	59580.68
557.32	59583.02
557.49	59732.81
557.65	59477.69
557.82	59278.75
557.98	59416.84
558.15	59374.71
558.32	59374.71
558.48	59554.93
558.65	59590.04
558.81	59505.78
558.98	59627.49
559.14	59803.03
559.31	59800.69
559.47	59620.47
559.64	59852.18
559.80	59739.83
559.97	59781.96
560.13	59554.93
560.30	59732.81
560.46	59938.78
560.63	59821.75
560.79	59788.98
560.96	59868.56
561.12	59915.37
561.29	59917.71
561.45	59896.65
561.61	59845.16
561.78	59913.03
561.94	59880.27
562.11	59990.27
562.27	59950.48
562.44	59889.63
562.60	60037.08
562.77	60025.38
562.93	60004.31
563.10	60126.02
563.26	60044.10
563.42	60161.13
563.59	60067.51
563.75	60140.07
563.92	60123.68
564.08	60142.41
564.24	60170.49
564.41	60233.69
564.57	60313.26
564.74	60196.24
564.90	60282.84
565.07	60317.95
565.23	60308.58
565.39	60315.61
565.56	60376.46
565.72	60346.03
565.88	60179.85
566.05	60212.62
566.21	60214.96
566.38	60376.46
566.54	60383.48
566.70	60547.32
566.87	60360.08
567.03	60294.54
567.19	60533.28
567.36	60329.65
567.52	60334.33
567.68	60617.53
567.85	60329.65
568.01	60420.93
568.17	60470.08
568.34	60605.83
568.50	60231.35
568.66	60392.84
568.83	60573.06
568.99	60353.05
569.15	60474.76
569.32	60491.15
569.48	60540.30
569.64	60692.43
569.81	60491.15
569.97	60601.15
570.13	60601.15
570.30	60376.46
570.46	60629.24
570.62	60680.73
570.78	60573.06
570.95	60458.38
571.11	60638.60
571.27	60526.25
571.43	60596.47
571.60	60762.65
571.76	60828.18
571.92	60559.02
572.09	60727.54
572.25	60589.45
572.41	60676.05
572.57	60697.11
572.74	60753.29
572.90	60720.52
573.06	60781.37
573.22	60598.81
573.38	60652.64
573.55	60809.46
573.71	60949.89
573.87	60767.33
574.03	60570.72
574.20	60837.54
574.36	60683.07
574.52	60748.60
574.68	60828.18
574.84	60874.99
575.01	60795.42
575.17	60715.84
575.33	60608.17
575.49	60708.82
575.65	60994.36
575.82	60919.46
575.98	60949.89
576.14	60938.19
576.30	61066.92
576.46	60732.22
576.62	60863.29
576.79	60697.11
576.95	60643.28
577.11	60933.51
577.27	60774.35
577.43	60753.29
577.59	60800.10
577.75	60823.50
577.92	60835.20
578.08	61020.11
578.24	60870.31
578.40	61062.24
578.56	61038.83
578.72	61001.38
578.88	60924.14
579.04	61340.76
579.21	60856.27
579.37	61085.64
579.53	61139.47
579.69	60739.24
579.85	60968.61
580.01	60872.65
580.17	60874.99
580.33	60931.17
580.49	61249.48
580.65	60954.57
580.82	60867.97
580.98	60774.35
581.14	60849.25
581.30	61027.13
581.46	61071.60
581.62	61230.75
581.78	60846.91
581.94	61106.71
582.10	61045.85
582.26	60926.49
582.42	60867.97
582.58	60842.23
582.74	60750.94
582.90	61050.53
583.06	61193.31
583.22	60762.65
583.38	60907.76
583.54	61008.40
583.70	61043.51
583.86	61006.06
584.02	60961.59
584.18	61052.87
584.34	61062.24
584.50	61024.79
584.66	60985.00
584.82	61045.85
584.98	61118.41
585.14	61286.93
585.30	61069.26
585.46	61289.27
585.62	61176.92
585.78	61024.79
585.94	60992.02
586.10	61190.97
586.26	61186.28
586.42	60973.30
586.58	61188.63
586.74	61050.53
586.90	61038.83
587.06	61130.11
587.22	61169.90
587.38	61113.73
587.54	61300.97
587.70	61277.57
587.86	61062.24
588.02	61312.67
588.18	61001.38
588.34	61216.71
588.49	61099.68
