SpectraSuite Data File
++++++++++++++++++++++++++++++++++++
Date: Fri Oct 25 11:23:57 EDT 2013
User: price-jones
Dark Spectrum Present: No
Reference Spectrum Present: No
Number of Sampled Component Spectra: 1
Spectrometers: USB2+H05261
Integration Time (usec): 100000 (USB2+H05261)
Spectra Averaged: 1 (USB2+H05261)
Boxcar Smoothing: 0 (USB2+H05261)
Correct for Electrical Dark: No (USB2+H05261)
Strobe/Lamp Enabled: No (USB2+H05261)
Correct for Detector Non-linearity: No (USB2+H05261)
Correct for Stray Light: No (USB2+H05261)
Number of Pixels in Processed Spectrum: 2048
>>>>>Begin Processed Spectral Data<<<<<
365.73	290.23
365.92	290.23
366.12	290.23
366.32	201.29
366.52	138.09
366.72	147.45
366.91	93.62
367.11	100.64
367.31	152.13
367.51	142.77
367.70	105.32
367.90	117.03
368.10	121.71
368.30	163.84
368.49	138.09
368.69	177.88
368.89	168.52
369.09	166.18
369.28	159.16
369.48	159.16
369.68	138.09
369.87	182.56
370.07	182.56
370.27	255.12
370.47	315.97
370.66	535.98
370.86	653.01
371.06	664.71
371.25	634.29
371.45	627.26
371.65	664.71
371.84	624.92
372.04	662.37
372.24	716.20
372.44	720.88
372.63	814.51
372.83	748.97
373.03	702.16
373.22	760.67
373.42	734.93
373.62	727.91
373.81	837.91
374.01	802.80
374.21	805.14
374.40	746.63
374.60	730.25
374.79	770.04
374.99	753.65
375.19	849.61
375.38	868.34
375.58	828.55
375.78	847.27
375.97	947.92
376.17	889.40
376.37	861.32
376.56	898.77
376.76	931.53
376.95	917.49
377.15	816.85
377.35	779.40
377.54	884.72
377.74	858.98
377.93	964.30
378.13	884.72
378.33	938.55
378.52	985.37
378.72	985.37
378.91	854.30
379.11	990.05
379.31	896.43
379.50	926.85
379.70	1001.75
379.89	992.39
380.09	1011.11
380.28	908.13
380.48	964.30
380.68	940.90
380.87	987.71
381.07	1041.54
381.26	1076.65
381.46	1025.15
381.65	1053.24
381.85	1020.47
382.04	1034.52
382.24	1027.50
382.43	1011.11
382.63	1022.81
382.83	1156.22
383.02	1118.78
383.22	1088.35
383.41	1062.60
383.61	1100.05
383.80	1069.62
384.00	1032.18
384.19	1153.88
384.39	1156.22
384.58	1107.07
384.78	1170.27
384.97	1160.91
385.17	1142.18
385.36	1135.16
385.56	1210.06
385.75	1238.14
385.95	1217.08
386.14	1186.65
386.34	1172.61
386.53	1196.01
386.72	1214.74
386.92	1287.29
387.11	1277.93
387.31	1167.93
387.50	1128.14
387.70	1291.98
387.89	1226.44
388.09	1200.69
388.28	1310.70
388.48	1317.72
388.67	1273.25
388.86	1355.17
389.06	1315.38
389.25	1352.83
389.45	1409.00
389.64	1371.55
389.84	1287.29
390.03	1467.52
390.22	1376.24
390.42	1334.11
390.61	1357.51
390.81	1355.17
391.00	1434.75
391.19	1437.09
391.39	1385.60
391.58	1509.65
391.78	1455.81
391.97	1399.64
392.16	1481.56
392.36	1558.80
392.55	1380.92
392.75	1509.65
392.94	1474.54
393.13	1528.37
393.33	1542.41
393.52	1577.52
393.71	1521.35
393.91	1533.05
394.10	1598.59
394.29	1605.61
394.49	1636.03
394.68	1699.23
394.88	1678.16
395.07	1764.76
395.26	1680.50
395.46	1694.55
395.65	1661.78
395.84	1764.76
396.04	1753.06
396.23	1722.63
396.42	1743.70
396.62	1781.15
396.81	1746.04
397.00	1820.94
397.19	1816.26
397.39	1802.21
397.58	1837.32
397.77	1785.83
397.97	1877.11
398.16	1853.70
398.35	1905.20
398.55	1856.04
398.74	1715.61
398.93	2024.56
399.12	1877.11
399.32	1891.15
399.51	1989.46
399.70	1968.39
399.90	1933.28
400.09	1987.11
400.28	2036.27
400.47	2080.74
400.67	2097.12
400.86	2090.10
401.05	2029.24
401.24	2057.33
401.44	2193.08
401.63	2153.29
401.82	2047.97
402.01	2136.91
402.21	2120.53
402.40	2113.50
402.59	2113.50
402.78	2242.23
402.97	2139.25
403.17	2356.92
403.36	2370.96
403.55	2148.61
403.74	2284.36
403.93	2399.05
404.13	2490.33
404.32	2314.79
404.51	2392.03
404.70	2438.84
404.89	2511.39
405.09	2469.27
405.28	2438.84
405.47	2408.41
405.66	2525.44
405.85	2455.22
406.05	2539.48
406.24	2593.31
406.43	2595.65
406.62	2628.42
406.81	2665.87
407.00	2558.21
407.20	2544.16
407.39	2684.59
407.58	2731.41
407.77	2710.34
407.96	2691.62
408.15	2637.78
408.34	2810.98
408.54	2827.37
408.73	2860.13
408.92	2850.77
409.11	2876.52
409.30	2871.84
409.49	3002.91
409.68	2890.56
409.87	2991.20
410.07	3089.51
410.26	3066.10
410.45	3028.65
410.64	3133.98
410.83	3162.06
411.02	3164.40
411.21	3141.00
411.40	3096.53
411.59	3232.28
411.78	3141.00
411.98	3080.14
412.17	3311.86
412.36	3281.43
412.55	3304.84
412.74	3480.38
412.93	3370.37
413.12	3368.03
413.31	3679.32
413.50	3471.01
413.69	3321.22
413.88	3606.77
414.07	3611.45
414.26	3698.05
414.45	3597.40
414.64	3735.50
414.83	3735.50
415.02	3840.82
415.22	3714.43
415.41	3948.48
415.60	3875.93
415.79	3789.33
415.98	3885.29
416.17	3992.95
416.36	3974.23
416.55	3899.33
416.74	4149.77
416.93	4035.08
417.12	4102.96
417.31	4131.05
417.50	4198.92
417.69	4311.27
417.88	4238.71
418.07	4161.47
418.26	4262.12
418.45	4365.10
418.64	4421.27
418.83	4540.64
419.02	4592.13
419.21	4596.81
419.39	4557.02
419.58	4308.93
419.77	4542.98
419.96	4631.92
420.15	4547.66
420.34	4510.21
420.53	4685.75
420.72	4760.65
420.91	4683.41
421.10	4730.22
421.29	4833.21
421.48	4624.90
421.67	4873.00
421.86	4744.27
422.05	4770.01
422.24	4636.60
422.43	4966.62
422.61	4987.68
422.80	4945.55
422.99	4997.04
423.18	4809.80
423.37	4924.49
423.56	4938.53
423.75	4863.63
423.94	4833.21
424.13	4784.06
424.32	4854.27
424.50	4816.82
424.69	5203.01
424.88	5011.09
425.07	5067.26
425.26	5118.75
425.45	4915.12
425.64	4908.10
425.83	4882.36
426.01	5018.11
426.20	4994.70
426.39	5006.41
426.58	4980.66
426.77	5008.75
426.96	5172.58
427.15	5132.79
427.33	5291.95
427.52	5142.16
427.71	5149.18
427.90	5210.03
428.09	5359.83
428.28	5350.46
428.46	5226.42
428.65	5249.82
428.84	5579.84
429.03	5493.24
429.22	5476.85
429.40	5408.98
429.59	5533.03
429.78	5310.68
429.97	5193.65
430.16	5666.44
430.34	5570.48
430.53	5717.93
430.72	5657.07
430.91	5692.18
431.10	5708.57
431.28	5809.21
431.47	5755.38
431.66	5921.56
431.85	5717.93
432.03	5914.53
432.22	5949.64
432.41	5942.62
432.60	6064.33
432.79	6043.26
432.97	5937.94
433.16	5914.53
433.35	5963.68
433.54	5989.43
433.72	6076.03
433.91	6190.72
434.10	6078.37
434.28	6050.28
434.47	6232.85
434.66	6296.04
434.85	6354.55
435.03	6436.47
435.22	6361.58
435.41	6532.44
435.59	6415.41
435.78	6349.87
435.97	6452.86
436.16	6464.56
436.34	6513.71
436.53	6413.07
436.72	6553.50
436.90	6546.48
437.09	6630.74
437.28	6370.94
437.46	6689.25
437.65	6752.45
437.84	6736.06
438.02	6864.79
438.21	6846.07
438.40	6712.66
438.58	6958.41
438.77	7070.76
438.96	6953.73
439.14	7140.97
439.33	7159.70
439.52	7131.61
439.70	7227.57
439.89	7171.40
440.08	7323.54
440.26	7496.74
440.45	7248.64
440.63	7653.55
440.82	7625.47
441.01	7590.36
441.19	7688.66
441.38	7651.21
441.57	7630.15
441.75	7770.58
441.94	7882.92
442.12	7761.22
442.31	8051.44
442.50	7981.23
442.68	8084.21
442.87	8011.65
443.05	7892.29
443.24	8304.22
443.43	8182.51
443.61	8266.77
443.80	8503.17
443.98	8138.04
444.17	8058.46
444.35	8184.85
444.54	8374.44
444.73	8269.11
444.91	8355.71
445.10	8395.50
445.28	8348.69
445.47	8386.14
445.65	8259.75
445.84	8599.13
446.02	8533.59
446.21	8493.80
446.39	8266.77
446.58	8411.89
446.77	8479.76
446.95	8542.96
447.14	8486.78
447.32	8671.68
447.51	8533.59
447.69	8564.02
447.88	8594.45
448.06	8737.22
448.25	8554.66
448.43	8753.60
448.62	8676.37
448.80	8622.53
448.99	8727.86
449.17	8938.51
449.36	8966.59
449.54	8992.34
449.73	8894.04
449.91	8851.91
450.10	8987.66
450.28	8746.58
450.46	8966.59
450.65	9029.79
450.83	8952.55
451.02	9139.79
451.20	9090.64
451.39	9270.86
451.57	9207.67
451.76	9151.49
451.94	9219.37
452.13	9525.98
452.31	9441.72
452.49	9320.01
452.68	9394.91
452.86	9329.38
453.05	9518.96
453.23	9399.59
453.42	9261.50
453.60	9476.83
453.78	9558.75
453.97	9341.08
454.15	9558.75
454.34	9490.87
454.52	9671.09
454.70	9717.90
454.89	9790.46
455.07	9865.36
455.26	9923.87
455.44	10008.13
455.62	9921.53
455.81	10190.69
455.99	9961.32
456.17	10118.14
456.36	10202.40
456.54	10221.12
456.73	10164.95
456.91	10368.57
457.09	10417.72
457.28	10494.96
457.46	10256.23
457.64	10452.83
457.83	10630.71
458.01	10289.00
458.19	10871.79
458.38	10523.05
458.56	10808.59
458.74	10759.44
458.93	10567.52
459.11	10916.26
459.29	10626.03
459.48	10754.76
459.66	10771.15
459.84	11084.78
460.03	11171.38
460.21	11208.83
460.39	10719.65
460.57	11068.39
460.76	11171.38
460.94	11339.90
461.12	11236.91
461.31	11119.89
461.49	11073.07
461.67	11145.63
461.85	11438.20
462.04	11393.73
462.22	11749.49
462.40	11606.72
462.59	11367.98
462.77	11379.68
462.95	11576.29
463.13	11522.46
463.32	11426.50
463.50	11707.36
463.68	11772.89
463.86	11798.64
464.05	11861.84
464.23	11796.30
464.41	12060.78
464.59	11662.89
464.78	12058.44
464.96	11969.50
465.14	12020.99
465.32	12135.68
465.50	11929.71
465.69	12053.76
465.87	12191.85
466.05	12011.63
466.23	12322.92
466.41	12278.45
466.60	12554.63
466.78	12030.35
466.96	12358.03
467.14	12322.92
467.32	12414.20
467.51	12409.52
467.69	11967.16
467.87	12468.03
468.05	12624.85
468.23	12283.13
468.41	12575.70
468.60	12746.56
468.78	12835.50
468.96	12753.58
469.14	12732.51
469.32	13081.25
469.50	12739.54
469.69	12844.86
469.87	13083.59
470.05	13219.35
470.23	13235.73
470.41	13156.15
470.59	13329.35
470.77	13128.06
470.95	13378.50
471.14	13722.56
471.32	13156.15
471.50	13642.98
471.68	13621.92
471.86	13834.91
472.04	13621.92
472.22	14071.30
472.40	13507.23
472.58	13752.99
472.77	14080.66
472.95	14232.80
473.13	14778.14
473.31	14029.17
473.49	14083.00
473.67	14071.30
473.85	14469.19
474.03	14775.80
474.21	14640.05
474.39	14820.27
474.57	14574.52
474.75	15002.83
474.93	14953.68
475.12	14782.82
475.30	15234.55
475.48	15166.67
475.66	15180.71
475.84	15080.07
476.02	15337.53
476.20	15337.53
476.38	16044.37
476.56	15962.45
476.74	15988.20
476.92	16444.60
477.10	15693.29
477.28	16187.14
477.46	16126.29
477.64	16336.94
477.82	16746.53
478.00	17151.45
478.18	16933.78
478.36	16987.61
478.54	17011.01
478.72	17397.20
478.90	17359.75
479.08	17818.50
479.26	17722.54
479.44	17855.95
479.62	18024.47
479.80	18078.30
479.98	18211.71
480.16	18384.91
480.34	18391.93
480.52	18534.70
480.70	18532.36
480.88	18518.32
481.06	18951.32
481.24	19122.18
481.41	19274.31
481.59	19236.86
481.77	19248.57
481.95	19822.00
482.13	19651.14
482.31	19545.81
482.49	20320.53
482.67	20563.95
482.85	20767.57
483.03	20552.24
483.21	20491.39
483.39	21027.37
483.57	21090.57
483.74	21209.93
483.92	21329.30
484.10	21200.57
484.28	21715.49
484.46	21743.58
484.64	22686.81
484.82	22022.10
485.00	22403.61
485.18	22698.52
485.35	23002.78
485.53	22834.27
485.71	23190.03
485.89	23318.76
486.07	23035.55
486.25	23398.34
486.43	23374.93
486.61	24130.92
486.78	24315.83
486.96	24510.09
487.14	24463.28
487.32	24444.56
487.50	24748.82
487.68	25153.74
487.85	25135.01
488.03	25462.69
488.21	25764.62
488.39	26047.82
488.57	26333.37
488.75	25891.01
488.92	26204.64
489.10	26604.87
489.28	26890.41
489.46	27082.34
489.64	27103.40
489.81	27426.40
489.99	27498.95
490.17	27901.53
490.35	28175.37
490.53	28416.44
490.70	28709.01
490.88	28680.92
491.06	28804.97
491.24	28641.14
491.41	29399.47
491.59	29509.47
491.77	29034.35
491.95	29764.59
492.13	29916.73
492.30	30216.32
492.48	30029.07
492.66	30232.70
492.84	30342.70
493.01	30754.64
493.19	30480.80
493.37	31161.89
493.54	31328.07
493.72	31435.74
493.90	31861.71
494.08	31744.69
494.25	32067.68
494.43	31658.09
494.61	32414.08
494.79	32559.19
494.96	32292.37
495.14	32947.72
495.32	33542.22
495.49	33462.64
495.67	33394.76
495.85	33429.87
496.02	34017.35
496.20	34164.80
496.38	34110.97
496.55	34176.50
496.73	34930.16
496.91	34852.92
497.09	34948.88
497.26	35037.82
497.44	34974.63
497.62	35297.62
497.79	35644.02
497.97	35271.87
498.14	36006.80
498.32	36318.09
498.50	36034.89
498.67	36715.98
498.85	36484.27
499.03	36840.03
499.20	37092.81
499.38	36825.99
499.56	37235.58
499.73	36996.85
499.91	37511.77
500.08	37237.92
500.26	37308.14
500.44	37598.37
500.61	37926.04
500.79	38087.54
500.97	38171.80
501.14	38831.83
501.32	38787.36
501.49	38799.06
501.67	38377.76
501.84	38916.09
502.02	38813.10
502.20	38937.15
502.37	39550.37
502.55	39007.37
502.72	39337.38
502.90	39328.02
503.07	39826.56
503.25	39927.20
503.43	39800.81
503.60	40254.87
503.78	40598.93
503.95	40594.25
504.13	40631.70
504.30	40495.95
504.48	40713.62
504.65	41134.92
504.83	40891.50
505.01	41251.94
505.18	41993.89
505.36	41759.84
505.53	41509.40
505.71	42230.29
505.88	42064.11
506.06	41579.62
506.23	41830.05
506.41	42092.19
506.58	42230.29
506.76	42223.26
506.93	42567.32
507.11	42660.94
507.28	42621.16
507.46	42696.05
507.63	42859.89
507.81	43079.90
507.98	42937.13
508.16	43391.19
508.33	43393.53
508.50	43634.61
508.68	43660.35
508.85	44505.29
509.03	44205.70
509.20	44051.22
509.38	44472.52
509.55	44528.69
509.73	44701.89
509.90	44631.68
510.08	44994.46
510.25	44680.83
510.42	44980.42
510.60	45151.27
510.77	45535.12
510.95	45642.79
511.12	45308.09
511.30	45148.93
511.47	45731.73
511.64	45720.02
511.82	45904.93
511.99	45720.02
512.17	45984.51
512.34	45769.18
512.51	46461.97
512.69	46527.51
512.86	46677.30
513.04	47009.66
513.21	46775.61
513.38	46890.29
513.56	47250.74
513.73	46791.99
513.90	47112.64
514.08	47063.49
514.25	47332.65
514.43	47346.70
514.60	47400.53
514.77	47278.82
514.95	47859.27
515.12	47522.24
515.29	47812.46
515.47	47679.05
515.64	48378.87
515.81	48271.21
515.99	48102.69
516.16	48715.91
516.33	48161.20
516.51	48519.31
516.68	48467.81
516.85	48406.96
517.03	48816.55
517.20	49191.04
517.37	49160.61
517.54	49008.48
517.72	49289.34
517.89	49052.95
518.06	49574.89
518.24	49418.07
518.41	49413.39
518.58	49483.61
518.75	49476.58
518.93	49404.03
519.10	49663.83
519.27	49724.68
519.45	49888.52
519.62	50033.63
519.79	50150.66
519.96	50396.42
520.14	50153.00
520.31	49907.24
520.48	50450.25
520.65	50443.23
520.83	50583.66
521.00	51023.68
521.17	50600.04
521.34	50759.20
521.52	50728.77
521.69	51011.98
521.86	51201.56
522.03	51456.68
522.20	51243.69
522.38	51234.33
522.55	51440.29
522.72	51723.50
522.89	51276.46
523.07	51800.74
523.24	51545.62
523.41	51812.44
523.58	51601.79
523.75	52147.14
523.92	51859.25
524.10	51957.55
524.27	52058.20
524.44	52200.97
524.61	52310.97
524.78	52238.42
524.96	52458.43
525.13	52458.43
525.30	52528.64
525.47	52769.72
525.64	52666.73
525.81	52601.20
525.98	52601.20
526.16	52935.90
526.33	52664.39
526.50	53118.46
526.67	52774.40
526.84	52694.82
527.01	53064.63
527.18	52926.53
527.36	53116.12
527.53	53165.27
527.70	53413.37
527.87	53521.03
528.04	53062.29
528.21	53322.08
528.38	53244.85
528.55	53729.34
528.72	53434.43
528.89	53656.78
529.07	53453.15
529.24	53853.39
529.41	53804.24
529.58	54106.16
529.75	54033.61
529.92	53769.13
530.09	53893.18
530.26	54028.93
530.43	54241.92
530.60	53652.10
530.77	53872.11
530.94	54061.69
531.11	53914.24
531.28	54206.81
531.46	54160.00
531.63	54115.53
531.80	54288.73
531.97	54567.25
532.14	54562.57
532.31	54534.48
532.48	54740.45
532.65	54712.36
532.82	54593.00
532.99	54815.35
533.16	54513.42
533.33	55042.38
533.50	55035.36
533.67	54944.08
533.84	54915.99
534.01	55103.23
534.18	54923.01
534.35	55435.59
534.52	54892.58
534.69	55206.22
534.86	55381.76
535.03	55150.04
535.20	55386.44
535.37	55421.55
535.54	55564.32
535.71	55234.30
535.88	55587.72
536.05	55430.91
536.22	55482.40
536.38	55702.41
536.55	55847.52
536.72	55480.06
536.89	55519.85
537.06	55737.52
537.23	55866.25
537.40	55777.31
537.57	55777.31
537.74	55861.57
537.91	55856.88
538.08	56182.22
538.25	55934.12
538.42	55987.95
538.59	56144.77
538.75	56060.51
538.92	56119.02
539.09	56259.46
539.26	56062.85
539.43	56044.13
539.60	56212.65
539.77	56519.26
539.94	56692.46
540.11	56563.73
540.28	56472.45
540.44	56411.59
540.61	56535.64
540.78	56657.35
540.95	56423.29
541.12	56535.64
541.29	56659.69
541.46	56423.29
541.62	56746.29
541.79	56837.57
541.96	56535.64
542.13	56685.43
542.30	56973.32
542.47	57219.08
542.63	56835.23
542.80	56954.60
542.97	57228.44
543.14	57478.88
543.31	57249.50
543.48	57160.56
543.64	57462.49
543.81	57350.15
543.98	57347.81
544.15	57666.12
544.32	57694.21
544.48	57518.67
544.65	57513.98
544.82	57497.60
544.99	57368.87
545.16	57455.47
545.32	57453.13
545.49	57996.13
545.66	57846.34
545.83	57696.55
546.00	57998.48
546.16	57808.89
546.33	57609.95
546.50	57553.77
546.67	57616.97
546.83	57523.35
547.00	57918.90
547.17	57939.96
547.34	57949.32
547.50	58096.78
547.67	58131.89
547.84	58071.03
548.00	58129.54
548.17	58323.81
548.34	58188.06
548.51	58103.80
548.67	58335.51
548.84	58398.71
549.01	58239.55
549.18	57965.71
549.34	58202.10
549.51	58471.26
549.68	58372.96
549.84	58461.90
550.01	58578.93
550.18	58525.10
550.34	58714.68
550.51	58461.90
550.68	58459.56
550.84	58454.88
551.01	58489.99
551.18	58686.59
551.34	58487.65
551.51	58712.34
551.68	58611.70
551.84	58747.45
552.01	58581.27
552.18	58766.17
552.34	58607.01
552.51	58829.37
552.68	58710.00
552.84	58754.47
553.01	58775.53
553.18	58801.28
553.34	59061.08
553.51	58712.34
553.67	58922.99
553.84	59054.06
554.01	58937.03
554.17	59119.59
554.34	59054.06
554.51	59143.00
554.67	59068.10
554.84	59072.78
555.00	59121.93
555.17	59100.87
555.33	59189.81
555.50	58871.49
555.67	58981.50
555.83	59285.77
556.00	59290.45
556.16	59489.40
556.33	59337.26
556.50	59295.13
556.66	59421.52
556.83	59381.73
556.99	59412.16
557.16	59430.88
557.32	59524.50
557.49	59592.38
557.65	59278.75
557.82	59355.99
557.98	59456.63
558.15	59458.97
558.32	59606.42
558.48	59678.98
558.65	59559.61
558.81	59508.12
558.98	59606.42
559.14	59634.51
559.31	59796.01
559.47	59494.08
559.64	59854.52
559.80	59901.33
559.97	59686.00
560.13	59742.17
560.30	59681.32
560.46	59779.62
560.63	59840.48
560.79	59814.73
560.96	59976.23
561.12	59859.20
561.29	59884.95
561.45	59929.42
561.61	59983.25
561.78	59915.37
561.94	59927.08
562.11	59980.91
562.27	59945.80
562.44	60053.47
562.60	60079.21
562.77	60165.81
562.93	59931.76
563.10	60114.32
563.26	59884.95
563.42	60193.90
563.59	60182.19
563.75	60107.30
563.92	60095.60
564.08	59994.95
564.24	60214.96
564.41	60463.06
564.57	60207.94
564.74	60432.63
564.90	60140.07
565.07	60226.66
565.23	60378.80
565.39	60198.58
565.56	60320.29
565.72	60306.24
565.88	60486.46
566.05	60315.61
566.21	60355.39
566.38	60397.52
566.54	60357.74
566.70	60456.04
566.87	60528.59
567.03	60292.20
567.19	60774.35
567.36	60528.59
567.52	60240.71
567.68	60629.24
567.85	60395.18
568.01	60540.30
568.17	60413.91
568.34	60495.83
568.50	60411.57
568.66	60397.52
568.83	60339.01
568.99	60441.99
569.15	60427.95
569.32	60552.00
569.48	60556.68
569.64	60601.15
569.81	60683.07
569.97	60484.12
570.13	60610.51
570.30	60477.10
570.46	60633.92
570.62	60608.17
570.78	60467.74
570.95	60566.04
571.11	60598.81
571.27	60706.47
571.43	60610.51
571.60	60580.09
571.76	60732.22
571.92	60612.85
572.09	60687.75
572.25	60610.51
572.41	60437.31
572.57	60683.07
572.74	60893.72
572.90	60804.78
573.06	60687.75
573.22	60647.96
573.38	60718.18
573.55	60624.56
573.71	61106.71
573.87	60725.20
574.03	60563.70
574.20	60769.67
574.36	60619.88
574.52	60832.86
574.68	60573.06
574.84	60968.61
575.01	60774.35
575.17	60764.99
575.33	60687.75
575.49	60715.84
575.65	60903.08
575.82	60882.02
575.98	60760.31
576.14	60837.54
576.30	61153.52
576.46	60877.33
576.62	60898.40
576.79	60865.63
576.95	60849.25
577.11	60973.30
577.27	61050.53
577.43	60802.44
577.59	60896.06
577.75	60662.00
577.92	60753.29
578.08	60685.41
578.24	60858.61
578.40	61130.11
578.56	60924.14
578.72	60835.20
578.88	60980.32
579.04	61024.79
579.21	60919.46
579.37	61155.86
579.53	61087.98
579.69	60573.06
579.85	60910.10
580.01	60907.76
580.17	60797.76
580.33	60874.99
580.49	61048.19
580.65	60966.27
580.82	60860.95
580.98	60793.07
581.14	60952.23
581.30	60994.36
581.46	61083.30
581.62	61001.38
581.78	60816.48
581.94	61123.09
582.10	61029.47
582.26	61080.96
582.42	60893.72
582.58	60966.27
582.74	60830.52
582.90	61038.83
583.06	60872.65
583.22	60921.80
583.38	60942.87
583.54	60940.53
583.70	61006.06
583.86	60980.32
584.02	60926.49
584.18	61092.66
584.34	61127.77
584.50	61270.54
584.66	60963.93
584.82	60722.86
584.98	61361.82
585.14	60940.53
585.30	60966.27
585.46	61179.26
585.62	61015.43
585.78	61080.96
585.94	60921.80
586.10	61125.43
586.26	61127.77
586.42	61148.84
586.58	60992.02
586.74	61109.05
586.90	61013.08
587.06	60942.87
587.22	61104.37
587.38	60992.02
587.54	61251.82
587.70	61380.55
587.86	61148.84
588.02	61029.47
588.18	61251.82
588.34	61102.03
