SpectraSuite Data File
++++++++++++++++++++++++++++++++++++
Date: Fri Oct 25 10:48:26 EDT 2013
User: price-jones
Dark Spectrum Present: No
Reference Spectrum Present: No
Number of Sampled Component Spectra: 1
Spectrometers: USB2+H05261
Integration Time (usec): 100000 (USB2+H05261)
Spectra Averaged: 1 (USB2+H05261)
Boxcar Smoothing: 0 (USB2+H05261)
Correct for Electrical Dark: No (USB2+H05261)
Strobe/Lamp Enabled: No (USB2+H05261)
Correct for Detector Non-linearity: No (USB2+H05261)
Correct for Stray Light: No (USB2+H05261)
Number of Pixels in Processed Spectrum: 2048
>>>>>Begin Processed Spectral Data<<<<<
365.73	105.32
365.92	105.32
366.12	105.32
366.32	72.56
366.52	11.70
366.72	44.47
366.91	51.49
367.11	14.04
367.31	60.85
367.51	67.88
367.70	0.00
367.90	100.64
368.10	18.72
368.30	0.00
368.49	44.47
368.69	30.43
368.89	46.81
369.09	140.43
369.28	79.58
369.48	70.22
369.68	102.98
369.87	145.11
370.07	107.66
370.27	112.35
370.47	161.50
370.66	402.57
370.86	360.44
371.06	447.04
371.25	496.19
371.45	503.22
371.65	566.41
371.84	458.74
372.04	533.64
372.24	540.66
372.44	503.22
372.63	512.58
372.83	491.51
373.03	507.90
373.22	470.45
373.42	592.16
373.62	543.00
373.81	608.54
374.01	613.22
374.21	608.54
374.40	512.58
374.60	629.60
374.79	552.37
374.99	606.20
375.19	585.13
375.38	599.18
375.58	578.11
375.78	648.33
375.97	653.01
376.17	676.41
376.37	620.24
376.56	669.39
376.76	573.43
376.95	589.82
377.15	575.77
377.35	641.31
377.54	664.71
377.74	592.16
377.93	681.10
378.13	645.99
378.33	606.20
378.52	704.50
378.72	704.50
378.91	653.01
379.11	662.37
379.31	648.33
379.50	753.65
379.70	674.07
379.89	674.07
380.09	641.31
380.28	653.01
380.48	657.69
380.68	641.31
380.87	678.76
381.07	695.14
381.26	751.31
381.46	669.39
381.65	741.95
381.85	723.23
382.04	784.08
382.24	807.48
382.43	699.82
382.63	650.67
382.83	772.38
383.02	760.67
383.22	723.23
383.41	709.18
383.61	772.38
383.80	676.41
384.00	812.17
384.19	793.44
384.39	805.14
384.58	725.57
384.78	772.38
384.97	772.38
385.17	835.57
385.36	837.91
385.56	851.96
385.75	828.55
385.95	868.34
386.14	849.61
386.34	840.25
386.53	784.08
386.72	809.83
386.92	887.06
387.11	821.53
387.31	889.40
387.50	833.23
387.70	936.21
387.89	828.55
388.09	875.36
388.28	924.51
388.48	877.70
388.67	898.77
388.86	933.87
389.06	919.83
389.25	1015.79
389.45	931.53
389.64	983.02
389.84	947.92
390.03	931.53
390.22	966.64
390.42	1025.15
390.61	933.87
390.81	858.98
391.00	976.00
391.19	1025.15
391.39	1086.01
391.58	1097.71
391.78	1015.79
391.97	1011.11
392.16	1001.75
392.36	1118.78
392.55	1001.75
392.75	1034.52
392.94	1011.11
393.13	1048.56
393.33	1069.62
393.52	1022.81
393.71	1151.54
393.91	1184.31
394.10	1071.97
394.29	1184.31
394.49	1128.14
394.68	1242.82
394.88	1191.33
395.07	1226.44
395.26	1263.89
395.46	1221.76
395.65	1203.04
395.84	1324.74
396.04	1240.48
396.23	1184.31
396.42	1144.52
396.62	1142.18
396.81	1284.95
397.00	1186.65
397.19	1291.98
397.39	1348.15
397.58	1455.81
397.77	1390.28
397.97	1453.47
398.16	1357.51
398.35	1448.79
398.55	1406.66
398.74	1439.43
398.93	1448.79
399.12	1369.21
399.32	1437.09
399.51	1472.20
399.70	1504.96
399.90	1486.24
400.09	1624.33
400.28	1603.27
400.47	1565.82
400.67	1547.09
400.86	1586.88
401.05	1621.99
401.24	1664.12
401.44	1572.84
401.63	1720.29
401.82	1636.03
402.01	1605.61
402.21	1664.12
402.40	1617.31
402.59	1748.38
402.78	1785.83
402.97	1668.80
403.17	1746.04
403.36	1640.72
403.55	1778.81
403.74	1921.58
403.93	1774.13
404.13	1849.02
404.32	1809.23
404.51	1837.32
404.70	1823.28
404.89	1928.60
405.09	1902.86
405.28	1956.69
405.47	1928.60
405.66	1947.33
405.85	1877.11
406.05	1900.52
406.24	1944.99
406.43	1846.68
406.62	2062.01
406.81	2038.61
407.00	2090.10
407.20	1956.69
407.39	2040.95
407.58	2167.34
407.77	2085.42
407.96	2169.68
408.15	2139.25
408.34	2132.23
408.54	2209.47
408.73	2155.63
408.92	2157.97
409.11	2181.38
409.30	2204.78
409.49	2251.60
409.68	2097.12
409.87	2118.18
410.07	2298.41
410.26	2340.54
410.45	2321.81
410.64	2382.67
410.83	2314.79
411.02	2338.20
411.21	2504.37
411.40	2490.33
411.59	2532.46
411.78	2406.07
411.98	2471.61
412.17	2548.84
412.36	2565.23
412.55	2595.65
412.74	2672.89
412.93	2663.53
413.12	2602.68
413.31	2764.17
413.50	2705.66
413.69	2750.13
413.88	2796.94
414.07	2829.71
414.26	2794.60
414.45	2803.96
414.64	2771.19
414.83	2888.22
415.02	2913.97
415.22	3002.91
415.41	2920.99
415.60	2981.84
415.79	3056.74
415.98	3199.51
416.17	3143.34
416.36	2984.18
416.55	3215.90
416.74	3251.00
416.93	3248.66
417.12	3190.15
417.31	3253.34
417.50	3204.19
417.69	3251.00
417.88	3253.34
418.07	3330.58
418.26	3253.34
418.45	3318.88
418.64	3449.95
418.83	3400.80
419.02	3417.18
419.21	3559.95
419.39	3550.59
419.58	3510.80
419.77	3445.27
419.96	3503.78
420.15	3562.30
420.34	3552.93
420.53	3618.47
420.72	3761.24
420.91	3548.25
421.10	3648.90
421.29	3749.54
421.48	3707.41
421.67	3728.47
421.86	3742.52
422.05	3630.17
422.24	3691.02
422.43	3737.84
422.61	3707.41
422.80	3723.79
422.99	3775.28
423.18	3756.56
423.37	3899.33
423.56	3719.11
423.75	3705.07
423.94	3768.26
424.13	3541.23
424.32	3719.11
424.50	3831.46
424.69	3873.59
424.88	3899.33
425.07	3812.73
425.26	3719.11
425.45	3758.90
425.64	3798.69
425.83	3751.88
426.01	3908.69
426.20	3868.91
426.39	3969.55
426.58	3953.16
426.77	3955.51
426.96	3824.44
427.15	3798.69
427.33	4004.66
427.52	3943.80
427.71	4007.00
427.90	3988.27
428.09	3999.98
428.28	4018.70
428.46	4168.49
428.65	4063.17
428.84	4175.52
429.03	4245.73
429.22	4051.47
429.40	3868.91
429.59	4025.72
429.78	3901.67
429.97	3878.27
430.16	4018.70
430.34	4025.72
430.53	4039.76
430.72	4105.30
430.91	4095.94
431.10	4161.47
431.28	4381.48
431.47	4444.68
431.66	4519.57
431.85	4418.93
432.03	4524.26
432.22	4517.23
432.41	4554.68
432.60	4491.49
432.79	4348.72
432.97	4683.41
433.16	4414.25
433.35	4423.61
433.54	4423.61
433.72	4599.15
433.91	4615.54
434.10	4564.04
434.28	4678.73
434.47	4685.75
434.66	4744.27
434.85	4868.31
435.03	4784.06
435.22	4777.03
435.41	4940.87
435.59	4936.19
435.78	4975.98
435.97	5048.54
436.16	4964.28
436.34	5060.24
436.53	4990.02
436.72	5018.11
436.90	4994.70
437.09	5158.54
437.28	5034.49
437.46	4931.51
437.65	4954.91
437.84	5090.67
438.02	4968.96
438.21	5060.24
438.40	4887.04
438.58	5317.70
438.77	5282.59
438.96	5188.97
439.14	5455.79
439.33	5334.08
439.52	5425.36
439.70	5509.62
439.89	5364.51
440.08	5418.34
440.26	5547.07
440.45	5495.58
440.63	5689.84
440.82	5874.74
441.01	5792.83
441.19	5654.73
441.38	5907.51
441.57	5912.19
441.75	5816.23
441.94	6010.50
442.12	6038.58
442.31	6134.54
442.50	6122.84
442.68	6141.57
442.87	6150.93
443.05	6134.54
443.24	6333.49
443.43	6176.67
443.61	6174.33
443.80	6274.98
443.98	6267.95
444.17	5928.58
444.35	6258.59
444.54	6459.88
444.73	6282.00
444.91	6289.02
445.10	6230.51
445.28	6436.47
445.47	6368.60
445.65	6087.73
445.84	6333.49
446.02	6406.05
446.21	6305.40
446.39	6246.89
446.58	6490.31
446.77	6305.40
446.95	6289.02
447.14	6436.47
447.32	6422.43
447.51	6553.50
447.69	6401.37
447.88	6640.10
448.06	6537.12
448.25	6399.02
448.43	6431.79
448.62	6462.22
448.80	6408.39
448.99	6668.19
449.17	6729.04
449.36	6579.25
449.54	6876.49
449.73	6871.81
449.91	6888.20
450.10	6850.75
450.28	7037.99
450.46	7070.76
450.65	6836.70
450.83	6822.66
451.02	6925.65
451.20	7162.04
451.39	6906.92
451.57	6846.07
451.76	6775.85
451.94	6956.07
452.13	7098.84
452.31	7042.67
452.49	6888.20
452.68	7035.65
452.86	6839.05
453.05	7103.53
453.23	7185.44
453.42	6935.01
453.60	6932.67
453.78	7260.34
453.97	6998.20
454.15	7091.82
454.34	7037.99
454.52	7218.21
454.70	7321.20
454.89	7290.77
455.07	7155.02
455.26	7449.93
455.44	7576.31
455.62	7492.05
455.81	7321.20
455.99	7396.09
456.17	7442.90
456.36	7667.60
456.54	7630.15
456.73	7784.62
456.91	7793.98
457.09	7833.77
457.28	7992.93
457.46	7761.22
457.64	8147.40
457.83	7857.18
458.01	7723.77
458.19	8032.72
458.38	7658.23
458.56	8030.38
458.74	8070.17
458.93	7906.33
459.11	7964.84
459.29	8063.15
459.48	8028.04
459.66	8154.43
459.84	8142.72
460.03	8013.99
460.21	8154.43
460.39	8374.44
460.57	8299.54
460.76	8329.97
460.94	8571.04
461.12	8472.74
461.31	8400.18
461.49	8276.13
461.67	8355.71
461.85	8362.73
462.04	8414.23
462.22	8929.14
462.40	8800.41
462.59	8706.79
462.77	8650.62
462.95	8809.78
463.13	8592.11
463.32	8688.07
463.50	8816.80
463.68	8784.03
463.86	8779.35
464.05	8774.67
464.23	8557.00
464.41	8786.37
464.59	8659.98
464.78	8985.32
464.96	8727.86
465.14	8837.86
465.32	8833.18
465.50	8929.14
465.69	9128.09
465.87	8985.32
466.05	8966.59
466.23	9015.74
466.41	8999.36
466.60	9193.62
466.78	8938.51
466.96	9053.19
467.14	8908.08
467.32	9172.56
467.51	9284.91
467.69	8870.63
467.87	8992.34
468.05	9179.58
468.23	9013.40
468.41	9132.77
468.60	9383.21
468.78	9549.39
468.96	9254.48
469.14	9462.79
469.32	9535.34
469.50	9305.97
469.69	9516.62
469.87	9612.58
470.05	9565.77
470.23	9401.93
470.41	9624.28
470.59	9390.23
470.77	9521.30
470.95	9802.16
471.14	9813.87
471.32	9537.68
471.50	9898.13
471.68	9928.55
471.86	9813.87
472.04	10115.80
472.22	10136.86
472.40	10101.75
472.58	9994.09
472.77	10076.01
472.95	10146.22
473.13	10480.92
473.31	10373.25
473.49	10300.70
473.67	10272.61
473.85	10579.22
474.03	10558.16
474.21	10747.74
474.39	10768.80
474.57	10895.19
474.75	10794.55
474.93	10857.75
475.12	10888.17
475.30	10850.72
475.48	10768.80
475.66	10958.39
475.84	11084.78
476.02	11047.33
476.20	11105.84
476.38	11274.36
476.56	11613.74
476.74	11506.07
476.92	11613.74
477.10	11660.55
477.28	11777.58
477.46	11826.73
477.64	11953.12
477.82	11960.14
478.00	12016.31
478.18	12091.21
478.36	12159.08
478.54	12477.40
478.72	12484.42
478.90	12369.73
479.08	12837.84
479.26	12975.93
479.44	12882.31
479.62	13001.68
479.80	12905.71
479.98	12980.61
480.16	13439.36
480.34	13256.79
480.52	13448.72
480.70	13479.15
480.88	13474.46
481.06	13675.75
481.24	13584.47
481.41	13713.20
481.59	14118.11
481.77	13745.97
481.95	14073.64
482.13	14148.54
482.31	13870.01
482.49	14300.67
482.67	14654.09
482.85	14565.15
483.03	14815.59
483.21	14855.38
483.39	14867.08
483.57	14630.69
483.74	15070.71
483.92	15307.10
484.10	15400.72
484.28	15522.43
484.46	15517.75
484.64	16121.61
484.82	15651.16
485.00	15704.99
485.18	16032.67
485.35	16039.69
485.53	15896.92
485.71	15807.98
485.89	16135.65
486.07	16191.83
486.25	16212.89
486.43	16627.17
486.61	16685.68
486.78	16919.73
486.96	17078.89
487.14	17256.77
487.32	17415.93
487.50	17764.67
487.68	17561.04
487.85	18122.77
488.03	17949.57
488.21	18223.41
488.39	18057.23
488.57	18302.99
488.75	18525.34
488.92	18698.54
489.10	18583.85
489.28	18785.14
489.46	19023.87
489.64	19463.90
489.81	19527.09
489.99	19709.65
490.17	19765.82
490.35	19840.72
490.53	19814.98
490.70	20067.75
490.88	20114.56
491.06	20613.10
491.24	20196.48
491.41	20411.81
491.59	20655.23
491.77	20292.44
491.95	20446.92
492.13	21254.40
492.30	21153.76
492.48	21369.09
492.66	21443.99
492.84	21631.23
493.01	21633.57
493.19	21598.46
493.37	21855.92
493.54	21879.33
493.72	22197.64
493.90	22111.04
494.08	22450.42
494.25	22405.95
494.43	22239.77
494.61	22525.32
494.79	22445.74
494.96	22707.88
495.14	22750.01
495.32	23253.22
495.49	23241.52
495.67	23452.17
495.85	23498.98
496.02	23852.40
496.20	23737.71
496.38	23955.38
496.55	23983.47
496.73	24800.32
496.91	24243.27
497.09	24144.97
497.26	24498.39
497.44	24187.10
497.62	24807.34
497.79	24903.30
497.97	24608.39
498.14	25046.07
498.32	24793.29
498.50	25366.73
498.67	25369.07
498.85	25233.32
499.03	25626.53
499.20	25738.87
499.38	25921.43
499.56	25298.85
499.73	25788.02
499.91	25809.09
500.08	26167.19
500.26	25675.68
500.44	26066.55
500.61	26324.01
500.79	25879.30
500.97	26609.55
501.14	26586.15
501.32	27058.93
501.49	26630.62
501.67	26551.04
501.84	26862.33
502.02	26859.99
502.20	27346.82
502.37	27117.45
502.55	27119.79
502.72	27571.51
502.90	27438.10
503.07	27190.00
503.25	27489.59
503.43	27454.48
503.60	27679.18
503.78	27885.14
503.95	28091.11
504.13	28060.68
504.30	28367.29
504.48	28266.65
504.65	28507.72
504.83	28449.21
505.01	28711.35
505.18	28371.97
505.36	28641.14
505.53	28641.14
505.71	29198.18
505.88	29282.44
506.06	28851.78
506.23	29097.54
506.41	29076.48
506.58	29366.70
506.76	29273.08
506.93	29663.95
507.11	29490.75
507.28	29567.99
507.46	29523.52
507.63	29869.92
507.81	29745.87
507.98	29465.00
508.16	29909.71
508.33	30045.46
508.50	29970.56
508.68	29989.28
508.85	30525.27
509.03	30433.99
509.20	30305.26
509.38	30623.57
509.55	30778.04
509.73	31009.76
509.90	30431.65
510.08	30614.21
510.25	30817.83
510.42	31482.55
510.60	31040.18
510.77	31417.01
510.95	31314.03
511.12	31419.35
511.30	31608.93
511.47	31819.58
511.64	31557.44
511.82	31957.67
511.99	31496.59
512.17	31880.44
512.34	31625.32
512.51	32074.70
512.69	32212.79
512.86	32458.55
513.04	32400.04
513.21	32107.47
513.38	32584.94
513.56	32264.28
513.73	32135.56
513.90	32652.81
514.08	32472.59
514.25	32833.04
514.43	32737.07
514.60	32678.56
514.77	32917.29
514.95	33069.43
515.12	32875.16
515.29	32910.27
515.47	33464.98
515.64	33635.84
515.81	33525.83
515.99	33303.48
516.16	33347.95
516.33	33226.24
516.51	33329.23
516.68	32549.83
516.85	33333.91
517.03	33514.13
517.20	33675.63
517.37	34103.95
517.54	33757.55
517.72	33787.97
517.89	33347.95
518.06	33797.34
518.24	33750.52
518.41	33895.64
518.58	33790.31
518.75	33736.48
518.93	34646.95
519.10	34600.14
519.27	34492.47
519.45	34951.22
519.62	34457.37
519.79	35000.37
519.96	34934.84
520.14	34822.49
520.31	34696.10
520.48	35304.64
520.65	34920.79
520.83	35395.92
521.00	35178.25
521.17	35386.56
521.34	35522.31
521.52	35885.09
521.69	35716.58
521.86	35618.27
522.03	35981.06
522.20	35761.05
522.38	36423.42
522.55	35665.08
522.72	35936.59
522.89	36140.21
523.07	36371.92
523.24	35456.78
523.41	36250.22
523.58	36027.87
523.75	36400.01
523.92	36772.16
524.10	37172.39
524.27	36540.44
524.44	36917.27
524.61	37076.43
524.78	36811.95
524.96	37060.04
525.13	37132.60
525.30	37769.22
525.47	37462.61
525.64	37069.40
525.81	37095.15
525.98	37228.56
526.16	36849.39
526.33	37223.88
526.50	37336.23
526.67	37500.06
526.84	37085.79
527.01	37123.24
527.18	37275.37
527.36	37963.49
527.53	37675.60
527.70	38223.29
527.87	38382.45
528.04	38052.43
528.21	38447.98
528.38	37977.53
528.55	38377.76
528.72	38220.95
528.89	38508.83
529.07	38139.03
529.24	38288.82
529.41	38632.88
529.58	38162.43
529.75	38436.28
529.92	38455.00
530.09	38937.15
530.26	38761.61
530.43	38665.65
530.60	38635.22
530.77	38691.40
530.94	39068.22
531.11	39086.95
531.28	39295.25
531.46	39056.52
531.63	39236.74
531.80	39061.20
531.97	38822.47
532.14	38665.65
532.31	38967.58
532.48	38637.56
532.65	39372.49
532.82	39503.56
532.99	39828.90
533.16	39309.30
533.33	39103.33
533.50	39681.44
533.67	39583.14
533.84	39239.08
534.01	39168.87
534.18	40175.30
534.35	39885.07
534.52	39784.43
534.69	40287.64
534.86	40114.44
535.03	39992.73
535.20	40458.50
535.37	40514.67
535.54	40060.61
535.71	40353.18
535.88	40191.68
536.05	40334.45
536.22	40502.97
536.38	40470.20
536.55	40381.26
536.72	40388.28
536.89	40247.85
537.06	40069.97
537.23	40744.05
537.40	40402.33
537.57	40762.77
537.74	40517.01
537.91	41041.29
538.08	40898.52
538.25	40584.89
538.42	40685.53
538.59	41092.79
538.75	40804.90
538.92	41099.81
539.09	40935.97
539.26	40875.12
539.43	41486.00
539.60	40952.35
539.77	40694.89
539.94	40999.16
540.11	40776.81
540.28	41083.42
540.44	40938.31
540.61	40769.79
540.78	41104.49
540.95	41301.09
541.12	41029.59
541.29	41375.99
541.46	41518.76
541.62	41783.24
541.79	41911.97
541.96	41146.62
542.13	41776.22
542.30	41708.35
542.47	41794.95
542.63	41865.16
542.80	41860.48
542.97	42073.47
543.14	42330.93
543.31	42300.50
543.48	42553.28
543.64	42953.51
543.81	42429.23
543.98	42806.06
544.15	42410.51
544.32	42548.60
544.48	42836.48
544.65	42653.92
544.82	42600.09
544.99	42440.93
545.16	42520.51
545.32	42415.19
545.49	42752.23
545.66	42979.26
545.83	42707.76
546.00	42775.63
546.16	42824.78
546.33	42749.88
546.50	42717.12
546.67	43220.33
546.83	42660.94
547.00	42784.99
547.17	42895.00
547.34	42927.77
547.50	43601.84
547.67	43257.78
547.84	42822.44
548.00	43592.48
548.17	43791.42
548.34	43412.26
548.51	44172.93
548.67	43239.06
548.84	43365.45
549.01	43316.29
549.18	43512.90
549.34	43995.05
549.51	43749.29
549.68	43894.41
549.84	43519.92
550.01	44004.41
550.18	43662.69
550.34	43716.53
550.51	43419.28
550.68	43276.51
550.84	43222.67
551.01	43585.46
551.18	43555.03
551.34	43966.96
551.51	43913.13
551.68	43903.77
551.84	43964.62
552.01	43655.67
552.18	43906.11
552.34	43662.69
552.51	44114.42
552.68	43662.69
552.84	44011.43
553.01	44629.34
553.18	43908.45
553.34	43562.05
553.51	43894.41
553.67	44233.78
553.84	44563.80
554.01	44376.56
554.17	44711.25
554.34	44556.78
554.51	44718.28
554.67	44664.44
554.84	44634.02
555.00	44512.31
555.17	44437.41
555.33	44381.24
555.50	44409.32
555.67	44313.36
555.83	44617.63
556.00	45048.29
556.16	45057.65
556.33	44748.70
556.50	44821.26
556.66	44561.46
556.83	44430.39
556.99	44783.81
557.16	45092.76
557.32	44938.29
557.49	45120.85
557.65	44608.27
557.82	44690.19
557.98	44779.13
558.15	44566.14
558.32	44961.69
558.48	44790.83
558.65	44893.82
558.81	44753.38
558.98	45099.78
559.14	45057.65
559.31	45001.48
559.47	44884.45
559.64	45041.27
559.80	45392.35
559.97	45172.34
560.13	44772.11
560.30	44891.48
560.46	45394.69
560.63	44933.60
560.79	45382.99
560.96	45509.38
561.12	45387.67
561.29	45471.93
561.45	45427.46
561.61	45343.20
561.78	45230.85
561.94	44868.07
562.11	45209.79
562.27	45382.99
562.44	45280.00
562.60	45579.59
562.77	46143.66
562.93	45588.95
563.10	45392.35
563.26	45558.53
563.42	45771.52
563.59	45296.39
563.75	45404.05
563.92	45607.68
564.08	45645.13
564.24	45776.20
564.41	45715.34
564.57	45450.86
564.74	45226.17
564.90	45500.01
565.07	45792.58
565.23	45705.98
565.39	45450.86
565.56	45811.31
565.72	45027.23
565.88	45593.64
566.05	45581.93
566.21	45668.53
566.38	45652.15
566.54	45591.30
566.70	45947.06
566.87	46045.36
567.03	46012.59
567.19	46089.83
567.36	45808.96
567.52	45600.66
567.68	46211.54
567.85	45677.90
568.01	45970.46
568.17	45879.18
568.34	45794.92
568.50	45773.86
568.66	45649.81
568.83	45790.24
568.99	45460.23
569.15	45429.80
569.32	45469.59
569.48	45865.14
569.64	45858.12
569.81	45572.57
569.97	45682.58
570.13	45813.65
570.30	45724.71
570.46	45635.77
570.62	45319.79
570.78	45748.11
570.95	45769.18
571.11	45954.08
571.27	45511.72
571.43	45698.96
571.60	46192.81
571.76	46167.07
571.92	45996.21
572.09	45928.33
572.25	45823.01
572.41	45933.01
572.57	45808.96
572.74	45989.19
572.90	45958.76
573.06	46000.89
573.22	45881.52
573.38	45773.86
573.55	45947.06
573.71	45900.25
573.87	45897.91
574.03	45743.43
574.20	46003.23
574.36	45893.22
574.52	46087.49
574.68	46183.45
574.84	46302.82
575.01	46115.58
575.17	46206.86
575.33	46202.18
575.49	46057.06
575.65	46410.48
575.82	45888.54
575.98	46319.20
576.14	46319.20
576.30	46253.67
576.46	45830.03
576.62	46148.34
576.79	46103.87
576.95	45659.17
577.11	46087.49
577.27	46113.23
577.43	46096.85
577.59	45972.80
577.75	46024.29
577.92	46150.68
578.08	45619.38
578.24	45947.06
578.40	45979.82
578.56	46129.62
578.72	46000.89
578.88	46382.40
579.04	46209.20
579.21	46017.27
579.37	46160.05
579.53	45890.88
579.69	46050.04
579.85	46153.02
580.01	46181.11
580.17	45827.69
580.33	46525.17
580.49	46223.24
580.65	46370.69
580.82	46497.08
580.98	46471.34
581.14	45806.62
581.30	45904.93
581.46	46417.50
581.62	46607.09
581.78	45879.18
581.94	46857.52
582.10	46052.38
582.26	46784.97
582.42	46281.75
582.58	46202.18
582.74	46267.71
582.90	46246.65
583.06	46124.94
583.22	46487.72
583.38	46340.27
583.54	46277.07
583.70	46050.04
583.86	46010.25
584.02	46099.19
584.18	45961.10
584.34	46492.40
584.50	46501.76
584.66	46483.04
584.82	46103.87
584.98	46101.53
585.14	46358.99
585.30	45911.95
585.46	46213.88
585.62	45902.59
585.78	45890.88
585.94	45858.12
586.10	46270.05
586.26	45780.88
586.42	46258.35
586.58	46564.96
586.74	46485.38
586.90	46389.42
587.06	45991.53
587.22	46457.29
587.38	46206.86
587.54	46642.20
587.70	46218.56
587.86	45914.29
588.02	46490.06
588.18	46600.07
588.34	45766.84
588.49	45942.38
588.65	45888.54
588.81	46021.95
588.97	46024.29
589.13	46082.81
589.29	45617.04
589.45	45907.27
589.61	46138.98
589.77	46604.75
589.93	46171.75
