SpectraSuite Data File
++++++++++++++++++++++++++++++++++++
Date: Fri Oct 25 11:23:44 EDT 2013
User: price-jones
Dark Spectrum Present: No
Reference Spectrum Present: No
Number of Sampled Component Spectra: 1
Spectrometers: USB2+H05261
Integration Time (usec): 100000 (USB2+H05261)
Spectra Averaged: 1 (USB2+H05261)
Boxcar Smoothing: 0 (USB2+H05261)
Correct for Electrical Dark: No (USB2+H05261)
Strobe/Lamp Enabled: No (USB2+H05261)
Correct for Detector Non-linearity: No (USB2+H05261)
Correct for Stray Light: No (USB2+H05261)
Number of Pixels in Processed Spectrum: 2048
>>>>>Begin Processed Spectral Data<<<<<
365.73	266.82
365.92	266.82
366.12	266.82
366.32	107.66
366.52	159.16
366.72	208.31
366.91	159.16
367.11	135.75
367.31	147.45
367.51	145.11
367.70	163.84
367.90	128.73
368.10	154.48
368.30	102.98
368.49	159.16
368.69	191.92
368.89	124.05
369.09	105.32
369.28	145.11
369.48	105.32
369.68	215.33
369.87	222.35
370.07	191.92
370.27	203.63
370.47	315.97
370.66	608.54
370.86	620.24
371.06	636.63
371.25	699.82
371.45	650.67
371.65	730.25
371.84	653.01
372.04	669.39
372.24	676.41
372.44	678.76
372.63	739.61
372.83	755.99
373.03	711.52
373.22	830.89
373.42	795.78
373.62	802.80
373.81	802.80
374.01	718.54
374.21	844.93
374.40	770.04
374.60	798.12
374.79	791.10
374.99	868.34
375.19	819.19
375.38	873.02
375.58	842.59
375.78	973.66
375.97	873.02
376.17	933.87
376.37	950.26
376.56	908.13
376.76	882.38
376.95	835.57
377.15	851.96
377.35	856.64
377.54	828.55
377.74	882.38
377.93	945.58
378.13	959.62
378.33	954.94
378.52	915.15
378.72	936.21
378.91	821.53
379.11	922.17
379.31	847.27
379.50	896.43
379.70	994.73
379.89	1020.47
380.09	999.41
380.28	940.90
380.48	950.26
380.68	976.00
380.87	952.60
381.07	1020.47
381.26	1025.15
381.46	985.37
381.65	1046.22
381.85	1130.48
382.04	1104.73
382.24	1048.56
382.43	1132.82
382.63	1022.81
382.83	1104.73
383.02	1128.14
383.22	1118.78
383.41	1109.41
383.61	1163.25
383.80	1137.50
384.00	1170.27
384.19	1245.16
384.39	1128.14
384.58	1053.24
384.78	1163.25
384.97	1149.20
385.17	1149.20
385.36	1107.07
385.56	1151.54
385.75	1104.73
385.95	1179.63
386.14	1151.54
386.34	1170.27
386.53	1226.44
386.72	1198.35
386.92	1196.01
387.11	1240.48
387.31	1240.48
387.50	1198.35
387.70	1275.59
387.89	1308.36
388.09	1280.27
388.28	1114.10
388.48	1254.53
388.67	1287.29
388.86	1259.21
389.06	1226.44
389.25	1317.72
389.45	1427.73
389.64	1329.42
389.84	1392.62
390.03	1378.58
390.22	1406.66
390.42	1401.98
390.61	1432.41
390.81	1289.64
391.00	1467.52
391.19	1399.64
391.39	1448.79
391.58	1502.62
391.78	1523.69
391.97	1537.73
392.16	1526.03
392.36	1526.03
392.55	1476.88
392.75	1528.37
392.94	1542.41
393.13	1458.15
393.33	1535.39
393.52	1537.73
393.71	1568.16
393.91	1554.12
394.10	1577.52
394.29	1664.12
394.49	1598.59
394.68	1661.78
394.88	1584.54
395.07	1598.59
395.26	1727.32
395.46	1699.23
395.65	1636.03
395.84	1717.95
396.04	1909.88
396.23	1806.89
396.42	1722.63
396.62	1795.19
396.81	1769.44
397.00	1849.02
397.19	1820.94
397.39	1879.45
397.58	1923.92
397.77	1837.32
397.97	1907.54
398.16	1879.45
398.35	1907.54
398.55	1816.26
398.74	1919.24
398.93	1944.99
399.12	1947.33
399.32	1891.15
399.51	1942.64
399.70	1977.75
399.90	1961.37
400.09	2064.35
400.28	2022.22
400.47	2057.33
400.67	2127.55
400.86	2181.38
401.05	2078.40
401.24	2036.27
401.44	2083.08
401.63	2211.81
401.82	2125.21
402.01	2132.23
402.21	2148.61
402.40	2155.63
402.59	2132.23
402.78	2165.00
402.97	2239.89
403.17	2246.91
403.36	2087.76
403.55	2410.75
403.74	2415.43
403.93	2340.54
404.13	2368.62
404.32	2380.32
404.51	2417.77
404.70	2413.09
404.89	2326.49
405.09	2434.16
405.28	2518.42
405.47	2572.25
405.66	2478.63
405.85	2466.92
406.05	2576.93
406.24	2572.25
406.43	2689.28
406.62	2633.10
406.81	2689.28
407.00	2576.93
407.20	2555.86
407.39	2640.12
407.58	2703.32
407.77	2712.68
407.96	2780.56
408.15	2993.55
408.34	2752.47
408.54	2801.62
408.73	2825.03
408.92	2820.35
409.11	2902.26
409.30	2944.39
409.49	2979.50
409.68	2885.88
409.87	3040.36
410.07	2958.44
410.26	2899.92
410.45	3026.31
410.64	3009.93
410.83	3075.46
411.02	3204.19
411.21	3115.25
411.40	3227.60
411.59	3194.83
411.78	3150.36
411.98	3225.26
412.17	3276.75
412.36	3361.01
412.55	3365.69
412.74	3351.65
412.93	3365.69
413.12	3417.18
413.31	3478.04
413.50	3375.05
413.69	3620.81
413.88	3693.37
414.07	3613.79
414.26	3763.58
414.45	3742.52
414.64	3714.43
414.83	3726.13
415.02	3868.91
415.22	3908.69
415.41	3845.50
415.60	4021.04
415.79	4014.02
415.98	3988.27
416.17	4009.34
416.36	3969.55
416.55	3978.91
416.74	4086.58
416.93	4100.62
417.12	4142.75
417.31	4217.65
417.50	4217.65
417.69	4304.25
417.88	4273.82
418.07	4381.48
418.26	4269.14
418.45	4397.87
418.64	4400.21
418.83	4580.43
419.02	4477.44
419.21	4514.89
419.39	4606.17
419.58	4442.34
419.77	4390.84
419.96	4538.30
420.15	4475.10
420.34	4535.96
420.53	4559.36
420.72	4835.55
420.91	4751.29
421.10	4898.74
421.29	4854.27
421.48	4690.43
421.67	4919.81
421.86	4704.48
422.05	4779.37
422.24	4833.21
422.43	4868.31
422.61	4844.91
422.80	5088.32
422.99	4983.00
423.18	4940.87
423.37	5114.07
423.56	4999.38
423.75	4966.62
423.94	4755.97
424.13	4578.09
424.32	4849.59
424.50	5020.45
424.69	4994.70
424.88	5181.95
425.07	5043.85
425.26	5022.79
425.45	5039.17
425.64	5064.92
425.83	4903.42
426.01	5139.82
426.20	4985.34
426.39	5097.69
426.58	5057.90
426.77	4997.04
426.96	5146.84
427.15	5160.88
427.33	5195.99
427.52	5242.80
427.71	5282.59
427.90	5277.91
428.09	5305.99
428.28	5371.53
428.46	5254.50
428.65	5364.51
428.84	5509.62
429.03	5565.79
429.22	5397.28
429.40	5551.75
429.59	5479.19
429.78	5198.33
429.97	5280.25
430.16	5558.77
430.34	5664.10
430.53	5729.63
430.72	5659.42
430.91	5481.53
431.10	5603.24
431.28	5664.10
431.47	5820.91
431.66	5930.92
431.85	5921.56
432.03	5856.02
432.22	5982.41
432.41	5888.79
432.60	6108.80
432.79	5987.09
432.97	6005.81
433.16	6066.67
433.35	5902.83
433.54	6146.25
433.72	6120.50
433.91	6211.78
434.10	6216.46
434.28	6244.55
434.47	6307.74
434.66	6347.53
434.85	6403.71
435.03	6361.58
435.22	6314.77
435.41	6504.35
435.59	6441.15
435.78	6452.86
435.97	6450.52
436.16	6464.56
436.34	6438.81
436.53	6607.33
436.72	6871.81
436.90	6614.35
437.09	6612.01
437.28	6499.67
437.46	6604.99
437.65	6789.89
437.84	6799.26
438.02	6548.82
438.21	6736.06
438.40	6782.87
438.58	6991.18
438.77	7054.37
438.96	6843.73
439.14	7030.97
439.33	7155.02
439.52	7328.22
439.70	7084.80
439.89	7360.98
440.08	7358.64
440.26	7311.83
440.45	7466.31
440.63	7463.97
440.82	7620.78
441.01	7569.29
441.19	7737.81
441.38	7758.88
441.57	7688.66
441.75	7763.56
441.94	8009.31
442.12	8142.72
442.31	8011.65
442.50	8091.23
442.68	7967.18
442.87	8053.78
443.05	8156.77
443.24	8191.88
443.43	7967.18
443.61	8208.26
443.80	8489.12
443.98	8184.85
444.17	7906.33
444.35	8294.86
444.54	8407.20
444.73	8442.31
444.91	8203.58
445.10	8386.14
445.28	8353.37
445.47	8285.50
445.65	8346.35
445.84	8365.07
446.02	8512.53
446.21	8339.33
446.39	8468.06
446.58	8341.67
446.77	8566.36
446.95	8388.48
447.14	8484.44
447.32	8730.20
447.51	8587.43
447.69	8589.77
447.88	8444.65
448.06	8662.32
448.25	8688.07
448.43	8683.39
448.62	8697.43
448.80	8519.55
448.99	8573.38
449.17	8753.60
449.36	8812.12
449.54	8753.60
449.73	8999.36
449.91	8936.17
450.10	8823.82
450.28	9174.90
450.46	8964.25
450.65	9263.84
450.83	8997.02
451.02	9050.85
451.20	9158.52
451.39	9324.69
451.57	9425.34
451.76	9095.32
451.94	9214.69
452.13	9624.28
452.31	9348.10
452.49	9387.89
452.68	9448.74
452.86	9294.27
453.05	9432.36
453.23	9434.70
453.42	9334.06
453.60	9451.08
453.78	9549.39
453.97	9654.71
454.15	9376.19
454.34	9406.61
454.52	9731.95
454.70	9900.47
454.89	9694.50
455.07	9867.70
455.26	10076.01
455.44	10106.43
455.62	10090.05
455.81	9956.64
455.99	10045.58
456.17	9987.07
456.36	10169.63
456.54	10008.13
456.73	10312.40
456.91	10623.69
457.09	10523.05
457.28	10677.52
457.46	10438.79
457.64	10534.75
457.83	10359.21
458.01	10335.81
458.19	10752.42
458.38	10696.25
458.56	10729.02
458.74	10967.75
458.93	10621.35
459.11	10857.75
459.29	10862.43
459.48	10747.74
459.66	10551.14
459.84	11091.80
460.03	11389.05
460.21	11131.59
460.39	11194.78
460.57	11066.05
460.76	11255.64
460.94	11272.02
461.12	11321.17
461.31	11140.95
461.49	11166.70
461.67	11201.80
461.85	11674.59
462.04	11398.41
462.22	11562.25
462.40	11908.65
462.59	11431.18
462.77	11475.65
462.95	11756.51
463.13	11822.05
463.32	11405.43
463.50	11875.88
463.68	11763.53
463.86	12009.29
464.05	11822.05
464.23	11758.85
464.41	11873.54
464.59	11833.75
464.78	12189.51
464.96	12233.98
465.14	12147.38
465.32	12233.98
465.50	12009.29
465.69	12217.60
465.87	11957.80
466.05	11948.43
466.23	12166.10
466.41	12292.49
466.60	12585.06
466.78	12362.71
466.96	12135.68
467.14	12156.74
467.32	12514.84
467.51	12666.98
467.69	12531.23
467.87	12505.48
468.05	12657.62
468.23	12566.34
468.41	12540.59
468.60	12486.76
468.78	12798.05
468.96	12751.24
469.14	12767.62
469.32	12980.61
469.50	12594.42
469.69	13013.38
469.87	13184.24
470.05	13104.66
470.23	13362.12
470.41	13497.87
470.59	13329.35
470.77	13217.01
470.95	13149.13
471.14	13607.87
471.32	13228.71
471.50	13837.25
471.68	13504.89
471.86	13923.85
472.04	13577.45
472.22	14221.10
472.40	13811.50
472.58	13895.76
472.77	13942.57
472.95	14122.79
473.13	14892.83
473.31	14345.14
473.49	14038.53
473.67	14319.40
473.85	14305.35
474.03	14633.03
474.21	14593.24
474.39	14846.02
474.57	14909.21
474.75	15023.90
474.93	15288.38
475.12	14951.34
475.30	15272.00
475.48	14991.13
475.66	15262.63
475.84	15110.50
476.02	15730.74
476.20	15185.40
476.38	15894.58
476.56	16058.42
476.74	16086.50
476.92	15974.16
477.10	15892.24
477.28	16161.40
477.46	16482.05
477.64	16505.46
477.82	16851.86
478.00	16926.75
478.18	16854.20
478.36	17099.95
478.54	17125.70
478.72	16868.24
478.90	17525.93
479.08	17680.41
479.26	17736.58
479.44	18153.20
479.62	17790.41
479.80	18272.56
479.98	18162.56
480.16	18892.80
480.34	18436.40
480.52	18457.46
480.70	18824.93
480.88	18768.76
481.06	18939.62
481.24	18881.10
481.41	19407.72
481.59	19590.28
481.77	19503.68
481.95	19770.51
482.13	19740.08
482.31	19840.72
482.49	20556.93
482.67	20528.84
482.85	20446.92
483.03	20779.28
483.21	20779.28
483.39	21139.72
483.57	21029.71
483.74	21383.13
483.92	21418.24
484.10	21280.15
484.28	21933.16
484.46	22473.82
484.64	22696.17
484.82	22302.96
485.00	22136.79
485.18	22600.21
485.35	23269.61
485.53	23019.17
485.71	23239.18
485.89	23417.06
486.07	23557.49
486.25	23388.97
486.43	23784.52
486.61	23690.90
486.78	24020.92
486.96	24261.99
487.14	24570.94
487.32	24882.24
487.50	25020.33
487.68	25076.50
487.85	25340.98
488.03	25572.69
488.21	26148.46
488.39	26370.82
488.57	26476.14
488.75	26422.31
488.92	26548.70
489.10	26995.74
489.28	27225.11
489.46	27569.17
489.64	27297.67
489.81	28070.04
489.99	27742.37
490.17	28238.56
490.35	28439.85
490.53	28318.14
490.70	28430.49
490.88	28278.35
491.06	28952.43
491.24	29099.88
491.41	29228.61
491.59	29769.27
491.77	29628.84
491.95	29680.33
492.13	29968.22
492.30	30160.14
492.48	30143.76
492.66	30354.41
492.84	30223.34
493.01	30792.09
493.19	30651.66
493.37	31152.53
493.54	31435.74
493.72	31571.49
493.90	31402.97
494.08	32203.43
494.25	32580.26
494.43	32294.71
494.61	32615.37
494.79	32746.44
494.96	32491.32
495.14	33036.66
495.32	33408.81
495.49	32985.17
495.67	33357.32
495.85	34148.42
496.02	33661.58
496.20	34197.57
496.38	34045.43
496.55	34316.93
496.73	35084.63
496.91	34848.24
497.09	34848.24
497.26	35044.84
497.44	35103.35
497.62	35168.89
497.79	35899.14
497.97	35707.21
498.14	36306.39
498.32	36128.51
498.50	36634.06
498.67	36877.48
498.85	36540.44
499.03	36987.49
499.20	36961.74
499.38	37081.11
499.56	37507.08
499.73	37315.16
499.91	37368.99
500.08	37666.24
500.26	37682.62
500.44	37893.27
500.61	37764.54
500.79	38082.86
500.97	38391.81
501.14	38738.21
501.32	38763.95
501.49	38536.92
501.67	39192.27
501.84	39255.46
502.02	39281.21
502.20	39278.87
502.37	39124.40
502.55	39386.54
502.72	40140.19
502.90	39775.06
503.07	39880.39
503.25	39793.79
503.43	39985.71
503.60	39810.17
503.78	40065.29
503.95	40399.99
504.13	40797.88
504.30	41240.24
504.48	40617.66
504.65	40802.56
504.83	41387.69
505.01	41727.07
505.18	41415.78
505.36	41930.70
505.53	41436.84
505.71	42141.35
505.88	42005.59
506.06	41656.85
506.23	42494.77
506.41	42286.46
506.58	42263.05
506.76	42480.72
506.93	42717.12
507.11	42906.70
507.28	42672.65
507.46	42726.48
507.63	43246.08
507.81	43262.46
507.98	43140.75
508.16	43042.45
508.33	43686.10
508.50	44210.38
508.68	43812.49
508.85	43793.76
509.03	44088.67
509.20	44428.05
509.38	44769.77
509.55	44865.73
509.73	44898.50
509.90	44924.24
510.08	44786.15
510.25	44849.35
510.42	45064.67
510.60	44992.12
510.77	45595.98
510.95	45268.30
511.12	45427.46
511.30	45130.21
511.47	45621.72
511.64	45766.84
511.82	45947.06
511.99	45689.60
512.17	46279.41
512.34	46043.02
512.51	46204.52
512.69	46913.70
512.86	46586.02
513.04	47040.09
513.21	46820.08
513.38	46799.01
513.56	47140.73
513.73	46850.50
513.90	47271.80
514.08	47217.97
514.25	47203.92
514.43	47648.63
514.60	47812.46
514.77	47746.93
514.95	47849.91
515.12	47608.84
515.29	47639.26
515.47	48229.08
515.64	48399.94
515.81	48334.40
515.99	48713.57
516.16	48786.13
516.33	48191.63
516.51	48830.60
516.68	48839.96
516.85	49125.50
517.03	49214.44
517.20	49069.33
517.37	49057.63
517.54	49261.26
517.72	49371.26
517.89	49418.07
518.06	49485.95
518.24	49191.04
518.41	49560.84
518.58	49516.37
518.75	49687.23
518.93	50160.02
519.10	49610.00
519.27	49837.03
519.45	49860.43
519.62	50248.96
519.79	50178.75
519.96	50263.00
520.14	50305.13
520.31	50248.96
520.48	50478.33
520.65	50527.48
520.83	50733.45
521.00	50684.30
521.17	50838.78
521.34	51072.83
521.52	50710.05
521.69	50794.31
521.86	50784.94
522.03	51742.22
522.20	51538.60
522.38	51618.17
522.55	51576.04
522.72	51498.81
522.89	51533.92
523.07	52069.90
523.24	51557.32
523.41	51800.74
523.58	51592.43
523.75	51751.59
523.92	52034.79
524.10	52264.16
524.27	52498.22
524.44	52144.80
524.61	52289.91
524.78	52378.85
524.96	52720.57
525.13	52458.43
525.30	52357.78
525.47	52739.29
525.64	52790.78
525.81	52830.57
525.98	52959.30
526.16	52720.57
526.33	52802.49
526.50	53090.37
526.67	52982.71
526.84	53076.33
527.01	52940.58
527.18	52989.73
527.36	53066.97
527.53	53167.61
527.70	53464.86
527.87	53860.41
528.04	53396.98
528.21	53495.28
528.38	53413.37
528.55	53902.54
528.72	53745.72
528.89	53506.99
529.07	53642.74
529.24	53429.75
529.41	53872.11
529.58	53799.55
529.75	53986.80
529.92	53904.88
530.09	54031.27
530.26	54253.62
530.43	54005.52
530.60	54192.76
530.77	53984.46
530.94	54206.81
531.11	54485.33
531.28	54237.23
531.46	54401.07
531.63	54625.76
531.80	54370.64
531.97	54759.17
532.14	54653.85
532.31	54595.34
532.48	54930.03
532.65	54995.57
532.82	54838.75
532.99	54939.39
533.16	54712.36
533.33	55103.23
533.50	54993.23
533.67	54960.46
533.84	55117.28
534.01	55222.60
534.18	54920.67
534.35	55353.67
534.52	55215.58
534.69	55248.35
534.86	55416.86
535.03	55089.19
535.20	55475.38
535.37	55356.01
535.54	55496.44
535.71	55388.78
535.88	55636.87
536.05	55835.82
536.22	55569.00
536.38	55929.44
536.55	55604.11
536.72	55758.58
536.89	55679.00
537.06	55608.79
537.23	55931.78
537.40	55702.41
537.57	55941.14
537.74	56009.02
537.91	56273.50
538.08	56243.07
538.25	56020.72
538.42	56034.77
538.59	56161.15
538.75	56334.35
538.92	56327.33
539.09	56348.40
539.26	56268.82
539.43	56123.71
539.60	56360.10
539.77	56254.78
539.94	56645.65
540.11	56514.58
540.28	56727.56
540.44	56657.35
540.61	56547.34
540.78	56439.68
540.95	56767.35
541.12	56545.00
541.29	56526.28
541.46	56591.81
541.62	56692.46
541.79	56657.35
541.96	56568.41
542.13	56460.74
542.30	56734.59
542.47	56844.59
542.63	56917.15
542.80	57205.03
542.97	57324.40
543.14	57303.34
543.31	57357.17
543.48	57368.87
543.64	57726.97
543.81	57530.37
543.98	57539.73
544.15	57490.58
544.32	57600.58
544.48	57911.88
544.65	57389.94
544.82	57535.05
544.99	57436.75
545.16	57612.29
545.32	57654.42
545.49	57928.26
545.66	57719.95
545.83	57832.30
546.00	57799.53
546.16	57708.25
546.33	57790.17
546.50	57516.32
546.67	57968.05
546.83	57626.33
547.00	57839.32
547.17	57684.84
547.34	58064.01
547.50	58190.40
547.67	58066.35
547.84	58164.65
548.00	58234.87
548.17	58501.69
548.34	58319.13
548.51	58431.47
548.67	58288.70
548.84	58288.70
549.01	58202.10
549.18	58384.66
549.34	58625.74
549.51	58384.66
549.68	58508.71
549.84	58525.10
550.01	58529.78
550.18	58728.72
550.34	58553.18
550.51	58674.89
550.68	58625.74
550.84	58492.33
551.01	58614.04
551.18	58674.89
551.34	58611.70
551.51	58789.58
551.68	58749.79
551.84	58628.08
552.01	58401.05
552.18	58979.16
552.34	58784.90
552.51	59002.56
552.68	58710.00
552.84	58962.78
553.01	59098.53
553.18	58941.71
553.34	58939.37
553.51	58920.65
553.67	58801.28
553.84	59049.38
554.01	59306.83
554.17	59316.20
554.34	59395.77
554.51	59264.70
554.67	59292.79
554.84	59100.87
555.00	59344.28
555.17	59175.76
555.33	59236.62
555.50	59152.36
555.67	59236.62
555.83	59044.69
556.00	59070.44
556.16	59463.65
556.33	59388.75
556.50	59489.40
556.66	59646.21
556.83	59086.82
556.99	59540.89
557.16	59693.02
557.32	59744.51
557.49	59849.84
557.65	59451.95
557.82	59632.17
557.98	59470.67
558.15	59601.74
558.32	59678.98
558.48	59447.27
558.65	59693.02
558.81	59662.60
558.98	59568.97
559.14	59772.60
559.31	59849.84
559.47	59779.62
559.64	59814.73
559.80	60023.04
559.97	59882.61
560.13	59725.79
560.30	59922.40
560.46	59983.25
560.63	59908.35
560.79	60119.00
560.96	60219.64
561.12	60011.34
561.29	60231.35
561.45	59920.05
561.61	60100.28
561.78	60006.65
561.94	59938.78
562.11	60044.10
562.27	60011.34
562.44	60149.43
562.60	60123.68
562.77	60095.60
562.93	59781.96
563.10	60126.02
563.26	59906.01
563.42	60348.37
563.59	60158.79
563.75	60048.78
563.92	60140.07
564.08	60278.16
564.24	60179.85
564.41	60240.71
564.57	60175.17
564.74	60327.31
564.90	60236.03
565.07	60252.41
565.23	60313.26
565.39	60219.64
565.56	60559.02
565.72	60336.67
565.88	60236.03
566.05	60341.35
566.21	60280.50
566.38	60271.14
566.54	60451.36
566.70	60301.56
566.87	60474.76
567.03	60231.35
567.19	60746.26
567.36	60566.04
567.52	60491.15
567.68	60701.79
567.85	60559.02
568.01	60659.66
568.17	60619.88
568.34	60828.18
568.50	60645.62
568.66	60533.28
568.83	60575.40
568.99	60348.37
569.15	60671.37
569.32	60559.02
569.48	60472.42
569.64	60767.33
569.81	60537.96
569.97	60439.65
570.13	60797.76
570.30	60425.61
570.46	60739.24
570.62	60781.37
570.78	60795.42
570.95	60516.89
571.11	60811.80
571.27	60552.00
571.43	60722.86
571.60	60917.12
571.76	60741.58
571.92	60685.41
572.09	60842.23
572.25	60788.39
572.41	60779.03
572.57	60608.17
572.74	60914.78
572.90	60818.82
573.06	60666.69
573.22	60725.20
573.38	60622.22
573.55	60856.27
573.71	60917.12
573.87	60755.63
574.03	60755.63
574.20	60968.61
574.36	60713.50
574.52	60825.84
574.68	60952.23
574.84	61038.83
575.01	60956.91
575.17	60928.83
575.33	60640.94
575.49	60809.46
575.65	60879.67
575.82	60811.80
575.98	60860.95
576.14	61144.16
576.30	61230.75
576.46	60919.46
576.62	60823.50
576.79	60846.91
576.95	60800.10
577.11	60919.46
577.27	60959.25
577.43	60963.93
577.59	60959.25
577.75	60882.02
577.92	60783.71
578.08	60961.59
578.24	60928.83
578.40	60870.31
578.56	60996.70
578.72	61148.84
578.88	61265.86
579.04	61123.09
579.21	61123.09
579.37	61066.92
579.53	60928.83
579.69	60914.78
579.85	60954.57
580.01	61090.32
580.17	60924.14
580.33	61029.47
580.49	60970.96
580.65	60987.34
580.82	60996.70
580.98	61015.43
581.14	61022.45
581.30	61181.60
581.46	61130.11
581.62	61144.16
581.78	61031.81
581.94	61078.62
582.10	60865.63
582.26	61085.64
582.42	60954.57
582.58	61226.07
582.74	61022.45
582.90	61066.92
583.06	61097.34
583.22	60917.12
583.38	60898.40
583.54	61116.07
583.70	61062.24
583.86	61190.97
584.02	61034.15
584.18	61270.54
584.34	61076.28
584.50	61071.60
584.66	61155.86
584.82	61010.74
584.98	61249.48
585.14	61249.48
585.30	61153.52
585.46	61410.98
585.62	61139.47
585.78	61169.90
585.94	61251.82
586.10	61102.03
586.26	61015.43
586.42	61144.16
586.58	61230.75
586.74	61151.18
586.90	61282.25
587.06	61160.54
587.22	61202.67
587.38	60982.66
587.54	61160.54
587.70	61338.42
587.86	61291.61
588.02	61181.60
588.18	61258.84
588.34	61134.79
