SpectraSuite Data File
++++++++++++++++++++++++++++++++++++
Date: Fri Oct 25 10:44:02 EDT 2013
User: price-jones
Dark Spectrum Present: No
Reference Spectrum Present: No
Number of Sampled Component Spectra: 1
Spectrometers: USB2+H05261
Integration Time (usec): 100000 (USB2+H05261)
Spectra Averaged: 1 (USB2+H05261)
Boxcar Smoothing: 0 (USB2+H05261)
Correct for Electrical Dark: No (USB2+H05261)
Strobe/Lamp Enabled: No (USB2+H05261)
Correct for Detector Non-linearity: No (USB2+H05261)
Correct for Stray Light: No (USB2+H05261)
Number of Pixels in Processed Spectrum: 2048
>>>>>Begin Processed Spectral Data<<<<<
365.73	93.62
365.92	93.62
366.12	93.62
366.32	0.00
366.52	0.00
366.72	30.43
366.91	0.00
367.11	0.00
367.31	0.00
367.51	4.68
367.70	7.02
367.90	0.00
368.10	14.04
368.30	35.11
368.49	4.68
368.69	49.15
368.89	98.30
369.09	32.77
369.28	86.60
369.48	23.41
369.68	46.81
369.87	49.15
370.07	128.73
370.27	159.16
370.47	208.31
370.66	355.76
370.86	430.66
371.06	505.56
371.25	498.53
371.45	463.43
371.65	475.13
371.84	388.53
372.04	428.32
372.24	463.43
372.44	486.83
372.63	510.24
372.83	430.66
373.03	465.77
373.22	554.71
373.42	561.73
373.62	550.03
373.81	615.56
374.01	587.47
374.21	496.19
374.40	561.73
374.60	641.31
374.79	528.96
374.99	608.54
375.19	585.13
375.38	629.60
375.58	575.77
375.78	629.60
375.97	627.26
376.17	613.22
376.37	575.77
376.56	690.46
376.76	636.63
376.95	671.73
377.15	636.63
377.35	615.56
377.54	695.14
377.74	634.29
377.93	641.31
378.13	709.18
378.33	629.60
378.52	697.48
378.72	683.44
378.91	645.99
379.11	631.94
379.31	706.84
379.50	631.94
379.70	664.71
379.89	753.65
380.09	669.39
380.28	697.48
380.48	802.80
380.68	695.14
380.87	713.86
381.07	730.25
381.26	723.23
381.46	685.78
381.65	718.54
381.85	678.76
382.04	695.14
382.24	678.76
382.43	655.35
382.63	770.04
382.83	669.39
383.02	713.86
383.22	730.25
383.41	734.93
383.61	730.25
383.80	823.87
384.00	856.64
384.19	746.63
384.39	774.72
384.58	777.06
384.78	793.44
384.97	807.48
385.17	924.51
385.36	854.30
385.56	786.42
385.75	833.23
385.95	816.85
386.14	830.89
386.34	908.13
386.53	896.43
386.72	833.23
386.92	919.83
387.11	898.77
387.31	905.79
387.50	851.96
387.70	908.13
387.89	842.59
388.09	938.55
388.28	954.94
388.48	980.68
388.67	940.90
388.86	1032.18
389.06	947.92
389.25	1013.45
389.45	997.07
389.64	987.71
389.84	983.02
390.03	1015.79
390.22	961.96
390.42	1004.09
390.61	1034.52
390.81	1015.79
391.00	1071.97
391.19	1165.59
391.39	1104.73
391.58	1083.67
391.78	992.39
391.97	1149.20
392.16	978.34
392.36	1048.56
392.55	1125.80
392.75	1032.18
392.94	987.71
393.13	997.07
393.33	978.34
393.52	1083.67
393.71	1123.46
393.91	1116.44
394.10	1167.93
394.29	1165.59
394.49	1188.99
394.68	1310.70
394.88	1242.82
395.07	1352.83
395.26	1249.85
395.46	1219.42
395.65	1336.45
395.84	1245.16
396.04	1224.10
396.23	1235.80
396.42	1200.69
396.62	1118.78
396.81	1219.42
397.00	1196.01
397.19	1364.53
397.39	1399.64
397.58	1383.26
397.77	1441.77
397.97	1589.22
398.16	1591.56
398.35	1511.99
398.55	1565.82
398.74	1500.28
398.93	1619.65
399.12	1600.93
399.32	1575.18
399.51	1535.39
399.70	1528.37
399.90	1732.00
400.09	1605.61
400.28	1659.44
400.47	1664.12
400.67	1638.38
400.86	1727.32
401.05	1729.66
401.24	1724.97
401.44	1739.02
401.63	1849.02
401.82	1764.76
402.01	1710.93
402.21	1811.57
402.40	1806.89
402.59	1797.53
402.78	1846.68
402.97	1830.30
403.17	1853.70
403.36	1795.19
403.55	1863.07
403.74	1874.77
403.93	1923.92
404.13	1893.49
404.32	2003.50
404.51	1902.86
404.70	1963.71
404.89	2022.22
405.09	2001.16
405.28	2146.27
405.47	2054.99
405.66	2008.18
405.85	2001.16
406.05	2047.97
406.24	2099.46
406.43	2127.55
406.62	2183.72
406.81	2207.13
407.00	2146.27
407.20	2181.38
407.39	2157.97
407.58	2214.15
407.77	2214.15
407.96	2368.62
408.15	2373.30
408.34	2382.67
408.54	2303.09
408.73	2373.30
408.92	2377.98
409.11	2544.16
409.30	2370.96
409.49	2408.41
409.68	2368.62
409.87	2333.51
410.07	2497.35
410.26	2457.56
410.45	2466.92
410.64	2413.09
410.83	2574.59
411.02	2595.65
411.21	2696.30
411.40	2661.19
411.59	2626.08
411.78	2586.29
411.98	2722.04
412.17	2771.19
412.36	2698.64
412.55	2754.81
412.74	2745.45
412.93	2855.45
413.12	2815.66
413.31	2951.42
413.50	2902.26
413.69	3038.02
413.88	3110.57
414.07	2920.99
414.26	3084.83
414.45	3009.93
414.64	3187.81
414.83	3152.70
415.02	3082.49
415.22	3141.00
415.41	3236.96
415.60	3255.69
415.79	3279.09
415.98	3389.10
416.17	3269.73
416.36	3267.39
416.55	3356.33
416.74	3353.99
416.93	3370.37
417.12	3480.38
417.31	3534.21
417.50	3288.45
417.69	3658.26
417.88	3524.85
418.07	3536.55
418.26	3403.14
418.45	3634.85
418.64	3658.26
418.83	3667.62
419.02	3581.02
419.21	3707.41
419.39	3667.62
419.58	3630.17
419.77	3667.62
419.96	3775.28
420.15	3852.52
420.34	3831.46
420.53	3946.14
420.72	4044.45
420.91	3892.31
421.10	3974.23
421.29	4194.24
421.48	4009.34
421.67	3922.74
421.86	3962.53
422.05	4007.00
422.24	3999.98
422.43	3992.95
422.61	3955.51
422.80	4058.49
422.99	4145.09
423.18	4182.54
423.37	4184.88
423.56	4168.49
423.75	3953.16
423.94	4091.26
424.13	3801.03
424.32	3894.65
424.50	3988.27
424.69	4196.58
424.88	4077.21
425.07	3957.85
425.26	3974.23
425.45	4023.38
425.64	4023.38
425.83	4049.13
426.01	4159.13
426.20	4194.24
426.39	4285.52
426.58	4135.73
426.77	4168.49
426.96	4138.07
427.15	4210.62
427.33	4231.69
427.52	4159.13
427.71	4182.54
427.90	4294.88
428.09	4234.03
428.28	4339.35
428.46	4264.46
428.65	4318.29
428.84	4332.33
429.03	4442.34
429.22	4189.56
429.40	4238.71
429.59	4313.61
429.78	4126.36
429.97	3983.59
430.16	4037.42
430.34	4287.86
430.53	4285.52
430.72	4290.20
430.91	4287.86
431.10	4372.12
431.28	4620.22
431.47	4830.87
431.66	4770.01
431.85	4720.86
432.03	4751.29
432.22	4770.01
432.41	4589.79
432.60	4798.10
432.79	4868.31
432.97	4793.42
433.16	5011.09
433.35	4706.82
433.54	4919.81
433.72	4898.74
433.91	4828.53
434.10	4767.67
434.28	4884.70
434.47	4961.94
434.66	5036.83
434.85	5184.29
435.03	5146.84
435.22	5177.26
435.41	5397.28
435.59	5214.71
435.78	5210.03
435.97	5455.79
436.16	5242.80
436.34	5376.21
436.53	5479.19
436.72	5310.68
436.90	5156.20
437.09	5247.48
437.28	5233.44
437.46	5280.25
437.65	5371.53
437.84	5336.42
438.02	5378.55
438.21	5359.83
438.40	5401.96
438.58	5540.05
438.77	5554.09
438.96	5554.09
439.14	5767.08
439.33	5760.06
439.52	5827.93
439.70	6045.60
439.89	5987.09
440.08	5940.28
440.26	5909.85
440.45	6054.97
440.63	5933.26
440.82	6097.10
441.01	6148.59
441.19	6146.25
441.38	6235.19
441.57	6349.87
441.75	6382.64
441.94	6441.15
442.12	6420.09
442.31	6457.54
442.50	6525.41
442.68	6628.40
442.87	6551.16
443.05	6483.28
443.24	6642.44
443.43	6715.00
443.61	6691.59
443.80	6878.83
443.98	6644.78
444.17	6581.59
444.35	6810.96
444.54	6892.88
444.73	6810.96
444.91	6731.38
445.10	6724.36
445.28	6656.48
445.47	6523.07
445.65	6619.04
445.84	6803.94
446.02	6722.02
446.21	6654.14
446.39	6836.70
446.58	6834.36
446.77	6850.75
446.95	6703.29
447.14	6860.11
447.32	6949.05
447.51	6892.88
447.69	6841.39
447.88	6946.71
448.06	6953.73
448.25	6932.67
448.43	7026.29
448.62	6927.99
448.80	7094.16
448.99	7035.65
449.17	7208.85
449.36	7056.72
449.54	7133.95
449.73	7087.14
449.91	7468.65
450.10	7492.05
450.28	7508.44
450.46	7506.10
450.65	7426.52
450.83	7375.03
451.02	7480.35
451.20	7318.86
451.39	7330.56
451.57	7529.50
451.76	7576.31
451.94	7581.00
452.13	7503.76
452.31	7527.16
452.49	7529.50
452.68	7454.61
452.86	7414.82
453.05	7541.21
453.23	7527.16
453.42	7506.10
453.60	7503.76
453.78	7932.08
453.97	7698.02
454.15	7662.91
454.34	7646.53
454.52	7819.73
454.70	7564.61
454.89	7836.11
455.07	7784.62
455.26	7922.71
455.44	7920.37
455.62	8105.28
455.81	8187.19
455.99	8088.89
456.17	8145.06
456.36	8053.78
456.54	8241.03
456.73	8294.86
456.91	8414.23
457.09	8500.83
457.28	8603.81
457.46	8224.64
457.64	8386.14
457.83	8351.03
458.01	8273.79
458.19	8594.45
458.38	8292.52
458.56	8622.53
458.74	8566.36
458.93	8641.26
459.11	8615.51
459.29	8552.32
459.48	8568.70
459.66	8667.00
459.84	8704.45
460.03	8709.13
460.21	8671.68
460.39	8879.99
460.57	8833.18
460.76	8896.38
460.94	8830.84
461.12	8987.66
461.31	9050.85
461.49	9050.85
461.67	8931.48
461.85	9041.49
462.04	9146.81
462.22	9584.49
462.40	9114.05
462.59	9177.24
462.77	9224.05
462.95	9135.11
463.13	9270.86
463.32	9277.88
463.50	9301.29
463.68	9210.01
463.86	9200.65
464.05	9085.96
464.23	9296.61
464.41	9317.67
464.59	9226.39
464.78	9530.66
464.96	9408.95
465.14	9404.27
465.32	9575.13
465.50	9607.90
465.69	9631.30
465.87	9453.42
466.05	9525.98
466.23	9525.98
466.41	9600.88
466.60	9558.75
466.78	9352.78
466.96	9558.75
467.14	9437.04
467.32	9598.54
467.51	9781.10
467.69	9511.94
467.87	9727.27
468.05	9710.88
468.23	9591.52
468.41	9584.49
468.60	9832.59
468.78	9907.49
468.96	9963.66
469.14	9914.51
469.32	10101.75
469.50	9858.34
469.69	10260.91
469.87	10249.21
470.05	10066.64
470.23	10083.03
470.41	10104.09
470.59	10263.25
470.77	10167.29
470.95	10235.16
471.14	10569.86
471.32	9984.73
471.50	10628.37
471.68	10871.79
471.86	10665.82
472.04	10717.31
472.22	11030.94
472.40	10532.41
472.58	10843.70
472.77	10824.98
472.95	10766.46
473.13	11136.27
473.31	10867.11
473.49	10757.10
473.67	10721.99
473.85	10834.34
474.03	11227.55
474.21	11178.40
474.39	11262.66
474.57	11325.85
474.75	11468.62
474.93	11723.74
475.12	11456.92
475.30	11609.06
475.48	11580.97
475.66	11705.02
475.84	11410.11
476.02	11705.02
476.20	11585.65
476.38	11990.56
476.56	12140.36
476.74	12224.62
476.92	12123.98
477.10	12290.15
477.28	12493.78
477.46	12505.48
477.64	12664.64
477.82	12772.30
478.00	12732.51
478.18	13135.09
478.36	12957.21
478.54	12947.84
478.72	13163.17
478.90	13266.16
479.08	13404.25
479.26	13640.64
479.44	13781.07
479.62	13575.11
479.80	13781.07
479.98	13942.57
480.16	14298.33
480.34	13919.17
480.52	14054.92
480.70	13940.23
480.88	13884.06
481.06	14457.49
481.24	14347.48
481.41	14586.22
481.59	14686.86
481.77	15021.56
481.95	14998.15
482.13	15246.25
482.31	14773.46
482.49	15166.67
482.67	15531.80
482.85	15391.36
483.03	15847.77
483.21	15871.17
483.39	15751.81
483.57	15761.17
483.74	16027.99
483.92	16243.32
484.10	15847.77
484.28	16416.52
484.46	16519.50
484.64	16854.20
484.82	16648.23
485.00	16430.56
485.18	17032.08
485.35	16844.84
485.53	16973.56
485.71	16468.01
485.89	16938.46
486.07	17224.00
486.25	17118.68
486.43	17252.09
486.61	17469.76
486.78	17694.45
486.96	18012.76
487.14	17998.72
487.32	18541.72
487.50	18630.66
487.68	18794.50
487.85	19047.28
488.03	18845.99
488.21	19021.53
488.39	19239.20
488.57	18972.38
488.75	19513.05
488.92	19566.88
489.10	19908.60
489.28	19866.47
489.46	20348.62
489.64	20446.92
489.81	20629.48
489.99	20842.47
490.17	20849.49
490.35	20938.43
490.53	20854.17
490.70	21132.70
490.88	20931.41
491.06	21558.67
491.24	21249.72
491.41	21153.76
491.59	21238.02
491.77	21156.10
491.95	21544.63
492.13	21970.61
492.30	22115.72
492.48	22202.32
492.66	22321.69
492.84	22249.13
493.01	22640.00
493.19	22719.58
493.37	22965.34
493.54	22852.99
493.72	23513.02
493.90	23456.85
494.08	23646.43
494.25	23826.65
494.43	23637.07
494.61	24280.72
494.79	24126.24
494.96	24318.17
495.14	24449.24
495.32	24491.37
495.49	24341.57
495.67	24809.68
495.85	24657.54
496.02	25029.69
496.20	24706.70
496.38	25301.19
496.55	25245.02
496.73	25942.50
496.91	25565.67
497.09	25806.75
497.26	25888.67
497.44	25788.02
497.62	26059.52
497.79	26270.17
497.97	25986.97
498.14	26256.13
498.32	26288.90
498.50	26651.68
498.67	26836.58
498.85	26668.06
499.03	26969.99
499.20	26991.06
499.38	26960.63
499.56	27679.18
499.73	27269.58
499.91	27384.27
500.08	27541.08
500.26	26761.69
500.44	27410.01
500.61	27452.14
500.79	27206.39
500.97	27433.42
501.14	28020.89
501.32	27702.58
501.49	27639.39
501.67	27754.07
501.84	28187.07
502.02	28034.94
502.20	28423.47
502.37	28299.42
502.55	28865.83
502.72	28449.21
502.90	28713.69
503.07	28650.50
503.25	28624.75
503.43	28744.12
503.60	28889.23
503.78	28882.21
503.95	29055.41
504.13	28910.30
504.30	29230.95
504.48	29600.76
504.65	29663.95
504.83	29687.36
505.01	29841.83
505.18	29820.77
505.36	30139.08
505.53	30178.87
505.71	30558.03
505.88	30373.13
506.06	29916.73
506.23	30497.18
506.41	30052.48
506.58	30565.06
506.76	30993.37
506.93	30951.24
507.11	30829.54
507.28	30866.98
507.46	30593.14
507.63	30768.68
507.81	30698.47
507.98	30946.56
508.16	31349.14
508.33	31241.47
508.50	31365.52
508.68	31857.03
508.85	32067.68
509.03	31861.71
509.20	31758.73
509.38	31864.05
509.55	32095.77
509.73	31840.65
509.90	32676.22
510.08	32240.88
510.25	32570.90
510.42	32411.74
510.60	32788.56
510.77	32294.71
510.95	32725.37
511.12	32875.16
511.30	33219.22
511.47	33125.60
511.64	33195.82
511.82	33357.32
511.99	33043.68
512.17	33235.61
512.34	32818.99
512.51	33481.36
512.69	33628.82
512.86	33354.97
513.04	33916.70
513.21	33724.78
513.38	33390.08
513.56	33764.57
513.73	33626.48
513.90	33773.93
514.08	33738.82
514.25	33921.38
514.43	34017.35
514.60	34630.57
514.77	34398.85
514.95	34719.51
515.12	34572.05
515.29	34373.11
515.47	34981.65
515.64	34927.81
515.81	34565.03
515.99	34567.37
516.16	34703.12
516.33	33764.57
516.51	34909.09
516.68	34075.86
516.85	33993.94
517.03	34492.47
517.20	34220.97
517.37	35077.61
517.54	35000.37
517.72	34822.49
517.89	34801.43
518.06	34522.90
518.24	34553.33
518.41	35129.10
518.58	35491.88
518.75	35440.39
518.93	35604.23
519.10	35344.43
519.27	35637.00
519.45	35669.76
519.62	35906.16
519.79	36128.51
519.96	35992.76
520.14	36196.38
520.31	35641.68
520.48	36121.49
520.65	35906.16
520.83	36652.79
521.00	36456.18
521.17	36577.89
521.34	36690.24
521.52	36734.71
521.69	37158.34
521.86	37104.51
522.03	37118.56
522.20	37003.87
522.38	37029.62
522.55	36828.33
522.72	37460.27
522.89	37296.44
523.07	37858.17
523.24	37439.21
523.41	37778.59
523.58	37984.55
523.75	38019.66
523.92	37986.89
524.10	38258.40
524.27	38286.48
524.44	38272.44
524.61	38368.40
524.78	38188.18
524.96	38595.43
525.13	38384.79
525.30	38574.37
525.47	38803.74
525.64	38497.13
525.81	38593.09
525.98	38263.08
526.16	38263.08
526.33	37858.17
526.50	38302.87
526.67	37691.99
526.84	38410.53
527.01	38202.22
527.18	38354.36
527.36	39068.22
527.53	38808.42
527.70	39100.99
527.87	39454.41
528.04	38845.87
528.21	39250.78
528.38	39140.78
528.55	39456.75
528.72	39704.85
528.89	39695.49
529.07	39749.32
529.24	39346.75
529.41	39700.17
529.58	39653.36
529.75	39723.57
529.92	39981.03
530.09	40112.10
530.26	39880.39
530.43	40121.46
530.60	39978.69
530.77	39789.11
530.94	40381.26
531.11	39964.65
531.28	40259.55
531.46	40500.63
531.63	40385.94
531.80	40257.21
531.97	40163.59
532.14	40540.42
532.31	40128.48
532.48	40311.05
532.65	40397.65
532.82	40500.63
532.99	40926.61
533.16	40767.45
533.33	40598.93
533.50	40863.41
533.67	40818.94
533.84	41017.89
534.01	41043.63
534.18	40669.15
534.35	41193.43
534.52	41064.70
534.69	41053.00
534.86	41776.22
535.03	40968.74
535.20	41404.08
535.37	41940.06
535.54	42068.79
535.71	41364.29
535.88	41816.01
536.05	41542.17
536.22	41198.11
536.38	42085.17
536.55	41701.32
536.72	41565.57
536.89	41317.48
537.06	41724.73
537.23	42286.46
537.40	42064.11
537.57	42031.34
537.74	42623.50
537.91	42550.94
538.08	42078.15
538.25	41565.57
538.42	41881.55
538.59	42359.02
538.75	41610.04
538.92	42209.22
539.09	42054.75
539.26	41993.89
539.43	41977.51
539.60	41607.70
539.77	42029.00
539.94	42511.15
540.11	41942.40
540.28	42368.38
540.44	42263.05
540.61	42087.51
540.78	42190.50
540.95	42494.77
541.12	42433.91
541.29	42562.64
541.46	42595.41
541.62	42869.25
541.79	42726.48
541.96	42167.09
542.13	42796.70
542.30	42548.60
542.47	43000.32
542.63	42724.14
542.80	42902.02
542.97	43543.33
543.14	43688.44
543.31	43681.42
543.48	43515.24
543.64	43941.22
543.81	43660.35
543.98	43475.45
544.15	43494.18
544.32	44083.99
544.48	43662.69
544.65	43964.62
544.82	44243.15
544.99	43704.82
545.16	43838.23
545.32	43798.44
545.49	44245.49
545.66	44367.20
545.83	44126.12
546.00	44034.84
546.16	43763.34
546.33	44168.25
546.50	44004.41
546.67	43908.45
546.83	43297.57
547.00	43978.67
547.17	44409.32
547.34	43863.98
547.50	44023.14
547.67	44306.34
547.84	44711.25
548.00	44758.06
548.17	44315.70
548.34	44779.13
548.51	44570.82
548.67	44774.45
548.84	44706.57
549.01	44397.62
549.18	44816.58
549.34	44912.54
549.51	44725.30
549.68	44921.90
549.84	45095.10
550.01	44795.51
550.18	44732.32
550.34	44538.05
550.51	44697.21
550.68	44882.11
550.84	44463.16
551.01	44982.76
551.18	44643.38
551.34	44781.47
551.51	44985.10
551.68	45338.52
551.84	45214.47
552.01	44914.88
552.18	45294.05
552.34	44385.92
552.51	45172.34
552.68	44919.56
552.84	45317.45
553.01	45446.18
553.18	45045.95
553.34	45006.16
553.51	45109.14
553.67	45263.62
553.84	45542.14
554.01	45834.71
554.17	45727.05
554.34	45464.91
554.51	45485.97
554.67	45656.83
554.84	45942.38
555.00	45598.32
555.17	45500.01
555.33	45462.57
555.50	45235.53
555.67	45670.87
555.83	45633.42
556.00	45382.99
556.16	45708.32
556.33	45464.91
556.50	45357.24
556.66	45645.13
556.83	45368.94
556.99	46003.23
557.16	45951.74
557.32	45783.22
557.49	46031.32
557.65	45691.94
557.82	46117.92
557.98	45666.19
558.15	45453.20
558.32	45937.69
558.48	45603.00
558.65	45661.51
558.81	45729.39
558.98	45797.26
559.14	45603.00
559.31	45834.71
559.47	46206.86
559.64	46239.62
559.80	45883.86
559.97	46335.59
560.13	45757.47
560.30	46061.74
560.46	46204.52
560.63	45907.27
560.79	46405.80
560.96	46227.92
561.12	45907.27
561.29	46120.26
561.45	46277.07
561.61	45911.95
561.78	46366.01
561.94	46012.59
562.11	46284.09
562.27	45954.08
562.44	46543.89
562.60	46064.08
562.77	46777.95
562.93	46178.77
563.10	46548.57
563.26	46087.49
563.42	46464.32
563.59	46031.32
563.75	46230.26
563.92	46417.50
564.08	46195.15
564.24	46621.13
564.41	46368.35
564.57	46134.30
564.74	46394.10
564.90	46930.08
565.07	46611.77
565.23	46230.26
565.39	46487.72
565.56	46232.60
565.72	46438.57
565.88	46085.15
566.05	45820.67
566.21	46068.76
566.38	46368.35
566.54	46246.65
566.70	46583.68
566.87	46841.14
567.03	46265.37
567.19	47133.71
567.36	46939.44
567.52	46244.30
567.68	46969.87
567.85	46347.29
568.01	46588.36
568.17	46810.71
568.34	46752.20
568.50	46674.96
568.66	46230.26
568.83	46747.52
568.99	46492.40
569.15	46483.04
569.32	46506.44
569.48	46071.10
569.64	46777.95
569.81	46791.99
569.97	46642.20
570.13	46918.38
570.30	46398.78
570.46	45963.44
570.62	46419.84
570.78	46342.61
570.95	46529.85
571.11	46703.05
571.27	46534.53
571.43	46831.78
571.60	46822.42
571.76	46845.82
571.92	46665.60
572.09	46487.72
572.25	46218.56
572.41	47000.30
572.57	46834.12
572.74	46808.37
572.90	46948.81
573.06	46981.57
573.22	46440.91
573.38	46681.98
573.55	46464.32
573.71	47014.34
573.87	46518.15
574.03	46848.16
574.20	47023.70
574.36	46820.08
574.52	46752.20
574.68	46925.40
574.84	46614.11
575.01	46366.01
575.17	46466.66
575.33	46366.01
575.49	46616.45
575.65	46660.92
575.82	46679.64
575.98	46646.88
576.14	46822.42
576.30	46850.50
576.46	46904.34
576.62	46295.80
576.79	47215.63
576.95	46197.49
577.11	46670.28
577.27	46841.14
577.43	46522.83
577.59	46637.51
577.75	46469.00
577.92	46321.54
578.08	46637.51
578.24	46499.42
578.40	46548.57
578.56	46038.34
578.72	46742.84
578.88	46770.93
579.04	47023.70
579.21	46724.11
579.37	46815.40
579.53	46384.74
579.69	46368.35
579.85	46686.67
580.01	46930.08
580.17	46700.71
580.33	47007.32
580.49	46691.35
580.65	46946.47
580.82	47091.58
580.98	46576.66
581.14	46703.05
581.30	47391.17
581.46	46614.11
581.62	46944.12
581.78	47295.21
581.94	47241.37
582.10	46962.85
582.26	47000.30
582.42	46855.18
582.58	47217.97
582.74	46960.51
582.90	47009.66
583.06	47030.72
583.22	47119.66
583.38	47136.05
583.54	46590.70
583.70	47421.59
583.86	46869.23
584.02	46838.80
584.18	47082.22
584.34	46602.41
584.50	46817.74
584.66	46813.05
584.82	46770.93
584.98	46883.27
585.14	47007.32
585.30	46794.33
585.46	47084.56
585.62	46700.71
585.78	47086.90
585.94	46188.13
586.10	46803.69
586.26	46663.26
586.42	47140.73
586.58	46745.18
586.74	46843.48
586.90	46726.46
587.06	46923.06
587.22	46841.14
587.38	46689.01
587.54	46902.00
587.70	46724.11
587.86	46651.56
588.02	47077.54
588.18	47040.09
588.34	46534.53
588.49	46176.43
588.65	46251.33
588.81	46375.37
588.97	46838.80
589.13	46377.72
589.29	46527.51
589.45	46752.20
589.61	46492.40
589.77	47236.69
589.93	46635.17
