SpectraSuite Data File
++++++++++++++++++++++++++++++++++++
Date: Fri Oct 25 10:43:24 EDT 2013
User: price-jones
Dark Spectrum Present: No
Reference Spectrum Present: No
Number of Sampled Component Spectra: 1
Spectrometers: USB2+H05261
Integration Time (usec): 100000 (USB2+H05261)
Spectra Averaged: 1 (USB2+H05261)
Boxcar Smoothing: 0 (USB2+H05261)
Correct for Electrical Dark: No (USB2+H05261)
Strobe/Lamp Enabled: No (USB2+H05261)
Correct for Detector Non-linearity: No (USB2+H05261)
Correct for Stray Light: No (USB2+H05261)
Number of Pixels in Processed Spectrum: 2048
>>>>>Begin Processed Spectral Data<<<<<
365.73	117.03
365.92	117.03
366.12	117.03
366.32	11.70
366.52	0.00
366.72	32.77
366.91	46.81
367.11	37.45
367.31	56.17
367.51	51.49
367.70	0.00
367.90	35.11
368.10	0.00
368.30	42.13
368.49	30.43
368.69	98.30
368.89	30.43
369.09	18.72
369.28	72.56
369.48	53.83
369.68	91.28
369.87	23.41
370.07	44.47
370.27	145.11
370.47	170.86
370.66	379.17
370.86	409.59
371.06	484.49
371.25	498.53
371.45	339.38
371.65	477.47
371.84	465.77
372.04	397.89
372.24	521.94
372.44	514.92
372.63	437.68
372.83	510.24
373.03	505.56
373.22	505.56
373.42	531.30
373.62	486.83
373.81	547.69
374.01	535.98
374.21	559.39
374.40	550.03
374.60	589.82
374.79	624.92
374.99	519.60
375.19	519.60
375.38	613.22
375.58	610.88
375.78	636.63
375.97	615.56
376.17	631.94
376.37	580.45
376.56	610.88
376.76	472.79
376.95	510.24
377.15	697.48
377.35	653.01
377.54	550.03
377.74	655.35
377.93	660.03
378.13	631.94
378.33	615.56
378.52	676.41
378.72	634.29
378.91	627.26
379.11	662.37
379.31	695.14
379.50	692.80
379.70	655.35
379.89	657.69
380.09	692.80
380.28	638.97
380.48	653.01
380.68	674.07
380.87	711.52
381.07	638.97
381.26	767.70
381.46	683.44
381.65	678.76
381.85	716.20
382.04	629.60
382.24	711.52
382.43	624.92
382.63	711.52
382.83	763.01
383.02	753.65
383.22	800.46
383.41	767.70
383.61	706.84
383.80	744.29
384.00	744.29
384.19	727.91
384.39	854.30
384.58	765.36
384.78	840.25
384.97	744.29
385.17	760.67
385.36	807.48
385.56	755.99
385.75	809.83
385.95	833.23
386.14	854.30
386.34	772.38
386.53	844.93
386.72	826.21
386.92	873.02
387.11	858.98
387.31	840.25
387.50	828.55
387.70	866.00
387.89	945.58
388.09	861.32
388.28	842.59
388.48	844.93
388.67	945.58
388.86	875.36
389.06	910.47
389.25	915.15
389.45	1050.90
389.64	966.64
389.84	983.02
390.03	1088.35
390.22	964.30
390.42	976.00
390.61	866.00
390.81	964.30
391.00	1050.90
391.19	1095.37
391.39	1083.67
391.58	1114.10
391.78	1095.37
391.97	1048.56
392.16	994.73
392.36	1041.54
392.55	1097.71
392.75	1071.97
392.94	1060.26
393.13	990.05
393.33	971.32
393.52	997.07
393.71	1078.99
393.91	1135.16
394.10	1149.20
394.29	1139.84
394.49	1256.87
394.68	1217.08
394.88	1291.98
395.07	1184.31
395.26	1217.08
395.46	1163.25
395.65	1324.74
395.84	1158.57
396.04	1163.25
396.23	1111.75
396.42	1212.40
396.62	1186.65
396.81	1174.95
397.00	1174.95
397.19	1226.44
397.39	1280.27
397.58	1397.30
397.77	1444.11
397.97	1430.07
398.16	1394.96
398.35	1448.79
398.55	1385.60
398.74	1507.30
398.93	1519.01
399.12	1547.09
399.32	1453.47
399.51	1469.86
399.70	1547.09
399.90	1561.14
400.09	1689.87
400.28	1554.12
400.47	1481.56
400.67	1689.87
400.86	1624.33
401.05	1582.20
401.24	1652.42
401.44	1617.31
401.63	1717.95
401.82	1687.53
402.01	1666.46
402.21	1732.00
402.40	1743.70
402.59	1710.93
402.78	1668.80
402.97	1694.55
403.17	1802.21
403.36	1689.87
403.55	1858.39
403.74	1865.41
403.93	1846.68
404.13	1699.23
404.32	1872.43
404.51	1874.77
404.70	1954.35
404.89	1874.77
405.09	1975.41
405.28	1963.71
405.47	1891.15
405.66	1991.80
405.85	2052.65
406.05	1930.94
406.24	1956.69
406.43	1877.11
406.62	2073.71
406.81	2113.50
407.00	1947.33
407.20	1994.14
407.39	1961.37
407.58	2146.27
407.77	2162.66
407.96	2267.98
408.15	2260.96
408.34	2179.04
408.54	2279.68
408.73	2354.58
408.92	2279.68
409.11	2363.94
409.30	2338.20
409.49	2275.00
409.68	2296.07
409.87	2291.38
410.07	2314.79
410.26	2324.15
410.45	2438.84
410.64	2373.30
410.83	2361.60
411.02	2518.42
411.21	2654.17
411.40	2605.02
411.59	2572.25
411.78	2600.34
411.98	2619.06
412.17	2663.53
412.36	2649.49
412.55	2614.38
412.74	2731.41
412.93	2679.91
413.12	2693.96
413.31	2988.86
413.50	2876.52
413.69	2768.85
413.88	2909.29
414.07	2888.22
414.26	2846.09
414.45	2928.01
414.64	3021.63
414.83	2974.82
415.02	3021.63
415.22	3213.56
415.41	3009.93
415.60	3063.76
415.79	3133.98
415.98	3211.22
416.17	3169.09
416.36	3164.40
416.55	3150.36
416.74	3199.51
416.93	3328.24
417.12	3227.60
417.31	3206.53
417.50	3290.79
417.69	3412.50
417.88	3447.61
418.07	3424.20
418.26	3447.61
418.45	3482.72
418.64	3562.30
418.83	3541.23
419.02	3538.89
419.21	3578.68
419.39	3684.00
419.58	3510.80
419.77	3590.38
419.96	3574.00
420.15	3721.45
420.34	3660.60
420.53	3625.49
420.72	3653.58
420.91	3819.75
421.10	3705.07
421.29	3817.41
421.48	3665.28
421.67	3758.90
421.86	3775.28
422.05	3866.56
422.24	3756.56
422.43	3728.47
422.61	3700.39
422.80	3854.86
422.99	3981.25
423.18	3838.48
423.37	3988.27
423.56	3913.38
423.75	3861.88
423.94	3831.46
424.13	3669.96
424.32	3819.75
424.50	3950.82
424.69	3943.80
424.88	3995.29
425.07	3824.44
425.26	3843.16
425.45	3892.31
425.64	3939.12
425.83	4037.42
426.01	3936.78
426.20	3941.46
426.39	3810.39
426.58	3939.12
426.77	3997.64
426.96	3941.46
427.15	3927.42
427.33	3929.76
427.52	4053.81
427.71	4145.09
427.90	3920.40
428.09	4072.53
428.28	4105.30
428.46	4149.77
428.65	4021.04
428.84	4159.13
429.03	4337.01
429.22	4070.19
429.40	4278.50
429.59	4058.49
429.78	3836.14
429.97	3911.04
430.16	3904.01
430.34	3927.42
430.53	4173.18
430.72	4067.85
430.91	4156.79
431.10	4428.29
431.28	4470.42
431.47	4564.04
431.66	4554.68
431.85	4533.62
432.03	4550.00
432.22	4603.83
432.41	4533.62
432.60	4582.77
432.79	4837.89
432.97	4781.71
433.16	4641.28
433.35	4554.68
433.54	4535.96
433.72	4840.23
433.91	4629.58
434.10	4746.61
434.28	4706.82
434.47	4741.93
434.66	4802.78
434.85	4765.33
435.03	5011.09
435.22	4741.93
435.41	5078.96
435.59	5102.37
435.78	4999.38
435.97	5041.51
436.16	4947.89
436.34	5032.15
436.53	5139.82
436.72	5242.80
436.90	5020.45
437.09	5217.05
437.28	5139.82
437.46	5193.65
437.65	5170.24
437.84	4994.70
438.02	5125.77
438.21	5221.74
438.40	5034.49
438.58	5263.86
438.77	5256.84
438.96	5226.42
439.14	5518.98
439.33	5509.62
439.52	5579.84
439.70	5554.09
439.89	5479.19
440.08	5645.37
440.26	5673.46
440.45	5493.24
440.63	5813.89
440.82	5823.25
441.01	5895.81
441.19	5858.36
441.38	5956.66
441.57	6005.81
441.75	6340.51
441.94	6237.53
442.12	6394.34
442.31	6232.85
442.50	6108.80
442.68	6270.30
442.87	6162.63
443.05	6349.87
443.24	6403.71
443.43	6188.38
443.61	6310.08
443.80	6560.52
443.98	6286.68
444.17	6408.39
444.35	6420.09
444.54	6658.82
444.73	6597.97
444.91	6394.34
445.10	6420.09
445.28	6260.93
445.47	6296.04
445.65	6310.08
445.84	6520.73
446.02	6513.71
446.21	6478.60
446.39	6548.82
446.58	6785.21
446.77	6665.85
446.95	6284.34
447.14	6726.70
447.32	6815.64
447.51	6644.78
447.69	6619.04
447.88	6750.10
448.06	6806.28
448.25	6581.59
448.43	6768.83
448.62	6731.38
448.80	6630.74
448.99	6771.17
449.17	6895.22
449.36	6665.85
449.54	6918.62
449.73	7040.33
449.91	7059.06
450.10	7173.74
450.28	7185.44
450.46	6974.80
450.65	7098.84
450.83	7035.65
451.02	6944.37
451.20	7215.87
451.39	7220.55
451.57	7227.57
451.76	7033.31
451.94	7159.70
452.13	7248.64
452.31	7283.75
452.49	6977.14
452.68	7155.02
452.86	7180.76
453.05	7225.23
453.23	7295.45
453.42	7344.60
453.60	7304.81
453.78	7368.01
453.97	7487.37
454.15	7323.54
454.34	7332.90
454.52	7513.12
454.70	7461.63
454.89	7424.18
455.07	7475.67
455.26	7679.30
455.44	7672.28
455.62	7606.74
455.81	7784.62
455.99	7683.98
456.17	7595.04
456.36	7602.06
456.54	7791.64
456.73	7995.27
456.91	7953.14
457.09	7943.78
457.28	8360.39
457.46	7899.31
457.64	8166.13
457.83	7918.03
458.01	7847.82
458.19	8098.25
458.38	8107.62
458.56	8011.65
458.74	8107.62
458.93	8121.66
459.11	8311.24
459.29	8255.07
459.48	8116.98
459.66	8346.35
459.84	8402.52
460.03	8393.16
460.21	8461.04
460.39	8369.76
460.57	8372.10
460.76	8610.83
460.94	8477.42
461.12	8510.19
461.31	8592.11
461.49	8636.58
461.67	8613.17
461.85	9184.26
462.04	8968.93
462.22	9212.35
462.40	9039.15
462.59	8872.97
462.77	8936.17
462.95	8671.68
463.13	8716.16
463.32	8933.82
463.50	8938.51
463.68	8994.68
463.86	8950.21
464.05	8692.75
464.23	9001.70
464.41	8929.14
464.59	8641.26
464.78	9114.05
464.96	8950.21
465.14	8931.48
465.32	9064.89
465.50	9233.41
465.69	9217.03
465.87	8990.00
466.05	9128.09
466.23	9050.85
466.41	9057.87
466.60	9210.01
466.78	9205.33
466.96	9097.66
467.14	9219.37
467.32	9263.84
467.51	9397.25
467.69	9224.05
467.87	9394.91
468.05	9380.87
468.23	9298.95
468.41	9446.40
468.60	9540.02
468.78	9607.90
468.96	9434.70
469.14	9738.97
469.32	9661.73
469.50	9444.06
469.69	9734.29
469.87	9809.19
470.05	9851.31
470.23	9792.80
470.41	9692.16
470.59	9713.22
470.77	9762.37
470.95	9935.57
471.14	10031.54
471.32	9963.66
471.50	9954.30
471.68	10094.73
471.86	10218.78
472.04	10340.49
472.22	10670.50
472.40	10174.31
472.58	10384.96
472.77	10338.15
472.95	10572.20
473.13	10693.91
473.31	10352.19
473.49	10569.86
473.67	10324.10
473.85	10338.15
474.03	10778.17
474.21	10913.92
474.39	10820.30
474.57	10635.39
474.75	11073.07
474.93	11398.41
475.12	11035.63
475.30	11435.86
475.48	11325.85
475.66	11023.92
475.84	11248.61
476.02	11309.47
476.20	11250.96
476.38	11501.39
476.56	11995.25
476.74	11918.01
476.92	11583.31
477.10	11660.55
477.28	12072.48
477.46	12107.59
477.64	12084.19
477.82	12329.94
478.00	12393.14
478.18	12292.49
478.36	12306.54
478.54	12421.22
478.72	12510.16
478.90	12702.09
479.08	12919.76
479.26	12896.35
479.44	12861.24
479.62	13331.69
479.80	12922.10
479.98	13245.09
480.16	13481.49
480.34	13437.02
480.52	13736.60
480.70	13612.56
480.88	13434.68
481.06	13795.12
481.24	13713.20
481.41	14080.66
481.59	14286.63
481.77	14415.36
481.95	14307.69
482.13	14516.00
482.31	14417.70
482.49	14817.93
482.67	15059.01
482.85	14923.26
483.03	14754.74
483.21	15005.17
483.39	15133.90
483.57	15131.56
483.74	15583.29
483.92	15417.11
484.10	15227.53
484.28	15824.36
484.46	16226.93
484.64	16407.16
484.82	15798.62
485.00	16287.79
485.18	16145.02
485.35	16556.95
485.53	16130.97
485.71	16208.21
485.89	15985.86
486.07	16327.58
486.25	16388.43
486.43	16718.45
486.61	16809.73
486.78	17130.38
486.96	17022.72
487.14	17429.97
487.32	17657.00
487.50	17722.54
487.68	17778.71
487.85	18157.88
488.03	18192.98
488.21	18450.44
488.39	18272.56
488.57	18487.89
488.75	18710.24
488.92	19185.37
489.10	19150.26
489.28	19166.65
489.46	19648.80
489.64	19349.21
489.81	20175.42
489.99	20135.63
490.17	20119.24
490.35	20219.89
490.53	20322.87
490.70	20081.80
490.88	20252.66
491.06	20524.16
491.24	20624.80
491.41	20507.77
491.59	20800.34
491.77	20673.95
491.95	20645.87
492.13	21165.46
492.30	21053.12
492.48	21338.66
492.66	21582.08
492.84	21806.77
493.01	21874.65
493.19	22059.55
493.37	22387.22
493.54	22389.56
493.72	22544.04
493.90	22686.81
494.08	22537.02
494.25	22850.65
494.43	22834.27
494.61	23159.60
494.79	23056.62
494.96	22974.70
495.14	23227.48
495.32	23531.75
495.49	23828.99
495.67	23550.47
495.85	23875.80
496.02	24060.71
496.20	24353.27
496.38	24016.24
496.55	24147.31
496.73	24875.21
496.91	24697.33
497.09	24694.99
497.26	25046.07
497.44	24809.68
497.62	24905.64
497.79	24774.57
497.97	25025.01
498.14	25137.35
498.32	25497.80
498.50	25380.77
498.67	25727.17
498.85	26061.87
499.03	25722.49
499.20	25743.55
499.38	25956.54
499.56	26132.08
499.73	26429.33
499.91	26513.59
500.08	26630.62
500.26	26038.46
500.44	26719.56
500.61	26562.74
500.79	26384.86
500.97	26623.59
501.14	26761.69
501.32	26806.16
501.49	27124.47
501.67	27021.48
501.84	26841.26
502.02	27796.20
502.20	27461.51
502.37	27424.06
502.55	27520.02
502.72	27796.20
502.90	27716.62
503.07	27733.01
503.25	27875.78
503.43	27564.49
503.60	28030.26
503.78	27892.16
503.95	28149.62
504.13	28273.67
504.30	28556.88
504.48	28474.96
504.65	28666.88
504.83	28783.91
505.01	28999.24
505.18	28545.17
505.36	29193.50
505.53	29186.48
505.71	29455.64
505.88	29305.85
506.06	29282.44
506.23	29436.92
506.41	29380.74
506.58	29289.46
506.76	29469.69
506.93	29893.32
507.11	29834.81
507.28	29589.05
507.46	29954.18
507.63	29816.08
507.81	30085.25
507.98	30052.48
508.16	30122.69
508.33	30366.11
508.50	30593.14
508.68	30621.23
508.85	30698.47
509.03	30984.01
509.20	31105.72
509.38	31143.17
509.55	31037.84
509.73	31527.02
509.90	31285.94
510.08	31138.49
510.25	31433.39
510.42	31447.44
510.60	31578.51
510.77	31681.49
510.95	31885.12
511.12	31562.12
511.30	31882.78
511.47	32058.32
511.64	32238.54
511.82	32311.10
511.99	32208.11
512.17	32011.51
512.34	31786.82
512.51	32360.25
512.69	32275.99
512.86	32716.01
513.04	32652.81
513.21	32849.42
513.38	32510.04
513.56	32374.29
513.73	32587.28
513.90	32446.85
514.08	32741.75
514.25	33200.50
514.43	32716.01
514.60	32954.74
514.77	32643.45
514.95	33282.42
515.12	33301.14
515.29	33408.81
515.47	33645.20
515.64	33865.21
515.81	33778.61
515.99	33542.22
516.16	33479.02
516.33	33378.38
516.51	33832.44
516.68	33111.56
516.85	33202.84
517.03	33460.30
517.20	34007.98
517.37	34047.77
517.54	34511.20
517.72	34139.05
517.89	33390.08
518.06	33802.02
518.24	34190.55
518.41	34202.25
518.58	34412.90
518.75	34017.35
518.93	34618.86
519.10	34562.69
519.27	34827.17
519.45	34881.00
519.62	35316.34
519.79	35115.06
519.96	35140.80
520.14	35096.33
520.31	34890.37
520.48	35222.72
520.65	35398.26
520.83	36041.91
521.00	35796.15
521.17	35402.94
521.34	35821.90
521.52	35882.75
521.69	36205.75
521.86	36203.41
522.03	35683.81
522.20	35924.88
522.38	36109.78
522.55	36549.81
522.72	36130.85
522.89	36591.94
523.07	36128.51
523.24	36058.29
523.41	36790.88
523.58	36580.23
523.75	37191.11
523.92	36914.93
524.10	37090.47
524.27	36856.42
524.44	37111.53
524.61	37378.36
524.78	37254.31
524.96	36975.78
525.13	37287.07
525.30	37479.00
525.47	37420.48
525.64	37441.55
525.81	37053.02
525.98	37677.94
526.16	37148.98
526.33	37111.53
526.50	37703.69
526.67	36938.33
526.84	36849.39
527.01	37090.47
527.18	37462.61
527.36	37764.54
527.53	37942.42
527.70	38143.71
527.87	38223.29
528.04	37848.80
528.21	38237.33
528.38	38326.27
528.55	38815.44
528.72	38314.57
528.89	38747.57
529.07	38698.42
529.24	38253.72
529.41	38356.70
529.58	38808.42
529.75	38590.75
529.92	38602.46
530.09	38642.24
530.26	38895.02
530.43	38724.16
530.60	38529.90
530.77	38979.28
530.94	39503.56
531.11	39182.91
531.28	38686.71
531.46	39351.43
531.63	39131.42
531.80	39306.96
531.97	39063.54
532.14	39079.92
532.31	38866.94
532.48	38925.45
532.65	39423.98
532.82	39578.46
532.99	39225.04
533.16	39138.44
533.33	39548.03
533.50	39679.10
533.67	39395.90
533.84	39676.76
534.01	39878.05
534.18	39700.17
534.35	40142.53
534.52	39885.07
534.69	40025.50
534.86	39957.63
535.03	39955.29
535.20	40247.85
535.37	40734.68
535.54	40840.01
535.71	40711.28
535.88	40442.12
536.05	40350.84
536.22	40517.01
536.38	40605.95
536.55	40098.06
536.72	40390.62
536.89	40467.86
537.06	40605.95
537.23	40914.90
537.40	40788.52
537.57	40884.48
537.74	40966.40
537.91	41163.00
538.08	41062.36
538.25	40631.70
538.42	41195.77
538.59	41216.83
538.75	41038.95
538.92	40935.97
539.09	41326.84
539.26	41448.55
539.43	41359.61
539.60	40973.42
539.77	41254.28
539.94	41048.32
540.11	41237.90
540.28	41387.69
540.44	41528.13
540.61	41200.45
540.78	40903.20
540.95	41476.63
541.12	41130.23
541.29	41226.20
541.46	41684.94
541.62	41453.23
541.79	42005.59
541.96	40980.44
542.13	41652.17
542.30	41523.44
542.47	41673.24
542.63	41816.01
542.80	41518.76
542.97	42412.85
543.14	42717.12
543.31	42213.90
543.48	42366.04
543.64	42876.27
543.81	42595.41
543.98	42799.04
544.15	42464.34
544.32	42719.46
544.48	42848.19
544.65	42562.64
544.82	42714.78
544.99	42389.44
545.16	42082.83
545.32	42153.05
545.49	43222.67
545.66	43480.13
545.83	42712.44
546.00	43021.39
546.16	42586.05
546.33	42773.29
546.50	42581.37
546.67	43194.59
546.83	42574.34
547.00	43140.75
547.17	42899.68
547.34	42871.59
547.50	43037.77
547.67	43428.64
547.84	43428.64
548.00	43421.62
548.17	43473.11
548.34	43239.06
548.51	43746.95
548.67	43473.11
548.84	43320.98
549.01	43585.46
549.18	43419.28
549.34	43236.72
549.51	43845.26
549.68	43852.28
549.84	43955.26
550.01	43779.72
550.18	43531.62
550.34	43423.96
550.51	43845.26
550.68	43863.98
550.84	43042.45
551.01	43578.43
551.18	43920.15
551.34	44004.41
551.51	44126.12
551.68	44114.42
551.84	43730.57
552.01	43793.76
552.18	44264.21
552.34	43761.00
552.51	44165.91
552.68	43807.81
552.84	43997.39
553.01	44212.72
553.18	44102.71
553.34	44030.16
553.51	44421.03
553.67	43976.33
553.84	44275.91
554.01	44690.19
554.17	44383.58
554.34	44584.86
554.51	44542.74
554.67	44786.15
554.84	44135.48
555.00	44266.55
555.17	44107.40
555.33	44388.26
555.50	44746.36
555.67	44617.63
555.83	44641.04
556.00	45003.82
556.16	45326.81
556.33	44390.60
556.50	44399.96
556.66	44538.05
556.83	44659.76
556.99	44268.89
557.16	44982.76
557.32	45223.83
557.49	44830.62
557.65	44910.20
557.82	44982.76
557.98	45020.20
558.15	44828.28
558.32	44898.50
558.48	44666.78
558.65	44542.74
558.81	44460.82
558.98	44940.63
559.14	44535.71
559.31	44737.00
559.47	44821.26
559.64	44762.75
559.80	44921.90
559.97	44856.37
560.13	44275.91
560.30	45078.72
560.46	45237.87
560.63	45205.11
560.79	45382.99
560.96	45010.84
561.12	44729.98
561.29	44975.73
561.45	44638.70
561.61	45139.57
561.78	45631.08
561.94	45001.48
562.11	44872.75
562.27	45261.28
562.44	45130.21
562.60	45415.76
562.77	45209.79
562.93	45162.98
563.10	45287.03
563.26	45076.38
563.42	45570.23
563.59	45282.34
563.75	45378.31
563.92	45705.98
564.08	44992.12
564.24	45603.00
564.41	45598.32
564.57	45134.89
564.74	45076.38
564.90	45134.89
565.07	45563.21
565.23	45595.98
565.39	45181.70
565.56	45347.88
565.72	45158.30
565.88	45471.93
566.05	45165.32
566.21	45216.81
566.38	45411.07
566.54	45521.08
566.70	45937.69
566.87	45825.35
567.03	45649.81
567.19	45872.16
567.36	45940.04
567.52	45675.55
567.68	45696.62
567.85	45705.98
568.01	45638.11
568.17	45322.13
568.34	45897.91
568.50	45549.17
568.66	45432.14
568.83	45024.89
568.99	45296.39
569.15	45432.14
569.32	45317.45
569.48	45375.97
569.64	45694.28
569.81	45708.32
569.97	45090.42
570.13	45397.03
570.30	45366.60
570.46	45298.73
570.62	45275.32
570.78	45034.25
570.95	45308.09
571.11	45268.30
571.27	45284.68
571.43	45617.04
571.60	45832.37
571.76	45329.16
571.92	45902.59
572.09	45638.11
572.25	45572.57
572.41	45556.19
572.57	45745.77
572.74	46464.32
572.90	45731.73
573.06	45993.87
573.22	46092.17
573.38	45614.70
573.55	45544.48
573.71	46000.89
573.87	45862.80
574.03	45755.13
574.20	45652.15
574.36	45827.69
574.52	45876.84
574.68	45635.77
574.84	45642.79
575.01	45811.31
575.17	45827.69
575.33	45914.29
575.49	45762.15
575.65	46026.63
575.82	46143.66
575.98	45684.92
576.14	45841.73
576.30	45837.05
576.46	45752.79
576.62	45418.10
576.79	45551.51
576.95	45677.90
577.11	45907.27
577.27	46202.18
577.43	45308.09
577.59	45528.10
577.75	45340.86
577.92	45624.06
578.08	45329.16
578.24	45261.28
578.40	45839.39
578.56	45801.94
578.72	45785.56
578.88	45958.76
579.04	45930.67
579.21	45876.84
579.37	45289.37
579.53	45638.11
579.69	45549.17
579.85	45914.29
580.01	45865.14
580.17	45977.48
580.33	45961.10
580.49	45911.95
580.65	45684.92
580.82	45888.54
580.98	45727.05
581.14	45488.31
581.30	45652.15
581.46	46012.59
581.62	46019.61
581.78	45640.45
581.94	46124.94
582.10	45689.60
582.26	46281.75
582.42	45593.64
582.58	45982.16
582.74	45591.30
582.90	45663.85
583.06	45879.18
583.22	45996.21
583.38	45949.40
583.54	46494.74
583.70	45830.03
583.86	45830.03
584.02	45455.54
584.18	45972.80
584.34	45951.74
584.50	46120.26
584.66	46197.49
584.82	45876.84
584.98	46146.00
585.14	45855.78
585.30	45729.39
585.46	45837.05
585.62	45127.87
585.78	45904.93
585.94	45640.45
586.10	45642.79
586.26	46052.38
586.42	45925.99
586.58	46153.02
586.74	46190.47
586.90	46094.51
587.06	45638.11
587.22	45675.55
587.38	45804.28
587.54	45778.54
587.70	46157.70
587.86	45652.15
588.02	45895.56
588.18	46087.49
588.34	45694.28
588.49	45528.10
588.65	44978.07
588.81	45401.71
588.97	45581.93
589.13	45378.31
589.29	45242.56
589.45	45556.19
589.61	46115.58
589.77	46237.28
589.93	45925.99
590.08	45701.30
