SpectraSuite Data File
++++++++++++++++++++++++++++++++++++
Date: Fri Oct 25 11:23:02 EDT 2013
User: price-jones
Dark Spectrum Present: No
Reference Spectrum Present: No
Number of Sampled Component Spectra: 1
Spectrometers: USB2+H05261
Integration Time (usec): 100000 (USB2+H05261)
Spectra Averaged: 1 (USB2+H05261)
Boxcar Smoothing: 0 (USB2+H05261)
Correct for Electrical Dark: No (USB2+H05261)
Strobe/Lamp Enabled: No (USB2+H05261)
Correct for Detector Non-linearity: No (USB2+H05261)
Correct for Stray Light: No (USB2+H05261)
Number of Pixels in Processed Spectrum: 2048
>>>>>Begin Processed Spectral Data<<<<<
365.73	257.46
365.92	257.46
366.12	257.46
366.32	156.82
366.52	156.82
366.72	142.77
366.91	93.62
367.11	100.64
367.31	154.48
367.51	152.13
367.70	140.43
367.90	154.48
368.10	119.37
368.30	163.84
368.49	149.79
368.69	117.03
368.89	60.85
369.09	95.96
369.28	170.86
369.48	154.48
369.68	154.48
369.87	107.66
370.07	198.95
370.27	224.69
370.47	264.48
370.66	559.39
370.86	629.60
371.06	720.88
371.25	704.50
371.45	578.11
371.65	648.33
371.84	709.18
372.04	685.78
372.24	739.61
372.44	645.99
372.63	781.74
372.83	739.61
373.03	699.82
373.22	748.97
373.42	758.33
373.62	758.33
373.81	741.95
374.01	830.89
374.21	779.40
374.40	793.44
374.60	861.32
374.79	854.30
374.99	854.30
375.19	805.14
375.38	840.25
375.58	866.00
375.78	875.36
375.97	809.83
376.17	854.30
376.37	755.99
376.56	830.89
376.76	856.64
376.95	861.32
377.15	828.55
377.35	905.79
377.54	896.43
377.74	947.92
377.93	910.47
378.13	894.08
378.33	943.24
378.52	847.27
378.72	947.92
378.91	959.62
379.11	884.72
379.31	1036.86
379.50	898.77
379.70	978.34
379.89	1043.88
380.09	898.77
380.28	931.53
380.48	976.00
380.68	1011.11
380.87	1008.77
381.07	945.58
381.26	1034.52
381.46	994.73
381.65	980.68
381.85	1015.79
382.04	1114.10
382.24	1125.80
382.43	950.26
382.63	1097.71
382.83	1109.41
383.02	1053.24
383.22	1090.69
383.41	1055.58
383.61	1015.79
383.80	1149.20
384.00	980.68
384.19	1123.46
384.39	1177.29
384.58	1149.20
384.78	1177.29
384.97	1193.67
385.17	1100.05
385.36	1062.60
385.56	1118.78
385.75	1123.46
385.95	1233.46
386.14	1137.50
386.34	1188.99
386.53	1228.78
386.72	1184.31
386.92	1191.33
387.11	1167.93
387.31	1235.80
387.50	1277.93
387.70	1179.63
387.89	1156.22
388.09	1299.00
388.28	1200.69
388.48	1219.42
388.67	1254.53
388.86	1313.04
389.06	1275.59
389.25	1313.04
389.45	1348.15
389.64	1366.87
389.84	1343.47
390.03	1385.60
390.22	1294.32
390.42	1376.24
390.61	1350.49
390.81	1476.88
391.00	1430.07
391.19	1439.43
391.39	1418.36
391.58	1493.26
391.78	1502.62
391.97	1446.45
392.16	1481.56
392.36	1404.32
392.55	1490.92
392.75	1537.73
392.94	1586.88
393.13	1504.96
393.33	1483.90
393.52	1575.18
393.71	1614.97
393.91	1504.96
394.10	1540.07
394.29	1643.06
394.49	1535.39
394.68	1598.59
394.88	1638.38
395.07	1659.44
395.26	1701.57
395.46	1741.36
395.65	1652.42
395.84	1645.40
396.04	1767.10
396.23	1689.87
396.42	1703.91
396.62	1809.23
396.81	1722.63
397.00	1668.80
397.19	1851.36
397.39	1806.89
397.58	1919.24
397.77	1748.38
397.97	1895.83
398.16	1837.32
398.35	1921.58
398.55	1865.41
398.74	1905.20
398.93	1928.60
399.12	1898.17
399.32	1937.96
399.51	1991.80
399.70	1905.20
399.90	1987.11
400.09	2090.10
400.28	2036.27
400.47	1996.48
400.67	2104.14
400.86	1968.39
401.05	1937.96
401.24	2136.91
401.44	2181.38
401.63	2160.31
401.82	2136.91
402.01	2122.87
402.21	2115.84
402.40	2216.49
402.59	2136.91
402.78	2165.00
402.97	2279.68
403.17	2340.54
403.36	2310.11
403.55	2298.41
403.74	2298.41
403.93	2448.20
404.13	2324.15
404.32	2356.92
404.51	2298.41
404.70	2368.62
404.89	2427.14
405.09	2408.41
405.28	2377.98
405.47	2476.29
405.66	2417.77
405.85	2558.21
406.05	2530.12
406.24	2525.44
406.43	2619.06
406.62	2614.38
406.81	2698.64
407.00	2506.71
407.20	2581.61
407.39	2708.00
407.58	2747.79
407.77	2808.64
407.96	2736.09
408.15	2789.92
408.34	2663.53
408.54	2745.45
408.73	2780.56
408.92	2813.32
409.11	2963.12
409.30	2860.13
409.49	2963.12
409.68	3016.95
409.87	2897.58
410.07	2967.80
410.26	2902.26
410.45	3094.19
410.64	2960.78
410.83	3002.91
411.02	3077.80
411.21	3164.40
411.40	3089.51
411.59	3180.79
411.78	3187.81
411.98	3281.43
412.17	3281.43
412.36	3314.20
412.55	3428.88
412.74	3473.36
412.93	3478.04
413.12	3478.04
413.31	3517.83
413.50	3536.55
413.69	3522.51
413.88	3660.60
414.07	3630.17
414.26	3784.65
414.45	3763.58
414.64	3578.68
414.83	3681.66
415.02	3889.97
415.22	3770.60
415.41	3976.57
415.60	3880.61
415.79	3911.04
415.98	4058.49
416.17	4086.58
416.36	4093.60
416.55	4016.36
416.74	4095.94
416.93	4072.53
417.12	4234.03
417.31	4086.58
417.50	4285.52
417.69	4191.90
417.88	4486.81
418.07	4304.25
418.26	4294.88
418.45	4341.69
418.64	4395.53
418.83	4540.64
419.02	4447.02
419.21	4559.36
419.39	4507.87
419.58	4615.54
419.77	4468.08
419.96	4493.83
420.15	4622.56
420.34	4629.58
420.53	4664.69
420.72	4634.26
420.91	4568.73
421.10	4655.33
421.29	4791.08
421.48	4676.39
421.67	4615.54
421.86	4774.69
422.05	4676.39
422.24	4896.40
422.43	4889.38
422.61	4901.08
422.80	4947.89
422.99	5013.43
423.18	4793.42
423.37	5081.30
423.56	4985.34
423.75	4910.44
423.94	4980.66
424.13	4800.44
424.32	4919.81
424.50	4983.00
424.69	5254.50
424.88	5078.96
425.07	4980.66
425.26	4877.68
425.45	4964.28
425.64	5018.11
425.83	4987.68
426.01	5001.72
426.20	4978.32
426.39	5020.45
426.58	5111.73
426.77	5097.69
426.96	5259.18
427.15	5027.47
427.33	5184.29
427.52	5018.11
427.71	5256.84
427.90	5172.58
428.09	5277.91
428.28	5476.85
428.46	5341.10
428.65	5408.98
428.84	5493.24
429.03	5406.64
429.22	5397.28
429.40	5392.59
429.59	5607.92
429.78	5359.83
429.97	5521.32
430.16	5500.26
430.34	5628.99
430.53	5736.65
430.72	5701.54
430.91	5636.01
431.10	5579.84
431.28	5715.59
431.47	5778.78
431.66	5827.93
431.85	5823.25
432.03	6012.84
432.22	6015.18
432.41	5916.87
432.60	5996.45
432.79	5989.43
432.97	6094.76
433.16	6036.24
433.35	6153.27
433.54	6167.31
433.72	6080.71
433.91	6139.23
434.10	6408.39
434.28	6263.27
434.47	6225.82
434.66	6160.29
434.85	6232.85
435.03	6422.43
435.22	6118.16
435.41	6572.22
435.59	6604.99
435.78	6415.41
435.97	6558.18
436.16	6466.90
436.34	6502.01
436.53	6558.18
436.72	6874.15
436.90	6640.10
437.09	6553.50
437.28	6455.20
437.46	6511.37
437.65	6876.49
437.84	6789.89
438.02	6850.75
438.21	6794.58
438.40	6775.85
438.58	7148.00
438.77	7185.44
438.96	6960.75
439.14	7042.67
439.33	7260.34
439.52	7218.21
439.70	7218.21
439.89	7365.67
440.08	7384.39
440.26	7571.63
440.45	7330.56
440.63	7487.37
440.82	7716.75
441.01	7674.62
441.19	7789.30
441.38	7674.62
441.57	7796.32
441.75	7805.69
441.94	7957.82
442.12	7943.78
442.31	8051.44
442.50	8140.38
442.68	7927.39
442.87	8100.59
443.05	8154.43
443.24	8159.11
443.43	8203.58
443.61	8187.19
443.80	8664.66
443.98	8091.23
444.17	8037.40
444.35	8353.37
444.54	8383.80
444.73	8386.14
444.91	8236.35
445.10	8416.57
445.28	8355.71
445.47	8257.41
445.65	8386.14
445.84	8472.74
446.02	8528.91
446.21	8620.19
446.39	8336.99
446.58	8461.04
446.77	8554.66
446.95	8269.11
447.14	8402.52
447.32	8620.19
447.51	8531.25
447.69	8571.04
447.88	8634.24
448.06	8498.49
448.25	8610.83
448.43	8493.80
448.62	8564.02
448.80	8451.67
448.99	8821.48
449.17	8875.31
449.36	8674.03
449.54	8901.06
449.73	9085.96
449.91	9013.40
450.10	8961.91
450.28	9261.50
450.46	9191.28
450.65	9151.49
450.83	9081.28
451.02	9004.04
451.20	9062.55
451.39	9394.91
451.57	9008.72
451.76	8898.72
451.94	9298.95
452.13	9394.91
452.31	9568.11
452.49	9144.47
452.68	9256.82
452.86	9383.21
453.05	9689.82
453.23	9675.77
453.42	9277.88
453.60	9418.32
453.78	9603.22
453.97	9664.07
454.15	9607.90
454.34	9596.20
454.52	9785.78
454.70	9799.82
454.89	9788.12
455.07	9785.78
455.26	9851.31
455.44	9975.36
455.62	9905.15
455.81	9926.21
455.99	9963.66
456.17	10115.80
456.36	9970.68
456.54	10050.26
456.73	10251.55
456.91	10682.20
457.09	10574.54
457.28	10616.67
457.46	10356.87
457.64	10459.85
457.83	10611.99
458.01	10326.44
458.19	10843.70
458.38	10661.14
458.56	10560.50
458.74	10740.72
458.93	10817.96
459.11	10803.91
459.29	10707.95
459.48	10881.15
459.66	10733.70
459.84	11005.20
460.03	10827.32
460.21	11052.01
460.39	11169.04
460.57	11129.25
460.76	11049.67
460.94	11365.64
461.12	11290.74
461.31	11360.96
461.49	11365.64
461.67	11375.00
461.85	11307.13
462.04	11365.64
462.22	11634.80
462.40	11796.30
462.59	11634.80
462.77	11468.62
462.95	11763.53
463.13	11964.82
463.32	11716.72
463.50	11817.36
463.68	12058.44
463.86	11964.82
464.05	11913.33
464.23	11845.45
464.41	11796.30
464.59	11623.10
464.78	12390.80
464.96	11833.75
465.14	11789.28
465.32	12042.06
465.50	12133.34
465.69	12341.64
465.87	12287.81
466.05	12243.34
466.23	12205.89
466.41	12313.56
466.60	12475.06
466.78	12283.13
466.96	12442.29
467.14	12545.27
467.32	12402.50
467.51	12484.42
467.69	12250.36
467.87	12451.65
468.05	12774.64
468.23	12674.00
468.41	12463.35
468.60	12819.11
468.78	12919.76
468.96	12571.02
469.14	12812.09
469.32	13149.13
469.50	12875.29
469.69	13144.45
469.87	12919.76
470.05	13025.08
470.23	13062.53
470.41	13233.39
470.59	13537.66
470.77	12905.71
470.95	13172.54
471.14	13547.02
471.32	13378.50
471.50	13490.85
471.68	13701.50
471.86	13675.75
472.04	13944.91
472.22	14083.00
472.40	13757.67
472.58	13874.70
472.77	14239.82
472.95	14298.33
473.13	14757.08
473.31	14080.66
473.49	14223.44
473.67	14106.41
473.85	14466.85
474.03	14827.29
474.21	14672.82
474.39	14862.40
474.57	14724.31
474.75	15129.22
474.93	14920.92
475.12	15159.65
475.30	14958.36
475.48	15161.99
475.66	15241.57
475.84	15337.53
476.02	15566.90
476.20	15349.23
476.38	15763.51
476.56	15953.09
476.74	16102.89
476.92	15857.13
477.10	16074.80
477.28	16442.26
477.46	16079.48
477.64	16524.18
477.82	16648.23
478.00	17125.70
478.18	16917.39
478.36	17240.39
478.54	17338.69
478.72	17338.69
478.90	17338.69
479.08	17949.57
479.26	17755.30
479.44	17832.54
479.62	18008.08
479.80	17968.29
479.98	18209.37
480.16	18593.22
480.34	18438.74
480.52	18672.79
480.70	18874.08
480.88	18342.78
481.06	19089.41
481.24	19091.75
481.41	19129.20
481.59	19386.66
481.77	19601.99
481.95	19576.24
482.13	20006.90
482.31	19721.35
482.49	20573.31
482.67	20269.04
482.85	20606.08
483.03	20610.76
483.21	21032.05
483.39	21184.19
483.57	20922.05
483.74	21394.84
483.92	21432.29
484.10	21401.86
484.28	21979.97
484.46	21886.35
484.64	22279.56
484.82	22141.47
485.00	22506.59
485.18	22904.48
485.35	23021.51
485.53	23096.41
485.71	23082.36
485.89	23456.85
486.07	23484.94
486.25	23569.19
486.43	23768.14
486.61	24063.05
486.78	24163.69
486.96	24290.08
487.14	24774.57
487.32	24797.98
487.50	25181.82
487.68	25247.36
487.85	25125.65
488.03	25853.56
488.21	26141.44
488.39	25820.79
488.57	26206.98
488.75	26312.30
488.92	26595.51
489.10	26862.33
489.28	26794.45
489.46	27513.00
489.64	27335.12
489.81	27702.58
489.99	28041.96
490.17	27723.65
490.35	28444.53
490.53	28126.22
490.70	28566.24
490.88	28568.58
491.06	29467.34
491.24	29198.18
491.41	29132.65
491.59	29575.01
491.77	29460.32
491.95	29734.17
492.13	30216.32
492.30	30176.53
492.48	30195.25
492.66	30558.03
492.84	30543.99
493.01	31119.76
493.19	31108.06
493.37	31704.90
493.54	31686.17
493.72	31854.69
493.90	31594.89
494.08	31730.64
494.25	32247.90
494.43	32112.15
494.61	32130.87
494.79	33001.55
494.96	33001.55
495.14	33125.60
495.32	33305.82
495.49	33392.42
495.67	33582.01
495.85	33387.74
496.02	33734.14
496.20	34249.06
496.38	34309.91
496.55	34363.75
496.73	35269.53
496.91	35058.88
497.09	35110.38
497.26	35386.56
497.44	35147.82
497.62	35880.41
497.79	36065.31
497.97	35442.73
498.14	36278.30
498.32	36465.55
498.50	36495.97
498.67	36641.09
498.85	36140.21
499.03	37471.98
499.20	37153.66
499.38	36985.15
499.56	37013.23
499.73	37261.33
499.91	37476.66
500.08	38022.00
500.26	37387.72
500.44	38022.00
500.61	38071.15
500.79	38190.52
500.97	38333.29
501.14	38902.04
501.32	38422.23
501.49	39000.35
501.67	38836.51
501.84	39442.71
502.02	39491.86
502.20	39192.27
502.37	39814.85
502.55	39323.34
502.72	39622.93
502.90	40039.54
503.07	39875.71
503.25	40526.38
503.43	40060.61
503.60	40570.85
503.78	40428.07
503.95	40669.15
504.13	40505.31
504.30	40610.64
504.48	40800.22
504.65	41308.11
504.83	41350.24
505.01	41890.91
505.18	41617.07
505.36	41684.94
505.53	41317.48
505.71	42033.68
505.88	42267.73
506.06	41549.19
506.23	42700.73
506.41	42342.63
506.58	42431.57
506.76	42438.59
506.93	42602.43
507.11	42209.22
507.28	42979.26
507.46	42686.69
507.63	42974.58
507.81	43283.53
507.98	43173.52
508.16	43358.42
508.33	43742.27
508.50	43814.83
508.68	43826.53
508.85	44072.29
509.03	43796.10
509.20	44203.36
509.38	44683.17
509.55	45022.54
509.73	44758.06
509.90	44945.31
510.08	44697.21
510.25	44968.71
510.42	44987.44
510.60	44823.60
510.77	45153.62
510.95	45661.51
511.12	45677.90
511.30	45380.65
511.47	45888.54
511.64	46052.38
511.82	46036.00
511.99	45972.80
512.17	46712.41
512.34	46075.79
512.51	46726.46
512.69	46770.93
512.86	46873.91
513.04	47124.35
513.21	46618.79
513.38	47133.71
513.56	47384.15
513.73	47168.82
513.90	47292.86
514.08	47334.99
514.25	47683.73
514.43	47477.77
514.60	47470.75
514.77	47545.64
514.95	48299.30
515.12	48189.29
515.29	47646.29
515.47	48142.48
515.64	48814.21
515.81	48435.05
515.99	48739.32
516.16	48755.70
516.33	48804.85
516.51	48863.36
516.68	48828.26
516.85	48910.17
517.03	49048.27
517.20	49052.95
517.37	49315.09
517.54	49432.11
517.72	49415.73
517.89	49102.10
518.06	49464.88
518.24	49382.96
518.41	49322.11
518.58	50031.29
518.75	49780.85
518.93	49815.96
519.10	49724.68
519.27	50157.68
519.45	50080.44
519.62	50368.33
519.79	50401.10
519.96	50204.49
520.14	50232.58
520.31	50342.58
520.48	50923.04
520.65	50562.59
520.83	51061.13
521.00	51175.81
521.17	50911.33
521.34	50808.35
521.52	51302.20
521.69	51341.99
521.86	51210.92
522.03	51428.59
522.20	51721.16
522.38	51735.20
522.55	51700.09
522.72	51620.52
522.89	51695.41
523.07	52154.16
523.24	51657.96
523.41	52147.14
523.58	51721.16
523.75	52184.58
523.92	52002.02
524.10	52226.71
524.27	52303.95
524.44	52425.66
524.61	52498.22
524.78	52500.56
524.96	52694.82
525.13	52694.82
525.30	52708.86
525.47	53024.84
525.64	52898.45
525.81	52739.29
525.98	52940.58
526.16	52802.49
526.33	52708.86
526.50	53291.66
526.67	53113.78
526.84	53165.27
527.01	52935.90
527.18	53120.80
527.36	53111.44
527.53	53289.32
527.70	53633.38
527.87	53567.84
528.04	53174.63
528.21	53722.32
528.38	53448.47
528.55	53600.61
528.72	53366.55
528.89	53715.29
529.07	53516.35
529.24	53794.87
529.41	53939.99
529.58	53858.07
529.75	53722.32
529.92	53844.02
530.09	53975.09
530.26	54522.78
530.43	54375.33
530.60	53932.96
530.77	54356.60
530.94	54340.22
531.11	54049.99
531.28	54377.67
531.46	54508.74
531.63	54419.80
531.80	54726.41
531.97	54574.27
532.14	54763.85
532.31	54803.64
532.48	54857.48
532.65	54967.48
532.82	54803.64
532.99	54990.89
533.16	54815.35
533.33	55145.36
533.50	55234.30
533.67	55004.93
533.84	54955.78
534.01	55157.06
534.18	55047.06
534.35	55299.84
534.52	55253.03
534.69	55405.16
534.86	55458.99
535.03	55618.15
535.20	55433.25
535.37	55487.08
535.54	55767.94
535.71	55601.77
535.88	55732.84
536.05	55599.43
536.22	55831.14
536.38	55948.17
536.55	55819.44
536.72	55641.56
536.89	55599.43
537.06	55746.88
537.23	55735.18
537.40	55686.03
537.57	55945.83
537.74	56177.54
537.91	56051.15
538.08	56041.79
538.25	55793.69
538.42	56142.43
538.59	56210.31
538.75	56191.58
538.92	56168.18
539.09	56376.48
539.26	56399.89
539.43	56210.31
539.60	56556.70
539.77	56467.76
539.94	56725.22
540.11	56395.21
540.28	56823.53
540.44	56465.42
540.61	56479.47
540.78	56456.06
540.95	56530.96
541.12	56697.14
541.29	56781.40
541.46	56671.39
541.62	56870.34
541.79	56970.98
541.96	56350.74
542.13	56765.01
542.30	56970.98
542.47	57090.35
542.63	56980.34
542.80	57036.51
542.97	57008.43
543.14	57411.00
543.31	57282.27
543.48	57366.53
543.64	57748.04
543.81	57652.08
543.98	57652.08
544.15	57539.73
544.32	57659.10
544.48	57638.03
544.65	57701.23
544.82	57563.14
544.99	57198.01
545.16	57743.36
545.32	57474.20
545.49	57771.44
545.66	58005.50
545.83	57972.73
546.00	57977.41
546.16	57726.97
546.33	57675.48
546.50	57670.80
546.67	57949.32
546.83	57586.54
547.00	58131.89
547.17	57881.45
547.34	58089.76
547.50	58223.17
547.67	58330.83
547.84	58248.91
548.00	58316.79
548.17	58564.88
548.34	58410.41
548.51	58415.09
548.67	58419.77
548.84	58646.80
549.01	58094.44
549.18	58548.50
549.34	58365.94
549.51	58468.92
549.68	58599.99
549.84	58457.22
550.01	58389.34
550.18	58454.88
550.34	58501.69
550.51	58688.93
550.68	58780.21
550.84	58459.56
551.01	58649.14
551.18	58721.70
551.34	58766.17
551.51	58763.83
551.68	58714.68
551.84	58649.14
552.01	58845.75
552.18	59082.14
552.34	58660.85
552.51	59037.67
552.68	58691.27
552.84	58857.45
553.01	59271.73
553.18	58962.78
553.34	59150.02
553.51	58824.68
553.67	59234.28
553.84	59107.89
554.01	59124.27
554.17	59112.57
554.34	59241.30
554.51	59171.08
554.67	59206.19
554.84	59164.06
555.00	59004.91
555.17	59143.00
555.33	59231.94
555.50	59051.72
555.67	59154.70
555.83	59068.10
556.00	59180.45
556.16	59566.63
556.33	59655.57
556.50	59447.27
556.66	59477.69
556.83	59222.58
556.99	59772.60
557.16	59461.31
557.32	59749.20
557.49	59767.92
557.65	59318.54
557.82	59641.53
557.98	59622.81
558.15	59667.28
558.32	59604.08
558.48	59707.07
558.65	59821.75
558.81	59669.62
558.98	59781.96
559.14	59739.83
559.31	59948.14
559.47	59800.69
559.64	59922.40
559.80	59814.73
559.97	59966.87
560.13	59800.69
560.30	59908.35
560.46	60001.97
560.63	59901.33
560.79	60037.08
560.96	60023.04
561.12	60025.38
561.29	60088.57
561.45	59962.18
561.61	59997.29
561.78	59880.27
561.94	60083.89
562.11	60079.21
562.27	60175.17
562.44	60088.57
562.60	60247.73
562.77	60229.01
562.93	59962.18
563.10	60212.62
563.26	59994.95
563.42	60463.06
563.59	60261.77
563.75	60088.57
563.92	60102.62
564.08	59910.69
564.24	60163.47
564.41	60079.21
564.57	60231.35
564.74	60144.75
564.90	60327.31
565.07	60133.04
565.23	60514.55
565.39	60484.12
565.56	60554.34
565.72	60175.17
565.88	60369.44
566.05	60371.78
566.21	60282.84
566.38	60287.52
566.54	60425.61
566.70	60350.71
566.87	60481.78
567.03	60378.80
567.19	60509.87
567.36	60645.62
567.52	60397.52
567.68	60837.54
567.85	60577.75
568.01	60659.66
568.17	60484.12
568.34	60453.70
568.50	60610.51
568.66	60516.89
568.83	60449.02
568.99	60755.63
569.15	60577.75
569.32	60528.59
569.48	60678.39
569.64	60589.45
569.81	60727.54
569.97	60369.44
570.13	60692.43
570.30	60823.50
570.46	60594.13
570.62	60764.99
570.78	60839.89
570.95	60725.20
571.11	60853.93
571.27	60544.98
571.43	60853.93
571.60	60800.10
571.76	60889.04
571.92	60662.00
572.09	60816.48
572.25	60762.65
572.41	60619.88
572.57	60839.89
572.74	60963.93
572.90	60804.78
573.06	60903.08
573.22	60905.42
573.38	60863.29
573.55	60725.20
573.71	60952.23
573.87	60839.89
574.03	60879.67
574.20	60818.82
574.36	60980.32
574.52	60970.96
574.68	61015.43
574.84	60994.36
575.01	60809.46
575.17	60734.56
575.33	61050.53
575.49	60795.42
575.65	60919.46
575.82	61036.49
575.98	60882.02
576.14	61165.22
576.30	60977.98
576.46	60692.43
576.62	60921.80
576.79	60882.02
576.95	60968.61
577.11	60968.61
577.27	61172.24
577.43	61078.62
577.59	60818.82
577.75	61024.79
577.92	60638.60
578.08	60952.23
578.24	61085.64
578.40	61167.56
578.56	61418.00
578.72	60877.33
578.88	61118.41
579.04	61158.20
579.21	61319.70
579.37	61165.22
579.53	61092.66
579.69	60879.67
579.85	60900.74
580.01	61151.18
580.17	61043.51
580.33	61111.39
580.49	61087.98
580.65	61139.47
580.82	61024.79
580.98	60910.10
581.14	60889.04
581.30	61237.78
581.46	61221.39
581.62	61055.21
581.78	61226.07
581.94	61216.71
582.10	60924.14
582.26	61202.67
582.42	61223.73
582.58	61090.32
582.74	61085.64
582.90	61062.24
583.06	61071.60
583.22	61027.13
583.38	61240.12
583.54	61160.54
583.70	61300.97
583.86	61099.68
584.02	61078.62
584.18	61247.14
584.34	61123.09
584.50	61230.75
584.66	61258.84
584.82	60973.30
584.98	61193.31
585.14	61130.11
585.30	60994.36
585.46	61202.67
585.62	61427.36
585.78	61460.13
585.94	61066.92
586.10	61099.68
586.26	61228.41
586.42	61420.34
586.58	61212.03
586.74	61181.60
586.90	61193.31
587.06	61244.80
587.22	61216.71
587.38	61247.14
587.54	61221.39
587.70	61359.48
587.86	61162.88
588.02	61139.47
588.18	61315.01
588.34	61258.84
588.49	61310.33
