SpectraSuite Data File
++++++++++++++++++++++++++++++++++++
Date: Fri Oct 25 10:44:29 EDT 2013
User: price-jones
Dark Spectrum Present: No
Reference Spectrum Present: No
Number of Sampled Component Spectra: 1
Spectrometers: USB2+H05261
Integration Time (usec): 100000 (USB2+H05261)
Spectra Averaged: 1 (USB2+H05261)
Boxcar Smoothing: 0 (USB2+H05261)
Correct for Electrical Dark: No (USB2+H05261)
Strobe/Lamp Enabled: No (USB2+H05261)
Correct for Detector Non-linearity: No (USB2+H05261)
Correct for Stray Light: No (USB2+H05261)
Number of Pixels in Processed Spectrum: 2048
>>>>>Begin Processed Spectral Data<<<<<
365.73	138.09
365.92	138.09
366.12	138.09
366.32	28.09
366.52	0.00
366.72	32.77
366.91	11.70
367.11	91.28
367.31	7.02
367.51	23.41
367.70	53.83
367.90	51.49
368.10	21.06
368.30	46.81
368.49	18.72
368.69	23.41
368.89	79.58
369.09	44.47
369.28	114.69
369.48	32.77
369.68	56.17
369.87	32.77
370.07	140.43
370.27	163.84
370.47	205.97
370.66	383.85
370.86	379.17
371.06	454.06
371.25	472.79
371.45	407.25
371.65	470.45
371.84	456.40
372.04	433.00
372.24	514.92
372.44	449.38
372.63	557.05
372.83	463.43
373.03	479.81
373.22	500.87
373.42	521.94
373.62	528.96
373.81	507.90
374.01	493.85
374.21	613.22
374.40	589.82
374.60	557.05
374.79	624.92
374.99	538.32
375.19	606.20
375.38	594.50
375.58	580.45
375.78	578.11
375.97	535.98
376.17	650.67
376.37	580.45
376.56	566.41
376.76	550.03
376.95	575.77
377.15	594.50
377.35	695.14
377.54	664.71
377.74	653.01
377.93	631.94
378.13	678.76
378.33	690.46
378.52	702.16
378.72	603.86
378.91	645.99
379.11	620.24
379.31	681.10
379.50	657.69
379.70	653.01
379.89	695.14
380.09	617.90
380.28	631.94
380.48	697.48
380.68	648.33
380.87	727.91
381.07	746.63
381.26	685.78
381.46	727.91
381.65	690.46
381.85	704.50
382.04	704.50
382.24	671.73
382.43	730.25
382.63	711.52
382.83	746.63
383.02	678.76
383.22	788.76
383.41	734.93
383.61	770.04
383.80	725.57
384.00	655.35
384.19	828.55
384.39	791.10
384.58	816.85
384.78	821.53
384.97	847.27
385.17	814.51
385.36	755.99
385.56	858.98
385.75	802.80
385.95	894.08
386.14	781.74
386.34	840.25
386.53	802.80
386.72	812.17
386.92	809.83
387.11	863.66
387.31	877.70
387.50	849.61
387.70	884.72
387.89	903.45
388.09	847.27
388.28	788.76
388.48	929.19
388.67	919.83
388.86	1027.50
389.06	1036.86
389.25	973.66
389.45	954.94
389.64	1001.75
389.84	926.85
390.03	1020.47
390.22	1011.11
390.42	968.98
390.61	926.85
390.81	994.73
391.00	1025.15
391.19	1008.77
391.39	973.66
391.58	1008.77
391.78	1034.52
391.97	1074.31
392.16	1064.94
392.36	1048.56
392.55	1013.45
392.75	1034.52
392.94	994.73
393.13	1041.54
393.33	947.92
393.52	1036.86
393.71	1107.07
393.91	1109.41
394.10	1118.78
394.29	1174.95
394.49	1170.27
394.68	1198.35
394.88	1210.06
395.07	1214.74
395.26	1212.40
395.46	1144.52
395.65	1289.64
395.84	1191.33
396.04	1299.00
396.23	1252.19
396.42	1100.05
396.62	1137.50
396.81	1235.80
397.00	1299.00
397.19	1254.53
397.39	1294.32
397.58	1418.36
397.77	1324.74
397.97	1380.92
398.16	1493.26
398.35	1465.18
398.55	1385.60
398.74	1530.71
398.93	1544.75
399.12	1427.73
399.32	1509.65
399.51	1432.41
399.70	1612.63
399.90	1530.71
400.09	1591.56
400.28	1621.99
400.47	1640.72
400.67	1554.12
400.86	1540.07
401.05	1682.85
401.24	1664.12
401.44	1659.44
401.63	1720.29
401.82	1621.99
402.01	1636.03
402.21	1682.85
402.40	1710.93
402.59	1631.35
402.78	1736.68
402.97	1685.19
403.17	1748.38
403.36	1675.82
403.55	1837.32
403.74	1746.04
403.93	1874.77
404.13	1898.17
404.32	1832.64
404.51	1825.62
404.70	1942.64
404.89	1827.96
405.09	2001.16
405.28	1930.94
405.47	1996.48
405.66	1900.52
405.85	1912.22
406.05	1947.33
406.24	1984.77
406.43	2015.20
406.62	1980.09
406.81	2202.44
407.00	2101.80
407.20	2038.61
407.39	2043.29
407.58	2153.29
407.77	2181.38
407.96	2153.29
408.15	2097.12
408.34	2279.68
408.54	2101.80
408.73	2225.85
408.92	2314.79
409.11	2333.51
409.30	2289.04
409.49	2277.34
409.68	2326.49
409.87	2263.30
410.07	2251.60
410.26	2408.41
410.45	2396.71
410.64	2312.45
410.83	2429.48
411.02	2504.37
411.21	2565.23
411.40	2513.74
411.59	2478.63
411.78	2686.94
411.98	2487.99
412.17	2593.31
412.36	2672.89
412.55	2544.16
412.74	2677.57
412.93	2724.38
413.12	2757.15
413.31	2836.73
413.50	2722.04
413.69	2855.45
413.88	2911.63
414.07	2958.44
414.26	2834.39
414.45	2963.12
414.64	2958.44
414.83	2993.55
415.02	3052.06
415.22	3021.63
415.41	2932.69
415.60	3087.17
415.79	3176.11
415.98	3236.96
416.17	3206.53
416.36	3213.56
416.55	3220.58
416.74	3309.52
416.93	3218.24
417.12	3236.96
417.31	3234.62
417.50	3307.18
417.69	3396.12
417.88	3349.31
418.07	3281.43
418.26	3452.29
418.45	3403.14
418.64	3403.14
418.83	3529.53
419.02	3452.29
419.21	3438.25
419.39	3480.38
419.58	3487.40
419.77	3534.21
419.96	3641.87
420.15	3641.87
420.34	3611.45
420.53	3662.94
420.72	3758.90
420.91	3775.28
421.10	3810.39
421.29	3665.28
421.48	3772.94
421.67	3798.69
421.86	3840.82
422.05	3714.43
422.24	3758.90
422.43	3723.79
422.61	3772.94
422.80	3801.03
422.99	3936.78
423.18	3868.91
423.37	3843.16
423.56	3861.88
423.75	3939.12
423.94	3740.18
424.13	3508.46
424.32	3730.81
424.50	3868.91
424.69	3845.50
424.88	4117.00
425.07	3941.46
425.26	3904.01
425.45	3901.67
425.64	3758.90
425.83	3866.56
426.01	4044.45
426.20	4023.38
426.39	3922.74
426.58	3695.71
426.77	3885.29
426.96	3943.80
427.15	3744.86
427.33	3932.10
427.52	3974.23
427.71	4215.30
427.90	4095.94
428.09	4252.75
428.28	4109.98
428.46	4245.73
428.65	4138.07
428.84	4262.12
429.03	4355.74
429.22	4182.54
429.40	4154.45
429.59	4163.81
429.78	3791.67
429.97	3913.38
430.16	3990.61
430.34	4086.58
430.53	4119.34
430.72	4203.60
430.91	4175.52
431.10	4393.19
431.28	4535.96
431.47	4547.66
431.66	4592.13
431.85	4533.62
432.03	4592.13
432.22	4596.81
432.41	4657.67
432.60	4589.79
432.79	4599.15
432.97	4723.20
433.16	4723.20
433.35	4695.11
433.54	4681.07
433.72	4629.58
433.91	4669.37
434.10	4765.33
434.28	4678.73
434.47	4772.35
434.66	4891.72
434.85	4966.62
435.03	4873.00
435.22	4762.99
435.41	5111.73
435.59	5088.32
435.78	5210.03
435.97	4889.38
436.16	5193.65
436.34	5093.01
436.53	5078.96
436.72	5315.36
436.90	5013.43
437.09	5135.14
437.28	5043.85
437.46	5191.31
437.65	5095.35
437.84	5085.98
438.02	5118.75
438.21	5081.30
438.40	4975.98
438.58	5317.70
438.77	5317.70
438.96	5423.02
439.14	5451.11
439.33	5582.18
439.52	5593.88
439.70	5500.26
439.89	5617.29
440.08	5504.94
440.26	5692.18
440.45	5533.03
440.63	5572.82
440.82	5867.72
441.01	5827.93
441.19	5879.43
441.38	5900.49
441.57	6008.16
441.75	5923.90
441.94	6230.51
442.12	6260.93
442.31	6242.21
442.50	6307.74
442.68	6228.17
442.87	6282.00
443.05	6104.12
443.24	6436.47
443.43	6363.92
443.61	6413.07
443.80	6544.14
443.98	6209.44
444.17	6207.10
444.35	6359.24
444.54	6537.12
444.73	6445.84
444.91	6462.22
445.10	6377.96
445.28	6300.72
445.47	6352.21
445.65	6466.90
445.84	6476.26
446.02	6684.57
446.21	6513.71
446.39	6445.84
446.58	6555.84
446.77	6377.96
446.95	6476.26
447.14	6647.12
447.32	6682.23
447.51	6483.28
447.69	6485.62
447.88	6434.13
448.06	6668.19
448.25	6422.43
448.43	6628.40
448.62	6698.61
448.80	6670.53
448.99	6696.27
449.17	6665.85
449.36	6789.89
449.54	6981.82
449.73	7047.35
449.91	7007.56
450.10	6988.84
450.28	7140.97
450.46	6972.46
450.65	7143.32
450.83	7260.34
451.02	7063.74
451.20	6963.09
451.39	7115.23
451.57	7241.62
451.76	7012.24
451.94	7159.70
452.13	7232.26
452.31	7112.89
452.49	6881.18
452.68	7157.36
452.86	7208.85
453.05	7323.54
453.23	7475.67
453.42	7208.85
453.60	7363.33
453.78	7276.73
453.97	7171.40
454.15	7410.14
454.34	7246.30
454.52	7602.06
454.70	7288.43
454.89	7573.97
455.07	7438.22
455.26	7627.81
455.44	7751.85
455.62	7602.06
455.81	7609.08
455.99	7779.94
456.17	7740.15
456.36	7700.36
456.54	7939.10
456.73	7880.58
456.91	8100.59
457.09	7889.95
457.28	8346.35
457.46	8049.10
457.64	7962.50
457.83	8093.57
458.01	7843.14
458.19	8191.88
458.38	8177.83
458.56	8205.92
458.74	8032.72
458.93	8149.75
459.11	8369.76
459.29	8042.08
459.48	8344.01
459.66	8109.96
459.84	8313.58
460.03	8477.42
460.21	8435.29
460.39	8238.69
460.57	8264.43
460.76	8624.87
460.94	8484.44
461.12	8390.82
461.31	8493.80
461.49	8627.21
461.67	8526.57
461.85	8840.20
462.04	8711.47
462.22	8975.95
462.40	8823.82
462.59	8877.65
462.77	8594.45
462.95	8809.78
463.13	8929.14
463.32	8769.99
463.50	8786.37
463.68	9085.96
463.86	8933.82
464.05	8594.45
464.23	8865.95
464.41	9001.70
464.59	8746.58
464.78	8833.18
464.96	8744.24
465.14	9036.81
465.32	8994.68
465.50	9078.94
465.69	9100.00
465.87	9247.46
466.05	9100.00
466.23	9270.86
466.41	8940.85
466.60	9324.69
466.78	8917.44
466.96	9095.32
467.14	9359.80
467.32	9266.18
467.51	9210.01
467.69	9312.99
467.87	9350.44
468.05	9441.72
468.23	9455.76
468.41	9231.07
468.60	9341.08
468.78	9558.75
468.96	9317.67
469.14	9804.50
469.32	9502.58
469.50	9317.67
469.69	9460.45
469.87	9703.86
470.05	9682.80
470.23	9589.17
470.41	9813.87
470.59	10033.88
470.77	9657.05
470.95	9921.53
471.14	9867.70
471.32	9778.76
471.50	10134.52
471.68	10209.42
471.86	10181.33
472.04	10228.14
472.22	10298.36
472.40	10146.22
472.58	10183.67
472.77	10438.79
472.95	10422.41
473.13	10820.30
473.31	10672.84
473.49	10523.05
473.67	10576.88
473.85	10452.83
474.03	10972.43
474.21	10710.29
474.39	11084.78
474.57	10888.17
474.75	10920.94
474.93	11070.73
475.12	10923.28
475.30	11213.51
475.48	11073.07
475.66	11262.66
475.84	11002.86
476.02	11318.83
476.20	11417.13
476.38	11503.73
476.56	12016.31
476.74	11791.62
476.92	11756.51
477.10	11796.30
477.28	12011.63
477.46	11950.78
477.64	12065.46
477.82	12407.18
478.00	12554.63
478.18	12439.95
478.36	12435.27
478.54	12374.41
478.72	12393.14
478.90	12739.54
479.08	12606.13
479.26	13039.12
479.44	12725.49
479.62	13039.12
479.80	13184.24
479.98	13584.47
480.16	13474.46
480.34	13462.76
480.52	13511.91
480.70	13523.62
480.88	13556.38
481.06	13591.49
481.24	13685.11
481.41	14143.86
481.59	14370.89
481.77	14544.09
481.95	14155.56
482.13	14572.18
482.31	14541.75
482.49	14747.72
482.67	14724.31
482.85	15028.58
483.03	15033.26
483.21	15014.54
483.39	15424.13
483.57	15260.29
483.74	15253.27
483.92	15407.75
484.10	15470.94
484.28	15578.61
484.46	15625.42
484.64	16379.07
484.82	15896.92
485.00	16013.95
485.18	16428.22
485.35	16294.81
485.53	15901.60
485.71	16011.60
485.89	16423.54
486.07	16205.87
486.25	16360.34
486.43	16517.16
486.61	16987.61
486.78	17233.36
486.96	17135.06
487.14	17476.78
487.32	17490.82
487.50	17916.80
487.68	18111.07
487.85	18281.92
488.03	18307.67
488.21	18359.16
488.39	18530.02
488.57	18724.29
488.75	19110.47
488.92	18822.59
489.10	19208.78
489.28	19410.06
489.46	19264.95
489.64	19536.45
489.81	19861.79
489.99	19850.08
490.17	20154.35
490.35	19999.88
490.53	20313.51
490.70	20453.94
490.88	20608.42
491.06	20428.20
491.24	20769.91
491.41	20629.48
491.59	20645.87
491.77	20938.43
491.95	21029.71
492.13	21221.64
492.30	21584.42
492.48	21451.01
492.66	21397.18
492.84	21404.20
493.01	21664.00
493.19	21851.24
493.37	22202.32
493.54	22143.81
493.72	22384.88
493.90	22471.48
494.08	22324.03
494.25	22820.22
494.43	23002.78
494.61	23211.09
494.79	23103.43
494.96	23075.34
495.14	23360.89
495.32	23733.03
495.49	23400.68
495.67	23601.96
495.85	23896.87
496.02	23859.42
496.20	24088.79
496.38	24194.12
496.55	24348.59
496.73	24861.17
496.91	24741.80
497.09	24856.49
497.26	24931.39
497.44	24996.92
497.62	24828.40
497.79	25125.65
497.97	25020.33
498.14	25422.90
498.32	25722.49
498.50	25165.44
498.67	25720.15
498.85	25799.73
499.03	25928.45
499.20	26050.16
499.38	25954.20
499.56	26143.78
499.73	26361.45
499.91	26466.78
500.08	26438.69
500.26	25993.99
500.44	26396.56
500.61	26785.09
500.79	26469.12
500.97	26588.49
501.14	26738.28
501.32	26782.75
501.49	26916.16
501.67	26607.21
501.84	27421.72
502.02	26728.92
502.20	27278.94
502.37	27737.69
502.55	27510.66
502.72	27442.78
502.90	28009.19
503.07	27730.67
503.25	27648.75
503.43	28044.30
503.60	28212.82
503.78	27941.32
503.95	28086.43
504.13	28388.36
504.30	28151.96
504.48	28481.98
504.65	28659.86
504.83	28870.51
505.01	28849.44
505.18	29268.40
505.36	29530.54
505.53	28849.44
505.71	29188.82
505.88	29415.85
506.06	28926.68
506.23	29790.34
506.41	29167.76
506.58	29448.62
506.76	29809.06
506.93	30029.07
507.11	29710.76
507.28	30075.88
507.46	29743.53
507.63	29603.10
507.81	30073.54
507.98	29369.04
508.16	30143.76
508.33	30370.79
508.50	30363.77
508.68	30623.57
508.85	31304.67
509.03	30766.34
509.20	30906.77
509.38	31087.00
509.55	31058.91
509.73	31229.77
509.90	31075.29
510.08	30883.37
510.25	30939.54
510.42	31487.23
510.60	31594.89
510.77	31622.98
510.95	31388.92
511.12	31793.84
511.30	31906.18
511.47	31861.71
511.64	32343.86
511.82	32063.00
511.99	31826.60
512.17	32226.84
512.34	31660.43
512.51	32231.52
512.69	32283.01
512.86	32271.31
513.04	32664.52
513.21	32833.04
513.38	33034.32
513.56	32905.59
513.73	32456.21
513.90	33134.96
514.08	32727.71
514.25	32912.61
514.43	33151.35
514.60	33031.98
514.77	32765.16
514.95	33263.69
515.12	33298.80
515.29	33443.91
515.47	33656.90
515.64	33778.61
515.81	33399.44
515.99	33455.62
516.16	33507.11
516.33	33598.39
516.51	33797.34
516.68	33125.60
516.85	32711.33
517.03	33291.78
517.20	34218.63
517.37	33497.75
517.54	34160.12
517.72	33881.60
517.89	33902.66
518.06	33799.68
518.24	33869.89
518.41	33989.26
518.58	34057.14
518.75	34120.33
518.93	34845.90
519.10	34312.25
519.27	34754.61
519.45	34841.21
519.62	35175.91
519.79	34864.62
519.96	35718.92
520.14	35735.30
520.31	35325.71
520.48	35337.41
520.65	35250.81
520.83	36046.59
521.00	35555.08
521.17	35604.23
521.34	35758.70
521.52	35906.16
521.69	36044.25
521.86	35934.24
522.03	35859.35
522.20	35686.15
522.38	36559.17
522.55	36219.79
522.72	35920.20
522.89	36542.78
523.07	36500.65
523.24	36163.62
523.41	36858.76
523.58	36868.12
523.75	36912.59
523.92	37097.49
524.10	37057.70
524.27	37209.84
524.44	37216.86
524.61	37277.71
524.78	37598.37
524.96	37291.76
525.13	37544.53
525.30	37546.87
525.47	37593.68
525.64	37935.40
525.81	37893.27
525.98	37642.84
526.16	37607.73
526.33	37258.99
526.50	37275.37
526.67	36924.29
526.84	37563.26
527.01	37251.97
527.18	37785.61
527.36	37965.83
527.53	38284.14
527.70	38120.31
527.87	38644.59
528.04	37916.68
528.21	38195.20
528.38	38452.66
528.55	38483.09
528.72	38794.38
528.89	38693.74
529.07	38738.21
529.24	38263.08
529.41	38389.47
529.58	38665.65
529.75	38335.63
529.92	38967.58
530.09	39054.18
530.26	39295.25
530.43	38672.67
530.60	39187.59
530.77	39285.89
530.94	39292.91
531.11	38925.45
531.28	39068.22
531.46	39299.94
531.63	39466.11
531.80	39185.25
531.97	39166.52
532.14	39395.90
532.31	38955.88
532.48	39290.57
532.65	39615.91
532.82	39342.06
532.99	39325.68
533.16	39276.53
533.33	39625.27
533.50	39627.61
533.67	39910.82
533.84	39531.65
534.01	40154.23
534.18	39765.70
534.35	40334.45
534.52	40252.53
534.69	40243.17
534.86	40343.81
535.03	40329.77
535.20	40776.81
535.37	40718.30
535.54	40985.12
535.71	40603.61
535.88	40627.02
536.05	40112.10
536.22	40472.54
536.38	40610.64
536.55	40282.96
536.72	40341.47
536.89	40273.60
537.06	40491.27
537.23	40577.87
537.40	40737.02
537.57	40858.73
537.74	40868.09
537.91	41340.88
538.08	41130.23
538.25	40650.42
538.42	40629.36
538.59	41579.62
538.75	40643.40
538.92	40921.93
539.09	41254.28
539.26	41177.04
539.43	40947.67
539.60	41170.02
539.77	41251.94
539.94	41261.30
540.11	41242.58
540.28	41619.41
540.44	40982.78
540.61	41462.59
540.78	41045.97
540.95	41434.50
541.12	40978.10
541.29	41675.58
541.46	41591.32
541.62	41642.81
541.79	41708.35
541.96	41591.32
542.13	41701.32
542.30	41872.18
542.47	41858.14
542.63	41844.10
542.80	41984.53
542.97	42330.93
543.14	42436.25
543.31	42417.53
543.48	42232.63
543.64	43159.48
543.81	42693.71
543.98	42438.59
544.15	42611.79
544.32	42850.53
544.48	43180.54
544.65	42892.66
544.82	42784.99
544.99	42506.47
545.16	43131.39
545.32	42621.16
545.49	42487.74
545.66	43103.31
545.83	42731.16
546.00	42822.44
546.16	43129.05
546.33	43002.66
546.50	43079.90
546.67	43508.22
546.83	42492.43
547.00	42625.84
547.17	42974.58
547.34	43054.15
547.50	42997.98
547.67	43669.72
547.84	43185.22
548.00	43522.26
548.17	44161.23
548.34	43641.63
548.51	43590.14
548.67	43573.75
548.84	43903.77
549.01	43367.79
549.18	43393.53
549.34	43618.22
549.51	43690.78
549.68	43922.49
549.84	43653.33
550.01	44069.95
550.18	43700.14
550.34	43608.86
550.51	43665.03
550.68	44027.82
550.84	43739.93
551.01	44320.38
551.18	43920.15
551.34	43702.48
551.51	44498.26
551.68	44399.96
551.84	44247.83
552.01	44219.74
552.18	44196.34
552.34	44231.44
552.51	44364.85
552.68	43765.68
552.84	44626.99
553.01	44734.66
553.18	44463.16
553.34	44154.21
553.51	43957.60
553.67	44847.00
553.84	44612.95
554.01	44556.78
554.17	44292.30
554.34	44854.03
554.51	44648.06
554.67	44479.54
554.84	44739.34
555.00	44177.61
555.17	44526.35
555.33	44383.58
555.50	44563.80
555.67	44383.58
555.83	44374.22
556.00	44692.53
556.16	45191.06
556.33	44657.42
556.50	44884.45
556.66	44921.90
556.83	44608.27
556.99	44891.48
557.16	45364.26
557.32	45015.52
557.49	44982.76
557.65	44294.64
557.82	45076.38
557.98	44556.78
558.15	44910.20
558.32	45043.61
558.48	45015.52
558.65	44783.81
558.81	44900.84
558.98	44832.96
559.14	44957.01
559.31	44870.41
559.47	45186.38
559.64	45172.34
559.80	45003.82
559.97	45792.58
560.13	44952.33
560.30	45254.26
560.46	45280.00
560.63	45329.16
560.79	45481.29
560.96	45794.92
561.12	45207.45
561.29	45663.85
561.45	45347.88
561.61	45207.45
561.78	45654.49
561.94	45420.44
562.11	45296.39
562.27	45160.64
562.44	45284.68
562.60	45462.57
562.77	45406.39
562.93	45385.33
563.10	45776.20
563.26	45081.06
563.42	45717.68
563.59	45256.60
563.75	45703.64
563.92	45801.94
564.08	45986.85
564.24	45729.39
564.41	45492.99
564.57	45357.24
564.74	45668.53
564.90	45647.47
565.07	45436.82
565.23	45530.44
565.39	45226.17
565.56	45617.04
565.72	45258.94
565.88	45478.95
566.05	45549.17
566.21	45523.42
566.38	45628.74
566.54	45827.69
566.70	45560.87
566.87	46143.66
567.03	45649.81
567.19	46195.15
567.36	46092.17
567.52	45668.53
567.68	45991.53
567.85	45373.63
568.01	45855.78
568.17	45504.70
568.34	45968.12
568.50	45893.22
568.66	45790.24
568.83	45762.15
568.99	45158.30
569.15	45441.50
569.32	45537.46
569.48	45738.75
569.64	45860.46
569.81	45958.76
569.97	45970.46
570.13	45874.50
570.30	45820.67
570.46	45755.13
570.62	45446.18
570.78	45420.44
570.95	45713.00
571.11	45703.64
571.27	46272.39
571.43	45647.47
571.60	45502.35
571.76	45963.44
571.92	45680.24
572.09	46003.23
572.25	45769.18
572.41	45989.19
572.57	45813.65
572.74	46377.72
572.90	45888.54
573.06	45853.44
573.22	46195.15
573.38	46108.55
573.55	45965.78
573.71	46176.43
573.87	45923.65
574.03	45713.00
574.20	46143.66
574.36	45771.52
574.52	46017.27
574.68	45773.86
574.84	46000.89
575.01	45839.39
575.17	45888.54
575.33	45933.01
575.49	45743.43
575.65	45979.82
575.82	46263.03
575.98	45797.26
576.14	46281.75
576.30	46532.19
576.46	45823.01
576.62	46045.36
576.79	45839.39
576.95	45675.55
577.11	45619.38
577.27	46087.49
577.43	46450.27
577.59	46012.59
577.75	46129.62
577.92	45507.04
578.08	45684.92
578.24	45574.91
578.40	45794.92
578.56	45886.20
578.72	45947.06
578.88	46096.85
579.04	46209.20
579.21	45759.81
579.37	46181.11
579.53	46089.83
579.69	46019.61
579.85	46031.32
580.01	46033.66
580.17	45771.52
580.33	46274.73
580.49	45785.56
580.65	46389.42
580.82	45925.99
580.98	46337.93
581.14	45893.22
581.30	46394.10
581.46	46167.07
581.62	46263.03
581.78	46218.56
581.94	46398.78
582.10	45925.99
582.26	45958.76
582.42	45951.74
582.58	46160.05
582.74	46300.48
582.90	46440.91
583.06	46134.30
583.22	46284.09
583.38	46387.08
583.54	46419.84
583.70	46256.01
583.86	46295.80
584.02	46012.59
584.18	46358.99
584.34	45907.27
584.50	45883.86
584.66	46110.89
584.82	46068.76
584.98	46316.86
585.14	46103.87
585.30	45867.48
585.46	45928.33
585.62	45792.58
585.78	46176.43
585.94	46127.28
586.10	45998.55
586.26	45965.78
586.42	46354.31
586.58	46527.51
586.74	46075.79
586.90	46078.13
587.06	45841.73
587.22	46108.55
587.38	46064.08
587.54	46543.89
587.70	45998.55
587.86	45975.14
588.02	46045.36
588.18	46150.68
588.34	45993.87
588.49	45727.05
588.65	45439.16
588.81	45694.28
588.97	45722.37
589.13	45558.53
589.29	45773.86
589.45	45865.14
589.61	46288.77
589.77	46141.32
589.93	46263.03
