SpectraSuite Data File
++++++++++++++++++++++++++++++++++++
Date: Fri Oct 25 11:34:37 EDT 2013
User: price-jones
Dark Spectrum Present: No
Reference Spectrum Present: No
Number of Sampled Component Spectra: 1
Spectrometers: USB2+H05261
Integration Time (usec): 100000 (USB2+H05261)
Spectra Averaged: 1 (USB2+H05261)
Boxcar Smoothing: 0 (USB2+H05261)
Correct for Electrical Dark: No (USB2+H05261)
Strobe/Lamp Enabled: No (USB2+H05261)
Correct for Detector Non-linearity: No (USB2+H05261)
Correct for Stray Light: No (USB2+H05261)
Number of Pixels in Processed Spectrum: 2048
>>>>>Begin Processed Spectral Data<<<<<
365.73	252.78
365.92	252.78
366.12	252.78
366.32	194.26
366.52	229.37
366.72	140.43
366.91	184.90
367.11	145.11
367.31	133.41
367.51	145.11
367.70	131.07
367.90	191.92
368.10	124.05
368.30	159.16
368.49	191.92
368.69	224.69
368.89	238.73
369.09	145.11
369.28	238.73
369.48	177.88
369.68	201.29
369.87	304.27
370.07	271.50
370.27	196.60
370.47	339.38
370.66	505.56
370.86	500.87
371.06	592.16
371.25	568.75
371.45	484.49
371.65	573.43
371.84	519.60
372.04	449.38
372.24	575.77
372.44	573.43
372.63	594.50
372.83	564.07
373.03	601.52
373.22	559.39
373.42	582.79
373.62	603.86
373.81	613.22
374.01	638.97
374.21	641.31
374.40	596.84
374.60	692.80
374.79	674.07
374.99	580.45
375.19	699.82
375.38	697.48
375.58	655.35
375.78	634.29
375.97	662.37
376.17	669.39
376.37	711.52
376.56	678.76
376.76	657.69
376.95	638.97
377.15	746.63
377.35	662.37
377.54	706.84
377.74	634.29
377.93	650.67
378.13	779.40
378.33	702.16
378.52	702.16
378.72	671.73
378.91	711.52
379.11	683.44
379.31	706.84
379.50	627.26
379.70	695.14
379.89	699.82
380.09	674.07
380.28	723.23
380.48	716.20
380.68	662.37
380.87	758.33
381.07	732.59
381.26	774.72
381.46	723.23
381.65	713.86
381.85	746.63
382.04	676.41
382.24	779.40
382.43	753.65
382.63	793.44
382.83	758.33
383.02	737.27
383.22	812.17
383.41	786.42
383.61	779.40
383.80	758.33
384.00	765.36
384.19	798.12
384.39	763.01
384.58	781.74
384.78	805.14
384.97	770.04
385.17	798.12
385.36	793.44
385.56	772.38
385.75	922.17
385.95	823.87
386.14	936.21
386.34	903.45
386.53	936.21
386.72	866.00
386.92	866.00
387.11	875.36
387.31	891.74
387.50	828.55
387.70	851.96
387.89	793.44
388.09	898.77
388.28	835.57
388.48	821.53
388.67	856.64
388.86	823.87
389.06	833.23
389.25	854.30
389.45	917.49
389.64	889.40
389.84	973.66
390.03	966.64
390.22	938.55
390.42	924.51
390.61	971.32
390.81	901.11
391.00	933.87
391.19	1032.18
391.39	1011.11
391.58	954.94
391.78	912.81
391.97	985.37
392.16	931.53
392.36	990.05
392.55	1055.58
392.75	990.05
392.94	1036.86
393.13	980.68
393.33	1083.67
393.52	985.37
393.71	1029.84
393.91	1104.73
394.10	1067.28
394.29	1057.92
394.49	1006.43
394.68	997.07
394.88	1109.41
395.07	1118.78
395.26	1102.39
395.46	1050.90
395.65	1048.56
395.84	1130.48
396.04	1186.65
396.23	1086.01
396.42	1128.14
396.62	1132.82
396.81	1186.65
397.00	1151.54
397.19	1116.44
397.39	1196.01
397.58	1289.64
397.77	1203.04
397.97	1210.06
398.16	1291.98
398.35	1247.51
398.55	1266.23
398.74	1294.32
398.93	1301.34
399.12	1334.11
399.32	1291.98
399.51	1444.11
399.70	1240.48
399.90	1315.38
400.09	1308.36
400.28	1397.30
400.47	1259.21
400.67	1434.75
400.86	1343.47
401.05	1350.49
401.24	1366.87
401.44	1416.02
401.63	1406.66
401.82	1427.73
402.01	1343.47
402.21	1474.54
402.40	1411.34
402.59	1511.99
402.78	1378.58
402.97	1472.20
403.17	1486.24
403.36	1472.20
403.55	1556.46
403.74	1479.22
403.93	1486.24
404.13	1481.56
404.32	1523.69
404.51	1519.01
404.70	1636.03
404.89	1497.94
405.09	1605.61
405.28	1624.33
405.47	1596.25
405.66	1661.78
405.85	1701.57
406.05	1645.40
406.24	1631.35
406.43	1727.32
406.62	1706.25
406.81	1717.95
407.00	1668.80
407.20	1650.08
407.39	1629.01
407.58	1652.42
407.77	1799.87
407.96	1720.29
408.15	1816.26
408.34	1830.30
408.54	1792.85
408.73	1792.85
408.92	1867.75
409.11	1846.68
409.30	1884.13
409.49	1935.62
409.68	1839.66
409.87	1905.20
410.07	1984.77
410.26	1907.54
410.45	1975.41
410.64	2076.06
410.83	1956.69
411.02	2008.18
411.21	2057.33
411.40	2153.29
411.59	2085.42
411.78	2069.03
411.98	2129.89
412.17	2129.89
412.36	2150.95
412.55	2141.59
412.74	2242.23
412.93	2216.49
413.12	2174.36
413.31	2263.30
413.50	2258.62
413.69	2303.09
413.88	2385.01
414.07	2340.54
414.26	2424.80
414.45	2452.88
414.64	2321.81
414.83	2478.63
415.02	2445.86
415.22	2544.16
415.41	2441.18
415.60	2527.78
415.79	2527.78
415.98	2637.78
416.17	2605.02
416.36	2612.04
416.55	2546.50
416.74	2710.34
416.93	2635.44
417.12	2696.30
417.31	2677.57
417.50	2792.26
417.69	2761.83
417.88	2808.64
418.07	2820.35
418.26	2808.64
418.45	2878.86
418.64	2836.73
418.83	2848.43
419.02	2888.22
419.21	2911.63
419.39	2855.45
419.58	2998.23
419.77	2892.90
419.96	3073.12
420.15	3007.59
420.34	3021.63
420.53	3056.74
420.72	3110.57
420.91	3087.17
421.10	2984.18
421.29	3112.91
421.48	3110.57
421.67	3066.10
421.86	3096.53
422.05	3129.30
422.24	3059.08
422.43	3052.06
422.61	3206.53
422.80	3187.81
422.99	3164.40
423.18	3346.97
423.37	3370.37
423.56	3229.94
423.75	3300.16
423.94	3197.17
424.13	3108.23
424.32	3103.55
424.50	3262.71
424.69	3435.91
424.88	3384.41
425.07	3279.09
425.26	3208.87
425.45	3206.53
425.64	3297.81
425.83	3368.03
426.01	3311.86
426.20	3185.47
426.39	3419.52
426.58	3363.35
426.77	3342.28
426.96	3255.69
427.15	3365.69
427.33	3475.70
427.52	3262.71
427.71	3391.44
427.90	3428.88
428.09	3485.06
428.28	3515.48
428.46	3482.72
428.65	3482.72
428.84	3630.17
429.03	3527.19
429.22	3459.31
429.40	3513.14
429.59	3674.64
429.78	3471.01
429.97	3515.48
430.16	3557.61
430.34	3676.98
430.53	3674.64
430.72	3712.09
430.91	3620.81
431.10	3669.96
431.28	3702.73
431.47	3679.32
431.66	3826.78
431.85	3772.94
432.03	3904.01
432.22	3981.25
432.41	3946.14
432.60	3779.97
432.79	3892.31
432.97	3889.97
433.16	3934.44
433.35	3983.59
433.54	3967.21
433.72	3957.85
433.91	4056.15
434.10	4002.32
434.28	3939.12
434.47	4079.55
434.66	4079.55
434.85	4074.87
435.03	4142.75
435.22	4063.17
435.41	4142.75
435.59	3978.91
435.78	4238.71
435.97	4112.32
436.16	4177.86
436.34	4304.25
436.53	4163.81
436.72	4348.72
436.90	4248.07
437.09	4271.48
437.28	4208.28
437.46	4374.46
437.65	4332.33
437.84	4238.71
438.02	4442.34
438.21	4440.00
438.40	4290.20
438.58	4622.56
438.77	4482.13
438.96	4510.21
439.14	4655.33
439.33	4610.86
439.52	4699.80
439.70	4739.58
439.89	4617.88
440.08	4835.55
440.26	4704.48
440.45	4889.38
440.63	4767.67
440.82	4802.78
441.01	4903.42
441.19	4924.49
441.38	4994.70
441.57	5093.01
441.75	5041.51
441.94	5100.03
442.12	5029.81
442.31	5116.41
442.50	5188.97
442.68	5139.82
442.87	5071.94
443.05	5245.14
443.24	5238.12
443.43	5067.26
443.61	5301.31
443.80	5263.86
443.98	5090.67
444.17	5146.84
444.35	5224.08
444.54	5376.21
444.73	5385.57
444.91	5369.19
445.10	5432.38
445.28	5322.38
445.47	5240.46
445.65	5411.32
445.84	5385.57
446.02	5390.25
446.21	5479.19
446.39	5500.26
446.58	5420.68
446.77	5495.58
446.95	5383.23
447.14	5453.45
447.32	5500.26
447.51	5526.00
447.69	5294.29
447.88	5469.83
448.06	5549.41
448.25	5486.22
448.43	5394.93
448.62	5535.37
448.80	5523.66
448.99	5659.42
449.17	5584.52
449.36	5493.24
449.54	5640.69
449.73	5722.61
449.91	5701.54
450.10	5804.53
450.28	5849.00
450.46	5748.36
450.65	6008.16
450.83	5874.74
451.02	5851.34
451.20	5909.85
451.39	5860.70
451.57	5853.68
451.76	5748.36
451.94	5858.36
452.13	5916.87
452.31	5919.21
452.49	5942.62
452.68	6047.94
452.86	5926.24
453.05	6047.94
453.23	6015.18
453.42	6122.84
453.60	6022.20
453.78	6153.27
453.97	6043.26
454.15	5907.51
454.34	6059.65
454.52	6230.51
454.70	6253.91
454.89	6239.87
455.07	6071.35
455.26	6200.08
455.44	6125.18
455.62	6382.64
455.81	6450.52
455.99	6562.86
456.17	6392.00
456.36	6527.75
456.54	6429.45
456.73	6541.80
456.91	6565.20
457.09	6724.36
457.28	6628.40
457.46	6532.44
457.64	6724.36
457.83	6647.12
458.01	6612.01
458.19	6843.73
458.38	6707.98
458.56	6764.15
458.74	6869.47
458.93	6820.32
459.11	6766.49
459.29	6796.92
459.48	6757.13
459.66	6909.26
459.84	6965.43
460.03	7030.97
460.21	7077.78
460.39	6970.12
460.57	6939.69
460.76	6932.67
460.94	7068.42
461.12	7070.76
461.31	7218.21
461.49	7087.14
461.67	6963.09
461.85	7279.07
462.04	7169.06
462.22	7630.15
462.40	7452.27
462.59	7229.91
462.77	7386.73
462.95	7506.10
463.13	7342.26
463.32	7433.54
463.50	7335.24
463.68	7606.74
463.86	7545.89
464.05	7311.83
464.23	7360.98
464.41	7672.28
464.59	7447.58
464.78	7618.44
464.96	7662.91
465.14	7302.47
465.32	7485.03
465.50	7562.27
465.69	7637.17
465.87	7630.15
466.05	7674.62
466.23	7620.78
466.41	7705.04
466.60	7873.56
466.78	7576.31
466.96	7815.05
467.14	7674.62
467.32	7831.43
467.51	8112.30
467.69	7709.72
467.87	7955.48
468.05	7871.22
468.23	7906.33
468.41	7829.09
468.60	7971.86
468.78	8002.29
468.96	8067.83
469.14	8226.98
469.32	7941.44
469.50	7985.91
469.69	8060.80
469.87	8248.05
470.05	8351.03
470.23	8379.12
470.41	8264.43
470.59	8386.14
470.77	8266.77
470.95	8334.65
471.14	8709.13
471.32	8397.84
471.50	8496.14
471.68	8486.78
471.86	8657.64
472.04	8650.62
472.22	8830.84
472.40	8512.53
472.58	8842.54
472.77	8671.68
472.95	9027.45
473.13	9280.22
473.31	8980.64
473.49	8898.72
473.67	9156.18
473.85	9025.11
474.03	9104.68
474.21	9135.11
474.39	9378.53
474.57	9324.69
474.75	9404.27
474.93	9348.10
475.12	9408.95
475.30	9376.19
475.48	9305.97
475.66	9582.15
475.84	9603.22
476.02	9554.07
476.20	9458.10
476.38	9701.52
476.56	10017.49
476.74	10038.56
476.92	10001.11
477.10	10094.73
477.28	10008.13
477.46	10022.17
477.64	10052.60
477.82	10349.85
478.00	10553.48
478.18	10485.60
478.36	10422.41
478.54	10534.75
478.72	10775.83
478.90	10827.32
479.08	11037.97
479.26	11124.57
479.44	11243.93
479.62	11023.92
479.80	11220.53
479.98	11318.83
480.16	11510.75
480.34	11330.53
480.52	11775.24
480.70	11637.14
480.88	11758.85
481.06	11627.78
481.24	11768.21
481.41	12175.47
481.59	11957.80
481.77	11922.69
481.95	12074.82
482.13	12343.99
482.31	12294.83
482.49	12734.85
482.67	12641.23
482.85	12528.89
483.03	12940.82
483.21	12884.65
483.39	13184.24
483.57	13048.49
483.74	13188.92
483.92	13249.77
484.10	13294.24
484.28	13507.23
484.46	13537.66
484.64	14111.09
484.82	13701.50
485.00	13834.91
485.18	14120.45
485.35	14342.80
485.53	14113.43
485.71	14270.25
485.89	14698.56
486.07	14754.74
486.25	14548.77
486.43	14757.08
486.61	15002.83
486.78	15098.80
486.96	15117.52
487.14	15098.80
487.32	15492.01
487.50	15213.48
487.68	15482.64
487.85	15564.56
488.03	15594.99
488.21	16266.72
488.39	15903.94
488.57	16053.73
488.75	16311.19
488.92	16369.71
489.10	16606.10
489.28	16599.08
489.46	16727.81
489.64	16652.91
489.81	17020.38
489.99	17114.00
490.17	17191.23
490.35	17151.45
490.53	17523.59
490.70	17586.79
490.88	17539.97
491.06	17504.87
491.24	17987.02
491.41	17675.73
491.59	18223.41
491.77	18075.96
491.95	18129.79
492.13	18436.40
492.30	18567.47
492.48	18464.49
492.66	18464.49
492.84	19000.47
493.01	18735.99
493.19	18906.85
493.37	19337.51
493.54	19154.94
493.72	19501.34
493.90	19585.60
494.08	19552.84
494.25	19316.44
494.43	19491.98
494.61	19845.40
494.79	19988.18
494.96	20194.14
495.14	20067.75
495.32	20140.31
495.49	20568.63
495.67	20430.54
495.85	20896.30
496.02	20709.06
496.20	21095.25
496.38	21146.74
496.55	21263.77
496.73	21645.27
496.91	21422.92
497.09	21647.61
497.26	21584.42
497.44	21642.93
497.62	21771.66
497.79	22089.98
497.97	21851.24
498.14	22508.93
498.32	22242.11
498.50	22476.16
498.67	22434.03
498.85	22354.46
499.03	22628.30
499.20	22895.12
499.38	23185.35
499.56	23175.98
499.73	23218.11
499.91	23363.23
500.08	23367.91
500.26	23026.19
500.44	23206.41
500.61	23466.21
500.79	23388.97
500.97	23321.10
501.14	23901.55
501.32	23658.14
501.49	23828.99
501.67	24144.97
501.84	23770.48
502.02	24128.58
502.20	24477.32
502.37	24217.52
502.55	24517.11
502.72	24472.64
502.90	24526.47
503.07	24477.32
503.25	24421.15
503.43	24435.19
503.60	24854.15
503.78	24924.36
503.95	24716.06
504.13	25064.80
504.30	25198.21
504.48	25202.89
504.65	25518.86
504.83	25792.70
505.01	25867.60
505.18	25610.14
505.36	25949.52
505.53	25736.53
505.71	25720.15
505.88	26003.35
506.06	26141.44
506.23	26445.71
506.41	26153.15
506.58	26183.57
506.76	26111.02
506.93	26319.32
507.11	26319.32
507.28	26644.66
507.46	26553.38
507.63	26700.83
507.81	26771.05
507.98	26986.38
508.16	26754.66
508.33	26967.65
508.50	27283.62
508.68	27395.97
508.85	27292.99
509.03	27260.22
509.20	27412.35
509.38	27498.95
509.55	27878.12
509.73	27873.44
509.90	27857.06
510.08	27566.83
510.25	27714.28
510.42	27861.74
510.60	28147.28
510.77	28233.88
510.95	27899.19
511.12	28198.77
511.30	28393.04
511.47	28613.05
511.64	28500.70
511.82	28898.59
511.99	28503.04
512.17	28657.52
512.34	28772.21
512.51	28863.49
512.69	28779.23
512.86	29696.72
513.04	29378.40
513.21	29085.84
513.38	29305.85
513.56	29537.56
513.73	29436.92
513.90	29287.12
514.08	29429.90
514.25	29263.72
514.43	29942.47
514.60	30029.07
514.77	30050.14
514.95	29982.26
515.12	29986.94
515.29	30071.20
515.47	30209.29
515.64	30352.07
515.81	30022.05
515.99	30235.04
516.16	30396.54
516.33	30127.38
516.51	30569.74
516.68	30464.41
516.85	30679.74
517.03	30747.62
517.20	30899.75
517.37	30883.37
517.54	30946.56
517.72	30773.36
517.89	31154.87
518.06	31311.69
518.24	31391.26
518.41	30934.86
518.58	31264.88
518.75	31622.98
518.93	31271.90
519.10	31213.38
519.27	31494.25
519.45	31761.07
519.62	32030.23
519.79	31971.72
519.96	31613.62
520.14	31957.67
520.31	31945.97
520.48	32264.28
520.65	32156.62
520.83	32416.42
521.00	32371.95
521.17	32442.17
521.34	32636.43
521.52	32519.40
521.69	32570.90
521.86	32828.35
522.03	32830.69
522.20	33134.96
522.38	33008.58
522.55	33343.27
522.72	33244.97
522.89	32954.74
523.07	33708.40
523.24	33144.33
523.41	33521.15
523.58	32851.76
523.75	33736.48
523.92	33338.59
524.10	33404.13
524.27	33684.99
524.44	33649.88
524.61	33682.65
524.78	33844.15
524.96	33881.60
525.13	33921.38
525.30	33890.96
525.47	34522.90
525.64	33961.17
525.81	34302.89
525.98	34448.00
526.16	34139.05
526.33	34134.37
526.50	34897.39
526.67	34328.64
526.84	34602.48
527.01	34710.14
527.18	34864.62
527.36	34822.49
527.53	34745.25
527.70	35075.27
527.87	34895.05
528.04	34958.24
528.21	34726.53
528.38	34843.56
528.55	35433.37
528.72	34930.16
528.89	35468.48
529.07	35428.69
529.24	35035.48
529.41	35356.13
529.58	35290.60
529.75	35082.29
529.92	35637.00
530.09	35475.50
530.26	35952.97
530.43	35632.32
530.60	35101.01
530.77	35878.07
530.94	36107.44
531.11	35779.77
531.28	35742.32
531.46	35859.35
531.63	36334.48
531.80	35833.60
531.97	35826.58
532.14	36320.43
532.31	35784.45
532.48	36467.89
532.65	36423.42
532.82	36100.42
532.99	36315.75
533.16	36119.15
533.33	36713.64
533.50	36512.36
533.67	36367.24
533.84	36442.14
534.01	37001.53
534.18	36456.18
534.35	36999.19
534.52	36912.59
534.69	36921.95
534.86	36982.80
535.03	36802.58
535.20	37146.64
535.37	37202.82
535.54	37221.54
535.71	37200.47
535.88	37284.73
536.05	37200.47
536.22	37427.51
536.38	37673.26
536.55	37205.16
536.72	37106.85
536.89	37092.81
537.06	37333.89
537.23	37738.80
537.40	37640.50
537.57	37778.59
537.74	37844.12
537.91	37745.82
538.08	38043.07
538.25	38024.34
538.42	38085.20
538.59	38223.29
538.75	38040.73
538.92	38064.13
539.09	38459.68
539.26	38288.82
539.43	38717.14
539.60	38345.00
539.77	37942.42
539.94	38543.94
540.11	38780.34
540.28	38852.89
540.44	38976.94
540.61	38930.13
540.78	38480.75
540.95	38813.10
541.12	38656.29
541.29	38672.67
541.46	38672.67
541.62	38677.35
541.79	39342.06
541.96	38455.00
542.13	38705.44
542.30	38960.56
542.47	38761.61
542.63	39213.34
542.80	39185.25
542.97	39171.21
543.14	39849.96
543.31	39292.91
543.48	39374.83
543.64	40112.10
543.81	39842.94
543.98	39505.90
544.15	39852.30
544.32	40147.21
544.48	39885.07
544.65	39604.20
544.82	39882.73
544.99	39641.65
545.16	40004.44
545.32	40093.38
545.49	40402.33
545.66	40322.75
545.83	40060.61
546.00	40708.94
546.16	40301.68
546.33	40318.07
546.50	40156.57
546.67	40210.40
546.83	39849.96
547.00	40058.27
547.17	40280.62
547.34	40100.40
547.50	40650.42
547.67	40680.85
547.84	40524.04
548.00	40898.52
548.17	41329.18
548.34	40573.19
548.51	40964.06
548.67	40926.61
548.84	40811.92
549.01	41010.87
549.18	40973.42
549.34	40891.50
549.51	41090.44
549.68	41233.22
549.84	40685.53
550.01	41656.85
550.18	40842.35
550.34	41326.84
550.51	41167.68
550.68	40982.78
550.84	40797.88
551.01	41551.53
551.18	41006.19
551.34	41483.66
551.51	41542.17
551.68	41570.25
551.84	41401.74
552.01	41144.28
552.18	41291.73
552.34	41429.82
552.51	41762.18
552.68	41132.57
552.84	41972.83
553.01	41645.15
553.18	42321.57
553.34	41661.54
553.51	41581.96
553.67	41996.23
553.84	41776.22
554.01	42155.39
554.17	42014.96
554.34	42429.23
554.51	42223.26
554.67	42450.30
554.84	42024.32
555.00	42082.83
555.17	41876.86
555.33	42197.52
555.50	42316.89
555.67	41963.46
555.83	42445.62
556.00	42693.71
556.16	42658.60
556.33	42267.73
556.50	42277.10
556.66	42424.55
556.83	42597.75
556.99	42831.80
557.16	43112.67
557.32	43023.73
557.49	43227.35
557.65	42574.34
557.82	42387.10
557.98	42836.48
558.15	42590.73
558.32	42359.02
558.48	42550.94
558.65	42799.04
558.81	42852.87
558.98	43016.71
559.14	42845.85
559.31	42674.99
559.47	42845.85
559.64	43157.14
559.80	43110.33
559.97	43283.53
560.13	43007.34
560.30	42981.60
560.46	42890.32
560.63	43042.45
560.79	43005.00
560.96	43255.44
561.12	42918.40
561.29	43611.20
561.45	43379.49
561.61	43716.53
561.78	43222.67
561.94	42953.51
562.11	43061.18
562.27	43222.67
562.44	43030.75
562.60	43409.92
562.77	43873.34
562.93	44107.40
563.10	43849.94
563.26	43271.82
563.42	43487.15
563.59	43030.75
563.75	43433.32
563.92	43320.98
564.08	43700.14
564.24	43653.33
564.41	43365.45
564.57	43318.64
564.74	43828.87
564.90	43700.14
565.07	43555.03
565.23	43459.07
565.39	43756.32
565.56	43906.11
565.72	44002.07
565.88	43929.51
566.05	43573.75
566.21	43646.31
566.38	43723.55
566.54	43704.82
566.70	43983.35
566.87	43840.57
567.03	43459.07
567.19	43728.23
567.36	43803.13
567.52	43934.20
567.68	44233.78
567.85	43910.79
568.01	44240.81
568.17	44069.95
568.34	44271.23
568.50	44240.81
568.66	43358.42
568.83	43622.90
568.99	43681.42
569.15	43730.57
569.32	43868.66
569.48	43976.33
569.64	44332.09
569.81	44498.26
569.97	44257.19
570.13	44156.55
570.30	44016.11
570.46	44280.60
570.62	44304.00
570.78	44641.04
570.95	43952.92
571.11	44437.41
571.27	44271.23
571.43	44437.41
571.60	44638.70
571.76	43810.15
571.92	44215.06
572.09	43999.73
572.25	44362.51
572.41	43782.06
572.57	43927.17
572.74	44477.20
572.90	44451.45
573.06	44406.98
573.22	44135.48
573.38	44435.07
573.55	44395.28
573.71	44818.92
573.87	44729.98
574.03	44198.68
574.20	44701.89
574.36	44369.54
574.52	44334.43
574.68	44868.07
574.84	44818.92
575.01	44861.05
575.17	44406.98
575.33	44839.98
575.49	44346.13
575.65	44577.84
575.82	44629.34
575.98	44844.66
576.14	44587.21
576.30	44947.65
576.46	44526.35
576.62	44973.39
576.79	44425.71
576.95	44088.67
577.11	44493.58
577.27	44645.72
577.43	44273.57
577.59	44830.62
577.75	44582.52
577.92	44437.41
578.08	44987.44
578.24	44463.16
578.40	44809.56
578.56	44673.81
578.72	44732.32
578.88	44994.46
579.04	44531.03
579.21	44528.69
579.37	44758.06
579.53	44748.70
579.69	44147.18
579.85	44715.93
580.01	44715.93
580.17	44584.86
580.33	45062.33
580.49	45013.18
580.65	44886.79
580.82	44790.83
580.98	44402.30
581.14	44601.25
581.30	44594.23
581.46	44760.40
581.62	44767.43
581.78	44257.19
581.94	44737.00
582.10	44577.84
582.26	44811.90
582.42	44760.40
582.58	44811.90
582.74	45010.84
582.90	44905.52
583.06	45038.93
583.22	44737.00
583.38	44549.76
583.54	44821.26
583.70	44722.96
583.86	45390.01
584.02	44729.98
584.18	45411.07
584.34	45240.21
584.50	45139.57
584.66	45338.52
584.82	44722.96
584.98	45317.45
585.14	45305.75
585.30	44816.58
585.46	44732.32
585.62	44725.30
585.78	45092.76
585.94	44406.98
586.10	44802.53
586.26	44570.82
586.42	44865.73
586.58	45006.16
586.74	44594.23
586.90	44975.73
587.06	44580.18
587.22	45104.46
587.38	44893.82
587.54	44919.56
587.70	45170.00
587.86	45404.05
588.02	44870.41
588.18	44863.39
588.34	44737.00
588.49	44917.22
588.65	44561.46
588.81	45111.49
588.97	45291.71
589.13	45125.53
589.29	44870.41
589.45	45394.69
589.61	45319.79
589.77	45586.61
589.93	44912.54
590.08	45572.57
