SpectraSuite Data File
++++++++++++++++++++++++++++++++++++
Date: Fri Oct 25 11:23:48 EDT 2013
User: price-jones
Dark Spectrum Present: No
Reference Spectrum Present: No
Number of Sampled Component Spectra: 1
Spectrometers: USB2+H05261
Integration Time (usec): 100000 (USB2+H05261)
Spectra Averaged: 1 (USB2+H05261)
Boxcar Smoothing: 0 (USB2+H05261)
Correct for Electrical Dark: No (USB2+H05261)
Strobe/Lamp Enabled: No (USB2+H05261)
Correct for Detector Non-linearity: No (USB2+H05261)
Correct for Stray Light: No (USB2+H05261)
Number of Pixels in Processed Spectrum: 2048
>>>>>Begin Processed Spectral Data<<<<<
365.73	266.82
365.92	266.82
366.12	266.82
366.32	161.50
366.52	156.82
366.72	138.09
366.91	159.16
367.11	159.16
367.31	114.69
367.51	121.71
367.70	121.71
367.90	156.82
368.10	182.56
368.30	177.88
368.49	128.73
368.69	133.41
368.89	201.29
369.09	159.16
369.28	196.60
369.48	140.43
369.68	208.31
369.87	205.97
370.07	245.76
370.27	201.29
370.47	301.93
370.66	671.73
370.86	660.03
371.06	716.20
371.25	660.03
371.45	648.33
371.65	725.57
371.84	507.90
372.04	657.69
372.24	697.48
372.44	786.42
372.63	725.57
372.83	800.46
373.03	781.74
373.22	765.36
373.42	765.36
373.62	842.59
373.81	795.78
374.01	767.70
374.21	891.74
374.40	840.25
374.60	821.53
374.79	772.38
374.99	816.85
375.19	842.59
375.38	816.85
375.58	823.87
375.78	905.79
375.97	924.51
376.17	802.80
376.37	971.32
376.56	866.00
376.76	835.57
376.95	847.27
377.15	964.30
377.35	947.92
377.54	915.15
377.74	868.34
377.93	903.45
378.13	940.90
378.33	917.49
378.52	889.40
378.72	931.53
378.91	912.81
379.11	947.92
379.31	976.00
379.50	950.26
379.70	971.32
379.89	938.55
380.09	973.66
380.28	1020.47
380.48	1011.11
380.68	992.39
380.87	997.07
381.07	1020.47
381.26	1034.52
381.46	952.60
381.65	1034.52
381.85	1046.22
382.04	1116.44
382.24	1146.86
382.43	1029.84
382.63	1036.86
382.83	1097.71
383.02	1057.92
383.22	1149.20
383.41	1078.99
383.61	1144.52
383.80	1104.73
384.00	1123.46
384.19	1186.65
384.39	1088.35
384.58	1116.44
384.78	1093.03
384.97	1139.84
385.17	1184.31
385.36	1172.61
385.56	1165.59
385.75	1205.38
385.95	1210.06
386.14	1205.38
386.34	1188.99
386.53	1287.29
386.72	1172.61
386.92	1280.27
387.11	1270.91
387.31	1287.29
387.50	1200.69
387.70	1247.51
387.89	1212.40
388.09	1247.51
388.28	1270.91
388.48	1212.40
388.67	1329.42
388.86	1320.06
389.06	1261.55
389.25	1371.55
389.45	1350.49
389.64	1324.74
389.84	1378.58
390.03	1313.04
390.22	1277.93
390.42	1399.64
390.61	1404.32
390.81	1357.51
391.00	1427.73
391.19	1397.30
391.39	1362.19
391.58	1458.15
391.78	1446.45
391.97	1467.52
392.16	1455.81
392.36	1462.83
392.55	1497.94
392.75	1486.24
392.94	1446.45
393.13	1556.46
393.33	1542.41
393.52	1511.99
393.71	1554.12
393.91	1589.22
394.10	1715.61
394.29	1600.93
394.49	1631.35
394.68	1680.50
394.88	1673.48
395.07	1598.59
395.26	1685.19
395.46	1692.21
395.65	1710.93
395.84	1699.23
396.04	1816.26
396.23	1736.68
396.42	1732.00
396.62	1785.83
396.81	1795.19
397.00	1710.93
397.19	1872.43
397.39	1842.00
397.58	1802.21
397.77	1764.76
397.97	1912.22
398.16	1884.13
398.35	1888.81
398.55	1856.04
398.74	1842.00
398.93	1991.80
399.12	2108.82
399.32	1987.11
399.51	1994.14
399.70	2001.16
399.90	1860.73
400.09	2017.54
400.28	2073.71
400.47	2038.61
400.67	2150.95
400.86	2071.37
401.05	2120.53
401.24	2160.31
401.44	2193.08
401.63	2174.36
401.82	2064.35
402.01	2069.03
402.21	2162.66
402.40	2235.21
402.59	2188.40
402.78	2207.13
402.97	2310.11
403.17	2347.56
403.36	2326.49
403.55	2244.57
403.74	2310.11
403.93	2314.79
404.13	2361.60
404.32	2319.47
404.51	2413.09
404.70	2459.90
404.89	2452.88
405.09	2562.89
405.28	2436.50
405.47	2495.01
405.66	2502.03
405.85	2548.84
406.05	2558.21
406.24	2623.74
406.43	2684.59
406.62	2588.63
406.81	2818.00
407.00	2597.99
407.20	2548.84
407.39	2679.91
407.58	2731.41
407.77	2640.12
407.96	2757.15
408.15	2710.34
408.34	2796.94
408.54	2672.89
408.73	2813.32
408.92	2715.02
409.11	2853.11
409.30	2942.05
409.49	2972.48
409.68	2925.67
409.87	2850.77
410.07	3087.17
410.26	3143.34
410.45	3049.72
410.64	3204.19
410.83	3009.93
411.02	3068.44
411.21	3098.87
411.40	3096.53
411.59	3173.77
411.78	3246.32
411.98	3286.11
412.17	3283.77
412.36	3297.81
412.55	3332.92
412.74	3344.63
412.93	3440.59
413.12	3314.20
413.31	3646.55
413.50	3487.40
413.69	3646.55
413.88	3676.98
414.07	3578.68
414.26	3501.44
414.45	3658.26
414.64	3714.43
414.83	3695.71
415.02	3758.90
415.22	3763.58
415.41	3786.99
415.60	3850.18
415.79	3971.89
415.98	3859.54
416.17	4044.45
416.36	3932.10
416.55	4077.21
416.74	4053.81
416.93	4065.51
417.12	4114.66
417.31	4149.77
417.50	4182.54
417.69	4187.22
417.88	4257.43
418.07	4243.39
418.26	4372.12
418.45	4372.12
418.64	4491.49
418.83	4320.63
419.02	4472.76
419.21	4493.83
419.39	4514.89
419.58	4475.10
419.77	4360.42
419.96	4631.92
420.15	4746.61
420.34	4510.21
420.53	4603.83
420.72	4652.98
420.91	4784.06
421.10	4805.12
421.29	4812.14
421.48	4840.23
421.67	4816.82
421.86	4748.95
422.05	4901.08
422.24	4894.06
422.43	4851.93
422.61	4966.62
422.80	4915.12
422.99	4947.89
423.18	4896.40
423.37	5034.49
423.56	5104.71
423.75	4975.98
423.94	4865.97
424.13	4718.52
424.32	4807.46
424.50	5032.15
424.69	5198.33
424.88	5067.26
425.07	4898.74
425.26	5081.30
425.45	5032.15
425.64	4966.62
425.83	5036.83
426.01	5188.97
426.20	4903.42
426.39	5043.85
426.58	5081.30
426.77	4966.62
426.96	5207.69
427.15	5036.83
427.33	5200.67
427.52	5093.01
427.71	5132.79
427.90	5193.65
428.09	5355.15
428.28	5430.04
428.46	5371.53
428.65	5448.77
428.84	5636.01
429.03	5511.96
429.22	5411.32
429.40	5554.09
429.59	5453.45
429.78	5345.78
429.97	5500.26
430.16	5430.04
430.34	5715.59
430.53	5612.60
430.72	5710.91
430.91	5799.85
431.10	5584.52
431.28	5781.12
431.47	5785.80
431.66	5984.75
431.85	5767.08
432.03	5994.11
432.22	6026.88
432.41	5818.57
432.60	5884.11
432.79	5872.40
432.97	6040.92
433.16	6073.69
433.35	6015.18
433.54	6171.99
433.72	6258.59
433.91	6195.40
434.10	6317.11
434.28	6286.68
434.47	6314.77
434.66	6284.34
434.85	6328.81
435.03	6417.75
435.22	6267.95
435.41	6441.15
435.59	6635.42
435.78	6356.90
435.97	6492.65
436.16	6448.18
436.34	6270.30
436.53	6558.18
436.72	6588.61
436.90	6504.35
437.09	6651.80
437.28	6600.31
437.46	6689.25
437.65	6665.85
437.84	6745.42
438.02	6724.36
438.21	6750.10
438.40	6703.29
438.58	6930.33
438.77	7052.03
438.96	6843.73
439.14	7126.93
439.33	7236.94
439.52	7274.38
439.70	7307.15
439.89	7311.83
440.08	7307.15
440.26	7410.14
440.45	7555.25
440.63	7480.35
440.82	7763.56
441.01	7552.91
441.19	7702.70
441.38	7564.61
441.57	7817.39
441.75	7793.98
441.94	7798.66
442.12	7906.33
442.31	7983.57
442.50	8215.28
442.68	7906.33
442.87	8002.29
443.05	8374.44
443.24	8306.56
443.43	8358.05
443.61	8229.32
443.80	8571.04
443.98	8135.70
444.17	7728.45
444.35	8205.92
444.54	8142.72
444.73	8526.57
444.91	8362.73
445.10	8222.30
445.28	8496.14
445.47	8250.39
445.65	8390.82
445.84	8386.14
446.02	8491.46
446.21	8526.57
446.39	8390.82
446.58	8662.32
446.77	8365.07
446.95	8461.04
447.14	8540.61
447.32	8542.96
447.51	8388.48
447.69	8484.44
447.88	8547.64
448.06	8786.37
448.25	8610.83
448.43	8524.23
448.62	8631.90
448.80	8482.10
448.99	8674.03
449.17	8725.52
449.36	8613.17
449.54	8725.52
449.73	8943.19
449.91	8980.64
450.10	9097.66
450.28	9202.99
450.46	9081.28
450.65	9060.21
450.83	9284.91
451.02	9174.90
451.20	9287.25
451.39	9123.41
451.57	9242.78
451.76	9013.40
451.94	9193.62
452.13	9247.46
452.31	9322.35
452.49	9217.03
452.68	9664.07
452.86	9249.80
453.05	9493.21
453.23	9359.80
453.42	9533.00
453.60	9406.61
453.78	9537.68
453.97	9720.24
454.15	9465.13
454.34	9448.74
454.52	9722.59
454.70	9713.22
454.89	9734.29
455.07	9935.57
455.26	9886.42
455.44	10038.56
455.62	10134.52
455.81	9888.76
455.99	10214.10
456.17	9783.44
456.36	10040.90
456.54	10225.80
456.73	10186.01
456.91	10544.11
457.09	10438.79
457.28	10602.63
457.46	10321.76
457.64	10548.79
457.83	10377.94
458.01	10382.62
458.19	10703.27
458.38	10501.98
458.56	10757.10
458.74	10640.08
458.93	10752.42
459.11	10806.25
459.29	10780.51
459.48	11061.37
459.66	10710.29
459.84	10813.28
460.03	11337.56
460.21	11208.83
460.39	10958.39
460.57	11227.55
460.76	11227.55
460.94	11389.05
461.12	11220.53
461.31	11002.86
461.49	11377.34
461.67	11365.64
461.85	11655.87
462.04	11169.04
462.22	11272.02
462.40	11819.71
462.59	11676.93
462.77	11517.78
462.95	11665.23
463.13	11620.76
463.32	11599.70
463.50	11840.77
463.68	12046.74
463.86	11768.21
464.05	11765.87
464.23	11985.88
464.41	11765.87
464.59	11836.09
464.78	12060.78
464.96	12058.44
465.14	12016.31
465.32	11864.18
465.50	12381.43
465.69	12236.32
465.87	12278.45
466.05	12245.68
466.23	12348.67
466.41	12372.07
466.60	12650.60
466.78	12189.51
466.96	12435.27
467.14	12173.13
467.32	12276.11
467.51	12645.91
467.69	12477.40
467.87	12482.08
468.05	12674.00
468.23	12645.91
468.41	12369.73
468.60	12645.91
468.78	12732.51
468.96	12526.55
469.14	12769.96
469.32	13025.08
469.50	12760.60
469.69	13018.06
469.87	13298.92
470.05	12961.89
470.23	13355.10
470.41	13315.31
470.59	13327.01
470.77	13013.38
470.95	13383.18
471.14	13612.56
471.32	13317.65
471.50	13895.76
471.68	13654.69
471.86	13841.93
472.04	13809.16
472.22	14125.13
472.40	13682.77
472.58	13951.93
472.77	14265.57
472.95	14087.68
473.13	14747.72
473.31	14246.84
473.49	14246.84
473.67	14164.92
473.85	14434.08
474.03	14642.39
474.21	14532.39
474.39	15016.88
474.57	14705.59
474.75	15161.99
474.93	15206.46
475.12	15084.75
475.30	15157.31
475.48	14871.76
475.66	15346.89
475.84	15192.42
476.02	15438.17
476.20	15461.58
476.38	15789.25
476.56	16056.08
476.74	15927.35
476.92	16004.58
477.10	16020.97
477.28	16273.74
477.46	16355.66
477.64	16290.13
477.82	16713.77
478.00	17071.87
478.18	16898.67
478.36	17137.40
478.54	17231.02
478.72	17315.28
478.90	17469.76
479.08	17958.93
479.26	17816.16
479.44	17565.72
479.62	18054.89
479.80	18148.51
479.98	18396.61
480.16	18724.29
480.34	18637.69
480.52	18848.33
480.70	18532.36
480.88	18464.49
481.06	18838.97
481.24	19009.83
481.41	19061.32
481.59	19557.52
481.77	19676.88
481.95	19566.88
482.13	19665.18
482.31	19686.25
482.49	20381.38
482.67	20336.91
482.85	20652.89
483.03	20812.04
483.21	20910.35
483.39	21025.03
483.57	21142.06
483.74	21263.77
483.92	21647.61
484.10	21659.32
484.28	21886.35
484.46	21757.62
484.64	22623.62
484.82	22195.30
485.00	22335.73
485.18	23058.96
485.35	23300.03
485.53	22909.16
485.71	22993.42
485.89	23728.35
486.07	23559.83
486.25	23410.04
486.43	23541.11
486.61	23978.79
486.78	24348.59
486.96	24114.54
487.14	24718.40
487.32	24641.16
487.50	25216.93
487.68	24999.26
487.85	25502.48
488.03	25891.01
488.21	25795.04
488.39	25851.22
488.57	26284.22
488.75	26237.41
488.92	26525.29
489.10	26749.98
489.28	26995.74
489.46	27676.83
489.64	27342.14
489.81	27653.43
489.99	27840.67
490.17	28130.90
490.35	28470.28
490.53	28444.53
490.70	28854.12
490.88	28912.64
491.06	28554.54
491.24	29099.88
491.41	29205.20
491.59	29544.58
491.77	29411.17
491.95	29701.40
492.13	29832.47
492.30	30307.60
492.48	30010.35
492.66	30937.20
492.84	30726.55
493.01	30817.83
493.19	30658.68
493.37	31122.10
493.54	31197.00
493.72	31517.65
493.90	31388.92
494.08	32034.91
494.25	32378.97
494.43	32432.80
494.61	32498.34
494.79	32753.46
494.96	32538.13
495.14	32591.96
495.32	33322.21
495.49	33319.87
495.67	33596.05
495.85	33670.95
496.02	33851.17
496.20	33937.77
496.38	34029.05
496.55	34298.21
496.73	35007.39
496.91	34686.74
497.09	34955.90
497.26	35035.48
497.44	35182.93
497.62	35438.05
497.79	36297.03
497.97	35545.72
498.14	35873.39
498.32	36575.55
498.50	36273.62
498.67	36957.06
498.85	36877.48
499.03	36905.57
499.20	36844.71
499.38	37291.76
499.56	37544.53
499.73	37298.78
499.91	37619.43
500.08	37855.82
500.26	37563.26
500.44	38153.07
500.61	37787.95
500.79	37832.42
500.97	38195.20
501.14	38663.31
501.32	39030.77
501.49	39192.27
501.67	39276.53
501.84	39189.93
502.02	39054.18
502.20	39283.55
502.37	39515.26
502.55	39517.60
502.72	39496.54
502.90	40147.21
503.07	39894.43
503.25	40126.14
503.43	40137.85
503.60	40512.33
503.78	40439.78
503.95	40315.73
504.13	41254.28
504.30	40608.29
504.48	40669.15
504.65	40692.55
504.83	41317.48
505.01	41523.44
505.18	41251.94
505.36	42050.06
505.53	41415.78
505.71	41701.32
505.88	42150.71
506.06	41661.54
506.23	42316.89
506.41	42108.58
506.58	42721.80
506.76	42246.67
506.93	42806.06
507.11	42710.10
507.28	42721.80
507.46	43168.84
507.63	43065.86
507.81	43559.71
507.98	43302.25
508.16	43477.79
508.33	43445.02
508.50	43686.10
508.68	43601.84
508.85	44060.58
509.03	43931.86
509.20	44289.96
509.38	44650.40
509.55	44346.13
509.73	44622.31
509.90	45076.38
510.08	44786.15
510.25	44882.11
510.42	44921.90
510.60	45572.57
510.77	45418.10
510.95	45935.35
511.12	45757.47
511.30	45331.50
511.47	45956.42
511.64	45734.07
511.82	46223.24
511.99	46085.15
512.17	46122.60
512.34	46197.49
512.51	46586.02
512.69	46497.08
512.86	46433.89
513.04	46843.48
513.21	46710.07
513.38	46878.59
513.56	47122.01
513.73	47133.71
513.90	46925.40
514.08	47079.88
514.25	47522.24
514.43	47700.12
514.60	47746.93
514.77	47948.21
514.95	47962.26
515.12	47723.52
515.29	47847.57
515.47	48760.38
515.64	48381.21
515.81	48432.71
515.99	48182.27
516.16	48622.29
516.33	48587.18
516.51	48924.22
516.68	48669.10
516.85	48973.37
517.03	48949.96
517.20	49446.16
517.37	48935.92
517.54	48907.83
517.72	49125.50
517.89	49600.63
518.06	49476.58
518.24	49366.58
518.41	49631.06
518.58	49308.07
518.75	49406.37
518.93	49694.25
519.10	49652.12
519.27	50176.40
519.45	50150.66
519.62	50138.96
519.79	50202.15
519.96	50085.12
520.14	50417.48
520.31	50230.24
520.48	50960.48
520.65	50288.75
520.83	50923.04
521.00	50831.75
521.17	50911.33
521.34	51016.66
521.52	51288.16
521.69	51157.09
521.86	50834.10
522.03	51271.78
522.20	51742.22
522.38	51510.51
522.55	51536.26
522.72	51611.15
522.89	51473.06
523.07	51924.78
523.24	51690.73
523.41	52294.59
523.58	51681.37
523.75	52128.41
523.92	51934.15
524.10	52126.07
524.27	51962.23
524.44	52240.76
524.61	52498.22
524.78	52339.06
524.96	52428.00
525.13	52690.14
525.30	52598.86
525.47	52573.11
525.64	52638.65
525.81	52872.70
525.98	52893.77
526.16	52800.15
526.33	52734.61
526.50	53146.54
526.67	52945.26
526.84	53029.52
527.01	53109.10
527.18	52954.62
527.36	53020.16
527.53	53095.05
527.70	53460.18
527.87	53354.85
528.04	53399.32
528.21	53628.69
528.38	53448.47
528.55	53979.78
528.72	53340.81
528.89	53514.01
529.07	53544.44
529.24	53591.25
529.41	53848.71
529.58	53638.06
529.75	53951.69
529.92	54169.36
530.09	54031.27
530.26	54075.74
530.43	54068.72
530.60	53918.92
530.77	53972.75
530.94	54031.27
531.11	53970.41
531.28	54270.00
531.46	54307.45
531.63	54457.24
531.80	53942.33
531.97	54466.61
532.14	54780.24
532.31	54822.37
532.48	54834.07
532.65	54934.71
532.82	54646.83
532.99	54838.75
533.16	54721.72
533.33	54953.44
533.50	55231.96
533.67	55136.00
533.84	54798.96
534.01	54993.23
534.18	55222.60
534.35	55288.13
534.52	55189.83
534.69	55517.51
534.86	55519.85
535.03	55370.05
535.20	55257.71
535.37	55386.44
535.54	55346.65
535.71	55348.99
535.88	55484.74
536.05	55643.90
536.22	55908.38
536.38	55980.93
536.55	56006.68
536.72	55833.48
536.89	55552.62
537.06	55561.98
537.23	56020.72
537.40	55702.41
537.57	55868.59
537.74	55891.99
537.91	56273.50
538.08	56191.58
538.25	56011.36
538.42	55920.08
538.59	56278.18
538.75	55950.51
538.92	56083.92
539.09	56175.20
539.26	56418.61
539.43	56273.50
539.60	56245.41
539.77	56439.68
539.94	56484.15
540.11	56233.71
540.28	56559.05
540.44	56533.30
540.61	56954.60
540.78	56484.15
540.95	56666.71
541.12	56310.95
541.29	56413.93
541.46	56891.40
541.62	56786.08
541.79	56743.95
541.96	56474.79
542.13	56762.67
542.30	56837.57
542.47	56975.66
542.63	56989.70
542.80	57097.37
542.97	57219.08
543.14	57464.83
543.31	57289.29
543.48	57368.87
543.64	57551.43
543.81	57577.18
543.98	57513.98
544.15	57483.56
544.32	57614.63
544.48	57666.12
544.65	57537.39
544.82	57691.86
544.99	57598.24
545.16	57457.81
545.32	57668.46
545.49	57872.09
545.66	57808.89
545.83	57888.47
546.00	57897.83
546.16	57923.58
546.33	57684.84
546.50	57623.99
546.67	57719.95
546.83	57668.46
547.00	57925.92
547.17	58038.26
547.34	57867.40
547.50	58295.72
547.67	58110.82
547.84	58150.61
548.00	58218.49
548.17	58337.85
548.34	58410.41
548.51	58401.05
548.67	58438.50
548.84	58344.87
549.01	58241.89
549.18	58499.35
549.34	58513.39
549.51	58466.58
549.68	58623.40
549.84	58656.17
550.01	58508.71
550.18	58473.60
550.34	58616.38
550.51	58478.28
550.68	58412.75
550.84	58457.22
551.01	58869.15
551.18	58717.02
551.34	58693.61
551.51	58660.85
551.68	58754.47
551.84	58658.51
552.01	58738.08
552.18	58890.22
552.34	58773.19
552.51	58988.52
552.68	58695.95
552.84	58887.88
553.01	59119.59
553.18	58918.31
553.34	59433.22
553.51	58803.62
553.67	59007.25
553.84	59100.87
554.01	59079.80
554.17	59035.33
554.34	59180.45
554.51	59124.27
554.67	59035.33
554.84	59051.72
555.00	59182.79
555.17	59302.15
555.33	59114.91
555.50	59250.66
555.67	59159.38
555.83	59128.95
556.00	59196.83
556.16	59643.87
556.33	59564.29
556.50	59444.93
556.66	59430.88
556.83	59222.58
556.99	59599.40
557.16	59634.51
557.32	59681.32
557.49	59772.60
557.65	59458.97
557.82	59686.00
557.98	59407.48
558.15	59615.79
558.32	59702.38
558.48	59604.08
558.65	59620.47
558.81	59786.64
558.98	59688.34
559.14	59898.99
559.31	59662.60
559.47	59821.75
559.64	59676.64
559.80	59936.44
559.97	59859.20
560.13	59667.28
560.30	59788.98
560.46	59870.90
560.63	60037.08
560.79	60041.76
560.96	59987.93
561.12	59927.08
561.29	59873.24
561.45	59840.48
561.61	59824.09
561.78	59812.39
561.94	60025.38
562.11	59915.37
562.27	59957.50
562.44	60142.41
562.60	60037.08
562.77	60196.24
562.93	59887.29
563.10	60088.57
563.26	59856.86
563.42	60271.14
563.59	60390.50
563.75	60254.75
563.92	60191.56
564.08	60072.19
564.24	60364.76
564.41	60289.86
564.57	60301.56
564.74	60367.10
564.90	60140.07
565.07	60303.90
565.23	59971.55
565.39	60264.11
565.56	60411.57
565.72	60207.94
565.88	60247.73
566.05	60210.28
566.21	60320.29
566.38	60346.03
566.54	60528.59
566.70	60619.88
566.87	60537.96
567.03	60041.76
567.19	60816.48
567.36	60512.21
567.52	60406.89
567.68	60732.22
567.85	60383.48
568.01	60587.11
568.17	60502.85
568.34	60413.91
568.50	60666.69
568.66	60486.46
568.83	60612.85
568.99	60500.51
569.15	60657.32
569.32	60582.43
569.48	60711.16
569.64	60683.07
569.81	60463.06
569.97	60441.99
570.13	60608.17
570.30	60395.18
570.46	60547.32
570.62	60748.60
570.78	60779.03
570.95	60444.33
571.11	60760.31
571.27	60554.34
571.43	60844.57
571.60	60767.33
571.76	60713.50
571.92	60739.24
572.09	60809.46
572.25	60809.46
572.41	60769.67
572.57	60800.10
572.74	60807.12
572.90	60697.11
573.06	60816.48
573.22	60764.99
573.38	60631.58
573.55	60657.32
573.71	60905.42
573.87	60856.27
574.03	60671.37
574.20	60786.05
574.36	60882.02
574.52	60762.65
574.68	60996.70
574.84	60945.21
575.01	61146.50
575.17	60842.23
575.33	60676.05
575.49	60884.36
575.65	60858.61
575.82	60853.93
575.98	60851.59
576.14	61087.98
576.30	61083.30
576.46	60882.02
576.62	60945.21
576.79	61001.38
576.95	60725.20
577.11	61062.24
577.27	60910.10
577.43	60877.33
577.59	60907.76
577.75	60907.76
577.92	61015.43
578.08	61104.37
578.24	61144.16
578.40	61066.92
578.56	61127.77
578.72	61045.85
578.88	61104.37
579.04	61127.77
579.21	60963.93
579.37	60966.27
579.53	61223.73
579.69	60853.93
579.85	60853.93
580.01	60914.78
580.17	60966.27
580.33	61027.13
580.49	61317.35
580.65	61153.52
580.82	60968.61
580.98	60996.70
581.14	61097.34
581.30	61221.39
581.46	61111.39
581.62	61155.86
581.78	61137.13
581.94	61132.45
582.10	60898.40
582.26	61036.49
582.42	61146.50
582.58	60970.96
582.74	61134.79
582.90	61137.13
583.06	60982.66
583.22	60903.08
583.38	61132.45
583.54	61181.60
583.70	61172.24
583.86	61244.80
584.02	60975.64
584.18	61116.07
584.34	61230.75
584.50	61008.40
584.66	61144.16
584.82	61008.40
584.98	61256.50
585.14	61216.71
585.30	61048.19
585.46	61354.80
585.62	61132.45
585.78	61366.51
585.94	60975.64
586.10	61183.94
586.26	61212.03
586.42	61216.71
586.58	61083.30
586.74	61169.90
586.90	61066.92
587.06	61080.96
587.22	61347.78
587.38	61148.84
587.54	61396.93
587.70	61345.44
587.86	61195.65
588.02	61165.22
588.18	61317.35
588.34	61286.93
