SpectraSuite Data File
++++++++++++++++++++++++++++++++++++
Date: Fri Oct 25 10:47:55 EDT 2013
User: price-jones
Dark Spectrum Present: No
Reference Spectrum Present: No
Number of Sampled Component Spectra: 1
Spectrometers: USB2+H05261
Integration Time (usec): 100000 (USB2+H05261)
Spectra Averaged: 1 (USB2+H05261)
Boxcar Smoothing: 0 (USB2+H05261)
Correct for Electrical Dark: No (USB2+H05261)
Strobe/Lamp Enabled: No (USB2+H05261)
Correct for Detector Non-linearity: No (USB2+H05261)
Correct for Stray Light: No (USB2+H05261)
Number of Pixels in Processed Spectrum: 2048
>>>>>Begin Processed Spectral Data<<<<<
365.73	93.62
365.92	93.62
366.12	93.62
366.32	42.13
366.52	63.19
366.72	25.75
366.91	49.15
367.11	14.04
367.31	77.24
367.51	95.96
367.70	14.04
367.90	67.88
368.10	65.54
368.30	11.70
368.49	28.09
368.69	79.58
368.89	60.85
369.09	84.26
369.28	21.06
369.48	67.88
369.68	37.45
369.87	95.96
370.07	107.66
370.27	124.05
370.47	205.97
370.66	400.23
370.86	421.30
371.06	482.15
371.25	388.53
371.45	465.77
371.65	493.85
371.84	451.72
372.04	454.06
372.24	477.47
372.44	510.24
372.63	500.87
372.83	538.32
373.03	486.83
373.22	437.68
373.42	491.51
373.62	524.28
373.81	482.15
374.01	617.90
374.21	557.05
374.40	624.92
374.60	613.22
374.79	533.64
374.99	538.32
375.19	561.73
375.38	531.30
375.58	552.37
375.78	540.66
375.97	543.00
376.17	711.52
376.37	650.67
376.56	690.46
376.76	592.16
376.95	575.77
377.15	629.60
377.35	653.01
377.54	636.63
377.74	622.58
377.93	582.79
378.13	664.71
378.33	617.90
378.52	582.79
378.72	587.47
378.91	622.58
379.11	568.75
379.31	575.77
379.50	636.63
379.70	592.16
379.89	631.94
380.09	695.14
380.28	660.03
380.48	660.03
380.68	692.80
380.87	723.23
381.07	643.65
381.26	753.65
381.46	610.88
381.65	638.97
381.85	638.97
382.04	690.46
382.24	657.69
382.43	692.80
382.63	601.52
382.83	601.52
383.02	669.39
383.22	664.71
383.41	683.44
383.61	648.33
383.80	669.39
384.00	744.29
384.19	725.57
384.39	833.23
384.58	791.10
384.78	730.25
384.97	758.33
385.17	751.31
385.36	730.25
385.56	746.63
385.75	774.72
385.95	777.06
386.14	826.21
386.34	791.10
386.53	777.06
386.72	847.27
386.92	854.30
387.11	844.93
387.31	816.85
387.50	779.40
387.70	767.70
387.89	858.98
388.09	798.12
388.28	819.19
388.48	889.40
388.67	866.00
388.86	844.93
389.06	884.72
389.25	849.61
389.45	924.51
389.64	910.47
389.84	856.64
390.03	945.58
390.22	868.34
390.42	887.06
390.61	842.59
390.81	950.26
391.00	837.91
391.19	966.64
391.39	917.49
391.58	994.73
391.78	1027.50
391.97	950.26
392.16	990.05
392.36	961.96
392.55	966.64
392.75	999.41
392.94	936.21
393.13	971.32
393.33	938.55
393.52	1034.52
393.71	1039.20
393.91	1006.43
394.10	1046.22
394.29	1043.88
394.49	987.71
394.68	1172.61
394.88	1050.90
395.07	1130.48
395.26	1100.05
395.46	1132.82
395.65	1121.12
395.84	1191.33
396.04	1158.57
396.23	1142.18
396.42	1025.15
396.62	1167.93
396.81	1160.91
397.00	1177.29
397.19	1191.33
397.39	1198.35
397.58	1289.64
397.77	1266.23
397.97	1254.53
398.16	1336.45
398.35	1404.32
398.55	1256.87
398.74	1322.40
398.93	1355.17
399.12	1371.55
399.32	1287.29
399.51	1294.32
399.70	1348.15
399.90	1432.41
400.09	1390.28
400.28	1427.73
400.47	1413.68
400.67	1441.77
400.86	1423.05
401.05	1411.34
401.24	1533.05
401.44	1516.67
401.63	1460.49
401.82	1474.54
402.01	1460.49
402.21	1535.39
402.40	1572.84
402.59	1460.49
402.78	1596.25
402.97	1364.53
403.17	1600.93
403.36	1547.09
403.55	1533.05
403.74	1610.29
403.93	1685.19
404.13	1624.33
404.32	1664.12
404.51	1708.59
404.70	1741.36
404.89	1689.87
405.09	1703.91
405.28	1661.78
405.47	1724.97
405.66	1661.78
405.85	1708.59
406.05	1818.60
406.24	1771.79
406.43	1790.51
406.62	1813.92
406.81	1937.96
407.00	1827.96
407.20	1748.38
407.39	1724.97
407.58	1860.73
407.77	1893.49
407.96	1954.35
408.15	2026.90
408.34	1923.92
408.54	2019.88
408.73	2003.50
408.92	2043.29
409.11	2066.69
409.30	2047.97
409.49	2012.86
409.68	2022.22
409.87	1952.01
410.07	2139.25
410.26	2146.27
410.45	2115.84
410.64	2106.48
410.83	2270.32
411.02	2251.60
411.21	2228.19
411.40	2310.11
411.59	2202.44
411.78	2249.25
411.98	2251.60
412.17	2417.77
412.36	2408.41
412.55	2525.44
412.74	2466.92
412.93	2413.09
413.12	2380.32
413.31	2495.01
413.50	2509.05
413.69	2548.84
413.88	2607.36
414.07	2609.70
414.26	2605.02
414.45	2553.52
414.64	2726.72
414.83	2693.96
415.02	2698.64
415.22	2705.66
415.41	2738.43
415.60	2768.85
415.79	2806.30
415.98	2761.83
416.17	2827.37
416.36	2803.96
416.55	2815.66
416.74	2792.26
416.93	2937.37
417.12	3028.65
417.31	3033.33
417.50	2991.20
417.69	3061.42
417.88	3126.96
418.07	2965.46
418.26	3150.36
418.45	3049.72
418.64	3361.01
418.83	3272.07
419.02	3199.51
419.21	3197.17
419.39	3234.62
419.58	3063.76
419.77	3110.57
419.96	3370.37
420.15	3321.22
420.34	3344.63
420.53	3342.28
420.72	3393.78
420.91	3393.78
421.10	3499.10
421.29	3482.72
421.48	3405.48
421.67	3468.67
421.86	3461.65
422.05	3471.01
422.24	3335.26
422.43	3400.80
422.61	3482.72
422.80	3393.78
422.99	3506.12
423.18	3726.13
423.37	3632.51
423.56	3447.61
423.75	3428.88
423.94	3485.06
424.13	3375.05
424.32	3302.50
424.50	3541.23
424.69	3613.79
424.88	3585.70
425.07	3508.46
425.26	3541.23
425.45	3508.46
425.64	3550.59
425.83	3428.88
426.01	3456.97
426.20	3585.70
426.39	3756.56
426.58	3716.77
426.77	3581.02
426.96	3520.17
427.15	3613.79
427.33	3742.52
427.52	3672.30
427.71	3845.50
427.90	3702.73
428.09	3641.87
428.28	3920.40
428.46	3784.65
428.65	3695.71
428.84	3918.06
429.03	3878.27
429.22	3836.14
429.40	3892.31
429.59	3838.48
429.78	3658.26
429.97	3630.17
430.16	3812.73
430.34	3737.84
430.53	3880.61
430.72	3896.99
430.91	3885.29
431.10	3995.29
431.28	4105.30
431.47	4121.68
431.66	4112.32
431.85	3962.53
432.03	4187.22
432.22	4152.11
432.41	4091.26
432.60	4266.80
432.79	4208.28
432.97	4203.60
433.16	4175.52
433.35	4194.24
433.54	4217.65
433.72	4250.41
433.91	4308.93
434.10	4257.43
434.28	4243.39
434.47	4386.16
434.66	4393.19
434.85	4521.92
435.03	4374.46
435.22	4606.17
435.41	4573.41
435.59	4573.41
435.78	4627.24
435.97	4655.33
436.16	4470.42
436.34	4578.09
436.53	4648.30
436.72	4819.16
436.90	4575.75
437.09	4629.58
437.28	4596.81
437.46	4685.75
437.65	4624.90
437.84	4734.90
438.02	4669.37
438.21	4863.63
438.40	4662.35
438.58	4835.55
438.77	4873.00
438.96	4849.59
439.14	4966.62
439.33	5097.69
439.52	5071.94
439.70	5083.64
439.89	5184.29
440.08	5074.28
440.26	5158.54
440.45	5163.22
440.63	5240.46
440.82	5336.42
441.01	5334.08
441.19	5392.59
441.38	5533.03
441.57	5488.56
441.75	5490.90
441.94	5483.88
442.12	5678.14
442.31	5774.10
442.50	5493.24
442.68	5544.73
442.87	5699.20
443.05	5619.63
443.24	5640.69
443.43	5715.59
443.61	5680.48
443.80	6164.97
443.98	5727.29
444.17	5540.05
444.35	5755.38
444.54	5820.91
444.73	5767.08
444.91	5905.17
445.10	5729.63
445.28	5825.59
445.47	5696.86
445.65	5832.62
445.84	6017.52
446.02	6122.84
446.21	5935.60
446.39	6061.99
446.58	5834.96
446.77	5919.21
446.95	5879.43
447.14	6047.94
447.32	6080.71
447.51	5994.11
447.69	5923.90
447.88	6108.80
448.06	6031.56
448.25	5977.73
448.43	6026.88
448.62	6069.01
448.80	5977.73
448.99	5935.60
449.17	5991.77
449.36	6012.84
449.54	6061.99
449.73	6134.54
449.91	6176.67
450.10	6361.58
450.28	6291.36
450.46	6504.35
450.65	6469.24
450.83	6438.81
451.02	6445.84
451.20	6319.45
451.39	6317.11
451.57	6394.34
451.76	6483.28
451.94	6534.78
452.13	6394.34
452.31	6368.60
452.49	6370.94
452.68	6534.78
452.86	6436.47
453.05	6656.48
453.23	6691.59
453.42	6670.53
453.60	6607.33
453.78	6654.14
453.97	6677.55
454.15	6649.46
454.34	6438.81
454.52	6700.95
454.70	6785.21
454.89	6836.70
455.07	6768.83
455.26	6881.18
455.44	6904.58
455.62	6904.58
455.81	6885.86
455.99	7016.93
456.17	6890.54
456.36	6897.56
456.54	7243.96
456.73	7213.53
456.91	7365.67
457.09	7370.35
457.28	7260.34
457.46	7241.62
457.64	7382.05
457.83	7330.56
458.01	7265.02
458.19	7311.83
458.38	7138.63
458.56	7424.18
458.74	7356.30
458.93	7377.37
459.11	7473.33
459.29	7527.16
459.48	7431.20
459.66	7517.80
459.84	7566.95
460.03	7691.00
460.21	7604.40
460.39	7597.38
460.57	7686.32
460.76	7723.77
460.94	7765.90
461.12	7669.94
461.31	7634.83
461.49	7662.91
461.67	7770.58
461.85	7995.27
462.04	7798.66
462.22	8365.07
462.40	8046.76
462.59	8016.33
462.77	7934.42
462.95	8088.89
463.13	8241.03
463.32	8109.96
463.50	8163.79
463.68	8351.03
463.86	8161.45
464.05	7880.58
464.23	7995.27
464.41	7969.52
464.59	7962.50
464.78	8264.43
464.96	8358.05
465.14	8039.74
465.32	8318.26
465.50	8411.89
465.69	8428.27
465.87	8278.47
466.05	8273.79
466.23	8175.49
466.41	8379.12
466.60	8704.45
466.78	8388.48
466.96	8287.84
467.14	8320.60
467.32	8528.91
467.51	8524.23
467.69	8423.59
467.87	8451.67
468.05	8720.84
468.23	8589.77
468.41	8699.77
468.60	8643.60
468.78	8662.32
468.96	8444.65
469.14	8713.81
469.32	9067.24
469.50	8788.71
469.69	8931.48
469.87	9046.17
470.05	9088.30
470.23	8826.16
470.41	8982.98
470.59	9078.94
470.77	9034.47
470.95	9015.74
471.14	9167.88
471.32	9025.11
471.50	9371.50
471.68	9376.19
471.86	9369.16
472.04	9462.79
472.22	9544.70
472.40	9284.91
472.58	9437.04
472.77	9621.94
472.95	9617.26
473.13	9944.94
473.31	9551.73
473.49	9717.90
473.67	9664.07
473.85	9720.24
474.03	9853.66
474.21	9839.61
474.39	10104.09
474.57	10214.10
474.75	10181.33
474.93	10150.90
475.12	10195.37
475.30	10293.68
475.48	10193.03
475.66	10429.43
475.84	10394.32
476.02	10399.00
476.20	10307.72
476.38	10588.58
476.56	10794.55
476.74	10857.75
476.92	10801.57
477.10	10572.20
477.28	10906.90
477.46	11012.22
477.64	11197.12
477.82	11108.18
478.00	11417.13
478.18	11335.21
478.36	11346.92
478.54	11522.46
478.72	11463.94
478.90	11496.71
479.08	11882.90
479.26	12060.78
479.44	12056.10
479.62	12095.89
479.80	11946.09
479.98	12044.40
480.16	12390.80
480.34	12109.93
480.52	12690.38
480.70	12564.00
480.88	12531.23
481.06	12484.42
481.24	12582.72
481.41	13004.02
481.59	12755.92
481.77	13069.55
481.95	13064.87
482.13	13392.55
482.31	13191.26
482.49	13685.11
482.67	13596.17
482.85	13760.01
483.03	13823.20
483.21	13982.36
483.39	14094.71
483.57	13954.27
483.74	14031.51
483.92	14333.44
484.10	14188.33
484.28	14272.59
484.46	14736.01
484.64	15005.17
484.82	14537.07
485.00	14663.46
485.18	15260.29
485.35	15316.47
485.53	14839.00
485.71	15094.11
485.89	15229.87
486.07	15176.03
486.25	15311.78
486.43	15637.12
486.61	15721.38
486.78	15943.73
486.96	15854.79
487.14	16236.30
487.32	16243.32
487.50	16285.45
487.68	16589.72
487.85	16753.55
488.03	16959.52
488.21	17167.83
488.39	16893.99
488.57	17270.81
488.75	17177.19
488.92	17334.01
489.10	17750.62
489.28	17692.11
489.46	18260.86
489.64	17827.86
489.81	18246.82
489.99	18097.02
490.17	18331.08
490.35	18448.10
490.53	18555.77
490.70	19023.87
490.88	18747.69
491.06	19016.85
491.24	19183.03
491.41	19091.75
491.59	19255.59
491.77	19152.60
491.95	19274.31
492.13	19351.55
492.30	19740.08
492.48	19873.49
492.66	19927.32
492.84	20177.76
493.01	20107.54
493.19	20362.66
493.37	20334.57
493.54	20325.21
493.72	20896.30
493.90	20758.21
494.08	21078.86
494.25	21443.99
494.43	21273.13
494.61	21418.24
494.79	21509.52
494.96	21532.93
495.14	21432.29
495.32	21570.38
495.49	21762.30
495.67	21755.28
495.85	22216.36
496.02	22239.77
496.20	22668.09
496.38	22382.54
496.55	22670.43
496.73	23047.26
496.91	22551.06
497.09	22930.23
497.26	22923.21
497.44	22869.37
497.62	23051.94
497.79	23601.96
497.97	23108.11
498.14	23571.54
498.32	23627.71
498.50	23681.54
498.67	24432.85
498.85	24030.28
499.03	24271.36
499.20	24159.01
499.38	24278.38
499.56	24484.34
499.73	24280.72
499.91	24776.91
500.08	24638.82
500.26	24362.64
500.44	24526.47
500.61	24617.75
500.79	24716.06
500.97	24966.49
501.14	25453.33
501.32	25116.29
501.49	24889.26
501.67	25626.53
501.84	25408.86
502.02	25216.93
502.20	25635.89
502.37	25525.88
502.55	25703.76
502.72	25905.05
502.90	25944.84
503.07	25439.28
503.25	25762.28
503.43	26359.11
503.60	26094.63
503.78	26354.43
503.95	26431.67
504.13	26066.55
504.30	26707.85
504.48	26565.08
504.65	26995.74
504.83	26745.30
505.01	27049.57
505.18	26810.84
505.36	27271.92
505.53	27061.27
505.71	27157.24
505.88	27796.20
506.06	27035.53
506.23	27211.07
506.41	27377.25
506.58	27402.99
506.76	27590.24
506.93	28236.22
507.11	27431.08
507.28	28191.75
507.46	27583.21
507.63	27999.83
507.81	28107.49
507.98	28158.99
508.16	28348.57
508.33	28215.16
508.50	28622.41
508.68	28727.74
508.85	29008.60
509.03	28481.98
509.20	29127.97
509.38	29095.20
509.55	29017.96
509.73	29301.17
509.90	28891.57
510.08	29186.48
510.25	29095.20
510.42	29443.94
510.60	29558.63
510.77	29546.92
510.95	29909.71
511.12	29605.44
511.30	29876.94
511.47	29940.13
511.64	30335.68
511.82	30450.37
511.99	29755.23
512.17	30295.89
512.34	30326.32
512.51	30391.86
512.69	30370.79
512.86	30637.61
513.04	31014.44
513.21	30682.08
513.38	30267.81
513.56	30478.46
513.73	30703.15
513.90	30583.78
514.08	30728.89
514.25	31161.89
514.43	30852.94
514.60	30904.43
514.77	31035.50
514.95	31660.43
515.12	31379.56
515.29	31758.73
515.47	31356.16
515.64	31414.67
515.81	31491.91
515.99	31400.63
516.16	31819.58
516.33	31620.64
516.51	31878.10
516.68	31232.11
516.85	31512.97
517.03	32016.19
517.20	31894.48
517.37	32067.68
517.54	32486.64
517.72	31917.89
517.89	32048.96
518.06	32208.11
518.24	32149.60
518.41	32336.84
518.58	32393.01
518.75	32369.61
518.93	32842.40
519.10	32334.50
519.27	33289.44
519.45	32945.38
519.62	33221.56
519.79	32893.89
519.96	33317.53
520.14	33298.80
520.31	33301.14
520.48	33216.88
520.65	33504.77
520.83	33322.21
521.00	33834.78
521.17	33736.48
521.34	33825.42
521.52	33706.05
521.69	34232.68
521.86	34066.50
522.03	33729.46
522.20	34101.61
522.38	34253.74
522.55	34359.06
522.72	34368.43
522.89	33954.15
523.07	34583.76
523.24	34415.24
523.41	34274.80
523.58	34553.33
523.75	34948.88
523.92	35133.78
524.10	34993.35
524.27	35243.79
524.44	35189.95
524.61	35093.99
524.78	35072.93
524.96	35110.38
525.13	35325.71
525.30	35714.23
525.47	35679.13
525.64	35409.96
525.81	35438.05
525.98	35220.38
526.16	35243.79
526.33	35260.17
526.50	35644.02
526.67	35480.18
526.84	35541.03
527.01	35253.15
527.18	35866.37
527.36	36006.80
527.53	36348.52
527.70	35833.60
527.87	36172.98
528.04	36055.95
528.21	36163.62
528.38	36025.53
528.55	36617.68
528.72	36348.52
528.89	36809.61
529.07	36552.15
529.24	36421.08
529.41	36605.98
529.58	36423.42
529.75	36645.77
529.92	37263.67
530.09	36870.46
530.26	36657.47
530.43	36650.45
530.60	36624.70
530.77	36748.75
530.94	37221.54
531.11	37120.90
531.28	36947.70
531.46	37500.06
531.63	37123.24
531.80	37642.84
531.97	37336.23
532.14	37518.79
532.31	37422.83
532.48	37834.76
532.65	37404.10
532.82	37251.97
532.99	37872.21
533.16	37450.91
533.33	37790.29
533.50	37809.01
533.67	37839.44
533.84	37626.45
534.01	37809.01
534.18	38031.36
534.35	38628.20
534.52	38007.96
534.69	38602.46
534.86	38190.52
535.03	38092.22
535.20	38323.93
535.37	38768.63
535.54	39047.16
535.71	38043.07
535.88	38682.03
536.05	38234.99
536.22	38733.53
536.38	38707.78
536.55	38857.57
536.72	38429.26
536.89	38424.57
537.06	38759.27
537.23	38679.69
537.40	38773.31
537.57	38953.54
537.74	38677.35
537.91	38813.10
538.08	38506.49
538.25	38665.65
538.42	39332.70
538.59	39508.24
538.75	38445.64
538.92	39227.38
539.09	39138.44
539.26	39257.81
539.43	39194.61
539.60	39384.19
539.77	39154.82
539.94	39665.06
540.11	39353.77
540.28	39047.16
540.44	39395.90
540.61	39545.69
540.78	39466.11
540.95	39746.98
541.12	39620.59
541.29	39299.94
541.46	39646.33
541.62	39945.92
541.79	40191.68
541.96	39756.34
542.13	39985.71
542.30	40128.48
542.47	40046.57
542.63	40053.59
542.80	40334.45
542.97	40395.31
543.14	40718.30
543.31	40332.11
543.48	40687.87
543.64	41167.68
543.81	40554.46
543.98	40320.41
544.15	40779.15
544.32	41294.07
544.48	40912.56
544.65	40790.86
544.82	40999.16
544.99	40507.65
545.16	40652.76
545.32	40856.39
545.49	41038.95
545.66	41074.06
545.83	40954.69
546.00	41134.92
546.16	41254.28
546.33	41148.96
546.50	40657.45
546.67	41163.00
546.83	40643.40
547.00	41191.09
547.17	41141.94
547.34	41401.74
547.50	41181.73
547.67	41521.10
547.84	41570.25
548.00	41787.92
548.17	41921.34
548.34	41448.55
548.51	42017.30
548.67	41614.72
548.84	42085.17
549.01	41528.13
549.18	41476.63
549.34	42122.62
549.51	41867.50
549.68	41792.61
549.84	41698.98
550.01	42174.11
550.18	41364.29
550.34	41808.99
550.51	42080.49
550.68	41965.81
550.84	41933.04
551.01	42043.04
551.18	41991.55
551.34	42195.18
551.51	42330.93
551.68	42445.62
551.84	42719.46
552.01	41818.35
552.18	42384.76
552.34	41902.61
552.51	42529.87
552.68	42202.20
552.84	42574.34
553.01	42508.81
553.18	42382.42
553.34	42464.34
553.51	42291.14
553.67	42682.01
553.84	42803.72
554.01	42637.54
554.17	43023.73
554.34	43360.76
554.51	42890.32
554.67	43363.11
554.84	42651.58
555.00	42883.30
555.17	42611.79
555.33	42742.86
555.50	42707.76
555.67	42834.14
555.83	42775.63
556.00	43016.71
556.16	43346.72
556.33	43210.97
556.50	42820.10
556.66	43292.89
556.83	42637.54
556.99	43232.04
557.16	43540.99
557.32	42887.98
557.49	43377.15
557.65	43143.09
557.82	43262.46
557.98	43229.69
558.15	43159.48
558.32	43433.32
558.48	43363.11
558.65	43098.62
558.81	43398.21
558.98	43496.52
559.14	43274.16
559.31	43225.01
559.47	43271.82
559.64	43522.26
559.80	43618.22
559.97	43620.56
560.13	43152.46
560.30	43402.89
560.46	43187.56
560.63	43601.84
560.79	43721.21
560.96	44208.04
561.12	43421.62
561.29	43660.35
561.45	43831.21
561.61	43470.77
561.78	43716.53
561.94	43613.54
562.11	43669.72
562.27	43468.43
562.44	43648.65
562.60	43955.26
562.77	43976.33
562.93	44172.93
563.10	43929.51
563.26	43922.49
563.42	44334.43
563.59	44025.48
563.75	43922.49
563.92	44259.53
564.08	43903.77
564.24	44233.78
564.41	44048.88
564.57	43566.73
564.74	44289.96
564.90	44088.67
565.07	43983.35
565.23	43882.70
565.39	43903.77
565.56	44212.72
565.72	44039.52
565.88	43835.89
566.05	44177.61
566.21	44142.50
566.38	43983.35
566.54	43805.47
566.70	44369.54
566.87	44383.58
567.03	43892.07
567.19	44666.78
567.36	44346.13
567.52	43833.55
567.68	44093.35
567.85	43753.97
568.01	44215.06
568.17	44011.43
568.34	44664.44
568.50	44203.36
568.66	44055.90
568.83	44079.31
568.99	44135.48
569.15	44341.45
569.32	44215.06
569.48	44067.61
569.64	44718.28
569.81	44428.05
569.97	44320.38
570.13	44245.49
570.30	44170.59
570.46	43871.00
570.62	44402.30
570.78	43826.53
570.95	44069.95
571.11	44435.07
571.27	43866.32
571.43	44208.04
571.60	44711.25
571.76	44322.72
571.92	44683.17
572.09	44545.08
572.25	44308.68
572.41	44252.51
572.57	44416.35
572.74	44814.24
572.90	44205.70
573.06	44406.98
573.22	44903.18
573.38	44800.19
573.55	44509.97
573.71	44449.11
573.87	44435.07
574.03	44170.59
574.20	44416.35
574.36	44280.60
574.52	44334.43
574.68	44287.62
574.84	44739.34
575.01	44514.65
575.17	44488.90
575.33	44229.10
575.49	44713.59
575.65	44889.13
575.82	44704.23
575.98	44697.21
576.14	44612.95
576.30	44516.99
576.46	44594.23
576.62	44617.63
576.79	44732.32
576.95	44414.01
577.11	44264.21
577.27	44839.98
577.43	44161.23
577.59	44280.60
577.75	44561.46
577.92	44397.62
578.08	44360.17
578.24	44154.21
578.40	45022.54
578.56	44285.28
578.72	44521.67
578.88	44779.13
579.04	45008.50
579.21	44533.37
579.37	44332.09
579.53	44240.81
579.69	44528.69
579.85	44467.84
580.01	44390.60
580.17	44648.06
580.33	44671.46
580.49	44875.09
580.65	45001.48
580.82	44931.26
580.98	44669.12
581.14	44692.53
581.30	44678.49
581.46	44619.97
581.62	44509.97
581.78	44828.28
581.94	44954.67
582.10	44601.25
582.26	44847.00
582.42	44598.91
582.58	44641.04
582.74	44603.59
582.90	44456.14
583.06	45015.52
583.22	44872.75
583.38	44882.11
583.54	44961.69
583.70	44493.58
583.86	44631.68
584.02	44615.29
584.18	44655.08
584.34	45177.02
584.50	45015.52
584.66	44575.50
584.82	44514.65
584.98	44760.40
585.14	45193.40
585.30	44575.50
585.46	44868.07
585.62	44715.93
585.78	44533.37
585.94	44514.65
586.10	44554.44
586.26	44467.84
586.42	44722.96
586.58	45277.66
586.74	44861.05
586.90	44598.91
587.06	44729.98
587.22	45022.54
587.38	44430.39
587.54	45057.65
587.70	45062.33
587.86	45041.27
588.02	44762.75
588.18	44975.73
588.34	44741.68
588.49	44395.28
588.65	44116.76
588.81	44418.69
588.97	44547.42
589.13	44091.01
589.29	44542.74
589.45	44776.79
589.61	44727.64
589.77	44807.22
589.93	44964.03
590.08	45045.95
590.24	45050.63
