SpectraSuite Data File
++++++++++++++++++++++++++++++++++++
Date: Fri Oct 25 11:26:15 EDT 2013
User: price-jones
Dark Spectrum Present: No
Reference Spectrum Present: No
Number of Sampled Component Spectra: 1
Spectrometers: USB2+H05261
Integration Time (usec): 100000 (USB2+H05261)
Spectra Averaged: 1 (USB2+H05261)
Boxcar Smoothing: 0 (USB2+H05261)
Correct for Electrical Dark: No (USB2+H05261)
Strobe/Lamp Enabled: No (USB2+H05261)
Correct for Detector Non-linearity: No (USB2+H05261)
Correct for Stray Light: No (USB2+H05261)
Number of Pixels in Processed Spectrum: 2048
>>>>>Begin Processed Spectral Data<<<<<
365.73	224.69
365.92	224.69
366.12	224.69
366.32	201.29
366.52	166.18
366.72	149.79
366.91	107.66
367.11	252.78
367.31	147.45
367.51	173.20
367.70	74.90
367.90	124.05
368.10	131.07
368.30	131.07
368.49	121.71
368.69	135.75
368.89	154.48
369.09	51.49
369.28	154.48
369.48	259.80
369.68	224.69
369.87	229.37
370.07	205.97
370.27	168.52
370.47	301.93
370.66	594.50
370.86	519.60
371.06	671.73
371.25	678.76
371.45	615.56
371.65	643.65
371.84	578.11
372.04	720.88
372.24	667.05
372.44	727.91
372.63	781.74
372.83	713.86
373.03	720.88
373.22	809.83
373.42	788.76
373.62	716.20
373.81	830.89
374.01	898.77
374.21	875.36
374.40	795.78
374.60	870.68
374.79	830.89
374.99	784.08
375.19	901.11
375.38	844.93
375.58	795.78
375.78	870.68
375.97	945.58
376.17	987.71
376.37	889.40
376.56	908.13
376.76	868.34
376.95	788.76
377.15	924.51
377.35	891.74
377.54	875.36
377.74	891.74
377.93	863.66
378.13	915.15
378.33	901.11
378.52	882.38
378.72	924.51
378.91	870.68
379.11	959.62
379.31	978.34
379.50	910.47
379.70	1013.45
379.89	1043.88
380.09	985.37
380.28	905.79
380.48	1006.43
380.68	1069.62
380.87	898.77
381.07	1090.69
381.26	1027.50
381.46	987.71
381.65	1022.81
381.85	1034.52
382.04	1053.24
382.24	1020.47
382.43	1013.45
382.63	1074.31
382.83	1095.37
383.02	1235.80
383.22	1210.06
383.41	1142.18
383.61	1128.14
383.80	1196.01
384.00	1191.33
384.19	1165.59
384.39	1263.89
384.58	1151.54
384.78	1078.99
384.97	1149.20
385.17	1149.20
385.36	1217.08
385.56	1203.04
385.75	1128.14
385.95	1219.42
386.14	1207.72
386.34	1167.93
386.53	1224.10
386.72	1198.35
386.92	1296.66
387.11	1160.91
387.31	1268.57
387.50	1174.95
387.70	1240.48
387.89	1357.51
388.09	1266.23
388.28	1299.00
388.48	1322.40
388.67	1350.49
388.86	1313.04
389.06	1357.51
389.25	1343.47
389.45	1327.08
389.64	1214.74
389.84	1427.73
390.03	1411.34
390.22	1373.89
390.42	1355.17
390.61	1416.02
390.81	1303.68
391.00	1490.92
391.19	1472.20
391.39	1481.56
391.58	1411.34
391.78	1497.94
391.97	1542.41
392.16	1528.37
392.36	1526.03
392.55	1533.05
392.75	1490.92
392.94	1416.02
393.13	1636.03
393.33	1502.62
393.52	1568.16
393.71	1523.69
393.91	1563.48
394.10	1544.75
394.29	1584.54
394.49	1624.33
394.68	1577.52
394.88	1535.39
395.07	1673.48
395.26	1717.95
395.46	1757.74
395.65	1750.72
395.84	1785.83
396.04	1844.34
396.23	1846.68
396.42	1682.85
396.62	1891.15
396.81	1813.92
397.00	1790.51
397.19	1825.62
397.39	1776.47
397.58	1844.34
397.77	1746.04
397.97	1816.26
398.16	1879.45
398.35	1825.62
398.55	1802.21
398.74	1886.47
398.93	2026.90
399.12	2003.50
399.32	1996.48
399.51	1921.58
399.70	2010.52
399.90	1984.77
400.09	1998.82
400.28	2064.35
400.47	2019.88
400.67	2190.74
400.86	2108.82
401.05	2090.10
401.24	2085.42
401.44	2122.87
401.63	2209.47
401.82	2101.80
402.01	2172.02
402.21	2097.12
402.40	2136.91
402.59	2204.78
402.78	2167.34
402.97	2225.85
403.17	2225.85
403.36	2291.38
403.55	2326.49
403.74	2317.13
403.93	2279.68
404.13	2396.71
404.32	2319.47
404.51	2370.96
404.70	2457.56
404.89	2476.29
405.09	2469.27
405.28	2555.86
405.47	2396.71
405.66	2420.11
405.85	2506.71
406.05	2579.27
406.24	2558.21
406.43	2551.18
406.62	2595.65
406.81	2731.41
407.00	2609.70
407.20	2656.51
407.39	2616.72
407.58	2644.81
407.77	2733.75
407.96	2745.45
408.15	2771.19
408.34	2839.07
408.54	2785.24
408.73	2787.58
408.92	2822.69
409.11	2881.20
409.30	2967.80
409.49	2808.64
409.68	3009.93
409.87	3007.59
410.07	2841.41
410.26	3082.49
410.45	3021.63
410.64	3089.51
410.83	3014.61
411.02	3098.87
411.21	3052.06
411.40	3094.19
411.59	3155.04
411.78	3145.68
411.98	3112.91
412.17	3386.76
412.36	3293.13
412.55	3274.41
412.74	3353.99
412.93	3466.33
413.12	3398.46
413.31	3447.61
413.50	3424.20
413.69	3529.53
413.88	3604.42
414.07	3665.28
414.26	3688.68
414.45	3529.53
414.64	3695.71
414.83	3658.26
415.02	3754.22
415.22	3805.71
415.41	3906.35
415.60	3932.10
415.79	3995.29
415.98	3875.93
416.17	3932.10
416.36	4051.47
416.55	3920.40
416.74	4051.47
416.93	4014.02
417.12	4212.96
417.31	4219.99
417.50	4166.15
417.69	4189.56
417.88	4411.91
418.07	4084.23
418.26	4224.67
418.45	4311.27
418.64	4432.97
418.83	4339.35
419.02	4365.10
419.21	4348.72
419.39	4564.04
419.58	4358.08
419.77	4573.41
419.96	4425.95
420.15	4645.96
420.34	4702.14
420.53	4617.88
420.72	4697.46
420.91	4716.18
421.10	4699.80
421.29	4772.35
421.48	4720.86
421.67	4732.56
421.86	4765.33
422.05	4695.11
422.24	4800.44
422.43	4809.80
422.61	4919.81
422.80	4992.36
422.99	4777.03
423.18	4856.61
423.37	4877.68
423.56	4905.76
423.75	4870.65
423.94	4828.53
424.13	4688.09
424.32	4821.50
424.50	4961.94
424.69	5078.96
424.88	5046.20
425.07	4868.31
425.26	4856.61
425.45	5015.77
425.64	4910.44
425.83	4887.04
426.01	5013.43
426.20	5109.39
426.39	5081.30
426.58	5132.79
426.77	5069.60
426.96	5165.56
427.15	5165.56
427.33	5195.99
427.52	5020.45
427.71	5291.95
427.90	5238.12
428.09	5406.64
428.28	5397.28
428.46	5430.04
428.65	5455.79
428.84	5441.75
429.03	5394.93
429.22	5231.10
429.40	5444.09
429.59	5462.81
429.78	5305.99
429.97	5294.29
430.16	5427.70
430.34	5612.60
430.53	5659.42
430.72	5722.61
430.91	5694.52
431.10	5600.90
431.28	5930.92
431.47	5837.30
431.66	5909.85
431.85	5713.25
432.03	5860.70
432.22	5966.03
432.41	5912.19
432.60	5961.34
432.79	6080.71
432.97	6092.41
433.16	5968.37
433.35	5926.24
433.54	5944.96
433.72	6071.35
433.91	6061.99
434.10	6106.46
434.28	6083.05
434.47	6249.23
434.66	6242.21
434.85	6279.66
435.03	6354.55
435.22	6186.04
435.41	6359.24
435.59	6282.00
435.78	6539.46
435.97	6499.67
436.16	6392.00
436.34	6401.37
436.53	6567.54
436.72	6602.65
436.90	6384.98
437.09	6583.93
437.28	6328.81
437.46	6663.51
437.65	6836.70
437.84	6890.54
438.02	6759.47
438.21	6724.36
438.40	6668.19
438.58	6857.77
438.77	7049.69
438.96	7054.37
439.14	7239.28
439.33	7211.19
439.52	7068.42
439.70	7112.89
439.89	7222.89
440.08	7300.13
440.26	7351.62
440.45	7087.14
440.63	7676.96
440.82	7616.10
441.01	7618.44
441.19	7562.27
441.38	7765.90
441.57	7763.56
441.75	7892.29
441.94	7777.60
442.12	7922.71
442.31	8032.72
442.50	8107.62
442.68	7901.65
442.87	7922.71
443.05	8198.90
443.24	8259.75
443.43	8212.94
443.61	8189.53
443.80	8435.29
443.98	7889.95
444.17	7733.13
444.35	8116.98
444.54	8283.16
444.73	8212.94
444.91	8376.78
445.10	8339.33
445.28	8280.82
445.47	8205.92
445.65	8423.59
445.84	8393.16
446.02	8411.89
446.21	8409.54
446.39	8416.57
446.58	8503.17
446.77	8512.53
446.95	8238.69
447.14	8355.71
447.32	8601.47
447.51	8397.84
447.69	8608.49
447.88	8327.63
448.06	8636.58
448.25	8425.93
448.43	8564.02
448.62	8582.74
448.80	8531.25
448.99	8594.45
449.17	8765.31
449.36	8554.66
449.54	8762.97
449.73	9006.38
449.91	9100.00
450.10	8777.01
450.28	9039.15
450.46	9088.30
450.65	8809.78
450.83	9212.35
451.02	8945.53
451.20	9179.58
451.39	9310.65
451.57	9004.04
451.76	8947.87
451.94	9322.35
452.13	9397.25
452.31	9486.19
452.49	9273.20
452.68	9114.05
452.86	9287.25
453.05	9408.95
453.23	9430.02
453.42	9392.57
453.60	9397.25
453.78	9533.00
453.97	9327.03
454.15	9444.06
454.34	9432.36
454.52	9823.23
454.70	9617.26
454.89	9565.77
455.07	9694.50
455.26	9823.23
455.44	9975.36
455.62	9668.75
455.81	9788.12
455.99	9865.36
456.17	10015.15
456.36	10052.60
456.54	10174.31
456.73	10174.31
456.91	10328.78
457.09	10445.81
457.28	10555.82
457.46	10274.95
457.64	10345.17
457.83	10319.42
458.01	10539.43
458.19	10689.23
458.38	10548.79
458.56	10628.37
458.74	10743.06
458.93	10654.12
459.11	10623.69
459.29	10647.10
459.48	10736.04
459.66	10565.18
459.84	10752.42
460.03	11021.58
460.21	10867.11
460.39	10853.06
460.57	11082.44
460.76	10986.47
460.94	11035.63
461.12	11239.25
461.31	11023.92
461.49	11037.97
461.67	11339.90
461.85	11587.99
462.04	11213.51
462.22	12070.14
462.40	11470.97
462.59	11499.05
462.77	11492.03
462.95	11623.10
463.13	11410.11
463.32	11559.91
463.50	11702.68
463.68	11903.96
463.86	11733.11
464.05	11548.20
464.23	11552.88
464.41	12023.33
464.59	11602.04
464.78	12053.76
464.96	11882.90
465.14	11604.38
465.32	12023.33
465.50	12044.40
465.69	12173.13
465.87	12084.19
466.05	12414.20
466.23	12173.13
466.41	12248.02
466.60	12329.94
466.78	12236.32
466.96	12002.27
467.14	12238.66
467.32	12208.23
467.51	12681.02
467.69	12264.41
467.87	12510.16
468.05	12435.27
468.23	12468.03
468.41	12269.09
468.60	12613.15
468.78	12716.13
468.96	12400.16
469.14	12629.53
469.32	12826.14
469.50	12819.11
469.69	13062.53
469.87	13181.90
470.05	13121.04
470.23	13125.72
470.41	13144.45
470.59	13247.43
470.77	13174.88
470.95	13441.70
471.14	13523.62
471.32	13202.96
471.50	13689.79
471.68	13556.38
471.86	13621.92
472.04	13504.89
472.22	14097.05
472.40	13415.95
472.58	13799.80
472.77	14080.66
472.95	14040.87
473.13	14925.60
473.31	13951.93
473.49	14054.92
473.67	14113.43
473.85	14115.77
474.03	14635.37
474.21	14602.60
474.39	14714.95
474.57	14719.63
474.75	14562.81
474.93	14698.56
475.12	15019.22
475.30	15290.72
475.48	14963.04
475.66	14986.45
475.84	15140.93
476.02	15470.94
476.20	15428.81
476.38	15840.75
476.56	16105.23
476.74	15999.90
476.92	15793.94
477.10	15803.30
477.28	16194.17
477.46	16238.64
477.64	16065.44
477.82	16519.50
478.00	16802.71
478.18	16741.85
478.36	16809.73
478.54	17322.30
478.72	17149.11
478.90	17385.50
479.08	17603.17
479.26	17528.27
479.44	17774.03
479.62	17699.13
479.80	18078.30
479.98	18263.20
480.16	18743.01
480.34	18118.09
480.52	18808.54
480.70	18459.81
480.88	18490.23
481.06	18579.17
481.24	18590.88
481.41	18801.52
481.59	19222.82
481.77	19061.32
481.95	19412.40
482.13	19761.14
482.31	19550.49
482.49	20189.46
482.67	20114.56
482.85	20343.94
483.03	20503.09
483.21	20638.84
483.39	20903.32
483.57	20716.08
483.74	21088.23
483.92	21521.23
484.10	21074.18
484.28	21633.57
484.46	21844.22
484.64	22541.70
484.82	21816.13
485.00	22195.30
485.18	22766.39
485.35	22778.09
485.53	22963.00
485.71	23073.00
485.89	23332.80
486.07	23314.08
486.25	23187.69
486.43	23400.68
486.61	23740.05
486.78	24006.87
486.96	24367.32
487.14	24751.17
487.32	24584.99
487.50	24755.85
487.68	25118.63
487.85	25142.03
488.03	25738.87
488.21	25844.20
488.39	25640.57
488.57	25972.92
488.75	26085.27
488.92	26448.05
489.10	26632.96
489.28	26527.63
489.46	27147.87
489.64	27094.04
489.81	27496.61
489.99	27426.40
490.17	27639.39
490.35	27950.68
490.53	28058.34
490.70	28409.42
490.88	27676.83
491.06	28982.85
491.24	28594.32
491.41	29097.54
491.59	29060.09
491.77	29008.60
491.95	29411.17
492.13	29764.59
492.30	30085.25
492.48	30118.01
492.66	29851.19
492.84	30108.65
493.01	30560.37
493.19	30504.20
493.37	30803.79
493.54	31084.65
493.72	31321.05
493.90	31417.01
494.08	31761.07
494.25	31651.06
494.43	32404.72
494.61	32521.74
494.79	32257.26
494.96	32245.56
495.14	32739.41
495.32	33373.70
495.49	32945.38
495.67	33041.34
495.85	33525.83
496.02	33635.84
496.20	34068.84
496.38	34143.74
496.55	34157.78
496.73	34817.81
496.91	34382.47
497.09	34644.61
497.26	34834.19
497.44	34298.21
497.62	34974.63
497.79	35899.14
497.97	35358.47
498.14	35693.17
498.32	36121.49
498.50	36116.81
498.67	36297.03
498.85	36032.55
499.03	36664.49
499.20	36598.96
499.38	36919.61
499.56	37029.62
499.73	37258.99
499.91	37329.20
500.08	37207.50
500.26	37074.09
500.44	37415.80
500.61	37860.51
500.79	37474.32
500.97	38000.94
501.14	38824.81
501.32	38092.22
501.49	38309.89
501.67	38562.67
501.84	39044.82
502.02	38962.90
502.20	39033.11
502.37	39070.56
502.55	39283.55
502.72	39611.23
502.90	39515.26
503.07	38885.66
503.25	39880.39
503.43	39636.97
503.60	40187.00
503.78	40402.33
503.95	39868.69
504.13	40699.58
504.30	40472.54
504.48	40285.30
504.65	40884.48
504.83	40753.41
505.01	41132.57
505.18	41471.95
505.36	41453.23
505.53	41134.92
505.71	41319.82
505.88	41401.74
506.06	41366.63
506.23	41684.94
506.41	41619.41
506.58	42043.04
506.76	42433.91
506.93	42391.78
507.11	42122.62
507.28	42370.72
507.46	42031.34
507.63	42644.56
507.81	43110.33
507.98	42941.81
508.16	42976.92
508.33	43199.27
508.50	43508.22
508.68	43718.87
508.85	43992.71
509.03	43807.81
509.20	44488.90
509.38	44182.29
509.55	44226.76
509.73	44032.50
509.90	44598.91
510.08	44470.18
510.25	44542.74
510.42	44641.04
510.60	45097.44
510.77	45193.40
510.95	45118.51
511.12	44851.69
511.30	45460.23
511.47	45560.87
511.64	45436.82
511.82	45925.99
511.99	45654.49
512.17	45792.58
512.34	45818.33
512.51	46382.40
512.69	46321.54
512.86	46330.90
513.04	46504.10
513.21	46637.51
513.38	46880.93
513.56	46927.74
513.73	46775.61
513.90	46742.84
514.08	46644.54
514.25	47026.04
514.43	47449.68
514.60	47196.90
514.77	47061.15
514.95	47608.84
515.12	46997.96
515.29	47316.27
515.47	47702.46
515.64	48039.50
515.81	47793.74
515.99	48378.87
516.16	48025.45
516.33	48252.48
516.51	48486.54
516.68	48697.19
516.85	48322.70
517.03	48563.78
517.20	48746.34
517.37	48491.22
517.54	48722.93
517.72	48776.76
517.89	48994.43
518.06	49106.78
518.24	49193.38
518.41	49169.97
518.58	49010.82
518.75	48879.75
518.93	49553.82
519.10	49279.98
519.27	49635.74
519.45	49584.25
519.62	50251.30
519.79	49883.84
519.96	49434.45
520.14	50487.70
520.31	50169.38
520.48	50096.83
520.65	49818.30
520.83	50433.86
521.00	50183.43
521.17	50745.15
521.34	50625.79
521.52	50677.28
521.69	50754.52
521.86	50871.54
522.03	50986.23
522.20	50937.08
522.38	51334.97
522.55	51056.45
522.72	51105.60
522.89	51166.45
523.07	51636.90
523.24	51466.04
523.41	51789.03
523.58	51161.77
523.75	51657.96
523.92	51550.30
524.10	51952.87
524.27	52147.14
524.44	51601.79
524.61	51999.68
524.78	52060.54
524.96	51922.44
525.13	51887.34
525.30	52079.26
525.47	52678.44
525.64	52179.90
525.81	52650.35
525.98	52542.69
526.16	52725.25
526.33	52470.13
526.50	52795.46
526.67	52685.46
526.84	53015.47
527.01	52584.82
527.18	52961.64
527.36	52582.48
527.53	53036.54
527.70	53476.56
527.87	53261.23
528.04	53090.37
528.21	53326.77
528.38	52935.90
528.55	53434.43
528.72	52940.58
528.89	53329.11
529.07	53104.41
529.24	53340.81
529.41	53752.74
529.58	53551.46
529.75	53263.57
529.92	53586.57
530.09	53715.29
530.26	53797.21
530.43	53785.51
530.60	53570.18
530.77	53703.59
530.94	53923.60
531.11	53921.26
531.28	53998.50
531.46	54122.55
531.63	54265.32
531.80	54117.87
531.97	53996.16
532.14	54244.26
532.31	54419.80
532.48	54255.96
532.65	54604.70
532.82	54251.28
532.99	54553.21
533.16	54384.69
533.33	54735.77
533.50	54801.30
533.67	54618.74
533.84	54419.80
534.01	54721.72
534.18	55068.12
534.35	55161.75
534.52	54864.50
534.69	55351.33
534.86	54892.58
535.03	54738.11
535.20	55159.41
535.37	55290.48
535.54	55227.28
535.71	55136.00
535.88	55215.58
536.05	55454.31
536.22	55391.12
536.38	55646.24
536.55	55348.99
536.72	55463.67
536.89	55302.18
537.06	55444.95
537.23	55662.62
537.40	55585.38
537.57	55812.41
537.74	55721.13
537.91	55931.78
538.08	55971.57
538.25	55604.11
538.42	55791.35
538.59	55936.46
538.75	55807.73
538.92	55880.29
539.09	56109.66
539.26	56252.44
539.43	56200.94
539.60	56034.77
539.77	56292.22
539.94	56381.16
540.11	56350.74
540.28	56605.86
540.44	56285.20
540.61	56458.40
540.78	56390.53
540.95	56348.40
541.12	56109.66
541.29	56254.78
541.46	56729.90
541.62	56488.83
541.79	56760.33
541.96	56467.76
542.13	56390.53
542.30	56341.38
542.47	56893.74
542.63	56685.43
542.80	56795.44
542.97	57022.47
543.14	57310.36
543.31	56947.57
543.48	57275.25
543.64	57434.41
543.81	57333.76
543.98	57146.52
544.15	57282.27
544.32	57270.57
544.48	57577.18
544.65	57289.29
544.82	57464.83
544.99	57249.50
545.16	57207.37
545.32	57036.51
545.49	57645.05
545.66	57460.15
545.83	57609.95
546.00	57598.24
546.16	57675.48
546.33	57441.43
546.50	57476.54
546.67	57752.72
546.83	57406.32
547.00	57537.39
547.17	57663.78
547.34	57719.95
547.50	57932.94
547.67	58122.52
547.84	57954.00
548.00	58089.76
548.17	58024.22
548.34	58033.58
548.51	58024.22
548.67	58148.27
548.84	57956.35
549.01	58183.38
549.18	57972.73
549.34	58237.21
549.51	58059.33
549.68	58288.70
549.84	58253.59
550.01	58169.33
550.18	57998.48
550.34	58550.84
550.51	58307.43
550.68	58300.40
550.84	58164.65
551.01	58599.99
551.18	58408.07
551.34	58312.11
551.51	58534.46
551.68	58375.30
551.84	58735.74
552.01	58347.21
552.18	58410.41
552.34	58433.81
552.51	58695.95
552.68	58499.35
552.84	58461.90
553.01	58897.24
553.18	58532.12
553.34	58939.37
553.51	58693.61
553.67	58857.45
553.84	59075.12
554.01	58955.75
554.17	58845.75
554.34	58871.49
554.51	58927.67
554.67	59016.61
554.84	59009.59
555.00	58717.02
555.17	58974.48
555.33	59002.56
555.50	58831.71
555.67	58894.90
555.83	59355.99
556.00	59049.38
556.16	59379.39
556.33	59119.59
556.50	58958.09
556.66	59260.02
556.83	59072.78
556.99	59325.56
557.16	59716.43
557.32	59283.43
557.49	59695.36
557.65	59306.83
557.82	59346.62
557.98	59224.92
558.15	59302.15
558.32	59566.63
558.48	59348.96
558.65	59463.65
558.81	59395.77
558.98	59433.22
559.14	59442.59
559.31	59540.89
559.47	59629.83
559.64	59480.03
559.80	59714.09
559.97	59597.06
560.13	59510.46
560.30	59536.21
560.46	59749.20
560.63	59587.70
560.79	59590.04
560.96	59964.52
561.12	59831.11
561.29	59718.77
561.45	59517.48
561.61	59976.23
561.78	59629.83
561.94	59838.14
562.11	59671.96
562.27	59695.36
562.44	59819.41
562.60	59898.99
562.77	59749.20
562.93	59931.76
563.10	60018.36
563.26	59952.82
563.42	60144.75
563.59	59798.35
563.75	59915.37
563.92	59910.69
564.08	59906.01
564.24	60210.28
564.41	59936.44
564.57	60079.21
564.74	60186.88
564.90	59952.82
565.07	59913.03
565.23	60165.81
565.39	59901.33
565.56	60179.85
565.72	60207.94
565.88	60074.53
566.05	60020.70
566.21	60207.94
566.38	60198.58
566.54	60315.61
566.70	60250.07
566.87	60329.65
567.03	60046.44
567.19	60310.92
567.36	60081.55
567.52	60119.00
567.68	60477.10
567.85	60226.66
568.01	60233.69
568.17	60411.57
568.34	60264.11
568.50	60144.75
568.66	60257.09
568.83	60285.18
568.99	60158.79
569.15	60411.57
569.32	60289.86
569.48	60416.25
569.64	60404.55
569.81	60282.84
569.97	59999.63
570.13	60320.29
570.30	60250.07
570.46	60409.23
570.62	60392.84
570.78	60427.95
570.95	60519.23
571.11	60411.57
571.27	60441.99
571.43	60505.19
571.60	60596.47
571.76	60507.53
571.92	60491.15
572.09	60652.64
572.25	60507.53
572.41	60364.76
572.57	60629.24
572.74	60701.79
572.90	60397.52
573.06	60477.10
573.22	60507.53
573.38	60528.59
573.55	60566.04
573.71	60830.52
573.87	60502.85
574.03	60456.04
574.20	60603.49
574.36	60472.42
574.52	60662.00
574.68	60750.94
574.84	60734.56
575.01	60701.79
575.17	60664.35
575.33	60697.11
575.49	60491.15
575.65	60687.75
575.82	60636.26
575.98	60666.69
576.14	60732.22
576.30	60961.59
576.46	60643.28
576.62	60584.77
576.79	60718.18
576.95	60694.77
577.11	60863.29
577.27	60725.20
577.43	60816.48
577.59	60624.56
577.75	60547.32
577.92	60615.19
578.08	60687.75
578.24	60652.64
578.40	61048.19
578.56	60940.53
578.72	60856.27
578.88	61057.56
579.04	61090.32
579.21	60697.11
579.37	60900.74
579.53	60956.91
579.69	60638.60
579.85	60874.99
580.01	60767.33
580.17	60701.79
580.33	60729.88
580.49	60809.46
580.65	60886.70
580.82	60729.88
580.98	60683.07
581.14	60807.12
581.30	60975.64
581.46	60968.61
581.62	60863.29
581.78	60645.62
581.94	60893.72
582.10	60624.56
582.26	60760.31
582.42	60704.13
582.58	60793.07
582.74	60860.95
582.90	60795.42
583.06	60779.03
583.22	60690.09
583.38	60924.14
583.54	60933.51
583.70	60903.08
583.86	60954.57
584.02	60757.97
584.18	60959.25
584.34	60917.12
584.50	61008.40
584.66	60889.04
584.82	60734.56
584.98	61048.19
585.14	61038.83
585.30	60893.72
585.46	60823.50
585.62	61048.19
585.78	61137.13
585.94	60818.82
586.10	60900.74
586.26	61001.38
586.42	60879.67
586.58	61188.63
586.74	61282.25
586.90	61109.05
587.06	60907.76
587.22	61240.12
587.38	61029.47
587.54	61160.54
587.70	61111.39
587.86	60849.25
588.02	60793.07
588.18	61298.63
588.34	61013.08
588.49	60940.53
