SpectraSuite Data File
++++++++++++++++++++++++++++++++++++
Date: Fri Oct 25 11:33:19 EDT 2013
User: price-jones
Dark Spectrum Present: No
Reference Spectrum Present: No
Number of Sampled Component Spectra: 1
Spectrometers: USB2+H05261
Integration Time (usec): 100000 (USB2+H05261)
Spectra Averaged: 1 (USB2+H05261)
Boxcar Smoothing: 0 (USB2+H05261)
Correct for Electrical Dark: No (USB2+H05261)
Strobe/Lamp Enabled: No (USB2+H05261)
Correct for Detector Non-linearity: No (USB2+H05261)
Correct for Stray Light: No (USB2+H05261)
Number of Pixels in Processed Spectrum: 2048
>>>>>Begin Processed Spectral Data<<<<<
365.73	294.91
365.92	294.91
366.12	294.91
366.32	283.20
366.52	187.24
366.72	187.24
366.91	166.18
367.11	208.31
367.31	180.22
367.51	156.82
367.70	229.37
367.90	131.07
368.10	217.67
368.30	210.65
368.49	166.18
368.69	220.01
368.89	205.97
369.09	184.90
369.28	180.22
369.48	201.29
369.68	205.97
369.87	222.35
370.07	257.46
370.27	290.23
370.47	304.27
370.66	470.45
370.86	535.98
371.06	496.19
371.25	512.58
371.45	559.39
371.65	550.03
371.84	521.94
372.04	547.69
372.24	575.77
372.44	610.88
372.63	664.71
372.83	610.88
373.03	592.16
373.22	653.01
373.42	627.26
373.62	648.33
373.81	643.65
374.01	653.01
374.21	615.56
374.40	599.18
374.60	732.59
374.79	568.75
374.99	622.58
375.19	683.44
375.38	692.80
375.58	603.86
375.78	681.10
375.97	638.97
376.17	786.42
376.37	671.73
376.56	648.33
376.76	648.33
376.95	678.76
377.15	711.52
377.35	676.41
377.54	688.12
377.74	660.03
377.93	760.67
378.13	746.63
378.33	753.65
378.52	697.48
378.72	655.35
378.91	765.36
379.11	603.86
379.31	702.16
379.50	716.20
379.70	760.67
379.89	697.48
380.09	699.82
380.28	777.06
380.48	767.70
380.68	746.63
380.87	720.88
381.07	777.06
381.26	784.08
381.46	793.44
381.65	779.40
381.85	748.97
382.04	779.40
382.24	805.14
382.43	793.44
382.63	837.91
382.83	800.46
383.02	791.10
383.22	828.55
383.41	767.70
383.61	711.52
383.80	837.91
384.00	727.91
384.19	837.91
384.39	713.86
384.58	765.36
384.78	821.53
384.97	777.06
385.17	854.30
385.36	823.87
385.56	826.21
385.75	840.25
385.95	837.91
386.14	896.43
386.34	851.96
386.53	842.59
386.72	896.43
386.92	847.27
387.11	842.59
387.31	889.40
387.50	863.66
387.70	891.74
387.89	870.68
388.09	840.25
388.28	926.85
388.48	947.92
388.67	992.39
388.86	844.93
389.06	945.58
389.25	1015.79
389.45	903.45
389.64	952.60
389.84	973.66
390.03	870.68
390.22	924.51
390.42	912.81
390.61	983.02
390.81	983.02
391.00	997.07
391.19	1020.47
391.39	1057.92
391.58	1039.20
391.78	999.41
391.97	1018.13
392.16	1034.52
392.36	1064.94
392.55	1088.35
392.75	1160.91
392.94	1050.90
393.13	1078.99
393.33	1011.11
393.52	990.05
393.71	1102.39
393.91	1114.10
394.10	1060.26
394.29	1125.80
394.49	1055.58
394.68	1111.75
394.88	1008.77
395.07	1158.57
395.26	1107.07
395.46	1270.91
395.65	1238.14
395.84	1217.08
396.04	1226.44
396.23	1179.63
396.42	1219.42
396.62	1235.80
396.81	1210.06
397.00	1142.18
397.19	1214.74
397.39	1207.72
397.58	1184.31
397.77	1299.00
397.97	1301.34
398.16	1294.32
398.35	1203.04
398.55	1261.55
398.74	1282.61
398.93	1345.81
399.12	1355.17
399.32	1284.95
399.51	1315.38
399.70	1366.87
399.90	1338.79
400.09	1322.40
400.28	1441.77
400.47	1390.28
400.67	1404.32
400.86	1331.76
401.05	1430.07
401.24	1526.03
401.44	1465.18
401.63	1385.60
401.82	1460.49
402.01	1383.26
402.21	1514.33
402.40	1528.37
402.59	1551.78
402.78	1416.02
402.97	1500.28
403.17	1500.28
403.36	1528.37
403.55	1612.63
403.74	1612.63
403.93	1596.25
404.13	1572.84
404.32	1769.44
404.51	1533.05
404.70	1689.87
404.89	1661.78
405.09	1586.88
405.28	1617.31
405.47	1727.32
405.66	1650.08
405.85	1764.76
406.05	1739.02
406.24	1760.08
406.43	1755.40
406.62	1872.43
406.81	1830.30
407.00	1776.47
407.20	1830.30
407.39	1713.27
407.58	1947.33
407.77	1909.88
407.96	1879.45
408.15	1858.39
408.34	1856.04
408.54	1884.13
408.73	1916.90
408.92	1930.94
409.11	1961.37
409.30	2022.22
409.49	2062.01
409.68	1987.11
409.87	1916.90
410.07	2066.69
410.26	2038.61
410.45	2120.53
410.64	2012.86
410.83	2122.87
411.02	2160.31
411.21	2300.75
411.40	2214.15
411.59	2260.96
411.78	2181.38
411.98	2216.49
412.17	2235.21
412.36	2242.23
412.55	2340.54
412.74	2342.88
412.93	2282.02
413.12	2324.15
413.31	2370.96
413.50	2422.45
413.69	2352.24
413.88	2413.09
414.07	2492.67
414.26	2495.01
414.45	2597.99
414.64	2527.78
414.83	2532.46
415.02	2612.04
415.22	2654.17
415.41	2623.74
415.60	2623.74
415.79	2668.21
415.98	2757.15
416.17	2708.00
416.36	2740.77
416.55	2672.89
416.74	2766.51
416.93	2766.51
417.12	2789.92
417.31	2942.05
417.50	2808.64
417.69	2890.56
417.88	2857.79
418.07	2853.11
418.26	2925.67
418.45	2963.12
418.64	2925.67
418.83	3000.57
419.02	3126.96
419.21	3014.61
419.39	3162.06
419.58	3070.78
419.77	3145.68
419.96	3180.79
420.15	3295.47
420.34	3213.56
420.53	3173.77
420.72	3286.11
420.91	3361.01
421.10	3232.28
421.29	3220.58
421.48	3300.16
421.67	3332.92
421.86	3419.52
422.05	3339.94
422.24	3325.90
422.43	3393.78
422.61	3377.39
422.80	3375.05
422.99	3400.80
423.18	3452.29
423.37	3438.25
423.56	3309.52
423.75	3424.20
423.94	3323.56
424.13	3176.11
424.32	3220.58
424.50	3510.80
424.69	3510.80
424.88	3475.70
425.07	3480.38
425.26	3255.69
425.45	3538.89
425.64	3442.93
425.83	3482.72
426.01	3489.74
426.20	3499.10
426.39	3517.83
426.58	3482.72
426.77	3517.83
426.96	3684.00
427.15	3569.32
427.33	3524.85
427.52	3641.87
427.71	3684.00
427.90	3562.30
428.09	3700.39
428.28	3735.50
428.46	3515.48
428.65	3786.99
428.84	3784.65
429.03	3728.47
429.22	3728.47
429.40	3688.68
429.59	3744.86
429.78	3658.26
429.97	3672.30
430.16	3847.84
430.34	3861.88
430.53	3927.42
430.72	4004.66
430.91	3955.51
431.10	3873.59
431.28	4028.06
431.47	3988.27
431.66	4081.89
431.85	4100.62
432.03	4032.74
432.22	4093.60
432.41	4135.73
432.60	4086.58
432.79	4191.90
432.97	4135.73
433.16	4236.37
433.35	4067.85
433.54	4011.68
433.72	4159.13
433.91	4175.52
434.10	4117.00
434.28	4152.11
434.47	4128.70
434.66	4355.74
434.85	4358.08
435.03	4444.68
435.22	4250.41
435.41	4372.12
435.59	4271.48
435.78	4519.57
435.97	4472.76
436.16	4531.28
436.34	4322.97
436.53	4449.36
436.72	4601.49
436.90	4440.00
437.09	4580.43
437.28	4540.64
437.46	4542.98
437.65	4512.55
437.84	4732.56
438.02	4636.60
438.21	4596.81
438.40	4634.26
438.58	4793.42
438.77	4784.06
438.96	4924.49
439.14	4896.40
439.33	5032.15
439.52	4924.49
439.70	4849.59
439.89	5057.90
440.08	5064.92
440.26	5104.71
440.45	4910.44
440.63	5041.51
440.82	5231.10
441.01	5067.26
441.19	5205.35
441.38	5289.61
441.57	5301.31
441.75	5341.10
441.94	5486.22
442.12	5427.70
442.31	5432.38
442.50	5446.43
442.68	5289.61
442.87	5453.45
443.05	5678.14
443.24	5675.80
443.43	5453.45
443.61	5584.52
443.80	5619.63
443.98	5261.52
444.17	5298.97
444.35	5586.86
444.54	5750.70
444.73	5837.30
444.91	5612.60
445.10	5720.27
445.28	5575.16
445.47	5720.27
445.65	5603.24
445.84	5851.34
446.02	5856.02
446.21	5937.94
446.39	5811.55
446.58	5811.55
446.77	5870.06
446.95	5542.39
447.14	5692.18
447.32	5961.34
447.51	5816.23
447.69	5692.18
447.88	5755.38
448.06	5769.42
448.25	5753.04
448.43	5816.23
448.62	5877.09
448.80	5879.43
448.99	5790.49
449.17	5977.73
449.36	6080.71
449.54	5912.19
449.73	5973.05
449.91	6113.48
450.10	6193.06
450.28	6092.41
450.46	6284.34
450.65	6228.17
450.83	6183.70
451.02	6326.47
451.20	6274.98
451.39	6174.33
451.57	6216.46
451.76	6260.93
451.94	6300.72
452.13	6483.28
452.31	6443.49
452.49	6307.74
452.68	6253.91
452.86	6370.94
453.05	6366.26
453.23	6387.32
453.42	6448.18
453.60	6328.81
453.78	6497.33
453.97	6333.49
454.15	6387.32
454.34	6506.69
454.52	6331.15
454.70	6532.44
454.89	6677.55
455.07	6588.61
455.26	6658.82
455.44	6691.59
455.62	6656.48
455.81	6651.80
455.99	6827.34
456.17	6862.45
456.36	6857.77
456.54	6731.38
456.73	6902.24
456.91	6949.05
457.09	7059.06
457.28	7098.84
457.46	6958.41
457.64	7122.25
457.83	7101.19
458.01	7101.19
458.19	7213.53
458.38	7094.16
458.56	7187.79
458.74	7148.00
458.93	7049.69
459.11	7250.98
459.29	7318.86
459.48	7335.24
459.66	7164.38
459.84	7297.79
460.03	7454.61
460.21	7454.61
460.39	7297.79
460.57	7435.88
460.76	7548.23
460.94	7667.60
461.12	7740.15
461.31	7737.81
461.49	7569.29
461.67	7588.02
461.85	7604.40
462.04	7707.38
462.22	8116.98
462.40	8051.44
462.59	7810.37
462.77	7782.28
462.95	8023.36
463.13	7810.37
463.32	7852.50
463.50	8011.65
463.68	8035.06
463.86	8018.68
464.05	7803.35
464.23	7812.71
464.41	8060.80
464.59	7770.58
464.78	7901.65
464.96	8107.62
465.14	8067.83
465.32	8086.55
465.50	7992.93
465.69	8353.37
465.87	8187.19
466.05	8234.00
466.23	8224.64
466.41	8241.03
466.60	8432.95
466.78	8210.60
466.96	8234.00
467.14	8114.64
467.32	8369.76
467.51	8482.10
467.69	8180.17
467.87	8503.17
468.05	8542.96
468.23	8339.33
468.41	8339.33
468.60	8517.21
468.78	8594.45
468.96	8437.63
469.14	8578.06
469.32	8667.00
469.50	8475.08
469.69	8662.32
469.87	8791.05
470.05	8769.99
470.23	8671.68
470.41	8753.60
470.59	8945.53
470.77	8706.79
470.95	8788.71
471.14	9202.99
471.32	8879.99
471.50	8894.04
471.68	9081.28
471.86	9224.05
472.04	9233.41
472.22	9404.27
472.40	9359.80
472.58	9247.46
472.77	9423.00
472.95	9572.79
473.13	9797.48
473.31	9544.70
473.49	9582.15
473.67	9479.17
473.85	9635.99
474.03	10005.79
474.21	9776.42
474.39	10153.24
474.57	9881.74
474.75	9806.84
474.93	10008.13
475.12	9963.66
475.30	10181.33
475.48	10052.60
475.66	10132.18
475.84	10090.05
476.02	10338.15
476.20	10183.67
476.38	10448.15
476.56	10574.54
476.74	10450.49
476.92	10888.17
477.10	10736.04
477.28	10609.65
477.46	10913.92
477.64	10827.32
477.82	11110.52
478.00	11260.32
478.18	11110.52
478.36	11206.48
478.54	11536.50
478.72	11269.68
478.90	11480.33
479.08	11683.95
479.26	11634.80
479.44	11740.13
479.62	11885.24
479.80	12093.55
479.98	12196.53
480.16	12451.65
480.34	12116.95
480.52	12402.50
480.70	12339.30
480.88	12287.81
481.06	12343.99
481.24	12571.02
481.41	12760.60
481.59	12809.75
481.77	13153.81
481.95	13078.91
482.13	13015.72
482.31	13102.32
482.49	13408.93
482.67	13357.44
482.85	13638.30
483.03	13841.93
483.21	13734.26
483.39	13893.42
483.57	13734.26
483.74	13884.06
483.92	14321.74
484.10	13961.30
484.28	14380.25
484.46	14462.17
484.64	15002.83
484.82	14813.25
485.00	14874.10
485.18	14909.21
485.35	15206.46
485.53	15129.22
485.71	15461.58
485.89	15396.04
486.07	15665.21
486.25	15515.41
486.43	15679.25
486.61	15749.46
486.78	16156.72
486.96	15740.10
487.14	16313.53
487.32	16116.93
487.50	16383.75
487.68	16278.43
487.85	16699.72
488.03	17074.21
488.21	17067.19
488.39	17041.44
488.57	17305.92
488.75	17511.89
488.92	17621.89
489.10	17617.21
489.28	17769.35
489.46	17942.55
489.64	18190.64
489.81	18106.38
489.99	18602.58
490.17	18480.87
490.35	18319.37
490.53	18558.11
490.70	18651.73
490.88	18562.79
491.06	19204.10
491.24	19243.88
491.41	19250.91
491.59	19363.25
491.77	19351.55
491.95	19473.26
492.13	19616.03
492.30	19747.10
492.48	19974.13
492.66	19754.12
492.84	19908.60
493.01	20327.55
493.19	20463.30
493.37	20365.00
493.54	20664.59
493.72	20744.17
493.90	20580.33
494.08	21305.90
494.25	21233.34
494.43	20957.16
494.61	21528.25
494.79	21291.85
494.96	21443.99
495.14	21715.49
495.32	22029.12
495.49	21823.16
495.67	22120.40
495.85	22057.21
496.02	22106.36
496.20	22724.26
496.38	22455.10
496.55	22794.48
496.73	23138.54
496.91	22834.27
497.09	22972.36
497.26	22955.97
497.44	22827.24
497.62	23267.27
497.79	23880.49
497.97	23578.56
498.14	24093.47
498.32	23960.06
498.50	23910.91
498.67	24315.83
498.85	24180.07
499.03	24091.13
499.20	24020.92
499.38	24404.77
499.56	24482.00
499.73	24416.47
499.91	24425.83
500.08	24739.46
500.26	24720.74
500.44	25085.86
500.61	24837.76
500.79	25139.69
500.97	25406.52
501.14	25207.57
501.32	25486.09
501.49	25214.59
501.67	25549.29
501.84	25921.43
502.02	25914.41
502.20	25766.96
502.37	25860.58
502.55	26033.78
502.72	26108.68
502.90	25998.67
503.07	25883.98
503.25	26403.58
503.43	26218.68
503.60	26426.99
503.78	27056.59
503.95	26548.70
504.13	26813.18
504.30	26604.87
504.48	26939.57
504.65	26785.09
504.83	27070.64
505.01	27330.44
505.18	27433.42
505.36	27770.46
505.53	27449.80
505.71	27847.69
505.88	27850.03
506.06	27601.94
506.23	27796.20
506.41	27969.40
506.58	27557.47
506.76	27812.59
506.93	28018.55
507.11	27985.79
507.28	28135.58
507.46	28168.35
507.63	28472.62
507.81	28751.14
507.98	28439.85
508.16	28709.01
508.33	28856.46
508.50	28837.74
508.68	29163.08
508.85	28929.02
509.03	29448.62
509.20	29228.61
509.38	29806.72
509.55	29656.93
509.73	29610.12
509.90	29656.93
510.08	29331.59
510.25	29579.69
510.42	29926.09
510.60	30298.23
510.77	30295.89
510.95	30321.64
511.12	30363.77
511.30	30096.95
511.47	30534.63
511.64	30349.73
511.82	30705.49
511.99	30480.80
512.17	30630.59
512.34	30731.23
512.51	30806.13
512.69	30890.39
512.86	31335.09
513.04	31192.32
513.21	30773.36
513.38	31365.52
513.56	32044.27
513.73	31222.75
513.90	31386.58
514.08	31604.25
514.25	31723.62
514.43	31608.93
514.60	31873.42
514.77	31772.77
514.95	31929.59
515.12	31915.54
515.29	31974.06
515.47	32547.49
515.64	32364.93
515.81	32411.74
515.99	32163.64
516.16	32929.00
516.33	32641.11
516.51	32804.95
516.68	32650.47
516.85	32304.07
517.03	32898.57
517.20	32933.68
517.37	32987.51
517.54	33326.89
517.72	33256.67
517.89	33053.05
518.06	33001.55
518.24	32980.49
518.41	33106.88
518.58	33071.77
518.75	33333.91
518.93	33876.91
519.10	33642.86
519.27	33666.27
519.45	33844.15
519.62	33944.79
519.79	33823.08
519.96	34157.78
520.14	33743.50
520.31	33802.02
520.48	34024.37
520.65	34101.61
520.83	34342.68
521.00	34806.11
521.17	34501.84
521.34	35358.47
521.52	34796.74
521.69	34630.57
521.86	35016.75
522.03	34902.07
522.20	35101.01
522.38	35358.47
522.55	35283.58
522.72	35063.57
522.89	35370.18
523.07	35494.22
523.24	35484.86
523.41	35672.10
523.58	35662.74
523.75	35653.38
523.92	35662.74
524.10	35936.59
524.27	36084.04
524.44	36182.34
524.61	35906.16
524.78	36563.85
524.96	36488.95
525.13	36027.87
525.30	36297.03
525.47	36477.25
525.64	36135.53
525.81	36566.19
525.98	36790.88
526.16	36556.83
526.33	36568.53
526.50	36491.29
526.67	36491.29
526.84	36772.16
527.01	36830.67
527.18	36519.38
527.36	36790.88
527.53	37535.17
527.70	37277.71
527.87	37457.93
528.04	37310.48
528.21	37303.46
528.38	37345.59
528.55	37483.68
528.72	37413.46
528.89	37397.08
529.07	37727.10
529.24	37230.90
529.41	37350.27
529.58	37851.14
529.75	37645.18
529.92	37970.51
530.09	37956.47
530.26	37818.38
530.43	37942.42
530.60	37373.67
530.77	38232.65
530.94	38202.22
531.11	37989.24
531.28	38352.02
531.46	38134.35
531.63	38375.42
531.80	38597.77
531.97	38487.77
532.14	38646.93
532.31	38653.95
532.48	39091.63
532.65	38754.59
532.82	38817.78
532.99	38918.43
533.16	38665.65
533.33	39019.07
533.50	39189.93
533.67	38979.28
533.84	39068.22
534.01	39185.25
534.18	39110.35
534.35	39400.58
534.52	39625.27
534.69	39885.07
534.86	39550.37
535.03	39473.13
535.20	39754.00
535.37	39583.14
535.54	39725.91
535.71	39332.70
535.88	39901.45
536.05	39725.91
536.22	40039.54
536.38	40128.48
536.55	39950.60
536.72	39721.23
536.89	40112.10
537.06	39856.98
537.23	40226.79
537.40	40069.97
537.57	39945.92
537.74	40069.97
537.91	40341.47
538.08	40067.63
538.25	40339.13
538.42	40399.99
538.59	40776.81
538.75	40488.93
538.92	40825.96
539.09	40898.52
539.26	40383.60
539.43	40725.32
539.60	40964.06
539.77	41060.02
539.94	40935.97
540.11	41050.66
540.28	41450.89
540.44	40676.17
540.61	41041.29
540.78	41268.33
540.95	41207.47
541.12	40800.22
541.29	41193.43
541.46	41385.35
541.62	41326.84
541.79	41338.54
541.96	41024.91
542.13	41476.63
542.30	41188.75
542.47	41879.21
542.63	41425.14
542.80	42106.24
542.97	42036.02
543.14	42206.88
543.31	42148.37
543.48	41813.67
543.64	42569.66
543.81	42471.36
543.98	42323.91
544.15	42363.70
544.32	42726.48
544.48	42649.24
544.65	42546.26
544.82	42691.37
544.99	42490.09
545.16	42780.31
545.32	42241.99
545.49	42710.10
545.66	43070.54
545.83	43089.26
546.00	42707.76
546.16	42630.52
546.33	42735.84
546.50	42445.62
546.67	42953.51
546.83	42387.10
547.00	43019.05
547.17	42806.06
547.34	43236.72
547.50	42878.61
547.67	43585.46
547.84	43115.01
548.00	43470.77
548.17	43742.27
548.34	43641.63
548.51	43789.08
548.67	43880.36
548.84	43159.48
549.01	43564.39
549.18	43508.22
549.34	43693.12
549.51	43770.36
549.68	43611.20
549.84	43356.08
550.01	43976.33
550.18	44013.77
550.34	43868.66
550.51	43807.81
550.68	44250.17
550.84	43325.66
551.01	44119.10
551.18	43632.27
551.34	44154.21
551.51	43945.90
551.68	44065.27
551.84	44329.75
552.01	43728.23
552.18	44629.34
552.34	44226.76
552.51	44336.77
552.68	43840.57
552.84	44526.35
553.01	44409.32
553.18	44861.05
553.34	44601.25
553.51	44502.95
553.67	44748.70
553.84	44617.63
554.01	45162.98
554.17	44556.78
554.34	44877.43
554.51	44631.68
554.67	44779.13
554.84	45195.74
555.00	44959.35
555.17	45017.86
555.33	45029.57
555.50	44779.13
555.67	44774.45
555.83	44935.95
556.00	45088.08
556.16	45750.45
556.33	45500.01
556.50	45109.14
556.66	45574.91
556.83	45212.13
556.99	45261.28
557.16	45420.44
557.32	45544.48
557.49	45600.66
557.65	45420.44
557.82	45296.39
557.98	45649.81
558.15	45448.52
558.32	45298.73
558.48	45345.54
558.65	45352.56
558.81	45612.36
558.98	45607.68
559.14	45729.39
559.31	45572.57
559.47	45703.64
559.64	45483.63
559.80	45570.23
559.97	45698.96
560.13	45373.63
560.30	45848.75
560.46	45743.43
560.63	45872.16
560.79	46265.37
560.96	46251.33
561.12	45940.04
561.29	45930.67
561.45	46335.59
561.61	46033.66
561.78	45815.99
561.94	45865.14
562.11	45984.51
562.27	46192.81
562.44	46115.58
562.60	46101.53
562.77	46300.48
562.93	46089.83
563.10	46417.50
563.26	46054.72
563.42	46595.38
563.59	45797.26
563.75	46253.67
563.92	46447.93
564.08	46012.59
564.24	46396.44
564.41	46550.91
564.57	46101.53
564.74	46401.12
564.90	46483.04
565.07	46520.49
565.23	46307.50
565.39	46384.74
565.56	46571.98
565.72	46162.39
565.88	46791.99
566.05	46447.93
566.21	46270.05
566.38	46878.59
566.54	46408.14
566.70	46579.00
566.87	46913.70
567.03	46012.59
567.19	46630.49
567.36	46422.19
567.52	46595.38
567.68	47019.02
567.85	46948.81
568.01	46848.16
568.17	46700.71
568.34	46902.00
568.50	46632.83
568.66	46649.22
568.83	46759.22
568.99	45923.65
569.15	46887.95
569.32	46953.49
569.48	47129.03
569.64	47281.16
569.81	47201.58
569.97	47285.84
570.13	47276.48
570.30	46728.80
570.46	47283.50
570.62	46834.12
570.78	46897.31
570.95	46897.31
571.11	47302.23
571.27	47035.41
571.43	46667.94
571.60	46932.42
571.76	46850.50
571.92	47136.05
572.09	46782.63
572.25	46880.93
572.41	47117.32
572.57	47194.56
572.74	47363.08
572.90	46602.41
573.06	47264.78
573.22	47292.86
573.38	47459.04
573.55	47449.68
573.71	47136.05
573.87	47318.61
574.03	47166.48
574.20	47468.40
574.36	47232.01
574.52	47339.68
574.68	47374.78
574.84	47325.63
575.01	47924.81
575.17	47578.41
575.33	47075.19
575.49	47466.06
575.65	47112.64
575.82	47564.37
575.98	47313.93
576.14	47608.84
576.30	47290.52
576.46	47381.80
576.62	47168.82
576.79	47103.28
576.95	46916.04
577.11	47384.15
577.27	47140.73
577.43	47618.20
577.59	46944.12
577.75	46894.97
577.92	46878.59
578.08	47110.30
578.24	47150.09
578.40	47468.40
578.56	47562.03
578.72	47667.35
578.88	47667.35
579.04	47068.17
579.21	47416.91
579.37	47306.91
579.53	47189.88
579.69	47407.55
579.85	47501.17
580.01	47428.62
580.17	47711.82
580.33	47786.72
580.49	47540.96
580.65	47470.75
580.82	47622.88
580.98	47400.53
581.14	47260.10
581.30	47746.93
581.46	47267.12
581.62	47201.58
581.78	47327.97
581.94	47110.30
582.10	47187.54
582.26	47213.29
582.42	47744.59
582.58	47400.53
582.74	47585.43
582.90	47604.16
583.06	47360.74
583.22	47150.09
583.38	47435.64
583.54	48074.60
583.70	47608.84
583.86	47868.64
584.02	47679.05
584.18	48016.09
584.34	47894.38
584.50	47632.24
584.66	48058.22
584.82	47655.65
584.98	48282.91
585.14	47657.99
585.30	47543.30
585.46	47782.04
585.62	47587.77
585.78	47374.78
585.94	47503.51
586.10	47824.17
586.26	47627.56
586.42	47945.87
586.58	47746.93
586.74	47838.21
586.90	47536.28
587.06	47466.06
587.22	47760.97
587.38	47693.10
587.54	47910.77
587.70	48128.44
587.86	47812.46
588.02	47592.45
588.18	48074.60
588.34	47379.46
588.49	47423.93
588.65	47604.16
588.81	47810.12
588.97	47997.37
589.13	48069.92
589.29	47775.02
589.45	47882.68
589.61	47847.57
589.77	47770.33
589.93	47735.23
