SpectraSuite Data File
++++++++++++++++++++++++++++++++++++
Date: Fri Oct 25 10:43:20 EDT 2013
User: price-jones
Dark Spectrum Present: No
Reference Spectrum Present: No
Number of Sampled Component Spectra: 1
Spectrometers: USB2+H05261
Integration Time (usec): 100000 (USB2+H05261)
Spectra Averaged: 1 (USB2+H05261)
Boxcar Smoothing: 0 (USB2+H05261)
Correct for Electrical Dark: No (USB2+H05261)
Strobe/Lamp Enabled: No (USB2+H05261)
Correct for Detector Non-linearity: No (USB2+H05261)
Correct for Stray Light: No (USB2+H05261)
Number of Pixels in Processed Spectrum: 2048
>>>>>Begin Processed Spectral Data<<<<<
365.73	102.98
365.92	102.98
366.12	102.98
366.32	7.02
366.52	77.24
366.72	0.00
366.91	32.77
367.11	2.34
367.31	7.02
367.51	84.26
367.70	0.00
367.90	56.17
368.10	44.47
368.30	0.00
368.49	56.17
368.69	49.15
368.89	28.09
369.09	9.36
369.28	60.85
369.48	81.92
369.68	95.96
369.87	117.03
370.07	65.54
370.27	105.32
370.47	196.60
370.66	353.42
370.86	355.76
371.06	444.70
371.25	461.09
371.45	468.11
371.65	533.64
371.84	482.15
372.04	486.83
372.24	500.87
372.44	482.15
372.63	512.58
372.83	561.73
373.03	477.47
373.22	411.93
373.42	489.17
373.62	552.37
373.81	580.45
374.01	493.85
374.21	540.66
374.40	482.15
374.60	566.41
374.79	505.56
374.99	554.71
375.19	587.47
375.38	575.77
375.58	578.11
375.78	594.50
375.97	613.22
376.17	582.79
376.37	636.63
376.56	660.03
376.76	615.56
376.95	580.45
377.15	566.41
377.35	678.76
377.54	629.60
377.74	645.99
377.93	580.45
378.13	538.32
378.33	716.20
378.52	620.24
378.72	650.67
378.91	695.14
379.11	657.69
379.31	624.92
379.50	573.43
379.70	650.67
379.89	711.52
380.09	725.57
380.28	676.41
380.48	683.44
380.68	695.14
380.87	711.52
381.07	624.92
381.26	720.88
381.46	690.46
381.65	774.72
381.85	732.59
382.04	737.27
382.24	713.86
382.43	688.12
382.63	711.52
382.83	730.25
383.02	667.05
383.22	695.14
383.41	718.54
383.61	765.36
383.80	805.14
384.00	763.01
384.19	802.80
384.39	770.04
384.58	720.88
384.78	802.80
384.97	784.08
385.17	929.19
385.36	856.64
385.56	739.61
385.75	840.25
385.95	809.83
386.14	863.66
386.34	868.34
386.53	856.64
386.72	833.23
386.92	894.08
387.11	849.61
387.31	884.72
387.50	812.17
387.70	812.17
387.89	866.00
388.09	964.30
388.28	901.11
388.48	880.04
388.67	945.58
388.86	915.15
389.06	985.37
389.25	891.74
389.45	1013.45
389.64	894.08
389.84	1022.81
390.03	931.53
390.22	945.58
390.42	1027.50
390.61	978.34
390.81	992.39
391.00	1107.07
391.19	1090.69
391.39	1046.22
391.58	1062.60
391.78	1053.24
391.97	950.26
392.16	1013.45
392.36	1043.88
392.55	1006.43
392.75	1078.99
392.94	990.05
393.13	978.34
393.33	1029.84
393.52	1067.28
393.71	1083.67
393.91	1123.46
394.10	1207.72
394.29	1217.08
394.49	1179.63
394.68	1170.27
394.88	1149.20
395.07	1167.93
395.26	1273.25
395.46	1289.64
395.65	1256.87
395.84	1200.69
396.04	1261.55
396.23	1205.38
396.42	1146.86
396.62	1102.39
396.81	1191.33
397.00	1149.20
397.19	1294.32
397.39	1301.34
397.58	1378.58
397.77	1390.28
397.97	1467.52
398.16	1420.71
398.35	1481.56
398.55	1462.83
398.74	1540.07
398.93	1547.09
399.12	1460.49
399.32	1540.07
399.51	1547.09
399.70	1535.39
399.90	1509.65
400.09	1521.35
400.28	1652.42
400.47	1568.16
400.67	1631.35
400.86	1612.63
401.05	1645.40
401.24	1760.08
401.44	1769.44
401.63	1722.63
401.82	1645.40
402.01	1743.70
402.21	1783.49
402.40	1687.53
402.59	1696.89
402.78	1743.70
402.97	1708.59
403.17	1739.02
403.36	1856.04
403.55	1816.26
403.74	1844.34
403.93	1797.53
404.13	1923.92
404.32	1849.02
404.51	1898.17
404.70	1984.77
404.89	1914.56
405.09	1940.30
405.28	2012.86
405.47	1963.71
405.66	2010.52
405.85	2003.50
406.05	2040.95
406.24	2038.61
406.43	1980.09
406.62	1987.11
406.81	2026.90
407.00	2008.18
407.20	2017.54
407.39	2111.16
407.58	2197.76
407.77	2202.44
407.96	2225.85
408.15	2153.29
408.34	2162.66
408.54	2260.96
408.73	2218.83
408.92	2345.22
409.11	2354.58
409.30	2392.03
409.49	2291.38
409.68	2179.04
409.87	2310.11
410.07	2321.81
410.26	2310.11
410.45	2345.22
410.64	2450.54
410.83	2410.75
411.02	2548.84
411.21	2495.01
411.40	2452.88
411.59	2597.99
411.78	2614.38
411.98	2698.64
412.17	2621.40
412.36	2597.99
412.55	2607.36
412.74	2839.07
412.93	2649.49
413.12	2677.57
413.31	2729.06
413.50	2839.07
413.69	2810.98
413.88	2839.07
414.07	2698.64
414.26	2899.92
414.45	2906.95
414.64	2984.18
414.83	2993.55
415.02	3080.14
415.22	3077.80
415.41	3094.19
415.60	3141.00
415.79	3119.93
415.98	3286.11
416.17	3159.72
416.36	3124.62
416.55	3311.86
416.74	3260.37
416.93	3274.41
417.12	3311.86
417.31	3339.94
417.50	3361.01
417.69	3433.57
417.88	3529.53
418.07	3506.12
418.26	3372.71
418.45	3562.30
418.64	3482.72
418.83	3702.73
419.02	3531.87
419.21	3613.79
419.39	3522.51
419.58	3597.40
419.77	3538.89
419.96	3515.48
420.15	3712.09
420.34	3684.00
420.53	3735.50
420.72	3854.86
420.91	3747.20
421.10	3822.09
421.29	3775.28
421.48	3822.09
421.67	3794.01
421.86	3824.44
422.05	3758.90
422.24	3871.25
422.43	3779.97
422.61	3777.62
422.80	3831.46
422.99	3969.55
423.18	3873.59
423.37	3995.29
423.56	3929.76
423.75	3981.25
423.94	3840.82
424.13	3574.00
424.32	3644.21
424.50	3967.21
424.69	4098.28
424.88	3918.06
425.07	3964.87
425.26	3875.93
425.45	3950.82
425.64	3904.01
425.83	3864.22
426.01	4131.05
426.20	3985.93
426.39	4093.60
426.58	4011.68
426.77	3859.54
426.96	3988.27
427.15	3997.64
427.33	4086.58
427.52	4086.58
427.71	4007.00
427.90	4035.08
428.09	4145.09
428.28	4070.19
428.46	4142.75
428.65	4095.94
428.84	4166.15
429.03	4301.90
429.22	3962.53
429.40	4044.45
429.59	4093.60
429.78	3969.55
429.97	3976.57
430.16	3981.25
430.34	4081.89
430.53	4002.32
430.72	4074.87
430.91	4325.31
431.10	4402.55
431.28	4601.49
431.47	4627.24
431.66	4734.90
431.85	4479.79
432.03	4634.26
432.22	4636.60
432.41	4507.87
432.60	4636.60
432.79	4765.33
432.97	4943.21
433.16	4781.71
433.35	4594.47
433.54	4697.46
433.72	4709.16
433.91	4718.52
434.10	4601.49
434.28	4732.56
434.47	4774.69
434.66	4952.57
434.85	4891.72
435.03	4823.84
435.22	4957.25
435.41	5093.01
435.59	4898.74
435.78	5114.07
435.97	5221.74
436.16	5039.17
436.34	5020.45
436.53	5188.97
436.72	5081.30
436.90	4943.21
437.09	5088.32
437.28	4929.17
437.46	5139.82
437.65	5221.74
437.84	5233.44
438.02	5135.14
438.21	5195.99
438.40	4994.70
438.58	5329.40
438.77	5420.68
438.96	5408.98
439.14	5556.43
439.33	5416.00
439.52	5511.96
439.70	5544.73
439.89	5687.50
440.08	5472.17
440.26	5605.58
440.45	5666.44
440.63	5820.91
440.82	6171.99
441.01	5701.54
441.19	5977.73
441.38	6122.84
441.57	6125.18
441.75	6230.51
441.94	6274.98
442.12	6270.30
442.31	6335.83
442.50	6291.36
442.68	6265.61
442.87	6307.74
443.05	6319.45
443.24	6361.58
443.43	6480.94
443.61	6434.13
443.80	6766.49
443.98	6338.17
444.17	6157.95
444.35	6422.43
444.54	6644.78
444.73	6530.09
444.91	6370.94
445.10	6434.13
445.28	6483.28
445.47	6164.97
445.65	6354.55
445.84	6441.15
446.02	6511.37
446.21	6502.01
446.39	6450.52
446.58	6497.33
446.77	6520.73
446.95	6593.29
447.14	6696.27
447.32	6803.94
447.51	6593.29
447.69	6616.69
447.88	6691.59
448.06	6473.92
448.25	6654.14
448.43	6612.01
448.62	6773.51
448.80	6621.38
448.99	6860.11
449.17	6913.94
449.36	6747.76
449.54	7026.29
449.73	7122.25
449.91	6967.77
450.10	7192.47
450.28	7108.21
450.46	7052.03
450.65	7157.36
450.83	7297.79
451.02	7199.49
451.20	7152.68
451.39	7286.09
451.57	7143.32
451.76	7052.03
451.94	7358.64
452.13	7370.35
452.31	7122.25
452.49	7300.13
452.68	7082.46
452.86	7119.91
453.05	7255.66
453.23	7398.43
453.42	7122.25
453.60	7208.85
453.78	7398.43
453.97	7363.33
454.15	7382.05
454.34	7358.64
454.52	7548.23
454.70	7428.86
454.89	7548.23
455.07	7566.95
455.26	7754.19
455.44	7733.13
455.62	7611.42
455.81	7808.03
455.99	7719.09
456.17	7920.37
456.36	7723.77
456.54	8046.76
456.73	7669.94
456.91	8077.19
457.09	7922.71
457.28	8119.32
457.46	7969.52
457.64	8126.34
457.83	8210.60
458.01	7852.50
458.19	8224.64
458.38	8124.00
458.56	8226.98
458.74	8208.26
458.93	8264.43
459.11	8285.50
459.29	8283.16
459.48	8404.86
459.66	8271.45
459.84	8418.91
460.03	8587.43
460.21	8133.36
460.39	8329.97
460.57	8341.67
460.76	8351.03
460.94	8475.08
461.12	8517.21
461.31	8709.13
461.49	8585.08
461.67	8645.94
461.85	8908.08
462.04	8711.47
462.22	9207.67
462.40	8901.06
462.59	8671.68
462.77	8788.71
462.95	8788.71
463.13	8699.77
463.32	8994.68
463.50	8924.46
463.68	8882.33
463.86	9027.45
464.05	8784.03
464.23	8959.57
464.41	8898.72
464.59	8908.08
464.78	9128.09
464.96	8982.98
465.14	9224.05
465.32	9046.17
465.50	9249.80
465.69	9305.97
465.87	9212.35
466.05	9144.47
466.23	9095.32
466.41	9280.22
466.60	9158.52
466.78	9170.22
466.96	9303.63
467.14	9184.26
467.32	9446.40
467.51	9493.21
467.69	9212.35
467.87	9423.00
468.05	9511.94
468.23	9355.12
468.41	9432.36
468.60	9376.19
468.78	9511.94
468.96	9359.80
469.14	9624.28
469.32	9760.03
469.50	9619.60
469.69	9717.90
469.87	9764.72
470.05	9776.42
470.23	9743.65
470.41	9797.48
470.59	9886.42
470.77	9870.04
470.95	10066.64
471.14	10066.64
471.32	9680.46
471.50	10345.17
471.68	10239.84
471.86	10230.48
472.04	10300.70
472.22	10628.37
472.40	10120.48
472.58	10431.77
472.77	10466.88
472.95	10363.89
473.13	10621.35
473.31	10441.13
473.49	10260.91
473.67	10572.20
473.85	10595.61
474.03	11094.14
474.21	10923.28
474.39	11110.52
474.57	11063.71
474.75	10897.53
474.93	11098.82
475.12	10824.98
475.30	11154.99
475.48	11211.17
475.66	11456.92
475.84	11178.40
476.02	11218.19
476.20	11332.87
476.38	11599.70
476.56	11873.54
476.74	11796.30
476.92	11775.24
477.10	11705.02
477.28	12226.96
477.46	11981.20
477.64	12063.12
477.82	12432.93
478.00	12358.03
478.18	12301.86
478.36	12615.49
478.54	12439.95
478.72	12674.00
478.90	13055.51
479.08	12865.92
479.26	13254.45
479.44	13104.66
479.62	12905.71
479.80	13275.52
479.98	13476.80
480.16	13619.58
480.34	13790.44
480.52	13778.73
480.70	13535.32
480.88	13458.08
481.06	13954.27
481.24	13956.61
481.41	14122.79
481.59	14022.15
481.77	14324.08
481.95	14429.40
482.13	14384.93
482.31	14436.42
482.49	14565.15
482.67	14710.27
482.85	15166.67
483.03	15108.16
483.21	15185.40
483.39	15073.05
483.57	15232.21
483.74	15297.74
483.92	15562.22
484.10	15358.60
484.28	15850.11
484.46	16116.93
484.64	16400.13
484.82	15772.87
485.00	15878.19
485.18	16339.28
485.35	16315.87
485.53	16170.76
485.71	16271.40
485.89	16374.39
486.07	16322.90
486.25	16428.22
486.43	16498.44
486.61	17027.40
486.78	16891.65
486.96	17121.02
487.14	17682.75
487.32	17652.32
487.50	17818.50
487.68	17895.74
487.85	18298.31
488.03	18363.84
488.21	18618.96
488.39	18429.38
488.57	18384.91
488.75	18590.88
488.92	18829.61
489.10	19115.16
489.28	18998.13
489.46	19756.46
489.64	19580.92
489.81	19999.88
489.99	19943.70
490.17	19901.58
490.35	20290.10
490.53	20484.37
490.70	20320.53
490.88	20505.43
491.06	20851.83
491.24	20676.29
491.41	20510.11
491.59	20730.12
491.77	20910.35
491.95	21046.10
492.13	21074.18
492.30	21823.16
492.48	21696.77
492.66	21731.87
492.84	22015.08
493.01	22246.79
493.19	22073.59
493.37	22197.64
493.54	22050.19
493.72	22677.45
493.90	22555.74
494.08	22803.84
494.25	23091.73
494.43	22927.89
494.61	22895.12
494.79	23213.43
494.96	23103.43
495.14	23356.21
495.32	23679.20
495.49	23583.24
495.67	23700.26
495.85	23955.38
496.02	23896.87
496.20	24287.74
496.38	24292.42
496.55	24465.62
496.73	24856.49
496.91	24369.66
497.09	24826.06
497.26	25003.94
497.44	24886.92
497.62	25113.95
497.79	25226.29
497.97	25008.62
498.14	25472.05
498.32	25462.69
498.50	25497.80
498.67	26059.52
498.85	26054.84
499.03	26103.99
499.20	26171.87
499.38	25977.61
499.56	26089.95
499.73	26139.10
499.91	26560.40
500.08	26279.54
500.26	26279.54
500.44	26529.97
500.61	26434.01
500.79	26565.08
500.97	26721.90
501.14	27077.66
501.32	26906.80
501.49	27016.80
501.67	27187.66
501.84	27630.02
502.02	27594.92
502.20	27449.80
502.37	27789.18
502.55	27786.84
502.72	27889.82
502.90	28102.81
503.07	27960.04
503.25	27892.16
503.43	27903.87
503.60	28229.20
503.78	27920.25
503.95	28423.47
504.13	27976.42
504.30	28711.35
504.48	28486.66
504.65	28865.83
504.83	28907.96
505.01	29081.16
505.18	29123.29
505.36	29315.21
505.53	29563.31
505.71	29528.20
505.88	29628.84
506.06	29046.05
506.23	29633.52
506.41	29088.18
506.58	29479.05
506.76	29626.50
506.93	29701.40
507.11	29818.42
507.28	29839.49
507.46	29844.17
507.63	29865.24
507.81	30338.02
507.98	29867.58
508.16	30188.23
508.33	30354.41
508.50	30326.32
508.68	30497.18
508.85	30682.08
509.03	30724.21
509.20	30714.85
509.38	31646.38
509.55	30984.01
509.73	30862.30
509.90	30960.61
510.08	31098.70
510.25	31337.43
510.42	31433.39
510.60	31674.47
510.77	31517.65
510.95	32058.32
511.12	31482.55
511.30	31887.46
511.47	32187.05
511.64	32229.18
511.82	32350.88
511.99	31838.31
512.17	31917.89
512.34	31850.01
512.51	32568.55
512.69	32603.66
512.86	32563.87
513.04	32833.04
513.21	32563.87
513.38	32716.01
513.56	32631.75
513.73	32467.91
513.90	32905.59
514.08	32828.35
514.25	33221.56
514.43	33118.58
514.60	32966.45
514.77	33081.13
514.95	33268.37
515.12	32945.38
515.29	33439.23
515.47	33472.00
515.64	33926.07
515.81	34300.55
515.99	33703.71
516.16	33357.32
516.33	33394.76
516.51	33542.22
516.68	32947.72
516.85	33303.48
517.03	33450.94
517.20	33993.94
517.37	34373.11
517.54	34223.31
517.72	34347.36
517.89	33762.23
518.06	33790.31
518.24	34272.46
518.41	34345.02
518.58	34483.11
518.75	34235.02
518.93	34829.51
519.10	34714.83
519.27	34480.77
519.45	34930.16
519.62	34904.41
519.79	35381.88
519.96	35246.13
520.14	35330.39
520.31	35330.39
520.48	34955.90
520.65	35068.25
520.83	35749.34
521.00	35718.92
521.17	35622.95
521.34	35814.88
521.52	35959.99
521.69	36023.19
521.86	36023.19
522.03	36109.78
522.20	35988.08
522.38	36423.42
522.55	36350.86
522.72	36198.73
522.89	36519.38
523.07	36680.88
523.24	36154.26
523.41	36872.80
523.58	36521.72
523.75	36746.41
523.92	36959.40
524.10	36952.38
524.27	36779.18
524.44	36755.77
524.61	37071.75
524.78	37254.31
524.96	37448.57
525.13	37340.91
525.30	37518.79
525.47	37542.19
525.64	37471.98
525.81	37483.68
525.98	37467.30
526.16	36938.33
526.33	37177.07
526.50	37420.48
526.67	37120.90
526.84	37366.65
527.01	37450.91
527.18	37401.76
527.36	37965.83
527.53	37350.27
527.70	38197.54
527.87	38089.88
528.04	38527.56
528.21	38567.35
528.38	37893.27
528.55	38719.48
528.72	38675.01
528.89	38817.78
529.07	38677.35
529.24	38302.87
529.41	38597.77
529.58	38483.09
529.75	38377.76
529.92	38911.41
530.09	39012.05
530.26	39019.07
530.43	38841.19
530.60	38684.37
530.77	38775.66
530.94	39461.43
531.11	39206.31
531.28	39182.91
531.46	39100.99
531.63	39187.59
531.80	39138.44
531.97	39058.86
532.14	39047.16
532.31	39058.86
532.48	38920.77
532.65	39583.14
532.82	39402.92
532.99	39672.08
533.16	39372.49
533.33	40208.06
533.50	39768.04
533.67	40191.68
533.84	40184.66
534.01	39950.60
534.18	39358.45
534.35	40182.32
534.52	40002.10
534.69	40151.89
534.86	40357.86
535.03	40062.95
535.20	40701.92
535.37	40179.98
535.54	40491.27
535.71	40093.38
535.88	40561.48
536.05	40374.24
536.22	40495.95
536.38	40615.32
536.55	40671.49
536.72	40591.91
536.89	39810.17
537.06	40371.90
537.23	40678.51
537.40	40697.24
537.57	40800.22
537.74	40708.94
537.91	41179.39
538.08	40919.59
538.25	40664.47
538.42	41235.56
538.59	41352.58
538.75	40739.36
538.92	41015.55
539.09	41195.77
539.26	41226.20
539.43	41317.48
539.60	41186.41
539.77	40921.93
539.94	41097.47
540.11	41038.95
540.28	41179.39
540.44	41240.24
540.61	41317.48
540.78	41338.54
540.95	41486.00
541.12	41244.92
541.29	41469.61
541.46	41975.17
541.62	41830.05
541.79	42052.41
541.96	41331.52
542.13	41759.84
542.30	41865.16
542.47	41336.20
542.63	41799.63
542.80	41771.54
542.97	42529.87
543.14	42274.76
543.31	42286.46
543.48	42342.63
543.64	42712.44
543.81	42525.19
543.98	42588.39
544.15	42497.11
544.32	42431.57
544.48	42763.93
544.65	42909.04
544.82	42817.76
544.99	42588.39
545.16	42241.99
545.32	42368.38
545.49	42838.83
545.66	43182.88
545.83	43049.47
546.00	42782.65
546.16	42623.50
546.33	42749.88
546.50	42307.52
546.67	43372.47
546.83	42724.14
547.00	42976.92
547.17	42728.82
547.34	42719.46
547.50	43323.32
547.67	43201.61
547.84	43171.18
548.00	43753.97
548.17	43587.80
548.34	43545.67
548.51	43276.51
548.67	43475.45
548.84	43672.06
549.01	43262.46
549.18	43374.81
549.34	43856.96
549.51	43290.55
549.68	43915.47
549.84	43438.00
550.01	44058.24
550.18	43318.64
550.34	44009.09
550.51	43622.90
550.68	43899.09
550.84	43239.06
551.01	43761.00
551.18	43758.66
551.34	43835.89
551.51	43814.83
551.68	43735.25
551.84	43753.97
552.01	43690.78
552.18	43735.25
552.34	43690.78
552.51	44093.35
552.68	43842.92
552.84	44502.95
553.01	44147.18
553.18	44053.56
553.34	44353.15
553.51	44275.91
553.67	44442.09
553.84	44751.04
554.01	44767.43
554.17	44573.16
554.34	44634.02
554.51	44201.02
554.67	44626.99
554.84	44690.19
555.00	44222.08
555.17	44423.37
555.33	44608.27
555.50	44388.26
555.67	44760.40
555.83	44699.55
556.00	44264.21
556.16	44685.51
556.33	44816.58
556.50	44406.98
556.66	44729.98
556.83	44381.24
556.99	44329.75
557.16	44868.07
557.32	44390.60
557.49	44765.09
557.65	44779.13
557.82	44502.95
557.98	45214.47
558.15	44896.16
558.32	44945.31
558.48	44416.35
558.65	45422.78
558.81	44500.61
558.98	44524.01
559.14	44898.50
559.31	44694.87
559.47	44268.89
559.64	44973.39
559.80	44933.60
559.97	45116.17
560.13	44615.29
560.30	44933.60
560.46	45102.12
560.63	44802.53
560.79	45071.70
560.96	45598.32
561.12	44783.81
561.29	44903.18
561.45	44781.47
561.61	45123.19
561.78	45170.00
561.94	44842.32
562.11	45010.84
562.27	45123.19
562.44	45399.37
562.60	45324.47
562.77	45815.99
562.93	45132.55
563.10	45247.24
563.26	44910.20
563.42	45174.68
563.59	45251.92
563.75	45425.12
563.92	45411.07
564.08	45221.49
564.24	45485.97
564.41	45483.63
564.57	45560.87
564.74	45069.36
564.90	45347.88
565.07	45631.08
565.23	45380.65
565.39	45048.29
565.56	45460.23
565.72	44935.95
565.88	45064.67
566.05	45230.85
566.21	45216.81
566.38	45612.36
566.54	45247.24
566.70	46089.83
566.87	45874.50
567.03	45329.16
567.19	46129.62
567.36	45762.15
567.52	45481.29
567.68	45593.64
567.85	45558.53
568.01	45668.53
568.17	45907.27
568.34	45790.24
568.50	45600.66
568.66	45591.30
568.83	45673.21
568.99	45378.31
569.15	45567.89
569.32	45432.14
569.48	45263.62
569.64	45605.34
569.81	46061.74
569.97	45420.44
570.13	45336.18
570.30	45069.36
570.46	45036.59
570.62	45226.17
570.78	45584.27
570.95	45366.60
571.11	45504.70
571.27	45223.83
571.43	45567.89
571.60	45511.72
571.76	45474.27
571.92	45301.07
572.09	45853.44
572.25	45689.60
572.41	45787.90
572.57	45731.73
572.74	46195.15
572.90	45553.85
573.06	46080.47
573.22	45469.59
573.38	45785.56
573.55	45591.30
573.71	46052.38
573.87	46120.26
574.03	45633.42
574.20	46028.98
574.36	45567.89
574.52	45724.71
574.68	45991.53
574.84	45801.94
575.01	45455.54
575.17	45830.03
575.33	45425.12
575.49	45743.43
575.65	45900.25
575.82	45928.33
575.98	45696.62
576.14	45600.66
576.30	46164.73
576.46	45645.13
576.62	45605.34
576.79	45546.82
576.95	45132.55
577.11	45474.27
577.27	45977.48
577.43	45928.33
577.59	45736.41
577.75	45738.75
577.92	45427.46
578.08	45308.09
578.24	45280.00
578.40	45687.26
578.56	45787.90
578.72	45563.21
578.88	45848.75
579.04	45675.55
579.21	45720.02
579.37	45813.65
579.53	45893.22
579.69	45914.29
579.85	45703.64
580.01	45947.06
580.17	45734.07
580.33	45811.31
580.49	46134.30
580.65	45457.88
580.82	45689.60
580.98	46033.66
581.14	45497.67
581.30	46192.81
581.46	45727.05
581.62	46204.52
581.78	45464.91
581.94	46227.92
582.10	45977.48
582.26	45886.20
582.42	45759.81
582.58	45853.44
582.74	45876.84
582.90	45940.04
583.06	46169.41
583.22	45944.72
583.38	46171.75
583.54	45787.90
583.70	45743.43
583.86	46197.49
584.02	45741.09
584.18	46080.47
584.34	46080.47
584.50	46295.80
584.66	46017.27
584.82	45741.09
584.98	46181.11
585.14	45933.01
585.30	45600.66
585.46	45876.84
585.62	45532.78
585.78	45865.14
585.94	45434.48
586.10	45724.71
586.26	45895.56
586.42	45928.33
586.58	46452.61
586.74	46047.70
586.90	46124.94
587.06	45890.88
587.22	45687.26
587.38	45792.58
587.54	45677.90
587.70	46155.36
587.86	45633.42
588.02	46174.09
588.18	45979.82
588.34	45647.47
588.49	45450.86
588.65	45146.59
588.81	45521.08
588.97	45516.40
589.13	45298.73
589.29	45448.52
589.45	45394.69
589.61	45514.06
589.77	46366.01
589.93	46017.27
590.08	46199.83
