SpectraSuite Data File
++++++++++++++++++++++++++++++++++++
Date: Fri Oct 25 11:25:58 EDT 2013
User: price-jones
Dark Spectrum Present: No
Reference Spectrum Present: No
Number of Sampled Component Spectra: 1
Spectrometers: USB2+H05261
Integration Time (usec): 100000 (USB2+H05261)
Spectra Averaged: 1 (USB2+H05261)
Boxcar Smoothing: 0 (USB2+H05261)
Correct for Electrical Dark: No (USB2+H05261)
Strobe/Lamp Enabled: No (USB2+H05261)
Correct for Detector Non-linearity: No (USB2+H05261)
Correct for Stray Light: No (USB2+H05261)
Number of Pixels in Processed Spectrum: 2048
>>>>>Begin Processed Spectral Data<<<<<
365.73	196.60
365.92	196.60
366.12	196.60
366.32	163.84
366.52	72.56
366.72	217.67
366.91	140.43
367.11	93.62
367.31	140.43
367.51	51.49
367.70	124.05
367.90	147.45
368.10	154.48
368.30	154.48
368.49	126.39
368.69	154.48
368.89	175.54
369.09	135.75
369.28	170.86
369.48	60.85
369.68	177.88
369.87	126.39
370.07	191.92
370.27	177.88
370.47	332.36
370.66	533.64
370.86	601.52
371.06	655.35
371.25	695.14
371.45	580.45
371.65	697.48
371.84	720.88
372.04	692.80
372.24	683.44
372.44	753.65
372.63	688.12
372.83	681.10
373.03	877.70
373.22	755.99
373.42	809.83
373.62	711.52
373.81	779.40
374.01	760.67
374.21	856.64
374.40	861.32
374.60	847.27
374.79	866.00
374.99	800.46
375.19	786.42
375.38	873.02
375.58	802.80
375.78	889.40
375.97	844.93
376.17	917.49
376.37	931.53
376.56	922.17
376.76	884.72
376.95	873.02
377.15	940.90
377.35	873.02
377.54	875.36
377.74	849.61
377.93	966.64
378.13	994.73
378.33	922.17
378.52	976.00
378.72	1015.79
378.91	973.66
379.11	894.08
379.31	952.60
379.50	938.55
379.70	1013.45
379.89	1001.75
380.09	922.17
380.28	1032.18
380.48	973.66
380.68	1008.77
380.87	1004.09
381.07	987.71
381.26	1034.52
381.46	1107.07
381.65	1060.26
381.85	1025.15
382.04	1055.58
382.24	1104.73
382.43	1022.81
382.63	1036.86
382.83	1088.35
383.02	1060.26
383.22	1093.03
383.41	1116.44
383.61	1088.35
383.80	1165.59
384.00	1107.07
384.19	1086.01
384.39	1149.20
384.58	1118.78
384.78	1181.97
384.97	1142.18
385.17	1165.59
385.36	1160.91
385.56	1186.65
385.75	1146.86
385.95	1210.06
386.14	1203.04
386.34	1200.69
386.53	1200.69
386.72	1263.89
386.92	1270.91
387.11	1240.48
387.31	1198.35
387.50	1238.14
387.70	1240.48
387.89	1153.88
388.09	1327.08
388.28	1334.11
388.48	1291.98
388.67	1345.81
388.86	1310.70
389.06	1376.24
389.25	1324.74
389.45	1364.53
389.64	1310.70
389.84	1392.62
390.03	1385.60
390.22	1434.75
390.42	1336.45
390.61	1348.15
390.81	1306.02
391.00	1385.60
391.19	1439.43
391.39	1380.92
391.58	1474.54
391.78	1432.41
391.97	1462.83
392.16	1453.47
392.36	1469.86
392.55	1530.71
392.75	1607.95
392.94	1563.48
393.13	1511.99
393.33	1547.09
393.52	1526.03
393.71	1621.99
393.91	1535.39
394.10	1516.67
394.29	1675.82
394.49	1706.25
394.68	1647.74
394.88	1584.54
395.07	1675.82
395.26	1727.32
395.46	1589.22
395.65	1671.14
395.84	1675.82
396.04	1865.41
396.23	1746.04
396.42	1645.40
396.62	1703.91
396.81	1764.76
397.00	1842.00
397.19	1884.13
397.39	1837.32
397.58	1797.53
397.77	1827.96
397.97	1865.41
398.16	1729.66
398.35	1762.42
398.55	1867.75
398.74	1813.92
398.93	2024.56
399.12	1959.03
399.32	1923.92
399.51	1994.14
399.70	2029.24
399.90	1879.45
400.09	2069.03
400.28	2085.42
400.47	2118.18
400.67	1963.71
400.86	2106.48
401.05	2040.95
401.24	2160.31
401.44	2080.74
401.63	2045.63
401.82	2179.04
402.01	2106.48
402.21	2174.36
402.40	2186.06
402.59	2265.64
402.78	2197.76
402.97	2143.93
403.17	2275.00
403.36	2265.64
403.55	2263.30
403.74	2387.35
403.93	2291.38
404.13	2377.98
404.32	2333.51
404.51	2377.98
404.70	2354.58
404.89	2403.73
405.09	2487.99
405.28	2478.63
405.47	2333.51
405.66	2490.33
405.85	2527.78
406.05	2469.27
406.24	2523.10
406.43	2635.44
406.62	2558.21
406.81	2771.19
407.00	2635.44
407.20	2605.02
407.39	2628.42
407.58	2635.44
407.77	2836.73
407.96	2775.88
408.15	2743.11
408.34	2684.59
408.54	2846.09
408.73	2848.43
408.92	2813.32
409.11	2939.71
409.30	2937.37
409.49	2911.63
409.68	2778.22
409.87	2874.18
410.07	2986.52
410.26	3014.61
410.45	3038.02
410.64	3183.13
410.83	3038.02
411.02	3030.99
411.21	3148.02
411.40	3173.77
411.59	3307.18
411.78	3185.47
411.98	3155.04
412.17	3211.22
412.36	3424.20
412.55	3499.10
412.74	3375.05
412.93	3403.14
413.12	3328.24
413.31	3496.76
413.50	3440.59
413.69	3461.65
413.88	3480.38
414.07	3590.38
414.26	3681.66
414.45	3662.94
414.64	3679.32
414.83	3824.44
415.02	3772.94
415.22	3843.16
415.41	3934.44
415.60	3878.27
415.79	3882.95
415.98	3974.23
416.17	4049.13
416.36	3927.42
416.55	4011.68
416.74	4056.15
416.93	4081.89
417.12	4044.45
417.31	4168.49
417.50	4287.86
417.69	4358.08
417.88	4306.59
418.07	4266.80
418.26	4266.80
418.45	4358.08
418.64	4489.15
418.83	4489.15
419.02	4339.35
419.21	4512.55
419.39	4519.57
419.58	4404.89
419.77	4472.76
419.96	4442.34
420.15	4629.58
420.34	4503.19
420.53	4606.17
420.72	4477.44
420.91	4636.60
421.10	4779.37
421.29	4732.56
421.48	4676.39
421.67	4676.39
421.86	4807.46
422.05	4898.74
422.24	4788.74
422.43	4812.14
422.61	4877.68
422.80	4784.06
422.99	4854.27
423.18	4975.98
423.37	5027.47
423.56	4908.10
423.75	5050.88
423.94	4884.70
424.13	4652.98
424.32	4767.67
424.50	4966.62
424.69	5142.16
424.88	5210.03
425.07	4870.65
425.26	4980.66
425.45	4889.38
425.64	4873.00
425.83	5039.17
426.01	5200.67
426.20	5011.09
426.39	5109.39
426.58	5022.79
426.77	5111.73
426.96	5263.86
427.15	5123.43
427.33	5104.71
427.52	5151.52
427.71	5315.36
427.90	5298.97
428.09	5240.46
428.28	5425.36
428.46	5348.12
428.65	5483.88
428.84	5483.88
429.03	5652.39
429.22	5399.62
429.40	5430.04
429.59	5383.23
429.78	5273.23
429.97	5427.70
430.16	5359.83
430.34	5652.39
430.53	5570.48
430.72	5729.63
430.91	5729.63
431.10	5717.93
431.28	5757.72
431.47	5785.80
431.66	5851.34
431.85	5891.13
432.03	5996.45
432.22	5963.68
432.41	5895.81
432.60	6012.84
432.79	5858.36
432.97	5994.11
433.16	5930.92
433.35	5956.66
433.54	5856.02
433.72	6153.27
433.91	6106.46
434.10	5975.39
434.28	6047.94
434.47	6204.76
434.66	6347.53
434.85	6174.33
435.03	6361.58
435.22	6303.06
435.41	6441.15
435.59	6366.26
435.78	6410.73
435.97	6553.50
436.16	6382.64
436.34	6434.13
436.53	6448.18
436.72	6640.10
436.90	6319.45
437.09	6761.81
437.28	6366.26
437.46	6642.44
437.65	6719.68
437.84	6939.69
438.02	6586.27
438.21	6782.87
438.40	6544.14
438.58	6803.94
438.77	7030.97
438.96	7000.54
439.14	7243.96
439.33	7239.28
439.52	7176.08
439.70	7098.84
439.89	7559.93
440.08	7349.28
440.26	7276.73
440.45	7400.77
440.63	7478.01
440.82	7595.04
441.01	7262.68
441.19	7698.02
441.38	7604.40
441.57	7618.44
441.75	7808.03
441.94	7824.41
442.12	7791.64
442.31	7903.99
442.50	8039.74
442.68	8084.21
442.87	8161.45
443.05	8044.42
443.24	8215.28
443.43	8198.90
443.61	8248.05
443.80	8379.12
443.98	8299.54
444.17	7957.82
444.35	8320.60
444.54	8477.42
444.73	8262.09
444.91	8259.75
445.10	8262.09
445.28	8280.82
445.47	8255.07
445.65	8362.73
445.84	8304.22
446.02	8264.43
446.21	8131.02
446.39	8313.58
446.58	8451.67
446.77	8304.22
446.95	8234.00
447.14	8308.90
447.32	8622.53
447.51	8400.18
447.69	8369.76
447.88	8421.25
448.06	8697.43
448.25	8395.50
448.43	8608.49
448.62	8664.66
448.80	8582.74
448.99	8624.87
449.17	8746.58
449.36	8793.39
449.54	8795.73
449.73	8875.31
449.91	8812.12
450.10	8657.64
450.28	9043.83
450.46	9123.41
450.65	8903.40
450.83	9205.33
451.02	8762.97
451.20	9004.04
451.39	9249.80
451.57	9352.78
451.76	9090.64
451.94	9191.28
452.13	9123.41
452.31	9366.82
452.49	9226.39
452.68	9144.47
452.86	9350.44
453.05	9296.61
453.23	9472.15
453.42	9331.72
453.60	9348.10
453.78	9357.46
453.97	9467.47
454.15	9350.44
454.34	9547.05
454.52	9870.04
454.70	9528.32
454.89	9689.82
455.07	9792.80
455.26	9956.64
455.44	9675.77
455.62	9956.64
455.81	10047.92
455.99	10232.82
456.17	10076.01
456.36	9998.77
456.54	10132.18
456.73	10267.93
456.91	10499.64
457.09	10354.53
457.28	10438.79
457.46	10272.61
457.64	10630.71
457.83	10586.24
458.01	10298.36
458.19	10745.40
458.38	10532.41
458.56	10525.39
458.74	10860.09
458.93	10738.38
459.11	10839.02
459.29	10651.78
459.48	10686.89
459.66	10668.16
459.84	10867.11
460.03	10988.82
460.21	10829.66
460.39	10855.40
460.57	11049.67
460.76	11091.80
460.94	11225.21
461.12	11044.99
461.31	11213.51
461.49	11379.68
461.67	10934.98
461.85	11342.24
462.04	11117.54
462.22	11871.20
462.40	11595.01
462.59	11503.73
462.77	11311.81
462.95	11634.80
463.13	11534.16
463.32	11447.56
463.50	11819.71
463.68	11768.21
463.86	11758.85
464.05	11386.71
464.23	11903.96
464.41	11964.82
464.59	11468.62
464.78	12053.76
464.96	12018.65
465.14	11768.21
465.32	12093.55
465.50	12095.89
465.69	12035.03
465.87	12077.16
466.05	11934.39
466.23	12245.68
466.41	12180.15
466.60	12535.91
466.78	12102.91
466.96	11960.14
467.14	12329.94
467.32	12315.90
467.51	12571.02
467.69	12264.41
467.87	12402.50
468.05	12943.16
468.23	12299.52
468.41	12463.35
468.60	12496.12
468.78	12966.57
468.96	12592.08
469.14	12812.09
469.32	13018.06
469.50	12891.67
469.69	13139.77
469.87	13053.17
470.05	13193.60
470.23	13048.49
470.41	13298.92
470.59	13205.30
470.77	12835.50
470.95	13303.60
471.14	13619.58
471.32	13186.58
471.50	13565.74
471.68	13537.66
471.86	13371.48
472.04	13621.92
472.22	13760.01
472.40	13685.11
472.58	13905.12
472.77	14115.77
472.95	14115.77
473.13	14459.83
473.31	14176.62
473.49	14017.47
473.67	14097.05
473.85	14354.51
474.03	14534.73
474.21	14450.47
474.39	14525.36
474.57	14506.64
474.75	14785.16
474.93	14754.74
475.12	14904.53
475.30	15014.54
475.48	14824.95
475.66	15026.24
475.84	15290.72
476.02	15541.16
476.20	15449.88
476.38	15810.32
476.56	16011.60
476.74	15866.49
476.92	15819.68
477.10	15955.43
477.28	16397.79
477.46	16088.84
477.64	16365.03
477.82	16498.44
478.00	16547.59
478.18	16655.25
478.36	16739.51
478.54	17261.45
478.72	16905.69
478.90	17338.69
479.08	17727.22
479.26	17563.38
479.44	17603.17
479.62	17825.52
479.80	18207.03
479.98	18134.47
480.16	18429.38
480.34	17982.34
480.52	18567.47
480.70	18625.98
480.88	18427.04
481.06	18743.01
481.24	18686.84
481.41	19040.26
481.59	19365.59
481.77	19398.36
481.95	19564.54
482.13	19805.61
482.31	19419.42
482.49	20294.79
482.67	20006.90
482.85	20372.02
483.03	20491.39
483.21	20734.81
483.39	20908.01
483.57	20781.62
483.74	20912.69
483.92	21247.38
484.10	21261.43
484.28	21977.63
484.46	22071.25
484.64	22019.76
484.82	21851.24
485.00	22319.35
485.18	22672.77
485.35	22752.35
485.53	22565.10
485.71	23070.66
485.89	23297.69
486.07	23419.40
486.25	23271.95
486.43	23318.76
486.61	24058.37
486.78	24159.01
486.96	23931.98
487.14	24666.91
487.32	24203.48
487.50	24922.02
487.68	25223.95
487.85	24994.58
488.03	25441.62
488.21	25689.72
488.39	25656.95
488.57	25638.23
488.75	25799.73
488.92	26361.45
489.10	26698.49
489.28	26602.53
489.46	27201.71
489.64	26890.41
489.81	27335.12
489.99	27501.29
490.17	28051.32
490.35	28327.50
490.53	28322.82
490.70	28304.10
490.88	28173.03
491.06	28924.34
491.24	29329.25
491.41	28755.82
491.59	29174.78
491.77	29287.12
491.95	29834.81
492.13	29582.03
492.30	30122.69
492.48	29820.77
492.66	30370.79
492.84	30099.29
493.01	30700.81
493.19	30981.67
493.37	30766.34
493.54	30913.80
493.72	31531.70
493.90	31758.73
494.08	31868.73
494.25	31779.79
494.43	32149.60
494.61	31810.22
494.79	32591.96
494.96	32283.01
495.14	32606.00
495.32	32879.85
495.49	33324.55
495.67	32804.95
495.85	33418.17
496.02	33963.51
496.20	33736.48
496.38	34129.69
496.55	34007.98
496.73	34728.87
496.91	34672.70
497.09	34621.20
497.26	34586.10
497.44	35051.86
497.62	35337.41
497.79	35906.16
497.97	35344.43
498.14	35981.06
498.32	36084.04
498.50	36154.26
498.67	36369.58
498.85	35988.08
499.03	36442.14
499.20	36486.61
499.38	36730.03
499.56	37270.69
499.73	37153.66
499.91	37521.13
500.08	37153.66
500.26	37298.78
500.44	37504.74
500.61	37972.85
500.79	37684.97
500.97	37968.17
501.14	38742.89
501.32	38747.57
501.49	38319.25
501.67	38546.28
501.84	38864.60
502.02	38714.80
502.20	39182.91
502.37	38904.38
502.55	39325.68
502.72	39384.19
502.90	39541.01
503.07	39182.91
503.25	39695.49
503.43	39681.44
503.60	39901.45
503.78	39976.35
503.95	40055.93
504.13	40566.16
504.30	40561.48
504.48	40783.83
504.65	40542.76
504.83	41338.54
505.01	41364.29
505.18	40898.52
505.36	41329.18
505.53	41390.03
505.71	41748.14
505.88	41839.42
506.06	41642.81
506.23	41958.78
506.41	41876.86
506.58	41937.72
506.76	42366.04
506.93	42361.36
507.11	42417.53
507.28	42644.56
507.46	42721.80
507.63	42555.62
507.81	43339.70
507.98	42878.61
508.16	42717.12
508.33	43538.65
508.50	43578.43
508.68	43433.32
508.85	43672.06
509.03	43650.99
509.20	43992.71
509.38	44474.86
509.55	44395.28
509.73	44856.37
509.90	44435.07
510.08	44907.86
510.25	44566.14
510.42	44739.34
510.60	44957.01
510.77	44952.33
510.95	45006.16
511.12	44914.88
511.30	45088.08
511.47	45195.74
511.64	45729.39
511.82	45713.00
511.99	45485.97
512.17	45839.39
512.34	45797.26
512.51	45661.51
512.69	46396.44
512.86	46663.26
513.04	46651.56
513.21	46983.91
513.38	46962.85
513.56	46667.94
513.73	46483.04
513.90	47100.94
514.08	46789.65
514.25	47430.96
514.43	47030.72
514.60	47224.99
514.77	47295.21
514.95	47255.42
515.12	47089.24
515.29	47641.60
515.47	47650.97
515.64	48105.03
515.81	47648.63
515.99	48002.05
516.16	48189.29
516.33	48406.96
516.51	48439.73
516.68	48561.44
516.85	48210.35
517.03	49017.84
517.20	48982.73
517.37	48439.73
517.54	48940.60
517.72	48933.58
517.89	49085.72
518.06	48914.86
518.24	49247.21
518.41	49296.36
518.58	49235.51
518.75	49050.61
518.93	49193.38
519.10	49584.25
519.27	49485.95
519.45	49621.70
519.62	50031.29
519.79	49918.95
519.96	49820.64
520.14	50047.68
520.31	50005.55
520.48	50073.42
520.65	50010.23
520.83	50630.47
521.00	50424.50
521.17	50520.46
521.34	50532.17
521.52	50403.44
521.69	50817.71
521.86	50604.72
522.03	50878.57
522.20	51068.15
522.38	51470.72
522.55	51288.16
522.72	51068.15
522.89	51346.67
523.07	51798.40
523.24	51173.47
523.41	51751.59
523.58	51615.83
523.75	51686.05
523.92	51501.15
524.10	52067.56
524.27	51854.57
524.44	51767.97
524.61	51948.19
524.78	52013.73
524.96	52165.86
525.13	52294.59
525.30	52292.25
525.47	52549.71
525.64	52247.78
525.81	52528.64
525.98	52626.95
526.16	52367.15
526.33	52315.65
526.50	52846.96
526.67	52615.24
526.84	53020.16
527.01	52926.53
527.18	53052.92
527.36	52718.23
527.53	53172.29
527.70	53235.48
527.87	53113.78
528.04	53059.94
528.21	53329.11
528.38	53167.61
528.55	53734.02
528.72	53523.37
528.89	53530.39
529.07	53558.48
529.24	53502.31
529.41	53848.71
529.58	53499.97
529.75	53553.80
529.92	53511.67
530.09	53624.01
530.26	53584.22
530.43	53986.80
530.60	53806.58
530.77	53703.59
530.94	54265.32
531.11	53998.50
531.28	53970.41
531.46	54003.18
531.63	54267.66
531.80	54382.35
531.97	54167.02
532.14	54279.36
532.31	54340.22
532.48	54674.91
532.65	54471.29
532.82	54466.61
532.99	54761.51
533.16	54670.23
533.33	54862.16
533.50	55035.36
533.67	54623.42
533.84	54747.47
534.01	54726.41
534.18	55049.40
534.35	55196.85
534.52	55009.61
534.69	54911.31
534.86	55503.46
535.03	55056.42
535.20	55182.81
535.37	55143.02
535.54	55344.31
535.71	55220.26
535.88	55339.63
536.05	55227.28
536.22	55583.04
536.38	55435.59
536.55	55285.79
536.72	55353.67
536.89	55739.86
537.06	55763.26
537.23	55510.49
537.40	55494.10
537.57	55576.02
537.74	55821.78
537.91	55845.18
538.08	55688.37
538.25	55819.44
538.42	55756.24
538.59	56102.64
538.75	55877.95
538.92	55938.80
539.09	56154.13
539.26	55859.23
539.43	56011.36
539.60	56058.17
539.77	56114.34
539.94	56495.85
540.11	56240.73
540.28	56339.04
540.44	56596.49
540.61	56446.70
540.78	56306.27
540.95	56310.95
541.12	56224.35
541.29	56446.70
541.46	56449.04
541.62	56535.64
541.79	56664.37
541.96	56395.21
542.13	56762.67
542.30	56502.87
542.47	56938.21
542.63	56851.61
542.80	56970.98
542.97	57361.85
543.14	57394.62
543.31	57120.77
543.48	57240.14
543.64	57193.33
543.81	57144.18
543.98	57420.36
544.15	57254.18
544.32	57310.36
544.48	57333.76
544.65	57542.07
544.82	57513.98
544.99	57336.10
545.16	57652.08
545.32	57389.94
545.49	57797.19
545.66	57602.92
545.83	57572.50
546.00	57755.06
546.16	57764.42
546.33	57502.28
546.50	57322.06
546.67	57759.74
546.83	57509.30
547.00	57673.14
547.17	57698.89
547.34	57647.39
547.50	57762.08
547.67	58038.26
547.84	57780.81
548.00	58169.33
548.17	58094.44
548.34	58082.73
548.51	58042.95
548.67	58190.40
548.84	58216.14
549.01	58120.18
549.18	58284.02
549.34	58354.24
549.51	58372.96
549.68	58127.20
549.84	58262.96
550.01	58382.32
550.18	57858.04
550.34	58246.57
550.51	58382.32
550.68	58412.75
550.84	58052.31
551.01	58543.82
551.18	58543.82
551.34	58525.10
551.51	58492.33
551.68	58604.67
551.84	58401.05
552.01	58445.52
552.18	58628.08
552.34	58457.22
552.51	58693.61
552.68	58759.15
552.84	58621.06
553.01	58857.45
553.18	58897.24
553.34	58674.89
553.51	58915.96
553.67	58897.24
553.84	58843.41
554.01	58901.92
554.17	58822.34
554.34	59089.16
554.51	59000.22
554.67	59023.63
554.84	59047.04
555.00	59025.97
555.17	59009.59
555.33	58993.20
555.50	59068.10
555.67	58731.06
555.83	58894.90
556.00	59131.29
556.16	59480.03
556.33	59264.70
556.50	59084.48
556.66	59164.06
556.83	59063.42
556.99	59341.94
557.16	59409.82
557.32	59487.06
557.49	59419.18
557.65	59442.59
557.82	59164.06
557.98	59395.77
558.15	59302.15
558.32	59529.19
558.48	59412.16
558.65	59377.05
558.81	59674.30
558.98	59262.36
559.14	59601.74
559.31	59355.99
559.47	59681.32
559.64	59636.85
559.80	59791.33
559.97	59929.42
560.13	59573.66
560.30	59547.91
560.46	59578.34
560.63	59723.45
560.79	59653.23
560.96	59625.15
561.12	60009.00
561.29	59807.71
561.45	59709.41
561.61	59678.98
561.78	59821.75
561.94	59903.67
562.11	59877.93
562.27	59737.49
562.44	59971.55
562.60	59924.74
562.77	59952.82
562.93	59711.75
563.10	59828.77
563.26	59788.98
563.42	60268.79
563.59	59997.29
563.75	59889.63
563.92	59915.37
564.08	60144.75
564.24	60034.74
564.41	60051.12
564.57	60055.81
564.74	60100.28
564.90	59957.50
565.07	60032.40
565.23	59840.48
565.39	60025.38
565.56	60266.45
565.72	60130.70
565.88	59997.29
566.05	60114.32
566.21	60170.49
566.38	60203.26
566.54	60425.61
566.70	60217.30
566.87	60334.33
567.03	60041.76
567.19	60362.42
567.36	60355.39
567.52	60177.51
567.68	60505.19
567.85	60165.81
568.01	60360.08
568.17	60177.51
568.34	60320.29
568.50	60315.61
568.66	60334.33
568.83	60418.59
568.99	60154.11
569.15	60434.97
569.32	60343.69
569.48	60348.37
569.64	60350.71
569.81	60257.09
569.97	60350.71
570.13	60568.38
570.30	60065.17
570.46	60350.71
570.62	60339.01
570.78	60720.52
570.95	60467.74
571.11	60594.13
571.27	60420.93
571.43	60189.22
571.60	60591.79
571.76	60439.65
571.92	60392.84
572.09	60514.55
572.25	60734.56
572.41	60519.23
572.57	60715.84
572.74	60816.48
572.90	60601.15
573.06	60680.73
573.22	60626.90
573.38	60573.06
573.55	60650.30
573.71	60746.26
573.87	60561.36
574.03	60636.26
574.20	60577.75
574.36	60573.06
574.52	60662.00
574.68	60832.86
574.84	60793.07
575.01	60818.82
575.17	60528.59
575.33	60704.13
575.49	60706.47
575.65	60788.39
575.82	60797.76
575.98	60783.71
576.14	60935.85
576.30	60814.14
576.46	60760.31
576.62	60692.43
576.79	60519.23
576.95	60521.57
577.11	60544.98
577.27	60900.74
577.43	60872.65
577.59	60591.79
577.75	60699.45
577.92	60598.81
578.08	60786.05
578.24	60891.38
578.40	60884.36
578.56	60795.42
578.72	60673.71
578.88	60764.99
579.04	60779.03
579.21	60928.83
579.37	60828.18
579.53	61010.74
579.69	60549.66
579.85	60725.20
580.01	60903.08
580.17	60633.92
580.33	61031.81
580.49	60846.91
580.65	60825.84
580.82	60797.76
580.98	61062.24
581.14	60711.16
581.30	60992.02
581.46	60933.51
581.62	60987.34
581.78	60842.23
581.94	60985.00
582.10	60999.04
582.26	60903.08
582.42	60750.94
582.58	60783.71
582.74	60879.67
582.90	60874.99
583.06	60933.51
583.22	60727.54
583.38	60945.21
583.54	60853.93
583.70	60935.85
583.86	60917.12
584.02	60898.40
584.18	61083.30
584.34	61123.09
584.50	60956.91
584.66	61127.77
584.82	60867.97
584.98	61169.90
585.14	60924.14
585.30	60762.65
585.46	61078.62
585.62	60952.23
585.78	61205.01
585.94	60582.43
586.10	60989.68
586.26	61038.83
586.42	60994.36
586.58	61052.87
586.74	61017.77
586.90	61099.68
587.06	60999.04
587.22	60940.53
587.38	60928.83
587.54	61059.90
587.70	61195.65
587.86	61078.62
588.02	60987.34
588.18	61202.67
588.34	60935.85
588.49	61001.38
