SpectraSuite Data File
++++++++++++++++++++++++++++++++++++
Date: Fri Oct 25 10:47:59 EDT 2013
User: price-jones
Dark Spectrum Present: No
Reference Spectrum Present: No
Number of Sampled Component Spectra: 1
Spectrometers: USB2+H05261
Integration Time (usec): 100000 (USB2+H05261)
Spectra Averaged: 1 (USB2+H05261)
Boxcar Smoothing: 0 (USB2+H05261)
Correct for Electrical Dark: No (USB2+H05261)
Strobe/Lamp Enabled: No (USB2+H05261)
Correct for Detector Non-linearity: No (USB2+H05261)
Correct for Stray Light: No (USB2+H05261)
Number of Pixels in Processed Spectrum: 2048
>>>>>Begin Processed Spectral Data<<<<<
365.73	138.09
365.92	138.09
366.12	138.09
366.32	133.41
366.52	51.49
366.72	70.22
366.91	65.54
367.11	95.96
367.31	49.15
367.51	4.68
367.70	14.04
367.90	0.00
368.10	11.70
368.30	65.54
368.49	49.15
368.69	152.13
368.89	30.43
369.09	58.51
369.28	81.92
369.48	23.41
369.68	49.15
369.87	107.66
370.07	49.15
370.27	189.58
370.47	222.35
370.66	390.87
370.86	395.55
371.06	414.27
371.25	458.74
371.45	407.25
371.65	493.85
371.84	400.23
372.04	388.53
372.24	461.09
372.44	430.66
372.63	484.49
372.83	512.58
373.03	496.19
373.22	477.47
373.42	493.85
373.62	521.94
373.81	507.90
374.01	608.54
374.21	505.56
374.40	465.77
374.60	608.54
374.79	568.75
374.99	531.30
375.19	531.30
375.38	608.54
375.58	535.98
375.78	594.50
375.97	552.37
376.17	629.60
376.37	592.16
376.56	585.13
376.76	603.86
376.95	631.94
377.15	585.13
377.35	568.75
377.54	627.26
377.74	573.43
377.93	559.39
378.13	613.22
378.33	601.52
378.52	629.60
378.72	613.22
378.91	596.84
379.11	540.66
379.31	627.26
379.50	653.01
379.70	596.84
379.89	596.84
380.09	657.69
380.28	608.54
380.48	704.50
380.68	622.58
380.87	681.10
381.07	739.61
381.26	641.31
381.46	615.56
381.65	643.65
381.85	704.50
382.04	674.07
382.24	671.73
382.43	669.39
382.63	702.16
382.83	641.31
383.02	727.91
383.22	723.23
383.41	711.52
383.61	786.42
383.80	706.84
384.00	758.33
384.19	713.86
384.39	723.23
384.58	732.59
384.78	772.38
384.97	763.01
385.17	767.70
385.36	760.67
385.56	779.40
385.75	781.74
385.95	751.31
386.14	732.59
386.34	784.08
386.53	755.99
386.72	772.38
386.92	870.68
387.11	755.99
387.31	873.02
387.50	777.06
387.70	793.44
387.89	798.12
388.09	851.96
388.28	814.51
388.48	779.40
388.67	784.08
388.86	772.38
389.06	826.21
389.25	915.15
389.45	915.15
389.64	903.45
389.84	861.32
390.03	887.06
390.22	833.23
390.42	908.13
390.61	844.93
390.81	905.79
391.00	910.47
391.19	968.98
391.39	983.02
391.58	957.28
391.78	898.77
391.97	999.41
392.16	917.49
392.36	964.30
392.55	964.30
392.75	905.79
392.94	880.04
393.13	1081.33
393.33	912.81
393.52	947.92
393.71	1018.13
393.91	1050.90
394.10	968.98
394.29	1104.73
394.49	990.05
394.68	1128.14
394.88	1074.31
395.07	1160.91
395.26	1118.78
395.46	1109.41
395.65	1132.82
395.84	1083.67
396.04	1233.46
396.23	1121.12
396.42	1102.39
396.62	1116.44
396.81	1181.97
397.00	1128.14
397.19	1198.35
397.39	1174.95
397.58	1165.59
397.77	1219.42
397.97	1163.25
398.16	1245.16
398.35	1270.91
398.55	1306.02
398.74	1238.14
398.93	1364.53
399.12	1233.46
399.32	1359.85
399.51	1317.72
399.70	1497.94
399.90	1444.11
400.09	1329.42
400.28	1355.17
400.47	1282.61
400.67	1406.66
400.86	1460.49
401.05	1413.68
401.24	1495.60
401.44	1441.77
401.63	1446.45
401.82	1521.35
402.01	1486.24
402.21	1437.09
402.40	1521.35
402.59	1500.28
402.78	1448.79
402.97	1526.03
403.17	1448.79
403.36	1575.18
403.55	1600.93
403.74	1717.95
403.93	1605.61
404.13	1614.97
404.32	1629.01
404.51	1645.40
404.70	1650.08
404.89	1598.59
405.09	1692.21
405.28	1755.40
405.47	1652.42
405.66	1689.87
405.85	1657.10
406.05	1720.29
406.24	1701.57
406.43	1839.66
406.62	1769.44
406.81	1937.96
407.00	1762.42
407.20	1771.79
407.39	1844.34
407.58	1877.11
407.77	1900.52
407.96	1834.98
408.15	1877.11
408.34	1956.69
408.54	2003.50
408.73	1905.20
408.92	1902.86
409.11	2005.84
409.30	1982.43
409.49	1893.49
409.68	2052.65
409.87	2045.63
410.07	2101.80
410.26	2076.06
410.45	2050.31
410.64	2057.33
410.83	2064.35
411.02	2122.87
411.21	2359.26
411.40	2176.70
411.59	2223.51
411.78	2237.55
411.98	2286.70
412.17	2392.03
412.36	2223.51
412.55	2324.15
412.74	2319.47
412.93	2373.30
413.12	2427.14
413.31	2466.92
413.50	2452.88
413.69	2471.61
413.88	2597.99
414.07	2480.97
414.26	2597.99
414.45	2658.85
414.64	2532.46
414.83	2670.55
415.02	2703.32
415.22	2693.96
415.41	2656.51
415.60	2722.04
415.79	2775.88
415.98	2825.03
416.17	2775.88
416.36	2813.32
416.55	2853.11
416.74	2888.22
416.93	2815.66
417.12	2986.52
417.31	2836.73
417.50	2813.32
417.69	3061.42
417.88	3040.36
418.07	3103.55
418.26	3068.44
418.45	3063.76
418.64	3199.51
418.83	3164.40
419.02	3049.72
419.21	3155.04
419.39	3234.62
419.58	3152.70
419.77	3208.87
419.96	3309.52
420.15	3328.24
420.34	3150.36
420.53	3274.41
420.72	3386.76
420.91	3433.57
421.10	3349.31
421.29	3389.10
421.48	3290.79
421.67	3377.39
421.86	3234.62
422.05	3461.65
422.24	3389.10
422.43	3487.40
422.61	3375.05
422.80	3485.06
422.99	3473.36
423.18	3272.07
423.37	3508.46
423.56	3454.63
423.75	3442.93
423.94	3353.99
424.13	3325.90
424.32	3410.16
424.50	3440.59
424.69	3424.20
424.88	3543.57
425.07	3506.12
425.26	3515.48
425.45	3398.46
425.64	3578.68
425.83	3456.97
426.01	3627.83
426.20	3557.61
426.39	3578.68
426.58	3674.64
426.77	3466.33
426.96	3653.58
427.15	3463.99
427.33	3627.83
427.52	3517.83
427.71	3702.73
427.90	3700.39
428.09	3726.13
428.28	3726.13
428.46	3801.03
428.65	3730.81
428.84	3779.97
429.03	3868.91
429.22	3686.34
429.40	3770.60
429.59	3728.47
429.78	3613.79
429.97	3674.64
430.16	3779.97
430.34	3772.94
430.53	3798.69
430.72	3850.18
430.91	3796.35
431.10	3908.69
431.28	3978.91
431.47	4105.30
431.66	4166.15
431.85	3995.29
432.03	4276.16
432.22	4100.62
432.41	4121.68
432.60	4168.49
432.79	4042.11
432.97	4135.73
433.16	4177.86
433.35	4259.78
433.54	4161.47
433.72	4180.20
433.91	4124.02
434.10	4215.30
434.28	4184.88
434.47	4318.29
434.66	4428.29
434.85	4241.05
435.03	4358.08
435.22	4351.06
435.41	4545.32
435.59	4435.32
435.78	4533.62
435.97	4540.64
436.16	4461.06
436.34	4383.82
436.53	4557.02
436.72	4573.41
436.90	4482.13
437.09	4631.92
437.28	4547.66
437.46	4561.70
437.65	4648.30
437.84	4685.75
438.02	4720.86
438.21	4554.68
438.40	4580.43
438.58	4767.67
438.77	4793.42
438.96	4739.58
439.14	4851.93
439.33	5060.24
439.52	4945.55
439.70	4940.87
439.89	5015.77
440.08	5149.18
440.26	5114.07
440.45	5123.43
440.63	5104.71
440.82	5195.99
441.01	5179.61
441.19	5310.68
441.38	5385.57
441.57	5413.66
441.75	5572.82
441.94	5537.71
442.12	5584.52
442.31	5738.99
442.50	5551.75
442.68	5514.30
442.87	5568.13
443.05	5537.71
443.24	5696.86
443.43	5715.59
443.61	5720.27
443.80	5755.38
443.98	5657.07
444.17	5568.13
444.35	5809.21
444.54	5778.78
444.73	5774.10
444.91	5806.87
445.10	5682.82
445.28	5872.40
445.47	5746.02
445.65	5802.19
445.84	5937.94
446.02	5867.72
446.21	5884.11
446.39	5729.63
446.58	5804.53
446.77	5867.72
446.95	5905.17
447.14	5860.70
447.32	6005.81
447.51	5834.96
447.69	5860.70
447.88	5781.12
448.06	5973.05
448.25	5860.70
448.43	5975.39
448.62	6113.48
448.80	5954.32
448.99	6033.90
449.17	6104.12
449.36	6017.52
449.54	6239.87
449.73	6139.23
449.91	6298.38
450.10	6349.87
450.28	6326.47
450.46	6286.68
450.65	6328.81
450.83	6291.36
451.02	6314.77
451.20	6340.51
451.39	6324.13
451.57	6363.92
451.76	6202.42
451.94	6399.02
452.13	6450.52
452.31	6361.58
452.49	6455.20
452.68	6462.22
452.86	6429.45
453.05	6572.22
453.23	6537.12
453.42	6516.05
453.60	6492.65
453.78	6696.27
453.97	6492.65
454.15	6630.74
454.34	6354.55
454.52	6689.25
454.70	6530.09
454.89	6768.83
455.07	6743.08
455.26	6644.78
455.44	6740.74
455.62	6827.34
455.81	6946.71
455.99	6881.18
456.17	6920.96
456.36	6942.03
456.54	7014.59
456.73	7098.84
456.91	7222.89
457.09	7180.76
457.28	7236.94
457.46	7145.66
457.64	7220.55
457.83	7248.64
458.01	7124.59
458.19	7225.23
458.38	7274.38
458.56	7389.07
458.74	7339.92
458.93	7309.49
459.11	7358.64
459.29	7417.16
459.48	7557.59
459.66	7377.37
459.84	7480.35
460.03	7662.91
460.21	7279.07
460.39	7592.70
460.57	7606.74
460.76	7475.67
460.94	7779.94
461.12	7702.70
461.31	7517.80
461.49	7630.15
461.67	7777.60
461.85	7562.27
462.04	7779.94
462.22	8234.00
462.40	8049.10
462.59	8072.51
462.77	7929.74
462.95	8016.33
463.13	7719.09
463.32	7882.92
463.50	7932.08
463.68	8093.57
463.86	8105.28
464.05	8044.42
464.23	8126.34
464.41	7922.71
464.59	7971.86
464.78	8018.68
464.96	8264.43
465.14	8131.02
465.32	8297.20
465.50	8077.19
465.69	8248.05
465.87	8252.73
466.05	8250.39
466.23	8166.13
466.41	8187.19
466.60	8498.49
466.78	8250.39
466.96	8437.63
467.14	8348.69
467.32	8470.40
467.51	8468.06
467.69	8320.60
467.87	8519.55
468.05	8545.30
468.23	8322.94
468.41	8564.02
468.60	8411.89
468.78	8528.91
468.96	8608.49
469.14	8901.06
469.32	8645.94
469.50	8512.53
469.69	8667.00
469.87	8709.13
470.05	8877.65
470.23	8798.07
470.41	8727.86
470.59	8957.23
470.77	8753.60
470.95	9181.92
471.14	8863.61
471.32	9088.30
471.50	9078.94
471.68	9114.05
471.86	9256.82
472.04	9226.39
472.22	9570.45
472.40	9008.72
472.58	9312.99
472.77	9303.63
472.95	9427.68
473.13	9944.94
473.31	9465.13
473.49	9415.98
473.67	9586.83
473.85	9542.36
474.03	9966.00
474.21	9823.23
474.39	9907.49
474.57	10064.30
474.75	9961.32
474.93	9966.00
475.12	10080.69
475.30	10157.92
475.48	9989.41
475.66	10286.65
475.84	10228.14
476.02	10307.72
476.20	10487.94
476.38	10551.14
476.56	10789.87
476.74	10614.33
476.92	10520.71
477.10	10654.12
477.28	10881.15
477.46	10843.70
477.64	10944.34
477.82	11019.24
478.00	11180.74
478.18	11220.53
478.36	11375.00
478.54	11337.56
478.72	11363.30
478.90	11646.51
479.08	11599.70
479.26	11683.95
479.44	11913.33
479.62	11768.21
479.80	11683.95
479.98	12039.72
480.16	12484.42
480.34	12470.37
480.52	12376.75
480.70	12383.77
480.88	12528.89
481.06	12540.59
481.24	12816.77
481.41	12580.38
481.59	12910.40
481.77	12915.08
481.95	12952.52
482.13	13067.21
482.31	13231.05
482.49	13308.29
482.67	13380.84
482.85	13862.99
483.03	13720.22
483.21	13902.78
483.39	13748.31
483.57	13846.61
483.74	13949.59
483.92	14097.05
484.10	14066.62
484.28	14413.02
484.46	14630.69
484.64	14937.30
484.82	14434.08
485.00	14499.62
485.18	14899.85
485.35	15012.20
485.53	14949.00
485.71	14904.53
485.89	15309.44
486.07	14998.15
486.25	15143.27
486.43	15646.48
486.61	15552.86
486.78	16004.58
486.96	16025.65
487.14	16109.91
487.32	16077.14
487.50	16283.11
487.68	16580.36
487.85	16512.48
488.03	17144.42
488.21	16844.84
488.39	16650.57
488.57	16741.85
488.75	17231.02
488.92	17263.79
489.10	17638.28
489.28	17563.38
489.46	17848.93
489.64	17858.29
489.81	18099.36
489.99	18267.88
490.17	18141.49
490.35	18412.99
490.53	18508.96
490.70	18455.12
490.88	18918.55
491.06	19288.35
491.24	18902.17
491.41	19021.53
491.59	19339.85
491.77	18902.17
491.95	19108.13
492.13	19601.99
492.30	19807.95
492.48	19754.12
492.66	19726.04
492.84	19887.53
493.01	20144.99
493.19	20266.70
493.37	20367.34
493.54	20517.14
493.72	20744.17
493.90	20753.53
494.08	21062.48
494.25	20943.11
494.43	20982.90
494.61	21287.17
494.79	21516.54
494.96	21275.47
495.14	21160.78
495.32	21844.22
495.49	21664.00
495.67	21764.64
495.85	21710.81
496.02	22258.49
496.20	21982.31
496.38	22305.31
496.55	22417.65
496.73	22918.53
496.91	22398.93
497.09	22478.50
497.26	22700.86
497.44	22602.55
497.62	23061.30
497.79	23559.83
497.97	23185.35
498.14	23285.99
498.32	23466.21
498.50	23253.22
498.67	23564.51
498.85	23737.71
499.03	24336.89
499.20	23943.68
499.38	24264.33
499.56	24154.33
499.73	24252.63
499.91	24638.82
500.08	24692.65
500.26	24119.22
500.44	24592.01
500.61	24669.25
500.79	24786.27
500.97	24538.18
501.14	25127.99
501.32	25015.65
501.49	24957.13
501.67	25256.72
501.84	25209.91
502.02	25125.65
502.20	25556.31
502.37	25680.36
502.55	25654.61
502.72	25600.78
502.90	25539.93
503.07	25776.32
503.25	25476.73
503.43	25818.45
503.60	25989.31
503.78	25993.99
503.95	26295.92
504.13	26188.25
504.30	26324.01
504.48	26038.46
504.65	26167.19
504.83	26611.89
505.01	26693.81
505.18	26836.58
505.36	26874.03
505.53	26726.58
505.71	27494.27
505.88	27173.62
506.06	26616.57
506.23	27070.64
506.41	27110.43
506.58	27557.47
506.76	27555.13
506.93	27168.94
507.11	27735.35
507.28	27871.10
507.46	27871.10
507.63	28030.26
507.81	28168.35
507.98	27496.61
508.16	28072.39
508.33	28334.53
508.50	28149.62
508.68	27927.27
508.85	28442.19
509.03	28563.90
509.20	28716.03
509.38	29055.41
509.55	28676.24
509.73	29118.60
509.90	29406.49
510.08	29106.90
510.25	29003.92
510.42	29315.21
510.60	29425.22
510.77	29303.51
510.95	29593.73
511.12	29043.71
511.30	29614.80
511.47	29888.64
511.64	29785.66
511.82	30251.42
511.99	29731.83
512.17	30403.56
512.34	30167.16
512.51	30096.95
512.69	30115.67
512.86	30548.67
513.04	30450.37
513.21	30518.25
513.38	30391.86
513.56	30586.12
513.73	30728.89
513.90	30527.61
514.08	30834.22
514.25	30604.84
514.43	30532.29
514.60	30930.18
514.77	30551.01
514.95	31145.51
515.12	30916.14
515.29	31328.07
515.47	31723.62
515.64	31655.75
515.81	31393.61
515.99	31545.74
516.16	31557.44
516.33	31297.64
516.51	31679.15
516.68	31297.64
516.85	31641.70
517.03	31754.05
517.20	31711.92
517.37	31896.82
517.54	31915.54
517.72	32449.19
517.89	31917.89
518.06	32189.39
518.24	31700.22
518.41	32292.37
518.58	32390.67
518.75	32184.71
518.93	32470.25
519.10	32048.96
519.27	32610.68
519.45	32856.44
519.62	33223.90
519.79	32900.91
519.96	33127.94
520.14	33127.94
520.31	33085.81
520.48	32996.87
520.65	33607.75
520.83	33179.43
521.00	33544.56
521.17	33565.62
521.34	33518.81
521.52	33720.10
521.69	33624.14
521.86	33956.49
522.03	34225.65
522.20	33787.97
522.38	33942.45
522.55	34125.01
522.72	33921.38
522.89	34036.07
523.07	34319.28
523.24	34328.64
523.41	34150.76
523.58	34440.98
523.75	34300.55
523.92	34869.30
524.10	34822.49
524.27	34415.24
524.44	35161.87
524.61	35112.72
524.78	34703.12
524.96	35068.25
525.13	34881.00
525.30	35342.09
525.47	35335.07
525.64	35150.17
525.81	35014.41
525.98	35117.40
526.16	34937.18
526.33	35798.49
526.50	35625.29
526.67	35290.60
526.84	35428.69
527.01	35508.27
527.18	35714.23
527.36	35505.93
527.53	35681.47
527.70	36126.17
527.87	35983.40
528.04	35662.74
528.21	36318.09
528.38	36208.09
528.55	36140.21
528.72	36208.09
528.89	36540.44
529.07	36472.57
529.24	36238.51
529.41	36610.66
529.58	36451.50
529.75	36355.54
529.92	36734.71
530.09	36727.69
530.26	36584.91
530.43	36701.94
530.60	36519.38
530.77	36184.68
530.94	36964.08
531.11	36833.01
531.28	36802.58
531.46	37280.05
531.63	37134.94
531.80	37092.81
531.97	37027.28
532.14	37240.26
532.31	36952.38
532.48	37294.10
532.65	37399.42
532.82	37333.89
532.99	37186.43
533.16	37024.93
533.33	37216.86
533.50	37556.24
533.67	37521.13
533.84	37544.53
534.01	37713.05
534.18	37724.75
534.35	38436.28
534.52	37914.34
534.69	37680.28
534.86	38005.62
535.03	38202.22
535.20	38197.54
535.37	38014.98
535.54	38518.20
535.71	38302.87
535.88	37958.81
536.05	38082.86
536.22	38349.68
536.38	38803.74
536.55	38286.48
536.72	38132.01
536.89	38291.16
537.06	38424.57
537.23	38382.45
537.40	38630.54
537.57	38520.54
537.74	38609.48
537.91	38906.73
538.08	38806.08
538.25	38799.06
538.42	38787.36
538.59	38906.73
538.75	38838.85
538.92	38902.04
539.09	38789.70
539.26	39260.15
539.43	39124.40
539.60	39175.89
539.77	39173.55
539.94	39229.72
540.11	39030.77
540.28	39306.96
540.44	39302.28
540.61	39220.36
540.78	38909.07
540.95	39248.44
541.12	39395.90
541.29	39431.01
541.46	39814.85
541.62	39665.06
541.79	39601.86
541.96	39285.89
542.13	39775.06
542.30	39990.39
542.47	39737.62
542.63	39681.44
542.80	39959.97
542.97	40329.77
543.14	40222.11
543.31	40198.70
543.48	40407.01
543.64	40425.73
543.81	40573.19
543.98	40601.27
544.15	40549.78
544.32	40950.01
544.48	41106.83
544.65	40439.78
544.82	40524.04
544.99	40746.39
545.16	40683.19
545.32	40329.77
545.49	40650.42
545.66	41055.34
545.83	40858.73
546.00	40996.82
546.16	41130.23
546.33	40802.56
546.50	40528.72
546.67	41031.93
546.83	40718.30
547.00	41083.42
547.17	40938.31
547.34	41020.23
547.50	41668.56
547.67	41432.16
547.84	41038.95
548.00	41476.63
548.17	41495.36
548.34	41022.57
548.51	41450.89
548.67	41617.07
548.84	41773.88
549.01	41478.97
549.18	41567.91
549.34	41972.83
549.51	41745.80
549.68	41745.80
549.84	41855.80
550.01	41832.39
550.18	41645.15
550.34	41537.49
550.51	41755.16
550.68	41638.13
550.84	41375.99
551.01	42295.82
551.18	41722.39
551.34	41876.86
551.51	42038.36
551.68	42129.64
551.84	42330.93
552.01	42033.68
552.18	41626.43
552.34	41731.75
552.51	41937.72
552.68	42021.98
552.84	42405.83
553.01	42471.36
553.18	41935.38
553.34	42029.00
553.51	42249.01
553.67	42658.60
553.84	42464.34
554.01	42885.64
554.17	42667.97
554.34	42710.10
554.51	42527.53
554.67	43016.71
554.84	42644.56
555.00	42326.25
555.17	42639.88
555.33	42930.11
555.50	42508.81
555.67	42873.93
555.83	42593.07
556.00	42789.67
556.16	43264.80
556.33	42712.44
556.50	42733.50
556.66	42944.15
556.83	42630.52
556.99	43281.19
557.16	43100.97
557.32	42904.36
557.49	43009.68
557.65	42967.55
557.82	42838.83
557.98	42948.83
558.15	43107.99
558.32	42944.15
558.48	42930.11
558.65	43035.43
558.81	43089.26
558.98	43098.62
559.14	43143.09
559.31	43297.57
559.47	43323.32
559.64	43529.28
559.80	43524.60
559.97	44112.08
560.13	43239.06
560.30	43189.91
560.46	42890.32
560.63	43580.78
560.79	43627.59
560.96	43517.58
561.12	43370.13
561.29	43440.34
561.45	43749.29
561.61	43381.83
561.78	43302.25
561.94	43014.37
562.11	43496.52
562.27	43426.30
562.44	43690.78
562.60	44027.82
562.77	44002.07
562.93	43459.07
563.10	43852.28
563.26	43346.72
563.42	44170.59
563.59	43765.68
563.75	43693.12
563.92	43819.51
564.08	43861.64
564.24	44205.70
564.41	44172.93
564.57	43777.38
564.74	43772.70
564.90	43875.68
565.07	44299.32
565.23	43714.19
565.39	44072.29
565.56	43765.68
565.72	44058.24
565.88	43707.16
566.05	43875.68
566.21	43878.02
566.38	43564.39
566.54	43889.73
566.70	44257.19
566.87	44091.01
567.03	44067.61
567.19	44215.06
567.36	44568.48
567.52	44161.23
567.68	44500.61
567.85	44102.71
568.01	44278.25
568.17	44296.98
568.34	44194.00
568.50	44238.47
568.66	44020.80
568.83	44069.95
568.99	43629.93
569.15	43959.94
569.32	44121.44
569.48	44355.49
569.64	44156.55
569.81	44011.43
569.97	44114.42
570.13	44371.88
570.30	43634.61
570.46	43995.05
570.62	43882.70
570.78	44119.10
570.95	44098.03
571.11	44074.63
571.27	44339.11
571.43	44362.51
571.60	44020.80
571.76	44350.81
571.92	44194.00
572.09	44556.78
572.25	44278.25
572.41	44154.21
572.57	44116.76
572.74	44584.86
572.90	44444.43
573.06	44346.13
573.22	44376.56
573.38	44322.72
573.55	43555.03
573.71	44863.39
573.87	44189.31
574.03	43859.30
574.20	43929.51
574.36	44549.76
574.52	44545.08
574.68	43966.96
574.84	44706.57
575.01	44720.62
575.17	44224.42
575.33	43910.79
575.49	44142.50
575.65	44760.40
575.82	44538.05
575.98	44301.66
576.14	44729.98
576.30	44549.76
576.46	44491.24
576.62	44498.26
576.79	44364.85
576.95	43901.43
577.11	44212.72
577.27	44818.92
577.43	44690.19
577.59	44404.64
577.75	44376.56
577.92	43903.77
578.08	44224.42
578.24	44339.11
578.40	44369.54
578.56	44114.42
578.72	44395.28
578.88	44905.52
579.04	44343.79
579.21	44360.17
579.37	44378.90
579.53	44418.69
579.69	44006.75
579.85	44470.18
580.01	44318.04
580.17	44725.30
580.33	45099.78
580.49	44545.08
580.65	44278.25
580.82	44463.16
580.98	44531.03
581.14	44374.22
581.30	44985.10
581.46	44659.76
581.62	44577.84
581.78	44582.52
581.94	45064.67
582.10	44350.81
582.26	44748.70
582.42	44437.41
582.58	44755.72
582.74	44231.44
582.90	44858.71
583.06	44720.62
583.22	44741.68
583.38	44299.32
583.54	44638.70
583.70	44563.80
583.86	44872.75
584.02	44458.48
584.18	45099.78
584.34	44488.90
584.50	44570.82
584.66	44662.10
584.82	44570.82
584.98	44423.37
585.14	44699.55
585.30	44362.51
585.46	44786.15
585.62	44547.42
585.78	44301.66
585.94	44091.01
586.10	44692.53
586.26	44488.90
586.42	45064.67
586.58	44624.65
586.74	44856.37
586.90	44507.63
587.06	44540.39
587.22	44678.49
587.38	44692.53
587.54	44690.19
587.70	44573.16
587.86	44940.63
588.02	44601.25
588.18	44584.86
588.34	44748.70
588.49	44442.09
588.65	44484.22
588.81	44236.12
588.97	44428.05
589.13	44336.77
589.29	44629.34
589.45	44788.49
589.61	44582.52
589.77	44666.78
589.93	44898.50
590.08	44636.36
590.24	44748.70
