SpectraSuite Data File
++++++++++++++++++++++++++++++++++++
Date: Fri Oct 25 11:23:44 EDT 2013
User: price-jones
Dark Spectrum Present: No
Reference Spectrum Present: No
Number of Sampled Component Spectra: 1
Spectrometers: USB2+H05261
Integration Time (usec): 100000 (USB2+H05261)
Spectra Averaged: 1 (USB2+H05261)
Boxcar Smoothing: 0 (USB2+H05261)
Correct for Electrical Dark: No (USB2+H05261)
Strobe/Lamp Enabled: No (USB2+H05261)
Correct for Detector Non-linearity: No (USB2+H05261)
Correct for Stray Light: No (USB2+H05261)
Number of Pixels in Processed Spectrum: 2048
>>>>>Begin Processed Spectral Data<<<<<
365.73	182.56
365.92	182.56
366.12	182.56
366.32	133.41
366.52	147.45
366.72	163.84
366.91	114.69
367.11	91.28
367.31	217.67
367.51	142.77
367.70	67.88
367.90	166.18
368.10	105.32
368.30	74.90
368.49	149.79
368.69	154.48
368.89	168.52
369.09	170.86
369.28	117.03
369.48	152.13
369.68	107.66
369.87	184.90
370.07	198.95
370.27	248.10
370.47	395.55
370.66	524.28
370.86	594.50
371.06	620.24
371.25	638.97
371.45	641.31
371.65	718.54
371.84	720.88
372.04	671.73
372.24	716.20
372.44	657.69
372.63	744.29
372.83	706.84
373.03	770.04
373.22	732.59
373.42	798.12
373.62	725.57
373.81	816.85
374.01	894.08
374.21	851.96
374.40	821.53
374.60	882.38
374.79	870.68
374.99	847.27
375.19	877.70
375.38	826.21
375.58	891.74
375.78	837.91
375.97	945.58
376.17	901.11
376.37	819.19
376.56	903.45
376.76	851.96
376.95	842.59
377.15	840.25
377.35	896.43
377.54	870.68
377.74	924.51
377.93	929.19
378.13	891.74
378.33	940.90
378.52	863.66
378.72	894.08
378.91	898.77
379.11	912.81
379.31	945.58
379.50	887.06
379.70	978.34
379.89	1008.77
380.09	940.90
380.28	966.64
380.48	990.05
380.68	990.05
380.87	1011.11
381.07	1029.84
381.26	997.07
381.46	1069.62
381.65	1144.52
381.85	1076.65
382.04	1104.73
382.24	1064.94
382.43	1076.65
382.63	1097.71
382.83	1163.25
383.02	1015.79
383.22	1036.86
383.41	1048.56
383.61	1093.03
383.80	1210.06
384.00	1100.05
384.19	1114.10
384.39	1121.12
384.58	1170.27
384.78	1146.86
384.97	1081.33
385.17	1137.50
385.36	1238.14
385.56	1198.35
385.75	1160.91
385.95	1050.90
386.14	1184.31
386.34	1188.99
386.53	1235.80
386.72	1221.76
386.92	1366.87
387.11	1289.64
387.31	1212.40
387.50	1294.32
387.70	1245.16
387.89	1212.40
388.09	1153.88
388.28	1203.04
388.48	1289.64
388.67	1291.98
388.86	1296.66
389.06	1324.74
389.25	1306.02
389.45	1334.11
389.64	1341.13
389.84	1313.04
390.03	1359.85
390.22	1376.24
390.42	1383.26
390.61	1401.98
390.81	1418.36
391.00	1453.47
391.19	1483.90
391.39	1275.59
391.58	1455.81
391.78	1483.90
391.97	1497.94
392.16	1427.73
392.36	1593.90
392.55	1423.05
392.75	1511.99
392.94	1486.24
393.13	1490.92
393.33	1589.22
393.52	1598.59
393.71	1645.40
393.91	1659.44
394.10	1621.99
394.29	1582.20
394.49	1542.41
394.68	1533.05
394.88	1739.02
395.07	1631.35
395.26	1743.70
395.46	1638.38
395.65	1633.69
395.84	1699.23
396.04	1783.49
396.23	1715.61
396.42	1748.38
396.62	1743.70
396.81	1809.23
397.00	1795.19
397.19	1811.57
397.39	1809.23
397.58	1818.60
397.77	1898.17
397.97	1818.60
398.16	1865.41
398.35	1867.75
398.55	1839.66
398.74	1844.34
398.93	1895.83
399.12	1996.48
399.32	1952.01
399.51	2017.54
399.70	2003.50
399.90	1959.03
400.09	1987.11
400.28	2029.24
400.47	1994.14
400.67	2099.46
400.86	2129.89
401.05	2047.97
401.24	2101.80
401.44	2104.14
401.63	2134.57
401.82	2106.48
402.01	2122.87
402.21	2230.53
402.40	2214.15
402.59	2221.17
402.78	2319.47
402.97	2181.38
403.17	2253.94
403.36	2244.57
403.55	2188.40
403.74	2319.47
403.93	2452.88
404.13	2408.41
404.32	2347.56
404.51	2319.47
404.70	2408.41
404.89	2324.15
405.09	2502.03
405.28	2403.73
405.47	2455.22
405.66	2424.80
405.85	2546.50
406.05	2576.93
406.24	2574.59
406.43	2502.03
406.62	2747.79
406.81	2640.12
407.00	2703.32
407.20	2602.68
407.39	2548.84
407.58	2626.08
407.77	2782.90
407.96	2775.88
408.15	2796.94
408.34	2768.85
408.54	2726.72
408.73	2829.71
408.92	2874.18
409.11	2932.69
409.30	2808.64
409.49	2979.50
409.68	2960.78
409.87	3000.57
410.07	3021.63
410.26	3056.74
410.45	3000.57
410.64	3000.57
410.83	3094.19
411.02	3117.59
411.21	3197.17
411.40	3169.09
411.59	3145.68
411.78	3265.05
411.98	3215.90
412.17	3304.84
412.36	3358.67
412.55	3375.05
412.74	3485.06
412.93	3513.14
413.12	3368.03
413.31	3597.40
413.50	3522.51
413.69	3496.76
413.88	3653.58
414.07	3625.49
414.26	3691.02
414.45	3740.18
414.64	3672.30
414.83	3871.25
415.02	3798.69
415.22	3882.95
415.41	3894.65
415.60	3934.44
415.79	3896.99
415.98	4025.72
416.17	3911.04
416.36	3840.82
416.55	4032.74
416.74	4065.51
416.93	4021.04
417.12	4217.65
417.31	4182.54
417.50	4173.18
417.69	4266.80
417.88	4292.54
418.07	4283.18
418.26	4313.61
418.45	4346.37
418.64	4442.34
418.83	4496.17
419.02	4344.03
419.21	4463.40
419.39	4547.66
419.58	4482.13
419.77	4479.79
419.96	4578.09
420.15	4587.45
420.34	4542.98
420.53	4507.87
420.72	4795.76
420.91	4770.01
421.10	4844.91
421.29	4805.12
421.48	4655.33
421.67	4873.00
421.86	4894.06
422.05	4805.12
422.24	4793.42
422.43	4910.44
422.61	4933.85
422.80	4973.64
422.99	4943.21
423.18	4980.66
423.37	5100.03
423.56	4952.57
423.75	4950.23
423.94	4903.42
424.13	4568.73
424.32	4896.40
424.50	5076.62
424.69	5163.22
424.88	4945.55
425.07	4842.57
425.26	4954.91
425.45	5097.69
425.64	5039.17
425.83	4896.40
426.01	5043.85
426.20	5074.28
426.39	5050.88
426.58	4961.94
426.77	5093.01
426.96	5158.54
427.15	5144.50
427.33	5165.56
427.52	5069.60
427.71	5221.74
427.90	5350.46
428.09	5245.14
428.28	5537.71
428.46	5280.25
428.65	5392.59
428.84	5621.97
429.03	5561.11
429.22	5327.06
429.40	5453.45
429.59	5523.66
429.78	5317.70
429.97	5352.81
430.16	5472.17
430.34	5495.58
430.53	5738.99
430.72	5849.00
430.91	5664.10
431.10	5558.77
431.28	5748.36
431.47	5720.27
431.66	5851.34
431.85	5846.66
432.03	5961.34
432.22	6043.26
432.41	5902.83
432.60	5928.58
432.79	5944.96
432.97	6061.99
433.16	6010.50
433.35	6064.33
433.54	6223.48
433.72	6115.82
433.91	6104.12
434.10	6153.27
434.28	6033.90
434.47	6146.25
434.66	6115.82
434.85	6284.34
435.03	6150.93
435.22	6289.02
435.41	6221.14
435.59	6345.19
435.78	6452.86
435.97	6562.86
436.16	6331.15
436.34	6406.05
436.53	6466.90
436.72	6677.55
436.90	6403.71
437.09	6616.69
437.28	6731.38
437.46	6712.66
437.65	6691.59
437.84	7000.54
438.02	6857.77
438.21	6771.17
438.40	6925.65
438.58	7019.27
438.77	7021.61
438.96	6841.39
439.14	7169.06
439.33	7337.58
439.52	7215.87
439.70	7117.57
439.89	7353.96
440.08	7438.22
440.26	7262.68
440.45	7300.13
440.63	7485.03
440.82	7768.24
441.01	7632.49
441.19	7620.78
441.38	7590.36
441.57	7894.63
441.75	7922.71
441.94	8039.74
442.12	7995.27
442.31	7999.95
442.50	8194.22
442.68	7955.48
442.87	8086.55
443.05	8147.40
443.24	8329.97
443.43	8269.11
443.61	8325.29
443.80	8493.80
443.98	8219.96
444.17	7953.14
444.35	8245.71
444.54	8322.94
444.73	8161.45
444.91	8306.56
445.10	8341.67
445.28	8292.52
445.47	8386.14
445.65	8484.44
445.84	8727.86
446.02	8325.29
446.21	8320.60
446.39	8449.33
446.58	8603.81
446.77	8381.46
446.95	8428.27
447.14	8449.33
447.32	8767.65
447.51	8510.19
447.69	8479.76
447.88	8823.82
448.06	8826.16
448.25	8526.57
448.43	8821.48
448.62	8571.04
448.80	8528.91
448.99	8711.47
449.17	8734.88
449.36	8641.26
449.54	8650.62
449.73	8947.87
449.91	9207.67
450.10	8919.78
450.28	8947.87
450.46	8929.14
450.65	9097.66
450.83	9137.45
451.02	9006.38
451.20	9207.67
451.39	9097.66
451.57	9238.09
451.76	9123.41
451.94	9245.12
452.13	9167.88
452.31	9607.90
452.49	9336.40
452.68	9516.62
452.86	9298.95
453.05	9385.55
453.23	9511.94
453.42	9621.94
453.60	9511.94
453.78	9596.20
453.97	9549.39
454.15	9465.13
454.34	9460.45
454.52	9755.35
454.70	9856.00
454.89	9834.93
455.07	9935.57
455.26	9905.15
455.44	9935.57
455.62	9966.00
455.81	10012.81
455.99	10045.58
456.17	10005.79
456.36	10171.97
456.54	10303.04
456.73	10111.11
456.91	10513.69
457.09	10494.96
457.28	10675.18
457.46	10356.87
457.64	10808.59
457.83	10380.28
458.01	10553.48
458.19	10801.57
458.38	10544.11
458.56	10916.26
458.74	10867.11
458.93	10867.11
459.11	10754.76
459.29	10871.79
459.48	10824.98
459.66	10815.62
459.84	10958.39
460.03	11007.54
460.21	11105.84
460.39	10956.05
460.57	10932.64
460.76	11363.30
460.94	11026.26
461.12	11169.04
461.31	11379.68
461.49	11349.26
461.67	11272.02
461.85	11466.28
462.04	11288.40
462.22	11557.57
462.40	11506.07
462.59	11569.27
462.77	11466.28
462.95	11665.23
463.13	11730.76
463.32	11686.29
463.50	11864.18
463.68	11908.65
463.86	11901.62
464.05	11913.33
464.23	11754.17
464.41	11941.41
464.59	11756.51
464.78	12292.49
464.96	12044.40
465.14	11995.25
465.32	12170.79
465.50	12376.75
465.69	12306.54
465.87	12112.27
466.05	12201.21
466.23	12243.34
466.41	12343.99
466.60	12381.43
466.78	12203.55
466.96	12194.19
467.14	12217.60
467.32	12500.80
467.51	12671.66
467.69	12496.12
467.87	12512.50
468.05	12734.85
468.23	12692.73
468.41	12468.03
468.60	12659.96
468.78	12905.71
468.96	12622.51
469.14	12847.20
469.32	12989.97
469.50	12355.69
469.69	13067.21
469.87	13132.75
470.05	13214.66
470.23	13144.45
470.41	13336.37
470.59	13516.59
470.77	13226.37
470.95	13207.64
471.14	13671.07
471.32	13205.30
471.50	13544.68
471.68	13650.00
471.86	13645.32
472.04	13823.20
472.22	14235.14
472.40	13708.52
472.58	14017.47
472.77	13921.51
472.95	14363.87
473.13	14546.43
473.31	14092.37
473.49	14003.43
473.67	14286.63
473.85	14602.60
474.03	14644.73
474.21	14373.23
474.39	14693.88
474.57	14668.14
474.75	14916.23
474.93	15115.18
475.12	15000.49
475.30	14977.09
475.48	15154.97
475.66	15480.30
475.84	15229.87
476.02	15349.23
476.20	15286.04
476.38	15793.94
476.56	16294.81
476.74	15936.71
476.92	15854.79
477.10	15901.60
477.28	16159.06
477.46	16360.34
477.64	16578.01
477.82	16439.92
478.00	17263.79
478.18	16800.37
478.36	16971.22
478.54	17029.74
478.72	17467.42
478.90	17549.34
479.08	17600.83
479.26	17844.24
479.44	17909.78
479.62	18279.58
479.80	18033.83
479.98	18029.15
480.16	18682.16
480.34	18398.95
480.52	18455.12
480.70	18771.10
480.88	18635.35
481.06	18794.50
481.24	18977.06
481.41	19035.58
481.59	19403.04
481.77	19480.28
481.95	19620.71
482.13	19538.79
482.31	19962.43
482.49	20615.44
482.67	20563.95
482.85	20786.30
483.03	20830.77
483.21	20460.96
483.39	21184.19
483.57	21067.16
483.74	21191.21
483.92	21619.53
484.10	21261.43
484.28	21972.95
484.46	22118.06
484.64	22335.73
484.82	21804.43
485.00	22251.47
485.18	22785.12
485.35	23110.45
485.53	23157.26
485.71	22909.16
485.89	23718.99
486.07	23370.25
486.25	23468.55
486.43	23388.97
486.61	24039.64
486.78	24524.13
486.96	24397.74
487.14	24500.73
487.32	24807.34
487.50	25151.40
487.68	25303.53
487.85	25570.35
488.03	25853.56
488.21	25813.77
488.39	25776.32
488.57	26103.99
488.75	26057.18
488.92	26551.04
489.10	27009.78
489.28	26906.80
489.46	27477.89
489.64	27309.37
489.81	27740.03
489.99	27449.80
490.17	28079.41
490.35	28339.21
490.53	28407.08
490.70	28416.44
490.88	28496.02
491.06	28994.56
491.24	28856.46
491.41	29259.04
491.59	29619.48
491.77	29584.37
491.95	30167.16
492.13	30026.73
492.30	30134.40
492.48	30183.55
492.66	30621.23
492.84	30225.68
493.01	30843.58
493.19	30920.82
493.37	31187.64
493.54	31384.24
493.72	31704.90
493.90	32009.17
494.08	32098.11
494.25	32098.11
494.43	31889.80
494.61	32655.15
494.79	32638.77
494.96	32596.64
495.14	32863.46
495.32	33347.95
495.49	33811.38
495.67	33453.28
495.85	33771.59
496.02	33865.21
496.20	34171.82
496.38	33909.68
496.55	33958.83
496.73	35192.30
496.91	34806.11
497.09	35227.40
497.26	35339.75
497.44	35152.51
497.62	35304.64
497.79	35627.63
497.97	35651.04
498.14	35995.10
498.32	36430.44
498.50	36297.03
498.67	37123.24
498.85	36535.76
499.03	36575.55
499.20	37111.53
499.38	37029.62
499.56	37268.35
499.73	37607.73
499.91	37635.81
500.08	37493.04
500.26	37649.86
500.44	37848.80
500.61	38113.28
500.79	38064.13
500.97	38352.02
501.14	38492.45
501.32	38700.76
501.49	38904.38
501.67	38382.45
501.84	39234.40
502.02	39030.77
502.20	39360.79
502.37	39269.51
502.55	39292.91
502.72	39203.97
502.90	39966.99
503.07	39608.89
503.25	40320.41
503.43	40407.01
503.60	40062.95
503.78	40287.64
503.95	40563.82
504.13	40774.47
504.30	40802.56
504.48	40884.48
504.65	40844.69
504.83	41322.16
505.01	41486.00
505.18	41446.21
505.36	41787.92
505.53	41343.22
505.71	41897.93
505.88	42036.02
506.06	41446.21
506.23	42021.98
506.41	41593.66
506.58	42674.99
506.76	42256.03
506.93	42742.86
507.11	42333.27
507.28	43002.66
507.46	42824.78
507.63	43391.19
507.81	43285.87
507.98	43014.37
508.16	43229.69
508.33	43601.84
508.50	43889.73
508.68	44039.52
508.85	44285.28
509.03	43978.67
509.20	43835.89
509.38	44570.82
509.55	45090.42
509.73	44854.03
509.90	44889.13
510.08	44631.68
510.25	45137.23
510.42	45228.51
510.60	45230.85
510.77	45558.53
510.95	45528.10
511.12	45223.83
511.30	45453.20
511.47	45771.52
511.64	45724.71
511.82	46185.79
511.99	45794.92
512.17	46728.80
512.34	46319.20
512.51	46398.78
512.69	46632.83
512.86	46564.96
513.04	47107.96
513.21	46480.70
513.38	47454.36
513.56	47002.64
513.73	47093.92
513.90	47250.74
514.08	46997.96
514.25	47407.55
514.43	47566.71
514.60	47601.82
514.77	47599.47
514.95	47634.58
515.12	47529.26
515.29	47370.10
515.47	48268.87
515.64	48116.73
515.81	48313.34
515.99	48767.40
516.16	48786.13
516.33	48594.20
516.51	49249.55
516.68	48449.09
516.85	48591.86
517.03	48994.43
517.20	48914.86
517.37	48893.79
517.54	49071.67
517.72	49076.35
517.89	49237.85
518.06	49345.51
518.24	49385.30
518.41	49284.66
518.58	49684.89
518.75	49507.01
518.93	49972.78
519.10	49462.54
519.27	49579.57
519.45	49958.73
519.62	50150.66
519.79	50129.59
519.96	50092.15
520.14	50475.99
520.31	50384.71
520.48	50487.70
520.65	50593.02
520.83	50958.14
521.00	50979.21
521.17	50637.49
521.34	51082.19
521.52	50838.78
521.69	51356.03
521.86	50815.37
522.03	51215.60
522.20	51529.23
522.38	51646.26
522.55	51384.12
522.72	51344.33
522.89	51435.61
523.07	51627.54
523.24	51491.79
523.41	51861.59
523.58	51655.62
523.75	52095.64
523.92	51983.30
524.10	52051.17
524.27	52144.80
524.44	52168.20
524.61	52367.15
524.78	52317.99
524.96	52420.98
525.13	52397.57
525.30	52823.55
525.47	52666.73
525.64	52575.45
525.81	52900.79
525.98	52701.84
526.16	52846.96
526.33	52804.83
526.50	53017.82
526.67	52928.87
526.84	53146.54
527.01	53015.47
527.18	52999.09
527.36	53219.10
527.53	53041.22
527.70	53483.58
527.87	53408.68
528.04	53212.08
528.21	53666.14
528.38	53366.55
528.55	53677.85
528.72	53521.03
528.89	53439.11
529.07	53333.79
529.24	53705.93
529.41	53867.43
529.58	53815.94
529.75	54045.31
529.92	53965.73
530.09	53972.75
530.26	53881.47
530.43	54262.98
530.60	53947.01
530.77	54124.89
530.94	54300.43
531.11	54106.16
531.28	54103.82
531.46	54206.81
531.63	54267.66
531.80	54497.03
531.97	54808.32
532.14	54473.63
532.31	54525.12
532.48	54569.59
532.65	54944.08
532.82	54651.51
532.99	54997.91
533.16	54763.85
533.33	55063.44
533.50	55175.79
533.67	54983.86
533.84	54843.43
534.01	55283.45
534.18	54951.10
534.35	55370.05
534.52	55238.98
534.69	55299.84
534.86	55248.35
535.03	55353.67
535.20	55267.07
535.37	55463.67
535.54	55627.51
535.71	55491.76
535.88	55515.17
536.05	55597.09
536.22	55679.00
536.38	55786.67
536.55	55629.85
536.72	55803.05
536.89	55854.54
537.06	55599.43
537.23	55845.18
537.40	55891.99
537.57	56140.09
537.74	56032.42
537.91	56086.26
538.08	55870.93
538.25	55978.59
538.42	55924.76
538.59	56186.90
538.75	56161.15
538.92	56186.90
539.09	56413.93
539.26	56315.63
539.43	56266.48
539.60	56427.98
539.77	56336.69
539.94	56638.62
540.11	56570.75
540.28	56479.47
540.44	56486.49
540.61	56584.79
540.78	56364.78
540.95	56725.22
541.12	56509.89
541.29	56589.47
541.46	56708.84
541.62	56846.93
541.79	56687.78
541.96	56598.83
542.13	56697.14
542.30	56769.69
542.47	56875.02
542.63	56882.04
542.80	56933.53
542.97	57279.93
543.14	57357.17
543.31	57151.20
543.48	57247.16
543.64	57701.23
543.81	57542.07
543.98	57291.63
544.15	57448.45
544.32	57579.52
544.48	57521.01
544.65	57502.28
544.82	57544.41
544.99	57530.37
545.16	57577.18
545.32	57542.07
545.49	57715.27
545.66	58042.95
545.83	57708.25
546.00	57836.98
546.16	57628.67
546.33	57712.93
546.50	57446.11
546.67	57822.93
546.83	57801.87
547.00	57719.95
547.17	57879.11
547.34	58073.37
547.50	58040.60
547.67	58181.04
547.84	58113.16
548.00	58052.31
548.17	58384.66
548.34	58349.56
548.51	58375.30
548.67	58356.58
548.84	58277.00
549.01	58202.10
549.18	58361.26
549.34	58195.08
549.51	58473.60
549.68	58468.92
549.84	58625.74
550.01	58391.68
550.18	58295.72
550.34	58518.07
550.51	58726.38
550.68	58590.63
550.84	58234.87
551.01	58609.35
551.18	58651.48
551.34	58815.32
551.51	58712.34
551.68	58658.51
551.84	58656.17
552.01	58501.69
552.18	58862.13
552.34	58658.51
552.51	58656.17
552.68	58794.26
552.84	58852.77
553.01	59107.89
553.18	58927.67
553.34	59103.21
553.51	58908.94
553.67	58913.62
553.84	59018.95
554.01	58960.44
554.17	59208.53
554.34	59250.66
554.51	58951.07
554.67	59037.67
554.84	58969.80
555.00	59241.30
555.17	59016.61
555.33	59140.66
555.50	58944.05
555.67	59234.28
555.83	59161.72
556.00	59091.51
556.16	59384.07
556.33	59487.06
556.50	59231.94
556.66	59393.43
556.83	59196.83
556.99	59409.82
557.16	59444.93
557.32	59742.17
557.49	59714.09
557.65	59405.14
557.82	59377.05
557.98	59653.23
558.15	59613.44
558.32	59559.61
558.48	59360.67
558.65	59711.75
558.81	59580.68
558.98	59884.95
559.14	59688.34
559.31	59966.87
559.47	59758.56
559.64	59660.26
559.80	59742.17
559.97	59833.46
560.13	59646.21
560.30	59901.33
560.46	59891.97
560.63	59906.01
560.79	59884.95
560.96	59955.16
561.12	59999.63
561.29	59887.29
561.45	59952.82
561.61	60116.66
561.78	59973.89
561.94	60051.12
562.11	59781.96
562.27	60058.15
562.44	59969.21
562.60	60081.55
562.77	60144.75
562.93	60111.98
563.10	60163.47
563.26	60027.72
563.42	60111.98
563.59	60294.54
563.75	60090.91
563.92	60088.57
564.08	60006.65
564.24	60224.32
564.41	60119.00
564.57	60549.66
564.74	60427.95
564.90	60011.34
565.07	60111.98
565.23	60329.65
565.39	60301.56
565.56	60334.33
565.72	60306.24
565.88	60214.96
566.05	60207.94
566.21	60509.87
566.38	60467.74
566.54	60409.23
566.70	60444.33
566.87	60385.82
567.03	60350.71
567.19	60757.97
567.36	60385.82
567.52	60399.86
567.68	60818.82
567.85	60411.57
568.01	60479.44
568.17	60392.84
568.34	60636.26
568.50	60467.74
568.66	60427.95
568.83	60654.98
568.99	60456.04
569.15	60629.24
569.32	60549.66
569.48	60598.81
569.64	60636.26
569.81	60535.62
569.97	60423.27
570.13	60580.09
570.30	60362.42
570.46	60495.83
570.62	60832.86
570.78	60795.42
570.95	60549.66
571.11	60828.18
571.27	60615.19
571.43	60727.54
571.60	60865.63
571.76	60795.42
571.92	60694.77
572.09	60619.88
572.25	60601.15
572.41	60577.75
572.57	60753.29
572.74	60832.86
572.90	60640.94
573.06	60687.75
573.22	60963.93
573.38	60807.12
573.55	60809.46
573.71	60786.05
573.87	60842.23
574.03	60622.22
574.20	60830.52
574.36	60659.66
574.52	60919.46
574.68	60867.97
574.84	60968.61
575.01	60968.61
575.17	60945.21
575.33	60933.51
575.49	60921.80
575.65	60832.86
575.82	60940.53
575.98	60956.91
576.14	61029.47
576.30	61041.17
576.46	60846.91
576.62	61041.17
576.79	60970.96
576.95	60549.66
577.11	61064.58
577.27	61155.86
577.43	60804.78
577.59	60893.72
577.75	60966.27
577.92	60750.94
578.08	60734.56
578.24	61048.19
578.40	61186.28
578.56	61003.72
578.72	60931.17
578.88	61109.05
579.04	61003.72
579.21	61034.15
579.37	61092.66
579.53	61139.47
579.69	60793.07
579.85	60767.33
580.01	61050.53
580.17	60956.91
580.33	61127.77
580.49	60973.30
580.65	61144.16
580.82	60985.00
580.98	60963.93
581.14	61036.49
581.30	61137.13
581.46	60938.19
581.62	61368.85
581.78	60870.31
581.94	61055.21
582.10	61041.17
582.26	60849.25
582.42	60858.61
582.58	61125.43
582.74	60935.85
582.90	60996.70
583.06	61118.41
583.22	60860.95
583.38	61132.45
583.54	61006.06
583.70	61123.09
583.86	61036.49
584.02	60896.06
584.18	61160.54
584.34	61226.07
584.50	61062.24
584.66	60931.17
584.82	60882.02
584.98	61230.75
585.14	61120.75
585.30	60907.76
585.46	61240.12
585.62	61144.16
585.78	61176.92
585.94	61050.53
586.10	61073.94
586.26	61279.91
586.42	61052.87
586.58	61197.99
586.74	61052.87
586.90	61090.32
587.06	61095.00
587.22	61296.29
587.38	61291.61
587.54	61399.27
587.70	61368.85
587.86	61223.73
588.02	61219.05
588.18	61303.31
588.34	61282.25
588.49	61113.73
