SpectraSuite Data File
++++++++++++++++++++++++++++++++++++
Date: Fri Oct 25 11:26:41 EDT 2013
User: price-jones
Dark Spectrum Present: No
Reference Spectrum Present: No
Number of Sampled Component Spectra: 1
Spectrometers: USB2+H05261
Integration Time (usec): 100000 (USB2+H05261)
Spectra Averaged: 1 (USB2+H05261)
Boxcar Smoothing: 0 (USB2+H05261)
Correct for Electrical Dark: No (USB2+H05261)
Strobe/Lamp Enabled: No (USB2+H05261)
Correct for Detector Non-linearity: No (USB2+H05261)
Correct for Stray Light: No (USB2+H05261)
Number of Pixels in Processed Spectrum: 2048
>>>>>Begin Processed Spectral Data<<<<<
365.73	210.65
365.92	210.65
366.12	210.65
366.32	182.56
366.52	121.71
366.72	154.48
366.91	128.73
367.11	145.11
367.31	156.82
367.51	173.20
367.70	152.13
367.90	156.82
368.10	182.56
368.30	187.24
368.49	72.56
368.69	170.86
368.89	117.03
369.09	72.56
369.28	114.69
369.48	231.71
369.68	191.92
369.87	259.80
370.07	189.58
370.27	205.97
370.47	313.63
370.66	521.94
370.86	627.26
371.06	692.80
371.25	734.93
371.45	624.92
371.65	716.20
371.84	730.25
372.04	734.93
372.24	800.46
372.44	671.73
372.63	711.52
372.83	774.72
373.03	746.63
373.22	826.21
373.42	791.10
373.62	842.59
373.81	851.96
374.01	835.57
374.21	760.67
374.40	875.36
374.60	823.87
374.79	826.21
374.99	805.14
375.19	802.80
375.38	915.15
375.58	922.17
375.78	849.61
375.97	870.68
376.17	954.94
376.37	922.17
376.56	868.34
376.76	976.00
376.95	875.36
377.15	938.55
377.35	950.26
377.54	814.51
377.74	950.26
377.93	929.19
378.13	933.87
378.33	947.92
378.52	999.41
378.72	952.60
378.91	961.96
379.11	994.73
379.31	978.34
379.50	1034.52
379.70	990.05
379.89	1062.60
380.09	987.71
380.28	1001.75
380.48	938.55
380.68	1001.75
380.87	1011.11
381.07	987.71
381.26	1036.86
381.46	945.58
381.65	1032.18
381.85	1039.20
382.04	999.41
382.24	1076.65
382.43	1104.73
382.63	1095.37
382.83	1107.07
383.02	1102.39
383.22	1123.46
383.41	1062.60
383.61	1123.46
383.80	1114.10
384.00	1156.22
384.19	1083.67
384.39	1109.41
384.58	1193.67
384.78	1210.06
384.97	1203.04
385.17	1184.31
385.36	1125.80
385.56	1146.86
385.75	1174.95
385.95	1165.59
386.14	1207.72
386.34	1303.68
386.53	1203.04
386.72	1156.22
386.92	1294.32
387.11	1200.69
387.31	1242.82
387.50	1212.40
387.70	1268.57
387.89	1210.06
388.09	1273.25
388.28	1306.02
388.48	1348.15
388.67	1418.36
388.86	1327.08
389.06	1299.00
389.25	1439.43
389.45	1324.74
389.64	1423.05
389.84	1378.58
390.03	1437.09
390.22	1439.43
390.42	1399.64
390.61	1275.59
390.81	1404.32
391.00	1413.68
391.19	1476.88
391.39	1486.24
391.58	1373.89
391.78	1399.64
391.97	1507.30
392.16	1523.69
392.36	1542.41
392.55	1537.73
392.75	1502.62
392.94	1535.39
393.13	1551.78
393.33	1458.15
393.52	1535.39
393.71	1645.40
393.91	1701.57
394.10	1551.78
394.29	1619.65
394.49	1689.87
394.68	1617.31
394.88	1652.42
395.07	1647.74
395.26	1703.91
395.46	1647.74
395.65	1696.89
395.84	1736.68
396.04	1781.15
396.23	1722.63
396.42	1785.83
396.62	1767.10
396.81	1818.60
397.00	1809.23
397.19	1851.36
397.39	1870.09
397.58	1832.64
397.77	1806.89
397.97	1930.94
398.16	1879.45
398.35	1989.46
398.55	1921.58
398.74	1874.77
398.93	2059.67
399.12	1989.46
399.32	1956.69
399.51	1944.99
399.70	2040.95
399.90	1928.60
400.09	2062.01
400.28	2015.20
400.47	2026.90
400.67	2118.18
400.86	2029.24
401.05	2099.46
401.24	2150.95
401.44	2040.95
401.63	2036.27
401.82	2104.14
402.01	2221.17
402.21	2134.57
402.40	2129.89
402.59	2319.47
402.78	2183.72
402.97	2214.15
403.17	2230.53
403.36	2293.72
403.55	2265.64
403.74	2270.32
403.93	2253.94
404.13	2387.35
404.32	2459.90
404.51	2448.20
404.70	2427.14
404.89	2387.35
405.09	2445.86
405.28	2541.82
405.47	2466.92
405.66	2485.65
405.85	2485.65
406.05	2619.06
406.24	2623.74
406.43	2583.95
406.62	2693.96
406.81	2726.72
407.00	2656.51
407.20	2689.28
407.39	2651.83
407.58	2738.43
407.77	2846.09
407.96	2789.92
408.15	2789.92
408.34	2656.51
408.54	2738.43
408.73	2806.30
408.92	2843.75
409.11	2878.86
409.30	2848.43
409.49	2843.75
409.68	2930.35
409.87	2965.46
410.07	3035.67
410.26	3033.33
410.45	2979.50
410.64	3054.40
410.83	3159.72
411.02	3101.21
411.21	3176.11
411.40	2993.55
411.59	3243.98
411.78	3283.77
411.98	3258.03
412.17	3405.48
412.36	3300.16
412.55	3442.93
412.74	3391.44
412.93	3309.52
413.12	3391.44
413.31	3557.61
413.50	3513.14
413.69	3471.01
413.88	3552.93
414.07	3623.15
414.26	3723.79
414.45	3651.24
414.64	3665.28
414.83	3861.88
415.02	3791.67
415.22	3941.46
415.41	3957.85
415.60	3833.80
415.79	3988.27
415.98	3995.29
416.17	3962.53
416.36	4081.89
416.55	4011.68
416.74	4170.83
416.93	4081.89
417.12	4173.18
417.31	4322.97
417.50	4269.14
417.69	4430.63
417.88	4205.94
418.07	4308.93
418.26	4245.73
418.45	4287.86
418.64	4514.89
418.83	4610.86
419.02	4510.21
419.21	4669.37
419.39	4678.73
419.58	4620.22
419.77	4533.62
419.96	4484.47
420.15	4517.23
420.34	4648.30
420.53	4678.73
420.72	4681.07
420.91	4690.43
421.10	4812.14
421.29	4805.12
421.48	4723.20
421.67	4823.84
421.86	4901.08
422.05	4854.27
422.24	4908.10
422.43	4905.76
422.61	4992.36
422.80	5069.60
422.99	4975.98
423.18	5207.69
423.37	5193.65
423.56	5100.03
423.75	4980.66
423.94	4784.06
424.13	4601.49
424.32	4800.44
424.50	4910.44
424.69	5034.49
424.88	5064.92
425.07	5060.24
425.26	4936.19
425.45	4938.53
425.64	4964.28
425.83	4992.36
426.01	5076.62
426.20	4999.38
426.39	5235.78
426.58	5135.14
426.77	5158.54
426.96	5294.29
427.15	5179.61
427.33	5210.03
427.52	5184.29
427.71	5394.93
427.90	5104.71
428.09	5373.87
428.28	5390.25
428.46	5448.77
428.65	5411.32
428.84	5668.78
429.03	5455.79
429.22	5399.62
429.40	5575.16
429.59	5472.17
429.78	5479.19
429.97	5362.17
430.16	5504.94
430.34	5565.79
430.53	5762.40
430.72	5703.89
430.91	5617.29
431.10	5764.74
431.28	5715.59
431.47	5809.21
431.66	5846.66
431.85	5813.89
432.03	6026.88
432.22	5987.09
432.41	6092.41
432.60	6080.71
432.79	6019.86
432.97	6099.44
433.16	6064.33
433.35	5951.98
433.54	5954.32
433.72	6230.51
433.91	6120.50
434.10	6237.53
434.28	6057.31
434.47	6258.59
434.66	6190.72
434.85	6523.07
435.03	6429.45
435.22	6406.05
435.41	6527.75
435.59	6359.24
435.78	6490.31
435.97	6539.46
436.16	6597.97
436.34	6462.22
436.53	6399.02
436.72	6703.29
436.90	6476.26
437.09	6593.29
437.28	6679.89
437.46	6548.82
437.65	6764.15
437.84	6715.00
438.02	6759.47
438.21	6817.98
438.40	6920.96
438.58	6995.86
438.77	7150.34
438.96	7042.67
439.14	7126.93
439.33	7346.94
439.52	7468.65
439.70	7410.14
439.89	7255.66
440.08	7452.27
440.26	7316.51
440.45	7506.10
440.63	7646.53
440.82	7569.29
441.01	7494.40
441.19	7618.44
441.38	7906.33
441.57	7728.45
441.75	7686.32
441.94	8044.42
442.12	7969.52
442.31	8070.17
442.50	8009.31
442.68	7955.48
442.87	8049.10
443.05	8283.16
443.24	7995.27
443.43	8173.15
443.61	8336.99
443.80	8624.87
443.98	8067.83
444.17	7967.18
444.35	8187.19
444.54	8334.65
444.73	8386.14
444.91	8327.63
445.10	8613.17
445.28	8353.37
445.47	8327.63
445.65	8437.63
445.84	8573.38
446.02	8578.06
446.21	8248.05
446.39	8650.62
446.58	8542.96
446.77	8456.36
446.95	8355.71
447.14	8561.68
447.32	8503.17
447.51	8603.81
447.69	8596.79
447.88	8418.91
448.06	8503.17
448.25	8582.74
448.43	8727.86
448.62	8531.25
448.80	8540.61
448.99	8772.33
449.17	8688.07
449.36	8645.94
449.54	8887.01
449.73	8973.61
449.91	9404.27
450.10	9057.87
450.28	9151.49
450.46	9071.92
450.65	9160.86
450.83	9069.58
451.02	9137.45
451.20	9357.46
451.39	9135.11
451.57	9139.79
451.76	9245.12
451.94	9177.24
452.13	9380.87
452.31	9476.83
452.49	9135.11
452.68	9352.78
452.86	9310.65
453.05	9371.50
453.23	9678.12
453.42	9390.23
453.60	9371.50
453.78	9870.04
453.97	9584.49
454.15	9717.90
454.34	9448.74
454.52	9837.27
454.70	9738.97
454.89	9874.72
455.07	9858.34
455.26	9944.94
455.44	10148.56
455.62	9956.64
455.81	9914.51
455.99	10340.49
456.17	10225.80
456.36	9980.04
456.54	10293.68
456.73	10319.42
456.91	10469.22
457.09	10413.04
457.28	10551.14
457.46	10366.23
457.64	10654.12
457.83	10579.22
458.01	10420.06
458.19	10768.80
458.38	10630.71
458.56	10527.73
458.74	10743.06
458.93	10717.31
459.11	10888.17
459.29	10698.59
459.48	10778.17
459.66	10960.73
459.84	10984.13
460.03	11105.84
460.21	10974.77
460.39	11281.38
460.57	11087.12
460.76	11152.65
460.94	11206.48
461.12	11068.39
461.31	11241.59
461.49	11265.00
461.67	11204.14
461.85	11428.84
462.04	11353.94
462.22	11529.48
462.40	11578.63
462.59	11473.31
462.77	11566.93
462.95	11499.05
463.13	11421.81
463.32	11686.29
463.50	11655.87
463.68	11988.22
463.86	12035.03
464.05	11709.70
464.23	11686.29
464.41	11971.84
464.59	11583.31
464.78	12184.83
464.96	12011.63
465.14	11896.94
465.32	12035.03
465.50	12020.99
465.69	12149.72
465.87	12346.33
466.05	12128.66
466.23	12154.40
466.41	12386.12
466.60	12641.23
466.78	12166.10
466.96	12336.96
467.14	12395.48
467.32	12297.17
467.51	12599.10
467.69	12351.01
467.87	12678.68
468.05	12762.94
468.23	12652.94
468.41	12585.06
468.60	12807.41
468.78	13032.10
468.96	12484.42
469.14	13055.51
469.32	13207.64
469.50	12870.61
469.69	13048.49
469.87	13195.94
470.05	13048.49
470.23	13263.82
470.41	13366.80
470.59	13565.74
470.77	13294.24
470.95	13284.88
471.14	13610.22
471.32	13329.35
471.50	13678.09
471.68	14001.08
471.86	13844.27
472.04	13919.17
472.22	13956.61
472.40	13830.23
472.58	13968.32
472.77	14169.60
472.95	14185.99
473.13	14569.83
473.31	13898.10
473.49	14108.75
473.67	14155.56
473.85	14202.37
474.03	14649.41
474.21	14768.78
474.39	14661.12
474.57	14857.72
474.75	15077.73
474.93	15021.56
475.12	14974.75
475.30	15026.24
475.48	15452.22
475.66	15260.29
475.84	15185.40
476.02	15513.07
476.20	15410.09
476.38	15590.31
476.56	16173.10
476.74	15901.60
476.92	16126.29
477.10	15960.11
477.28	16285.45
477.46	16184.80
477.64	16393.11
477.82	16458.65
478.00	17132.72
478.18	16985.27
478.36	17273.15
478.54	17231.02
478.72	17177.19
478.90	17474.44
479.08	17776.37
479.26	17926.16
479.44	17989.36
479.62	17954.25
479.80	18361.50
479.98	18356.82
480.16	18649.39
480.34	18284.26
480.52	18876.42
480.70	18890.46
480.88	18471.51
481.06	18815.57
481.24	19108.13
481.41	19234.52
481.59	19470.92
481.77	19772.85
481.95	19658.16
482.13	20191.80
482.31	19697.95
482.49	20479.69
482.67	20294.79
482.85	20657.57
483.03	20823.75
483.21	20725.44
483.39	20900.98
483.57	20788.64
483.74	21113.97
483.92	21282.49
484.10	21259.09
484.28	21745.92
484.46	21933.16
484.64	22640.00
484.82	22319.35
485.00	22558.08
485.18	23030.87
485.35	22899.80
485.53	22925.55
485.71	23300.03
485.89	23735.37
486.07	23541.11
486.25	23501.32
486.43	23967.09
486.61	24453.92
486.78	24247.95
486.96	24137.94
487.14	24414.13
487.32	24835.42
487.50	24905.64
487.68	25209.91
487.85	25575.03
488.03	25429.92
488.21	25741.21
488.39	25825.47
488.57	26204.64
488.75	26476.14
488.92	26717.22
489.10	27030.85
489.28	26752.32
489.46	27110.43
489.64	27077.66
489.81	27948.34
489.99	27679.18
490.17	27992.81
490.35	28517.09
490.53	28379.00
490.70	28463.25
490.88	28189.41
491.06	29046.05
491.24	28858.81
491.41	29160.73
491.59	29149.03
491.77	29317.55
491.95	29930.77
492.13	29839.49
492.30	30178.87
492.48	30293.55
492.66	30691.44
492.84	30347.39
493.01	31147.85
493.19	31068.27
493.37	30976.99
493.54	31248.49
493.72	31793.84
493.90	31243.81
494.08	31943.63
494.25	32388.33
494.43	31817.24
494.61	32325.14
494.79	32566.21
494.96	32809.63
495.14	32893.89
495.32	33322.21
495.49	33345.61
495.67	33357.32
495.85	33830.10
496.02	33851.17
496.20	34230.33
496.38	33717.76
496.55	34579.07
496.73	35367.84
496.91	35035.48
497.09	34792.06
497.26	35318.68
497.44	35253.15
497.62	35531.67
497.79	35857.01
497.97	35789.13
498.14	36385.97
498.32	36320.43
498.50	36062.97
498.67	36444.48
498.85	36662.15
499.03	37008.55
499.20	37144.30
499.38	37010.89
499.56	37167.71
499.73	37514.11
499.91	37565.60
500.08	37930.72
500.26	37518.79
500.44	37783.27
500.61	38230.31
500.79	37954.13
500.97	38672.67
501.14	38752.25
501.32	38770.97
501.49	38237.33
501.67	39140.78
501.84	39339.72
502.02	39276.53
502.20	39681.44
502.37	39615.91
502.55	39512.92
502.72	39386.54
502.90	39929.54
503.07	39688.46
503.25	39838.26
503.43	39889.75
503.60	40170.61
503.78	40666.81
503.95	40177.64
504.13	40587.23
504.30	40718.30
504.48	40327.43
504.65	41090.44
504.83	40996.82
505.01	41418.12
505.18	41497.70
505.36	41900.27
505.53	41436.84
505.71	41907.29
505.88	42010.28
506.06	41717.71
506.23	42508.81
506.41	42501.79
506.58	42370.72
506.76	42452.64
506.93	42670.31
507.11	42150.71
507.28	42305.18
507.46	42693.71
507.63	43217.99
507.81	43634.61
507.98	42997.98
508.16	43370.13
508.33	43903.77
508.50	43952.92
508.68	43840.57
508.85	44137.82
509.03	43814.83
509.20	44313.36
509.38	44552.10
509.55	44236.12
509.73	44608.27
509.90	44596.57
510.08	44804.88
510.25	44942.97
510.42	44807.22
510.60	45333.84
510.77	45603.00
510.95	45343.20
511.12	45415.76
511.30	45558.53
511.47	45825.35
511.64	45851.09
511.82	46138.98
511.99	46038.34
512.17	46024.29
512.34	46160.05
512.51	46469.00
512.69	46504.10
512.86	46677.30
513.04	46859.87
513.21	46920.72
513.38	46712.41
513.56	47098.60
513.73	47065.83
513.90	47234.35
514.08	46836.46
514.25	47346.70
514.43	47700.12
514.60	47590.11
514.77	47496.49
514.95	47812.46
515.12	48105.03
515.29	47550.32
515.47	48175.25
515.64	48212.70
515.81	48055.88
515.99	48474.84
516.16	48926.56
516.33	48538.03
516.51	48942.94
516.68	48755.70
516.85	48854.00
517.03	49226.15
517.20	48886.77
517.37	49095.08
517.54	49359.56
517.72	49038.90
517.89	49336.15
518.06	49577.23
518.24	49495.31
518.41	49329.13
518.58	49504.67
518.75	49539.78
518.93	49874.48
519.10	49617.02
519.27	49858.09
519.45	50078.10
519.62	50059.38
519.79	50237.26
519.96	49881.50
520.14	50167.04
520.31	50270.03
520.48	50848.14
520.65	50899.63
520.83	50688.98
521.00	50761.54
521.17	50623.45
521.34	50817.71
521.52	50951.12
521.69	50864.52
521.86	51150.07
522.03	51512.85
522.20	51702.43
522.38	51674.35
522.55	51494.13
522.72	51271.78
522.89	51454.34
523.07	51922.44
523.24	51870.95
523.41	52172.88
523.58	51716.48
523.75	52107.35
523.92	51894.36
524.10	52130.75
524.27	52079.26
524.44	52292.25
524.61	52207.99
524.78	52341.40
524.96	52317.99
525.13	52278.21
525.30	52350.76
525.47	52481.83
525.64	52781.42
525.81	52825.89
525.98	52743.97
526.16	52928.87
526.33	52802.49
526.50	53191.01
526.67	53097.39
526.84	53050.58
527.01	52926.53
527.18	53139.52
527.36	52790.78
527.53	53254.21
527.70	53558.48
527.87	53607.63
528.04	53558.48
528.21	53579.54
528.38	53317.40
528.55	53829.98
528.72	53638.06
528.89	53570.18
529.07	53474.22
529.24	53441.45
529.41	53904.88
529.58	54024.25
529.75	53937.65
529.92	53734.02
530.09	53961.05
530.26	54143.61
530.43	54099.14
530.60	54035.95
530.77	54040.63
530.94	54272.34
531.11	54160.00
531.28	54361.28
531.46	54410.43
531.63	54593.00
531.80	53998.50
531.97	54810.67
532.14	54422.14
532.31	54450.22
532.48	54894.92
532.65	54906.63
532.82	54553.21
532.99	54841.09
533.16	54642.15
533.33	54878.54
533.50	55119.62
533.67	54820.03
533.84	54915.99
534.01	55206.22
534.18	55208.56
534.35	55110.25
534.52	55257.71
534.69	55346.65
534.86	55353.67
535.03	55091.53
535.20	55384.10
535.37	55669.64
535.54	55559.64
535.71	55356.01
535.88	55749.22
536.05	55812.41
536.22	55641.56
536.38	55929.44
536.55	55739.86
536.72	55716.45
536.89	55412.18
537.06	55751.56
537.23	55877.95
537.40	55749.22
537.57	56025.40
537.74	55784.33
537.91	56006.68
538.08	55952.85
538.25	55994.98
538.42	55959.87
538.59	56210.31
538.75	56147.11
538.92	56289.88
539.09	56264.14
539.26	56233.71
539.43	56446.70
539.60	56390.53
539.77	56324.99
539.94	56526.28
540.11	56633.94
540.28	56523.94
540.44	56786.08
540.61	56460.74
540.78	56561.39
540.95	56612.88
541.12	56587.13
541.29	56671.39
541.46	56631.60
541.62	56989.70
541.79	56945.23
541.96	56704.16
542.13	56760.33
542.30	56732.25
542.47	56999.07
542.63	57050.56
542.80	57226.10
542.97	57277.59
543.14	57111.41
543.31	57289.29
543.48	57420.36
543.64	57623.99
543.81	57411.00
543.98	57628.67
544.15	57425.04
544.32	57623.99
544.48	57670.80
544.65	57635.69
544.82	57497.60
544.99	57523.35
545.16	57738.68
545.32	57387.60
545.49	57844.00
545.66	57904.85
545.83	57591.22
546.00	57836.98
546.16	57951.66
546.33	57982.09
546.50	57565.48
546.67	58033.58
546.83	57673.14
547.00	57890.81
547.17	57893.15
547.34	58047.63
547.50	57984.43
547.67	58220.83
547.84	58171.67
548.00	58314.45
548.17	58396.37
548.34	58396.37
548.51	58253.59
548.67	58312.11
548.84	58300.40
549.01	58152.95
549.18	58274.66
549.34	58504.03
549.51	58571.91
549.68	58571.91
549.84	58487.65
550.01	58382.32
550.18	58482.97
550.34	58447.86
550.51	58770.85
550.68	58712.34
550.84	58457.22
551.01	58721.70
551.18	58518.07
551.34	58712.34
551.51	58843.41
551.68	58763.83
551.84	58485.31
552.01	58506.37
552.18	58754.47
552.34	58569.57
552.51	58824.68
552.68	58630.42
552.84	58735.74
553.01	58988.52
553.18	59002.56
553.34	59091.51
553.51	58824.68
553.67	59049.38
553.84	59192.15
554.01	59201.51
554.17	59007.25
554.34	59117.25
554.51	59035.33
554.67	59243.64
554.84	59203.85
555.00	59348.96
555.17	59114.91
555.33	59133.63
555.50	58894.90
555.67	59135.98
555.83	59128.95
556.00	59304.49
556.16	59426.20
556.33	59395.77
556.50	59384.07
556.66	59414.50
556.83	59189.81
556.99	59494.08
557.16	59571.32
557.32	59653.23
557.49	59627.49
557.65	59325.56
557.82	59538.55
557.98	59414.50
558.15	59739.83
558.32	59613.44
558.48	59599.40
558.65	59550.25
558.81	59454.29
558.98	59611.10
559.14	59838.14
559.31	59674.30
559.47	59908.35
559.64	59765.58
559.80	59625.15
559.97	59800.69
560.13	59751.54
560.30	59896.65
560.46	59934.10
560.63	60011.34
560.79	59859.20
560.96	59929.42
561.12	59962.18
561.29	59882.61
561.45	59845.16
561.61	59906.01
561.78	60107.30
561.94	59831.11
562.11	59833.46
562.27	59997.29
562.44	60294.54
562.60	60081.55
562.77	60170.49
562.93	60083.89
563.10	60158.79
563.26	60212.62
563.42	60439.65
563.59	60261.77
563.75	60044.10
563.92	60322.63
564.08	60044.10
564.24	60245.39
564.41	60306.24
564.57	60390.50
564.74	60273.48
564.90	60254.75
565.07	60182.19
565.23	60123.68
565.39	60067.51
565.56	60259.43
565.72	60189.22
565.88	60231.35
566.05	60303.90
566.21	60402.21
566.38	60364.76
566.54	60425.61
566.70	60411.57
566.87	60612.85
567.03	60240.71
567.19	60505.19
567.36	60399.86
567.52	60521.57
567.68	60692.43
567.85	60432.63
568.01	60491.15
568.17	60392.84
568.34	60669.03
568.50	60451.36
568.66	60563.70
568.83	60444.33
568.99	60434.97
569.15	60498.17
569.32	60654.98
569.48	60507.53
569.64	60575.40
569.81	60713.50
569.97	60383.48
570.13	60526.25
570.30	60465.40
570.46	60659.66
570.62	60430.29
570.78	60580.09
570.95	60664.35
571.11	60804.78
571.27	60556.68
571.43	60654.98
571.60	60683.07
571.76	60821.16
571.92	60807.12
572.09	60706.47
572.25	60907.76
572.41	60603.49
572.57	60779.03
572.74	60898.40
572.90	60774.35
573.06	60837.54
573.22	60636.26
573.38	60767.33
573.55	60711.16
573.71	60779.03
573.87	60858.61
574.03	60636.26
574.20	60643.28
574.36	60764.99
574.52	60839.89
574.68	60849.25
574.84	60963.93
575.01	60858.61
575.17	60638.60
575.33	60732.22
575.49	60687.75
575.65	60884.36
575.82	60807.12
575.98	60907.76
576.14	61205.01
576.30	61052.87
576.46	60783.71
576.62	60931.17
576.79	60746.26
576.95	60760.31
577.11	60804.78
577.27	61062.24
577.43	60797.76
577.59	60687.75
577.75	61066.92
577.92	60949.89
578.08	60996.70
578.24	61015.43
578.40	60919.46
578.56	60977.98
578.72	60973.30
578.88	61080.96
579.04	61064.58
579.21	61034.15
579.37	61193.31
579.53	61022.45
579.69	60762.65
579.85	60786.05
580.01	61146.50
580.17	60830.52
580.33	60900.74
580.49	60926.49
580.65	60949.89
580.82	61071.60
580.98	61020.11
581.14	60933.51
581.30	61109.05
581.46	61127.77
581.62	61237.78
581.78	60800.10
581.94	61048.19
582.10	60987.34
582.26	60926.49
582.42	61057.56
582.58	61095.00
582.74	61020.11
582.90	60945.21
583.06	61017.77
583.22	60856.27
583.38	61034.15
583.54	60966.27
583.70	61134.79
583.86	61153.52
584.02	60987.34
584.18	61272.88
584.34	61006.06
584.50	61057.56
584.66	61029.47
584.82	60900.74
584.98	61497.58
585.14	61069.26
585.30	61247.14
585.46	61371.19
585.62	61059.90
585.78	61155.86
585.94	61127.77
586.10	61095.00
586.26	61080.96
586.42	61256.50
586.58	61179.26
586.74	61181.60
586.90	61078.62
587.06	61095.00
587.22	61357.14
587.38	61249.48
587.54	61272.88
587.70	61497.58
587.86	61286.93
588.02	61050.53
588.18	61396.93
588.34	61055.21
588.49	61207.35
