SpectraSuite Data File
++++++++++++++++++++++++++++++++++++
Date: Fri Oct 25 11:26:07 EDT 2013
User: price-jones
Dark Spectrum Present: No
Reference Spectrum Present: No
Number of Sampled Component Spectra: 1
Spectrometers: USB2+H05261
Integration Time (usec): 100000 (USB2+H05261)
Spectra Averaged: 1 (USB2+H05261)
Boxcar Smoothing: 0 (USB2+H05261)
Correct for Electrical Dark: No (USB2+H05261)
Strobe/Lamp Enabled: No (USB2+H05261)
Correct for Detector Non-linearity: No (USB2+H05261)
Correct for Stray Light: No (USB2+H05261)
Number of Pixels in Processed Spectrum: 2048
>>>>>Begin Processed Spectral Data<<<<<
365.73	220.01
365.92	220.01
366.12	220.01
366.32	224.69
366.52	170.86
366.72	145.11
366.91	98.30
367.11	121.71
367.31	126.39
367.51	98.30
367.70	135.75
367.90	124.05
368.10	133.41
368.30	117.03
368.49	189.58
368.69	124.05
368.89	180.22
369.09	126.39
369.28	196.60
369.48	198.95
369.68	191.92
369.87	215.33
370.07	238.73
370.27	236.39
370.47	374.49
370.66	667.05
370.86	622.58
371.06	650.67
371.25	704.50
371.45	627.26
371.65	645.99
371.84	624.92
372.04	751.31
372.24	650.67
372.44	699.82
372.63	849.61
372.83	720.88
373.03	739.61
373.22	746.63
373.42	791.10
373.62	809.83
373.81	793.44
374.01	873.02
374.21	854.30
374.40	795.78
374.60	821.53
374.79	800.46
374.99	875.36
375.19	844.93
375.38	833.23
375.58	866.00
375.78	840.25
375.97	777.06
376.17	912.81
376.37	924.51
376.56	798.12
376.76	844.93
376.95	844.93
377.15	952.60
377.35	950.26
377.54	856.64
377.74	922.17
377.93	875.36
378.13	976.00
378.33	978.34
378.52	880.04
378.72	945.58
378.91	971.32
379.11	940.90
379.31	1022.81
379.50	950.26
379.70	1006.43
379.89	1046.22
380.09	1011.11
380.28	966.64
380.48	971.32
380.68	931.53
380.87	903.45
381.07	1060.26
381.26	964.30
381.46	1029.84
381.65	1071.97
381.85	1057.92
382.04	1057.92
382.24	1076.65
382.43	1086.01
382.63	1046.22
382.83	1057.92
383.02	1130.48
383.22	1172.61
383.41	1149.20
383.61	1100.05
383.80	1097.71
384.00	1062.60
384.19	1163.25
384.39	1149.20
384.58	1146.86
384.78	1111.75
384.97	1196.01
385.17	1144.52
385.36	1163.25
385.56	1151.54
385.75	1205.38
385.95	1160.91
386.14	1167.93
386.34	1242.82
386.53	1210.06
386.72	1235.80
386.92	1245.16
387.11	1207.72
387.31	1303.68
387.50	1210.06
387.70	1228.78
387.89	1214.74
388.09	1308.36
388.28	1245.16
388.48	1268.57
388.67	1315.38
388.86	1327.08
389.06	1451.13
389.25	1352.83
389.45	1308.36
389.64	1334.11
389.84	1420.71
390.03	1423.05
390.22	1437.09
390.42	1385.60
390.61	1413.68
390.81	1427.73
391.00	1511.99
391.19	1432.41
391.39	1458.15
391.58	1495.60
391.78	1460.49
391.97	1530.71
392.16	1467.52
392.36	1533.05
392.55	1551.78
392.75	1444.11
392.94	1437.09
393.13	1514.33
393.33	1497.94
393.52	1547.09
393.71	1500.28
393.91	1504.96
394.10	1563.48
394.29	1624.33
394.49	1593.90
394.68	1661.78
394.88	1666.46
395.07	1572.84
395.26	1645.40
395.46	1638.38
395.65	1647.74
395.84	1626.67
396.04	1837.32
396.23	1823.28
396.42	1767.10
396.62	1806.89
396.81	1729.66
397.00	1778.81
397.19	1741.36
397.39	1769.44
397.58	1792.85
397.77	1867.75
397.97	1879.45
398.16	1806.89
398.35	1867.75
398.55	1907.54
398.74	1884.13
398.93	1891.15
399.12	1886.47
399.32	1858.39
399.51	1961.37
399.70	1980.09
399.90	1982.43
400.09	1973.07
400.28	1970.73
400.47	1966.05
400.67	2080.74
400.86	2071.37
401.05	2057.33
401.24	2029.24
401.44	2207.13
401.63	2094.78
401.82	2162.66
402.01	2125.21
402.21	2134.57
402.40	2230.53
402.59	2162.66
402.78	2153.29
402.97	2260.96
403.17	2157.97
403.36	2188.40
403.55	2349.90
403.74	2319.47
403.93	2275.00
404.13	2380.32
404.32	2232.87
404.51	2361.60
404.70	2403.73
404.89	2401.39
405.09	2516.08
405.28	2366.28
405.47	2452.88
405.66	2457.56
405.85	2635.44
406.05	2495.01
406.24	2523.10
406.43	2487.99
406.62	2523.10
406.81	2738.43
407.00	2523.10
407.20	2663.53
407.39	2609.70
407.58	2726.72
407.77	2583.95
407.96	2803.96
408.15	2764.17
408.34	2750.13
408.54	2743.11
408.73	2731.41
408.92	2862.48
409.11	2843.75
409.30	2939.71
409.49	2853.11
409.68	2946.73
409.87	2958.44
410.07	2995.89
410.26	3012.27
410.45	3033.33
410.64	3108.23
410.83	3094.19
411.02	3068.44
411.21	3178.45
411.40	3145.68
411.59	3108.23
411.78	3190.15
411.98	3253.34
412.17	3220.58
412.36	3309.52
412.55	3431.23
412.74	3492.08
412.93	3400.80
413.12	3419.52
413.31	3517.83
413.50	3506.12
413.69	3400.80
413.88	3590.38
414.07	3515.48
414.26	3543.57
414.45	3501.44
414.64	3651.24
414.83	3686.34
415.02	3705.07
415.22	3763.58
415.41	3784.65
415.60	3927.42
415.79	3936.78
415.98	4028.06
416.17	3976.57
416.36	3899.33
416.55	4058.49
416.74	4053.81
416.93	3929.76
417.12	4067.85
417.31	3983.59
417.50	4051.47
417.69	4470.42
417.88	4093.60
418.07	4245.73
418.26	4248.07
418.45	4456.38
418.64	4425.95
418.83	4369.78
419.02	4386.16
419.21	4484.47
419.39	4447.02
419.58	4465.74
419.77	4606.17
419.96	4535.96
420.15	4531.28
420.34	4564.04
420.53	4456.38
420.72	4650.64
420.91	4610.86
421.10	4706.82
421.29	4781.71
421.48	4652.98
421.67	4791.08
421.86	4809.80
422.05	4711.50
422.24	4821.50
422.43	4788.74
422.61	4821.50
422.80	4828.53
422.99	5011.09
423.18	4985.34
423.37	5004.07
423.56	4915.12
423.75	4950.23
423.94	4753.63
424.13	4657.67
424.32	4781.71
424.50	5071.94
424.69	5212.37
424.88	5041.51
425.07	4894.06
425.26	4880.02
425.45	4957.25
425.64	5081.30
425.83	4997.04
426.01	5029.81
426.20	5109.39
426.39	5128.11
426.58	5041.51
426.77	5020.45
426.96	5069.60
427.15	5167.90
427.33	5217.05
427.52	5130.45
427.71	5174.92
427.90	5305.99
428.09	5345.78
428.28	5406.64
428.46	5540.05
428.65	5430.04
428.84	5516.64
429.03	5516.64
429.22	5383.23
429.40	5444.09
429.59	5446.43
429.78	5287.27
429.97	5387.91
430.16	5427.70
430.34	5605.58
430.53	5547.07
430.72	5818.57
430.91	5612.60
431.10	5582.18
431.28	5750.70
431.47	5760.06
431.66	5926.24
431.85	5851.34
432.03	5909.85
432.22	6022.20
432.41	5905.17
432.60	5764.74
432.79	6118.16
432.97	6057.31
433.16	5961.34
433.35	5942.62
433.54	6019.86
433.72	6111.14
433.91	6083.05
434.10	6078.37
434.28	6132.20
434.47	6080.71
434.66	6258.59
434.85	6342.85
435.03	6420.09
435.22	6134.54
435.41	6417.75
435.59	6380.30
435.78	6375.62
435.97	6509.03
436.16	6487.96
436.34	6363.92
436.53	6443.49
436.72	6710.32
436.90	6509.03
437.09	6712.66
437.28	6466.90
437.46	6656.48
437.65	6668.19
437.84	6787.55
438.02	6633.08
438.21	6757.13
438.40	6836.70
438.58	7178.42
438.77	6864.79
438.96	6885.86
439.14	7304.81
439.33	7258.00
439.52	7183.10
439.70	7162.04
439.89	7239.28
440.08	7328.22
440.26	7330.56
440.45	7330.56
440.63	7398.43
440.82	7623.12
441.01	7384.39
441.19	7676.96
441.38	7768.24
441.57	7691.00
441.75	7953.14
441.94	8091.23
442.12	8006.97
442.31	8006.97
442.50	7941.44
442.68	7908.67
442.87	8065.49
443.05	8297.20
443.24	8177.83
443.43	8128.68
443.61	8360.39
443.80	8617.85
443.98	8013.99
444.17	7843.14
444.35	8252.73
444.54	8299.54
444.73	8116.98
444.91	8297.20
445.10	8334.65
445.28	8250.39
445.47	8201.24
445.65	8348.69
445.84	8404.86
446.02	8400.18
446.21	8496.14
446.39	8491.46
446.58	8451.67
446.77	8374.44
446.95	8135.70
447.14	8308.90
447.32	8655.30
447.51	8407.20
447.69	8439.97
447.88	8652.96
448.06	8526.57
448.25	8559.34
448.43	8477.42
448.62	8667.00
448.80	8521.89
448.99	8671.68
449.17	8758.28
449.36	8793.39
449.54	8795.73
449.73	8968.93
449.91	8688.07
450.10	9004.04
450.28	9025.11
450.46	9245.12
450.65	9027.45
450.83	9034.47
451.02	9158.52
451.20	9078.94
451.39	9039.15
451.57	9200.65
451.76	9081.28
451.94	9088.30
452.13	9174.90
452.31	9312.99
452.49	9144.47
452.68	9404.27
452.86	9369.16
453.05	9334.06
453.23	9399.59
453.42	9366.82
453.60	9202.99
453.78	9530.66
453.97	9301.29
454.15	9378.53
454.34	9570.45
454.52	9582.15
454.70	9729.61
454.89	9664.07
455.07	9673.43
455.26	9921.53
455.44	9996.43
455.62	10019.83
455.81	9996.43
455.99	10026.86
456.17	9944.94
456.36	10132.18
456.54	10153.24
456.73	10328.78
456.91	10326.44
457.09	10424.75
457.28	10485.60
457.46	10263.25
457.64	10635.39
457.83	10394.32
458.01	10291.34
458.19	10520.71
458.38	10710.29
458.56	10768.80
458.74	10658.80
458.93	10682.20
459.11	10991.16
459.29	10782.85
459.48	10885.83
459.66	10677.52
459.84	10974.77
460.03	11059.03
460.21	10963.07
460.39	11052.01
460.57	10916.26
460.76	11108.18
460.94	11265.00
461.12	11126.91
461.31	10967.75
461.49	11213.51
461.67	10998.18
461.85	11440.54
462.04	11145.63
462.22	11852.47
462.40	11721.40
462.59	11262.66
462.77	11669.91
462.95	11644.17
463.13	11648.85
463.32	11510.75
463.50	11690.98
463.68	11712.04
463.86	11571.61
464.05	11632.46
464.23	11712.04
464.41	11627.78
464.59	11604.38
464.78	12058.44
464.96	11910.99
465.14	11843.11
465.32	11946.09
465.50	12072.48
465.69	12285.47
465.87	12166.10
466.05	11894.60
466.23	11990.56
466.41	12400.16
466.60	12444.63
466.78	12095.89
466.96	12156.74
467.14	12306.54
467.32	12035.03
467.51	12453.99
467.69	12348.67
467.87	12285.47
468.05	12512.50
468.23	12395.48
468.41	12571.02
468.60	12585.06
468.78	12861.24
468.96	12793.37
469.14	12826.14
469.32	12989.97
469.50	12657.62
469.69	12910.40
469.87	13006.36
470.05	13027.42
470.23	13188.92
470.41	13034.44
470.59	13284.88
470.77	13071.89
470.95	13296.58
471.14	13624.26
471.32	13116.36
471.50	13551.70
471.68	13593.83
471.86	13657.03
472.04	13628.94
472.22	13792.78
472.40	13664.05
472.58	14003.43
472.77	14043.21
472.95	14047.90
473.13	14686.86
473.31	14342.80
473.49	14167.26
473.67	14136.84
473.85	14061.94
474.03	14548.77
474.21	14459.83
474.39	14810.91
474.57	14464.51
474.75	14796.87
474.93	14951.34
475.12	15044.96
475.30	15143.27
475.48	15014.54
475.66	15005.17
475.84	15370.30
476.02	15367.96
476.20	15339.87
476.38	15513.07
476.56	15906.28
476.74	16060.76
476.92	15810.32
477.10	15763.51
477.28	16152.04
477.46	16196.51
477.64	16147.36
477.82	16779.30
478.00	17027.40
478.18	16592.06
478.36	16989.95
478.54	16840.15
478.72	17050.80
478.90	17301.24
479.08	17472.10
479.26	17757.64
479.44	17507.21
479.62	17682.75
479.80	17891.06
479.98	17827.86
480.16	18644.71
480.34	17958.93
480.52	18539.38
480.70	18572.15
480.88	18223.41
481.06	18689.18
481.24	18841.31
481.41	18841.31
481.59	18960.68
481.77	19239.20
481.95	19466.24
482.13	19604.33
482.31	19660.50
482.49	20123.93
482.67	20297.13
482.85	20418.83
483.03	20362.66
483.21	20823.75
483.39	20996.95
483.57	20912.69
483.74	21022.69
483.92	21331.64
484.10	21060.14
484.28	21696.77
484.46	21947.20
484.64	22246.79
484.82	22111.04
485.00	22525.32
485.18	22602.55
485.35	23012.15
485.53	22757.03
485.71	22789.80
485.89	23403.02
486.07	23241.52
486.25	23103.43
486.43	23508.34
486.61	23517.70
486.78	24472.64
486.96	23915.59
487.14	24261.99
487.32	24451.58
487.50	24938.41
487.68	24975.86
487.85	25387.79
488.03	25572.69
488.21	25830.15
488.39	25369.07
488.57	25696.74
488.75	25860.58
488.92	26822.54
489.10	26403.58
489.28	26293.58
489.46	27042.55
489.64	27014.46
489.81	27812.59
489.99	27470.87
490.17	27704.92
490.35	28170.69
490.53	28046.64
490.70	28229.20
490.88	28498.36
491.06	28819.02
491.24	28776.89
491.41	29118.60
491.59	29055.41
491.77	29418.19
491.95	29263.72
492.13	29799.70
492.30	29621.82
492.48	30064.18
492.66	30167.16
492.84	30038.44
493.01	30703.15
493.19	30359.09
493.37	30749.96
493.54	31197.00
493.72	31496.59
493.90	31089.34
494.08	31950.65
494.25	32025.55
494.43	31974.06
494.61	32168.32
494.79	32378.97
494.96	32290.03
495.14	32739.41
495.32	32921.98
495.49	33008.58
495.67	33298.80
495.85	33369.02
496.02	34110.97
496.20	33837.12
496.38	34190.55
496.55	33530.51
496.73	35248.47
496.91	34417.58
497.09	34684.40
497.26	34822.49
497.44	35103.35
497.62	35075.27
497.79	35445.07
497.97	35489.54
498.14	36041.91
498.32	35962.33
498.50	35723.60
498.67	36547.47
498.85	36374.27
499.03	36655.13
499.20	36554.49
499.38	36861.10
499.56	36659.81
499.73	36804.92
499.91	37350.27
500.08	37701.35
500.26	37511.77
500.44	37532.83
500.61	37823.06
500.79	37574.96
500.97	38253.72
501.14	38153.07
501.32	38260.74
501.49	38356.70
501.67	39040.14
501.84	38932.47
502.02	38424.57
502.20	38955.88
502.37	38967.58
502.55	38864.60
502.72	39206.31
502.90	39463.77
503.07	39576.12
503.25	39571.44
503.43	39409.94
503.60	39758.68
503.78	40037.20
503.95	40025.50
504.13	40421.05
504.30	40488.93
504.48	40666.81
504.65	40488.93
504.83	40842.35
505.01	40926.61
505.18	40999.16
505.36	41354.93
505.53	41064.70
505.71	41308.11
505.88	41820.69
506.06	41326.84
506.23	41680.26
506.41	41839.42
506.58	42103.90
506.76	41951.76
506.93	41918.99
507.11	42192.84
507.28	42300.50
507.46	42511.15
507.63	42836.48
507.81	42880.95
507.98	42424.55
508.16	43164.16
508.33	43201.61
508.50	43356.08
508.68	43927.17
508.85	44051.22
509.03	43421.62
509.20	44016.11
509.38	44037.18
509.55	44577.84
509.73	44149.53
509.90	44449.11
510.08	44439.75
510.25	44591.89
510.42	44617.63
510.60	45188.72
510.77	45155.96
510.95	45235.53
511.12	44746.36
511.30	45312.77
511.47	45343.20
511.64	45263.62
511.82	45888.54
511.99	45783.22
512.17	45951.74
512.34	45771.52
512.51	46295.80
512.69	46146.00
512.86	45881.52
513.04	46670.28
513.21	46010.25
513.38	46557.94
513.56	46827.10
513.73	46677.30
513.90	46937.10
514.08	46719.43
514.25	46988.60
514.43	47243.71
514.60	47217.97
514.77	47154.77
514.95	47732.89
515.12	47206.26
515.29	47543.30
515.47	47976.30
515.64	48004.39
515.81	47962.26
515.99	47826.51
516.16	48507.60
516.33	48332.06
516.51	48774.42
516.68	48280.57
516.85	48041.84
517.03	48755.70
517.20	48673.78
517.37	48882.09
517.54	48444.41
517.72	48896.13
517.89	48807.19
518.06	49219.13
518.24	49287.00
518.41	49265.94
518.58	49392.33
518.75	49268.28
518.93	49682.55
519.10	49146.57
519.27	49684.89
519.45	49631.06
519.62	49918.95
519.79	49614.68
519.96	50103.85
520.14	49925.97
520.31	49722.34
520.48	50162.36
520.65	50396.42
520.83	50206.83
521.00	50614.08
521.17	50237.26
521.34	50227.90
521.52	50712.39
521.69	50677.28
521.86	51051.76
522.03	51147.73
522.20	51215.60
522.38	51129.00
522.55	51044.74
522.72	51573.70
522.89	51157.09
523.07	51564.34
523.24	51241.35
523.41	51552.64
523.58	51566.68
523.75	51643.92
523.92	51772.65
524.10	51742.22
524.27	51948.19
524.44	52079.26
524.61	52327.36
524.78	52135.43
524.96	51936.49
525.13	51938.83
525.30	52252.46
525.47	52640.99
525.64	52395.23
525.81	52250.12
525.98	52832.91
526.16	52268.84
526.33	52879.72
526.50	53083.35
526.67	52711.20
526.84	52781.42
527.01	53010.79
527.18	52863.34
527.36	52956.96
527.53	52884.40
527.70	53563.16
527.87	53352.51
528.04	53045.90
528.21	53406.34
528.38	53539.75
528.55	53387.62
528.72	53081.01
528.89	53448.47
529.07	53137.18
529.24	53504.65
529.41	53727.00
529.58	53528.05
529.75	53719.98
529.92	53727.00
530.09	53851.05
530.26	53811.26
530.43	53855.73
530.60	53640.40
530.77	53633.38
530.94	54183.40
531.11	53874.45
531.28	54012.54
531.46	54234.89
531.63	54237.23
531.80	54026.59
531.97	54445.54
532.14	54405.75
532.31	54101.48
532.48	54281.70
532.65	54611.72
532.82	54415.11
532.99	54635.13
533.16	54431.50
533.33	54635.13
533.50	55084.51
533.67	54480.65
533.84	54457.24
534.01	54651.51
534.18	54813.01
534.35	55000.25
534.52	55011.95
534.69	55145.36
534.86	54988.55
535.03	54843.43
535.20	55250.69
535.37	55278.77
535.54	55194.51
535.71	55042.38
535.88	55316.22
536.05	55519.85
536.22	55402.82
536.38	55529.21
536.55	55318.56
536.72	55475.38
536.89	55674.32
537.06	55388.78
537.23	55671.98
537.40	55552.62
537.57	55641.56
537.74	55880.29
537.91	55868.59
538.08	55819.44
538.25	55482.40
538.42	55828.80
538.59	56112.00
538.75	55805.39
538.92	55870.93
539.09	55948.17
539.26	56093.28
539.43	56046.47
539.60	56250.09
539.77	56107.32
539.94	56416.27
540.11	56285.20
540.28	56369.46
540.44	56334.35
540.61	56374.14
540.78	56315.63
540.95	56406.91
541.12	56402.23
541.29	56519.26
541.46	56425.64
541.62	56418.61
541.79	56830.55
541.96	56320.31
542.13	56528.62
542.30	56435.00
542.47	56762.67
542.63	56715.86
542.80	56743.95
542.97	57055.24
543.14	57443.77
543.31	57064.60
543.48	56933.53
543.64	57240.14
543.81	57418.02
543.98	57165.24
544.15	57188.65
544.32	57172.27
544.48	57373.55
544.65	57212.06
544.82	57453.13
544.99	57055.24
545.16	57375.89
545.32	57305.68
545.49	57677.82
545.66	57715.27
545.83	57558.45
546.00	57623.99
546.16	57436.75
546.33	57371.21
546.50	57310.36
546.67	57696.55
546.83	57354.83
547.00	57717.61
547.17	57776.12
547.34	57736.34
547.50	58052.31
547.67	57853.36
547.84	57951.66
548.00	57989.11
548.17	58026.56
548.34	57986.77
548.51	58255.93
548.67	58277.00
548.84	58094.44
549.01	58136.57
549.18	58117.84
549.34	58134.23
549.51	58110.82
549.68	58326.15
549.84	58520.41
550.01	58387.00
550.18	58115.50
550.34	58401.05
550.51	58333.17
550.68	58302.74
550.84	58176.36
551.01	58728.72
551.18	58534.46
551.34	58499.35
551.51	58525.10
551.68	58532.12
551.84	58539.14
552.01	58239.55
552.18	58604.67
552.34	58541.48
552.51	58478.28
552.68	58431.47
552.84	58834.05
553.01	58614.04
553.18	58803.62
553.34	58702.98
553.51	58459.56
553.67	58857.45
553.84	58899.58
554.01	58918.31
554.17	58997.88
554.34	58824.68
554.51	58866.81
554.67	59114.91
554.84	59086.82
555.00	58815.32
555.17	59103.21
555.33	59061.08
555.50	59037.67
555.67	58901.92
555.83	58941.71
556.00	58960.44
556.16	59292.79
556.33	59196.83
556.50	59147.68
556.66	59309.18
556.83	59049.38
556.99	59360.67
557.16	59475.35
557.32	59585.36
557.49	59484.72
557.65	59236.62
557.82	59278.75
557.98	59154.70
558.15	59262.36
558.32	59355.99
558.48	59185.13
558.65	59465.99
558.81	59657.91
558.98	59470.67
559.14	59547.91
559.31	59739.83
559.47	59503.44
559.64	59664.94
559.80	59604.08
559.97	59583.02
560.13	59639.19
560.30	59683.66
560.46	59489.40
560.63	59781.96
560.79	59805.37
560.96	59723.45
561.12	59725.79
561.29	59566.63
561.45	59627.49
561.61	59564.29
561.78	59604.08
561.94	59465.99
562.11	59821.75
562.27	59800.69
562.44	60023.04
562.60	60072.19
562.77	59943.46
562.93	59599.40
563.10	59812.39
563.26	59973.89
563.42	59990.27
563.59	59936.44
563.75	60020.70
563.92	60116.66
564.08	59903.67
564.24	60156.45
564.41	60299.22
564.57	60149.43
564.74	60053.47
564.90	60221.98
565.07	60128.36
565.23	60086.23
565.39	59952.82
565.56	60273.48
565.72	59987.93
565.88	60151.77
566.05	60121.34
566.21	59955.16
566.38	59927.08
566.54	60301.56
566.70	60397.52
566.87	60198.58
567.03	59929.42
567.19	60350.71
567.36	60062.83
567.52	60154.11
567.68	60470.08
567.85	60231.35
568.01	60214.96
568.17	60212.62
568.34	60254.75
568.50	60165.81
568.66	60266.45
568.83	60390.50
568.99	60161.13
569.15	60320.29
569.32	60334.33
569.48	60193.90
569.64	60491.15
569.81	60409.23
569.97	60203.26
570.13	60399.86
570.30	60074.53
570.46	60355.39
570.62	60437.31
570.78	60434.97
570.95	60303.90
571.11	60669.03
571.27	60430.29
571.43	60643.28
571.60	60725.20
571.76	60470.08
571.92	60612.85
572.09	60465.40
572.25	60479.44
572.41	60465.40
572.57	60470.08
572.74	60617.53
572.90	60449.02
573.06	60465.40
573.22	60542.64
573.38	60537.96
573.55	60676.05
573.71	60690.09
573.87	60528.59
574.03	60683.07
574.20	60605.83
574.36	60575.40
574.52	60767.33
574.68	60809.46
574.84	60795.42
575.01	60708.82
575.17	60547.32
575.33	60584.77
575.49	60477.10
575.65	60690.09
575.82	60823.50
575.98	60652.64
576.14	60970.96
576.30	60671.37
576.46	60786.05
576.62	60481.78
576.79	60678.39
576.95	60542.64
577.11	60622.22
577.27	60839.89
577.43	60722.86
577.59	60676.05
577.75	60832.86
577.92	60594.13
578.08	60814.14
578.24	60608.17
578.40	60921.80
578.56	60877.33
578.72	60821.16
578.88	60982.66
579.04	61102.03
579.21	60676.05
579.37	60844.57
579.53	61041.17
579.69	60626.90
579.85	60802.44
580.01	60685.41
580.17	60638.60
580.33	60802.44
580.49	60720.52
580.65	60907.76
580.82	60769.67
580.98	60669.03
581.14	60795.42
581.30	60961.59
581.46	60877.33
581.62	60797.76
581.78	60683.07
581.94	60786.05
582.10	60643.28
582.26	60687.75
582.42	60774.35
582.58	60842.23
582.74	60860.95
582.90	60926.49
583.06	60680.73
583.22	60608.17
583.38	61085.64
583.54	61017.77
583.70	60671.37
583.86	60975.64
584.02	60715.84
584.18	61113.73
584.34	60802.44
584.50	60893.72
584.66	60779.03
584.82	60704.13
584.98	61111.39
585.14	61087.98
585.30	60935.85
585.46	61006.06
585.62	61057.56
585.78	61109.05
585.94	60903.08
586.10	60879.67
586.26	61127.77
586.42	61186.28
586.58	60994.36
586.74	61099.68
586.90	61146.50
587.06	60821.16
587.22	61071.60
587.38	60959.25
587.54	60919.46
587.70	61284.59
587.86	61001.38
588.02	60931.17
588.18	61148.84
588.34	61090.32
588.49	61116.07
