SpectraSuite Data File
++++++++++++++++++++++++++++++++++++
Date: Fri Oct 25 11:25:07 EDT 2013
User: price-jones
Dark Spectrum Present: No
Reference Spectrum Present: No
Number of Sampled Component Spectra: 1
Spectrometers: USB2+H05261
Integration Time (usec): 100000 (USB2+H05261)
Spectra Averaged: 1 (USB2+H05261)
Boxcar Smoothing: 0 (USB2+H05261)
Correct for Electrical Dark: No (USB2+H05261)
Strobe/Lamp Enabled: No (USB2+H05261)
Correct for Detector Non-linearity: No (USB2+H05261)
Correct for Stray Light: No (USB2+H05261)
Number of Pixels in Processed Spectrum: 2048
>>>>>Begin Processed Spectral Data<<<<<
365.73	257.46
365.92	257.46
366.12	257.46
366.32	156.82
366.52	58.51
366.72	166.18
366.91	154.48
367.11	128.73
367.31	229.37
367.51	140.43
367.70	154.48
367.90	117.03
368.10	180.22
368.30	77.24
368.49	119.37
368.69	222.35
368.89	135.75
369.09	95.96
369.28	182.56
369.48	182.56
369.68	182.56
369.87	215.33
370.07	189.58
370.27	220.01
370.47	337.04
370.66	631.94
370.86	594.50
371.06	650.67
371.25	737.27
371.45	692.80
371.65	746.63
371.84	706.84
372.04	643.65
372.24	690.46
372.44	763.01
372.63	711.52
372.83	770.04
373.03	842.59
373.22	755.99
373.42	760.67
373.62	779.40
373.81	781.74
374.01	873.02
374.21	856.64
374.40	786.42
374.60	828.55
374.79	791.10
374.99	861.32
375.19	877.70
375.38	889.40
375.58	875.36
375.78	870.68
375.97	945.58
376.17	868.34
376.37	744.29
376.56	856.64
376.76	896.43
376.95	870.68
377.15	917.49
377.35	875.36
377.54	891.74
377.74	858.98
377.93	826.21
378.13	938.55
378.33	870.68
378.52	880.04
378.72	910.47
378.91	985.37
379.11	945.58
379.31	915.15
379.50	919.83
379.70	919.83
379.89	980.68
380.09	945.58
380.28	1004.09
380.48	978.34
380.68	903.45
380.87	915.15
381.07	1043.88
381.26	1043.88
381.46	1004.09
381.65	1036.86
381.85	1043.88
382.04	983.02
382.24	1090.69
382.43	1074.31
382.63	1071.97
382.83	994.73
383.02	1048.56
383.22	1132.82
383.41	1090.69
383.61	1102.39
383.80	1188.99
384.00	1139.84
384.19	1156.22
384.39	1172.61
384.58	1163.25
384.78	1181.97
384.97	1193.67
385.17	1125.80
385.36	1128.14
385.56	1078.99
385.75	1179.63
385.95	1116.44
386.14	1221.76
386.34	1184.31
386.53	1291.98
386.72	1186.65
386.92	1207.72
387.11	1205.38
387.31	1313.04
387.50	1221.76
387.70	1191.33
387.89	1184.31
388.09	1217.08
388.28	1179.63
388.48	1291.98
388.67	1317.72
388.86	1306.02
389.06	1291.98
389.25	1378.58
389.45	1380.92
389.64	1313.04
389.84	1383.26
390.03	1320.06
390.22	1376.24
390.42	1343.47
390.61	1348.15
390.81	1371.55
391.00	1479.22
391.19	1458.15
391.39	1366.87
391.58	1341.13
391.78	1448.79
391.97	1451.13
392.16	1385.60
392.36	1556.46
392.55	1444.11
392.75	1523.69
392.94	1561.14
393.13	1544.75
393.33	1420.71
393.52	1586.88
393.71	1629.01
393.91	1533.05
394.10	1600.93
394.29	1533.05
394.49	1643.06
394.68	1699.23
394.88	1657.10
395.07	1680.50
395.26	1605.61
395.46	1687.53
395.65	1661.78
395.84	1715.61
396.04	1713.27
396.23	1734.34
396.42	1729.66
396.62	1818.60
396.81	1872.43
397.00	1769.44
397.19	1809.23
397.39	1809.23
397.58	1865.41
397.77	1764.76
397.97	1809.23
398.16	1830.30
398.35	1994.14
398.55	1802.21
398.74	1839.66
398.93	1947.33
399.12	1944.99
399.32	1968.39
399.51	1891.15
399.70	2071.37
399.90	1942.64
400.09	2113.50
400.28	2031.58
400.47	2038.61
400.67	1942.64
400.86	2064.35
401.05	2078.40
401.24	2115.84
401.44	2045.63
401.63	2092.44
401.82	2127.55
402.01	2106.48
402.21	2167.34
402.40	2211.81
402.59	2165.00
402.78	2186.06
402.97	2293.72
403.17	2232.87
403.36	2181.38
403.55	2251.60
403.74	2275.00
403.93	2389.69
404.13	2438.84
404.32	2370.96
404.51	2317.13
404.70	2490.33
404.89	2431.82
405.09	2452.88
405.28	2502.03
405.47	2300.75
405.66	2471.61
405.85	2438.84
406.05	2597.99
406.24	2602.68
406.43	2506.71
406.62	2576.93
406.81	2705.66
407.00	2558.21
407.20	2485.65
407.39	2537.14
407.58	2686.94
407.77	2682.25
407.96	2724.38
408.15	2909.29
408.34	2745.45
408.54	2775.88
408.73	2801.62
408.92	2754.81
409.11	2843.75
409.30	2906.95
409.49	2736.09
409.68	2920.99
409.87	2860.13
410.07	2977.16
410.26	2888.22
410.45	2951.42
410.64	3023.97
410.83	3066.10
411.02	3000.57
411.21	3133.98
411.40	2991.20
411.59	3286.11
411.78	3157.38
411.98	3222.92
412.17	3274.41
412.36	3276.75
412.55	3300.16
412.74	3342.28
412.93	3410.16
413.12	3300.16
413.31	3550.59
413.50	3534.21
413.69	3541.23
413.88	3723.79
414.07	3510.80
414.26	3618.47
414.45	3707.41
414.64	3534.21
414.83	3648.90
415.02	3843.16
415.22	3857.20
415.41	3964.87
415.60	3908.69
415.79	3871.25
415.98	3885.29
416.17	4079.55
416.36	3929.76
416.55	4142.75
416.74	4077.21
416.93	3988.27
417.12	4091.26
417.31	4098.28
417.50	4252.75
417.69	4154.45
417.88	4259.78
418.07	4248.07
418.26	4184.88
418.45	4367.44
418.64	4442.34
418.83	4437.66
419.02	4404.89
419.21	4634.26
419.39	4475.10
419.58	4587.45
419.77	4407.23
419.96	4552.34
420.15	4664.69
420.34	4702.14
420.53	4503.19
420.72	4760.65
420.91	4718.52
421.10	4634.26
421.29	4912.78
421.48	4652.98
421.67	4704.48
421.86	4716.18
422.05	4652.98
422.24	4800.44
422.43	4858.95
422.61	4971.30
422.80	4968.96
422.99	4933.85
423.18	4767.67
423.37	5090.67
423.56	4980.66
423.75	5011.09
423.94	4830.87
424.13	4669.37
424.32	4744.27
424.50	4809.80
424.69	5093.01
424.88	4952.57
425.07	5018.11
425.26	4919.81
425.45	5020.45
425.64	5067.26
425.83	4992.36
426.01	5032.15
426.20	5093.01
426.39	5139.82
426.58	5020.45
426.77	5004.07
426.96	5165.56
427.15	5144.50
427.33	5177.26
427.52	5067.26
427.71	5085.98
427.90	5210.03
428.09	5142.16
428.28	5394.93
428.46	5224.08
428.65	5329.40
428.84	5448.77
429.03	5493.24
429.22	5387.91
429.40	5399.62
429.59	5341.10
429.78	5240.46
429.97	5291.95
430.16	5460.47
430.34	5579.84
430.53	5577.50
430.72	5771.76
430.91	5626.65
431.10	5530.69
431.28	5778.78
431.47	5708.57
431.66	6043.26
431.85	5755.38
432.03	5750.70
432.22	6033.90
432.41	5951.98
432.60	5928.58
432.79	5926.24
432.97	6043.26
433.16	5975.39
433.35	5991.77
433.54	6069.01
433.72	6113.48
433.91	6008.16
434.10	6071.35
434.28	6134.54
434.47	6197.74
434.66	6242.21
434.85	6279.66
435.03	6256.25
435.22	6188.38
435.41	6408.39
435.59	6518.39
435.78	6410.73
435.97	6499.67
436.16	6377.96
436.34	6604.99
436.53	6375.62
436.72	6595.63
436.90	6387.32
437.09	6764.15
437.28	6485.62
437.46	6548.82
437.65	6480.94
437.84	6789.89
438.02	6766.49
438.21	6729.04
438.40	6787.55
438.58	7136.29
438.77	7082.46
438.96	6878.83
439.14	7213.53
439.33	7232.26
439.52	7171.40
439.70	7045.01
439.89	7297.79
440.08	7421.84
440.26	7276.73
440.45	7335.24
440.63	7461.63
440.82	7618.44
441.01	7463.97
441.19	7524.82
441.38	7761.22
441.57	7700.36
441.75	7709.72
441.94	7929.74
442.12	7901.65
442.31	8028.04
442.50	7861.86
442.68	8124.00
442.87	8077.19
443.05	8091.23
443.24	8229.32
443.43	8215.28
443.61	8210.60
443.80	8339.33
443.98	8035.06
444.17	7779.94
444.35	8163.79
444.54	8124.00
444.73	8439.97
444.91	8339.33
445.10	8301.88
445.28	8142.72
445.47	8423.59
445.65	8191.88
445.84	8468.06
446.02	8402.52
446.21	8266.77
446.39	8386.14
446.58	8505.51
446.77	8404.86
446.95	8360.39
447.14	8482.10
447.32	8360.39
447.51	8271.45
447.69	8322.94
447.88	8564.02
448.06	8496.14
448.25	8400.18
448.43	8559.34
448.62	8407.20
448.80	8423.59
448.99	8631.90
449.17	8854.25
449.36	8648.28
449.54	8879.99
449.73	9022.77
449.91	8964.25
450.10	8844.88
450.28	8982.98
450.46	9039.15
450.65	9018.08
450.83	9146.81
451.02	9074.26
451.20	9198.31
451.39	9025.11
451.57	9282.56
451.76	8957.23
451.94	9179.58
452.13	9202.99
452.31	9238.09
452.49	9327.03
452.68	9434.70
452.86	9310.65
453.05	9474.49
453.23	9504.92
453.42	9418.32
453.60	9305.97
453.78	9643.01
453.97	9380.87
454.15	9376.19
454.34	9355.12
454.52	9474.49
454.70	9703.86
454.89	9626.62
455.07	9685.14
455.26	9612.58
455.44	9767.06
455.62	10019.83
455.81	9973.02
455.99	9853.66
456.17	9942.60
456.36	10200.05
456.54	10052.60
456.73	10232.82
456.91	10391.98
457.09	10443.47
457.28	10693.91
457.46	10410.70
457.64	10677.52
457.83	10497.30
458.01	10387.30
458.19	10665.82
458.38	10597.95
458.56	10583.90
458.74	10630.71
458.93	10640.08
459.11	10766.46
459.29	10824.98
459.48	10729.02
459.66	10824.98
459.84	10899.87
460.03	10888.17
460.21	10939.66
460.39	10953.71
460.57	10960.73
460.76	11075.42
460.94	11260.32
461.12	11049.67
461.31	10918.60
461.49	11131.59
461.67	11218.19
461.85	11265.00
462.04	11398.41
462.22	11609.06
462.40	11545.86
462.59	11499.05
462.77	11316.49
462.95	11623.10
463.13	11468.62
463.32	11758.85
463.50	11742.47
463.68	11777.58
463.86	11712.04
464.05	11700.34
464.23	11536.50
464.41	12070.14
464.59	11627.78
464.78	12145.04
464.96	11910.99
465.14	11810.34
465.32	12177.81
465.50	12053.76
465.69	11903.96
465.87	12077.16
466.05	12072.48
466.23	12156.74
466.41	12072.48
466.60	12430.59
466.78	12072.48
466.96	12042.06
467.14	12257.39
467.32	12273.77
467.51	12329.94
467.69	12198.87
467.87	12514.84
468.05	12475.06
468.23	12613.15
468.41	12390.80
468.60	12556.97
468.78	12807.41
468.96	12430.59
469.14	12741.88
469.32	12835.50
469.50	12575.70
469.69	12894.01
469.87	13287.22
470.05	12994.65
470.23	13076.57
470.41	13088.28
470.59	13191.26
470.77	12950.18
470.95	13259.13
471.14	13568.09
471.32	13277.86
471.50	13631.28
471.68	13385.52
471.86	13376.16
472.04	13628.94
472.22	13774.05
472.40	13673.41
472.58	13577.45
472.77	13942.57
472.95	14031.51
473.13	14401.32
473.31	14312.38
473.49	14349.82
473.67	14331.10
473.85	14331.10
474.03	14527.71
474.21	14724.31
474.39	14759.42
474.57	14750.06
474.75	15066.03
474.93	14960.70
475.12	14949.00
475.30	15150.29
475.48	15176.03
475.66	15321.15
475.84	15220.50
476.02	15599.67
476.20	15276.68
476.38	15733.08
476.56	15836.06
476.74	16025.65
476.92	15957.77
477.10	15815.00
477.28	16053.73
477.46	16025.65
477.64	16318.22
477.82	16386.09
478.00	16826.11
478.18	16861.22
478.36	16947.82
478.54	16994.63
478.72	17179.53
478.90	17490.82
479.08	17727.22
479.26	17713.17
479.44	17479.12
479.62	18200.01
479.80	17991.70
479.98	18207.03
480.16	18291.29
480.34	18305.33
480.52	18567.47
480.70	18684.50
480.88	18265.54
481.06	18600.24
481.24	18738.33
481.41	19178.35
481.59	19129.20
481.77	19585.60
481.95	19697.95
482.13	19868.81
482.31	19658.16
482.49	20013.92
482.67	20088.82
482.85	20362.66
483.03	20585.01
483.21	20589.69
483.39	20863.54
483.57	20753.53
483.74	21097.59
483.92	21151.42
484.10	21036.74
484.28	21687.40
484.46	22136.79
484.64	22361.48
484.82	21921.46
485.00	22291.26
485.18	22532.34
485.35	22874.06
485.53	22717.24
485.71	23173.64
485.89	23454.51
486.07	23063.64
486.25	23424.08
486.43	23674.52
486.61	23971.77
486.78	23967.09
486.96	24271.36
487.14	24348.59
487.32	24739.46
487.50	24823.72
487.68	24507.75
487.85	25188.85
488.03	25273.10
488.21	25661.63
488.39	25837.17
488.57	26029.10
488.75	26052.50
488.92	26064.21
489.10	26684.45
489.28	26724.24
489.46	26967.65
489.64	27007.44
489.81	27529.38
489.99	27714.28
490.17	27798.54
490.35	28158.99
490.53	27814.93
490.70	28257.29
490.88	27936.63
491.06	28652.84
491.24	28402.40
491.41	28833.06
491.59	29364.36
491.77	28762.84
491.95	29539.90
492.13	29663.95
492.30	29876.94
492.48	29731.83
492.66	30089.93
492.84	29886.30
493.01	30677.40
493.19	30342.70
493.37	30841.24
493.54	30611.87
493.72	31208.70
493.90	31424.03
494.08	31779.79
494.25	31651.06
494.43	32222.16
494.61	32400.04
494.79	32086.40
494.96	32404.72
495.14	32573.24
495.32	33212.20
495.49	32917.29
495.67	33202.84
495.85	33752.87
496.02	33507.11
496.20	34071.18
496.38	33736.48
496.55	34354.38
496.73	34983.99
496.91	34497.16
497.09	34902.07
497.26	34660.99
497.44	34881.00
497.62	35058.88
497.79	35454.44
497.97	35108.04
498.14	36006.80
498.32	35992.76
498.50	36091.06
498.67	36226.81
498.85	36217.45
499.03	36453.84
499.20	36697.26
499.38	36882.16
499.56	36627.04
499.73	37322.18
499.91	37261.33
500.08	37844.12
500.26	37340.91
500.44	37649.86
500.61	37848.80
500.79	37830.08
500.97	37982.21
501.14	38092.22
501.32	38403.51
501.49	38483.09
501.67	38567.35
501.84	38754.59
502.02	38813.10
502.20	38841.19
502.37	39026.09
502.55	38923.11
502.72	39154.82
502.90	39264.83
503.07	39583.14
503.25	39426.32
503.43	39201.63
503.60	39880.39
503.78	39917.84
503.95	39966.99
504.13	40519.35
504.30	40472.54
504.48	40425.73
504.65	40868.09
504.83	40954.69
505.01	41045.97
505.18	41237.90
505.36	41701.32
505.53	41216.83
505.71	41488.34
505.88	41221.52
506.06	41251.94
506.23	41631.11
506.41	41701.32
506.58	41832.39
506.76	42508.81
506.93	42234.97
507.11	42054.75
507.28	42504.13
507.46	42604.77
507.63	42843.51
507.81	43079.90
507.98	43051.81
508.16	42864.57
508.33	43267.14
508.50	43217.99
508.68	43718.87
508.85	43758.66
509.03	43969.30
509.20	44023.14
509.38	44095.69
509.55	44318.04
509.73	44556.78
509.90	44388.26
510.08	44378.90
510.25	44301.66
510.42	44828.28
510.60	45310.43
510.77	44985.10
510.95	45345.54
511.12	44945.31
511.30	45151.27
511.47	45361.92
511.64	45467.25
511.82	45570.23
511.99	45546.82
512.17	46101.53
512.34	45757.47
512.51	45925.99
512.69	46349.63
512.86	46153.02
513.04	47112.64
513.21	46639.86
513.38	46429.21
513.56	46890.29
513.73	46564.96
513.90	47009.66
514.08	46618.79
514.25	46930.08
514.43	47150.09
514.60	47058.81
514.77	46759.22
514.95	47613.52
515.12	47171.16
515.29	47538.62
515.47	47487.13
515.64	48172.91
515.81	47861.61
515.99	48385.89
516.16	47966.94
516.33	48308.66
516.51	48601.22
516.68	48360.15
516.85	48505.26
517.03	48683.14
517.20	48821.23
517.37	48825.92
517.54	48811.87
517.72	48708.89
517.89	48685.48
518.06	48704.21
518.24	49242.53
518.41	49474.24
518.58	49469.56
518.75	49095.08
518.93	49303.38
519.10	49251.89
519.27	49851.07
519.45	49331.47
519.62	49741.06
519.79	49902.56
519.96	49830.01
520.14	50171.72
520.31	49837.03
520.48	50225.56
520.65	50220.87
520.83	50511.10
521.00	50611.74
521.17	50569.61
521.34	50391.73
521.52	50969.85
521.69	50557.91
521.86	51119.64
522.03	51098.58
522.20	51505.83
522.38	51199.22
522.55	51089.21
522.72	51243.69
522.89	51274.12
523.07	51428.59
523.24	51498.81
523.41	51583.07
523.58	51437.95
523.75	51868.61
523.92	51704.77
524.10	51992.66
524.27	51817.12
524.44	52177.56
524.61	51676.69
524.78	52121.39
524.96	52067.56
525.13	51990.32
525.30	52341.40
525.47	52341.40
525.64	52348.42
525.81	52603.54
525.98	52622.26
526.16	52266.50
526.33	52839.93
526.50	52816.53
526.67	52699.50
526.84	53195.70
527.01	52914.83
527.18	52631.63
527.36	52884.40
527.53	53242.51
527.70	53146.54
527.87	53488.26
528.04	52851.64
528.21	53525.71
528.38	53261.23
528.55	53308.04
528.72	53310.38
528.89	53429.75
529.07	53221.44
529.24	53371.24
529.41	53565.50
529.58	53581.88
529.75	53595.93
529.92	53425.07
530.09	53792.53
530.26	53729.34
530.43	53993.82
530.60	53846.36
530.77	53731.68
530.94	53902.54
531.11	53869.77
531.28	53895.52
531.46	54061.69
531.63	53932.96
531.80	53986.80
531.97	54206.81
532.14	54234.89
532.31	54251.28
532.48	54309.79
532.65	54653.85
532.82	54452.56
532.99	54365.96
533.16	54653.85
533.33	54880.88
533.50	54763.85
533.67	54695.98
533.84	54452.56
534.01	54600.02
534.18	55023.65
534.35	55210.90
534.52	55023.65
534.69	54962.80
534.86	55000.25
535.03	54997.91
535.20	55056.42
535.37	55412.18
535.54	55374.73
535.71	55325.58
535.88	55423.89
536.05	55379.42
536.22	55519.85
536.38	55604.11
536.55	55393.46
536.72	55374.73
536.89	55517.51
537.06	55627.51
537.23	55615.81
537.40	55487.08
537.57	55817.10
537.74	55475.38
537.91	55859.23
538.08	55927.10
538.25	55835.82
538.42	55842.84
538.59	56186.90
538.75	55833.48
538.92	56058.17
539.09	56107.32
539.26	56037.11
539.43	56051.15
539.60	56140.09
539.77	56051.15
539.94	56446.70
540.11	56327.33
540.28	56360.10
540.44	56168.18
540.61	56236.05
540.78	56308.61
540.95	56257.12
541.12	56240.73
541.29	56390.53
541.46	56509.89
541.62	56563.73
541.79	56720.54
541.96	56299.25
542.13	56739.27
542.30	56757.99
542.47	56823.53
542.63	56868.00
542.80	56903.10
542.97	56928.85
543.14	57186.31
543.31	57050.56
543.48	57165.24
543.64	57247.16
543.81	57284.61
543.98	57221.42
544.15	57212.06
544.32	57436.75
544.48	57513.98
544.65	57301.00
544.82	57382.91
544.99	57303.34
545.16	57703.57
545.32	57221.42
545.49	57567.82
545.66	57612.29
545.83	57403.98
546.00	57719.95
546.16	57635.69
546.33	57425.04
546.50	57471.85
546.67	57577.18
546.83	57368.87
547.00	57911.88
547.17	57441.43
547.34	57806.55
547.50	57897.83
547.67	57984.43
547.84	57883.79
548.00	57939.96
548.17	58145.93
548.34	58068.69
548.51	58176.36
548.67	58162.31
548.84	58274.66
549.01	58164.65
549.18	58035.92
549.34	58277.00
549.51	58216.14
549.68	58323.81
549.84	58349.56
550.01	58314.45
550.18	58169.33
550.34	58223.17
550.51	58408.07
550.68	58251.25
550.84	58251.25
551.01	58351.90
551.18	58602.33
551.34	58506.37
551.51	58599.99
551.68	58515.73
551.84	58520.41
552.01	58436.16
552.18	58459.56
552.34	58562.54
552.51	58351.90
552.68	58466.58
552.84	58637.44
553.01	58688.93
553.18	58599.99
553.34	58836.39
553.51	58628.08
553.67	58681.91
553.84	58862.13
554.01	58958.09
554.17	59040.01
554.34	58848.09
554.51	58880.86
554.67	58979.16
554.84	58901.92
555.00	59072.78
555.17	58976.82
555.33	58873.84
555.50	59009.59
555.67	58906.60
555.83	59068.10
556.00	59187.47
556.16	59164.06
556.33	59185.13
556.50	59227.26
556.66	59164.06
556.83	59117.25
556.99	59180.45
557.16	59501.10
557.32	59465.99
557.49	59292.79
557.65	59285.77
557.82	59299.81
557.98	59079.80
558.15	59496.42
558.32	59337.26
558.48	59327.90
558.65	59391.09
558.81	59426.20
558.98	59512.80
559.14	59711.75
559.31	59667.28
559.47	59491.74
559.64	59517.48
559.80	59639.19
559.97	59805.37
560.13	59601.74
560.30	59730.47
560.46	59744.51
560.63	59681.32
560.79	59693.02
560.96	59805.37
561.12	59931.76
561.29	60013.68
561.45	59931.76
561.61	59915.37
561.78	59721.11
561.94	59653.23
562.11	59580.68
562.27	59868.56
562.44	59889.63
562.60	60016.02
562.77	59948.14
562.93	59798.35
563.10	60065.17
563.26	59767.92
563.42	60074.53
563.59	59758.56
563.75	59856.86
563.92	59856.86
564.08	60072.19
564.24	60133.04
564.41	60023.04
564.57	60282.84
564.74	60088.57
564.90	60121.34
565.07	60079.21
565.23	59927.08
565.39	59924.74
565.56	60271.14
565.72	59950.48
565.88	60055.81
566.05	60219.64
566.21	60203.26
566.38	60088.57
566.54	60406.89
566.70	60123.68
566.87	60170.49
567.03	60191.56
567.19	60324.97
567.36	60252.41
567.52	60140.07
567.68	60729.88
567.85	60266.45
568.01	60488.80
568.17	60390.50
568.34	60416.25
568.50	60397.52
568.66	60289.86
568.83	60392.84
568.99	60339.01
569.15	60317.95
569.32	60294.54
569.48	60154.11
569.64	60418.59
569.81	60320.29
569.97	60280.50
570.13	60392.84
570.30	60289.86
570.46	60493.49
570.62	60521.57
570.78	60341.35
570.95	60186.88
571.11	60692.43
571.27	60409.23
571.43	60570.72
571.60	60547.32
571.76	60456.04
571.92	60486.46
572.09	60556.68
572.25	60519.23
572.41	60526.25
572.57	60704.13
572.74	60715.84
572.90	60463.06
573.06	60580.09
573.22	60535.62
573.38	60341.35
573.55	60645.62
573.71	60669.03
573.87	60491.15
574.03	60418.59
574.20	60858.61
574.36	60596.47
574.52	60704.13
574.68	60750.94
574.84	60750.94
575.01	60638.60
575.17	60652.64
575.33	60385.82
575.49	60465.40
575.65	60697.11
575.82	60910.10
575.98	60699.45
576.14	60685.41
576.30	60645.62
576.46	60561.36
576.62	60748.60
576.79	60474.76
576.95	60608.17
577.11	60673.71
577.27	60755.63
577.43	60804.78
577.59	60512.21
577.75	60804.78
577.92	60563.70
578.08	60757.97
578.24	60889.04
578.40	60935.85
578.56	60739.24
578.72	60662.00
578.88	60844.57
579.04	61041.17
579.21	60591.79
579.37	60753.29
579.53	60877.33
579.69	60793.07
579.85	60699.45
580.01	60612.85
580.17	60657.32
580.33	60949.89
580.49	60959.25
580.65	61041.17
580.82	60692.43
580.98	60764.99
581.14	60886.70
581.30	60945.21
581.46	60816.48
581.62	60706.47
581.78	60835.20
581.94	60942.87
582.10	60905.42
582.26	60666.69
582.42	60767.33
582.58	60919.46
582.74	60893.72
582.90	60921.80
583.06	61022.45
583.22	60757.97
583.38	60863.29
583.54	60987.34
583.70	60619.88
583.86	61008.40
584.02	60631.58
584.18	61090.32
584.34	60907.76
584.50	60942.87
584.66	60795.42
584.82	60729.88
584.98	61200.33
585.14	61066.92
585.30	60844.57
585.46	61151.18
585.62	60926.49
585.78	61055.21
585.94	60830.52
586.10	60977.98
586.26	60898.40
586.42	60994.36
586.58	61059.90
586.74	60973.30
586.90	61104.37
587.06	60891.38
587.22	61095.00
587.38	60760.31
587.54	60947.55
587.70	61371.19
587.86	60987.34
588.02	60985.00
588.18	61158.20
588.34	61008.40
588.49	60865.63
