SpectraSuite Data File
++++++++++++++++++++++++++++++++++++
Date: Fri Oct 25 10:47:23 EDT 2013
User: price-jones
Dark Spectrum Present: No
Reference Spectrum Present: No
Number of Sampled Component Spectra: 1
Spectrometers: USB2+H05261
Integration Time (usec): 100000 (USB2+H05261)
Spectra Averaged: 1 (USB2+H05261)
Boxcar Smoothing: 0 (USB2+H05261)
Correct for Electrical Dark: No (USB2+H05261)
Strobe/Lamp Enabled: No (USB2+H05261)
Correct for Detector Non-linearity: No (USB2+H05261)
Correct for Stray Light: No (USB2+H05261)
Number of Pixels in Processed Spectrum: 2048
>>>>>Begin Processed Spectral Data<<<<<
365.73	156.82
365.92	156.82
366.12	156.82
366.32	72.56
366.52	35.11
366.72	58.51
366.91	37.45
367.11	42.13
367.31	42.13
367.51	0.00
367.70	35.11
367.90	2.34
368.10	63.19
368.30	65.54
368.49	70.22
368.69	67.88
368.89	102.98
369.09	77.24
369.28	35.11
369.48	49.15
369.68	98.30
369.87	145.11
370.07	88.94
370.27	187.24
370.47	224.69
370.66	365.12
370.86	355.76
371.06	447.04
371.25	418.96
371.45	472.79
371.65	479.81
371.84	496.19
372.04	526.62
372.24	454.06
372.44	409.59
372.63	538.32
372.83	512.58
373.03	491.51
373.22	447.04
373.42	470.45
373.62	564.07
373.81	524.28
374.01	510.24
374.21	540.66
374.40	524.28
374.60	627.26
374.79	540.66
374.99	627.26
375.19	550.03
375.38	528.96
375.58	592.16
375.78	592.16
375.97	496.19
376.17	678.76
376.37	585.13
376.56	610.88
376.76	582.79
376.95	634.29
377.15	650.67
377.35	533.64
377.54	657.69
377.74	585.13
377.93	634.29
378.13	603.86
378.33	627.26
378.52	657.69
378.72	587.47
378.91	589.82
379.11	554.71
379.31	603.86
379.50	624.92
379.70	683.44
379.89	664.71
380.09	603.86
380.28	631.94
380.48	631.94
380.68	697.48
380.87	662.37
381.07	681.10
381.26	648.33
381.46	622.58
381.65	580.45
381.85	685.78
382.04	650.67
382.24	685.78
382.43	615.56
382.63	650.67
382.83	643.65
383.02	692.80
383.22	716.20
383.41	655.35
383.61	657.69
383.80	739.61
384.00	657.69
384.19	758.33
384.39	765.36
384.58	791.10
384.78	873.02
384.97	805.14
385.17	821.53
385.36	777.06
385.56	741.95
385.75	758.33
385.95	732.59
386.14	863.66
386.34	753.65
386.53	788.76
386.72	833.23
386.92	774.72
387.11	868.34
387.31	798.12
387.50	823.87
387.70	772.38
387.89	821.53
388.09	936.21
388.28	821.53
388.48	866.00
388.67	887.06
388.86	917.49
389.06	873.02
389.25	891.74
389.45	1018.13
389.64	922.17
389.84	943.24
390.03	976.00
390.22	994.73
390.42	898.77
390.61	943.24
390.81	840.25
391.00	936.21
391.19	959.62
391.39	985.37
391.58	936.21
391.78	950.26
391.97	940.90
392.16	987.71
392.36	978.34
392.55	992.39
392.75	976.00
392.94	1053.24
393.13	922.17
393.33	931.53
393.52	1015.79
393.71	1090.69
393.91	1083.67
394.10	1114.10
394.29	987.71
394.49	1151.54
394.68	1121.12
394.88	1093.03
395.07	1083.67
395.26	1149.20
395.46	1245.16
395.65	1205.38
395.84	1200.69
396.04	1174.95
396.23	1100.05
396.42	1156.22
396.62	1165.59
396.81	1146.86
397.00	1137.50
397.19	1252.19
397.39	1233.46
397.58	1254.53
397.77	1247.51
397.97	1357.51
398.16	1301.34
398.35	1263.89
398.55	1252.19
398.74	1268.57
398.93	1287.29
399.12	1308.36
399.32	1369.21
399.51	1287.29
399.70	1334.11
399.90	1437.09
400.09	1296.66
400.28	1352.83
400.47	1355.17
400.67	1444.11
400.86	1481.56
401.05	1434.75
401.24	1500.28
401.44	1586.88
401.63	1577.52
401.82	1561.14
402.01	1533.05
402.21	1486.24
402.40	1465.18
402.59	1469.86
402.78	1605.61
402.97	1558.80
403.17	1591.56
403.36	1640.72
403.55	1621.99
403.74	1647.74
403.93	1682.85
404.13	1549.43
404.32	1668.80
404.51	1706.25
404.70	1659.44
404.89	1762.42
405.09	1792.85
405.28	1640.72
405.47	1687.53
405.66	1853.70
405.85	1774.13
406.05	1652.42
406.24	1781.15
406.43	1891.15
406.62	1849.02
406.81	2003.50
407.00	1813.92
407.20	1785.83
407.39	1842.00
407.58	1837.32
407.77	2033.93
407.96	1877.11
408.15	1954.35
408.34	2003.50
408.54	2036.27
408.73	2033.93
408.92	2150.95
409.11	2125.21
409.30	2083.08
409.49	2040.95
409.68	2045.63
409.87	1989.46
410.07	2125.21
410.26	2153.29
410.45	2181.38
410.64	2312.45
410.83	2284.36
411.02	2239.89
411.21	2377.98
411.40	2200.10
411.59	2267.98
411.78	2342.88
411.98	2267.98
412.17	2286.70
412.36	2363.94
412.55	2424.80
412.74	2509.05
412.93	2583.95
413.12	2408.41
413.31	2665.87
413.50	2572.25
413.69	2579.27
413.88	2600.34
414.07	2590.97
414.26	2668.21
414.45	2675.23
414.64	2583.95
414.83	2670.55
415.02	2679.91
415.22	2836.73
415.41	2850.77
415.60	2663.53
415.79	2820.35
415.98	2970.14
416.17	2928.01
416.36	2897.58
416.55	2925.67
416.74	2836.73
416.93	3019.29
417.12	2986.52
417.31	3016.95
417.50	2970.14
417.69	3119.93
417.88	3042.70
418.07	2970.14
418.26	3126.96
418.45	3260.37
418.64	3229.94
418.83	3171.43
419.02	3192.49
419.21	3204.19
419.39	3274.41
419.58	3110.57
419.77	3227.60
419.96	3222.92
420.15	3375.05
420.34	3323.56
420.53	3454.63
420.72	3400.80
420.91	3489.74
421.10	3602.08
421.29	3506.12
421.48	3489.74
421.67	3557.61
421.86	3480.38
422.05	3545.91
422.24	3449.95
422.43	3522.51
422.61	3419.52
422.80	3517.83
422.99	3550.59
423.18	3550.59
423.37	3609.11
423.56	3396.12
423.75	3581.02
423.94	3393.78
424.13	3361.01
424.32	3471.01
424.50	3456.97
424.69	3630.17
424.88	3627.83
425.07	3398.46
425.26	3564.64
425.45	3559.95
425.64	3492.08
425.83	3571.66
426.01	3751.88
426.20	3501.44
426.39	3559.95
426.58	3595.06
426.77	3459.31
426.96	3751.88
427.15	3611.45
427.33	3754.22
427.52	3592.72
427.71	3873.59
427.90	3831.46
428.09	3763.58
428.28	3812.73
428.46	3770.60
428.65	3854.86
428.84	3857.20
429.03	3871.25
429.22	3852.52
429.40	3887.63
429.59	3796.35
429.78	3597.40
429.97	3557.61
430.16	3709.75
430.34	3915.72
430.53	3868.91
430.72	3960.19
430.91	3864.22
431.10	3950.82
431.28	4138.07
431.47	4095.94
431.66	4156.79
431.85	4112.32
432.03	4238.71
432.22	4177.86
432.41	4229.35
432.60	4145.09
432.79	4346.37
432.97	4250.41
433.16	4367.44
433.35	4163.81
433.54	4306.59
433.72	4383.82
433.91	4135.73
434.10	4510.21
434.28	4390.84
434.47	4365.10
434.66	4440.00
434.85	4315.95
435.03	4498.51
435.22	4500.85
435.41	4660.01
435.59	4552.34
435.78	4713.84
435.97	4557.02
436.16	4748.95
436.34	4720.86
436.53	4601.49
436.72	4585.11
436.90	4608.51
437.09	4709.16
437.28	4554.68
437.46	4582.77
437.65	4660.01
437.84	4603.83
438.02	4779.37
438.21	4793.42
438.40	4755.97
438.58	4856.61
438.77	4847.25
438.96	4915.12
439.14	5076.62
439.33	5067.26
439.52	5074.28
439.70	5144.50
439.89	5146.84
440.08	5088.32
440.26	5121.09
440.45	5266.21
440.63	5301.31
440.82	5296.63
441.01	5341.10
441.19	5322.38
441.38	5624.31
441.57	5565.79
441.75	5598.56
441.94	5668.78
442.12	5549.41
442.31	5523.66
442.50	5729.63
442.68	5636.01
442.87	5640.69
443.05	5657.07
443.24	5767.08
443.43	5748.36
443.61	5893.47
443.80	5961.34
443.98	5834.96
444.17	5647.71
444.35	5715.59
444.54	5909.85
444.73	5816.23
444.91	5884.11
445.10	5884.11
445.28	5851.34
445.47	5753.04
445.65	5860.70
445.84	5940.28
446.02	6017.52
446.21	5884.11
446.39	5881.77
446.58	6104.12
446.77	6038.58
446.95	6017.52
447.14	6207.10
447.32	6008.16
447.51	6019.86
447.69	6211.78
447.88	6083.05
448.06	6202.42
448.25	6160.29
448.43	6169.65
448.62	5959.00
448.80	6113.48
448.99	6251.57
449.17	6326.47
449.36	6167.31
449.54	6314.77
449.73	6394.34
449.91	6328.81
450.10	6473.92
450.28	6593.29
450.46	6452.86
450.65	6471.58
450.83	6478.60
451.02	6469.24
451.20	6572.22
451.39	6457.54
451.57	6459.88
451.76	6485.62
451.94	6551.16
452.13	6469.24
452.31	6647.12
452.49	6588.61
452.68	6668.19
452.86	6525.41
453.05	6693.93
453.23	6696.27
453.42	6597.97
453.60	6581.59
453.78	6619.04
453.97	6715.00
454.15	6600.31
454.34	6689.25
454.52	6857.77
454.70	6839.05
454.89	6862.45
455.07	7042.67
455.26	6874.15
455.44	6862.45
455.62	7052.03
455.81	6846.07
455.99	7201.83
456.17	7103.53
456.36	7040.33
456.54	7084.80
456.73	7290.77
456.91	7379.71
457.09	7438.22
457.28	7438.22
457.46	7061.40
457.64	7405.46
457.83	7389.07
458.01	7112.89
458.19	7653.55
458.38	7499.08
458.56	7391.41
458.74	7456.95
458.93	7405.46
459.11	7552.91
459.29	7522.48
459.48	7534.18
459.66	7510.78
459.84	7786.96
460.03	7927.39
460.21	7936.76
460.39	7754.19
460.57	7651.21
460.76	7803.35
460.94	7791.64
461.12	7918.03
461.31	7784.62
461.49	7768.24
461.67	7829.09
461.85	8053.78
462.04	8042.08
462.22	8395.50
462.40	8224.64
462.59	7999.95
462.77	8140.38
462.95	8107.62
463.13	8173.15
463.32	8121.66
463.50	8229.32
463.68	8226.98
463.86	8161.45
464.05	8025.70
464.23	8095.91
464.41	8210.60
464.59	8177.83
464.78	8386.14
464.96	8238.69
465.14	8208.26
465.32	8493.80
465.50	8491.46
465.69	8442.31
465.87	8458.70
466.05	8266.77
466.23	8449.33
466.41	8255.07
466.60	8863.61
466.78	8205.92
466.96	8446.99
467.14	8379.12
467.32	8367.42
467.51	8929.14
467.69	8449.33
467.87	8720.84
468.05	8542.96
468.23	8620.19
468.41	8629.56
468.60	8711.47
468.78	8774.67
468.96	8624.87
469.14	8788.71
469.32	8901.06
469.50	8748.92
469.69	8908.08
469.87	8865.95
470.05	8901.06
470.23	9048.51
470.41	9167.88
470.59	9160.86
470.77	9116.39
470.95	9071.92
471.14	9142.13
471.32	9193.62
471.50	9593.86
471.68	9373.85
471.86	9476.83
472.04	9528.32
472.22	9607.90
472.40	9415.98
472.58	9444.06
472.77	9577.47
472.95	9586.83
473.13	9966.00
473.31	9687.48
473.49	9666.41
473.67	9998.77
473.85	9689.82
474.03	10015.15
474.21	9968.34
474.39	10115.80
474.57	9982.38
474.75	10232.82
474.93	10092.39
475.12	10420.06
475.30	10291.34
475.48	10387.30
475.66	10487.94
475.84	10424.75
476.02	10359.21
476.20	10707.95
476.38	10455.17
476.56	10637.73
476.74	10855.40
476.92	10766.46
477.10	10813.28
477.28	11042.65
477.46	11136.27
477.64	10974.77
477.82	11557.57
478.00	11358.62
478.18	11379.68
478.36	11250.96
478.54	11463.94
478.72	11733.11
478.90	11889.92
479.08	11798.64
479.26	12037.38
479.44	12184.83
479.62	12098.23
479.80	12259.73
479.98	12250.36
480.16	12585.06
480.34	12503.14
480.52	12482.08
480.70	12465.69
480.88	12573.36
481.06	12910.40
481.24	12676.34
481.41	12952.52
481.59	13149.13
481.77	13057.85
481.95	13158.49
482.13	13308.29
482.31	13275.52
482.49	13518.93
482.67	13525.96
482.85	13682.77
483.03	14190.67
483.21	14057.26
483.39	14157.90
483.57	14139.18
483.74	14328.76
483.92	14256.20
484.10	14417.70
484.28	14527.71
484.46	14977.09
484.64	15005.17
484.82	14654.09
485.00	15157.31
485.18	14986.45
485.35	15176.03
485.53	15346.89
485.71	15208.80
485.89	15297.74
486.07	15398.38
486.25	15709.68
486.43	15407.75
486.61	15955.43
486.78	15873.51
486.96	16100.55
487.14	16255.02
487.32	16245.66
487.50	16776.96
487.68	16774.62
487.85	17067.19
488.03	17114.00
488.21	17167.83
488.39	17123.36
488.57	17467.42
488.75	17535.29
488.92	17811.48
489.10	17802.11
489.28	17825.52
489.46	18335.76
489.64	18183.62
489.81	18361.50
489.99	18595.56
490.17	18501.93
490.35	18946.64
490.53	18754.71
490.70	19028.56
490.88	18459.81
491.06	19309.42
491.24	19208.78
491.41	19080.05
491.59	19180.69
491.77	19410.06
491.95	19461.55
492.13	19892.21
492.30	19941.36
492.48	20144.99
492.66	20109.88
492.84	20290.10
493.01	20404.79
493.19	20262.02
493.37	20711.40
493.54	20589.69
493.72	20847.15
493.90	20980.56
494.08	21022.69
494.25	21357.39
494.43	21649.96
494.61	21291.85
494.79	21556.33
494.96	21568.04
495.14	21893.37
495.32	21785.71
495.49	21998.70
495.67	22068.91
495.85	22136.79
496.02	22476.16
496.20	22522.98
496.38	22672.77
496.55	22684.47
496.73	23000.44
496.91	23101.09
497.09	23232.16
497.26	23075.34
497.44	23126.83
497.62	23330.46
497.79	23737.71
497.97	23452.17
498.14	23807.93
498.32	23740.05
498.50	24072.41
498.67	24074.75
498.85	24189.44
499.03	24311.14
499.20	24704.35
499.38	24500.73
499.56	24620.10
499.73	24568.60
499.91	24486.68
500.08	24737.12
500.26	24711.38
500.44	24835.42
500.61	25256.72
500.79	25010.96
500.97	25205.23
501.14	25729.51
501.32	25277.79
501.49	25256.72
501.67	25460.35
501.84	25488.43
502.02	25717.81
502.20	25923.77
502.37	25956.54
502.55	25984.63
502.72	25986.97
502.90	25963.56
503.07	25956.54
503.25	26513.59
503.43	26223.36
503.60	26190.59
503.78	25991.65
503.95	26342.73
504.13	26473.80
504.30	26862.33
504.48	27138.51
504.65	27255.54
504.83	26855.31
505.01	27115.11
505.18	27089.36
505.36	27758.75
505.53	27288.31
505.71	27880.46
505.88	27534.06
506.06	27463.85
506.23	27601.94
506.41	27283.62
506.58	27541.08
506.76	27931.95
506.93	28290.06
507.11	27934.29
507.28	28067.70
507.46	28308.78
507.63	28020.89
507.81	28641.14
507.98	28030.26
508.16	28589.64
508.33	28472.62
508.50	28872.85
508.68	28360.27
508.85	29261.38
509.03	28725.39
509.20	28938.38
509.38	29097.54
509.55	29626.50
509.73	29244.99
509.90	29455.64
510.08	29305.85
510.25	29340.96
510.42	29619.48
510.60	29523.52
510.77	29638.20
510.95	30040.78
511.12	30047.80
511.30	29900.34
511.47	30396.54
511.64	30604.84
511.82	30197.59
511.99	30157.80
512.17	30363.77
512.34	30560.37
512.51	30424.62
512.69	30806.13
512.86	30871.67
513.04	31051.89
513.21	30927.84
513.38	30803.79
513.56	31152.53
513.73	30841.24
513.90	31456.80
514.08	31185.30
514.25	31262.54
514.43	31505.95
514.60	31505.95
514.77	31204.02
514.95	31632.34
515.12	31494.25
515.29	31468.50
515.47	31835.97
515.64	31686.17
515.81	31548.08
515.99	31955.33
516.16	31833.63
516.33	31960.02
516.51	32135.56
516.68	31819.58
516.85	31269.56
517.03	31833.63
517.20	32032.57
517.37	32554.51
517.54	32364.93
517.72	32371.95
517.89	32205.77
518.06	32484.30
518.24	32568.55
518.41	32250.24
518.58	32816.65
518.75	32407.06
518.93	32725.37
519.10	32879.85
519.27	33284.76
519.45	32734.73
519.62	33720.10
519.79	33354.97
519.96	33439.23
520.14	33727.12
520.31	33621.80
520.48	33851.17
520.65	33563.28
520.83	33736.48
521.00	33869.89
521.17	34167.14
521.34	33802.02
521.52	33970.54
521.69	34129.69
521.86	34132.03
522.03	34235.02
522.20	34384.81
522.38	34422.26
522.55	34504.18
522.72	34522.90
522.89	34789.72
523.07	34686.74
523.24	34403.53
523.41	34600.14
523.58	34668.02
523.75	34799.08
523.92	34944.20
524.10	35164.21
524.27	35232.08
524.44	35196.98
524.61	35608.91
524.78	35070.59
524.96	35281.24
525.13	35517.63
525.30	35959.99
525.47	35929.56
525.64	35491.88
525.81	35615.93
525.98	35594.87
526.16	35468.48
526.33	35466.14
526.50	35934.24
526.67	35477.84
526.84	35447.41
527.01	35592.53
527.18	35892.12
527.36	36175.32
527.53	35967.01
527.70	36362.56
527.87	36229.15
528.04	36278.30
528.21	36273.62
528.38	36655.13
528.55	36753.43
528.72	36737.05
528.89	37156.00
529.07	36804.92
529.24	36273.62
529.41	36825.99
529.58	36744.07
529.75	36858.76
529.92	36783.86
530.09	37060.04
530.26	37336.23
530.43	37099.83
530.60	37228.56
530.77	37134.94
530.94	37088.13
531.11	37352.61
531.28	37565.60
531.46	37677.94
531.63	37780.93
531.80	37652.20
531.97	37219.20
532.14	37364.31
532.31	37401.76
532.48	37921.36
532.65	37806.67
532.82	37757.52
532.99	38335.63
533.16	37818.38
533.33	37879.23
533.50	37996.26
533.67	38064.13
533.84	38232.65
534.01	38143.71
534.18	38225.63
534.35	38274.78
534.52	38534.58
534.69	38550.96
534.86	38583.73
535.03	38380.10
535.20	38721.82
535.37	38607.14
535.54	38670.33
535.71	38719.48
535.88	38773.31
536.05	38721.82
536.22	38752.25
536.38	38403.51
536.55	38611.82
536.72	38780.34
536.89	39047.16
537.06	38752.25
537.23	39175.89
537.40	38927.79
537.57	39161.84
537.74	39192.27
537.91	39512.92
538.08	39150.14
538.25	39332.70
538.42	39683.78
538.59	39590.16
538.75	38808.42
538.92	39473.13
539.09	39365.47
539.26	39943.58
539.43	39555.05
539.60	39667.40
539.77	39957.63
539.94	39772.72
540.11	39810.17
540.28	39548.03
540.44	39903.79
540.61	39405.26
540.78	39948.26
540.95	39903.79
541.12	39887.41
541.29	39856.98
541.46	40018.48
541.62	40273.60
541.79	40016.14
541.96	39955.29
542.13	40154.23
542.30	40074.65
542.47	40350.84
542.63	40549.78
542.80	40240.83
542.97	40636.38
543.14	40727.66
543.31	41214.49
543.48	40519.35
543.64	41404.08
543.81	41010.87
543.98	40584.89
544.15	40687.87
544.32	41186.41
544.48	41368.97
544.65	41242.58
544.82	41240.24
544.99	40598.93
545.16	41095.13
545.32	41364.29
545.49	41392.37
545.66	41860.48
545.83	40996.82
546.00	41759.84
546.16	41855.80
546.33	41668.56
546.50	41064.70
546.67	41240.24
546.83	41031.93
547.00	41127.89
547.17	41521.10
547.34	41235.56
547.50	41762.18
547.67	41488.34
547.84	41394.71
548.00	41769.20
548.17	41736.43
548.34	41790.27
548.51	41841.76
548.67	42038.36
548.84	42398.80
549.01	42014.96
549.18	41855.80
549.34	42174.11
549.51	42501.79
549.68	41525.78
549.84	42054.75
550.01	42265.39
550.18	42405.83
550.34	42359.02
550.51	42431.57
550.68	42256.03
550.84	41717.71
551.01	42054.75
551.18	42213.90
551.34	42239.65
551.51	42359.02
551.68	42333.27
551.84	42731.16
552.01	42759.25
552.18	42410.51
552.34	42307.52
552.51	42286.46
552.68	42705.41
552.84	42487.74
553.01	42981.60
553.18	42742.86
553.34	42761.59
553.51	42520.51
553.67	42756.91
553.84	42656.26
554.01	42920.74
554.17	43489.49
554.34	43407.58
554.51	43192.25
554.67	42974.58
554.84	42981.60
555.00	43093.94
555.17	42845.85
555.33	43075.22
555.50	43171.18
555.67	43089.26
555.83	43054.15
556.00	43178.20
556.16	43274.16
556.33	43342.04
556.50	43243.74
556.66	42895.00
556.83	43550.35
556.99	43353.74
557.16	43239.06
557.32	43318.64
557.49	43339.70
557.65	42820.10
557.82	43093.94
557.98	43515.24
558.15	43091.60
558.32	43571.41
558.48	43402.89
558.65	43824.19
558.81	43360.76
558.98	43470.77
559.14	43391.19
559.31	43206.29
559.47	43674.40
559.64	43533.96
559.80	44102.71
559.97	43718.87
560.13	43456.73
560.30	43749.29
560.46	43473.11
560.63	43756.32
560.79	43798.44
560.96	44151.87
561.12	43875.68
561.29	43892.07
561.45	43367.79
561.61	43810.15
561.78	43650.99
561.94	43655.67
562.11	44210.38
562.27	43957.60
562.44	43669.72
562.60	44514.65
562.77	44346.13
562.93	43604.18
563.10	44018.46
563.26	43866.32
563.42	44285.28
563.59	43688.44
563.75	43997.39
563.92	44240.81
564.08	43981.01
564.24	44402.30
564.41	44383.58
564.57	44292.30
564.74	44397.62
564.90	44194.00
565.07	44158.89
565.23	43859.30
565.39	44079.31
565.56	43948.24
565.72	44175.27
565.88	44172.93
566.05	44172.93
566.21	44261.87
566.38	43948.24
566.54	44479.54
566.70	44081.65
566.87	44849.35
567.03	44095.69
567.19	44713.59
567.36	44306.34
567.52	44088.67
567.68	44458.48
567.85	44463.16
568.01	44748.70
568.17	44083.99
568.34	44720.62
568.50	44509.97
568.66	44261.87
568.83	44458.48
568.99	44484.22
569.15	44198.68
569.32	44495.92
569.48	44149.53
569.64	44460.82
569.81	44296.98
569.97	44329.75
570.13	44519.33
570.30	44069.95
570.46	44079.31
570.62	44444.43
570.78	44509.97
570.95	44205.70
571.11	44751.04
571.27	44416.35
571.43	44507.63
571.60	44947.65
571.76	44243.15
571.92	44357.83
572.09	44376.56
572.25	44900.84
572.41	44093.35
572.57	44615.29
572.74	45118.51
572.90	44671.46
573.06	44556.78
573.22	44935.95
573.38	44734.66
573.55	44322.72
573.71	45010.84
573.87	44954.67
574.03	44479.54
574.20	44708.91
574.36	44362.51
574.52	44734.66
574.68	44999.14
574.84	45177.02
575.01	44769.77
575.17	44893.82
575.33	45017.86
575.49	44718.28
575.65	45249.58
575.82	45015.52
575.98	44879.77
576.14	45055.31
576.30	44669.12
576.46	44488.90
576.62	44622.31
576.79	44486.56
576.95	44725.30
577.11	44671.46
577.27	44545.08
577.43	45141.91
577.59	44650.40
577.75	44744.02
577.92	44683.17
578.08	44561.46
578.24	44458.48
578.40	44875.09
578.56	44421.03
578.72	44690.19
578.88	45230.85
579.04	45036.59
579.21	44849.35
579.37	44318.04
579.53	44685.51
579.69	44570.82
579.85	44882.11
580.01	44954.67
580.17	45186.38
580.33	45202.77
580.49	44774.45
580.65	45333.84
580.82	45361.92
580.98	44886.79
581.14	44971.05
581.30	44928.92
581.46	44877.43
581.62	45092.76
581.78	44751.04
581.94	45366.60
582.10	45052.97
582.26	45081.06
582.42	44732.32
582.58	44919.56
582.74	44472.52
582.90	45010.84
583.06	44973.39
583.22	45064.67
583.38	45198.09
583.54	44992.12
583.70	44683.17
583.86	44414.01
584.02	44727.64
584.18	44879.77
584.34	44638.70
584.50	45062.33
584.66	44966.37
584.82	44554.44
584.98	45174.68
585.14	45303.41
585.30	44776.79
585.46	44949.99
585.62	44491.24
585.78	44987.44
585.94	44238.47
586.10	44961.69
586.26	44603.59
586.42	45209.79
586.58	44966.37
586.74	44765.09
586.90	44804.88
587.06	44926.58
587.22	44903.18
587.38	45010.84
587.54	45179.36
587.70	45219.15
587.86	45109.14
588.02	44828.28
588.18	45240.21
588.34	44924.24
588.49	44858.71
588.65	44729.98
588.81	44465.50
588.97	44842.32
589.13	44919.56
589.29	44669.12
589.45	45237.87
589.61	45265.96
589.77	45773.86
589.93	44966.37
590.08	45298.73
590.24	45354.90
