SpectraSuite Data File
++++++++++++++++++++++++++++++++++++
Date: Fri Oct 25 11:25:14 EDT 2013
User: price-jones
Dark Spectrum Present: No
Reference Spectrum Present: No
Number of Sampled Component Spectra: 1
Spectrometers: USB2+H05261
Integration Time (usec): 100000 (USB2+H05261)
Spectra Averaged: 1 (USB2+H05261)
Boxcar Smoothing: 0 (USB2+H05261)
Correct for Electrical Dark: No (USB2+H05261)
Strobe/Lamp Enabled: No (USB2+H05261)
Correct for Detector Non-linearity: No (USB2+H05261)
Correct for Stray Light: No (USB2+H05261)
Number of Pixels in Processed Spectrum: 2048
>>>>>Begin Processed Spectral Data<<<<<
365.73	234.05
365.92	234.05
366.12	234.05
366.32	217.67
366.52	194.26
366.72	189.58
366.91	84.26
367.11	119.37
367.31	63.19
367.51	93.62
367.70	112.35
367.90	112.35
368.10	166.18
368.30	114.69
368.49	95.96
368.69	170.86
368.89	229.37
369.09	135.75
369.28	208.31
369.48	163.84
369.68	131.07
369.87	201.29
370.07	201.29
370.27	201.29
370.47	353.42
370.66	631.94
370.86	655.35
371.06	688.12
371.25	725.57
371.45	655.35
371.65	727.91
371.84	727.91
372.04	695.14
372.24	716.20
372.44	692.80
372.63	660.03
372.83	798.12
373.03	765.36
373.22	716.20
373.42	788.76
373.62	777.06
373.81	777.06
374.01	786.42
374.21	851.96
374.40	784.08
374.60	819.19
374.79	873.02
374.99	744.29
375.19	781.74
375.38	830.89
375.58	875.36
375.78	854.30
375.97	861.32
376.17	919.83
376.37	894.08
376.56	837.91
376.76	938.55
376.95	856.64
377.15	828.55
377.35	889.40
377.54	929.19
377.74	940.90
377.93	992.39
378.13	938.55
378.33	908.13
378.52	884.72
378.72	964.30
378.91	938.55
379.11	992.39
379.31	915.15
379.50	933.87
379.70	933.87
379.89	945.58
380.09	1025.15
380.28	952.60
380.48	929.19
380.68	980.68
380.87	1020.47
381.07	1060.26
381.26	1097.71
381.46	1083.67
381.65	1041.54
381.85	1008.77
382.04	1109.41
382.24	1057.92
382.43	1008.77
382.63	1043.88
382.83	1034.52
383.02	1121.12
383.22	1121.12
383.41	1060.26
383.61	1114.10
383.80	1107.07
384.00	1153.88
384.19	1062.60
384.39	1128.14
384.58	1128.14
384.78	1144.52
384.97	1067.28
385.17	1046.22
385.36	1067.28
385.56	1217.08
385.75	1186.65
385.95	1198.35
386.14	1160.91
386.34	1123.46
386.53	1135.16
386.72	1170.27
386.92	1249.85
387.11	1144.52
387.31	1245.16
387.50	1217.08
387.70	1357.51
387.89	1252.19
388.09	1207.72
388.28	1317.72
388.48	1306.02
388.67	1315.38
388.86	1364.53
389.06	1385.60
389.25	1317.72
389.45	1373.89
389.64	1390.28
389.84	1366.87
390.03	1451.13
390.22	1313.04
390.42	1331.76
390.61	1329.42
390.81	1416.02
391.00	1476.88
391.19	1385.60
391.39	1423.05
391.58	1376.24
391.78	1448.79
391.97	1458.15
392.16	1434.75
392.36	1624.33
392.55	1504.96
392.75	1523.69
392.94	1469.86
393.13	1617.31
393.33	1516.67
393.52	1554.12
393.71	1593.90
393.91	1507.30
394.10	1551.78
394.29	1563.48
394.49	1664.12
394.68	1643.06
394.88	1624.33
395.07	1708.59
395.26	1675.82
395.46	1671.14
395.65	1652.42
395.84	1755.40
396.04	1870.09
396.23	1750.72
396.42	1652.42
396.62	1778.81
396.81	1748.38
397.00	1757.74
397.19	1863.07
397.39	1762.42
397.58	1947.33
397.77	1753.06
397.97	1851.36
398.16	1825.62
398.35	1865.41
398.55	1771.79
398.74	1804.55
398.93	2071.37
399.12	1975.41
399.32	1830.30
399.51	2024.56
399.70	1954.35
399.90	1973.07
400.09	2054.99
400.28	2017.54
400.47	2087.76
400.67	2087.76
400.86	2031.58
401.05	2069.03
401.24	2047.97
401.44	2059.67
401.63	2136.91
401.82	2094.78
402.01	2054.99
402.21	2183.72
402.40	2169.68
402.59	2052.65
402.78	2150.95
402.97	2157.97
403.17	2235.21
403.36	2251.60
403.55	2157.97
403.74	2417.77
403.93	2399.05
404.13	2382.67
404.32	2380.32
404.51	2473.95
404.70	2420.11
404.89	2429.48
405.09	2445.86
405.28	2523.10
405.47	2464.58
405.66	2497.35
405.85	2518.42
406.05	2438.84
406.24	2551.18
406.43	2555.86
406.62	2597.99
406.81	2651.83
407.00	2593.31
407.20	2602.68
407.39	2614.38
407.58	2675.23
407.77	2605.02
407.96	2773.53
408.15	2665.87
408.34	2726.72
408.54	2799.28
408.73	2661.19
408.92	2829.71
409.11	2860.13
409.30	2862.48
409.49	2780.56
409.68	2902.26
409.87	2986.52
410.07	2834.39
410.26	2991.20
410.45	2998.23
410.64	2984.18
410.83	3052.06
411.02	3101.21
411.21	3035.67
411.40	3112.91
411.59	3290.79
411.78	3124.62
411.98	3258.03
412.17	3253.34
412.36	3309.52
412.55	3353.99
412.74	3372.71
412.93	3459.31
413.12	3318.88
413.31	3592.72
413.50	3447.61
413.69	3506.12
413.88	3475.70
414.07	3452.29
414.26	3669.96
414.45	3581.02
414.64	3684.00
414.83	3688.68
415.02	3819.75
415.22	3805.71
415.41	3894.65
415.60	3911.04
415.79	3864.22
415.98	4074.87
416.17	3929.76
416.36	3822.09
416.55	3969.55
416.74	4112.32
416.93	4070.19
417.12	4081.89
417.31	4168.49
417.50	4184.88
417.69	4355.74
417.88	4152.11
418.07	4234.03
418.26	4283.18
418.45	4304.25
418.64	4348.72
418.83	4386.16
419.02	4395.53
419.21	4381.48
419.39	4521.92
419.58	4461.06
419.77	4393.19
419.96	4601.49
420.15	4660.01
420.34	4545.32
420.53	4601.49
420.72	4704.48
420.91	4711.50
421.10	4660.01
421.29	4777.03
421.48	4493.83
421.67	4699.80
421.86	4730.22
422.05	4734.90
422.24	4819.16
422.43	4744.27
422.61	4905.76
422.80	4896.40
422.99	4840.23
423.18	4980.66
423.37	4973.64
423.56	4957.25
423.75	4908.10
423.94	4772.35
424.13	4599.15
424.32	4847.25
424.50	4940.87
424.69	5097.69
424.88	5071.94
425.07	4952.57
425.26	4957.25
425.45	4849.59
425.64	5055.56
425.83	4887.04
426.01	5043.85
426.20	5022.79
426.39	4936.19
426.58	5032.15
426.77	5006.41
426.96	5130.45
427.15	5088.32
427.33	5177.26
427.52	5027.47
427.71	5151.52
427.90	5221.74
428.09	5146.84
428.28	5294.29
428.46	5366.85
428.65	5397.28
428.84	5462.81
429.03	5488.56
429.22	5135.14
429.40	5453.45
429.59	5441.75
429.78	5266.21
429.97	5200.67
430.16	5331.74
430.34	5369.19
430.53	5701.54
430.72	5755.38
430.91	5720.27
431.10	5661.76
431.28	5757.72
431.47	5778.78
431.66	5856.02
431.85	5937.94
432.03	5816.23
432.22	5858.36
432.41	5776.44
432.60	5809.21
432.79	5980.07
432.97	6104.12
433.16	5919.21
433.35	5912.19
433.54	6001.13
433.72	6106.46
433.91	5994.11
434.10	6022.20
434.28	6045.60
434.47	6019.86
434.66	6342.85
434.85	6342.85
435.03	6387.32
435.22	6251.57
435.41	6469.24
435.59	6303.06
435.78	6401.37
435.97	6321.79
436.16	6347.53
436.34	6417.75
436.53	6410.73
436.72	6494.99
436.90	6415.41
437.09	6530.09
437.28	6494.99
437.46	6349.87
437.65	6647.12
437.84	6658.82
438.02	6654.14
438.21	6757.13
438.40	6722.02
438.58	6939.69
438.77	6995.86
438.96	7061.40
439.14	7037.99
439.33	7377.37
439.52	7014.59
439.70	7218.21
439.89	7363.33
440.08	7377.37
440.26	7445.24
440.45	7346.94
440.63	7279.07
440.82	7517.80
441.01	7571.63
441.19	7515.46
441.38	7562.27
441.57	7639.51
441.75	7819.73
441.94	7906.33
442.12	7908.67
442.31	7899.31
442.50	8060.80
442.68	8011.65
442.87	7859.52
443.05	8119.32
443.24	8156.77
443.43	8006.97
443.61	8154.43
443.80	8301.88
443.98	7793.98
444.17	7782.28
444.35	8194.22
444.54	8376.78
444.73	7981.23
444.91	8327.63
445.10	8287.84
445.28	8217.62
445.47	8311.24
445.65	8315.92
445.84	8461.04
446.02	8336.99
446.21	8236.35
446.39	8266.77
446.58	8304.22
446.77	8297.20
446.95	8241.03
447.14	8493.80
447.32	8491.46
447.51	8318.26
447.69	8402.52
447.88	8304.22
448.06	8409.54
448.25	8442.31
448.43	8325.29
448.62	8269.11
448.80	8470.40
448.99	8648.28
449.17	8484.44
449.36	8671.68
449.54	8753.60
449.73	8964.25
449.91	8894.04
450.10	8990.00
450.28	8992.34
450.46	8894.04
450.65	8837.86
450.83	9100.00
451.02	9193.62
451.20	9118.73
451.39	9160.86
451.57	9109.36
451.76	9025.11
451.94	9263.84
452.13	9156.18
452.31	9252.14
452.49	8940.85
452.68	9273.20
452.86	9305.97
453.05	9212.35
453.23	9525.98
453.42	9212.35
453.60	9554.07
453.78	9448.74
453.97	9439.38
454.15	9312.99
454.34	9373.85
454.52	9565.77
454.70	9724.93
454.89	9865.36
455.07	9727.27
455.26	9863.02
455.44	9987.07
455.62	9994.09
455.81	9760.03
455.99	9832.59
456.17	9928.55
456.36	10031.54
456.54	10052.60
456.73	10171.97
456.91	10413.04
457.09	10307.72
457.28	10541.77
457.46	10174.31
457.64	10478.58
457.83	10363.89
458.01	10438.79
458.19	10562.84
458.38	10462.19
458.56	10576.88
458.74	10527.73
458.93	10693.91
459.11	10696.25
459.29	10665.82
459.48	10483.26
459.66	10761.78
459.84	10885.83
460.03	10979.45
460.21	10897.53
460.39	10637.73
460.57	10970.09
460.76	10864.77
460.94	11002.86
461.12	11091.80
461.31	11075.42
461.49	11082.44
461.67	10995.84
461.85	11272.02
462.04	11304.79
462.22	11531.82
462.40	11646.51
462.59	11524.80
462.77	11480.33
462.95	11372.66
463.13	11300.11
463.32	11777.58
463.50	11674.59
463.68	11819.71
463.86	11880.56
464.05	11646.51
464.23	11543.52
464.41	11866.52
464.59	11632.46
464.78	12166.10
464.96	11932.05
465.14	11751.83
465.32	11882.90
465.50	12112.27
465.69	12049.08
465.87	12145.04
466.05	12072.48
466.23	11934.39
466.41	11852.47
466.60	12100.57
466.78	12081.85
466.96	12011.63
467.14	12166.10
467.32	12152.06
467.51	12287.81
467.69	11983.54
467.87	12381.43
468.05	12203.55
468.23	12152.06
468.41	12135.68
468.60	12606.13
468.78	12533.57
468.96	12695.07
469.14	12702.09
469.32	12912.74
469.50	12615.49
469.69	12982.95
469.87	12814.43
470.05	12802.73
470.23	12854.22
470.41	13137.43
470.59	12734.85
470.77	13015.72
470.95	12929.12
471.14	13626.60
471.32	13114.02
471.50	13572.77
471.68	13542.34
471.86	13635.96
472.04	13579.79
472.22	13977.68
472.40	13493.19
472.58	13886.40
472.77	13771.71
472.95	14106.41
473.13	14422.38
473.31	13951.93
473.49	13827.88
473.67	14061.94
473.85	14040.87
474.03	14466.85
474.21	14537.07
474.39	14504.30
474.57	14672.82
474.75	15129.22
474.93	14771.12
475.12	14855.38
475.30	15016.88
475.48	14796.87
475.66	15077.73
475.84	15117.52
476.02	15229.87
476.20	15138.58
476.38	15609.03
476.56	15854.79
476.74	16025.65
476.92	15555.20
477.10	15686.27
477.28	16023.31
477.46	16018.63
477.64	16107.57
477.82	16074.80
478.00	16896.33
478.18	16498.44
478.36	16908.03
478.54	17025.06
478.72	16964.20
478.90	17144.42
479.08	17408.90
479.26	17418.27
479.44	17638.28
479.62	17830.20
479.80	17724.88
479.98	18038.51
480.16	18459.81
480.34	18092.34
480.52	18429.38
480.70	18291.29
480.88	18277.24
481.06	18471.51
481.24	18712.58
481.41	18937.27
481.59	18998.13
481.77	19304.74
481.95	19136.22
482.13	19594.96
482.31	19431.13
482.49	20095.84
482.67	19943.70
482.85	20327.55
483.03	20339.26
483.21	20238.61
483.39	20601.40
483.57	20432.88
483.74	20781.62
483.92	21156.10
484.10	21238.02
484.28	21312.92
484.46	21823.16
484.64	21968.27
484.82	21846.56
485.00	22164.87
485.18	22618.94
485.35	22731.28
485.53	22492.55
485.71	23080.02
485.89	23309.40
486.07	23325.78
486.25	23208.75
486.43	23147.90
486.61	23283.65
486.78	23875.80
486.96	24058.37
487.14	24285.40
487.32	24240.93
487.50	24339.23
487.68	24687.97
487.85	25064.80
488.03	25322.26
488.21	25661.63
488.39	25387.79
488.57	25799.73
488.75	25865.26
488.92	26345.07
489.10	26424.65
489.28	26288.90
489.46	26864.67
489.64	26913.82
489.81	27356.18
489.99	27651.09
490.17	27524.70
490.35	27974.08
490.53	27995.15
490.70	28208.14
490.88	27871.10
491.06	28580.28
491.24	28409.42
491.41	28666.88
491.59	28886.89
491.77	28807.31
491.95	29120.95
492.13	29607.78
492.30	29933.11
492.48	29570.33
492.66	30129.72
492.84	29909.71
493.01	30396.54
493.19	30394.20
493.37	30850.60
493.54	30508.88
493.72	31639.36
493.90	31110.40
494.08	31611.28
494.25	31704.90
494.43	32060.66
494.61	31990.44
494.79	32524.08
494.96	32156.62
495.14	32343.86
495.32	32769.84
495.49	33041.34
495.67	32882.19
495.85	33212.20
496.02	33663.93
496.20	33223.90
496.38	33881.60
496.55	33785.63
496.73	34845.90
496.91	34579.07
497.09	34588.44
497.26	34991.01
497.44	34838.87
497.62	35241.45
497.79	35257.83
497.97	34927.81
498.14	35475.50
498.32	36116.81
498.50	35690.83
498.67	36252.56
498.85	35988.08
499.03	36547.47
499.20	35988.08
499.38	36748.75
499.56	36645.77
499.73	37137.28
499.91	36823.65
500.08	37130.26
500.26	36835.35
500.44	37020.25
500.61	37839.44
500.79	37333.89
500.97	37881.57
501.14	38373.08
501.32	38094.56
501.49	38492.45
501.67	38352.02
501.84	38904.38
502.02	38976.94
502.20	39035.45
502.37	39278.87
502.55	38611.82
502.72	39283.55
502.90	39515.26
503.07	39768.04
503.25	39030.77
503.43	39313.98
503.60	39599.52
503.78	39931.88
503.95	40055.93
504.13	40175.30
504.30	40430.41
504.48	39828.90
504.65	40273.60
504.83	40430.41
505.01	41015.55
505.18	40807.24
505.36	41308.11
505.53	40744.05
505.71	41364.29
505.88	41724.73
506.06	41064.70
506.23	41818.35
506.41	41347.90
506.58	41500.04
506.76	41659.20
506.93	42316.89
507.11	42000.91
507.28	42387.10
507.46	42326.25
507.63	42820.10
507.81	42607.11
507.98	42703.07
508.16	42976.92
508.33	43117.35
508.50	43107.99
508.68	43316.29
508.85	43791.42
509.03	43358.42
509.20	43758.66
509.38	43786.74
509.55	44287.62
509.73	43971.64
509.90	44186.97
510.08	44341.45
510.25	44472.52
510.42	44306.34
510.60	44828.28
510.77	45109.14
510.95	45078.72
511.12	45249.58
511.30	44673.81
511.47	45134.89
511.64	45123.19
511.82	45598.32
511.99	45516.40
512.17	46024.29
512.34	45841.73
512.51	46447.93
512.69	45933.01
512.86	45911.95
513.04	46155.36
513.21	45677.90
513.38	46560.28
513.56	46689.01
513.73	46571.98
513.90	46398.78
514.08	46349.63
514.25	46920.72
514.43	47297.55
514.60	47152.43
514.77	47063.49
514.95	47159.45
515.12	47173.50
515.29	47381.80
515.47	47966.94
515.64	48037.16
515.81	47391.17
515.99	47695.44
516.16	48109.71
516.33	47978.64
516.51	48362.49
516.68	48088.65
516.85	48158.86
517.03	48603.56
517.20	48664.42
517.37	48453.77
517.54	48753.36
517.72	48652.72
517.89	48762.72
518.06	48809.53
518.24	49256.57
518.41	48760.38
518.58	48952.30
518.75	48760.38
518.93	49338.49
519.10	49389.98
519.27	49092.74
519.45	49654.47
519.62	49509.35
519.79	49703.62
519.96	49677.87
520.14	49694.25
520.31	49860.43
520.48	49858.09
520.65	49799.58
520.83	50232.58
521.00	50600.04
521.17	50326.20
521.34	50534.51
521.52	50541.53
521.69	50532.17
521.86	50459.61
522.03	50681.96
522.20	51325.61
522.38	51093.89
522.55	51398.16
522.72	50965.17
522.89	51112.62
523.07	51330.29
523.24	51051.76
523.41	51313.90
523.58	51398.16
523.75	51512.85
523.92	51248.37
524.10	51688.39
524.27	51601.79
524.44	52264.16
524.61	51721.16
524.78	51803.08
524.96	51980.96
525.13	52191.61
525.30	52334.38
525.47	52282.89
525.64	52158.84
525.81	52507.58
525.98	52313.31
526.16	52203.31
526.33	52423.32
526.50	52830.57
526.67	52205.65
526.84	52842.27
527.01	52769.72
527.18	52222.03
527.36	52727.59
527.53	52905.47
527.70	53076.33
527.87	53066.97
528.04	52947.60
528.21	53317.40
528.38	53160.59
528.55	53389.96
528.72	53212.08
528.89	53109.10
529.07	53212.08
529.24	53151.23
529.41	53389.96
529.58	53455.50
529.75	53371.24
529.92	53588.91
530.09	53837.00
530.26	53834.66
530.43	53759.76
530.60	53710.61
530.77	53837.00
530.94	53670.82
531.11	54183.40
531.28	54209.15
531.46	54145.95
531.63	53947.01
531.80	53829.98
531.97	53984.46
532.14	54412.77
532.31	54190.42
532.48	54375.33
532.65	54452.56
532.82	54316.81
532.99	54562.57
533.16	54272.34
533.33	54691.30
533.50	54841.09
533.67	54595.34
533.84	54316.81
534.01	54408.09
534.18	54726.41
534.35	54981.52
534.52	54857.48
534.69	54848.11
534.86	55189.83
535.03	54852.80
535.20	55220.26
535.37	55075.15
535.54	54955.78
535.71	55004.93
535.88	55435.59
536.05	55264.73
536.22	55246.00
536.38	55533.89
536.55	55608.79
536.72	55360.69
536.89	55388.78
537.06	55285.79
537.23	55571.34
537.40	55152.38
537.57	55379.42
537.74	55639.22
537.91	55997.32
538.08	55856.88
538.25	55159.41
538.42	55697.73
538.59	55906.04
538.75	55671.98
538.92	55934.12
539.09	56079.24
539.26	56069.87
539.43	55767.94
539.60	55971.57
539.77	56294.56
539.94	56514.58
540.11	56247.75
540.28	56233.71
540.44	56273.50
540.61	56172.86
540.78	56416.27
540.95	56268.82
541.12	56376.48
541.29	56278.18
541.46	56119.02
541.62	56303.93
541.79	56435.00
541.96	56140.09
542.13	56179.88
542.30	56678.41
542.47	56554.36
542.63	56378.82
542.80	56549.68
542.97	56746.29
543.14	57031.83
543.31	56872.68
543.48	57186.31
543.64	57216.74
543.81	57251.84
543.98	57162.90
544.15	57228.44
544.32	57336.10
544.48	57331.42
544.65	57193.33
544.82	57319.72
544.99	56996.73
545.16	57373.55
545.32	57160.56
545.49	57570.16
545.66	57642.71
545.83	57471.85
546.00	57450.79
546.16	57415.68
546.33	57240.14
546.50	57378.23
546.67	57673.14
546.83	57492.92
547.00	57638.03
547.17	57537.39
547.34	57687.18
547.50	57813.57
547.67	57932.94
547.84	57993.79
548.00	57984.43
548.17	58293.38
548.34	57827.62
548.51	58071.03
548.67	57937.62
548.84	57909.53
549.01	58000.82
549.18	57839.32
549.34	58216.14
549.51	58073.37
549.68	58237.21
549.84	58291.04
550.01	58234.87
550.18	58087.42
550.34	58295.72
550.51	58295.72
550.68	58255.93
550.84	57977.41
551.01	58323.81
551.18	58246.57
551.34	58429.13
551.51	58623.40
551.68	58417.43
551.84	58309.77
552.01	58253.59
552.18	58511.05
552.34	58330.83
552.51	58291.04
552.68	58340.19
552.84	58508.71
553.01	58808.30
553.18	58515.73
553.34	58904.26
553.51	58541.48
553.67	58817.66
553.84	58791.92
554.01	58906.60
554.17	58871.49
554.34	58876.18
554.51	58820.00
554.67	58805.96
554.84	58876.18
555.00	58749.79
555.17	58862.13
555.33	58834.05
555.50	58866.81
555.67	58843.41
555.83	58972.14
556.00	59025.97
556.16	59309.18
556.33	58969.80
556.50	59091.51
556.66	59318.54
556.83	58904.26
556.99	59281.09
557.16	59468.33
557.32	59260.02
557.49	59217.89
557.65	59058.74
557.82	59107.89
557.98	59164.06
558.15	59351.30
558.32	59337.26
558.48	59119.59
558.65	59384.07
558.81	59325.56
558.98	59086.82
559.14	59587.70
559.31	59449.61
559.47	59482.37
559.64	59524.50
559.80	59545.57
559.97	59599.40
560.13	59344.28
560.30	59515.14
560.46	59489.40
560.63	59442.59
560.79	59678.98
560.96	59540.89
561.12	59749.20
561.29	59702.38
561.45	59690.68
561.61	59922.40
561.78	59725.79
561.94	59592.38
562.11	59807.71
562.27	59707.07
562.44	59639.19
562.60	59955.16
562.77	59938.78
562.93	59620.47
563.10	59849.84
563.26	59859.20
563.42	59999.63
563.59	59915.37
563.75	59646.21
563.92	59861.54
564.08	59945.80
564.24	59945.80
564.41	60048.78
564.57	60116.66
564.74	59779.62
564.90	59870.90
565.07	59908.35
565.23	59877.93
565.39	59880.27
565.56	60189.22
565.72	60097.94
565.88	60048.78
566.05	60023.04
566.21	60088.57
566.38	60095.60
566.54	60243.05
566.70	60221.98
566.87	60331.99
567.03	59898.99
567.19	60200.92
567.36	60224.32
567.52	60123.68
567.68	60395.18
567.85	60219.64
568.01	60339.01
568.17	60083.89
568.34	60266.45
568.50	60182.19
568.66	60119.00
568.83	60278.16
568.99	60282.84
569.15	60109.64
569.32	60353.05
569.48	60238.37
569.64	60427.95
569.81	60193.90
569.97	60273.48
570.13	60315.61
570.30	60252.41
570.46	60362.42
570.62	60278.16
570.78	60285.18
570.95	60221.98
571.11	60303.90
571.27	60399.86
571.43	60399.86
571.60	60526.25
571.76	60308.58
571.92	60507.53
572.09	60451.36
572.25	60470.08
572.41	60500.51
572.57	60385.82
572.74	60500.51
572.90	60378.80
573.06	60385.82
573.22	60544.98
573.38	60481.78
573.55	60427.95
573.71	60554.34
573.87	60388.16
574.03	60341.35
574.20	60559.02
574.36	60500.51
574.52	60439.65
574.68	60699.45
574.84	60804.78
575.01	60591.79
575.17	60477.10
575.33	60303.90
575.49	60357.74
575.65	60477.10
575.82	60713.50
575.98	60662.00
576.14	60631.58
576.30	60608.17
576.46	60680.73
576.62	60704.13
576.79	60633.92
576.95	60477.10
577.11	60706.47
577.27	60757.97
577.43	60605.83
577.59	60458.38
577.75	60671.37
577.92	60505.19
578.08	60591.79
578.24	60610.51
578.40	60694.77
578.56	60692.43
578.72	60690.09
578.88	60851.59
579.04	60832.86
579.21	60671.37
579.37	60849.25
579.53	60734.56
579.69	60460.72
579.85	60706.47
580.01	60589.45
580.17	60676.05
580.33	60713.50
580.49	60720.52
580.65	60800.10
580.82	60968.61
580.98	60673.71
581.14	60612.85
581.30	60837.54
581.46	60596.47
581.62	60725.20
581.78	60568.38
581.94	60704.13
582.10	60697.11
582.26	60636.26
582.42	60811.80
582.58	60692.43
582.74	60657.32
582.90	60680.73
583.06	60851.59
583.22	60692.43
583.38	60739.24
583.54	60584.77
583.70	60849.25
583.86	60776.69
584.02	60570.72
584.18	60926.49
584.34	60657.32
584.50	60725.20
584.66	60680.73
584.82	60479.44
584.98	61073.94
585.14	60905.42
585.30	60706.47
585.46	60940.53
585.62	60898.40
585.78	61062.24
585.94	60786.05
586.10	60914.78
586.26	61006.06
586.42	60914.78
586.58	60970.96
586.74	61083.30
586.90	61130.11
587.06	60694.77
587.22	61034.15
587.38	60729.88
587.54	60870.31
587.70	61015.43
587.86	60818.82
588.02	60900.74
588.18	60994.36
588.34	60802.44
588.49	60926.49
