SpectraSuite Data File
++++++++++++++++++++++++++++++++++++
Date: Fri Oct 25 10:44:54 EDT 2013
User: price-jones
Dark Spectrum Present: No
Reference Spectrum Present: No
Number of Sampled Component Spectra: 1
Spectrometers: USB2+H05261
Integration Time (usec): 100000 (USB2+H05261)
Spectra Averaged: 1 (USB2+H05261)
Boxcar Smoothing: 0 (USB2+H05261)
Correct for Electrical Dark: No (USB2+H05261)
Strobe/Lamp Enabled: No (USB2+H05261)
Correct for Detector Non-linearity: No (USB2+H05261)
Correct for Stray Light: No (USB2+H05261)
Number of Pixels in Processed Spectrum: 2048
>>>>>Begin Processed Spectral Data<<<<<
365.73	93.62
365.92	93.62
366.12	93.62
366.32	14.04
366.52	32.77
366.72	74.90
366.91	25.75
367.11	7.02
367.31	67.88
367.51	0.00
367.70	74.90
367.90	56.17
368.10	0.00
368.30	35.11
368.49	58.51
368.69	93.62
368.89	79.58
369.09	0.00
369.28	21.06
369.48	51.49
369.68	56.17
369.87	149.79
370.07	88.94
370.27	119.37
370.47	220.01
370.66	379.17
370.86	353.42
371.06	374.49
371.25	512.58
371.45	416.62
371.65	535.98
371.84	402.57
372.04	425.98
372.24	465.77
372.44	390.87
372.63	566.41
372.83	458.74
373.03	454.06
373.22	449.38
373.42	540.66
373.62	491.51
373.81	564.07
374.01	535.98
374.21	493.85
374.40	557.05
374.60	458.74
374.79	528.96
374.99	524.28
375.19	547.69
375.38	624.92
375.58	643.65
375.78	594.50
375.97	582.79
376.17	437.68
376.37	587.47
376.56	578.11
376.76	575.77
376.95	554.71
377.15	578.11
377.35	624.92
377.54	620.24
377.74	615.56
377.93	622.58
378.13	564.07
378.33	603.86
378.52	568.75
378.72	613.22
378.91	564.07
379.11	514.92
379.31	631.94
379.50	674.07
379.70	657.69
379.89	723.23
380.09	657.69
380.28	627.26
380.48	674.07
380.68	667.05
380.87	655.35
381.07	662.37
381.26	734.93
381.46	725.57
381.65	734.93
381.85	622.58
382.04	678.76
382.24	636.63
382.43	711.52
382.63	657.69
382.83	706.84
383.02	758.33
383.22	634.29
383.41	704.50
383.61	662.37
383.80	758.33
384.00	627.26
384.19	748.97
384.39	713.86
384.58	734.93
384.78	758.33
384.97	807.48
385.17	711.52
385.36	746.63
385.56	720.88
385.75	702.16
385.95	755.99
386.14	840.25
386.34	786.42
386.53	760.67
386.72	770.04
386.92	816.85
387.11	751.31
387.31	851.96
387.50	791.10
387.70	800.46
387.89	779.40
388.09	788.76
388.28	805.14
388.48	844.93
388.67	908.13
388.86	758.33
389.06	873.02
389.25	891.74
389.45	814.51
389.64	910.47
389.84	882.38
390.03	889.40
390.22	816.85
390.42	835.57
390.61	884.72
390.81	863.66
391.00	952.60
391.19	968.98
391.39	938.55
391.58	999.41
391.78	891.74
391.97	905.79
392.16	877.70
392.36	882.38
392.55	882.38
392.75	896.43
392.94	896.43
393.13	903.45
393.33	992.39
393.52	1039.20
393.71	971.32
393.91	1048.56
394.10	1013.45
394.29	994.73
394.49	1029.84
394.68	1011.11
394.88	1109.41
395.07	1165.59
395.26	1050.90
395.46	1132.82
395.65	1086.01
395.84	1104.73
396.04	1266.23
396.23	1144.52
396.42	1050.90
396.62	1102.39
396.81	1069.62
397.00	1043.88
397.19	1121.12
397.39	1170.27
397.58	1240.48
397.77	1217.08
397.97	1266.23
398.16	1308.36
398.35	1238.14
398.55	1165.59
398.74	1418.36
398.93	1322.40
399.12	1357.51
399.32	1320.06
399.51	1296.66
399.70	1387.94
399.90	1387.94
400.09	1348.15
400.28	1427.73
400.47	1401.98
400.67	1509.65
400.86	1556.46
401.05	1483.90
401.24	1446.45
401.44	1479.22
401.63	1486.24
401.82	1575.18
402.01	1441.77
402.21	1547.09
402.40	1444.11
402.59	1600.93
402.78	1533.05
402.97	1523.69
403.17	1547.09
403.36	1600.93
403.55	1675.82
403.74	1561.14
403.93	1614.97
404.13	1678.16
404.32	1589.22
404.51	1685.19
404.70	1753.06
404.89	1621.99
405.09	1842.00
405.28	1687.53
405.47	1673.48
405.66	1706.25
405.85	1788.17
406.05	1746.04
406.24	1788.17
406.43	1863.07
406.62	1760.08
406.81	1825.62
407.00	1792.85
407.20	1837.32
407.39	1851.36
407.58	1820.94
407.77	1942.64
407.96	1963.71
408.15	2008.18
408.34	1956.69
408.54	2043.29
408.73	1996.48
408.92	2024.56
409.11	2062.01
409.30	1956.69
409.49	1937.96
409.68	1966.05
409.87	2127.55
410.07	2059.67
410.26	2062.01
410.45	2066.69
410.64	2085.42
410.83	2083.08
411.02	2214.15
411.21	2265.64
411.40	2225.85
411.59	2239.89
411.78	2331.17
411.98	2225.85
412.17	2298.41
412.36	2289.04
412.55	2340.54
412.74	2382.67
412.93	2331.17
413.12	2368.62
413.31	2485.65
413.50	2490.33
413.69	2532.46
413.88	2462.24
414.07	2541.82
414.26	2614.38
414.45	2698.64
414.64	2595.65
414.83	2555.86
415.02	2696.30
415.22	2719.70
415.41	2815.66
415.60	2658.85
415.79	2899.92
415.98	2794.60
416.17	2820.35
416.36	2782.90
416.55	2869.50
416.74	2960.78
416.93	2890.56
417.12	2984.18
417.31	3075.46
417.50	2972.48
417.69	3194.83
417.88	3052.06
418.07	3002.91
418.26	3143.34
418.45	3061.42
418.64	3187.81
418.83	3311.86
419.02	3117.59
419.21	3112.91
419.39	3255.69
419.58	3052.06
419.77	3215.90
419.96	3141.00
420.15	3220.58
420.34	3314.20
420.53	3328.24
420.72	3325.90
420.91	3262.71
421.10	3466.33
421.29	3440.59
421.48	3440.59
421.67	3485.06
421.86	3466.33
422.05	3337.60
422.24	3478.04
422.43	3405.48
422.61	3368.03
422.80	3566.98
422.99	3468.67
423.18	3382.07
423.37	3653.58
423.56	3627.83
423.75	3517.83
423.94	3510.80
424.13	3276.75
424.32	3417.18
424.50	3555.27
424.69	3597.40
424.88	3524.85
425.07	3536.55
425.26	3517.83
425.45	3627.83
425.64	3559.95
425.83	3672.30
426.01	3644.21
426.20	3538.89
426.39	3637.19
426.58	3592.72
426.77	3599.74
426.96	3571.66
427.15	3588.04
427.33	3566.98
427.52	3662.94
427.71	3644.21
427.90	3791.67
428.09	3784.65
428.28	3866.56
428.46	3681.66
428.65	3754.22
428.84	3831.46
429.03	3920.40
429.22	3768.26
429.40	3840.82
429.59	3763.58
429.78	3728.47
429.97	3625.49
430.16	3871.25
430.34	3758.90
430.53	3957.85
430.72	3871.25
430.91	3971.89
431.10	3803.37
431.28	3871.25
431.47	4051.47
431.66	4107.64
431.85	4079.55
432.03	4060.83
432.22	4191.90
432.41	4133.39
432.60	4245.73
432.79	4217.65
432.97	4360.42
433.16	4297.22
433.35	4219.99
433.54	4149.77
433.72	4248.07
433.91	4198.92
434.10	4290.20
434.28	4227.01
434.47	4414.25
434.66	4402.55
434.85	4416.59
435.03	4496.17
435.22	4451.70
435.41	4641.28
435.59	4512.55
435.78	4620.22
435.97	4575.75
436.16	4688.09
436.34	4606.17
436.53	4533.62
436.72	4788.74
436.90	4496.17
437.09	4699.80
437.28	4610.86
437.46	4624.90
437.65	4657.67
437.84	4676.39
438.02	4676.39
438.21	4755.97
438.40	4657.67
438.58	4819.16
438.77	4849.59
438.96	4943.21
439.14	5057.90
439.33	4837.89
439.52	5050.88
439.70	5205.35
439.89	5090.67
440.08	5212.37
440.26	5163.22
440.45	5144.50
440.63	5174.92
440.82	5268.55
441.01	5331.74
441.19	5357.49
441.38	5476.85
441.57	5359.83
441.75	5577.50
441.94	5657.07
442.12	5556.43
442.31	5504.94
442.50	5743.67
442.68	5561.11
442.87	5542.39
443.05	5631.33
443.24	5888.79
443.43	5708.57
443.61	5713.25
443.80	6022.20
443.98	5720.27
444.17	5694.52
444.35	5715.59
444.54	5823.25
444.73	5898.15
444.91	5851.34
445.10	5870.06
445.28	5823.25
445.47	5701.54
445.65	5776.44
445.84	5921.56
446.02	5984.75
446.21	5795.17
446.39	5797.51
446.58	5980.07
446.77	5898.15
446.95	5916.87
447.14	6026.88
447.32	6183.70
447.51	6073.69
447.69	5767.08
447.88	5898.15
448.06	5947.30
448.25	5912.19
448.43	6038.58
448.62	6026.88
448.80	5893.47
448.99	5977.73
449.17	6129.86
449.36	6033.90
449.54	6015.18
449.73	6282.00
449.91	6361.58
450.10	6307.74
450.28	6260.93
450.46	6300.72
450.65	6235.19
450.83	6502.01
451.02	6394.34
451.20	6314.77
451.39	6544.14
451.57	6532.44
451.76	6450.52
451.94	6548.82
452.13	6562.86
452.31	6464.56
452.49	6377.96
452.68	6614.35
452.86	6368.60
453.05	6499.67
453.23	6532.44
453.42	6586.27
453.60	6530.09
453.78	6541.80
453.97	6612.01
454.15	6373.28
454.34	6506.69
454.52	6778.19
454.70	6759.47
454.89	6724.36
455.07	6881.18
455.26	6930.33
455.44	6981.82
455.62	6998.20
455.81	6988.84
455.99	6951.39
456.17	7016.93
456.36	7016.93
456.54	7054.37
456.73	7286.09
456.91	7222.89
457.09	7112.89
457.28	7344.60
457.46	7356.30
457.64	7307.15
457.83	7321.20
458.01	7140.97
458.19	7470.99
458.38	7349.28
458.56	7276.73
458.74	7297.79
458.93	7461.63
459.11	7405.46
459.29	7548.23
459.48	7559.93
459.66	7531.84
459.84	7382.05
460.03	7801.01
460.21	7550.57
460.39	7686.32
460.57	7588.02
460.76	7566.95
460.94	7892.29
461.12	7896.97
461.31	7604.40
461.49	7929.74
461.67	7838.45
461.85	7964.84
462.04	7838.45
462.22	8105.28
462.40	7995.27
462.59	7960.16
462.77	7981.23
462.95	8067.83
463.13	8058.46
463.32	8060.80
463.50	8168.47
463.68	8070.17
463.86	8292.52
464.05	8051.44
464.23	8196.56
464.41	8065.49
464.59	8077.19
464.78	8344.01
464.96	8243.37
465.14	8407.20
465.32	8304.22
465.50	8409.54
465.69	8341.67
465.87	8322.94
466.05	8297.20
466.23	8262.09
466.41	8379.12
466.60	8456.36
466.78	8358.05
466.96	8205.92
467.14	8428.27
467.32	8580.40
467.51	8767.65
467.69	8311.24
467.87	8444.65
468.05	8634.24
468.23	8641.26
468.41	8573.38
468.60	8470.40
468.78	8613.17
468.96	8594.45
469.14	8554.66
469.32	8765.31
469.50	8517.21
469.69	8769.99
469.87	8702.11
470.05	8819.14
470.23	9013.40
470.41	8999.36
470.59	9043.83
470.77	9107.02
470.95	9078.94
471.14	9242.78
471.32	9078.94
471.50	9355.12
471.68	9151.49
471.86	9249.80
472.04	9437.04
472.22	9528.32
472.40	9371.50
472.58	9371.50
472.77	9530.66
472.95	9659.39
473.13	9872.38
473.31	9408.95
473.49	9493.21
473.67	9598.54
473.85	9628.96
474.03	9881.74
474.21	9783.44
474.39	10153.24
474.57	10113.45
474.75	10150.90
474.93	10218.78
475.12	10303.04
475.30	10101.75
475.48	10183.67
475.66	10258.57
475.84	10406.02
476.02	10272.61
476.20	10382.62
476.38	10422.41
476.56	10731.36
476.74	10848.38
476.92	10597.95
477.10	10890.51
477.28	10949.03
477.46	10820.30
477.64	11002.86
477.82	11030.94
478.00	11389.05
478.18	11236.91
478.36	11403.09
478.54	11473.31
478.72	11529.48
478.90	11808.00
479.08	11826.73
479.26	11859.49
479.44	11999.93
479.62	11857.15
479.80	12334.62
479.98	12060.78
480.16	12519.53
480.34	12372.07
480.52	12615.49
480.70	12376.75
480.88	12222.28
481.06	12538.25
481.24	12676.34
481.41	12943.16
481.59	13067.21
481.77	13116.36
481.95	13032.10
482.13	13336.37
482.31	13156.15
482.49	13378.50
482.67	13500.21
482.85	13540.00
483.03	13994.06
483.21	13804.48
483.39	13923.85
483.57	14169.60
483.74	14228.12
483.92	14487.92
484.10	14160.24
484.28	14281.95
484.46	14785.16
484.64	14869.42
484.82	14684.52
485.00	14740.69
485.18	14991.13
485.35	15190.08
485.53	15087.09
485.71	14927.94
485.89	15377.32
486.07	15145.61
486.25	15077.73
486.43	15602.01
486.61	15681.59
486.78	15697.97
486.96	15803.30
487.14	16355.66
487.32	16180.12
487.50	16404.81
487.68	16512.48
487.85	16879.94
488.03	16793.34
488.21	16999.31
488.39	17067.19
488.57	17118.68
488.75	17350.39
488.92	17551.68
489.10	17661.68
489.28	17750.62
489.46	17898.08
489.64	17872.33
489.81	18551.09
489.99	18574.49
490.17	18689.18
490.35	18574.49
490.53	18611.94
490.70	18728.97
490.88	18700.88
491.06	18998.13
491.24	19051.96
491.41	19070.68
491.59	19346.87
491.77	19164.31
491.95	19384.32
492.13	19604.33
492.30	19838.38
492.48	19981.15
492.66	19772.85
492.84	20116.90
493.01	20411.81
493.19	20159.03
493.37	20407.13
493.54	20135.63
493.72	20514.80
493.90	20889.28
494.08	20922.05
494.25	21369.09
494.43	21310.58
494.61	21476.76
494.79	21137.38
494.96	21156.10
495.14	21689.74
495.32	21565.70
495.49	21734.21
495.67	21825.50
495.85	22073.59
496.02	21982.31
496.20	22338.07
496.38	22522.98
496.55	22867.03
496.73	23007.47
496.91	22885.76
497.09	22705.54
497.26	23431.10
497.44	22810.86
497.62	23197.05
497.79	23377.27
497.97	23243.86
498.14	23400.68
498.32	23529.41
498.50	23683.88
498.67	24100.50
498.85	23913.25
499.03	24285.40
499.20	24247.95
499.38	24086.45
499.56	24467.96
499.73	24306.46
499.91	24137.94
500.08	24802.66
500.26	24245.61
500.44	24725.42
500.61	24741.80
500.79	24641.16
500.97	24952.45
501.14	25474.39
501.32	25149.06
501.49	25146.72
501.67	25099.90
501.84	25291.83
502.02	25364.39
502.20	25766.96
502.37	25448.64
502.55	25895.69
502.72	26113.36
502.90	25769.30
503.07	25762.28
503.25	25998.67
503.43	26073.57
503.60	26309.96
503.78	26204.64
503.95	26136.76
504.13	26326.35
504.30	26632.96
504.48	26324.01
504.65	27147.87
504.83	26649.34
505.01	26925.52
505.18	26993.40
505.36	27459.16
505.53	27014.46
505.71	27316.39
505.88	27072.98
506.06	26862.33
506.23	27384.27
506.41	27236.81
506.58	27639.39
506.76	27681.52
506.93	27871.10
507.11	27592.58
507.28	28027.92
507.46	27735.35
507.63	27899.19
507.81	28430.49
507.98	27768.12
508.16	28533.47
508.33	28292.40
508.50	28804.97
508.68	28496.02
508.85	28837.74
509.03	28704.33
509.20	28673.90
509.38	29179.46
509.55	29022.64
509.73	29202.86
509.90	28699.65
510.08	28900.94
510.25	29099.88
510.42	29467.34
510.60	29528.20
510.77	29453.30
510.95	29605.44
511.12	29308.19
511.30	29617.14
511.47	30113.33
511.64	29567.99
511.82	30267.81
511.99	29937.79
512.17	30103.97
512.34	29848.85
512.51	30260.79
512.69	30422.28
512.86	30244.40
513.04	30719.53
513.21	30508.88
513.38	30572.08
513.56	30721.87
513.73	30291.21
513.90	30836.56
514.08	30764.00
514.25	30979.33
514.43	30918.48
514.60	31044.87
514.77	31299.98
514.95	31321.05
515.12	30911.46
515.29	31363.18
515.47	31917.89
515.64	31899.16
515.81	31475.52
515.99	31924.91
516.16	31831.29
516.33	31531.70
516.51	31941.29
516.68	31637.02
516.85	31943.63
517.03	31386.58
517.20	31850.01
517.37	32119.17
517.54	32095.77
517.72	32266.63
517.89	31632.34
518.06	32161.30
518.24	32381.31
518.41	32142.58
518.58	32746.44
518.75	32364.93
518.93	32671.54
519.10	32411.74
519.27	32879.85
519.45	32503.02
519.62	33347.95
519.79	33263.69
519.96	32863.46
520.14	32868.14
520.31	33282.42
520.48	33228.59
520.65	33165.39
520.83	33687.33
521.00	33916.70
521.17	33689.67
521.34	33919.04
521.52	33556.26
521.69	34125.01
521.86	33703.71
522.03	34363.75
522.20	34183.52
522.38	34033.73
522.55	33975.22
522.72	34246.72
522.89	33762.23
523.07	34424.60
523.24	33865.21
523.41	34515.88
523.58	34462.05
523.75	35016.75
523.92	34815.47
524.10	34969.94
524.27	34597.80
524.44	35136.12
524.61	34824.83
524.78	35072.93
524.96	35276.55
525.13	35122.08
525.30	35199.32
525.47	35363.15
525.64	35175.91
525.81	35730.62
525.98	35594.87
526.16	35641.68
526.33	35049.52
526.50	35700.19
526.67	35316.34
526.84	34974.63
527.01	35517.63
527.18	35910.84
527.36	35861.69
527.53	36191.70
527.70	36247.88
527.87	36259.58
528.04	36060.63
528.21	36449.16
528.38	36121.49
528.55	36418.74
528.72	36591.94
528.89	36662.15
529.07	36584.91
529.24	36320.43
529.41	36549.81
529.58	36465.55
529.75	36531.08
529.92	36765.14
530.09	36652.79
530.26	36580.23
530.43	36851.73
530.60	36964.08
530.77	36467.89
530.94	37057.70
531.11	36917.27
531.28	36968.76
531.46	37296.44
531.63	37223.88
531.80	37163.03
531.97	36921.95
532.14	37385.38
532.31	36982.80
532.48	37596.03
532.65	37202.82
532.82	37546.87
532.99	37577.30
533.16	37535.17
533.33	37525.81
533.50	38501.81
533.67	37631.13
533.84	37820.72
534.01	37467.30
534.18	37933.06
534.35	38047.75
534.52	37965.83
534.69	38057.11
534.86	38242.01
535.03	38071.15
535.20	38396.49
535.37	38438.62
535.54	38218.61
535.71	38342.66
535.88	38450.32
536.05	38455.00
536.22	38696.08
536.38	38972.26
536.55	38555.64
536.72	38356.70
536.89	38234.99
537.06	38134.35
537.23	38761.61
537.40	38672.67
537.57	38658.63
537.74	38843.53
537.91	38916.09
538.08	38707.78
538.25	38988.64
538.42	39005.03
538.59	38880.98
538.75	38169.46
538.92	38962.90
539.09	38934.81
539.26	39072.90
539.43	39241.42
539.60	39100.99
539.77	39093.97
539.94	39253.12
540.11	39058.86
540.28	39725.91
540.44	38864.60
540.61	39154.82
540.78	39435.69
540.95	39358.45
541.12	39367.81
541.29	39665.06
541.46	39477.82
541.62	39538.67
541.79	39533.99
541.96	39494.20
542.13	39945.92
542.30	39590.16
542.47	39688.46
542.63	39477.82
542.80	40168.27
542.97	40086.36
543.14	40439.78
543.31	40711.28
543.48	40140.19
543.64	40973.42
543.81	40891.50
543.98	40938.31
544.15	40666.81
544.32	40589.57
544.48	41420.46
544.65	40982.78
544.82	40825.96
544.99	40769.79
545.16	40708.94
545.32	40711.28
545.49	41020.23
545.66	41163.00
545.83	41031.93
546.00	41050.66
546.16	40947.67
546.33	41010.87
546.50	40348.50
546.67	41336.20
546.83	41036.61
547.00	41263.64
547.17	41212.15
547.34	41380.67
547.50	41385.35
547.67	41333.86
547.84	41698.98
548.00	41628.77
548.17	41528.13
548.34	41296.41
548.51	41670.90
548.67	41961.12
548.84	41900.27
549.01	41879.21
549.18	41645.15
549.34	41794.95
549.51	41855.80
549.68	41830.05
549.84	41755.16
550.01	41904.95
550.18	41591.32
550.34	42103.90
550.51	41607.70
550.68	41649.83
550.84	41436.84
551.01	41982.19
551.18	42131.98
551.34	42134.32
551.51	42129.64
551.68	42031.34
551.84	42380.08
552.01	41968.15
552.18	42178.79
552.34	42005.59
552.51	42216.24
552.68	42117.94
552.84	42796.70
553.01	42618.81
553.18	42712.44
553.34	42134.32
553.51	41937.72
553.67	42192.84
553.84	42913.72
554.01	42550.94
554.17	42773.29
554.34	42803.72
554.51	42747.54
554.67	42555.62
554.84	42621.16
555.00	42618.81
555.17	42611.79
555.33	42855.21
555.50	42344.97
555.67	42799.04
555.83	42763.93
556.00	42932.45
556.16	42920.74
556.33	42974.58
556.50	42457.32
556.66	43065.86
556.83	42691.37
556.99	42848.19
557.16	43482.47
557.32	42990.96
557.49	43168.84
557.65	42513.49
557.82	43105.65
557.98	43253.10
558.15	42604.77
558.32	43632.27
558.48	42564.98
558.65	43428.64
558.81	42838.83
558.98	42808.40
559.14	42979.26
559.31	43288.21
559.47	43063.52
559.64	43737.59
559.80	43325.66
559.97	43379.49
560.13	42983.94
560.30	43276.51
560.46	43484.81
560.63	43339.70
560.79	43285.87
560.96	43770.36
561.12	43426.30
561.29	43711.84
561.45	43491.83
561.61	43681.42
561.78	43503.54
561.94	43274.16
562.11	43641.63
562.27	43618.22
562.44	44194.00
562.60	43372.47
562.77	43803.13
562.93	43498.86
563.10	43730.57
563.26	43555.03
563.42	44046.54
563.59	43550.35
563.75	43414.60
563.92	43475.45
564.08	43875.68
564.24	44182.29
564.41	43866.32
564.57	43690.78
564.74	43814.83
564.90	43709.50
565.07	43899.09
565.23	43835.89
565.39	43318.64
565.56	43658.01
565.72	43236.72
565.88	43732.91
566.05	43501.20
566.21	44020.80
566.38	43634.61
566.54	44006.75
566.70	43711.84
566.87	44142.50
567.03	44327.41
567.19	44095.69
567.36	44198.68
567.52	43749.29
567.68	43999.73
567.85	44156.55
568.01	44027.82
568.17	43962.28
568.34	43913.13
568.50	44123.78
568.66	43831.21
568.83	43964.62
568.99	43772.70
569.15	43976.33
569.32	44027.82
569.48	43650.99
569.64	44296.98
569.81	44128.46
569.97	44460.82
570.13	44013.77
570.30	43917.81
570.46	43540.99
570.62	44009.09
570.78	44158.89
570.95	43770.36
571.11	44540.39
571.27	44100.37
571.43	44065.27
571.60	43950.58
571.76	44224.42
571.92	44320.38
572.09	44444.43
572.25	44186.97
572.41	44285.28
572.57	44404.64
572.74	44390.60
572.90	44292.30
573.06	44327.41
573.22	43999.73
573.38	43945.90
573.55	44205.70
573.71	44435.07
573.87	43885.04
574.03	44247.83
574.20	43878.02
574.36	44327.41
574.52	44278.25
574.68	44280.60
574.84	44465.50
575.01	44189.31
575.17	44203.36
575.33	44067.61
575.49	44203.36
575.65	44210.38
575.82	44781.47
575.98	44226.76
576.14	44533.37
576.30	44252.51
576.46	44308.68
576.62	44296.98
576.79	44568.48
576.95	43983.35
577.11	44619.97
577.27	44531.03
577.43	44114.42
577.59	44339.11
577.75	44502.95
577.92	43964.62
578.08	44285.28
578.24	44102.71
578.40	44376.56
578.56	44509.97
578.72	44566.14
578.88	44629.34
579.04	44598.91
579.21	44229.10
579.37	44549.76
579.53	44629.34
579.69	43936.54
579.85	44392.94
580.01	44837.64
580.17	44598.91
580.33	44521.67
580.49	44409.32
580.65	44828.28
580.82	44648.06
580.98	44278.25
581.14	44683.17
581.30	44701.89
581.46	44421.03
581.62	45081.06
581.78	44507.63
581.94	44809.56
582.10	44617.63
582.26	44624.65
582.42	44697.21
582.58	44088.67
582.74	44376.56
582.90	44605.93
583.06	44973.39
583.22	44617.63
583.38	44645.72
583.54	44729.98
583.70	44830.62
583.86	44722.96
584.02	44577.84
584.18	44465.50
584.34	44507.63
584.50	44488.90
584.66	44144.84
584.82	44046.54
584.98	44584.86
585.14	45036.59
585.30	44350.81
585.46	44795.51
585.62	44215.06
585.78	44676.15
585.94	44250.17
586.10	44725.30
586.26	44587.21
586.42	44385.92
586.58	44591.89
586.74	44594.23
586.90	44261.87
587.06	44170.59
587.22	44779.13
587.38	44165.91
587.54	44329.75
587.70	44624.65
587.86	44612.95
588.02	44458.48
588.18	44655.08
588.34	44559.12
588.49	44046.54
588.65	44322.72
588.81	44357.83
588.97	44404.64
589.13	44128.46
589.29	44851.69
589.45	44781.47
589.61	44926.58
589.77	45212.13
589.93	44844.66
590.08	44971.05
590.24	44535.71
590.40	44381.24
