SpectraSuite Data File
++++++++++++++++++++++++++++++++++++
Date: Fri Oct 25 10:43:38 EDT 2013
User: price-jones
Dark Spectrum Present: No
Reference Spectrum Present: No
Number of Sampled Component Spectra: 1
Spectrometers: USB2+H05261
Integration Time (usec): 100000 (USB2+H05261)
Spectra Averaged: 1 (USB2+H05261)
Boxcar Smoothing: 0 (USB2+H05261)
Correct for Electrical Dark: No (USB2+H05261)
Strobe/Lamp Enabled: No (USB2+H05261)
Correct for Detector Non-linearity: No (USB2+H05261)
Correct for Stray Light: No (USB2+H05261)
Number of Pixels in Processed Spectrum: 2048
>>>>>Begin Processed Spectral Data<<<<<
365.73	131.07
365.92	131.07
366.12	131.07
366.32	0.00
366.52	0.00
366.72	107.66
366.91	60.85
367.11	32.77
367.31	39.79
367.51	79.58
367.70	23.41
367.90	11.70
368.10	14.04
368.30	25.75
368.49	0.00
368.69	4.68
368.89	0.00
369.09	88.94
369.28	140.43
369.48	91.28
369.68	79.58
369.87	86.60
370.07	56.17
370.27	156.82
370.47	231.71
370.66	393.21
370.86	454.06
371.06	437.68
371.25	500.87
371.45	491.51
371.65	454.06
371.84	409.59
372.04	477.47
372.24	484.49
372.44	477.47
372.63	568.75
372.83	559.39
373.03	482.15
373.22	517.26
373.42	552.37
373.62	528.96
373.81	557.05
374.01	566.41
374.21	535.98
374.40	547.69
374.60	561.73
374.79	636.63
374.99	592.16
375.19	575.77
375.38	557.05
375.58	510.24
375.78	554.71
375.97	589.82
376.17	596.84
376.37	519.60
376.56	615.56
376.76	587.47
376.95	645.99
377.15	702.16
377.35	755.99
377.54	645.99
377.74	636.63
377.93	660.03
378.13	634.29
378.33	695.14
378.52	585.13
378.72	704.50
378.91	753.65
379.11	571.09
379.31	636.63
379.50	655.35
379.70	667.05
379.89	739.61
380.09	685.78
380.28	692.80
380.48	683.44
380.68	697.48
380.87	702.16
381.07	720.88
381.26	786.42
381.46	688.12
381.65	653.01
381.85	650.67
382.04	730.25
382.24	664.71
382.43	692.80
382.63	671.73
382.83	774.72
383.02	732.59
383.22	767.70
383.41	765.36
383.61	725.57
383.80	753.65
384.00	746.63
384.19	720.88
384.39	753.65
384.58	802.80
384.78	755.99
384.97	779.40
385.17	716.20
385.36	779.40
385.56	767.70
385.75	798.12
385.95	828.55
386.14	866.00
386.34	781.74
386.53	819.19
386.72	856.64
386.92	861.32
387.11	856.64
387.31	851.96
387.50	802.80
387.70	887.06
387.89	882.38
388.09	908.13
388.28	903.45
388.48	812.17
388.67	931.53
388.86	957.28
389.06	933.87
389.25	987.71
389.45	980.68
389.64	938.55
389.84	1022.81
390.03	931.53
390.22	1153.88
390.42	992.39
390.61	1064.94
390.81	1027.50
391.00	1116.44
391.19	1039.20
391.39	1013.45
391.58	1205.38
391.78	1048.56
391.97	1036.86
392.16	1088.35
392.36	1107.07
392.55	1064.94
392.75	983.02
392.94	971.32
393.13	1004.09
393.33	1043.88
393.52	999.41
393.71	1125.80
393.91	1078.99
394.10	1025.15
394.29	1160.91
394.49	1181.97
394.68	1142.18
394.88	1287.29
395.07	1261.55
395.26	1252.19
395.46	1233.46
395.65	1247.51
395.84	1284.95
396.04	1137.50
396.23	1221.76
396.42	1160.91
396.62	1217.08
396.81	1247.51
397.00	1170.27
397.19	1240.48
397.39	1345.81
397.58	1387.94
397.77	1373.89
397.97	1441.77
398.16	1423.05
398.35	1605.61
398.55	1474.54
398.74	1537.73
398.93	1528.37
399.12	1465.18
399.32	1523.69
399.51	1540.07
399.70	1540.07
399.90	1469.86
400.09	1554.12
400.28	1650.08
400.47	1708.59
400.67	1633.69
400.86	1703.91
401.05	1724.97
401.24	1696.89
401.44	1778.81
401.63	1769.44
401.82	1708.59
402.01	1671.14
402.21	1741.36
402.40	1664.12
402.59	1806.89
402.78	1685.19
402.97	1643.06
403.17	1699.23
403.36	1870.09
403.55	1825.62
403.74	1832.64
403.93	1830.30
404.13	1884.13
404.32	1888.81
404.51	1825.62
404.70	2029.24
404.89	1849.02
405.09	1928.60
405.28	1937.96
405.47	2050.31
405.66	1977.75
405.85	1930.94
406.05	1947.33
406.24	1954.35
406.43	1991.80
406.62	2134.57
406.81	2216.49
407.00	2073.71
407.20	2076.06
407.39	2104.14
407.58	2172.02
407.77	2141.59
407.96	2071.37
408.15	2340.54
408.34	2193.08
408.54	2310.11
408.73	2181.38
408.92	2377.98
409.11	2340.54
409.30	2303.09
409.49	2408.41
409.68	2270.32
409.87	2214.15
410.07	2277.34
410.26	2422.45
410.45	2473.95
410.64	2544.16
410.83	2537.14
411.02	2459.90
411.21	2600.34
411.40	2551.18
411.59	2539.48
411.78	2647.15
411.98	2637.78
412.17	2658.85
412.36	2719.70
412.55	2700.98
412.74	2848.43
412.93	2747.79
413.12	2684.59
413.31	2766.51
413.50	2949.08
413.69	2874.18
413.88	2825.03
414.07	2881.20
414.26	2937.37
414.45	2920.99
414.64	2951.42
414.83	3141.00
415.02	3066.10
415.22	3220.58
415.41	3091.85
415.60	3115.25
415.79	3173.77
415.98	3173.77
416.17	3201.85
416.36	3428.88
416.55	3358.67
416.74	3400.80
416.93	3372.71
417.12	3253.34
417.31	3258.03
417.50	3454.63
417.69	3480.38
417.88	3445.27
418.07	3456.97
418.26	3428.88
418.45	3487.40
418.64	3632.51
418.83	3632.51
419.02	3545.91
419.21	3798.69
419.39	3721.45
419.58	3679.32
419.77	3513.14
419.96	3716.77
420.15	3674.64
420.34	3705.07
420.53	3815.07
420.72	3971.89
420.91	3782.31
421.10	3850.18
421.29	3768.26
421.48	3744.86
421.67	3885.29
421.86	3920.40
422.05	3700.39
422.24	3899.33
422.43	3840.82
422.61	3941.46
422.80	3817.41
422.99	3927.42
423.18	3857.20
423.37	3978.91
423.56	3941.46
423.75	3880.61
423.94	4002.32
424.13	3609.11
424.32	3768.26
424.50	4046.79
424.69	3983.59
424.88	3929.76
425.07	3978.91
425.26	3950.82
425.45	3932.10
425.64	3908.69
425.83	4074.87
426.01	4084.23
426.20	4117.00
426.39	4128.70
426.58	3957.85
426.77	3967.21
426.96	4016.36
427.15	4014.02
427.33	4163.81
427.52	4035.08
427.71	4142.75
427.90	4215.30
428.09	4341.69
428.28	4238.71
428.46	4091.26
428.65	4124.02
428.84	4306.59
429.03	4271.48
429.22	4156.79
429.40	4234.03
429.59	3981.25
429.78	3967.21
429.97	3953.16
430.16	3939.12
430.34	4107.64
430.53	4161.47
430.72	4276.16
430.91	4332.33
431.10	4222.33
431.28	4587.45
431.47	4744.27
431.66	4802.78
431.85	4601.49
432.03	4676.39
432.22	4730.22
432.41	4615.54
432.60	4748.95
432.79	4671.71
432.97	4849.59
433.16	4795.76
433.35	4730.22
433.54	4692.77
433.72	4734.90
433.91	4770.01
434.10	4720.86
434.28	4814.48
434.47	4854.27
434.66	4877.68
434.85	5018.11
435.03	4905.76
435.22	5015.77
435.41	5055.56
435.59	5238.12
435.78	5184.29
435.97	5214.71
436.16	5170.24
436.34	5104.71
436.53	5020.45
436.72	5320.04
436.90	5076.62
437.09	5078.96
437.28	5188.97
437.46	5184.29
437.65	5205.35
437.84	5275.57
438.02	5224.08
438.21	5184.29
438.40	5135.14
438.58	5488.56
438.77	5420.68
438.96	5610.26
439.14	5746.02
439.33	5540.05
439.52	5696.86
439.70	5664.10
439.89	5891.13
440.08	5748.36
440.26	5837.30
440.45	5640.69
440.63	6132.20
440.82	6108.80
441.01	5961.34
441.19	5989.43
441.38	6090.07
441.57	6115.82
441.75	6232.85
441.94	6382.64
442.12	6305.40
442.31	6396.68
442.50	6459.88
442.68	6366.26
442.87	6363.92
443.05	6532.44
443.24	6506.69
443.43	6382.64
443.61	6499.67
443.80	6710.32
443.98	6384.98
444.17	6333.49
444.35	6579.25
444.54	6567.54
444.73	6520.73
444.91	6473.92
445.10	6380.30
445.28	6354.55
445.47	6207.10
445.65	6534.78
445.84	6441.15
446.02	6590.95
446.21	6583.93
446.39	6663.51
446.58	6712.66
446.77	6689.25
446.95	6647.12
447.14	6740.74
447.32	6729.04
447.51	6642.44
447.69	6754.79
447.88	6949.05
448.06	6710.32
448.25	6778.19
448.43	6834.36
448.62	6771.17
448.80	6946.71
448.99	7007.56
449.17	6787.55
449.36	6792.23
449.54	6885.86
449.73	7103.53
449.91	7145.66
450.10	7236.94
450.28	7386.73
450.46	7274.38
450.65	7353.96
450.83	7220.55
451.02	7269.70
451.20	7386.73
451.39	7400.77
451.57	7424.18
451.76	7101.19
451.94	7211.19
452.13	7393.75
452.31	7286.09
452.49	7133.95
452.68	7229.91
452.86	7070.76
453.05	7243.96
453.23	7566.95
453.42	7358.64
453.60	7515.46
453.78	7681.64
453.97	7648.87
454.15	7335.24
454.34	7576.31
454.52	7344.60
454.70	7499.08
454.89	7585.68
455.07	7566.95
455.26	7691.00
455.44	7705.04
455.62	7878.24
455.81	7602.06
455.99	7793.98
456.17	8004.63
456.36	7873.56
456.54	7889.95
456.73	7990.59
456.91	8049.10
457.09	8173.15
457.28	8294.86
457.46	8161.45
457.64	8105.28
457.83	8095.91
458.01	7969.52
458.19	8168.47
458.38	8241.03
458.56	8409.54
458.74	8435.29
458.93	8285.50
459.11	8334.65
459.29	8149.75
459.48	8435.29
459.66	8315.92
459.84	8388.48
460.03	8765.31
460.21	8484.44
460.39	8545.30
460.57	8552.32
460.76	8585.08
460.94	8479.76
461.12	8692.75
461.31	8638.92
461.49	8610.83
461.67	8788.71
461.85	8931.48
462.04	8903.40
462.22	9425.34
462.40	9130.43
462.59	8879.99
462.77	8931.48
462.95	9109.36
463.13	8858.93
463.32	8980.64
463.50	9081.28
463.68	8730.20
463.86	8982.98
464.05	9036.81
464.23	8919.78
464.41	9013.40
464.59	9004.04
464.78	9217.03
464.96	9195.96
465.14	8882.33
465.32	9277.88
465.50	9518.96
465.69	9261.50
465.87	9149.15
466.05	9324.69
466.23	9200.65
466.41	9163.20
466.60	9420.66
466.78	9144.47
466.96	9303.63
467.14	9425.34
467.32	9432.36
467.51	9458.10
467.69	9324.69
467.87	9605.56
468.05	9542.36
468.23	9542.36
468.41	9432.36
468.60	9582.15
468.78	9612.58
468.96	9673.43
469.14	9680.46
469.32	9750.67
469.50	9497.89
469.69	9811.53
469.87	10017.49
470.05	9654.71
470.23	9745.99
470.41	9710.88
470.59	10066.64
470.77	9984.73
470.95	10120.48
471.14	10218.78
471.32	10150.90
471.50	10616.67
471.68	10349.85
471.86	10537.09
472.04	10492.62
472.22	10668.16
472.40	10389.64
472.58	10553.48
472.77	10537.09
472.95	10436.45
473.13	10651.78
473.31	10539.43
473.49	10719.65
473.67	10567.52
473.85	10782.85
474.03	10963.07
474.21	10778.17
474.39	11023.92
474.57	11173.72
474.75	11117.54
474.93	11234.57
475.12	11482.67
475.30	11421.81
475.48	11290.74
475.66	11307.13
475.84	11433.52
476.02	11571.61
476.20	11250.96
476.38	11667.57
476.56	12156.74
476.74	12149.72
476.92	11854.81
477.10	11871.20
477.28	12191.85
477.46	12177.81
477.64	12423.56
477.82	12287.81
478.00	12542.93
478.18	12367.39
478.36	12769.96
478.54	12842.52
478.72	12854.22
478.90	12992.31
479.08	13224.03
479.26	13355.10
479.44	13254.45
479.62	13291.90
479.80	13413.61
479.98	13415.95
480.16	13741.29
480.34	13530.64
480.52	13827.88
480.70	13738.94
480.88	13633.62
481.06	13867.67
481.24	14291.31
481.41	14424.72
481.59	14403.66
481.77	14487.92
481.95	14621.33
482.13	14768.78
482.31	14616.65
482.49	14958.36
482.67	14778.14
482.85	14998.15
483.03	15363.28
483.21	15548.18
483.39	15836.06
483.57	15367.96
483.74	15501.37
483.92	15838.41
484.10	15541.16
484.28	15941.39
484.46	16301.83
484.64	16299.49
484.82	16313.53
485.00	16156.72
485.18	16390.77
485.35	16592.06
485.53	16182.46
485.71	16046.71
485.89	16388.43
486.07	16519.50
486.25	16554.61
486.43	16893.99
486.61	16908.03
486.78	17514.23
486.96	17558.70
487.14	17818.50
487.32	17694.45
487.50	17900.42
487.68	18352.14
487.85	18515.98
488.03	18775.78
488.21	18689.18
488.39	18377.89
488.57	18909.19
488.75	18705.56
488.92	19115.16
489.10	19580.92
489.28	19824.34
489.46	19421.77
489.64	19927.32
489.81	20175.42
489.99	20353.30
490.17	20196.48
490.35	20460.96
490.53	20423.51
490.70	20559.27
490.88	20379.04
491.06	20919.71
491.24	20662.25
491.41	21015.67
491.59	20968.86
491.77	20835.45
491.95	21343.35
492.13	21359.73
492.30	21591.44
492.48	21867.63
492.66	22052.53
492.84	21996.35
493.01	22314.67
493.19	22190.62
493.37	22249.13
493.54	22246.79
493.72	22820.22
493.90	22693.83
494.08	23248.54
494.25	23388.97
494.43	23192.37
494.61	23365.57
494.79	23601.96
494.96	23744.73
495.14	23578.56
495.32	23908.57
495.49	24053.69
495.67	23847.72
495.85	24261.99
496.02	24477.32
496.20	24334.55
496.38	24496.05
496.55	24650.52
496.73	25013.31
496.91	24868.19
497.09	25429.92
497.26	25523.54
497.44	25200.55
497.62	25144.38
497.79	25329.28
497.97	25404.17
498.14	25937.82
498.32	25523.54
498.50	25654.61
498.67	26228.04
498.85	25958.88
499.03	26457.42
499.20	26384.86
499.38	26551.04
499.56	26876.37
499.73	26855.31
499.91	26665.72
500.08	26967.65
500.26	26403.58
500.44	26829.56
500.61	26822.54
500.79	26817.86
500.97	26932.54
501.14	27410.01
501.32	27014.46
501.49	27505.98
501.67	27103.40
501.84	27536.40
502.02	27723.65
502.20	27814.93
502.37	27831.31
502.55	28266.65
502.72	27894.50
502.90	28456.23
503.07	28053.66
503.25	28212.82
503.43	28301.76
503.60	28142.60
503.78	28449.21
503.95	28416.44
504.13	28631.77
504.30	29008.60
504.48	28795.61
504.65	29048.39
504.83	29228.61
505.01	29235.63
505.18	28854.12
505.36	29727.14
505.53	29890.98
505.71	29575.01
505.88	29518.84
506.06	29511.81
506.23	29820.77
506.41	29638.20
506.58	30335.68
506.76	30249.08
506.93	30279.51
507.11	30274.83
507.28	30405.90
507.46	30153.12
507.63	29902.68
507.81	30380.15
507.98	30103.97
508.16	30906.77
508.33	30817.83
508.50	30984.01
508.68	31047.21
508.85	31328.07
509.03	30665.70
509.20	31035.50
509.38	31690.85
509.55	31037.84
509.73	31599.57
509.90	31714.26
510.08	31854.69
510.25	31660.43
510.42	31473.18
510.60	32109.81
510.77	32161.30
510.95	32449.19
511.12	31969.38
511.30	32512.38
511.47	32533.45
511.64	32676.22
511.82	32208.11
511.99	32238.54
512.17	32432.80
512.34	32371.95
512.51	32989.85
512.69	33062.41
512.86	32872.82
513.04	33230.93
513.21	33172.41
513.38	32804.95
513.56	32964.10
513.73	33031.98
513.90	33174.75
514.08	33069.43
514.25	33467.32
514.43	33673.29
514.60	33259.01
514.77	33563.28
514.95	33762.23
515.12	33752.87
515.29	33612.43
515.47	34029.05
515.64	34153.10
515.81	33855.85
515.99	33996.28
516.16	33996.28
516.33	33834.78
516.51	34012.66
516.68	33783.29
516.85	33198.16
517.03	33839.47
517.20	33879.25
517.37	34550.99
517.54	34628.23
517.72	34541.63
517.89	34061.82
518.06	33902.66
518.24	34445.66
518.41	34462.05
518.58	34679.72
518.75	34906.75
518.93	35208.68
519.10	34459.71
519.27	35349.11
519.45	34866.96
519.62	35786.79
519.79	35622.95
519.96	35023.78
520.14	35463.80
520.31	35290.60
520.48	35517.63
520.65	35744.66
520.83	35615.93
521.00	35945.95
521.17	36308.73
521.34	36070.00
521.52	36041.91
521.69	35857.01
521.86	36201.07
522.03	36444.48
522.20	36430.44
522.38	36479.59
522.55	36554.49
522.72	36423.42
522.89	36809.61
523.07	37001.53
523.24	36704.28
523.41	37464.96
523.58	37106.85
523.75	37244.94
523.92	37652.20
524.10	37507.08
524.27	37249.63
524.44	37715.39
524.61	37511.77
524.78	37542.19
524.96	37237.92
525.13	37647.52
525.30	37844.12
525.47	37771.57
525.64	37514.11
525.81	37809.01
525.98	38038.39
526.16	37397.08
526.33	37317.50
526.50	37420.48
526.67	37017.91
526.84	37455.59
527.01	38047.75
527.18	37853.48
527.36	38022.00
527.53	38506.49
527.70	39009.71
527.87	38396.49
528.04	38398.83
528.21	38714.80
528.38	38960.56
528.55	38953.54
528.72	39035.45
528.89	39150.14
529.07	38895.02
529.24	38726.50
529.41	39428.66
529.58	38827.15
529.75	38953.54
529.92	39213.34
530.09	39126.74
530.26	39487.18
530.43	39405.26
530.60	39112.69
530.77	40084.01
530.94	39522.29
531.11	39571.44
531.28	39672.08
531.46	39622.93
531.63	39552.71
531.80	39812.51
531.97	39983.37
532.14	39557.39
532.31	39587.82
532.48	39732.93
532.65	39639.31
532.82	39538.67
532.99	39887.41
533.16	39824.22
533.33	40158.91
533.50	40493.61
533.67	40449.14
533.84	39920.18
534.01	40652.76
534.18	40378.92
534.35	40519.35
534.52	40718.30
534.69	40533.40
534.86	40715.96
535.03	40512.33
535.20	40954.69
535.37	41493.02
535.54	41242.58
535.71	40809.58
535.88	40711.28
536.05	40498.29
536.22	41055.34
536.38	40931.29
536.55	40893.84
536.72	40884.48
536.89	40687.87
537.06	40477.22
537.23	41371.31
537.40	41230.88
537.57	41287.05
537.74	41305.77
537.91	41345.56
538.08	41385.35
538.25	41338.54
538.42	41860.48
538.59	41387.69
538.75	41181.73
538.92	41275.35
539.09	41757.50
539.26	41645.15
539.43	41221.52
539.60	41710.69
539.77	41343.22
539.94	41621.75
540.11	41493.02
540.28	41586.64
540.44	42043.04
540.61	41631.11
540.78	41413.44
540.95	41546.85
541.12	41883.89
541.29	41907.29
541.46	42010.28
541.62	42389.44
541.79	42412.85
541.96	41750.48
542.13	41820.69
542.30	42136.66
542.47	42192.84
542.63	42408.17
542.80	42176.45
542.97	42581.37
543.14	42787.33
543.31	42810.74
543.48	42724.14
543.64	43337.36
543.81	43185.22
543.98	42967.55
544.15	42478.38
544.32	43288.21
544.48	43229.69
544.65	42822.44
544.82	43391.19
544.99	42445.62
545.16	43040.11
545.32	43040.11
545.49	43449.70
545.66	43433.32
545.83	43199.27
546.00	43540.99
546.16	43091.60
546.33	43393.53
546.50	43484.81
546.67	43718.87
546.83	42916.06
547.00	43260.12
547.17	43365.45
547.34	43119.69
547.50	43976.33
547.67	44002.07
547.84	43868.66
548.00	43938.88
548.17	43714.19
548.34	44147.18
548.51	44147.18
548.67	43983.35
548.84	43803.13
549.01	43997.39
549.18	43875.68
549.34	43997.39
549.51	43821.85
549.68	44044.20
549.84	44285.28
550.01	44437.41
550.18	44023.14
550.34	44271.23
550.51	44287.62
550.68	44018.46
550.84	43746.95
551.01	44011.43
551.18	44060.58
551.34	43934.20
551.51	44385.92
551.68	44566.14
551.84	44619.97
552.01	44273.57
552.18	44428.05
552.34	44350.81
552.51	44872.75
552.68	44760.40
552.84	44545.08
553.01	44879.77
553.18	44587.21
553.34	44802.53
553.51	44320.38
553.67	44779.13
553.84	44945.31
554.01	45052.97
554.17	45139.57
554.34	44636.36
554.51	44779.13
554.67	44821.26
554.84	44711.25
555.00	44329.75
555.17	44898.50
555.33	44804.88
555.50	45116.17
555.67	45249.58
555.83	45226.17
556.00	44875.09
556.16	45177.02
556.33	44949.99
556.50	45230.85
556.66	45153.62
556.83	44837.64
556.99	45067.02
557.16	45177.02
557.32	45188.72
557.49	45200.43
557.65	45310.43
557.82	45368.94
557.98	44978.07
558.15	45221.49
558.32	45200.43
558.48	44802.53
558.65	44844.66
558.81	45378.31
558.98	45240.21
559.14	45563.21
559.31	45139.57
559.47	45148.93
559.64	45378.31
559.80	45303.41
559.97	45787.90
560.13	45317.45
560.30	45137.23
560.46	45579.59
560.63	45677.90
560.79	45727.05
560.96	45553.85
561.12	45537.46
561.29	45296.39
561.45	45191.06
561.61	45160.64
561.78	45567.89
561.94	45343.20
562.11	45647.47
562.27	45170.00
562.44	45881.52
562.60	45731.73
562.77	45476.61
562.93	45909.61
563.10	45984.51
563.26	45448.52
563.42	45963.44
563.59	45483.63
563.75	45738.75
563.92	45984.51
564.08	45801.94
564.24	46211.54
564.41	46021.95
564.57	45668.53
564.74	45610.02
564.90	45743.43
565.07	45675.55
565.23	45743.43
565.39	45713.00
565.56	45736.41
565.72	45481.29
565.88	45818.33
566.05	45799.60
566.21	45598.32
566.38	45689.60
566.54	45607.68
566.70	46211.54
566.87	45900.25
567.03	46167.07
567.19	46183.45
567.36	46106.21
567.52	45720.02
567.68	45837.05
567.85	46064.08
568.01	46033.66
568.17	46087.49
568.34	46110.89
568.50	45893.22
568.66	46131.96
568.83	45909.61
568.99	45687.26
569.15	45771.52
569.32	45806.62
569.48	46068.76
569.64	46120.26
569.81	46012.59
569.97	45982.16
570.13	46106.21
570.30	45722.37
570.46	45839.39
570.62	45572.57
570.78	45324.47
570.95	45633.42
571.11	45890.88
571.27	45853.44
571.43	45757.47
571.60	46738.16
571.76	46071.10
571.92	46438.57
572.09	46227.92
572.25	46162.39
572.41	46117.92
572.57	46834.12
572.74	46639.86
572.90	46028.98
573.06	46298.14
573.22	46431.55
573.38	46248.99
573.55	45832.37
573.71	46436.23
573.87	46197.49
574.03	46059.40
574.20	46291.12
574.36	46124.94
574.52	46064.08
574.68	46232.60
574.84	45972.80
575.01	46150.68
575.17	46197.49
575.33	45874.50
575.49	46050.04
575.65	45897.91
575.82	46522.83
575.98	46356.65
576.14	46398.78
576.30	46380.06
576.46	46080.47
576.62	45902.59
576.79	45958.76
576.95	46087.49
577.11	46080.47
577.27	46281.75
577.43	45989.19
577.59	45961.10
577.75	45940.04
577.92	46225.58
578.08	46382.40
578.24	46328.56
578.40	45890.88
578.56	46141.32
578.72	46206.86
578.88	46696.03
579.04	45844.07
579.21	46087.49
579.37	45846.41
579.53	46302.82
579.69	45691.94
579.85	46309.84
580.01	46209.20
580.17	46230.26
580.33	46277.07
580.49	46000.89
580.65	45689.60
580.82	45832.37
580.98	46218.56
581.14	46363.67
581.30	46167.07
581.46	46291.12
581.62	46471.34
581.78	46143.66
581.94	46660.92
582.10	46380.06
582.26	46167.07
582.42	46382.40
582.58	46237.28
582.74	45979.82
582.90	46349.63
583.06	46773.27
583.22	46487.72
583.38	46504.10
583.54	46887.95
583.70	46476.02
583.86	46653.90
584.02	46028.98
584.18	46426.87
584.34	45998.55
584.50	46625.81
584.66	46054.72
584.82	46312.18
584.98	46770.93
585.14	46616.45
585.30	46366.01
585.46	46277.07
585.62	45989.19
585.78	46043.02
585.94	46424.53
586.10	46138.98
586.26	46134.30
586.42	46473.68
586.58	46223.24
586.74	46480.70
586.90	46305.16
587.06	46476.02
587.22	46665.60
587.38	46021.95
587.54	46436.23
587.70	46438.57
587.86	46511.13
588.02	46443.25
588.18	46501.76
588.34	45823.01
588.49	46078.13
588.65	45509.38
588.81	45528.10
588.97	46012.59
589.13	45975.14
589.29	45710.66
589.45	46024.29
589.61	46286.43
589.77	46476.02
589.93	46234.94
