SpectraSuite Data File
++++++++++++++++++++++++++++++++++++
Date: Fri Oct 25 10:44:03 EDT 2013
User: price-jones
Dark Spectrum Present: No
Reference Spectrum Present: No
Number of Sampled Component Spectra: 1
Spectrometers: USB2+H05261
Integration Time (usec): 100000 (USB2+H05261)
Spectra Averaged: 1 (USB2+H05261)
Boxcar Smoothing: 0 (USB2+H05261)
Correct for Electrical Dark: No (USB2+H05261)
Strobe/Lamp Enabled: No (USB2+H05261)
Correct for Detector Non-linearity: No (USB2+H05261)
Correct for Stray Light: No (USB2+H05261)
Number of Pixels in Processed Spectrum: 2048
>>>>>Begin Processed Spectral Data<<<<<
365.73	184.90
365.92	184.90
366.12	184.90
366.32	98.30
366.52	30.43
366.72	23.41
366.91	18.72
367.11	35.11
367.31	16.38
367.51	25.75
367.70	23.41
367.90	46.81
368.10	0.00
368.30	37.45
368.49	44.47
368.69	42.13
368.89	18.72
369.09	0.00
369.28	18.72
369.48	107.66
369.68	49.15
369.87	32.77
370.07	37.45
370.27	88.94
370.47	138.09
370.66	395.55
370.86	383.85
371.06	386.19
371.25	538.32
371.45	531.30
371.65	484.49
371.84	475.13
372.04	484.49
372.24	416.62
372.44	425.98
372.63	538.32
372.83	472.79
373.03	447.04
373.22	519.60
373.42	550.03
373.62	528.96
373.81	543.00
374.01	634.29
374.21	552.37
374.40	587.47
374.60	613.22
374.79	599.18
374.99	627.26
375.19	580.45
375.38	641.31
375.58	592.16
375.78	566.41
375.97	622.58
376.17	709.18
376.37	615.56
376.56	627.26
376.76	592.16
376.95	613.22
377.15	669.39
377.35	704.50
377.54	683.44
377.74	620.24
377.93	667.05
378.13	741.95
378.33	683.44
378.52	702.16
378.72	697.48
378.91	688.12
379.11	709.18
379.31	695.14
379.50	695.14
379.70	767.70
379.89	678.76
380.09	660.03
380.28	755.99
380.48	802.80
380.68	683.44
380.87	770.04
381.07	692.80
381.26	875.36
381.46	697.48
381.65	760.67
381.85	765.36
382.04	739.61
382.24	702.16
382.43	713.86
382.63	678.76
382.83	676.41
383.02	763.01
383.22	823.87
383.41	798.12
383.61	765.36
383.80	821.53
384.00	716.20
384.19	774.72
384.39	887.06
384.58	875.36
384.78	816.85
384.97	835.57
385.17	842.59
385.36	826.21
385.56	781.74
385.75	798.12
385.95	837.91
386.14	774.72
386.34	929.19
386.53	858.98
386.72	814.51
386.92	966.64
387.11	842.59
387.31	854.30
387.50	945.58
387.70	931.53
387.89	884.72
388.09	880.04
388.28	931.53
388.48	917.49
388.67	945.58
388.86	943.24
389.06	919.83
389.25	1036.86
389.45	1011.11
389.64	990.05
389.84	973.66
390.03	950.26
390.22	1071.97
390.42	1022.81
390.61	1057.92
390.81	1034.52
391.00	1093.03
391.19	1156.22
391.39	1069.62
391.58	1130.48
391.78	1104.73
391.97	1123.46
392.16	1071.97
392.36	1170.27
392.55	1029.84
392.75	938.55
392.94	863.66
393.13	999.41
393.33	1048.56
393.52	1055.58
393.71	1123.46
393.91	1132.82
394.10	1198.35
394.29	1217.08
394.49	1144.52
394.68	1238.14
394.88	1270.91
395.07	1240.48
395.26	1432.41
395.46	1327.08
395.65	1221.76
395.84	1268.57
396.04	1282.61
396.23	1212.40
396.42	1172.61
396.62	1214.74
396.81	1294.32
397.00	1273.25
397.19	1390.28
397.39	1387.94
397.58	1437.09
397.77	1427.73
397.97	1549.43
398.16	1614.97
398.35	1549.43
398.55	1540.07
398.74	1568.16
398.93	1661.78
399.12	1624.33
399.32	1563.48
399.51	1659.44
399.70	1661.78
399.90	1629.01
400.09	1638.38
400.28	1713.27
400.47	1629.01
400.67	1778.81
400.86	1736.68
401.05	1771.79
401.24	1795.19
401.44	1842.00
401.63	1905.20
401.82	1867.75
402.01	1657.10
402.21	1863.07
402.40	1846.68
402.59	1809.23
402.78	1839.66
402.97	1795.19
403.17	1823.28
403.36	1858.39
403.55	1973.07
403.74	1942.64
403.93	1933.28
404.13	1940.30
404.32	1959.03
404.51	2057.33
404.70	1959.03
404.89	1980.09
405.09	1987.11
405.28	2073.71
405.47	2169.68
405.66	2136.91
405.85	2066.69
406.05	2069.03
406.24	2059.67
406.43	2125.21
406.62	2153.29
406.81	2328.83
407.00	2139.25
407.20	2181.38
407.39	2251.60
407.58	2284.36
407.77	2300.75
407.96	2312.45
408.15	2286.70
408.34	2321.81
408.54	2370.96
408.73	2385.01
408.92	2401.39
409.11	2427.14
409.30	2427.14
409.49	2406.07
409.68	2310.11
409.87	2427.14
410.07	2539.48
410.26	2572.25
410.45	2579.27
410.64	2607.36
410.83	2560.55
411.02	2705.66
411.21	2628.42
411.40	2729.06
411.59	2733.75
411.78	2724.38
411.98	2675.23
412.17	2675.23
412.36	2789.92
412.55	2888.22
412.74	2930.35
412.93	2911.63
413.12	2836.73
413.31	3082.49
413.50	2841.41
413.69	2939.71
413.88	3042.70
414.07	3063.76
414.26	3026.31
414.45	3169.09
414.64	3084.83
414.83	3232.28
415.02	3178.45
415.22	3290.79
415.41	3330.58
415.60	3311.86
415.79	3335.26
415.98	3440.59
416.17	3517.83
416.36	3417.18
416.55	3398.46
416.74	3438.25
416.93	3309.52
417.12	3452.29
417.31	3398.46
417.50	3564.64
417.69	3714.43
417.88	3581.02
418.07	3630.17
418.26	3707.41
418.45	3625.49
418.64	3789.33
418.83	3634.85
419.02	3674.64
419.21	3742.52
419.39	3693.37
419.58	3630.17
419.77	3667.62
419.96	3761.24
420.15	3974.23
420.34	3960.19
420.53	3983.59
420.72	3990.61
420.91	4093.60
421.10	3901.67
421.29	4002.32
421.48	3878.27
421.67	4016.36
421.86	3995.29
422.05	3941.46
422.24	3847.84
422.43	3934.44
422.61	4009.34
422.80	4114.66
422.99	4189.56
423.18	4051.47
423.37	4138.07
423.56	4255.09
423.75	4301.90
423.94	4152.11
424.13	3826.78
424.32	3969.55
424.50	4231.69
424.69	4236.37
424.88	4283.18
425.07	4063.17
425.26	4154.45
425.45	4124.02
425.64	4021.04
425.83	4283.18
426.01	4264.46
426.20	4301.90
426.39	4231.69
426.58	4280.84
426.77	4140.41
426.96	4065.51
427.15	4177.86
427.33	4145.09
427.52	4128.70
427.71	4358.08
427.90	4367.44
428.09	4329.99
428.28	4313.61
428.46	4510.21
428.65	4287.86
428.84	4379.14
429.03	4224.67
429.22	4358.08
429.40	4306.59
429.59	4329.99
429.78	4210.62
429.97	3995.29
430.16	4147.43
430.34	4308.93
430.53	4454.04
430.72	4351.06
430.91	4297.22
431.10	4638.94
431.28	4781.71
431.47	4795.76
431.66	4875.34
431.85	4676.39
432.03	4889.38
432.22	4943.21
432.41	4767.67
432.60	4887.04
432.79	4901.08
432.97	5053.22
433.16	5032.15
433.35	4823.84
433.54	4875.34
433.72	4805.12
433.91	4945.55
434.10	4861.29
434.28	4983.00
434.47	5039.17
434.66	5289.61
434.85	5277.91
435.03	5181.95
435.22	5186.63
435.41	5359.83
435.59	5313.02
435.78	5387.91
435.97	5301.31
436.16	5418.34
436.34	5343.44
436.53	5366.85
436.72	5427.70
436.90	5373.87
437.09	5423.02
437.28	5301.31
437.46	5266.21
437.65	5535.37
437.84	5416.00
438.02	5303.65
438.21	5254.50
438.40	5240.46
438.58	5565.79
438.77	5722.61
438.96	5659.42
439.14	5781.12
439.33	5825.59
439.52	5746.02
439.70	5968.37
439.89	5809.21
440.08	5912.19
440.26	6101.78
440.45	5949.64
440.63	6083.05
440.82	6225.82
441.01	6392.00
441.19	6256.25
441.38	6380.30
441.57	6293.70
441.75	6647.12
441.94	6583.93
442.12	6651.80
442.31	6661.16
442.50	6616.69
442.68	6574.56
442.87	6530.09
443.05	6731.38
443.24	6717.34
443.43	6630.74
443.61	6724.36
443.80	6930.33
443.98	6661.16
444.17	6539.46
444.35	6899.90
444.54	6794.58
444.73	7117.57
444.91	6736.06
445.10	6888.20
445.28	6782.87
445.47	6710.32
445.65	6726.70
445.84	6675.21
446.02	6820.32
446.21	6729.04
446.39	6754.79
446.58	7028.63
446.77	6995.86
446.95	6885.86
447.14	7056.72
447.32	7206.51
447.51	6970.12
447.69	7073.10
447.88	7049.69
448.06	6970.12
448.25	7052.03
448.43	7035.65
448.62	7042.67
448.80	7002.88
448.99	7133.95
449.17	7115.23
449.36	7124.59
449.54	7396.09
449.73	7468.65
449.91	7487.37
450.10	7424.18
450.28	7466.31
450.46	7583.34
450.65	7695.68
450.83	7510.78
451.02	7588.02
451.20	7599.72
451.39	7637.17
451.57	7562.27
451.76	7475.67
451.94	7669.94
452.13	7634.83
452.31	7595.04
452.49	7555.25
452.68	7674.62
452.86	7552.91
453.05	7468.65
453.23	7733.13
453.42	7599.72
453.60	7744.83
453.78	7950.80
453.97	7754.19
454.15	7674.62
454.34	7683.98
454.52	7754.19
454.70	7749.51
454.89	7866.54
455.07	7903.99
455.26	8131.02
455.44	8039.74
455.62	8072.51
455.81	8030.38
455.99	8201.24
456.17	8121.66
456.36	8168.47
456.54	8224.64
456.73	8428.27
456.91	8636.58
457.09	8559.34
457.28	8868.29
457.46	8159.11
457.64	8547.64
457.83	8645.94
458.01	8437.63
458.19	8676.37
458.38	8538.27
458.56	8692.75
458.74	8723.18
458.93	8624.87
459.11	8596.79
459.29	8634.24
459.48	8608.49
459.66	8711.47
459.84	8805.10
460.03	8992.34
460.21	8905.74
460.39	8901.06
460.57	8847.22
460.76	9081.28
460.94	9088.30
461.12	9174.90
461.31	9029.79
461.49	8910.42
461.67	9177.24
461.85	9165.54
462.04	9179.58
462.22	9708.54
462.40	9305.97
462.59	9380.87
462.77	9385.55
462.95	9399.59
463.13	9165.54
463.32	9231.07
463.50	9516.62
463.68	9369.16
463.86	9212.35
464.05	9118.73
464.23	9355.12
464.41	9514.28
464.59	9305.97
464.78	9586.83
464.96	9355.12
465.14	9383.21
465.32	9795.14
465.50	9628.96
465.69	9584.49
465.87	9741.31
466.05	9540.02
466.23	9664.07
466.41	9525.98
466.60	9832.59
466.78	9516.62
466.96	9617.26
467.14	9575.13
467.32	9659.39
467.51	10176.65
467.69	9748.33
467.87	9982.38
468.05	10092.39
468.23	9994.09
468.41	9834.93
468.60	10214.10
468.78	9954.30
468.96	9954.30
469.14	10118.14
469.32	10033.88
469.50	9748.33
469.69	10279.63
469.87	10111.11
470.05	10113.45
470.23	10300.70
470.41	10382.62
470.59	10417.72
470.77	10457.51
470.95	10380.28
471.14	10490.28
471.32	10157.92
471.50	10757.10
471.68	10626.03
471.86	10867.11
472.04	10736.04
472.22	10890.51
472.40	10810.93
472.58	10841.36
472.77	10824.98
472.95	11049.67
473.13	11257.98
473.31	11059.03
473.49	10817.96
473.67	11234.57
473.85	11117.54
474.03	11597.35
474.21	11501.39
474.39	11609.06
474.57	11576.29
474.75	11552.88
474.93	11644.17
475.12	11590.33
475.30	11716.72
475.48	11798.64
475.66	11836.09
475.84	11896.94
476.02	11868.86
476.20	12044.40
476.38	12149.72
476.56	12531.23
476.74	12140.36
476.92	12245.68
477.10	12346.33
477.28	12765.28
477.46	12451.65
477.64	12826.14
477.82	13088.28
478.00	13350.42
478.18	13163.17
478.36	12978.27
478.54	13050.83
478.72	13111.68
478.90	13392.55
479.08	13387.86
479.26	13558.72
479.44	13696.82
479.62	13848.95
479.80	13961.30
479.98	14150.88
480.16	14115.77
480.34	14373.23
480.52	14562.81
480.70	14361.53
480.88	14214.07
481.06	14401.32
481.24	14668.14
481.41	15016.88
481.59	14909.21
481.77	14991.13
481.95	15007.52
482.13	15236.89
482.31	15417.11
482.49	15634.78
482.67	15805.64
482.85	15683.93
483.03	15906.28
483.21	15990.54
483.39	15927.35
483.57	16269.06
483.74	16219.91
483.92	16325.24
484.10	16259.70
484.28	16194.17
484.46	16774.62
484.64	17069.53
484.82	16704.40
485.00	16704.40
485.18	17022.72
485.35	17121.02
485.53	16830.79
485.71	16498.44
485.89	17184.21
486.07	16711.42
486.25	17380.82
486.43	17350.39
486.61	17802.11
486.78	17933.18
486.96	18277.24
487.14	18380.23
487.32	18525.34
487.50	18649.39
487.68	18841.31
487.85	19276.65
488.03	19108.13
488.21	19131.54
488.39	19386.66
488.57	19152.60
488.75	19751.78
488.92	19852.42
489.10	20477.35
489.28	20372.02
489.46	20711.40
489.64	20393.09
489.81	21050.78
489.99	20879.92
490.17	20898.64
490.35	21284.83
490.53	21022.69
490.70	21350.37
490.88	21106.95
491.06	21521.23
491.24	21296.53
491.41	21591.44
491.59	21589.10
491.77	21362.07
491.95	21979.97
492.13	21954.22
492.30	22263.18
492.48	22469.14
492.66	22700.86
492.84	22761.71
493.01	22958.31
493.19	22820.22
493.37	23042.57
493.54	22726.60
493.72	23541.11
493.90	23529.41
494.08	23789.20
494.25	23962.40
494.43	24271.36
494.61	24254.97
494.79	24531.15
494.96	24343.91
495.14	24465.62
495.32	24875.21
495.49	24758.19
495.67	24596.69
495.85	25226.29
496.02	25095.22
496.20	25127.99
496.38	25144.38
496.55	25303.53
496.73	26185.91
496.91	25788.02
497.09	26251.45
497.26	26099.31
497.44	26176.55
497.62	26574.44
497.79	26513.59
497.97	26225.70
498.14	26139.10
498.32	26724.24
498.50	26375.50
498.67	27014.46
498.85	27035.53
499.03	27227.45
499.20	27402.99
499.38	27449.80
499.56	27620.66
499.73	27915.57
499.91	28098.13
500.08	27625.34
500.26	27576.19
500.44	27599.60
500.61	27505.98
500.79	27330.44
500.97	27885.14
501.14	28109.83
501.32	28088.77
501.49	28144.94
501.67	28224.52
501.84	28451.55
502.02	28463.25
502.20	28486.66
502.37	28816.68
502.55	28732.42
502.72	29240.31
502.90	28947.75
503.07	29280.10
503.25	29223.93
503.43	29067.11
503.60	29469.69
503.78	29099.88
503.95	29343.30
504.13	29703.74
504.30	29921.41
504.48	29670.97
504.65	30157.80
504.83	30082.91
505.01	30668.04
505.18	30139.08
505.36	30616.55
505.53	30445.69
505.71	30843.58
505.88	30532.29
506.06	30607.19
506.23	30581.44
506.41	30745.28
506.58	30841.24
506.76	30976.99
506.93	31330.41
507.11	31005.08
507.28	30909.11
507.46	31241.47
507.63	31473.18
507.81	30969.97
507.98	31232.11
508.16	31438.08
508.33	31690.85
508.50	32191.73
508.68	32051.30
508.85	32353.23
509.03	32245.56
509.20	32114.49
509.38	31859.37
509.55	31915.54
509.73	32500.68
509.90	32561.53
510.08	32137.90
510.25	32826.01
510.42	32868.14
510.60	33053.05
510.77	32910.27
510.95	33195.82
511.12	32807.29
511.30	33291.78
511.47	33376.04
511.64	33476.68
511.82	33713.08
511.99	33432.21
512.17	33301.14
512.34	33266.03
512.51	33818.40
512.69	33642.86
512.86	33846.49
513.04	33923.72
513.21	34143.74
513.38	33841.81
513.56	34106.29
513.73	34050.11
513.90	34581.42
514.08	34206.93
514.25	34033.73
514.43	34169.48
514.60	34242.04
514.77	34359.06
514.95	34771.00
515.12	35021.44
515.29	35068.25
515.47	35639.34
515.64	35508.27
515.81	34878.66
515.99	35419.33
516.16	34682.06
516.33	34745.25
516.51	34583.76
516.68	34338.00
516.85	34235.02
517.03	34923.13
517.20	35105.70
517.37	35784.45
517.54	35573.80
517.72	35269.53
517.89	34705.46
518.06	34672.70
518.24	35058.88
518.41	35419.33
518.58	35470.82
518.75	35505.93
518.93	36016.16
519.10	36315.75
519.27	36107.44
519.45	36264.26
519.62	36371.92
519.79	36657.47
519.96	36453.84
520.14	36456.18
520.31	36114.47
520.48	36531.08
520.65	36912.59
520.83	37235.58
521.00	37282.39
521.17	37083.45
521.34	37212.18
521.52	37553.90
521.69	37256.65
521.86	37839.44
522.03	37869.87
522.20	37558.58
522.38	37731.78
522.55	37738.80
522.72	37811.35
522.89	37514.11
523.07	37530.49
523.24	37319.84
523.41	38082.86
523.58	37813.70
523.75	38359.04
523.92	38356.70
524.10	38742.89
524.27	38761.61
524.44	38576.71
524.61	38218.61
524.78	38689.06
524.96	38621.18
525.13	38890.34
525.30	39084.61
525.47	39484.84
525.64	38850.55
525.81	38696.08
525.98	38675.01
526.16	38504.15
526.33	38485.43
526.50	38405.85
526.67	38614.16
526.84	38398.83
527.01	38452.66
527.18	38895.02
527.36	39503.56
527.53	39641.65
527.70	39641.65
527.87	39550.37
528.04	39517.60
528.21	39920.18
528.38	39632.29
528.55	40591.91
528.72	40039.54
528.89	40505.31
529.07	40051.25
529.24	39519.95
529.41	39952.94
529.58	40114.44
529.75	39503.56
529.92	40388.28
530.09	40404.67
530.26	40538.08
530.43	40989.80
530.60	40863.41
530.77	40521.69
530.94	41165.34
531.11	40353.18
531.28	40861.07
531.46	40905.54
531.63	40907.88
531.80	40570.85
531.97	40570.85
532.14	40730.00
532.31	40297.00
532.48	40821.28
532.65	40615.32
532.82	40620.00
532.99	41247.26
533.16	40891.50
533.33	41193.43
533.50	41228.54
533.67	41612.38
533.84	41083.42
534.01	41481.31
534.18	41539.83
534.35	41776.22
534.52	41207.47
534.69	41865.16
534.86	41549.19
535.03	41588.98
535.20	42150.71
535.37	42005.59
535.54	42291.14
535.71	42099.22
535.88	42260.71
536.05	41675.58
536.22	41855.80
536.38	41958.78
536.55	42108.58
536.72	41989.21
536.89	41839.42
537.06	41890.91
537.23	42272.42
537.40	41858.14
537.57	42253.69
537.74	42246.67
537.91	42543.92
538.08	42726.48
538.25	42052.41
538.42	42569.66
538.59	42958.19
538.75	41991.55
538.92	42916.06
539.09	42824.78
539.26	42211.56
539.43	42574.34
539.60	42895.00
539.77	42686.69
539.94	42375.40
540.11	42354.33
540.28	42506.47
540.44	42768.61
540.61	42527.53
540.78	42504.13
540.95	42644.56
541.12	43065.86
541.29	42581.37
541.46	42972.24
541.62	42972.24
541.79	43339.70
541.96	42660.94
542.13	42979.26
542.30	43054.15
542.47	43157.14
542.63	43044.79
542.80	43491.83
542.97	43725.89
543.14	43842.92
543.31	43756.32
543.48	43941.22
543.64	44119.10
543.81	43922.49
543.98	44339.11
544.15	44175.27
544.32	44194.00
544.48	44456.14
544.65	44149.53
544.82	44044.20
544.99	43821.85
545.16	44233.78
545.32	43885.04
545.49	44238.47
545.66	44601.25
545.83	44474.86
546.00	44374.22
546.16	44296.98
546.33	44161.23
546.50	44095.69
546.67	44453.79
546.83	44273.57
547.00	44404.64
547.17	44399.96
547.34	44346.13
547.50	44528.69
547.67	44926.58
547.84	44538.05
548.00	44739.34
548.17	45158.30
548.34	44877.43
548.51	45483.63
548.67	45172.34
548.84	44875.09
549.01	44758.06
549.18	44818.92
549.34	44945.31
549.51	45261.28
549.68	45085.74
549.84	45226.17
550.01	45462.57
550.18	45525.76
550.34	45549.17
550.51	45036.59
550.68	45050.63
550.84	44968.71
551.01	45181.70
551.18	45441.50
551.34	45415.76
551.51	45638.11
551.68	45858.12
551.84	45406.39
552.01	45483.63
552.18	45375.97
552.34	45184.04
552.51	45322.13
552.68	45317.45
552.84	45708.32
553.01	45682.58
553.18	45860.46
553.34	45675.55
553.51	45668.53
553.67	46021.95
553.84	45986.85
554.01	46188.13
554.17	45888.54
554.34	45827.69
554.51	46129.62
554.67	45874.50
554.84	46476.02
555.00	46356.65
555.17	46052.38
555.33	46080.47
555.50	45785.56
555.67	45820.67
555.83	45329.16
556.00	46071.10
556.16	46478.36
556.33	45382.99
556.50	46206.86
556.66	46143.66
556.83	45834.71
556.99	46492.40
557.16	46319.20
557.32	45977.48
557.49	46553.26
557.65	46061.74
557.82	46539.21
557.98	46483.04
558.15	46459.63
558.32	46232.60
558.48	45806.62
558.65	46401.12
558.81	46368.35
558.98	46014.93
559.14	46169.41
559.31	46253.67
559.47	46370.69
559.64	46543.89
559.80	46686.67
559.97	46330.90
560.13	46321.54
560.30	46520.49
560.46	46436.23
560.63	46511.13
560.79	46604.75
560.96	46742.84
561.12	46541.55
561.29	46590.70
561.45	46691.35
561.61	46501.76
561.78	46450.27
561.94	46192.81
562.11	46742.84
562.27	46188.13
562.44	46459.63
562.60	47084.56
562.77	46770.93
562.93	46466.66
563.10	46614.11
563.26	46155.36
563.42	46890.29
563.59	46609.43
563.75	46646.88
563.92	46894.97
564.08	46997.96
564.24	46672.62
564.41	46761.56
564.57	46461.97
564.74	46188.13
564.90	46866.89
565.07	46986.25
565.23	46518.15
565.39	46733.48
565.56	47035.41
565.72	46431.55
565.88	46763.90
566.05	46810.71
566.21	46712.41
566.38	46696.03
566.54	46948.81
566.70	47070.51
566.87	47377.12
567.03	46574.32
567.19	47278.82
567.36	47061.15
567.52	47185.20
567.68	47239.03
567.85	47002.64
568.01	47267.12
568.17	46799.01
568.34	46951.15
568.50	46728.80
568.66	46396.44
568.83	46932.42
568.99	46600.07
569.15	46703.05
569.32	46920.72
569.48	46927.74
569.64	46820.08
569.81	46883.27
569.97	46674.96
570.13	46876.25
570.30	46990.94
570.46	46419.84
570.62	46494.74
570.78	46773.27
570.95	46752.20
571.11	47107.96
571.27	46660.92
571.43	46726.46
571.60	46857.52
571.76	47199.24
571.92	47119.66
572.09	47089.24
572.25	47042.43
572.41	47110.30
572.57	47519.90
572.74	47484.79
572.90	47295.21
573.06	47477.77
573.22	47192.22
573.38	47395.85
573.55	47065.83
573.71	47299.89
573.87	47061.15
574.03	47000.30
574.20	47419.25
574.36	46932.42
574.52	47199.24
574.68	47358.40
574.84	47157.11
575.01	47145.41
575.17	46904.34
575.33	46611.77
575.49	47152.43
575.65	47463.72
575.82	47381.80
575.98	47143.07
576.14	47061.15
576.30	47356.06
576.46	47545.64
576.62	46855.18
576.79	46958.17
576.95	46995.62
577.11	47007.32
577.27	47138.39
577.43	47217.97
577.59	46822.42
577.75	47241.37
577.92	46539.21
578.08	46710.07
578.24	46443.25
578.40	46852.84
578.56	47402.87
578.72	46902.00
578.88	47292.86
579.04	47168.82
579.21	46782.63
579.37	47126.69
579.53	47093.92
579.69	46894.97
579.85	47047.11
580.01	47054.13
580.17	47072.85
580.33	47122.01
580.49	47171.16
580.65	47297.55
580.82	47077.54
580.98	46756.88
581.14	47267.12
581.30	47583.09
581.46	47327.97
581.62	47093.92
581.78	47164.14
581.94	47136.05
582.10	47260.10
582.26	47283.50
582.42	47337.33
582.58	47374.78
582.74	47302.23
582.90	47482.45
583.06	47437.98
583.22	47522.24
583.38	47765.65
583.54	47461.38
583.70	47325.63
583.86	47105.62
584.02	46951.15
584.18	47278.82
584.34	47096.26
584.50	47253.08
584.66	46960.51
584.82	47274.14
584.98	47636.92
585.14	47332.65
585.30	47168.82
585.46	47299.89
585.62	47210.95
585.78	46918.38
585.94	46761.56
586.10	46815.40
586.26	46747.52
586.42	47320.95
586.58	47587.77
586.74	47112.64
586.90	46932.42
587.06	47461.38
587.22	47147.75
587.38	46941.78
587.54	47234.35
587.70	47388.83
587.86	47571.39
588.02	47009.66
588.18	47297.55
588.34	46686.67
588.49	46436.23
588.65	45771.52
588.81	46543.89
588.97	46738.16
589.13	47004.98
589.29	46813.05
589.45	46997.96
589.61	46927.74
589.77	47473.09
