SpectraSuite Data File
++++++++++++++++++++++++++++++++++++
Date: Fri Oct 25 10:48:05 EDT 2013
User: price-jones
Dark Spectrum Present: No
Reference Spectrum Present: No
Number of Sampled Component Spectra: 1
Spectrometers: USB2+H05261
Integration Time (usec): 100000 (USB2+H05261)
Spectra Averaged: 1 (USB2+H05261)
Boxcar Smoothing: 0 (USB2+H05261)
Correct for Electrical Dark: No (USB2+H05261)
Strobe/Lamp Enabled: No (USB2+H05261)
Correct for Detector Non-linearity: No (USB2+H05261)
Correct for Stray Light: No (USB2+H05261)
Number of Pixels in Processed Spectrum: 2048
>>>>>Begin Processed Spectral Data<<<<<
365.73	135.75
365.92	135.75
366.12	135.75
366.32	102.98
366.52	117.03
366.72	51.49
366.91	30.43
367.11	0.00
367.31	51.49
367.51	0.00
367.70	88.94
367.90	100.64
368.10	21.06
368.30	53.83
368.49	100.64
368.69	49.15
368.89	93.62
369.09	44.47
369.28	79.58
369.48	84.26
369.68	107.66
369.87	72.56
370.07	149.79
370.27	110.01
370.47	173.20
370.66	395.55
370.86	402.57
371.06	535.98
371.25	433.00
371.45	416.62
371.65	409.59
371.84	449.38
372.04	390.87
372.24	461.09
372.44	425.98
372.63	538.32
372.83	486.83
373.03	498.53
373.22	493.85
373.42	538.32
373.62	500.87
373.81	526.62
374.01	507.90
374.21	524.28
374.40	603.86
374.60	564.07
374.79	496.19
374.99	587.47
375.19	533.64
375.38	617.90
375.58	566.41
375.78	585.13
375.97	627.26
376.17	610.88
376.37	557.05
376.56	535.98
376.76	613.22
376.95	568.75
377.15	599.18
377.35	608.54
377.54	601.52
377.74	521.94
377.93	535.98
378.13	582.79
378.33	627.26
378.52	599.18
378.72	594.50
378.91	655.35
379.11	627.26
379.31	559.39
379.50	653.01
379.70	615.56
379.89	648.33
380.09	601.52
380.28	627.26
380.48	580.45
380.68	662.37
380.87	688.12
381.07	669.39
381.26	638.97
381.46	624.92
381.65	648.33
381.85	641.31
382.04	631.94
382.24	702.16
382.43	634.29
382.63	674.07
382.83	636.63
383.02	685.78
383.22	746.63
383.41	674.07
383.61	727.91
383.80	699.82
384.00	739.61
384.19	718.54
384.39	718.54
384.58	676.41
384.78	763.01
384.97	718.54
385.17	720.88
385.36	730.25
385.56	788.76
385.75	674.07
385.95	809.83
386.14	734.93
386.34	823.87
386.53	812.17
386.72	774.72
386.92	781.74
387.11	812.17
387.31	791.10
387.50	915.15
387.70	809.83
387.89	842.59
388.09	849.61
388.28	798.12
388.48	823.87
388.67	863.66
388.86	833.23
389.06	774.72
389.25	922.17
389.45	887.06
389.64	875.36
389.84	1001.75
390.03	922.17
390.22	889.40
390.42	950.26
390.61	840.25
390.81	873.02
391.00	950.26
391.19	917.49
391.39	992.39
391.58	919.83
391.78	1069.62
391.97	1015.79
392.16	940.90
392.36	961.96
392.55	983.02
392.75	863.66
392.94	1043.88
393.13	1029.84
393.33	987.71
393.52	1029.84
393.71	1137.50
393.91	1116.44
394.10	1060.26
394.29	1004.09
394.49	1048.56
394.68	1109.41
394.88	1053.24
395.07	1104.73
395.26	1132.82
395.46	1142.18
395.65	1151.54
395.84	1078.99
396.04	1184.31
396.23	1095.37
396.42	1095.37
396.62	1170.27
396.81	1123.46
397.00	1020.47
397.19	1102.39
397.39	1186.65
397.58	1116.44
397.77	1245.16
397.97	1291.98
398.16	1191.33
398.35	1254.53
398.55	1317.72
398.74	1224.10
398.93	1263.89
399.12	1301.34
399.32	1170.27
399.51	1313.04
399.70	1338.79
399.90	1322.40
400.09	1348.15
400.28	1380.92
400.47	1336.45
400.67	1371.55
400.86	1439.43
401.05	1376.24
401.24	1355.17
401.44	1460.49
401.63	1544.75
401.82	1472.20
402.01	1355.17
402.21	1530.71
402.40	1481.56
402.59	1575.18
402.78	1544.75
402.97	1549.43
403.17	1549.43
403.36	1511.99
403.55	1544.75
403.74	1600.93
403.93	1551.78
404.13	1629.01
404.32	1514.33
404.51	1682.85
404.70	1523.69
404.89	1689.87
405.09	1762.42
405.28	1654.76
405.47	1614.97
405.66	1657.10
405.85	1778.81
406.05	1701.57
406.24	1797.53
406.43	1795.19
406.62	1713.27
406.81	1863.07
407.00	1781.15
407.20	1804.55
407.39	1753.06
407.58	1827.96
407.77	1839.66
407.96	1830.30
408.15	1891.15
408.34	1853.70
408.54	1994.14
408.73	1926.26
408.92	1888.81
409.11	2029.24
409.30	1895.83
409.49	2045.63
409.68	2001.16
409.87	1968.39
410.07	2047.97
410.26	2115.84
410.45	2083.08
410.64	2167.34
410.83	2045.63
411.02	2115.84
411.21	2143.93
411.40	2312.45
411.59	2225.85
411.78	2267.98
411.98	2232.87
412.17	2214.15
412.36	2258.62
412.55	2438.84
412.74	2417.77
412.93	2352.24
413.12	2389.69
413.31	2408.41
413.50	2459.90
413.69	2410.75
413.88	2509.05
414.07	2569.91
414.26	2602.68
414.45	2523.10
414.64	2654.17
414.83	2630.76
415.02	2686.94
415.22	2679.91
415.41	2686.94
415.60	2719.70
415.79	2656.51
415.98	2780.56
416.17	2754.81
416.36	2726.72
416.55	2813.32
416.74	2916.31
416.93	2672.89
417.12	2860.13
417.31	2897.58
417.50	2883.54
417.69	2963.12
417.88	2916.31
418.07	2963.12
418.26	3023.97
418.45	3098.87
418.64	3098.87
418.83	3026.31
419.02	3131.64
419.21	3248.66
419.39	3038.02
419.58	3075.46
419.77	2967.80
419.96	3131.64
420.15	3185.47
420.34	3274.41
420.53	3227.60
420.72	3302.50
420.91	3286.11
421.10	3276.75
421.29	3433.57
421.48	3297.81
421.67	3510.80
421.86	3295.47
422.05	3358.67
422.24	3351.65
422.43	3442.93
422.61	3311.86
422.80	3440.59
422.99	3442.93
423.18	3297.81
423.37	3508.46
423.56	3382.07
423.75	3440.59
423.94	3412.50
424.13	3157.38
424.32	3274.41
424.50	3543.57
424.69	3548.25
424.88	3449.95
425.07	3496.76
425.26	3555.27
425.45	3473.36
425.64	3447.61
425.83	3410.16
426.01	3599.74
426.20	3529.53
426.39	3503.78
426.58	3461.65
426.77	3480.38
426.96	3487.40
427.15	3480.38
427.33	3555.27
427.52	3557.61
427.71	3574.00
427.90	3611.45
428.09	3637.19
428.28	3618.47
428.46	3777.62
428.65	3662.94
428.84	3798.69
429.03	3882.95
429.22	3698.05
429.40	3574.00
429.59	3831.46
429.78	3632.51
429.97	3517.83
430.16	3611.45
430.34	3810.39
430.53	3854.86
430.72	3864.22
430.91	3831.46
431.10	3908.69
431.28	3960.19
431.47	3854.86
431.66	4014.02
431.85	3950.82
432.03	3981.25
432.22	4152.11
432.41	4058.49
432.60	4109.98
432.79	4086.58
432.97	4170.83
433.16	4236.37
433.35	4044.45
433.54	4060.83
433.72	4241.05
433.91	4208.28
434.10	4098.28
434.28	4231.69
434.47	4262.12
434.66	4416.59
434.85	4510.21
435.03	4374.46
435.22	4308.93
435.41	4435.32
435.59	4360.42
435.78	4425.95
435.97	4416.59
436.16	4304.25
436.34	4468.08
436.53	4582.77
436.72	4528.94
436.90	4437.66
437.09	4554.68
437.28	4397.87
437.46	4514.89
437.65	4531.28
437.84	4662.35
438.02	4636.60
438.21	4711.50
438.40	4573.41
438.58	4667.03
438.77	4816.82
438.96	4802.78
439.14	4915.12
439.33	5027.47
439.52	4903.42
439.70	4912.78
439.89	4936.19
440.08	5001.72
440.26	5043.85
440.45	5055.56
440.63	5165.56
440.82	5263.86
441.01	5242.80
441.19	5441.75
441.38	5430.04
441.57	5476.85
441.75	5284.93
441.94	5521.32
442.12	5472.17
442.31	5685.16
442.50	5523.66
442.68	5579.84
442.87	5418.34
443.05	5547.07
443.24	5640.69
443.43	5619.63
443.61	5661.76
443.80	5846.66
443.98	5600.90
444.17	5366.85
444.35	5701.54
444.54	5717.93
444.73	5729.63
444.91	5823.25
445.10	5703.89
445.28	5802.19
445.47	5675.80
445.65	5617.29
445.84	5652.39
446.02	5872.40
446.21	5724.95
446.39	5657.07
446.58	5870.06
446.77	5790.49
446.95	5753.04
447.14	5811.55
447.32	6057.31
447.51	5816.23
447.69	5940.28
447.88	5870.06
448.06	5738.99
448.25	5863.04
448.43	5898.15
448.62	6057.31
448.80	5893.47
448.99	5956.66
449.17	5998.79
449.36	5959.00
449.54	6207.10
449.73	6176.67
449.91	6118.16
450.10	6349.87
450.28	6237.53
450.46	6466.90
450.65	6251.57
450.83	6232.85
451.02	6354.55
451.20	6242.21
451.39	6214.12
451.57	6183.70
451.76	6225.82
451.94	6349.87
452.13	6270.30
452.31	6181.35
452.49	6171.99
452.68	6452.86
452.86	6249.23
453.05	6314.77
453.23	6633.08
453.42	6375.62
453.60	6382.64
453.78	6408.39
453.97	6469.24
454.15	6415.41
454.34	6473.92
454.52	6476.26
454.70	6576.91
454.89	6635.42
455.07	6572.22
455.26	6640.10
455.44	6878.83
455.62	6754.79
455.81	6656.48
455.99	6726.70
456.17	6736.06
456.36	6801.60
456.54	6864.79
456.73	6899.90
456.91	7035.65
457.09	7126.93
457.28	7206.51
457.46	7094.16
457.64	7105.87
457.83	7054.37
458.01	6920.96
458.19	7213.53
458.38	7258.00
458.56	7309.49
458.74	7255.66
458.93	7082.46
459.11	7321.20
459.29	7269.70
459.48	7220.55
459.66	7403.11
459.84	7246.30
460.03	7363.33
460.21	7438.22
460.39	7407.80
460.57	7503.76
460.76	7527.16
460.94	7616.10
461.12	7590.36
461.31	7576.31
461.49	7489.71
461.67	7662.91
461.85	7801.01
462.04	7747.17
462.22	7988.25
462.40	7761.22
462.59	7658.23
462.77	7885.26
462.95	8032.72
463.13	7742.49
463.32	7908.67
463.50	8049.10
463.68	7845.48
463.86	7826.75
464.05	7880.58
464.23	7988.25
464.41	7950.80
464.59	8037.40
464.78	8205.92
464.96	8046.76
465.14	8070.17
465.32	8105.28
465.50	8255.07
465.69	8231.66
465.87	8128.68
466.05	8194.22
466.23	8070.17
466.41	8229.32
466.60	8528.91
466.78	8381.46
466.96	8255.07
467.14	8262.09
467.32	8430.61
467.51	8542.96
467.69	8320.60
467.87	8348.69
468.05	8266.77
468.23	8276.13
468.41	8297.20
468.60	8428.27
468.78	8456.36
468.96	8559.34
469.14	8554.66
469.32	8758.28
469.50	8416.57
469.69	8580.40
469.87	8905.74
470.05	8835.52
470.23	8709.13
470.41	8585.08
470.59	8961.91
470.77	8753.60
470.95	8903.40
471.14	8926.80
471.32	8901.06
471.50	9191.28
471.68	9104.68
471.86	8947.87
472.04	9231.07
472.22	9420.66
472.40	9153.84
472.58	9256.82
472.77	9268.52
472.95	9399.59
473.13	9762.37
473.31	9296.61
473.49	9352.78
473.67	9125.75
473.85	9413.63
474.03	9675.77
474.21	9795.14
474.39	9795.14
474.57	9921.53
474.75	9841.95
474.93	9795.14
475.12	9921.53
475.30	9907.49
475.48	9933.23
475.66	10113.45
475.84	9802.16
476.02	10244.52
476.20	10214.10
476.38	10363.89
476.56	10661.14
476.74	10457.51
476.92	10560.50
477.10	10466.88
477.28	10544.11
477.46	10523.05
477.64	10801.57
477.82	11035.63
478.00	11129.25
478.18	11070.73
478.36	10988.82
478.54	11307.13
478.72	11386.71
478.90	11569.27
479.08	11644.17
479.26	11679.27
479.44	11602.04
479.62	11784.60
479.80	11990.56
479.98	12023.33
480.16	12238.66
480.34	11882.90
480.52	12325.26
480.70	12266.75
480.88	11981.20
481.06	12395.48
481.24	12423.56
481.41	12428.24
481.59	12741.88
481.77	12758.26
481.95	12898.69
482.13	13090.62
482.31	12903.37
482.49	13355.10
482.67	13097.64
482.85	13556.38
483.03	13490.85
483.21	13652.34
483.39	13722.56
483.57	13806.82
483.74	13987.04
483.92	14040.87
484.10	14022.15
484.28	14115.77
484.46	14310.04
484.64	14822.61
484.82	14249.18
485.00	14731.33
485.18	14876.44
485.35	15023.90
485.53	14799.21
485.71	14738.35
485.89	15194.76
486.07	15044.96
486.25	15009.86
486.43	15047.30
486.61	15424.13
486.78	15737.76
486.96	15604.35
487.14	16126.29
487.32	15824.36
487.50	16460.99
487.68	16233.96
487.85	16542.91
488.03	16744.19
488.21	16978.25
488.39	16767.60
488.57	16739.51
488.75	17121.02
488.92	17057.82
489.10	17326.99
489.28	17408.90
489.46	17605.51
489.64	17514.23
489.81	18387.25
489.99	17905.10
490.17	18242.14
490.35	18310.01
490.53	18104.04
490.70	18434.06
490.88	18239.79
491.06	18698.54
491.24	18691.52
491.41	18771.10
491.59	18707.90
491.77	18712.58
491.95	19587.94
492.13	19440.49
492.30	19316.44
492.48	19721.35
492.66	19421.77
492.84	19751.78
493.01	19686.25
493.19	19719.01
493.37	19983.49
493.54	20346.28
493.72	20245.63
493.90	20503.09
494.08	20563.95
494.25	20723.10
494.43	21221.64
494.61	20781.62
494.79	20936.09
494.96	21357.39
495.14	20893.96
495.32	21315.26
495.49	21804.43
495.67	21525.91
495.85	21628.89
496.02	21748.26
496.20	21846.56
496.38	22017.42
496.55	21858.26
496.73	22625.96
496.91	22373.18
497.09	22590.85
497.26	22597.87
497.44	22515.95
497.62	22705.54
497.79	23047.26
497.97	22647.02
498.14	23136.20
498.32	23204.07
498.50	23351.52
498.67	23260.24
498.85	23667.50
499.03	23592.60
499.20	23796.23
499.38	23887.51
499.56	24011.56
499.73	24254.97
499.91	23630.05
500.08	24505.41
500.26	24072.41
500.44	24240.93
500.61	24159.01
500.79	24105.18
500.97	24570.94
501.14	24790.95
501.32	24617.75
501.49	24975.86
501.67	24718.40
501.84	24968.84
502.02	25230.98
502.20	24996.92
502.37	25149.06
502.55	25605.46
502.72	25221.61
502.90	25329.28
503.07	25568.01
503.25	25713.13
503.43	25621.84
503.60	25785.68
503.78	25701.42
503.95	25886.32
504.13	25933.14
504.30	26235.06
504.48	25989.31
504.65	26536.99
504.83	26504.23
505.01	26668.06
505.18	26457.42
505.36	26508.91
505.53	26719.56
505.71	27175.96
505.88	27126.81
506.06	26656.36
506.23	26637.64
506.41	26864.67
506.58	27339.80
506.76	27775.14
506.93	27262.56
507.11	27370.22
507.28	27260.22
507.46	27335.12
507.63	27885.14
507.81	27655.77
507.98	27627.68
508.16	27910.89
508.33	27971.74
508.50	27821.95
508.68	28257.29
508.85	28369.63
509.03	28025.57
509.20	28402.40
509.38	28535.81
509.55	28978.17
509.73	28697.31
509.90	28409.42
510.08	28332.18
510.25	28804.97
510.42	28652.84
510.60	29184.14
510.77	29099.88
510.95	29319.89
511.12	28884.55
511.30	29387.77
511.47	30099.29
511.64	29488.41
511.82	29802.04
511.99	29488.41
512.17	29619.48
512.34	29788.00
512.51	29689.70
512.69	30136.74
512.86	29951.84
513.04	30160.14
513.21	30050.14
513.38	30125.04
513.56	30155.46
513.73	30506.54
513.90	30314.62
514.08	30239.72
514.25	30443.35
514.43	30904.43
514.60	30834.22
514.77	30443.35
514.95	30810.81
515.12	30906.77
515.29	30976.99
515.47	31257.85
515.64	31409.99
515.81	31077.63
515.99	30850.60
516.16	31304.67
516.33	31101.04
516.51	31292.96
516.68	30841.24
516.85	31204.02
517.03	31817.24
517.20	31512.97
517.37	31447.44
517.54	31784.48
517.72	31997.46
517.89	31999.80
518.06	31990.44
518.24	31742.35
518.41	31842.99
518.58	32170.66
518.75	31934.27
518.93	31945.97
519.10	32411.74
519.27	32613.02
519.45	32458.55
519.62	32809.63
519.79	32638.77
519.96	32966.45
520.14	32861.12
520.31	32332.16
520.48	32929.00
520.65	32818.99
520.83	33308.16
521.00	33233.27
521.17	33326.89
521.34	33362.00
521.52	33373.70
521.69	33799.68
521.86	33699.03
522.03	33336.25
522.20	33584.35
522.38	33968.19
522.55	33982.24
522.72	33958.83
522.89	34054.79
523.07	33937.77
523.24	33436.89
523.41	34043.09
523.58	33706.05
523.75	34721.85
523.92	34309.91
524.10	34473.75
524.27	34525.24
524.44	34810.79
524.61	34675.04
524.78	34883.34
524.96	34890.37
525.13	34452.69
525.30	35061.22
525.47	34876.32
525.64	34691.42
525.81	35164.21
525.98	34855.26
526.16	35124.42
526.33	34450.35
526.50	35508.27
526.67	35042.50
526.84	35152.51
527.01	34738.23
527.18	35501.25
527.36	35433.37
527.53	35578.48
527.70	35873.39
527.87	35910.84
528.04	35487.20
528.21	35784.45
528.38	35381.88
528.55	35962.33
528.72	36250.22
528.89	36154.26
529.07	35964.67
529.24	36109.78
529.41	36030.21
529.58	35812.54
529.75	36271.28
529.92	36350.86
530.09	36308.73
530.26	36655.13
530.43	36098.08
530.60	36467.89
530.77	36601.30
530.94	36678.54
531.11	36650.45
531.28	36655.13
531.46	36519.38
531.63	36975.78
531.80	36519.38
531.97	36835.35
532.14	36872.80
532.31	36622.36
532.48	36804.92
532.65	36938.33
532.82	37294.10
532.99	37453.25
533.16	36762.79
533.33	37577.30
533.50	37429.85
533.67	37464.96
533.84	37364.31
534.01	37273.03
534.18	37214.52
534.35	37951.79
534.52	37338.57
534.69	37902.64
534.86	37628.79
535.03	37411.12
535.20	37827.74
535.37	38300.53
535.54	38094.56
535.71	37951.79
535.88	37806.67
536.05	37827.74
536.22	37841.78
536.38	38199.88
536.55	38340.32
536.72	38012.64
536.89	38033.71
537.06	37748.16
537.23	38543.94
537.40	38476.07
537.57	38380.10
537.74	38677.35
537.91	38670.33
538.08	38644.59
538.25	38185.84
538.42	38469.04
538.59	39152.48
538.75	38541.60
538.92	38714.80
539.09	38965.24
539.26	39206.31
539.43	38728.84
539.60	38789.70
539.77	38843.53
539.94	39508.24
540.11	38658.63
540.28	38703.10
540.44	39033.11
540.61	38897.36
540.78	38789.70
540.95	39374.83
541.12	39129.08
541.29	38937.15
541.46	39313.98
541.62	38920.77
541.79	39775.06
541.96	39243.76
542.13	39166.52
542.30	39512.92
542.47	39559.73
542.63	39339.72
542.80	39819.53
542.97	39983.37
543.14	40149.55
543.31	39915.50
543.48	40304.02
543.64	40297.00
543.81	40713.62
543.98	40037.20
544.15	40271.26
544.32	40687.87
544.48	40526.38
544.65	40531.06
544.82	40521.69
544.99	40095.72
545.16	40210.40
545.32	40587.23
545.49	40432.75
545.66	40935.97
545.83	40783.83
546.00	40832.99
546.16	40549.78
546.33	40704.26
546.50	40285.30
546.67	41048.32
546.83	40236.15
547.00	40655.11
547.17	40959.38
547.34	40971.08
547.50	40741.71
547.67	40856.39
547.84	40816.60
548.00	41163.00
548.17	41282.37
548.34	40924.27
548.51	41329.18
548.67	41268.33
548.84	41471.95
549.01	41006.19
549.18	40973.42
549.34	41280.03
549.51	41523.44
549.68	41771.54
549.84	41333.86
550.01	41883.89
550.18	41284.71
550.34	41558.55
550.51	41670.90
550.68	41308.11
550.84	41076.40
551.01	41354.93
551.18	41741.11
551.34	41516.42
551.51	41549.19
551.68	41792.61
551.84	42024.32
552.01	41841.76
552.18	41633.45
552.34	41333.86
552.51	42232.63
552.68	41968.15
552.84	42220.92
553.01	42178.79
553.18	41904.95
553.34	41799.63
553.51	41916.65
553.67	41926.02
553.84	42333.27
554.01	42396.46
554.17	42614.13
554.34	42361.36
554.51	42389.44
554.67	42330.93
554.84	42347.31
555.00	42136.66
555.17	41794.95
555.33	42155.39
555.50	42775.63
555.67	42333.27
555.83	42548.60
556.00	42494.77
556.16	42857.55
556.33	42897.34
556.50	42925.42
556.66	42487.74
556.83	42396.46
556.99	42635.20
557.16	43131.39
557.32	43150.12
557.49	42817.76
557.65	42370.72
557.82	42312.20
557.98	42630.52
558.15	42497.11
558.32	42691.37
558.48	42848.19
558.65	43075.22
558.81	43243.74
558.98	43313.95
559.14	42766.27
559.31	43012.02
559.47	43372.47
559.64	43138.41
559.80	43274.16
559.97	43044.79
560.13	43112.67
560.30	43033.09
560.46	42937.13
560.63	43086.92
560.79	43051.81
560.96	43400.55
561.12	43145.44
561.29	43416.94
561.45	43365.45
561.61	43281.19
561.78	42777.97
561.94	43253.10
562.11	43449.70
562.27	42948.83
562.44	43456.73
562.60	43358.42
562.77	43363.11
562.93	43487.15
563.10	43915.47
563.26	42887.98
563.42	43571.41
563.59	43124.37
563.75	43402.89
563.92	43578.43
564.08	43592.48
564.24	43370.13
564.41	44151.87
564.57	43768.02
564.74	43737.59
564.90	43667.37
565.07	43449.70
565.23	43615.88
565.39	43456.73
565.56	43580.78
565.72	43388.85
565.88	43466.09
566.05	43519.92
566.21	43538.65
566.38	43278.85
566.54	43758.66
566.70	44020.80
566.87	44069.95
567.03	44076.97
567.19	44081.65
567.36	43796.10
567.52	43658.01
567.68	43768.02
567.85	43746.95
568.01	44062.93
568.17	43805.47
568.34	43838.23
568.50	43482.47
568.66	44294.64
568.83	43875.68
568.99	43498.86
569.15	43810.15
569.32	43861.64
569.48	43772.70
569.64	44196.34
569.81	44212.72
569.97	43880.36
570.13	44254.85
570.30	43730.57
570.46	43985.69
570.62	43821.85
570.78	43756.32
570.95	44004.41
571.11	43976.33
571.27	43950.58
571.43	44013.77
571.60	43885.04
571.76	43871.00
571.92	43931.86
572.09	44222.08
572.25	43828.87
572.41	43665.03
572.57	44123.78
572.74	44477.20
572.90	44362.51
573.06	44217.40
573.22	44254.85
573.38	43842.92
573.55	44009.09
573.71	44182.29
573.87	44060.58
574.03	43681.42
574.20	44116.76
574.36	43889.73
574.52	44587.21
574.68	44149.53
574.84	44046.54
575.01	44229.10
575.17	44435.07
575.33	44114.42
575.49	43714.19
575.65	44444.43
575.82	44257.19
575.98	44278.25
576.14	44538.05
576.30	43885.04
576.46	44116.76
576.62	44086.33
576.79	44105.06
576.95	44072.29
577.11	43878.02
577.27	44081.65
577.43	44385.92
577.59	44367.20
577.75	44275.91
577.92	44051.22
578.08	44280.60
578.24	43955.26
578.40	43962.28
578.56	43555.03
578.72	44177.61
578.88	44282.94
579.04	44460.82
579.21	44142.50
579.37	43924.83
579.53	44088.67
579.69	44133.14
579.85	44423.37
580.01	44369.54
580.17	44491.24
580.33	44311.02
580.49	44809.56
580.65	44390.60
580.82	44399.96
580.98	44477.20
581.14	43789.08
581.30	44722.96
581.46	44385.92
581.62	44245.49
581.78	43934.20
581.94	44645.72
582.10	44051.22
582.26	44243.15
582.42	44339.11
582.58	44535.71
582.74	44463.16
582.90	44086.33
583.06	44442.09
583.22	44559.12
583.38	44311.02
583.54	44800.19
583.70	44161.23
583.86	44259.53
584.02	44446.77
584.18	44353.15
584.34	44299.32
584.50	44612.95
584.66	44538.05
584.82	43906.11
584.98	44631.68
585.14	44374.22
585.30	44210.38
585.46	44196.34
585.62	44107.40
585.78	44222.08
585.94	44009.09
586.10	44350.81
586.26	44355.49
586.42	44547.42
586.58	44561.46
586.74	44486.56
586.90	44240.81
587.06	44058.24
587.22	44786.15
587.38	44507.63
587.54	44830.62
587.70	43966.96
587.86	44348.47
588.02	44519.33
588.18	44409.32
588.34	44514.65
588.49	44065.27
588.65	44346.13
588.81	44350.81
588.97	44746.36
589.13	44325.07
589.29	44662.10
589.45	43936.54
589.61	44582.52
589.77	44996.80
589.93	44605.93
590.08	44912.54
590.24	44795.51
