SpectraSuite Data File
++++++++++++++++++++++++++++++++++++
Date: Fri Oct 25 10:48:07 EDT 2013
User: price-jones
Dark Spectrum Present: No
Reference Spectrum Present: No
Number of Sampled Component Spectra: 1
Spectrometers: USB2+H05261
Integration Time (usec): 100000 (USB2+H05261)
Spectra Averaged: 1 (USB2+H05261)
Boxcar Smoothing: 0 (USB2+H05261)
Correct for Electrical Dark: No (USB2+H05261)
Strobe/Lamp Enabled: No (USB2+H05261)
Correct for Detector Non-linearity: No (USB2+H05261)
Correct for Stray Light: No (USB2+H05261)
Number of Pixels in Processed Spectrum: 2048
>>>>>Begin Processed Spectral Data<<<<<
365.73	166.18
365.92	166.18
366.12	166.18
366.32	58.51
366.52	35.11
366.72	119.37
366.91	0.00
367.11	18.72
367.31	46.81
367.51	7.02
367.70	51.49
367.90	21.06
368.10	32.77
368.30	56.17
368.49	32.77
368.69	70.22
368.89	46.81
369.09	86.60
369.28	145.11
369.48	51.49
369.68	86.60
369.87	67.88
370.07	161.50
370.27	93.62
370.47	145.11
370.66	409.59
370.86	395.55
371.06	428.32
371.25	472.79
371.45	409.59
371.65	393.21
371.84	376.83
372.04	479.81
372.24	444.70
372.44	493.85
372.63	461.09
372.83	472.79
373.03	564.07
373.22	566.41
373.42	540.66
373.62	475.13
373.81	599.18
374.01	617.90
374.21	507.90
374.40	547.69
374.60	517.26
374.79	566.41
374.99	610.88
375.19	545.34
375.38	547.69
375.58	571.09
375.78	573.43
375.97	575.77
376.17	519.60
376.37	514.92
376.56	571.09
376.76	575.77
376.95	543.00
377.15	648.33
377.35	636.63
377.54	617.90
377.74	606.20
377.93	559.39
378.13	653.01
378.33	655.35
378.52	589.82
378.72	704.50
378.91	592.16
379.11	561.73
379.31	634.29
379.50	683.44
379.70	667.05
379.89	697.48
380.09	657.69
380.28	624.92
380.48	734.93
380.68	627.26
380.87	664.71
381.07	748.97
381.26	695.14
381.46	624.92
381.65	821.53
381.85	704.50
382.04	713.86
382.24	685.78
382.43	741.95
382.63	695.14
382.83	653.01
383.02	709.18
383.22	702.16
383.41	695.14
383.61	781.74
383.80	739.61
384.00	732.59
384.19	692.80
384.39	730.25
384.58	704.50
384.78	697.48
384.97	760.67
385.17	758.33
385.36	739.61
385.56	706.84
385.75	741.95
385.95	763.01
386.14	793.44
386.34	847.27
386.53	837.91
386.72	772.38
386.92	835.57
387.11	772.38
387.31	856.64
387.50	767.70
387.70	898.77
387.89	947.92
388.09	805.14
388.28	882.38
388.48	842.59
388.67	915.15
388.86	828.55
389.06	924.51
389.25	945.58
389.45	954.94
389.64	882.38
389.84	971.32
390.03	861.32
390.22	922.17
390.42	896.43
390.61	896.43
390.81	950.26
391.00	903.45
391.19	905.79
391.39	961.96
391.58	931.53
391.78	1032.18
391.97	976.00
392.16	882.38
392.36	978.34
392.55	938.55
392.75	961.96
392.94	896.43
393.13	1046.22
393.33	950.26
393.52	1067.28
393.71	1006.43
393.91	1020.47
394.10	1008.77
394.29	1074.31
394.49	987.71
394.68	1071.97
394.88	1090.69
395.07	1095.37
395.26	1069.62
395.46	1086.01
395.65	1069.62
395.84	1123.46
396.04	1174.95
396.23	1097.71
396.42	1046.22
396.62	1130.48
396.81	1135.16
397.00	1074.31
397.19	1109.41
397.39	1076.65
397.58	1205.38
397.77	1172.61
397.97	1221.76
398.16	1268.57
398.35	1203.04
398.55	1200.69
398.74	1221.76
398.93	1273.25
399.12	1306.02
399.32	1270.91
399.51	1383.26
399.70	1397.30
399.90	1345.81
400.09	1306.02
400.28	1394.96
400.47	1390.28
400.67	1394.96
400.86	1343.47
401.05	1413.68
401.24	1453.47
401.44	1385.60
401.63	1575.18
401.82	1392.62
402.01	1427.73
402.21	1385.60
402.40	1483.90
402.59	1509.65
402.78	1441.77
402.97	1542.41
403.17	1551.78
403.36	1511.99
403.55	1600.93
403.74	1584.54
403.93	1528.37
404.13	1633.69
404.32	1614.97
404.51	1605.61
404.70	1732.00
404.89	1643.06
405.09	1762.42
405.28	1668.80
405.47	1699.23
405.66	1692.21
405.85	1680.50
406.05	1706.25
406.24	1720.29
406.43	1788.17
406.62	1757.74
406.81	1820.94
407.00	1856.04
407.20	1708.59
407.39	1867.75
407.58	1790.51
407.77	1851.36
407.96	1832.64
408.15	1954.35
408.34	1898.17
408.54	1914.56
408.73	1930.94
408.92	1956.69
409.11	1921.58
409.30	2064.35
409.49	1914.56
409.68	2113.50
409.87	2054.99
410.07	2092.44
410.26	2026.90
410.45	2108.82
410.64	1994.14
410.83	2218.83
411.02	2127.55
411.21	2249.25
411.40	2155.63
411.59	2239.89
411.78	2296.07
411.98	2246.91
412.17	2291.38
412.36	2214.15
412.55	2335.85
412.74	2399.05
412.93	2387.35
413.12	2342.88
413.31	2457.56
413.50	2445.86
413.69	2445.86
413.88	2523.10
414.07	2487.99
414.26	2609.70
414.45	2619.06
414.64	2548.84
414.83	2546.50
415.02	2616.72
415.22	2696.30
415.41	2581.61
415.60	2715.02
415.79	2782.90
415.98	2801.62
416.17	2708.00
416.36	2813.32
416.55	2827.37
416.74	2818.00
416.93	2878.86
417.12	2890.56
417.31	2935.03
417.50	2958.44
417.69	2935.03
417.88	2913.97
418.07	3087.17
418.26	3014.61
418.45	2977.16
418.64	3253.34
418.83	3077.80
419.02	3112.91
419.21	3035.67
419.39	3119.93
419.58	3068.44
419.77	3042.70
419.96	3253.34
420.15	3152.70
420.34	3190.15
420.53	3342.28
420.72	3152.70
420.91	3300.16
421.10	3241.64
421.29	3337.60
421.48	3190.15
421.67	3342.28
421.86	3358.67
422.05	3307.18
422.24	3332.92
422.43	3379.73
422.61	3363.35
422.80	3485.06
422.99	3445.27
423.18	3461.65
423.37	3417.18
423.56	3531.87
423.75	3379.73
423.94	3440.59
424.13	3243.98
424.32	3349.31
424.50	3522.51
424.69	3393.78
424.88	3620.81
425.07	3424.20
425.26	3438.25
425.45	3391.44
425.64	3487.40
425.83	3595.06
426.01	3609.11
426.20	3627.83
426.39	3637.19
426.58	3524.85
426.77	3541.23
426.96	3522.51
427.15	3597.40
427.33	3499.10
427.52	3529.53
427.71	3700.39
427.90	3552.93
428.09	3707.41
428.28	3733.15
428.46	3651.24
428.65	3686.34
428.84	3808.05
429.03	3794.01
429.22	3599.74
429.40	3763.58
429.59	3653.58
429.78	3538.89
429.97	3674.64
430.16	3702.73
430.34	3695.71
430.53	3644.21
430.72	3845.50
430.91	3808.05
431.10	3852.52
431.28	4053.81
431.47	4049.13
431.66	4156.79
431.85	3911.04
432.03	4105.30
432.22	4142.75
432.41	4119.34
432.60	4079.55
432.79	4262.12
432.97	4117.00
433.16	4058.49
433.35	4128.70
433.54	4049.13
433.72	4159.13
433.91	4168.49
434.10	4269.14
434.28	4266.80
434.47	4156.79
434.66	4358.08
434.85	4313.61
435.03	4346.37
435.22	4360.42
435.41	4622.56
435.59	4451.70
435.78	4493.83
435.97	4470.42
436.16	4573.41
436.34	4383.82
436.53	4620.22
436.72	4676.39
436.90	4411.91
437.09	4535.96
437.28	4449.36
437.46	4557.02
437.65	4535.96
437.84	4697.46
438.02	4418.93
438.21	4620.22
438.40	4718.52
438.58	4697.46
438.77	4746.61
438.96	4713.84
439.14	4870.65
439.33	4889.38
439.52	4922.15
439.70	4884.70
439.89	5034.49
440.08	5060.24
440.26	4968.96
440.45	4821.50
440.63	5130.45
440.82	5238.12
441.01	5181.95
441.19	5294.29
441.38	5315.36
441.57	5516.64
441.75	5486.22
441.94	5530.69
442.12	5558.77
442.31	5511.96
442.50	5652.39
442.68	5439.40
442.87	5577.50
443.05	5600.90
443.24	5582.18
443.43	5460.47
443.61	5797.51
443.80	5724.95
443.98	5483.88
444.17	5537.71
444.35	5748.36
444.54	5846.66
444.73	5612.60
444.91	5596.22
445.10	5846.66
445.28	5771.76
445.47	5619.63
445.65	5701.54
445.84	5799.85
446.02	5823.25
446.21	5612.60
446.39	5727.29
446.58	5774.10
446.77	5797.51
446.95	5834.96
447.14	5781.12
447.32	5806.87
447.51	5785.80
447.69	5919.21
447.88	5895.81
448.06	6101.78
448.25	5783.46
448.43	5949.64
448.62	5912.19
448.80	5966.03
448.99	6080.71
449.17	5909.85
449.36	6026.88
449.54	6122.84
449.73	6141.57
449.91	6277.32
450.10	6225.82
450.28	6031.56
450.46	6239.87
450.65	6141.57
450.83	6324.13
451.02	6270.30
451.20	6293.70
451.39	6293.70
451.57	6181.35
451.76	6363.92
451.94	6382.64
452.13	6530.09
452.31	6340.51
452.49	6237.53
452.68	6450.52
452.86	6277.32
453.05	6424.77
453.23	6422.43
453.42	6520.73
453.60	6558.18
453.78	6443.49
453.97	6473.92
454.15	6604.99
454.34	6459.88
454.52	6675.21
454.70	6630.74
454.89	6555.84
455.07	6626.06
455.26	6551.16
455.44	6853.09
455.62	6759.47
455.81	6642.44
455.99	6803.94
456.17	6621.38
456.36	6841.39
456.54	7023.95
456.73	7084.80
456.91	7281.41
457.09	7243.96
457.28	7363.33
457.46	7016.93
457.64	7248.64
457.83	7091.82
458.01	6935.01
458.19	7304.81
458.38	7194.81
458.56	7201.83
458.74	7260.34
458.93	7272.04
459.11	7311.83
459.29	7253.32
459.48	7248.64
459.66	7375.03
459.84	7456.95
460.03	7599.72
460.21	7463.97
460.39	7485.03
460.57	7503.76
460.76	7548.23
460.94	7639.51
461.12	7604.40
461.31	7583.34
461.49	7700.36
461.67	7686.32
461.85	7866.54
462.04	7644.19
462.22	8189.53
462.40	7997.61
462.59	7808.03
462.77	7740.15
462.95	7896.97
463.13	7751.85
463.32	7866.54
463.50	7737.81
463.68	8070.17
463.86	7939.10
464.05	7702.70
464.23	7885.26
464.41	8234.00
464.59	7761.22
464.78	8175.49
464.96	8107.62
465.14	7992.93
465.32	8100.59
465.50	8215.28
465.69	8154.43
465.87	8170.81
466.05	8243.37
466.23	7995.27
466.41	8065.49
466.60	8283.16
466.78	8341.67
466.96	8325.29
467.14	8386.14
467.32	8191.88
467.51	8423.59
467.69	8180.17
467.87	8273.79
468.05	8561.68
468.23	8400.18
468.41	8336.99
468.60	8428.27
468.78	8526.57
468.96	8535.93
469.14	8631.90
469.32	8915.10
469.50	8344.01
469.69	8664.66
469.87	8561.68
470.05	8912.76
470.23	8978.30
470.41	8837.86
470.59	8931.48
470.77	8669.34
470.95	8964.25
471.14	8929.14
471.32	8784.03
471.50	9001.70
471.68	8990.00
471.86	9163.20
472.04	9238.09
472.22	9357.46
472.40	9179.58
472.58	9210.01
472.77	9263.84
472.95	9446.40
473.13	9561.09
473.31	9198.31
473.49	9533.00
473.67	9336.40
473.85	9298.95
474.03	9851.31
474.21	9731.95
474.39	9708.54
474.57	9603.22
474.75	9694.50
474.93	9975.36
475.12	9935.57
475.30	10104.09
475.48	10066.64
475.66	10122.82
475.84	9975.36
476.02	10260.91
476.20	10225.80
476.38	10389.64
476.56	10516.03
476.74	10520.71
476.92	10359.21
477.10	10476.24
477.28	10691.57
477.46	10691.57
477.64	10963.07
477.82	11084.78
478.00	11234.57
478.18	10960.73
478.36	11066.05
478.54	11218.19
478.72	11201.80
478.90	11637.14
479.08	11555.22
479.26	11627.78
479.44	11735.45
479.62	11786.94
479.80	12016.31
479.98	11843.11
480.16	12184.83
480.34	12016.31
480.52	12241.00
480.70	12191.85
480.88	12168.45
481.06	12449.31
481.24	12423.56
481.41	12683.36
481.59	12807.41
481.77	13095.30
481.95	12919.76
482.13	12999.34
482.31	12999.34
482.49	13275.52
482.67	13444.04
482.85	13390.20
483.03	13432.33
483.21	13963.64
483.39	13593.83
483.57	13818.52
483.74	14047.90
483.92	13949.59
484.10	13757.67
484.28	14195.35
484.46	14242.16
484.64	14597.92
484.82	14176.62
485.00	14757.08
485.18	14670.48
485.35	14911.55
485.53	14698.56
485.71	14913.89
485.89	15056.67
486.07	15047.30
486.25	14946.66
486.43	15365.62
486.61	15580.95
486.78	15632.44
486.96	15735.42
487.14	15983.52
487.32	15859.47
487.50	16077.14
487.68	16425.88
487.85	16716.11
488.03	16622.48
488.21	16875.26
488.39	16561.63
488.57	16730.15
488.75	17109.32
488.92	17259.11
489.10	17767.01
489.28	17399.54
489.46	17469.76
489.64	17458.06
489.81	18106.38
489.99	18108.72
490.17	18288.95
490.35	18349.80
490.53	18347.46
490.70	18464.49
490.88	18525.34
491.06	18679.82
491.24	18728.97
491.41	18848.33
491.59	19012.17
491.77	18937.27
491.95	19136.22
492.13	19491.98
492.30	19484.96
492.48	19620.71
492.66	19531.77
492.84	19550.49
493.01	19805.61
493.19	19859.45
493.37	20137.97
493.54	20313.51
493.72	20353.30
493.90	20535.86
494.08	20711.40
494.25	20767.57
494.43	20585.01
494.61	21181.85
494.79	20891.62
494.96	20748.85
495.14	21003.97
495.32	21521.23
495.49	21553.99
495.67	21439.31
495.85	21724.85
496.02	22024.44
496.20	21876.99
496.38	22071.25
496.55	22127.42
496.73	22714.90
496.91	22448.08
497.09	22185.94
497.26	22326.37
497.44	22632.98
497.62	22668.09
497.79	22852.99
497.97	22883.42
498.14	23171.30
498.32	23145.56
498.50	23290.67
498.67	23442.81
498.85	23349.18
499.03	23508.34
499.20	23789.20
499.38	23850.06
499.56	23868.78
499.73	23737.71
499.91	23924.96
500.08	24341.57
500.26	24102.84
500.44	24346.25
500.61	24372.00
500.79	23948.36
500.97	24692.65
501.14	24783.93
501.32	24959.47
501.49	24563.92
501.67	24617.75
501.84	24982.88
502.02	24966.49
502.20	25441.62
502.37	25500.14
502.55	25530.56
502.72	25289.49
502.90	25678.02
503.07	25429.92
503.25	25493.12
503.43	25378.43
503.60	26038.46
503.78	26019.74
503.95	25390.13
504.13	25989.31
504.30	26167.19
504.48	26359.11
504.65	26441.03
504.83	26314.64
505.01	26541.68
505.18	26368.48
505.36	26635.30
505.53	26614.23
505.71	27026.17
505.88	26979.36
506.06	26679.77
506.23	26988.72
506.41	27182.98
506.58	27103.40
506.76	27410.01
506.93	27447.46
507.11	27285.97
507.28	27529.38
507.46	27669.81
507.63	27566.83
507.81	27714.28
507.98	27543.42
508.16	28070.04
508.33	27662.79
508.50	28056.00
508.68	28182.39
508.85	28161.33
509.03	28158.99
509.20	28503.04
509.38	28290.06
509.55	28547.51
509.73	28594.32
509.90	28765.18
510.08	28795.61
510.25	29020.30
510.42	28877.53
510.60	29149.03
510.77	29202.86
510.95	29186.48
511.12	29088.18
511.30	29268.40
511.47	29495.43
511.64	29457.98
511.82	29642.88
511.99	29734.17
512.17	29799.70
512.34	29666.29
512.51	30136.74
512.69	30326.32
512.86	30277.17
513.04	30291.21
513.21	30356.75
513.38	30209.29
513.56	30412.92
513.73	30455.05
513.90	30019.71
514.08	30298.23
514.25	30349.73
514.43	30543.99
514.60	30593.14
514.77	30590.80
514.95	30969.97
515.12	30775.70
515.29	31030.82
515.47	31290.62
515.64	31821.92
515.81	30967.63
515.99	31232.11
516.16	31417.01
516.33	31405.31
516.51	31307.01
516.68	31571.49
516.85	31250.83
517.03	31314.03
517.20	31945.97
517.37	31758.73
517.54	31894.48
517.72	31880.44
517.89	32032.57
518.06	31850.01
518.24	31625.32
518.41	31997.46
518.58	32079.38
518.75	31828.95
518.93	32060.66
519.10	32556.85
519.27	32428.12
519.45	31903.84
519.62	32484.30
519.79	32673.88
519.96	32783.88
520.14	33123.26
520.31	32762.82
520.48	33226.24
520.65	32837.72
520.83	33560.94
521.00	33085.81
521.17	33111.56
521.34	32980.49
521.52	33867.55
521.69	33539.88
521.86	33567.96
522.03	33574.98
522.20	33558.60
522.38	33820.74
522.55	34405.88
522.72	33928.41
522.89	33755.21
523.07	34064.16
523.24	33645.20
523.41	33970.54
523.58	33839.47
523.75	34347.36
523.92	34473.75
524.10	34494.82
524.27	34803.77
524.44	34443.32
524.61	34785.04
524.78	34745.25
524.96	34167.14
525.13	34616.52
525.30	35101.01
525.47	35063.57
525.64	34684.40
525.81	35077.61
525.98	34972.28
526.16	34763.98
526.33	34881.00
526.50	35459.12
526.67	34911.43
526.84	34969.94
527.01	35112.72
527.18	35211.02
527.36	35428.69
527.53	35629.98
527.70	35566.78
527.87	35491.88
528.04	35730.62
528.21	35377.20
528.38	35426.35
528.55	35681.47
528.72	35646.36
528.89	36196.38
529.07	35789.13
529.24	35908.50
529.41	36140.21
529.58	35924.88
529.75	36357.88
529.92	36266.60
530.09	35887.43
530.26	36645.77
530.43	36479.59
530.60	36027.87
530.77	36510.02
530.94	36718.32
531.11	36680.88
531.28	36643.43
531.46	36617.68
531.63	36928.97
531.80	37074.09
531.97	36980.46
532.14	37060.04
532.31	36395.33
532.48	36992.17
532.65	37280.05
532.82	37139.62
532.99	37502.40
533.16	37258.99
533.33	37427.51
533.50	37589.00
533.67	37392.40
533.84	37198.13
534.01	37617.09
534.18	37308.14
534.35	38078.18
534.52	37317.50
534.69	37518.79
534.86	37991.58
535.03	37537.51
535.20	38150.73
535.37	37972.85
535.54	38188.18
535.71	37970.51
535.88	37715.39
536.05	37790.29
536.22	38005.62
536.38	38143.71
536.55	38134.35
536.72	38146.05
536.89	37881.57
537.06	38321.59
537.23	38202.22
537.40	38443.30
537.57	38726.50
537.74	38354.36
537.91	38836.51
538.08	38770.97
538.25	38375.42
538.42	38476.07
538.59	38490.11
538.75	38611.82
538.92	38773.31
539.09	38927.79
539.26	38955.88
539.43	38845.87
539.60	39061.20
539.77	39028.43
539.94	39072.90
540.11	38876.30
540.28	38754.59
540.44	38782.68
540.61	39026.09
540.78	39051.84
540.95	39051.84
541.12	39175.89
541.29	39412.28
541.46	39337.38
541.62	39421.64
541.79	39262.49
541.96	39292.91
542.13	39405.26
542.30	39449.73
542.47	39559.73
542.63	39124.40
542.80	39716.55
542.97	39868.69
543.14	40435.10
543.31	40177.64
543.48	40011.46
543.64	40804.90
543.81	39985.71
543.98	40208.06
544.15	40034.86
544.32	40524.04
544.48	40584.89
544.65	40484.25
544.82	40266.58
544.99	40306.37
545.16	40694.89
545.32	40741.71
545.49	40840.01
545.66	40329.77
545.83	40795.54
546.00	41200.45
546.16	40659.79
546.33	40582.55
546.50	40013.80
546.67	40727.66
546.83	40308.71
547.00	40856.39
547.17	40521.69
547.34	40821.28
547.50	40844.69
547.67	41179.39
547.84	41041.29
548.00	41125.55
548.17	41228.54
548.34	40844.69
548.51	41422.80
548.67	41338.54
548.84	41336.20
549.01	41125.55
549.18	41301.09
549.34	41158.32
549.51	41551.53
549.68	41778.56
549.84	41277.69
550.01	41851.12
550.18	41111.51
550.34	41596.00
550.51	41563.23
550.68	41539.83
550.84	41181.73
551.01	41972.83
551.18	41317.48
551.34	41663.88
551.51	41743.45
551.68	41642.81
551.84	41656.85
552.01	41888.57
552.18	41897.93
552.34	41102.15
552.51	41703.67
552.68	41717.71
552.84	41956.44
553.01	42244.33
553.18	41783.24
553.34	41886.23
553.51	42003.25
553.67	42225.60
553.84	42337.95
554.01	42462.00
554.17	42387.10
554.34	42408.17
554.51	42403.49
554.67	42328.59
554.84	42408.17
555.00	42356.67
555.17	42415.19
555.33	42349.65
555.50	42440.93
555.67	42211.56
555.83	42752.23
556.00	42412.85
556.16	43150.12
556.33	42321.57
556.50	42602.43
556.66	42752.23
556.83	42445.62
556.99	43175.86
557.16	42728.82
557.32	42927.77
557.49	42679.67
557.65	42459.66
557.82	42784.99
557.98	43150.12
558.15	42562.64
558.32	42476.04
558.48	42789.67
558.65	42740.52
558.81	42574.34
558.98	42937.13
559.14	42738.18
559.31	43178.20
559.47	43213.31
559.64	43033.09
559.80	43269.48
559.97	43636.95
560.13	42831.80
560.30	43295.23
560.46	42911.38
560.63	42878.61
560.79	43089.26
560.96	43702.48
561.12	43386.51
561.29	43168.84
561.45	43119.69
561.61	43585.46
561.78	43208.63
561.94	42838.83
562.11	42988.62
562.27	43512.90
562.44	43241.40
562.60	43335.02
562.77	43384.17
562.93	42962.87
563.10	43679.08
563.26	43243.74
563.42	43468.43
563.59	43515.24
563.75	43648.65
563.92	43674.40
564.08	43435.66
564.24	43573.75
564.41	43627.59
564.57	43721.21
564.74	43248.42
564.90	43594.82
565.07	43632.27
565.23	43543.33
565.39	43714.19
565.56	43936.54
565.72	43393.53
565.88	43426.30
566.05	43501.20
566.21	43611.20
566.38	43559.71
566.54	43641.63
566.70	44191.65
566.87	43896.75
567.03	43957.60
567.19	44048.88
567.36	44172.93
567.52	43592.48
567.68	44086.33
567.85	43456.73
568.01	44053.56
568.17	43681.42
568.34	43793.76
568.50	43632.27
568.66	43531.62
568.83	43402.89
568.99	43615.88
569.15	43828.87
569.32	44009.09
569.48	43189.91
569.64	44205.70
569.81	43686.10
569.97	44114.42
570.13	43866.32
570.30	44215.06
570.46	43842.92
570.62	43779.72
570.78	43702.48
570.95	44051.22
571.11	43943.56
571.27	43978.67
571.43	43559.71
571.60	43929.51
571.76	43868.66
571.92	44175.27
572.09	43777.38
572.25	43945.90
572.41	44055.90
572.57	43821.85
572.74	44507.63
572.90	44053.56
573.06	44018.46
573.22	44067.61
573.38	44158.89
573.55	43833.55
573.71	44222.08
573.87	43835.89
574.03	44081.65
574.20	44198.68
574.36	44133.14
574.52	44208.04
574.68	44079.31
574.84	44315.70
575.01	44013.77
575.17	43952.92
575.33	43906.11
575.49	44327.41
575.65	44105.06
575.82	44528.69
575.98	44133.14
576.14	44282.94
576.30	44416.35
576.46	44144.84
576.62	43814.83
576.79	44025.48
576.95	43969.30
577.11	44196.34
577.27	43964.62
577.43	44219.74
577.59	43721.21
577.75	43952.92
577.92	43751.63
578.08	43716.53
578.24	43922.49
578.40	44191.65
578.56	44268.89
578.72	43828.87
578.88	43896.75
579.04	44046.54
579.21	44432.73
579.37	44086.33
579.53	43889.73
579.69	43896.75
579.85	44247.83
580.01	44364.85
580.17	44465.50
580.33	44980.42
580.49	44411.67
580.65	44753.38
580.82	44287.62
580.98	44205.70
581.14	44140.16
581.30	44376.56
581.46	44341.45
581.62	44432.73
581.78	44383.58
581.94	44458.48
582.10	44198.68
582.26	44694.87
582.42	44680.83
582.58	44364.85
582.74	44240.81
582.90	44371.88
583.06	44222.08
583.22	44313.36
583.38	44643.38
583.54	44505.29
583.70	44385.92
583.86	44374.22
584.02	44034.84
584.18	44533.37
584.34	44294.64
584.50	44137.82
584.66	44343.79
584.82	44289.96
584.98	44605.93
585.14	44486.56
585.30	44491.24
585.46	44332.09
585.62	44208.04
585.78	44362.51
585.94	44018.46
586.10	44423.37
586.26	44039.52
586.42	44339.11
586.58	44762.75
586.74	44065.27
586.90	44205.70
587.06	44343.79
587.22	44734.66
587.38	44182.29
587.54	44659.76
587.70	44870.41
587.86	44851.69
588.02	44184.63
588.18	44198.68
588.34	44219.74
588.49	44353.15
588.65	44201.02
588.81	44161.23
588.97	44208.04
589.13	44051.22
589.29	44421.03
589.45	44580.18
589.61	44678.49
589.77	45036.59
589.93	44264.21
590.08	44861.05
590.24	45099.78
