SpectraSuite Data File
++++++++++++++++++++++++++++++++++++
Date: Fri Oct 25 11:22:36 EDT 2013
User: price-jones
Dark Spectrum Present: No
Reference Spectrum Present: No
Number of Sampled Component Spectra: 1
Spectrometers: USB2+H05261
Integration Time (usec): 100000 (USB2+H05261)
Spectra Averaged: 1 (USB2+H05261)
Boxcar Smoothing: 0 (USB2+H05261)
Correct for Electrical Dark: No (USB2+H05261)
Strobe/Lamp Enabled: No (USB2+H05261)
Correct for Detector Non-linearity: No (USB2+H05261)
Correct for Stray Light: No (USB2+H05261)
Number of Pixels in Processed Spectrum: 2048
>>>>>Begin Processed Spectral Data<<<<<
365.73	215.33
365.92	215.33
366.12	215.33
366.32	161.50
366.52	117.03
366.72	102.98
366.91	126.39
367.11	102.98
367.31	58.51
367.51	117.03
367.70	138.09
367.90	70.22
368.10	161.50
368.30	201.29
368.49	91.28
368.69	81.92
368.89	170.86
369.09	138.09
369.28	112.35
369.48	173.20
369.68	161.50
369.87	283.20
370.07	194.26
370.27	241.08
370.47	236.39
370.66	463.43
370.86	629.60
371.06	638.97
371.25	638.97
371.45	678.76
371.65	641.31
371.84	615.56
372.04	706.84
372.24	732.59
372.44	641.31
372.63	746.63
372.83	781.74
373.03	744.29
373.22	716.20
373.42	695.14
373.62	774.72
373.81	777.06
374.01	784.08
374.21	809.83
374.40	896.43
374.60	884.72
374.79	795.78
374.99	884.72
375.19	858.98
375.38	903.45
375.58	814.51
375.78	849.61
375.97	866.00
376.17	961.96
376.37	884.72
376.56	833.23
376.76	833.23
376.95	933.87
377.15	828.55
377.35	875.36
377.54	863.66
377.74	903.45
377.93	830.89
378.13	891.74
378.33	954.94
378.52	943.24
378.72	887.06
378.91	931.53
379.11	943.24
379.31	945.58
379.50	990.05
379.70	894.08
379.89	1001.75
380.09	896.43
380.28	1011.11
380.48	903.45
380.68	980.68
380.87	1018.13
381.07	976.00
381.26	1067.28
381.46	1034.52
381.65	978.34
381.85	999.41
382.04	1043.88
382.24	1013.45
382.43	973.66
382.63	1071.97
382.83	1032.18
383.02	1086.01
383.22	1191.33
383.41	1071.97
383.61	1104.73
383.80	1158.57
384.00	1203.04
384.19	1125.80
384.39	1135.16
384.58	1097.71
384.78	1076.65
384.97	1219.42
385.17	1149.20
385.36	1242.82
385.56	1198.35
385.75	1165.59
385.95	1205.38
386.14	1273.25
386.34	1303.68
386.53	1238.14
386.72	1104.73
386.92	1210.06
387.11	1203.04
387.31	1320.06
387.50	1196.01
387.70	1310.70
387.89	1254.53
388.09	1235.80
388.28	1198.35
388.48	1294.32
388.67	1317.72
388.86	1453.47
389.06	1310.70
389.25	1359.85
389.45	1324.74
389.64	1404.32
389.84	1467.52
390.03	1331.76
390.22	1348.15
390.42	1373.89
390.61	1329.42
390.81	1378.58
391.00	1380.92
391.19	1481.56
391.39	1455.81
391.58	1469.86
391.78	1462.83
391.97	1465.18
392.16	1462.83
392.36	1603.27
392.55	1516.67
392.75	1521.35
392.94	1511.99
393.13	1537.73
393.33	1502.62
393.52	1554.12
393.71	1551.78
393.91	1554.12
394.10	1652.42
394.29	1668.80
394.49	1673.48
394.68	1729.66
394.88	1521.35
395.07	1647.74
395.26	1621.99
395.46	1753.06
395.65	1715.61
395.84	1771.79
396.04	1795.19
396.23	1811.57
396.42	1633.69
396.62	1795.19
396.81	1762.42
397.00	1724.97
397.19	1813.92
397.39	1734.34
397.58	1867.75
397.77	1844.34
397.97	1853.70
398.16	1895.83
398.35	1905.20
398.55	1902.86
398.74	1977.75
398.93	1944.99
399.12	1888.81
399.32	1860.73
399.51	1909.88
399.70	1996.48
399.90	2031.58
400.09	2019.88
400.28	2057.33
400.47	2008.18
400.67	2036.27
400.86	2113.50
401.05	2099.46
401.24	2092.44
401.44	2134.57
401.63	2190.74
401.82	2078.40
402.01	2148.61
402.21	2125.21
402.40	2148.61
402.59	2176.70
402.78	2291.38
402.97	2277.34
403.17	2275.00
403.36	2258.62
403.55	2282.02
403.74	2345.22
403.93	2464.58
404.13	2251.60
404.32	2462.24
404.51	2361.60
404.70	2420.11
404.89	2324.15
405.09	2537.14
405.28	2450.54
405.47	2506.71
405.66	2523.10
405.85	2520.76
406.05	2530.12
406.24	2602.68
406.43	2719.70
406.62	2682.25
406.81	2705.66
407.00	2621.40
407.20	2520.76
407.39	2801.62
407.58	2724.38
407.77	2761.83
407.96	2773.53
408.15	2935.03
408.34	2715.02
408.54	2808.64
408.73	2719.70
408.92	2822.69
409.11	2827.37
409.30	2808.64
409.49	2944.39
409.68	2916.31
409.87	3098.87
410.07	3033.33
410.26	3091.85
410.45	3045.04
410.64	3098.87
410.83	3047.38
411.02	3194.83
411.21	3183.13
411.40	3145.68
411.59	3206.53
411.78	3234.62
411.98	3112.91
412.17	3304.84
412.36	3386.76
412.55	3412.50
412.74	3492.08
412.93	3403.14
413.12	3267.39
413.31	3487.40
413.50	3524.85
413.69	3524.85
413.88	3644.21
414.07	3599.74
414.26	3541.23
414.45	3705.07
414.64	3789.33
414.83	3709.75
415.02	3794.01
415.22	3901.67
415.41	3911.04
415.60	3859.54
415.79	3992.95
415.98	3929.76
416.17	4046.79
416.36	4114.66
416.55	3950.82
416.74	4042.11
416.93	4084.23
417.12	4065.51
417.31	4266.80
417.50	4086.58
417.69	4416.59
417.88	4231.69
418.07	4322.97
418.26	4379.14
418.45	4306.59
418.64	4381.48
418.83	4428.29
419.02	4526.60
419.21	4624.90
419.39	4491.49
419.58	4526.60
419.77	4507.87
419.96	4552.34
420.15	4599.15
420.34	4582.77
420.53	4734.90
420.72	4674.05
420.91	4720.86
421.10	4737.24
421.29	4880.02
421.48	4669.37
421.67	4802.78
421.86	4840.23
422.05	4798.10
422.24	4788.74
422.43	4870.65
422.61	5123.43
422.80	5139.82
422.99	4933.85
423.18	5025.13
423.37	4978.32
423.56	5041.51
423.75	4891.72
423.94	4858.95
424.13	4596.81
424.32	4695.11
424.50	5004.07
424.69	5181.95
424.88	5114.07
425.07	4971.30
425.26	4896.40
425.45	5020.45
425.64	4971.30
425.83	4975.98
426.01	5114.07
426.20	5036.83
426.39	5093.01
426.58	4931.51
426.77	5088.32
426.96	5057.90
427.15	5055.56
427.33	5132.79
427.52	5085.98
427.71	5413.66
427.90	5181.95
428.09	5231.10
428.28	5366.85
428.46	5320.04
428.65	5376.21
428.84	5469.83
429.03	5605.58
429.22	5455.79
429.40	5636.01
429.59	5561.11
429.78	5238.12
429.97	5444.09
430.16	5514.30
430.34	5750.70
430.53	5757.72
430.72	5844.32
430.91	5694.52
431.10	5603.24
431.28	5708.57
431.47	5879.43
431.66	5898.15
431.85	5738.99
432.03	5888.79
432.22	6024.54
432.41	5951.98
432.60	6036.24
432.79	5973.05
432.97	6090.07
433.16	6197.74
433.35	6078.37
433.54	6200.08
433.72	6265.61
433.91	6162.63
434.10	6207.10
434.28	6265.61
434.47	6157.95
434.66	6244.55
434.85	6279.66
435.03	6424.77
435.22	6193.06
435.41	6441.15
435.59	6342.85
435.78	6368.60
435.97	6487.96
436.16	6415.41
436.34	6408.39
436.53	6518.39
436.72	6593.29
436.90	6384.98
437.09	6733.72
437.28	6523.07
437.46	6647.12
437.65	6494.99
437.84	6923.30
438.02	6707.98
438.21	6857.77
438.40	6836.70
438.58	6881.18
438.77	7180.76
438.96	6906.92
439.14	7040.33
439.33	7180.76
439.52	7288.43
439.70	7194.81
439.89	7470.99
440.08	7316.51
440.26	7318.86
440.45	7377.37
440.63	7473.33
440.82	7513.12
441.01	7662.91
441.19	7686.32
441.38	7775.26
441.57	8018.68
441.75	7927.39
441.94	7899.31
442.12	7964.84
442.31	7927.39
442.50	8116.98
442.68	8112.30
442.87	8201.24
443.05	8210.60
443.24	8273.79
443.43	8264.43
443.61	8226.98
443.80	8439.97
443.98	7999.95
444.17	7913.35
444.35	8355.71
444.54	8435.29
444.73	8304.22
444.91	8484.44
445.10	8217.62
445.28	8262.09
445.47	8362.73
445.65	8400.18
445.84	8615.51
446.02	8667.00
446.21	8397.84
446.39	8411.89
446.58	8718.50
446.77	8528.91
446.95	8432.95
447.14	8430.61
447.32	8638.92
447.51	8535.93
447.69	8477.42
447.88	8482.10
448.06	8671.68
448.25	8571.04
448.43	8748.92
448.62	8554.66
448.80	8491.46
448.99	8737.22
449.17	8744.24
449.36	8872.97
449.54	8868.29
449.73	8865.95
449.91	9144.47
450.10	8973.61
450.28	9202.99
450.46	9071.92
450.65	8992.34
450.83	9121.07
451.02	9146.81
451.20	9263.84
451.39	9228.73
451.57	9198.31
451.76	9228.73
451.94	9198.31
452.13	9331.72
452.31	9385.55
452.49	9231.07
452.68	9614.92
452.86	9296.61
453.05	9458.10
453.23	9720.24
453.42	9387.89
453.60	9397.25
453.78	9612.58
453.97	9495.55
454.15	9671.09
454.34	9467.47
454.52	9785.78
454.70	9621.94
454.89	9863.02
455.07	9830.25
455.26	9724.93
455.44	9907.49
455.62	10150.90
455.81	10230.48
455.99	10059.62
456.17	10186.01
456.36	10134.52
456.54	10129.84
456.73	10466.88
456.91	10696.25
457.09	10593.26
457.28	10696.25
457.46	10562.84
457.64	10574.54
457.83	10675.18
458.01	10473.90
458.19	10874.13
458.38	10714.97
458.56	10623.69
458.74	10789.87
458.93	10583.90
459.11	10857.75
459.29	10766.46
459.48	10794.55
459.66	10902.22
459.84	11026.26
460.03	11159.67
460.21	11094.14
460.39	11194.78
460.57	11082.44
460.76	11169.04
460.94	11239.25
461.12	11220.53
461.31	11183.08
461.49	11082.44
461.67	11246.27
461.85	11676.93
462.04	11379.68
462.22	12032.69
462.40	11789.28
462.59	11620.76
462.77	11555.22
462.95	11758.85
463.13	11770.55
463.32	11946.09
463.50	11913.33
463.68	12023.33
463.86	11969.50
464.05	11618.42
464.23	11587.99
464.41	12056.10
464.59	11918.01
464.78	12145.04
464.96	12241.00
465.14	12044.40
465.32	12154.40
465.50	12285.47
465.69	12292.49
465.87	12299.52
466.05	12219.94
466.23	12212.92
466.41	12285.47
466.60	12699.75
466.78	12250.36
466.96	12393.14
467.14	12297.17
467.32	12386.12
467.51	12875.29
467.69	12259.73
467.87	12716.13
468.05	12898.69
468.23	12397.82
468.41	12659.96
468.60	12774.64
468.78	12980.61
468.96	12730.17
469.14	12912.74
469.32	13076.57
469.50	12650.60
469.69	12968.91
469.87	13205.30
470.05	13123.38
470.23	13273.18
470.41	13214.66
470.59	13359.78
470.77	13547.02
470.95	13535.32
471.14	13661.71
471.32	13467.44
471.50	13572.77
471.68	13774.05
471.86	13654.69
472.04	13907.46
472.22	14415.36
472.40	13851.29
472.58	13914.48
472.77	13921.51
472.95	14214.07
473.13	14677.50
473.31	14003.43
473.49	14450.47
473.67	14066.62
473.85	14429.40
474.03	14558.13
474.21	14623.67
474.39	15274.34
474.57	14562.81
474.75	15030.92
474.93	15140.93
475.12	15140.93
475.30	15222.84
475.48	15370.30
475.66	15487.32
475.84	15108.16
476.02	15562.22
476.20	15524.77
476.38	15693.29
476.56	16156.72
476.74	16126.29
476.92	15978.84
477.10	16035.01
477.28	16173.10
477.46	16367.37
477.64	16482.05
477.82	17027.40
478.00	17240.39
478.18	16702.06
478.36	17062.51
478.54	17076.55
478.72	17109.32
478.90	17605.51
479.08	17877.01
479.26	17664.02
479.44	17745.94
479.62	18036.17
479.80	18075.96
479.98	18513.64
480.16	18869.40
480.34	18487.89
480.52	18658.75
480.70	18689.18
480.88	18590.88
481.06	19073.03
481.24	18728.97
481.41	19215.80
481.59	19349.21
481.77	19618.37
481.95	19850.08
482.13	20100.52
482.31	20109.88
482.49	20442.24
482.67	20383.73
482.85	20540.54
483.03	20842.47
483.21	20812.04
483.39	20760.55
483.57	20985.24
483.74	21584.42
483.92	21429.94
484.10	21397.18
484.28	22022.10
484.46	22216.36
484.64	22546.38
484.82	22033.80
485.00	22609.58
485.18	22836.61
485.35	23269.61
485.53	23009.81
485.71	22960.66
485.89	23749.42
486.07	23510.68
486.25	23403.02
486.43	23899.21
486.61	23910.91
486.78	24180.07
486.96	24739.46
487.14	24774.57
487.32	24912.66
487.50	25144.38
487.68	25348.00
487.85	25268.42
488.03	25984.63
488.21	25846.54
488.39	25916.75
488.57	25947.18
488.75	26740.62
488.92	26757.00
489.10	27358.52
489.28	26663.38
489.46	27253.20
489.64	26792.11
489.81	27880.46
489.99	27824.29
490.17	27997.49
490.35	28285.37
490.53	28416.44
490.70	28819.02
490.88	28500.70
491.06	28994.56
491.24	28907.96
491.41	29350.32
491.59	29680.33
491.77	29717.78
491.95	30181.21
492.13	29944.81
492.30	30569.74
492.48	30260.79
492.66	30902.09
492.84	30721.87
493.01	31274.24
493.19	30726.55
493.37	31337.43
493.54	31555.10
493.72	31630.00
493.90	31775.11
494.08	32287.69
494.25	32189.39
494.43	32278.33
494.61	32142.58
494.79	32818.99
494.96	32973.47
495.14	33137.30
495.32	33586.69
495.49	33504.77
495.67	33518.81
495.85	33806.70
496.02	34366.09
496.20	34272.46
496.38	34195.23
496.55	34197.57
496.73	35145.48
496.91	34756.96
497.09	35178.25
497.26	35606.57
497.44	35187.61
497.62	35428.69
497.79	35842.96
497.97	35924.88
498.14	36147.23
498.32	36367.24
498.50	36315.75
498.67	36521.72
498.85	36503.00
499.03	36758.11
499.20	37785.61
499.38	37432.19
499.56	37558.58
499.73	37581.98
499.91	37113.87
500.08	37968.17
500.26	37717.73
500.44	38003.28
500.61	38160.09
500.79	38120.31
500.97	38356.70
501.14	38946.51
501.32	38618.84
501.49	39173.55
501.67	38925.45
501.84	39147.80
502.02	39428.66
502.20	39337.38
502.37	39597.18
502.55	39669.74
502.72	39707.19
502.90	39859.32
503.07	39814.85
503.25	40023.16
503.43	40175.30
503.60	40187.00
503.78	40432.75
503.95	40608.29
504.13	40800.22
504.30	41158.32
504.48	40776.81
504.65	41275.35
504.83	41432.16
505.01	41668.56
505.18	41612.38
505.36	41694.30
505.53	41684.94
505.71	42176.45
505.88	42017.30
506.06	41689.62
506.23	42253.69
506.41	42216.24
506.58	42541.58
506.76	42464.34
506.93	42752.23
507.11	42595.41
507.28	42660.94
507.46	43367.79
507.63	43098.62
507.81	43325.66
507.98	43344.38
508.16	43636.95
508.33	44062.93
508.50	44137.82
508.68	44128.46
508.85	44177.61
509.03	44055.90
509.20	44318.04
509.38	44662.10
509.55	44811.90
509.73	44783.81
509.90	45067.02
510.08	44809.56
510.25	45375.97
510.42	45251.92
510.60	45347.88
510.77	45310.43
510.95	45841.73
511.12	45256.60
511.30	45502.35
511.47	45804.28
511.64	45977.48
511.82	46330.90
511.99	46036.00
512.17	46506.44
512.34	46216.22
512.51	46738.16
512.69	46799.01
512.86	46681.98
513.04	47035.41
513.21	47203.92
513.38	46972.21
513.56	47278.82
513.73	47002.64
513.90	47437.98
514.08	47482.45
514.25	47784.38
514.43	47782.04
514.60	47943.53
514.77	47849.91
514.95	47711.82
515.12	47763.31
515.29	48093.33
515.47	48516.96
515.64	48294.61
515.81	48397.60
515.99	48685.48
516.16	48699.53
516.33	48727.61
516.51	49188.70
516.68	48676.12
516.85	48692.50
517.03	49064.65
517.20	49570.21
517.37	48659.74
517.54	49312.75
517.72	49127.84
517.89	49294.02
518.06	49411.05
518.24	49684.89
518.41	49387.64
518.58	49556.16
518.75	49539.78
518.93	49989.16
519.10	49790.22
519.27	49918.95
519.45	50197.47
519.62	50087.46
519.79	50216.19
519.96	50127.25
520.14	50380.03
520.31	50511.10
520.48	50335.56
520.65	50625.79
520.83	50602.38
521.00	50908.99
521.17	50979.21
521.34	51040.06
521.52	51255.39
521.69	51096.24
521.86	51468.38
522.03	51524.55
522.20	51767.97
522.38	51737.54
522.55	51437.95
522.72	51683.71
522.89	51519.87
523.07	51880.31
523.24	51643.92
523.41	51826.48
523.58	52004.36
523.75	52582.48
523.92	52051.17
524.10	52044.15
524.27	52509.92
524.44	52203.31
524.61	52556.73
524.78	52500.56
524.96	52514.60
525.13	52325.02
525.30	52692.48
525.47	52713.55
525.64	52687.80
525.81	52928.87
525.98	52949.94
526.16	52690.14
526.33	52924.19
526.50	53340.81
526.67	52753.33
526.84	53010.79
527.01	53102.07
527.18	53153.57
527.36	53324.43
527.53	53155.91
527.70	53691.89
527.87	53469.54
528.04	53202.72
528.21	53607.63
528.38	53572.52
528.55	53996.16
528.72	53652.10
528.89	53602.95
529.07	53811.26
529.24	53799.55
529.41	54145.95
529.58	54192.76
529.75	53979.78
529.92	54061.69
530.09	53888.49
530.26	54316.81
530.43	54171.70
530.60	53993.82
530.77	54232.55
530.94	54258.30
531.11	54342.56
531.28	54473.63
531.46	54679.60
531.63	54674.91
531.80	54426.82
531.97	54681.94
532.14	54787.26
532.31	54534.48
532.48	54857.48
532.65	54752.15
532.82	54885.56
532.99	54937.05
533.16	54951.10
533.33	55096.21
533.50	55018.97
533.67	55395.80
533.84	54768.54
534.01	55318.56
534.18	55058.76
534.35	55622.83
534.52	55103.23
534.69	55468.36
534.86	55337.29
535.03	55515.17
535.20	55662.62
535.37	55468.36
535.54	55679.00
535.71	55292.82
535.88	55625.17
536.05	55758.58
536.22	55906.04
536.38	55817.10
536.55	55959.87
536.72	55793.69
536.89	56018.38
537.06	55913.06
537.23	55760.92
537.40	55742.20
537.57	55931.78
537.74	56055.83
537.91	56090.94
538.08	56086.26
538.25	56097.96
538.42	56273.50
538.59	56296.91
538.75	56177.54
538.92	56341.38
539.09	56425.64
539.26	56367.12
539.43	56329.67
539.60	56451.38
539.77	56390.53
539.94	56706.50
540.11	56610.54
540.28	56570.75
540.44	56568.41
540.61	56587.13
540.78	56568.41
540.95	56612.88
541.12	56423.29
541.29	56732.25
541.46	56530.96
541.62	56765.01
541.79	56928.85
541.96	56418.61
542.13	56795.44
542.30	57176.95
542.47	57202.69
542.63	57073.96
542.80	57167.58
542.97	57319.72
543.14	57240.14
543.31	57249.50
543.48	57326.74
543.64	57682.50
543.81	57293.97
543.98	57523.35
544.15	57656.76
544.32	57745.70
544.48	57766.76
544.65	57476.54
544.82	57876.77
544.99	57516.32
545.16	57661.44
545.32	57565.48
545.49	58049.97
545.66	57890.81
545.83	57867.40
546.00	57954.00
546.16	57696.55
546.33	57785.49
546.50	57513.98
546.67	57890.81
546.83	57748.04
547.00	58007.84
547.17	58155.29
547.34	58078.05
547.50	58326.15
547.67	58213.80
547.84	58138.91
548.00	58461.90
548.17	58333.17
548.34	58220.83
548.51	58433.81
548.67	58494.67
548.84	58532.12
549.01	58089.76
549.18	58482.97
549.34	58326.15
549.51	58365.94
549.68	58548.50
549.84	58452.54
550.01	58298.06
550.18	58473.60
550.34	58560.20
550.51	58944.05
550.68	58599.99
550.84	58344.87
551.01	58724.04
551.18	58681.91
551.34	58915.96
551.51	58740.42
551.68	58864.47
551.84	58824.68
552.01	58649.14
552.18	58958.09
552.34	58862.13
552.51	58855.11
552.68	58873.84
552.84	58749.79
553.01	59187.47
553.18	58995.54
553.34	58911.28
553.51	58873.84
553.67	59269.39
553.84	59222.58
554.01	59133.63
554.17	59119.59
554.34	59236.62
554.51	59433.22
554.67	59302.15
554.84	59180.45
555.00	59290.45
555.17	59077.46
555.33	59199.17
555.50	59194.49
555.67	59180.45
555.83	59297.47
556.00	59473.01
556.16	59503.44
556.33	59519.82
556.50	59480.03
556.66	59451.95
556.83	59295.13
556.99	59578.34
557.16	59718.77
557.32	59599.40
557.49	60027.72
557.65	59746.86
557.82	59686.00
557.98	59625.15
558.15	59550.25
558.32	59686.00
558.48	59554.93
558.65	59606.42
558.81	59597.06
558.98	59753.88
559.14	59952.82
559.31	59964.52
559.47	59889.63
559.64	59978.57
559.80	59723.45
559.97	59957.50
560.13	59840.48
560.30	60111.98
560.46	59987.93
560.63	59985.59
560.79	60182.19
560.96	59948.14
561.12	60116.66
561.29	60186.88
561.45	60051.12
561.61	60154.11
561.78	60013.68
561.94	60114.32
562.11	60055.81
562.27	60032.40
562.44	60310.92
562.60	60102.62
562.77	60121.34
562.93	59934.10
563.10	60425.61
563.26	60128.36
563.42	60507.53
563.59	60310.92
563.75	60116.66
563.92	60308.58
564.08	60404.55
564.24	60348.37
564.41	60402.21
564.57	60383.48
564.74	60285.18
564.90	60402.21
565.07	60411.57
565.23	60065.17
565.39	60357.74
565.56	60334.33
565.72	60392.84
565.88	60584.77
566.05	60392.84
566.21	60369.44
566.38	60346.03
566.54	60397.52
566.70	60479.44
566.87	60327.31
567.03	60357.74
567.19	60734.56
567.36	60680.73
567.52	60346.03
567.68	60959.25
567.85	60465.40
568.01	60687.75
568.17	60423.27
568.34	60645.62
568.50	60645.62
568.66	60257.09
568.83	60556.68
568.99	60493.49
569.15	60608.17
569.32	60495.83
569.48	60547.32
569.64	60610.51
569.81	60795.42
569.97	60652.64
570.13	60701.79
570.30	60645.62
570.46	60795.42
570.62	60985.00
570.78	60891.38
570.95	60882.02
571.11	60987.34
571.27	60720.52
571.43	60980.32
571.60	60891.38
571.76	60786.05
571.92	60814.14
572.09	61020.11
572.25	60734.56
572.41	60832.86
572.57	60683.07
572.74	61118.41
572.90	60961.59
573.06	60926.49
573.22	60781.37
573.38	60917.12
573.55	61010.74
573.71	61006.06
573.87	60891.38
574.03	60725.20
574.20	61031.81
574.36	60669.03
574.52	60882.02
574.68	60830.52
574.84	60879.67
575.01	61034.15
575.17	60956.91
575.33	61090.32
575.49	60942.87
575.65	61095.00
575.82	61017.77
575.98	60804.78
576.14	61125.43
576.30	60956.91
576.46	61017.77
576.62	60956.91
576.79	61132.45
576.95	60842.23
577.11	60772.01
577.27	61043.51
577.43	61022.45
577.59	61008.40
577.75	60774.35
577.92	60858.61
578.08	60907.76
578.24	61043.51
578.40	61237.78
578.56	61057.56
578.72	61158.20
578.88	61116.07
579.04	61329.06
579.21	61022.45
579.37	61284.59
579.53	61310.33
579.69	60879.67
579.85	61071.60
580.01	61141.81
580.17	60975.64
580.33	61183.94
580.49	61165.22
580.65	61141.81
580.82	61263.52
580.98	61041.17
581.14	60889.04
581.30	61190.97
581.46	60935.85
581.62	61174.58
581.78	61137.13
581.94	61104.37
582.10	61015.43
582.26	61076.28
582.42	61020.11
582.58	61141.81
582.74	61083.30
582.90	61202.67
583.06	61167.56
583.22	60987.34
583.38	61139.47
583.54	61062.24
583.70	61305.65
583.86	61230.75
584.02	61130.11
584.18	61446.08
584.34	61226.07
584.50	61209.69
584.66	60844.57
584.82	61148.84
584.98	61364.17
585.14	61392.25
585.30	61043.51
585.46	61338.42
585.62	61097.34
585.78	61455.45
585.94	61205.01
586.10	61193.31
586.26	61410.98
586.42	61193.31
586.58	61307.99
586.74	61228.41
586.90	61106.71
587.06	61193.31
587.22	61275.22
587.38	61329.06
587.54	61282.25
587.70	61340.76
587.86	61181.60
588.02	61303.31
588.18	61476.51
588.34	61137.13
588.49	61141.81
