SpectraSuite Data File
++++++++++++++++++++++++++++++++++++
Date: Fri Oct 25 10:47:39 EDT 2013
User: price-jones
Dark Spectrum Present: No
Reference Spectrum Present: No
Number of Sampled Component Spectra: 1
Spectrometers: USB2+H05261
Integration Time (usec): 100000 (USB2+H05261)
Spectra Averaged: 1 (USB2+H05261)
Boxcar Smoothing: 0 (USB2+H05261)
Correct for Electrical Dark: No (USB2+H05261)
Strobe/Lamp Enabled: No (USB2+H05261)
Correct for Detector Non-linearity: No (USB2+H05261)
Correct for Stray Light: No (USB2+H05261)
Number of Pixels in Processed Spectrum: 2048
>>>>>Begin Processed Spectral Data<<<<<
365.73	180.22
365.92	180.22
366.12	180.22
366.32	112.35
366.52	74.90
366.72	102.98
366.91	63.19
367.11	7.02
367.31	0.00
367.51	23.41
367.70	28.09
367.90	77.24
368.10	133.41
368.30	4.68
368.49	63.19
368.69	74.90
368.89	72.56
369.09	42.13
369.28	72.56
369.48	145.11
369.68	119.37
369.87	102.98
370.07	56.17
370.27	126.39
370.47	189.58
370.66	348.74
370.86	386.19
371.06	458.74
371.25	470.45
371.45	418.96
371.65	351.08
371.84	437.68
372.04	372.15
372.24	400.23
372.44	421.30
372.63	435.34
372.83	528.96
373.03	575.77
373.22	447.04
373.42	533.64
373.62	603.86
373.81	592.16
374.01	561.73
374.21	653.01
374.40	557.05
374.60	496.19
374.79	540.66
374.99	493.85
375.19	557.05
375.38	538.32
375.58	594.50
375.78	568.75
375.97	592.16
376.17	638.97
376.37	606.20
376.56	533.64
376.76	617.90
376.95	575.77
377.15	617.90
377.35	615.56
377.54	557.05
377.74	589.82
377.93	643.65
378.13	566.41
378.33	690.46
378.52	657.69
378.72	589.82
378.91	643.65
379.11	660.03
379.31	585.13
379.50	566.41
379.70	660.03
379.89	748.97
380.09	620.24
380.28	678.76
380.48	692.80
380.68	624.92
380.87	711.52
381.07	650.67
381.26	725.57
381.46	678.76
381.65	704.50
381.85	779.40
382.04	697.48
382.24	809.83
382.43	627.26
382.63	723.23
382.83	641.31
383.02	706.84
383.22	608.54
383.41	664.71
383.61	667.05
383.80	748.97
384.00	753.65
384.19	713.86
384.39	763.01
384.58	744.29
384.78	763.01
384.97	777.06
385.17	739.61
385.36	767.70
385.56	711.52
385.75	800.46
385.95	704.50
386.14	873.02
386.34	786.42
386.53	851.96
386.72	784.08
386.92	889.40
387.11	791.10
387.31	830.89
387.50	837.91
387.70	786.42
387.89	798.12
388.09	889.40
388.28	912.81
388.48	819.19
388.67	936.21
388.86	898.77
389.06	882.38
389.25	894.08
389.45	936.21
389.64	842.59
389.84	959.62
390.03	844.93
390.22	887.06
390.42	952.60
390.61	875.36
390.81	964.30
391.00	990.05
391.19	1043.88
391.39	1004.09
391.58	954.94
391.78	1032.18
391.97	1053.24
392.16	992.39
392.36	952.60
392.55	1076.65
392.75	1013.45
392.94	983.02
393.13	992.39
393.33	940.90
393.52	1043.88
393.71	1001.75
393.91	1078.99
394.10	1097.71
394.29	1013.45
394.49	1100.05
394.68	1125.80
394.88	1074.31
395.07	1107.07
395.26	1102.39
395.46	1146.86
395.65	1207.72
395.84	1242.82
396.04	1137.50
396.23	1139.84
396.42	1081.33
396.62	1132.82
396.81	1165.59
397.00	1130.48
397.19	1107.07
397.39	1247.51
397.58	1198.35
397.77	1235.80
397.97	1275.59
398.16	1371.55
398.35	1291.98
398.55	1406.66
398.74	1371.55
398.93	1362.19
399.12	1327.08
399.32	1380.92
399.51	1420.71
399.70	1373.89
399.90	1413.68
400.09	1430.07
400.28	1397.30
400.47	1392.62
400.67	1394.96
400.86	1516.67
401.05	1507.30
401.24	1474.54
401.44	1554.12
401.63	1540.07
401.82	1411.34
402.01	1469.86
402.21	1549.43
402.40	1598.59
402.59	1495.60
402.78	1626.67
402.97	1636.03
403.17	1661.78
403.36	1542.41
403.55	1680.50
403.74	1678.16
403.93	1666.46
404.13	1636.03
404.32	1682.85
404.51	1647.74
404.70	1692.21
404.89	1652.42
405.09	1703.91
405.28	1727.32
405.47	1713.27
405.66	1750.72
405.85	1694.55
406.05	1792.85
406.24	1746.04
406.43	1818.60
406.62	1867.75
406.81	2024.56
407.00	1806.89
407.20	1898.17
407.39	1813.92
407.58	1912.22
407.77	1933.28
407.96	2017.54
408.15	2076.06
408.34	2076.06
408.54	1923.92
408.73	2087.76
408.92	2104.14
409.11	2003.50
409.30	2047.97
409.49	2062.01
409.68	2019.88
409.87	2104.14
410.07	2059.67
410.26	2071.37
410.45	2207.13
410.64	2267.98
410.83	2165.00
411.02	2326.49
411.21	2324.15
411.40	2307.77
411.59	2258.62
411.78	2385.01
411.98	2370.96
412.17	2354.58
412.36	2424.80
412.55	2401.39
412.74	2431.82
412.93	2480.97
413.12	2448.20
413.31	2560.55
413.50	2516.08
413.69	2597.99
413.88	2733.75
414.07	2574.59
414.26	2567.57
414.45	2712.68
414.64	2567.57
414.83	2663.53
415.02	2656.51
415.22	2818.00
415.41	2904.60
415.60	2846.09
415.79	2855.45
415.98	2871.84
416.17	2904.60
416.36	2918.65
416.55	2942.05
416.74	2991.20
416.93	2942.05
417.12	2942.05
417.31	2984.18
417.50	3045.04
417.69	3063.76
417.88	3056.74
418.07	3073.12
418.26	3204.19
418.45	3164.40
418.64	3215.90
418.83	3180.79
419.02	3073.12
419.21	3314.20
419.39	3176.11
419.58	3307.18
419.77	3215.90
419.96	3396.12
420.15	3346.97
420.34	3332.92
420.53	3461.65
420.72	3382.07
420.91	3485.06
421.10	3480.38
421.29	3475.70
421.48	3396.12
421.67	3445.27
421.86	3410.16
422.05	3417.18
422.24	3393.78
422.43	3496.76
422.61	3576.34
422.80	3550.59
422.99	3449.95
423.18	3541.23
423.37	3728.47
423.56	3590.38
423.75	3496.76
423.94	3459.31
424.13	3318.88
424.32	3419.52
424.50	3658.26
424.69	3737.84
424.88	3630.17
425.07	3684.00
425.26	3431.23
425.45	3583.36
425.64	3693.37
425.83	3679.32
426.01	3676.98
426.20	3550.59
426.39	3634.85
426.58	3599.74
426.77	3613.79
426.96	3653.58
427.15	3653.58
427.33	3707.41
427.52	3648.90
427.71	3709.75
427.90	3791.67
428.09	3798.69
428.28	3789.33
428.46	3789.33
428.65	3817.41
428.84	3850.18
429.03	3950.82
429.22	3754.22
429.40	3936.78
429.59	3777.62
429.78	3630.17
429.97	3707.41
430.16	3705.07
430.34	3864.22
430.53	3840.82
430.72	3878.27
430.91	3906.35
431.10	3852.52
431.28	4203.60
431.47	4217.65
431.66	4152.11
431.85	4102.96
432.03	4098.28
432.22	4287.86
432.41	4231.69
432.60	4325.31
432.79	4416.59
432.97	4367.44
433.16	4212.96
433.35	4173.18
433.54	4344.03
433.72	4257.43
433.91	4283.18
434.10	4348.72
434.28	4348.72
434.47	4367.44
434.66	4512.55
434.85	4587.45
435.03	4596.81
435.22	4444.68
435.41	4734.90
435.59	4594.47
435.78	4645.96
435.97	4585.11
436.16	4732.56
436.34	4491.49
436.53	4664.69
436.72	4765.33
436.90	4575.75
437.09	4608.51
437.28	4627.24
437.46	4627.24
437.65	4631.92
437.84	4737.24
438.02	4627.24
438.21	4830.87
438.40	4753.63
438.58	4891.72
438.77	4968.96
438.96	4929.17
439.14	5034.49
439.33	5062.58
439.52	5025.13
439.70	5067.26
439.89	5135.14
440.08	5093.01
440.26	5385.57
440.45	5238.12
440.63	5369.19
440.82	5411.32
441.01	5287.27
441.19	5418.34
441.38	5537.71
441.57	5589.20
441.75	5572.82
441.94	5792.83
442.12	5638.35
442.31	5673.46
442.50	5680.48
442.68	5551.75
442.87	5818.57
443.05	5717.93
443.24	5933.26
443.43	5778.78
443.61	5799.85
443.80	5966.03
443.98	5872.40
444.17	5647.71
444.35	5685.16
444.54	6078.37
444.73	6010.50
444.91	5900.49
445.10	5942.62
445.28	6005.81
445.47	5926.24
445.65	5867.72
445.84	5923.90
446.02	6040.92
446.21	6012.84
446.39	6043.26
446.58	5895.81
446.77	6045.60
446.95	5947.30
447.14	6181.35
447.32	6113.48
447.51	6146.25
447.69	6069.01
447.88	6118.16
448.06	5951.98
448.25	6148.59
448.43	6171.99
448.62	6274.98
448.80	6052.63
448.99	6249.23
449.17	6186.04
449.36	6174.33
449.54	6349.87
449.73	6314.77
449.91	6544.14
450.10	6462.22
450.28	6333.49
450.46	6586.27
450.65	6471.58
450.83	6576.91
451.02	6429.45
451.20	6593.29
451.39	6595.63
451.57	6600.31
451.76	6459.88
451.94	6696.27
452.13	6703.29
452.31	6431.79
452.49	6410.73
452.68	6565.20
452.86	6668.19
453.05	6619.04
453.23	6717.34
453.42	6614.35
453.60	6576.91
453.78	6719.68
453.97	6614.35
454.15	6689.25
454.34	6754.79
454.52	6871.81
454.70	6895.22
454.89	6927.99
455.07	6827.34
455.26	6956.07
455.44	6892.88
455.62	7091.82
455.81	7152.68
455.99	7016.93
456.17	7166.72
456.36	7047.35
456.54	7229.91
456.73	7143.32
456.91	7506.10
457.09	7463.97
457.28	7522.48
457.46	7328.22
457.64	7302.47
457.83	7494.40
458.01	7190.13
458.19	7674.62
458.38	7377.37
458.56	7637.17
458.74	7576.31
458.93	7456.95
459.11	7559.93
459.29	7515.46
459.48	7623.12
459.66	7515.46
459.84	7676.96
460.03	7822.07
460.21	7831.43
460.39	7875.90
460.57	7709.72
460.76	7978.89
460.94	7824.41
461.12	7805.69
461.31	8016.33
461.49	7714.41
461.67	7927.39
461.85	7948.46
462.04	8126.34
462.22	8512.53
462.40	8102.93
462.59	8138.04
462.77	8140.38
462.95	8208.26
463.13	8252.73
463.32	8074.85
463.50	8334.65
463.68	8170.81
463.86	8119.32
464.05	8098.25
464.23	8149.75
464.41	8255.07
464.59	8088.89
464.78	8355.71
464.96	8315.92
465.14	8255.07
465.32	8517.21
465.50	8404.86
465.69	8535.93
465.87	8318.26
466.05	8395.50
466.23	8442.31
466.41	8535.93
466.60	8751.26
466.78	8451.67
466.96	8409.54
467.14	8589.77
467.32	8451.67
467.51	8641.26
467.69	8308.90
467.87	8571.04
468.05	8648.28
468.23	8769.99
468.41	8692.75
468.60	8667.00
468.78	8936.17
468.96	9041.49
469.14	8905.74
469.32	8837.86
469.50	8704.45
469.69	9006.38
469.87	8908.08
470.05	9029.79
470.23	8849.57
470.41	8961.91
470.59	8994.68
470.77	9172.56
470.95	9174.90
471.14	9100.00
471.32	9121.07
471.50	9434.70
471.68	9317.67
471.86	9385.55
472.04	9399.59
472.22	9902.81
472.40	9301.29
472.58	9504.92
472.77	9635.99
472.95	9825.57
473.13	10029.20
473.31	9668.75
473.49	9619.60
473.67	9668.75
473.85	9825.57
474.03	9980.04
474.21	10146.22
474.39	10087.71
474.57	10010.47
474.75	10356.87
474.93	10368.57
475.12	10270.27
475.30	10438.79
475.48	10296.02
475.66	10574.54
475.84	10373.25
476.02	10548.79
476.20	10504.32
476.38	10595.61
476.56	10890.51
476.74	11014.56
476.92	10963.07
477.10	11019.24
477.28	10986.47
477.46	10986.47
477.64	11201.80
477.82	11115.20
478.00	11398.41
478.18	11475.65
478.36	11494.37
478.54	11800.98
478.72	11997.59
478.90	11946.09
479.08	11988.22
479.26	12058.44
479.44	12042.06
479.62	12210.57
479.80	12301.86
479.98	12336.96
480.16	12657.62
480.34	12465.69
480.52	12669.32
480.70	12479.74
480.88	12599.10
481.06	12540.59
481.24	12739.54
481.41	13128.06
481.59	13394.89
481.77	13221.69
481.95	13509.57
482.13	13177.22
482.31	13467.44
482.49	13806.82
482.67	13710.86
482.85	13792.78
483.03	13848.95
483.21	14214.07
483.39	14073.64
483.57	14125.13
483.74	14232.80
483.92	14499.62
484.10	14516.00
484.28	14743.03
484.46	14593.24
484.64	14998.15
484.82	14752.40
485.00	14923.26
485.18	15396.04
485.35	15393.70
485.53	14916.23
485.71	14984.11
485.89	15260.29
486.07	15279.02
486.25	15489.67
486.43	16051.39
486.61	15936.71
486.78	15868.83
486.96	16053.73
487.14	16423.54
487.32	16304.17
487.50	16608.44
487.68	16699.72
487.85	17003.99
488.03	17041.44
488.21	17572.74
488.39	17392.52
488.57	17170.17
488.75	17738.92
488.92	17348.05
489.10	17834.88
489.28	17989.36
489.46	18022.12
489.64	18026.81
489.81	18551.09
489.99	18712.58
490.17	18630.66
490.35	19110.47
490.53	18799.18
490.70	19115.16
490.88	19030.90
491.06	18948.98
491.24	19122.18
491.41	19833.70
491.59	19374.95
491.77	19199.41
491.95	19522.41
492.13	19793.91
492.30	20280.74
492.48	20123.93
492.66	20238.61
492.84	20545.22
493.01	20563.95
493.19	20505.43
493.37	20900.98
493.54	20769.91
493.72	21032.05
493.90	20985.24
494.08	21486.12
494.25	21216.96
494.43	21404.20
494.61	21589.10
494.79	21919.12
494.96	21771.66
495.14	21619.53
495.32	21755.28
495.49	22059.55
495.67	22373.18
495.85	22382.54
496.02	22609.58
496.20	22656.39
496.38	22544.04
496.55	22686.81
496.73	23293.01
496.91	23112.79
497.09	23363.23
497.26	23332.80
497.44	23241.52
497.62	23454.51
497.79	23747.08
497.97	23690.90
498.14	23627.71
498.32	23721.33
498.50	23988.15
498.67	24271.36
498.85	24159.01
499.03	24343.91
499.20	24446.90
499.38	24474.98
499.56	24325.19
499.73	24931.39
499.91	24699.67
500.08	24893.94
500.26	24620.10
500.44	24929.05
500.61	24858.83
500.79	25050.75
500.97	25289.49
501.14	25130.33
501.32	25305.87
501.49	25280.13
501.67	25502.48
501.84	25448.64
502.02	25652.27
502.20	26029.10
502.37	26188.25
502.55	25874.62
502.72	26073.57
502.90	26228.04
503.07	26195.28
503.25	26242.09
503.43	26192.94
503.60	26693.81
503.78	26354.43
503.95	26609.55
504.13	26789.77
504.30	26977.01
504.48	27014.46
504.65	26768.71
504.83	27005.10
505.01	27391.29
505.18	27026.17
505.36	27491.93
505.53	27679.18
505.71	27728.33
505.88	27585.55
506.06	27452.14
506.23	27981.10
506.41	27541.08
506.58	27590.24
506.76	28070.04
506.93	28168.35
507.11	27934.29
507.28	28032.60
507.46	27978.76
507.63	28060.68
507.81	28196.43
507.98	28334.53
508.16	28538.15
508.33	28582.62
508.50	28788.59
508.68	28811.99
508.85	29511.81
509.03	29125.63
509.20	28957.11
509.38	29074.13
509.55	29465.00
509.73	29596.07
509.90	29638.20
510.08	29317.55
510.25	29535.22
510.42	29560.97
510.60	30139.08
510.77	29418.19
510.95	29371.38
511.12	29888.64
511.30	29785.66
511.47	30429.30
511.64	30050.14
511.82	30452.71
511.99	30319.30
512.17	30780.39
512.34	30513.56
512.51	30391.86
512.69	30611.87
512.86	31192.32
513.04	30911.46
513.21	31136.15
513.38	30852.94
513.56	30822.51
513.73	31033.16
513.90	31098.70
514.08	30871.67
514.25	31314.03
514.43	31143.17
514.60	31243.81
514.77	30918.48
514.95	31405.31
515.12	31449.78
515.29	31702.56
515.47	31770.43
515.64	31971.72
515.81	31955.33
515.99	32067.68
516.16	32109.81
516.33	32158.96
516.51	31957.67
516.68	31690.85
516.85	31955.33
517.03	31749.37
517.20	32187.05
517.37	32402.38
517.54	32369.61
517.72	32072.36
517.89	32383.65
518.06	32306.41
518.24	32385.99
518.41	32540.47
518.58	32851.76
518.75	32748.78
518.93	33116.24
519.10	32800.27
519.27	33216.88
519.45	33422.85
519.62	32947.72
519.79	33383.06
519.96	33305.82
520.14	33647.54
520.31	33261.35
520.48	33710.74
520.65	33591.37
520.83	34050.11
521.00	33759.89
521.17	33914.36
521.34	33647.54
521.52	33879.25
521.69	34265.44
521.86	34368.43
522.03	34286.51
522.20	34614.18
522.38	34321.62
522.55	34738.23
522.72	34373.11
522.89	34422.26
523.07	34616.52
523.24	34330.98
523.41	35028.46
523.58	34679.72
523.75	35089.31
523.92	34944.20
524.10	35487.20
524.27	35304.64
524.44	35381.88
524.61	35505.93
524.78	35337.41
524.96	35110.38
525.13	35618.27
525.30	35950.63
525.47	35679.13
525.64	35498.91
525.81	35440.39
525.98	35651.04
526.16	35510.61
526.33	35306.98
526.50	36140.21
526.67	35524.65
526.84	35723.60
527.01	35601.89
527.18	35768.07
527.36	36367.24
527.53	36053.61
527.70	36545.12
527.87	36495.97
528.04	36062.97
528.21	36301.71
528.38	36353.20
528.55	36875.14
528.72	36400.01
528.89	36924.29
529.07	36758.11
529.24	36861.10
529.41	36694.92
529.58	36545.12
529.75	36924.29
529.92	37120.90
530.09	37277.71
530.26	37371.33
530.43	37373.67
530.60	37191.11
530.77	37319.84
530.94	37806.67
531.11	37230.90
531.28	37158.34
531.46	37373.67
531.63	37462.61
531.80	37031.96
531.97	37329.20
532.14	37476.66
532.31	37352.61
532.48	37790.29
532.65	37982.21
532.82	37787.95
532.99	38022.00
533.16	37668.58
533.33	37724.75
533.50	38586.07
533.67	38302.87
533.84	38195.20
534.01	38218.61
534.18	38417.55
534.35	38721.82
534.52	38256.06
534.69	38452.66
534.86	38869.28
535.03	38071.15
535.20	38976.94
535.37	38831.83
535.54	39108.01
535.71	38396.49
535.88	38817.78
536.05	39016.73
536.22	39063.54
536.38	38761.61
536.55	38857.57
536.72	39061.20
536.89	38759.27
537.06	39063.54
537.23	39318.66
537.40	38946.51
537.57	38979.28
537.74	39131.42
537.91	39215.68
538.08	39438.03
538.25	39194.61
538.42	39189.93
538.59	39356.11
538.75	39477.82
538.92	39302.28
539.09	39587.82
539.26	39604.20
539.43	39398.24
539.60	39545.69
539.77	39426.32
539.94	39550.37
540.11	39489.52
540.28	39646.33
540.44	39997.41
540.61	39482.50
540.78	39402.92
540.95	39899.11
541.12	39791.45
541.29	39908.47
541.46	39913.16
541.62	39868.69
541.79	40243.17
541.96	39814.85
542.13	39906.13
542.30	40128.48
542.47	40346.15
542.63	40027.84
542.80	40034.86
542.97	40411.69
543.14	40999.16
543.31	41275.35
543.48	40800.22
543.64	41453.23
543.81	41057.68
543.98	41006.19
544.15	41130.23
544.32	41425.14
544.48	41055.34
544.65	41240.24
544.82	41078.74
544.99	40479.57
545.16	41010.87
545.32	41045.97
545.49	41265.99
545.66	41530.47
545.83	41523.44
546.00	41170.02
546.16	41633.45
546.33	41303.43
546.50	41029.59
546.67	41565.57
546.83	41139.60
547.00	41111.51
547.17	41450.89
547.34	41560.89
547.50	41415.78
547.67	42153.05
547.84	41867.50
548.00	42019.64
548.17	42029.00
548.34	41769.20
548.51	42064.11
548.67	42265.39
548.84	42139.00
549.01	42045.38
549.18	42012.62
549.34	41371.31
549.51	42146.03
549.68	42113.26
549.84	42632.86
550.01	42277.10
550.18	41893.25
550.34	42408.17
550.51	42129.64
550.68	41626.43
550.84	41909.63
551.01	42185.82
551.18	42047.72
551.34	42218.58
551.51	42684.35
551.68	42424.55
551.84	42476.04
552.01	42539.24
552.18	42866.91
552.34	42176.45
552.51	42761.59
552.68	43016.71
552.84	42726.48
553.01	43166.50
553.18	42700.73
553.34	42658.60
553.51	42389.44
553.67	42534.56
553.84	43171.18
554.01	43091.60
554.17	43068.20
554.34	43189.91
554.51	43416.94
554.67	43346.72
554.84	43042.45
555.00	43019.05
555.17	43196.93
555.33	43363.11
555.50	43014.37
555.67	43309.27
555.83	42869.25
556.00	43283.53
556.16	43306.93
556.33	43309.27
556.50	43030.75
556.66	43508.22
556.83	42883.30
556.99	43400.55
557.16	43386.51
557.32	43442.68
557.49	43559.71
557.65	43477.79
557.82	42967.55
557.98	43494.18
558.15	43639.29
558.32	43522.26
558.48	43576.09
558.65	43599.50
558.81	43426.30
558.98	43344.38
559.14	43480.13
559.31	43290.55
559.47	43629.93
559.64	43789.08
559.80	43629.93
559.97	43971.64
560.13	43676.74
560.30	43112.67
560.46	43620.56
560.63	43693.12
560.79	43730.57
560.96	43863.98
561.12	43725.89
561.29	43969.30
561.45	43807.81
561.61	43938.88
561.78	43433.32
561.94	43845.26
562.11	43753.97
562.27	43515.24
562.44	43744.61
562.60	44194.00
562.77	44072.29
562.93	44191.65
563.10	44254.85
563.26	43971.64
563.42	44212.72
563.59	44184.63
563.75	43997.39
563.92	44002.07
564.08	44495.92
564.24	44554.44
564.41	44392.94
564.57	43917.81
564.74	43999.73
564.90	43908.45
565.07	44243.15
565.23	44428.05
565.39	43866.32
565.56	44505.29
565.72	44353.15
565.88	44231.44
566.05	44343.79
566.21	44538.05
566.38	43800.79
566.54	44392.94
566.70	44479.54
566.87	44360.17
567.03	43969.30
567.19	44690.19
567.36	44320.38
567.52	43702.48
567.68	44540.39
567.85	44062.93
568.01	44439.75
568.17	44486.56
568.34	44493.58
568.50	44830.62
568.66	44378.90
568.83	44243.15
568.99	45076.38
569.15	44561.46
569.32	44020.80
569.48	44320.38
569.64	44802.53
569.81	44839.98
569.97	44673.81
570.13	44533.37
570.30	44524.01
570.46	44182.29
570.62	44334.43
570.78	44109.74
570.95	44186.97
571.11	44624.65
571.27	44348.47
571.43	44119.10
571.60	44552.10
571.76	44495.92
571.92	44622.31
572.09	44287.62
572.25	44631.68
572.41	44369.54
572.57	44746.36
572.74	45038.93
572.90	44971.05
573.06	44748.70
573.22	44912.54
573.38	44549.76
573.55	44304.00
573.71	44472.52
573.87	44720.62
574.03	44507.63
574.20	44701.89
574.36	44701.89
574.52	44643.38
574.68	44563.80
574.84	45076.38
575.01	44456.14
575.17	44486.56
575.33	44896.16
575.49	44968.71
575.65	44959.35
575.82	44884.45
575.98	44961.69
576.14	45237.87
576.30	44830.62
576.46	44711.25
576.62	44582.52
576.79	45022.54
576.95	44369.54
577.11	45151.27
577.27	44680.83
577.43	44727.64
577.59	44793.17
577.75	44341.45
577.92	44439.75
578.08	44549.76
578.24	44275.91
578.40	44809.56
578.56	44830.62
578.72	44648.06
578.88	44821.26
579.04	45120.85
579.21	44479.54
579.37	44790.83
579.53	44392.94
579.69	44247.83
579.85	44580.18
580.01	44772.11
580.17	45099.78
580.33	45099.78
580.49	45076.38
580.65	45130.21
580.82	45017.86
580.98	45003.82
581.14	44952.33
581.30	44938.29
581.46	44795.51
581.62	44837.64
581.78	44914.88
581.94	44989.78
582.10	44821.26
582.26	44655.08
582.42	45034.25
582.58	44978.07
582.74	44657.42
582.90	44603.59
583.06	45375.97
583.22	45191.06
583.38	44804.88
583.54	45212.13
583.70	44816.58
583.86	45436.82
584.02	44329.75
584.18	45076.38
584.34	44966.37
584.50	44957.01
584.66	44547.42
584.82	45048.29
584.98	45614.70
585.14	45205.11
585.30	44949.99
585.46	44907.86
585.62	44493.58
585.78	44968.71
585.94	44573.16
586.10	44928.92
586.26	44648.06
586.42	45069.36
586.58	44839.98
586.74	45247.24
586.90	44772.11
587.06	44512.31
587.22	44830.62
587.38	44568.48
587.54	45111.49
587.70	45155.96
587.86	45083.40
588.02	44603.59
588.18	45450.86
588.34	44809.56
588.49	44659.76
588.65	44921.90
588.81	45031.91
588.97	44460.82
589.13	44879.77
589.29	45013.18
589.45	45162.98
589.61	44877.43
589.77	45219.15
589.93	45092.76
590.08	45453.20
