SpectraSuite Data File
++++++++++++++++++++++++++++++++++++
Date: Fri Oct 25 10:43:56 EDT 2013
User: price-jones
Dark Spectrum Present: No
Reference Spectrum Present: No
Number of Sampled Component Spectra: 1
Spectrometers: USB2+H05261
Integration Time (usec): 100000 (USB2+H05261)
Spectra Averaged: 1 (USB2+H05261)
Boxcar Smoothing: 0 (USB2+H05261)
Correct for Electrical Dark: No (USB2+H05261)
Strobe/Lamp Enabled: No (USB2+H05261)
Correct for Detector Non-linearity: No (USB2+H05261)
Correct for Stray Light: No (USB2+H05261)
Number of Pixels in Processed Spectrum: 2048
>>>>>Begin Processed Spectral Data<<<<<
365.73	163.84
365.92	163.84
366.12	163.84
366.32	51.49
366.52	4.68
366.72	49.15
366.91	0.00
367.11	0.00
367.31	0.00
367.51	84.26
367.70	9.36
367.90	102.98
368.10	60.85
368.30	0.00
368.49	74.90
368.69	0.00
368.89	16.38
369.09	42.13
369.28	86.60
369.48	42.13
369.68	30.43
369.87	142.77
370.07	131.07
370.27	166.18
370.47	145.11
370.66	367.46
370.86	456.40
371.06	463.43
371.25	498.53
371.45	454.06
371.65	447.04
371.84	463.43
372.04	442.36
372.24	578.11
372.44	545.34
372.63	418.96
372.83	477.47
373.03	540.66
373.22	540.66
373.42	475.13
373.62	610.88
373.81	505.56
374.01	514.92
374.21	543.00
374.40	573.43
374.60	641.31
374.79	557.05
374.99	503.22
375.19	568.75
375.38	634.29
375.58	613.22
375.78	587.47
375.97	641.31
376.17	667.05
376.37	692.80
376.56	624.92
376.76	519.60
376.95	552.37
377.15	657.69
377.35	645.99
377.54	688.12
377.74	650.67
377.93	617.90
378.13	667.05
378.33	674.07
378.52	688.12
378.72	795.78
378.91	629.60
379.11	538.32
379.31	692.80
379.50	730.25
379.70	690.46
379.89	650.67
380.09	678.76
380.28	692.80
380.48	699.82
380.68	702.16
380.87	727.91
381.07	716.20
381.26	767.70
381.46	730.25
381.65	688.12
381.85	734.93
382.04	748.97
382.24	772.38
382.43	746.63
382.63	706.84
382.83	753.65
383.02	716.20
383.22	798.12
383.41	748.97
383.61	716.20
383.80	737.27
384.00	723.23
384.19	781.74
384.39	875.36
384.58	856.64
384.78	854.30
384.97	835.57
385.17	835.57
385.36	734.93
385.56	807.48
385.75	884.72
385.95	880.04
386.14	866.00
386.34	753.65
386.53	915.15
386.72	833.23
386.92	873.02
387.11	959.62
387.31	821.53
387.50	891.74
387.70	887.06
387.89	823.87
388.09	924.51
388.28	938.55
388.48	849.61
388.67	1018.13
388.86	1015.79
389.06	866.00
389.25	903.45
389.45	1090.69
389.64	999.41
389.84	1060.26
390.03	1025.15
390.22	1029.84
390.42	1034.52
390.61	1088.35
390.81	1041.54
391.00	1043.88
391.19	1104.73
391.39	1013.45
391.58	1048.56
391.78	1071.97
391.97	1064.94
392.16	1170.27
392.36	1090.69
392.55	997.07
392.75	987.71
392.94	924.51
393.13	1025.15
393.33	1046.22
393.52	1018.13
393.71	1100.05
393.91	1193.67
394.10	1153.88
394.29	1144.52
394.49	1217.08
394.68	1303.68
394.88	1284.95
395.07	1352.83
395.26	1200.69
395.46	1207.72
395.65	1146.86
395.84	1130.48
396.04	1268.57
396.23	1156.22
396.42	1303.68
396.62	1254.53
396.81	1313.04
397.00	1245.16
397.19	1350.49
397.39	1355.17
397.58	1469.86
397.77	1425.39
397.97	1430.07
398.16	1453.47
398.35	1530.71
398.55	1465.18
398.74	1528.37
398.93	1556.46
399.12	1617.31
399.32	1626.67
399.51	1654.76
399.70	1673.48
399.90	1661.78
400.09	1689.87
400.28	1809.23
400.47	1650.08
400.67	1717.95
400.86	1692.21
401.05	1811.57
401.24	1816.26
401.44	1858.39
401.63	1781.15
401.82	1767.10
402.01	1816.26
402.21	1830.30
402.40	1914.56
402.59	1816.26
402.78	1771.79
402.97	1767.10
403.17	1886.47
403.36	1872.43
403.55	1954.35
403.74	1973.07
403.93	1898.17
404.13	1928.60
404.32	1928.60
404.51	1970.73
404.70	2064.35
404.89	1834.98
405.09	2047.97
405.28	2010.52
405.47	2066.69
405.66	2071.37
405.85	2083.08
406.05	2083.08
406.24	2101.80
406.43	2038.61
406.62	2090.10
406.81	2340.54
407.00	2136.91
407.20	2160.31
407.39	2251.60
407.58	2162.66
407.77	2303.09
407.96	2368.62
408.15	2258.62
408.34	2380.32
408.54	2370.96
408.73	2321.81
408.92	2410.75
409.11	2338.20
409.30	2368.62
409.49	2314.79
409.68	2399.05
409.87	2300.75
410.07	2452.88
410.26	2525.44
410.45	2464.58
410.64	2560.55
410.83	2600.34
411.02	2588.63
411.21	2761.83
411.40	2654.17
411.59	2736.09
411.78	2764.17
411.98	2670.55
412.17	2712.68
412.36	2712.68
412.55	2808.64
412.74	2986.52
412.93	2822.69
413.12	2818.00
413.31	2984.18
413.50	2916.31
413.69	3059.08
413.88	3103.55
414.07	3066.10
414.26	3033.33
414.45	3077.80
414.64	3045.04
414.83	3253.34
415.02	3129.30
415.22	3215.90
415.41	3152.70
415.60	3192.49
415.79	3279.09
415.98	3461.65
416.17	3384.41
416.36	3302.50
416.55	3321.22
416.74	3433.57
416.93	3330.58
417.12	3461.65
417.31	3407.82
417.50	3478.04
417.69	3606.77
417.88	3571.66
418.07	3545.91
418.26	3566.98
418.45	3644.21
418.64	3728.47
418.83	3646.55
419.02	3698.05
419.21	3915.72
419.39	3756.56
419.58	3707.41
419.77	3590.38
419.96	3641.87
420.15	3873.59
420.34	3873.59
420.53	3819.75
420.72	3946.14
420.91	3925.08
421.10	3934.44
421.29	3896.99
421.48	4037.42
421.67	3941.46
421.86	3939.12
422.05	3941.46
422.24	3796.35
422.43	3833.80
422.61	3971.89
422.80	4077.21
422.99	4140.41
423.18	4124.02
423.37	4112.32
423.56	4044.45
423.75	4255.09
423.94	4021.04
424.13	3859.54
424.32	3845.50
424.50	4147.43
424.69	4163.81
424.88	4198.92
425.07	4107.64
425.26	3971.89
425.45	4018.70
425.64	4072.53
425.83	3990.61
426.01	4135.73
426.20	4184.88
426.39	4112.32
426.58	4250.41
426.77	4095.94
426.96	4152.11
427.15	4056.15
427.33	4198.92
427.52	4170.83
427.71	4236.37
427.90	4224.67
428.09	4339.35
428.28	4306.59
428.46	4140.41
428.65	4355.74
428.84	4496.17
429.03	4505.53
429.22	4360.42
429.40	4266.80
429.59	4145.09
429.78	4224.67
429.97	4124.02
430.16	4140.41
430.34	4208.28
430.53	4180.20
430.72	4238.71
430.91	4353.40
431.10	4365.10
431.28	4629.58
431.47	4706.82
431.66	4786.40
431.85	4645.96
432.03	4746.61
432.22	4788.74
432.41	4823.84
432.60	4933.85
432.79	4844.91
432.97	5022.79
433.16	4807.46
433.35	4716.18
433.54	4664.69
433.72	4805.12
433.91	4812.14
434.10	4809.80
434.28	4880.02
434.47	5039.17
434.66	5053.22
434.85	5146.84
435.03	4973.64
435.22	5097.69
435.41	5401.96
435.59	5252.16
435.78	5205.35
435.97	5210.03
436.16	5144.50
436.34	5247.48
436.53	5479.19
436.72	5401.96
436.90	5181.95
437.09	5341.10
437.28	5341.10
437.46	5341.10
437.65	5427.70
437.84	5397.28
438.02	5280.25
438.21	5275.57
438.40	5355.15
438.58	5565.79
438.77	5584.52
438.96	5650.05
439.14	5687.50
439.33	5666.44
439.52	5863.04
439.70	5628.99
439.89	5762.40
440.08	5741.33
440.26	5839.64
440.45	5935.60
440.63	6108.80
440.82	6253.91
441.01	6024.54
441.19	6284.34
441.38	6333.49
441.57	6408.39
441.75	6326.47
441.94	6579.25
442.12	6457.54
442.31	6504.35
442.50	6546.48
442.68	6504.35
442.87	6520.73
443.05	6361.58
443.24	6523.07
443.43	6764.15
443.61	6572.22
443.80	6836.70
443.98	6607.33
444.17	6413.07
444.35	6813.30
444.54	7073.10
444.73	6705.63
444.91	6808.62
445.10	6703.29
445.28	6686.91
445.47	6590.95
445.65	6745.42
445.84	6710.32
446.02	6869.47
446.21	6736.06
446.39	6707.98
446.58	6834.36
446.77	6909.26
446.95	6869.47
447.14	6932.67
447.32	6942.03
447.51	6869.47
447.69	6827.34
447.88	6958.41
448.06	6888.20
448.25	6867.13
448.43	7073.10
448.62	6878.83
448.80	6965.43
448.99	7185.44
449.17	6932.67
449.36	7115.23
449.54	7180.76
449.73	7288.43
449.91	7398.43
450.10	7330.56
450.28	7548.23
450.46	7421.84
450.65	7470.99
450.83	7520.14
451.02	7344.60
451.20	7583.34
451.39	7754.19
451.57	7541.21
451.76	7433.54
451.94	7585.68
452.13	7581.00
452.31	7396.09
452.49	7325.88
452.68	7449.93
452.86	7473.33
453.05	7440.56
453.23	7534.18
453.42	7541.21
453.60	7754.19
453.78	7609.08
453.97	7581.00
454.15	7723.77
454.34	7585.68
454.52	7623.12
454.70	7707.38
454.89	7852.50
455.07	7896.97
455.26	7936.76
455.44	7999.95
455.62	8021.02
455.81	8049.10
455.99	8100.59
456.17	8060.80
456.36	7983.57
456.54	8219.96
456.73	8313.58
456.91	8318.26
457.09	8278.47
457.28	8692.75
457.46	8367.42
457.64	8348.69
457.83	8355.71
458.01	8280.82
458.19	8737.22
458.38	8535.93
458.56	8540.61
458.74	8699.77
458.93	8500.83
459.11	8336.99
459.29	8587.43
459.48	8575.72
459.66	8765.31
459.84	8599.13
460.03	8826.16
460.21	8791.05
460.39	8891.70
460.57	8720.84
460.76	8842.54
460.94	8936.17
461.12	8924.46
461.31	9057.87
461.49	8725.52
461.67	9015.74
461.85	9287.25
462.04	9130.43
462.22	9018.08
462.40	9259.16
462.59	9280.22
462.77	9280.22
462.95	9135.11
463.13	8968.93
463.32	9111.71
463.50	9334.06
463.68	9331.72
463.86	9446.40
464.05	9200.65
464.23	9064.89
464.41	9322.35
464.59	9179.58
464.78	9507.26
464.96	9385.55
465.14	9184.26
465.32	9350.44
465.50	9638.33
465.69	9645.35
465.87	9507.26
466.05	9542.36
466.23	9474.49
466.41	9570.45
466.60	9863.02
466.78	9434.70
466.96	9563.43
467.14	9554.07
467.32	9657.05
467.51	9851.31
467.69	9411.29
467.87	9586.83
468.05	9834.93
468.23	9720.24
468.41	10012.81
468.60	9940.26
468.78	9874.72
468.96	9687.48
469.14	9891.10
469.32	10129.84
469.50	9853.66
469.69	9926.21
469.87	10146.22
470.05	10118.14
470.23	10104.09
470.41	10090.05
470.59	10431.77
470.77	10300.70
470.95	10237.50
471.14	10335.81
471.32	10106.43
471.50	10714.97
471.68	10665.82
471.86	10864.77
472.04	10841.36
472.22	10846.04
472.40	10415.38
472.58	10721.99
472.77	10768.80
472.95	10991.16
473.13	11321.17
473.31	10883.49
473.49	10963.07
473.67	11084.78
473.85	11052.01
474.03	11375.00
474.21	11424.15
474.39	11222.87
474.57	11384.37
474.75	11452.24
474.93	11492.03
475.12	11482.67
475.30	11744.81
475.48	11435.86
475.66	11747.15
475.84	11618.42
476.02	12049.08
476.20	11754.17
476.38	12067.80
476.56	12208.23
476.74	12159.08
476.92	12140.36
477.10	12163.76
477.28	12388.46
477.46	12430.59
477.64	12634.21
477.82	12891.67
478.00	13146.79
478.18	12851.88
478.36	12938.48
478.54	13228.71
478.72	12929.12
478.90	13029.76
479.08	13619.58
479.26	13446.38
479.44	13408.93
479.62	13734.26
479.80	13764.69
479.98	13837.25
480.16	14054.92
480.34	14193.01
480.52	14005.77
480.70	14146.20
480.88	14174.28
481.06	14204.71
481.24	14462.17
481.41	14602.60
481.59	15021.56
481.77	14864.74
481.95	14738.35
482.13	15145.61
482.31	14843.68
482.49	15391.36
482.67	15232.21
482.85	15676.91
483.03	15709.68
483.21	15557.54
483.39	15735.42
483.57	15831.38
483.74	15988.20
483.92	16084.16
484.10	16142.67
484.28	16334.60
484.46	16620.14
484.64	16833.13
484.82	16430.56
485.00	16652.91
485.18	16781.64
485.35	16929.09
485.53	16425.88
485.71	16769.94
485.89	16861.22
486.07	16861.22
486.25	17181.87
486.43	17118.68
486.61	17722.54
486.78	17593.81
486.96	17879.35
487.14	18230.43
487.32	18115.75
487.50	18422.36
487.68	18696.20
487.85	18686.84
488.03	19154.94
488.21	19129.20
488.39	18932.59
488.57	18785.14
488.75	19466.24
488.92	19749.44
489.10	19723.69
489.28	19864.13
489.46	19864.13
489.64	20318.19
489.81	20390.75
489.99	20596.71
490.17	20657.57
490.35	21125.68
490.53	20889.28
490.70	21308.24
490.88	20929.07
491.06	21083.55
491.24	21221.64
491.41	21703.79
491.59	21745.92
491.77	21294.19
491.95	21614.85
492.13	22008.06
492.30	22216.36
492.48	22256.15
492.66	22387.22
492.84	22651.70
493.01	22761.71
493.19	22583.83
493.37	22855.33
493.54	22862.35
493.72	23295.35
493.90	22925.55
494.08	23552.81
494.25	23765.80
494.43	23714.31
494.61	23953.04
494.79	24009.22
494.96	24245.61
495.14	24198.80
495.32	24554.56
495.49	24474.98
495.67	24432.85
495.85	24863.51
496.02	24835.42
496.20	25113.95
496.38	25041.39
496.55	25174.80
496.73	25834.83
496.91	25214.59
497.09	25748.23
497.26	25989.31
497.44	25839.51
497.62	25823.13
497.79	26080.59
497.97	25795.04
498.14	26061.87
498.32	26331.03
498.50	26251.45
498.67	26604.87
498.85	26663.38
499.03	27091.70
499.20	27077.66
499.38	27119.79
499.56	27185.32
499.73	27136.17
499.91	27129.15
500.08	27285.97
500.26	27047.23
500.44	27047.23
500.61	27524.70
500.79	27344.48
500.97	27723.65
501.14	28032.60
501.32	27704.92
501.49	28053.66
501.67	27953.02
501.84	28175.37
502.02	28128.56
502.20	28701.99
502.37	28645.82
502.55	28175.37
502.72	28687.95
502.90	28903.28
503.07	28716.03
503.25	28779.23
503.43	29069.45
503.60	28582.62
503.78	29252.02
503.95	29139.67
504.13	29343.30
504.30	29376.06
504.48	29497.77
504.65	29631.18
504.83	29706.08
505.01	29883.96
505.18	29972.90
505.36	30075.88
505.53	30157.80
505.71	30361.43
505.88	30679.74
506.06	30295.89
506.23	30113.33
506.41	30054.82
506.58	30766.34
506.76	30478.46
506.93	30576.76
507.11	30742.94
507.28	30920.82
507.46	30672.72
507.63	30754.64
507.81	30588.46
507.98	30906.77
508.16	30771.02
508.33	31087.00
508.50	31622.98
508.68	31494.25
508.85	32123.85
509.03	31459.14
509.20	31786.82
509.38	31990.44
509.55	32357.91
509.73	32350.88
509.90	32210.45
510.08	32208.11
510.25	32397.70
510.42	32615.37
510.60	32760.48
510.77	32910.27
510.95	32795.59
511.12	32659.84
511.30	33163.05
511.47	33139.65
511.64	33362.00
511.82	33401.79
511.99	32950.06
512.17	33153.69
512.34	33071.77
512.51	33624.14
512.69	33572.64
512.86	33153.69
513.04	33883.94
513.21	33713.08
513.38	33422.85
513.56	33366.68
513.73	33202.84
513.90	33748.18
514.08	33795.00
514.25	34019.69
514.43	34134.37
514.60	34096.92
514.77	34183.52
514.95	34314.59
515.12	34387.15
515.29	34747.59
515.47	34958.24
515.64	34747.59
515.81	34738.23
515.99	34782.70
516.16	34974.63
516.33	34319.28
516.51	34588.44
516.68	34089.90
516.85	34029.05
517.03	34045.43
517.20	34567.37
517.37	34581.42
517.54	35218.04
517.72	35005.05
517.89	34960.58
518.06	34808.45
518.24	34873.98
518.41	35072.93
518.58	35061.22
518.75	35173.57
518.93	35756.36
519.10	35473.16
519.27	35468.48
519.45	35875.73
519.62	36154.26
519.79	36051.27
519.96	36119.15
520.14	36114.47
520.31	35981.06
520.48	36570.87
520.65	36180.00
520.83	36903.23
521.00	36498.31
521.17	36587.25
521.34	36514.70
521.52	36842.37
521.69	36355.54
521.86	37090.47
522.03	37193.45
522.20	37074.09
522.38	37439.21
522.55	37364.31
522.72	37202.82
522.89	37113.87
523.07	37647.52
523.24	37378.36
523.41	37837.10
523.58	37715.39
523.75	38132.01
523.92	38068.81
524.10	38148.39
524.27	38267.76
524.44	38085.20
524.61	37979.87
524.78	38422.23
524.96	38471.39
525.13	38410.53
525.30	38621.18
525.47	38712.46
525.64	38188.18
525.81	38490.11
525.98	38143.71
526.16	38150.73
526.33	37666.24
526.50	38206.90
526.67	37813.70
526.84	37809.01
527.01	38115.62
527.18	38679.69
527.36	39185.25
527.53	39112.69
527.70	39068.22
527.87	39248.44
528.04	39285.89
528.21	39075.24
528.38	39510.58
528.55	39510.58
528.72	39723.57
528.89	39583.14
529.07	39999.76
529.24	39627.61
529.41	39416.96
529.58	39576.12
529.75	39648.68
529.92	39686.12
530.09	40023.16
530.26	40313.39
530.43	39878.05
530.60	40032.52
530.77	40018.48
530.94	40594.25
531.11	40240.83
531.28	40568.51
531.46	40467.86
531.63	40673.83
531.80	39732.93
531.97	40722.98
532.14	40304.02
532.31	39641.65
532.48	40259.55
532.65	40507.65
532.82	40264.24
532.99	40734.68
533.16	40601.27
533.33	40952.35
533.50	41015.55
533.67	40886.82
533.84	40409.35
534.01	40638.72
534.18	41333.86
534.35	41364.29
534.52	41301.09
534.69	41057.68
534.86	41308.11
535.03	41425.14
535.20	41495.36
535.37	41783.24
535.54	41553.87
535.71	41167.68
535.88	41797.29
536.05	41481.31
536.22	41624.09
536.38	41860.48
536.55	41652.17
536.72	41654.51
536.89	41338.54
537.06	41366.63
537.23	41909.63
537.40	41984.53
537.57	42185.82
537.74	42230.29
537.91	42141.35
538.08	42139.00
538.25	41930.70
538.42	42344.97
538.59	42099.22
538.75	42183.48
538.92	42344.97
539.09	42115.60
539.26	42033.68
539.43	42115.60
539.60	41804.31
539.77	42387.10
539.94	42504.13
540.11	42518.17
540.28	42314.55
540.44	42731.16
540.61	42342.63
540.78	42534.56
540.95	42344.97
541.12	42270.08
541.29	42583.71
541.46	42487.74
541.62	43086.92
541.79	43072.88
541.96	42431.57
542.13	42707.76
542.30	42927.77
542.47	42887.98
542.63	42876.27
542.80	43119.69
542.97	43208.63
543.14	43295.23
543.31	43075.22
543.48	43178.20
543.64	43489.49
543.81	44170.59
543.98	43278.85
544.15	43452.05
544.32	43634.61
544.48	44194.00
544.65	43505.88
544.82	43739.93
544.99	43517.58
545.16	43377.15
545.32	43346.72
545.49	43915.47
545.66	44039.52
545.83	44133.14
546.00	44367.20
546.16	43826.53
546.33	43913.13
546.50	43714.19
546.67	44254.85
546.83	43863.98
547.00	44205.70
547.17	43693.12
547.34	44011.43
547.50	44116.76
547.67	43868.66
547.84	44257.19
548.00	44278.25
548.17	44332.09
548.34	44495.92
548.51	44664.44
548.67	44500.61
548.84	44329.75
549.01	44339.11
549.18	44465.50
549.34	44524.01
549.51	44678.49
549.68	44715.93
549.84	44769.77
550.01	45020.20
550.18	44575.50
550.34	44804.88
550.51	44889.13
550.68	44608.27
550.84	44732.32
551.01	44921.90
551.18	44919.56
551.34	45148.93
551.51	45097.44
551.68	45258.94
551.84	45446.18
552.01	44861.05
552.18	44755.72
552.34	44851.69
552.51	44917.22
552.68	45015.52
552.84	44994.46
553.01	45050.63
553.18	45027.23
553.34	45106.80
553.51	45326.81
553.67	45387.67
553.84	45642.79
554.01	45588.95
554.17	45918.97
554.34	45645.13
554.51	45462.57
554.67	45509.38
554.84	45691.94
555.00	45502.35
555.17	45574.91
555.33	45500.01
555.50	45326.81
555.67	45701.30
555.83	45567.89
556.00	45687.26
556.16	46225.58
556.33	45439.16
556.50	45537.46
556.66	45902.59
556.83	45287.03
556.99	45996.21
557.16	46153.02
557.32	45837.05
557.49	46232.60
557.65	45682.58
557.82	45832.37
557.98	45904.93
558.15	45766.84
558.32	46167.07
558.48	45619.38
558.65	45691.94
558.81	45668.53
558.98	46017.27
559.14	45865.14
559.31	45624.06
559.47	46054.72
559.64	45921.31
559.80	46141.32
559.97	46167.07
560.13	45930.67
560.30	45811.31
560.46	46050.04
560.63	46087.49
560.79	46227.92
560.96	46445.59
561.12	46237.28
561.29	45972.80
561.45	46347.29
561.61	46607.09
561.78	45940.04
561.94	45738.75
562.11	46096.85
562.27	45818.33
562.44	46103.87
562.60	45897.91
562.77	46618.79
562.93	46188.13
563.10	46677.30
563.26	46115.58
563.42	46244.30
563.59	46183.45
563.75	46024.29
563.92	46499.42
564.08	46464.32
564.24	46398.78
564.41	46302.82
564.57	46513.47
564.74	46171.75
564.90	46302.82
565.07	46424.53
565.23	46277.07
565.39	46291.12
565.56	46635.17
565.72	46085.15
565.88	46410.48
566.05	46461.97
566.21	46447.93
566.38	46160.05
566.54	46167.07
566.70	46768.58
566.87	46770.93
567.03	46967.53
567.19	46894.97
567.36	46799.01
567.52	46401.12
567.68	46593.04
567.85	46560.28
568.01	46447.93
568.17	46438.57
568.34	46515.81
568.50	46710.07
568.66	46368.35
568.83	46330.90
568.99	46408.14
569.15	45975.14
569.32	46117.92
569.48	46408.14
569.64	46689.01
569.81	46604.75
569.97	46550.91
570.13	46721.77
570.30	46712.41
570.46	46508.79
570.62	45991.53
570.78	46543.89
570.95	45897.91
571.11	46597.73
571.27	46403.46
571.43	46665.60
571.60	46590.70
571.76	46696.03
571.92	46850.50
572.09	46543.89
572.25	46866.89
572.41	46803.69
572.57	46784.97
572.74	46951.15
572.90	46817.74
573.06	46806.03
573.22	46684.33
573.38	46609.43
573.55	46401.12
573.71	47068.17
573.87	46717.09
574.03	46894.97
574.20	46742.84
574.36	46883.27
574.52	46988.60
574.68	46415.16
574.84	46513.47
575.01	46693.69
575.17	46621.13
575.33	46848.16
575.49	46471.34
575.65	46550.91
575.82	47033.07
575.98	46380.06
576.14	46424.53
576.30	47164.14
576.46	46614.11
576.62	46396.44
576.79	46623.47
576.95	46588.36
577.11	46876.25
577.27	46270.05
577.43	46986.25
577.59	46176.43
577.75	46967.53
577.92	46174.09
578.08	46461.97
578.24	46532.19
578.40	46356.65
578.56	46600.07
578.72	47166.48
578.88	46995.62
579.04	47042.43
579.21	46667.94
579.37	46621.13
579.53	46791.99
579.69	46906.68
579.85	46705.39
580.01	46815.40
580.17	46787.31
580.33	46721.77
580.49	46670.28
580.65	46672.62
580.82	46967.53
580.98	47140.73
581.14	46337.93
581.30	46885.61
581.46	46911.36
581.62	46885.61
581.78	46508.79
581.94	47093.92
582.10	46988.60
582.26	47224.99
582.42	46494.74
582.58	47264.78
582.74	46469.00
582.90	47189.88
583.06	47264.78
583.22	47103.28
583.38	46845.82
583.54	46749.86
583.70	46873.91
583.86	47075.19
584.02	47098.60
584.18	46593.04
584.34	46918.38
584.50	46897.31
584.66	46663.26
584.82	46684.33
584.98	47093.92
585.14	46951.15
585.30	46799.01
585.46	46574.32
585.62	46686.67
585.78	46539.21
585.94	46588.36
586.10	46876.25
586.26	46415.16
586.42	47264.78
586.58	47185.20
586.74	46927.74
586.90	46813.05
587.06	46623.47
587.22	47009.66
587.38	46586.02
587.54	47229.67
587.70	46976.89
587.86	46623.47
588.02	46911.36
588.18	46490.06
588.34	46684.33
588.49	46141.32
588.65	46101.53
588.81	46347.29
588.97	46515.81
589.13	46181.11
589.29	46272.39
589.45	46642.20
589.61	46745.18
589.77	46787.31
589.93	46946.47
