SpectraSuite Data File
++++++++++++++++++++++++++++++++++++
Date: Fri Oct 25 11:33:36 EDT 2013
User: price-jones
Dark Spectrum Present: No
Reference Spectrum Present: No
Number of Sampled Component Spectra: 1
Spectrometers: USB2+H05261
Integration Time (usec): 100000 (USB2+H05261)
Spectra Averaged: 1 (USB2+H05261)
Boxcar Smoothing: 0 (USB2+H05261)
Correct for Electrical Dark: No (USB2+H05261)
Strobe/Lamp Enabled: No (USB2+H05261)
Correct for Detector Non-linearity: No (USB2+H05261)
Correct for Stray Light: No (USB2+H05261)
Number of Pixels in Processed Spectrum: 2048
>>>>>Begin Processed Spectral Data<<<<<
365.73	292.57
365.92	292.57
366.12	292.57
366.32	159.16
366.52	215.33
366.72	280.86
366.91	170.86
367.11	203.63
367.31	182.56
367.51	184.90
367.70	154.48
367.90	210.65
368.10	114.69
368.30	124.05
368.49	201.29
368.69	177.88
368.89	173.20
369.09	203.63
369.28	189.58
369.48	191.92
369.68	210.65
369.87	201.29
370.07	248.10
370.27	311.29
370.47	278.52
370.66	592.16
370.86	507.90
371.06	568.75
371.25	589.82
371.45	575.77
371.65	571.09
371.84	526.62
372.04	624.92
372.24	685.78
372.44	550.03
372.63	669.39
372.83	620.24
373.03	587.47
373.22	573.43
373.42	580.45
373.62	610.88
373.81	636.63
374.01	683.44
374.21	709.18
374.40	561.73
374.60	706.84
374.79	615.56
374.99	585.13
375.19	662.37
375.38	648.33
375.58	699.82
375.78	678.76
375.97	655.35
376.17	760.67
376.37	702.16
376.56	664.71
376.76	734.93
376.95	674.07
377.15	760.67
377.35	734.93
377.54	702.16
377.74	667.05
377.93	636.63
378.13	727.91
378.33	716.20
378.52	667.05
378.72	725.57
378.91	737.27
379.11	751.31
379.31	739.61
379.50	699.82
379.70	746.63
379.89	765.36
380.09	695.14
380.28	704.50
380.48	844.93
380.68	774.72
380.87	704.50
381.07	739.61
381.26	770.04
381.46	877.70
381.65	889.40
381.85	763.01
382.04	692.80
382.24	821.53
382.43	821.53
382.63	767.70
382.83	809.83
383.02	793.44
383.22	882.38
383.41	854.30
383.61	772.38
383.80	812.17
384.00	784.08
384.19	809.83
384.39	844.93
384.58	779.40
384.78	856.64
384.97	795.78
385.17	833.23
385.36	840.25
385.56	788.76
385.75	741.95
385.95	840.25
386.14	882.38
386.34	854.30
386.53	809.83
386.72	880.04
386.92	945.58
387.11	940.90
387.31	870.68
387.50	840.25
387.70	898.77
387.89	868.34
388.09	823.87
388.28	868.34
388.48	957.28
388.67	968.98
388.86	940.90
389.06	950.26
389.25	936.21
389.45	936.21
389.64	924.51
389.84	957.28
390.03	1015.79
390.22	990.05
390.42	922.17
390.61	1027.50
390.81	1008.77
391.00	1013.45
391.19	994.73
391.39	994.73
391.58	1013.45
391.78	1020.47
391.97	1015.79
392.16	1039.20
392.36	1153.88
392.55	1036.86
392.75	1041.54
392.94	1039.20
393.13	1064.94
393.33	1109.41
393.52	1088.35
393.71	1111.75
393.91	1137.50
394.10	1097.71
394.29	1102.39
394.49	1181.97
394.68	1135.16
394.88	1165.59
395.07	1163.25
395.26	1128.14
395.46	1095.37
395.65	1130.48
395.84	1193.67
396.04	1198.35
396.23	1135.16
396.42	1188.99
396.62	1301.34
396.81	1233.46
397.00	1217.08
397.19	1217.08
397.39	1203.04
397.58	1266.23
397.77	1217.08
397.97	1186.65
398.16	1268.57
398.35	1196.01
398.55	1242.82
398.74	1221.76
398.93	1273.25
399.12	1294.32
399.32	1233.46
399.51	1334.11
399.70	1404.32
399.90	1366.87
400.09	1357.51
400.28	1366.87
400.47	1380.92
400.67	1420.71
400.86	1352.83
401.05	1437.09
401.24	1474.54
401.44	1453.47
401.63	1434.75
401.82	1495.60
402.01	1380.92
402.21	1483.90
402.40	1441.77
402.59	1504.96
402.78	1462.83
402.97	1483.90
403.17	1490.92
403.36	1528.37
403.55	1570.50
403.74	1572.84
403.93	1481.56
404.13	1605.61
404.32	1544.75
404.51	1598.59
404.70	1717.95
404.89	1579.86
405.09	1699.23
405.28	1600.93
405.47	1638.38
405.66	1675.82
405.85	1739.02
406.05	1734.34
406.24	1689.87
406.43	1755.40
406.62	1799.87
406.81	1734.34
407.00	1717.95
407.20	1678.16
407.39	1809.23
407.58	1851.36
407.77	1919.24
407.96	1905.20
408.15	1956.69
408.34	1994.14
408.54	1849.02
408.73	1921.58
408.92	2015.20
409.11	1963.71
409.30	1973.07
409.49	2005.84
409.68	1933.28
409.87	2015.20
410.07	2019.88
410.26	2043.29
410.45	2113.50
410.64	2099.46
410.83	2160.31
411.02	2118.18
411.21	2174.36
411.40	2232.87
411.59	2181.38
411.78	2256.28
411.98	2186.06
412.17	2204.78
412.36	2263.30
412.55	2298.41
412.74	2335.85
412.93	2392.03
413.12	2300.75
413.31	2340.54
413.50	2335.85
413.69	2385.01
413.88	2567.57
414.07	2469.27
414.26	2478.63
414.45	2527.78
414.64	2499.69
414.83	2607.36
415.02	2637.78
415.22	2616.72
415.41	2738.43
415.60	2623.74
415.79	2750.13
415.98	2806.30
416.17	2693.96
416.36	2724.38
416.55	2773.53
416.74	2850.77
416.93	2773.53
417.12	2853.11
417.31	2935.03
417.50	2724.38
417.69	2972.48
417.88	2974.82
418.07	2857.79
418.26	3014.61
418.45	2993.55
418.64	3119.93
418.83	3066.10
419.02	2937.37
419.21	3089.51
419.39	3145.68
419.58	3166.74
419.77	3061.42
419.96	3089.51
420.15	3183.13
420.34	3098.87
420.53	3187.81
420.72	3192.49
420.91	3346.97
421.10	3279.09
421.29	3311.86
421.48	3206.53
421.67	3281.43
421.86	3159.72
422.05	3309.52
422.24	3265.05
422.43	3344.63
422.61	3311.86
422.80	3482.72
422.99	3386.76
423.18	3358.67
423.37	3466.33
423.56	3513.14
423.75	3255.69
423.94	3300.16
424.13	3070.78
424.32	3358.67
424.50	3349.31
424.69	3428.88
424.88	3503.78
425.07	3391.44
425.26	3428.88
425.45	3407.82
425.64	3440.59
425.83	3295.47
426.01	3452.29
426.20	3398.46
426.39	3534.21
426.58	3454.63
426.77	3478.04
426.96	3492.08
427.15	3566.98
427.33	3524.85
427.52	3524.85
427.71	3480.38
427.90	3616.13
428.09	3698.05
428.28	3684.00
428.46	3660.60
428.65	3676.98
428.84	3688.68
429.03	3794.01
429.22	3627.83
429.40	3737.84
429.59	3765.92
429.78	3552.93
429.97	3662.94
430.16	3854.86
430.34	3824.44
430.53	3822.09
430.72	3796.35
430.91	3880.61
431.10	3847.84
431.28	4042.11
431.47	3992.95
431.66	4145.09
431.85	4016.36
432.03	4098.28
432.22	4135.73
432.41	4114.66
432.60	4109.98
432.79	4060.83
432.97	4102.96
433.16	4105.30
433.35	3971.89
433.54	4250.41
433.72	4227.01
433.91	4140.41
434.10	4049.13
434.28	4173.18
434.47	4234.03
434.66	4320.63
434.85	4250.41
435.03	4362.76
435.22	4227.01
435.41	4416.59
435.59	4280.84
435.78	4400.21
435.97	4557.02
436.16	4379.14
436.34	4524.26
436.53	4500.85
436.72	4566.39
436.90	4400.21
437.09	4503.19
437.28	4458.72
437.46	4652.98
437.65	4507.87
437.84	4540.64
438.02	4547.66
438.21	4786.40
438.40	4510.21
438.58	4748.95
438.77	4650.64
438.96	4795.76
439.14	4791.08
439.33	5018.11
439.52	4870.65
439.70	4889.38
439.89	5071.94
440.08	5198.33
440.26	4880.02
440.45	5048.54
440.63	5053.22
440.82	5158.54
441.01	5116.41
441.19	5050.88
441.38	5273.23
441.57	5249.82
441.75	5373.87
441.94	5404.30
442.12	5273.23
442.31	5458.13
442.50	5320.04
442.68	5418.34
442.87	5437.06
443.05	5551.75
443.24	5631.33
443.43	5607.92
443.61	5521.32
443.80	5568.13
443.98	5537.71
444.17	5282.59
444.35	5636.01
444.54	5589.20
444.73	5724.95
444.91	5734.31
445.10	5647.71
445.28	5722.61
445.47	5659.42
445.65	5706.23
445.84	5753.04
446.02	5753.04
446.21	5596.22
446.39	5624.31
446.58	5823.25
446.77	5799.85
446.95	5619.63
447.14	5701.54
447.32	5881.77
447.51	5790.49
447.69	5823.25
447.88	5687.50
448.06	5713.25
448.25	5778.78
448.43	5802.19
448.62	5916.87
448.80	5792.83
448.99	5909.85
449.17	6033.90
449.36	5853.68
449.54	6005.81
449.73	6045.60
449.91	6054.97
450.10	6069.01
450.28	6120.50
450.46	6174.33
450.65	6099.44
450.83	6174.33
451.02	6321.79
451.20	6171.99
451.39	6160.29
451.57	6296.04
451.76	6221.14
451.94	6239.87
452.13	6314.77
452.31	6237.53
452.49	6188.38
452.68	6230.51
452.86	6284.34
453.05	6384.98
453.23	6494.99
453.42	6382.64
453.60	6263.27
453.78	6469.24
453.97	6373.28
454.15	6427.11
454.34	6352.21
454.52	6438.81
454.70	6506.69
454.89	6623.72
455.07	6597.97
455.26	6558.18
455.44	6476.26
455.62	6747.76
455.81	6712.66
455.99	6771.17
456.17	6778.19
456.36	6899.90
456.54	6832.02
456.73	6799.26
456.91	6853.09
457.09	6874.15
457.28	7063.74
457.46	6801.60
457.64	6925.65
457.83	7190.13
458.01	7082.46
458.19	7143.32
458.38	7080.12
458.56	7330.56
458.74	7192.47
458.93	7255.66
459.11	7098.84
459.29	7286.09
459.48	7358.64
459.66	7218.21
459.84	7475.67
460.03	7496.74
460.21	7358.64
460.39	7353.96
460.57	7503.76
460.76	7414.82
460.94	7393.75
461.12	7653.55
461.31	7482.69
461.49	7424.18
461.67	7510.78
461.85	7674.62
462.04	7564.61
462.22	8004.63
462.40	7793.98
462.59	7688.66
462.77	7758.88
462.95	7943.78
463.13	7868.88
463.32	7726.11
463.50	7892.29
463.68	7892.29
463.86	8091.23
464.05	7971.86
464.23	7878.24
464.41	7857.18
464.59	7815.05
464.78	8013.99
464.96	8119.32
465.14	8058.46
465.32	8086.55
465.50	8180.17
465.69	8224.64
465.87	8187.19
466.05	8147.40
466.23	8191.88
466.41	8248.05
466.60	8166.13
466.78	8168.47
466.96	8219.96
467.14	8430.61
467.32	8336.99
467.51	8540.61
467.69	8241.03
467.87	8334.65
468.05	8287.84
468.23	8175.49
468.41	8285.50
468.60	8519.55
468.78	8243.37
468.96	8360.39
469.14	8603.81
469.32	8716.16
469.50	8512.53
469.69	8557.00
469.87	8674.03
470.05	8641.26
470.23	8599.13
470.41	8812.12
470.59	8917.44
470.77	8681.05
470.95	8844.88
471.14	8980.64
471.32	8753.60
471.50	9088.30
471.68	9015.74
471.86	9053.19
472.04	9048.51
472.22	9331.72
472.40	9020.42
472.58	9263.84
472.77	9430.02
472.95	9357.46
473.13	9659.39
473.31	9413.63
473.49	9469.81
473.67	9607.90
473.85	9554.07
474.03	9834.93
474.21	9661.73
474.39	9750.67
474.57	9900.47
474.75	10003.45
474.93	9928.55
475.12	9738.97
475.30	9973.02
475.48	10143.88
475.66	10125.16
475.84	10052.60
476.02	10115.80
476.20	10284.31
476.38	10342.83
476.56	10761.78
476.74	10527.73
476.92	10642.42
477.10	10553.48
477.28	10682.20
477.46	10471.56
477.64	10998.18
477.82	11049.67
478.00	11192.44
478.18	11054.35
478.36	11302.45
478.54	11421.81
478.72	11426.50
478.90	11487.35
479.08	11569.27
479.26	11726.08
479.44	11660.55
479.62	11765.87
479.80	11852.47
479.98	11960.14
480.16	12365.05
480.34	12077.16
480.52	11981.20
480.70	12056.10
480.88	12049.08
481.06	12283.13
481.24	12372.07
481.41	12809.75
481.59	12929.12
481.77	12730.17
481.95	12968.91
482.13	13020.40
482.31	12872.95
482.49	13261.48
482.67	13699.16
482.85	13488.51
483.03	13668.73
483.21	13638.30
483.39	13951.93
483.57	13516.59
483.74	13762.35
483.92	13923.85
484.10	13937.89
484.28	14366.21
484.46	14380.25
484.64	14647.07
484.82	14359.19
485.00	14663.46
485.18	15068.37
485.35	15286.04
485.53	14963.04
485.71	14925.60
485.89	15208.80
486.07	15356.25
486.25	15627.76
486.43	15529.45
486.61	15681.59
486.78	16016.29
486.96	15960.11
487.14	16032.67
487.32	16358.00
487.50	15955.43
487.68	16404.81
487.85	16561.63
488.03	16872.92
488.21	17167.83
488.39	16606.10
488.57	16889.31
488.75	17003.99
488.92	17247.41
489.10	17516.57
489.28	17493.16
489.46	17598.49
489.64	17659.34
489.81	18136.81
489.99	18153.20
490.17	18167.24
490.35	18232.77
490.53	18558.11
490.70	18824.93
490.88	18422.36
491.06	18981.74
491.24	19154.94
491.41	19269.63
491.59	19211.12
491.77	19339.85
491.95	19503.68
492.13	19601.99
492.30	19515.39
492.48	19683.91
492.66	19967.11
492.84	19632.41
493.01	20098.18
493.19	20133.29
493.37	20273.72
493.54	20688.00
493.72	20790.98
493.90	20549.90
494.08	20692.68
494.25	20952.48
494.43	21188.87
494.61	21186.53
494.79	21025.03
494.96	21226.32
495.14	21708.47
495.32	21673.36
495.49	21811.45
495.67	22001.04
495.85	22265.52
496.02	22249.13
496.20	22270.20
496.38	22326.37
496.55	22452.76
496.73	23056.62
496.91	22644.68
497.09	22740.64
497.26	22923.21
497.44	22899.80
497.62	23349.18
497.79	23374.93
497.97	23330.46
498.14	23800.91
498.32	23630.05
498.50	23501.32
498.67	23803.25
498.85	23826.65
499.03	24049.00
499.20	24224.54
499.38	24201.14
499.56	24215.18
499.73	24425.83
499.91	24596.69
500.08	24847.13
500.26	24662.22
500.44	24545.20
500.61	24826.06
500.79	24615.41
500.97	25127.99
501.14	25551.63
501.32	25242.68
501.49	25249.70
501.67	25280.13
501.84	25708.44
502.02	25813.77
502.20	25586.74
502.37	25928.45
502.55	25668.66
502.72	25996.33
502.90	25963.56
503.07	25745.89
503.25	26265.49
503.43	26359.11
503.60	26078.25
503.78	26443.37
503.95	26246.77
504.13	26434.01
504.30	26501.89
504.48	26628.27
504.65	26705.51
504.83	26810.84
505.01	27222.77
505.18	27019.14
505.36	27370.22
505.53	27281.28
505.71	27353.84
505.88	27662.79
506.06	27468.53
506.23	27632.36
506.41	27438.10
506.58	27681.52
506.76	27889.82
506.93	27955.36
507.11	27749.39
507.28	27821.95
507.46	28311.12
507.63	28364.95
507.81	28428.15
507.98	28311.12
508.16	28727.74
508.33	28573.26
508.50	28926.68
508.68	28774.55
508.85	29308.19
509.03	28811.99
509.20	29149.03
509.38	29553.94
509.55	29254.36
509.73	29280.10
509.90	29259.04
510.08	29465.00
510.25	29649.91
510.42	29799.70
510.60	29539.90
510.77	29949.50
510.95	30132.06
511.12	30202.27
511.30	30075.88
511.47	30139.08
511.64	30345.05
511.82	30206.95
511.99	30501.86
512.17	30766.34
512.34	30401.22
512.51	30686.76
512.69	30946.56
512.86	30756.98
513.04	31054.23
513.21	31016.78
513.38	31136.15
513.56	31185.30
513.73	31283.60
513.90	31201.68
514.08	31440.42
514.25	31817.24
514.43	31187.64
514.60	31599.57
514.77	31342.11
514.95	31718.94
515.12	31807.88
515.29	31903.84
515.47	31782.13
515.64	31894.48
515.81	31641.70
515.99	32414.08
516.16	32545.15
516.33	32411.74
516.51	32652.81
516.68	32687.92
516.85	32753.46
517.03	32634.09
517.20	32917.29
517.37	32615.37
517.54	32676.22
517.72	32451.53
517.89	32966.45
518.06	33055.39
518.24	33111.56
518.41	33141.99
518.58	33146.67
518.75	33013.26
518.93	33149.01
519.10	33617.11
519.27	33483.70
519.45	33858.19
519.62	33855.85
519.79	33783.29
519.96	33713.08
520.14	34015.01
520.31	34155.44
520.48	33963.51
520.65	33699.03
520.83	34274.80
521.00	34773.34
521.17	34462.05
521.34	34831.85
521.52	34712.49
521.69	34513.54
521.86	34593.12
522.03	34895.05
522.20	35103.35
522.38	35189.95
522.55	34834.19
522.72	35140.80
522.89	35295.28
523.07	35204.00
523.24	35077.61
523.41	35283.58
523.58	35438.05
523.75	35674.45
523.92	35622.95
524.10	35487.20
524.27	35445.07
524.44	35618.27
524.61	35431.03
524.78	35819.56
524.96	36268.94
525.13	36044.25
525.30	36327.45
525.47	36004.46
525.64	36077.02
525.81	36369.58
525.98	36395.33
526.16	36121.49
526.33	36402.35
526.50	36919.61
526.67	36634.06
526.84	36566.19
527.01	36795.56
527.18	36488.95
527.36	36919.61
527.53	36699.60
527.70	37338.57
527.87	37446.23
528.04	37024.93
528.21	37366.65
528.38	36755.77
528.55	37338.57
528.72	37088.13
528.89	37453.25
529.07	37258.99
529.24	37317.50
529.41	37490.70
529.58	37617.09
529.75	37301.12
529.92	37586.66
530.09	37708.37
530.26	37799.65
530.43	37413.46
530.60	37869.87
530.77	37689.65
530.94	38239.67
531.11	38005.62
531.28	37947.11
531.46	37975.19
531.63	38071.15
531.80	37717.73
531.97	38190.52
532.14	37977.53
532.31	38141.37
532.48	38787.36
532.65	38375.42
532.82	38169.46
532.99	38775.66
533.16	38962.90
533.33	39047.16
533.50	39234.40
533.67	38974.60
533.84	38302.87
534.01	38995.67
534.18	39033.11
534.35	39316.32
534.52	39365.47
534.69	39606.55
534.86	39222.70
535.03	39421.64
535.20	39688.46
535.37	39620.59
535.54	39548.03
535.71	39370.15
535.88	39660.38
536.05	39360.79
536.22	40065.29
536.38	39714.21
536.55	39751.66
536.72	39929.54
536.89	39913.16
537.06	40095.72
537.23	40154.23
537.40	40034.86
537.57	39899.11
537.74	40072.31
537.91	40067.63
538.08	39936.56
538.25	39784.43
538.42	39878.05
538.59	40399.99
538.75	40165.93
538.92	40509.99
539.09	40491.27
539.26	40163.59
539.43	40680.85
539.60	40374.24
539.77	40622.34
539.94	40994.48
540.11	40849.37
540.28	40868.09
540.44	40760.43
540.61	40758.09
540.78	40832.99
540.95	40935.97
541.12	40961.72
541.29	40891.50
541.46	41123.21
541.62	41165.34
541.79	41380.67
541.96	40942.99
542.13	41027.25
542.30	41205.13
542.47	41556.21
542.63	41148.96
542.80	42136.66
542.97	41968.15
543.14	42122.62
543.31	41832.39
543.48	41839.42
543.64	42333.27
543.81	42288.80
543.98	42003.25
544.15	41937.72
544.32	41766.86
544.48	42515.83
544.65	42373.06
544.82	42012.62
544.99	41897.93
545.16	42674.99
545.32	42274.76
545.49	42944.15
545.66	42656.26
545.83	42426.89
546.00	42658.60
546.16	42389.44
546.33	42213.90
546.50	42501.79
546.67	42773.29
546.83	42136.66
547.00	42424.55
547.17	42752.23
547.34	42909.04
547.50	42958.19
547.67	43508.22
547.84	43037.77
548.00	43346.72
548.17	43288.21
548.34	43037.77
548.51	43681.42
548.67	43063.52
548.84	42962.87
549.01	42834.14
549.18	42962.87
549.34	43115.01
549.51	43793.76
549.68	43679.08
549.84	43833.55
550.01	43290.55
550.18	43203.95
550.34	43456.73
550.51	43594.82
550.68	43761.00
550.84	43201.61
551.01	43772.70
551.18	43688.44
551.34	43786.74
551.51	43931.86
551.68	44062.93
551.84	43335.02
552.01	43777.38
552.18	44100.37
552.34	44013.77
552.51	44107.40
552.68	43927.17
552.84	44336.77
553.01	44079.31
553.18	44624.65
553.34	44406.98
553.51	44154.21
553.67	44121.44
553.84	44353.15
554.01	44648.06
554.17	44388.26
554.34	44741.68
554.51	44294.64
554.67	45038.93
554.84	44931.26
555.00	44739.34
555.17	44432.73
555.33	45017.86
555.50	44577.84
555.67	44680.83
555.83	44858.71
556.00	44552.10
556.16	45507.04
556.33	45193.40
556.50	44884.45
556.66	44896.16
556.83	44624.65
556.99	45095.10
557.16	45198.09
557.32	45418.10
557.49	44973.39
557.65	45020.20
557.82	45258.94
557.98	45338.52
558.15	45265.96
558.32	45237.87
558.48	45167.66
558.65	45067.02
558.81	45448.52
558.98	45315.11
559.14	45013.18
559.31	45364.26
559.47	45504.70
559.64	45308.09
559.80	45432.14
559.97	45296.39
560.13	45333.84
560.30	45382.99
560.46	45432.14
560.63	46122.60
560.79	45759.81
560.96	45785.56
561.12	45734.07
561.29	46176.43
561.45	46061.74
561.61	45450.86
561.78	45691.94
561.94	45406.39
562.11	45593.64
562.27	45848.75
562.44	45855.78
562.60	46064.08
562.77	45715.34
562.93	45509.38
563.10	46256.01
563.26	45652.15
563.42	46518.15
563.59	46033.66
563.75	46141.32
563.92	46061.74
564.08	45762.15
564.24	46052.38
564.41	45607.68
564.57	45893.22
564.74	46342.61
564.90	45874.50
565.07	45787.90
565.23	46321.54
565.39	45832.37
565.56	46267.71
565.72	45975.14
565.88	46410.48
566.05	46129.62
566.21	46248.99
566.38	46169.41
566.54	46256.01
566.70	45844.07
566.87	46066.42
567.03	46366.01
567.19	46649.22
567.36	46604.75
567.52	46234.94
567.68	46586.02
567.85	46377.72
568.01	46604.75
568.17	46251.33
568.34	46323.88
568.50	46199.83
568.66	46213.88
568.83	46967.53
568.99	46344.95
569.15	46387.08
569.32	46904.34
569.48	46834.12
569.64	46581.34
569.81	46721.77
569.97	46663.26
570.13	46883.27
570.30	46871.57
570.46	46831.78
570.62	46595.38
570.78	46660.92
570.95	46330.90
571.11	46976.89
571.27	46562.62
571.43	46628.15
571.60	46656.24
571.76	46749.86
571.92	46745.18
572.09	46899.65
572.25	46857.52
572.41	46646.88
572.57	46799.01
572.74	46918.38
572.90	47152.43
573.06	47086.90
573.22	47091.58
573.38	47084.56
573.55	47337.33
573.71	47531.60
573.87	46941.78
574.03	46726.46
574.20	47260.10
574.36	47232.01
574.52	47196.90
574.68	47292.86
574.84	47002.64
575.01	47309.25
575.17	47117.32
575.33	47152.43
575.49	47028.38
575.65	47239.03
575.82	46892.63
575.98	46752.20
576.14	47213.29
576.30	47117.32
576.46	46848.16
576.62	47012.00
576.79	47246.05
576.95	47166.48
577.11	47112.64
577.27	47100.94
577.43	46836.46
577.59	47072.85
577.75	46801.35
577.92	46916.04
578.08	46866.89
578.24	46883.27
578.40	47426.28
578.56	47042.43
578.72	47196.90
578.88	46962.85
579.04	47449.68
579.21	47430.96
579.37	46845.82
579.53	47339.68
579.69	46845.82
579.85	47075.19
580.01	46801.35
580.17	47084.56
580.33	47264.78
580.49	47290.52
580.65	47173.50
580.82	47229.67
580.98	46768.58
581.14	47122.01
581.30	47339.68
581.46	47437.98
581.62	46983.91
581.78	46923.06
581.94	47007.32
582.10	46866.89
582.26	47323.29
582.42	47419.25
582.58	47746.93
582.74	47529.26
582.90	47339.68
583.06	47569.05
583.22	47384.15
583.38	47449.68
583.54	47019.02
583.70	47477.77
583.86	47367.76
584.02	47117.32
584.18	47608.84
584.34	47255.42
584.50	47377.12
584.66	47461.38
584.82	47374.78
584.98	47168.82
585.14	47578.41
585.30	47393.51
585.46	46909.02
585.62	47477.77
585.78	47655.65
585.94	47014.34
586.10	47330.31
586.26	47222.65
586.42	47430.96
586.58	47592.45
586.74	47154.77
586.90	47131.37
587.06	47353.72
587.22	47693.10
587.38	46979.23
587.54	47442.66
587.70	47948.21
587.86	47508.19
588.02	47491.81
588.18	47414.57
588.34	47800.76
588.49	47491.81
588.65	47159.45
588.81	47688.42
588.97	47625.22
589.13	47461.38
589.29	47445.00
589.45	47791.40
589.61	47461.38
589.77	48044.18
589.93	47622.88
