SpectraSuite Data File
++++++++++++++++++++++++++++++++++++
Date: Fri Oct 25 10:47:21 EDT 2013
User: price-jones
Dark Spectrum Present: No
Reference Spectrum Present: No
Number of Sampled Component Spectra: 1
Spectrometers: USB2+H05261
Integration Time (usec): 100000 (USB2+H05261)
Spectra Averaged: 1 (USB2+H05261)
Boxcar Smoothing: 0 (USB2+H05261)
Correct for Electrical Dark: No (USB2+H05261)
Strobe/Lamp Enabled: No (USB2+H05261)
Correct for Detector Non-linearity: No (USB2+H05261)
Correct for Stray Light: No (USB2+H05261)
Number of Pixels in Processed Spectrum: 2048
>>>>>Begin Processed Spectral Data<<<<<
365.73	126.39
365.92	126.39
366.12	126.39
366.32	63.19
366.52	46.81
366.72	140.43
366.91	44.47
367.11	0.00
367.31	39.79
367.51	0.00
367.70	53.83
367.90	70.22
368.10	23.41
368.30	11.70
368.49	35.11
368.69	163.84
368.89	44.47
369.09	58.51
369.28	0.00
369.48	128.73
369.68	126.39
369.87	74.90
370.07	84.26
370.27	145.11
370.47	156.82
370.66	362.78
370.86	409.59
371.06	418.96
371.25	498.53
371.45	465.77
371.65	463.43
371.84	404.91
372.04	414.27
372.24	550.03
372.44	491.51
372.63	449.38
372.83	486.83
373.03	489.17
373.22	535.98
373.42	468.11
373.62	585.13
373.81	512.58
374.01	517.26
374.21	559.39
374.40	540.66
374.60	613.22
374.79	510.24
374.99	566.41
375.19	650.67
375.38	645.99
375.58	540.66
375.78	669.39
375.97	566.41
376.17	622.58
376.37	578.11
376.56	599.18
376.76	543.00
376.95	585.13
377.15	660.03
377.35	571.09
377.54	610.88
377.74	636.63
377.93	575.77
378.13	648.33
378.33	535.98
378.52	503.22
378.72	571.09
378.91	674.07
379.11	599.18
379.31	622.58
379.50	695.14
379.70	655.35
379.89	650.67
380.09	671.73
380.28	655.35
380.48	674.07
380.68	681.10
380.87	594.50
381.07	676.41
381.26	702.16
381.46	678.76
381.65	692.80
381.85	641.31
382.04	685.78
382.24	739.61
382.43	638.97
382.63	730.25
382.83	723.23
383.02	676.41
383.22	699.82
383.41	653.01
383.61	685.78
383.80	720.88
384.00	791.10
384.19	706.84
384.39	720.88
384.58	690.46
384.78	788.76
384.97	755.99
385.17	800.46
385.36	732.59
385.56	784.08
385.75	732.59
385.95	779.40
386.14	746.63
386.34	781.74
386.53	844.93
386.72	880.04
386.92	833.23
387.11	830.89
387.31	821.53
387.50	842.59
387.70	873.02
387.89	884.72
388.09	877.70
388.28	889.40
388.48	807.48
388.67	880.04
388.86	861.32
389.06	896.43
389.25	840.25
389.45	976.00
389.64	816.85
389.84	924.51
390.03	922.17
390.22	976.00
390.42	933.87
390.61	922.17
390.81	952.60
391.00	980.68
391.19	929.19
391.39	952.60
391.58	971.32
391.78	861.32
391.97	985.37
392.16	898.77
392.36	976.00
392.55	1053.24
392.75	1001.75
392.94	917.49
393.13	980.68
393.33	922.17
393.52	917.49
393.71	973.66
393.91	1039.20
394.10	964.30
394.29	990.05
394.49	983.02
394.68	1188.99
394.88	1064.94
395.07	1172.61
395.26	1116.44
395.46	1104.73
395.65	1114.10
395.84	1139.84
396.04	1167.93
396.23	1104.73
396.42	1165.59
396.62	1118.78
396.81	1057.92
397.00	1207.72
397.19	1128.14
397.39	1280.27
397.58	1186.65
397.77	1107.07
397.97	1221.76
398.16	1275.59
398.35	1299.00
398.55	1350.49
398.74	1322.40
398.93	1355.17
399.12	1273.25
399.32	1249.85
399.51	1350.49
399.70	1324.74
399.90	1441.77
400.09	1350.49
400.28	1399.64
400.47	1287.29
400.67	1434.75
400.86	1448.79
401.05	1551.78
401.24	1420.71
401.44	1366.87
401.63	1430.07
401.82	1472.20
402.01	1483.90
402.21	1554.12
402.40	1474.54
402.59	1465.18
402.78	1540.07
402.97	1504.96
403.17	1603.27
403.36	1605.61
403.55	1537.73
403.74	1605.61
403.93	1715.61
404.13	1586.88
404.32	1547.09
404.51	1596.25
404.70	1685.19
404.89	1717.95
405.09	1743.70
405.28	1762.42
405.47	1673.48
405.66	1781.15
405.85	1722.63
406.05	1708.59
406.24	1788.17
406.43	1811.57
406.62	1734.34
406.81	1888.81
407.00	1809.23
407.20	1788.17
407.39	1764.76
407.58	1888.81
407.77	1891.15
407.96	2003.50
408.15	1900.52
408.34	1888.81
408.54	1956.69
408.73	1996.48
408.92	2015.20
409.11	2008.18
409.30	2066.69
409.49	2036.27
409.68	2113.50
409.87	2036.27
410.07	2008.18
410.26	2057.33
410.45	2106.48
410.64	2134.57
410.83	2141.59
411.02	2087.76
411.21	2282.02
411.40	2141.59
411.59	2244.57
411.78	2246.91
411.98	2221.17
412.17	2345.22
412.36	2289.04
412.55	2375.64
412.74	2385.01
412.93	2420.11
413.12	2438.84
413.31	2497.35
413.50	2427.14
413.69	2516.08
413.88	2480.97
414.07	2532.46
414.26	2558.21
414.45	2523.10
414.64	2579.27
414.83	2733.75
415.02	2640.12
415.22	2757.15
415.41	2796.94
415.60	2743.11
415.79	2818.00
415.98	2780.56
416.17	2867.16
416.36	2839.07
416.55	2876.52
416.74	2953.76
416.93	2904.60
417.12	2747.79
417.31	2864.82
417.50	2937.37
417.69	3098.87
417.88	2965.46
418.07	2953.76
418.26	2946.73
418.45	2970.14
418.64	3169.09
418.83	3262.71
419.02	3091.85
419.21	3148.02
419.39	3227.60
419.58	3143.34
419.77	3141.00
419.96	3358.67
420.15	3258.03
420.34	3297.81
420.53	3293.13
420.72	3452.29
420.91	3325.90
421.10	3433.57
421.29	3428.88
421.48	3183.13
421.67	3337.60
421.86	3431.23
422.05	3510.80
422.24	3358.67
422.43	3391.44
422.61	3475.70
422.80	3461.65
422.99	3508.46
423.18	3632.51
423.37	3627.83
423.56	3489.74
423.75	3494.42
423.94	3417.18
424.13	3300.16
424.32	3344.63
424.50	3515.48
424.69	3639.53
424.88	3613.79
425.07	3447.61
425.26	3471.01
425.45	3485.06
425.64	3508.46
425.83	3548.25
426.01	3653.58
426.20	3562.30
426.39	3681.66
426.58	3616.13
426.77	3524.85
426.96	3576.34
427.15	3574.00
427.33	3688.68
427.52	3662.94
427.71	3756.56
427.90	3688.68
428.09	3665.28
428.28	3817.41
428.46	3765.92
428.65	3735.50
428.84	3882.95
429.03	3845.50
429.22	3810.39
429.40	3770.60
429.59	3850.18
429.78	3602.08
429.97	3609.11
430.16	3735.50
430.34	3794.01
430.53	3887.63
430.72	3801.03
430.91	3826.78
431.10	3894.65
431.28	4114.66
431.47	4145.09
431.66	4011.68
431.85	4149.77
432.03	4311.27
432.22	4138.07
432.41	4060.83
432.60	4180.20
432.79	4135.73
432.97	4266.80
433.16	4114.66
433.35	4114.66
433.54	4173.18
433.72	4142.75
433.91	4219.99
434.10	4388.50
434.28	4301.90
434.47	4346.37
434.66	4409.57
434.85	4432.97
435.03	4449.36
435.22	4472.76
435.41	4482.13
435.59	4472.76
435.78	4585.11
435.97	4519.57
436.16	4622.56
436.34	4498.51
436.53	4552.34
436.72	4587.45
436.90	4503.19
437.09	4557.02
437.28	4655.33
437.46	4587.45
437.65	4648.30
437.84	4695.11
438.02	4606.17
438.21	4667.03
438.40	4683.41
438.58	4786.40
438.77	4983.00
438.96	4891.72
439.14	5043.85
439.33	5064.92
439.52	5130.45
439.70	5132.79
439.89	5088.32
440.08	5210.03
440.26	5114.07
440.45	5144.50
440.63	5137.48
440.82	5275.57
441.01	5460.47
441.19	5437.06
441.38	5343.44
441.57	5331.74
441.75	5320.04
441.94	5521.32
442.12	5596.22
442.31	5628.99
442.50	5647.71
442.68	5736.65
442.87	5586.86
443.05	5659.42
443.24	5837.30
443.43	5743.67
443.61	5738.99
443.80	5959.00
443.98	5643.03
444.17	5486.22
444.35	5802.19
444.54	6010.50
444.73	5851.34
444.91	5916.87
445.10	5827.93
445.28	5762.40
445.47	5682.82
445.65	5678.14
445.84	5940.28
446.02	5860.70
446.21	5678.14
446.39	5933.26
446.58	5951.98
446.77	6057.31
446.95	5886.45
447.14	5912.19
447.32	6078.37
447.51	5940.28
447.69	5790.49
447.88	5867.72
448.06	5860.70
448.25	5879.43
448.43	5937.94
448.62	6139.23
448.80	6003.47
448.99	6029.22
449.17	6064.33
449.36	5968.37
449.54	6274.98
449.73	6097.10
449.91	6235.19
450.10	6335.83
450.28	6445.84
450.46	6443.49
450.65	6415.41
450.83	6326.47
451.02	6497.33
451.20	6518.39
451.39	6363.92
451.57	6523.07
451.76	6504.35
451.94	6537.12
452.13	6441.15
452.31	6406.05
452.49	6333.49
452.68	6429.45
452.86	6314.77
453.05	6574.56
453.23	6553.50
453.42	6518.39
453.60	6614.35
453.78	6668.19
453.97	6555.84
454.15	6691.59
454.34	6736.06
454.52	6754.79
454.70	6640.10
454.89	6752.45
455.07	6951.39
455.26	6810.96
455.44	6871.81
455.62	6927.99
455.81	6857.77
455.99	6883.52
456.17	6951.39
456.36	6972.46
456.54	6916.28
456.73	7108.21
456.91	7103.53
457.09	7243.96
457.28	7426.52
457.46	7187.79
457.64	7265.02
457.83	7066.08
458.01	7274.38
458.19	7419.50
458.38	7353.96
458.56	7241.62
458.74	7410.14
458.93	7302.47
459.11	7346.94
459.29	7566.95
459.48	7527.16
459.66	7468.65
459.84	7470.99
460.03	7609.08
460.21	7548.23
460.39	7541.21
460.57	7562.27
460.76	7798.66
460.94	7700.36
461.12	7669.94
461.31	7585.68
461.49	7843.14
461.67	7566.95
461.85	7854.84
462.04	7611.42
462.22	8283.16
462.40	8166.13
462.59	7969.52
462.77	8053.78
462.95	7969.52
463.13	7880.58
463.32	7997.61
463.50	8175.49
463.68	8105.28
463.86	8138.04
464.05	8037.40
464.23	8262.09
464.41	8065.49
464.59	7992.93
464.78	8229.32
464.96	8074.85
465.14	8037.40
465.32	8241.03
465.50	8344.01
465.69	8360.39
465.87	8133.36
466.05	8248.05
466.23	8290.18
466.41	8175.49
466.60	8311.24
466.78	8353.37
466.96	8168.47
467.14	8418.91
467.32	8360.39
467.51	8601.47
467.69	8072.51
467.87	8491.46
468.05	8634.24
468.23	8468.06
468.41	8409.54
468.60	8589.77
468.78	8514.87
468.96	8568.70
469.14	8842.54
469.32	8751.26
469.50	8498.49
469.69	8772.33
469.87	8959.57
470.05	8954.89
470.23	8875.31
470.41	8891.70
470.59	8982.98
470.77	8945.53
470.95	8997.02
471.14	9270.86
471.32	9011.06
471.50	9167.88
471.68	9167.88
471.86	9146.81
472.04	9500.23
472.22	9561.09
472.40	9107.02
472.58	9240.44
472.77	9523.64
472.95	9490.87
473.13	9694.50
473.31	9474.49
473.49	9516.62
473.67	9696.84
473.85	9736.63
474.03	9621.94
474.21	9802.16
474.39	10012.81
474.57	9853.66
474.75	10076.01
474.93	9980.04
475.12	10073.67
475.30	10345.17
475.48	10122.82
475.66	10253.89
475.84	10176.65
476.02	10307.72
476.20	10293.68
476.38	10616.67
476.56	10717.31
476.74	10771.15
476.92	10527.73
477.10	10593.26
477.28	10869.45
477.46	10726.68
477.64	10792.21
477.82	11255.64
478.00	11501.39
478.18	11302.45
478.36	11246.27
478.54	11503.73
478.72	11389.05
478.90	11536.50
479.08	11805.66
479.26	11882.90
479.44	11971.84
479.62	11887.58
479.80	11950.78
479.98	12028.01
480.16	12446.97
480.34	12135.68
480.52	12498.46
480.70	12465.69
480.88	12250.36
481.06	12496.12
481.24	12683.36
481.41	12507.82
481.59	12940.82
481.77	12772.30
481.95	12915.08
482.13	13350.42
482.31	13385.52
482.49	13497.87
482.67	13418.29
482.85	13575.11
483.03	13692.13
483.21	13963.64
483.39	14125.13
483.57	13998.74
483.74	14036.19
483.92	14022.15
484.10	14033.85
484.28	14516.00
484.46	14745.38
484.64	14867.08
484.82	14567.49
485.00	14843.68
485.18	14998.15
485.35	15077.73
485.53	14897.51
485.71	14902.19
485.89	15543.50
486.07	15157.31
486.25	15363.28
486.43	15264.97
486.61	15639.46
486.78	15913.30
486.96	16006.92
487.14	16102.89
487.32	16056.08
487.50	16156.72
487.68	16585.04
487.85	16950.16
488.03	16704.40
488.21	16964.20
488.39	17046.12
488.57	16805.05
488.75	17102.29
488.92	17469.76
489.10	17500.19
489.28	17380.82
489.46	17823.18
489.64	17664.02
489.81	18391.93
489.99	18398.95
490.17	18677.48
490.35	18574.49
490.53	18527.68
490.70	18595.56
490.88	18623.64
491.06	18890.46
491.24	19091.75
491.41	19213.46
491.59	19016.85
491.77	19075.37
491.95	19396.02
492.13	19330.48
492.30	19683.91
492.48	19983.49
492.66	19793.91
492.84	20032.65
493.01	20432.88
493.19	20056.05
493.37	20470.33
493.54	20615.44
493.72	20498.41
493.90	20753.53
494.08	20812.04
494.25	20856.51
494.43	21116.31
494.61	21106.95
494.79	21479.10
494.96	21076.52
495.14	21584.42
495.32	21617.19
495.49	21764.64
495.67	21916.78
495.85	21886.35
496.02	22246.79
496.20	22253.81
496.38	22178.92
496.55	22649.36
496.73	22881.08
496.91	22714.90
497.09	22955.97
497.26	23019.17
497.44	22923.21
497.62	23253.22
497.79	23498.98
497.97	23190.03
498.14	23363.23
498.32	23700.26
498.50	23840.70
498.67	23962.40
498.85	23927.30
499.03	23871.12
499.20	23990.49
499.38	24210.50
499.56	24243.27
499.73	24428.17
499.91	24830.74
500.08	24451.58
500.26	24402.43
500.44	24566.26
500.61	24669.25
500.79	24552.22
500.97	24945.43
501.14	25158.42
501.32	25123.31
501.49	25181.82
501.67	25553.97
501.84	25348.00
502.02	25268.42
502.20	25563.33
502.37	25638.23
502.55	25614.82
502.72	25762.28
502.90	26005.69
503.07	25748.23
503.25	26017.40
503.43	25926.11
503.60	26223.36
503.78	25998.67
503.95	26249.11
504.13	26164.85
504.30	26925.52
504.48	26459.76
504.65	26492.52
504.83	26728.92
505.01	26689.13
505.18	26958.29
505.36	27124.47
505.53	27330.44
505.71	27384.27
505.88	27246.18
506.06	26918.50
506.23	26991.06
506.41	27262.56
506.58	27564.49
506.76	27648.75
506.93	27658.11
507.11	27861.74
507.28	27859.40
507.46	27941.32
507.63	28002.17
507.81	28201.11
507.98	27821.95
508.16	28149.62
508.33	28311.12
508.50	28257.29
508.68	28566.24
508.85	29326.91
509.03	28491.34
509.20	29219.25
509.38	29015.62
509.55	28706.67
509.73	29113.92
509.90	28971.15
510.08	29050.73
510.25	29001.58
510.42	28933.70
510.60	29163.08
510.77	29628.84
510.95	29556.28
511.12	29364.36
511.30	29937.79
511.47	30075.88
511.64	29926.09
511.82	30024.39
511.99	29839.49
512.17	29832.47
512.34	29764.59
512.51	30412.92
512.69	30405.90
512.86	30396.54
513.04	30682.08
513.21	30691.44
513.38	30476.12
513.56	30733.57
513.73	30415.26
513.90	30675.06
514.08	30581.44
514.25	30897.41
514.43	30937.20
514.60	31351.48
514.77	31105.72
514.95	31072.95
515.12	30834.22
515.29	31204.02
515.47	31625.32
515.64	31409.99
515.81	31435.74
515.99	31225.09
516.16	31723.62
516.33	31622.98
516.51	31742.35
516.68	31503.61
516.85	31253.17
517.03	31737.66
517.20	31779.79
517.37	32304.07
517.54	32037.25
517.72	32114.49
517.89	31957.67
518.06	32091.09
518.24	32446.85
518.41	32053.64
518.58	32479.61
518.75	32018.53
518.93	32601.32
519.10	32357.91
519.27	32685.58
519.45	33008.58
519.62	33053.05
519.79	33078.79
519.96	33029.64
520.14	33118.58
520.31	33181.77
520.48	33570.30
520.65	33383.06
520.83	33851.17
521.00	33347.95
521.17	33720.10
521.34	33600.73
521.52	33795.00
521.69	34003.30
521.86	33589.03
522.03	33900.32
522.20	34080.54
522.38	34019.69
522.55	34117.99
522.72	33621.80
522.89	34169.48
523.07	34274.80
523.24	34230.33
523.41	34511.20
523.58	34536.94
523.75	34780.36
523.92	34801.43
524.10	35042.50
524.27	35009.73
524.44	35054.20
524.61	34478.43
524.78	34792.06
524.96	35346.77
525.13	35285.92
525.30	35456.78
525.47	35257.83
525.64	35246.13
525.81	35278.89
525.98	35250.81
526.16	35442.73
526.33	35213.36
526.50	35447.41
526.67	35112.72
526.84	35817.22
527.01	35318.68
527.18	35405.28
527.36	35747.00
527.53	35754.02
527.70	36084.04
527.87	36208.09
528.04	36020.84
528.21	35952.97
528.38	36229.15
528.55	36666.83
528.72	36348.52
528.89	36687.90
529.07	36285.33
529.24	36240.86
529.41	36524.06
529.58	36156.60
529.75	36418.74
529.92	36858.76
530.09	36411.71
530.26	37167.71
530.43	37092.81
530.60	36879.82
530.77	37111.53
530.94	37230.90
531.11	37113.87
531.28	36797.90
531.46	37123.24
531.63	37251.97
531.80	36807.26
531.97	37198.13
532.14	37006.21
532.31	37064.72
532.48	37317.50
532.65	37067.06
532.82	37659.22
532.99	37598.37
533.16	37525.81
533.33	37823.06
533.50	38000.94
533.67	37684.97
533.84	37926.04
534.01	38033.71
534.18	37553.90
534.35	37996.26
534.52	37825.40
534.69	38031.36
534.86	38209.25
535.03	37867.53
535.20	38391.81
535.37	38405.85
535.54	38831.83
535.71	38092.22
535.88	38199.88
536.05	38637.56
536.22	38714.80
536.38	38384.79
536.55	38838.85
536.72	38213.93
536.89	38239.67
537.06	38464.36
537.23	39100.99
537.40	38218.61
537.57	38869.28
537.74	38501.81
537.91	39227.38
538.08	39201.63
538.25	38279.46
538.42	39047.16
538.59	38923.11
538.75	39201.63
538.92	39285.89
539.09	39157.16
539.26	39033.11
539.43	39260.15
539.60	39133.76
539.77	39466.11
539.94	39285.89
540.11	39548.03
540.28	39552.71
540.44	39475.48
540.61	39161.84
540.78	39599.52
540.95	39674.42
541.12	39358.45
541.29	39445.05
541.46	40086.36
541.62	40133.17
541.79	40217.43
541.96	39178.23
542.13	39901.45
542.30	39688.46
542.47	39716.55
542.63	39828.90
542.80	40062.95
542.97	40563.82
543.14	40512.33
543.31	40711.28
543.48	40416.37
543.64	40718.30
543.81	40603.61
543.98	40315.73
544.15	40311.05
544.32	40369.56
544.48	41038.95
544.65	40701.92
544.82	41001.50
544.99	40423.39
545.16	40856.39
545.32	40847.03
545.49	41230.88
545.66	41429.82
545.83	40718.30
546.00	41336.20
546.16	41125.55
546.33	40622.34
546.50	40491.27
546.67	41006.19
546.83	40863.41
547.00	40914.90
547.17	41565.57
547.34	41233.22
547.50	41654.51
547.67	41364.29
547.84	41148.96
548.00	41640.47
548.17	41607.70
548.34	41385.35
548.51	41982.19
548.67	41361.95
548.84	41420.46
549.01	41586.64
549.18	41596.00
549.34	41811.33
549.51	42012.62
549.68	41528.13
549.84	41806.65
550.01	42251.35
550.18	41977.51
550.34	41546.85
550.51	42181.13
550.68	41794.95
550.84	41759.84
551.01	42033.68
551.18	42052.41
551.34	41996.23
551.51	42143.69
551.68	42366.04
551.84	42361.36
552.01	42192.84
552.18	42342.63
552.34	41893.25
552.51	42813.08
552.68	42555.62
552.84	42478.38
553.01	42656.26
553.18	41989.21
553.34	42359.02
553.51	41783.24
553.67	42457.32
553.84	42838.83
554.01	42447.96
554.17	42450.30
554.34	42880.95
554.51	42726.48
554.67	42693.71
554.84	42829.46
555.00	42689.03
555.17	42419.87
555.33	42447.96
555.50	42302.84
555.67	42754.57
555.83	43199.27
556.00	42679.67
556.16	43512.90
556.33	42923.08
556.50	42873.93
556.66	43110.33
556.83	42997.98
556.99	43269.48
557.16	43206.29
557.32	43358.42
557.49	43150.12
557.65	43086.92
557.82	43007.34
557.98	43150.12
558.15	43393.53
558.32	43084.58
558.48	43416.94
558.65	43318.64
558.81	43426.30
558.98	43716.53
559.14	43180.54
559.31	43510.56
559.47	43522.26
559.64	43971.64
559.80	43335.02
559.97	43379.49
560.13	43157.14
560.30	43707.16
560.46	43423.96
560.63	43524.60
560.79	43463.75
560.96	43618.22
561.12	43725.89
561.29	43885.04
561.45	43433.32
561.61	43395.87
561.78	43316.29
561.94	43489.49
562.11	43812.49
562.27	43620.56
562.44	43840.57
562.60	43704.82
562.77	43613.54
562.93	43487.15
563.10	43721.21
563.26	43620.56
563.42	43768.02
563.59	43856.96
563.75	43543.33
563.92	44210.38
564.08	44231.44
564.24	43871.00
564.41	43828.87
564.57	43849.94
564.74	43805.47
564.90	44091.01
565.07	43976.33
565.23	43650.99
565.39	43817.17
565.56	44147.18
565.72	43777.38
565.88	43725.89
566.05	43709.50
566.21	43814.83
566.38	43639.29
566.54	43990.37
566.70	44315.70
566.87	44397.62
567.03	44402.30
567.19	44247.83
567.36	44273.57
567.52	44009.09
567.68	44507.63
567.85	44292.30
568.01	44315.70
568.17	43763.34
568.34	44463.16
568.50	44186.97
568.66	44205.70
568.83	44196.34
568.99	43761.00
569.15	43845.26
569.32	43803.13
569.48	43863.98
569.64	44367.20
569.81	44917.22
569.97	44144.84
570.13	44304.00
570.30	43899.09
570.46	44086.33
570.62	44149.53
570.78	43849.94
570.95	44231.44
571.11	44842.32
571.27	43852.28
571.43	44037.18
571.60	44067.61
571.76	44126.12
571.92	44062.93
572.09	44332.09
572.25	44135.48
572.41	44048.88
572.57	44261.87
572.74	44641.04
572.90	44486.56
573.06	44315.70
573.22	44325.07
573.38	44573.16
573.55	43838.23
573.71	44268.89
573.87	44622.31
574.03	44289.96
574.20	44402.30
574.36	44596.57
574.52	44390.60
574.68	44830.62
574.84	44814.24
575.01	44304.00
575.17	44233.78
575.33	44449.11
575.49	44390.60
575.65	45258.94
575.82	44690.19
575.98	44430.39
576.14	44828.28
576.30	44519.33
576.46	44631.68
576.62	44006.75
576.79	44729.98
576.95	44264.21
577.11	44275.91
577.27	44458.48
577.43	44577.84
577.59	44182.29
577.75	44580.18
577.92	44217.40
578.08	43992.71
578.24	44411.67
578.40	43924.83
578.56	44343.79
578.72	44561.46
578.88	44914.88
579.04	44271.23
579.21	44425.71
579.37	44507.63
579.53	44472.52
579.69	44453.79
579.85	44406.98
580.01	44573.16
580.17	44442.09
580.33	45013.18
580.49	44631.68
580.65	44507.63
580.82	44669.12
580.98	45045.95
581.14	44357.83
581.30	44783.81
581.46	44694.87
581.62	44694.87
581.78	44472.52
581.94	44683.17
582.10	44854.03
582.26	44470.18
582.42	44252.51
582.58	44868.07
582.74	44156.55
582.90	44854.03
583.06	44727.64
583.22	44804.88
583.38	44507.63
583.54	44605.93
583.70	44797.85
583.86	44353.15
584.02	43966.96
584.18	44638.70
584.34	44971.05
584.50	45153.62
584.66	44346.13
584.82	44603.59
584.98	44982.76
585.14	44540.39
585.30	44542.74
585.46	44676.15
585.62	44201.02
585.78	44680.83
585.94	44147.18
586.10	44765.09
586.26	44502.95
586.42	44341.45
586.58	45055.31
586.74	44690.19
586.90	44854.03
587.06	44575.50
587.22	44718.28
587.38	44533.37
587.54	44603.59
587.70	44641.04
587.86	45085.74
588.02	44772.11
588.18	44854.03
588.34	44769.77
588.49	44680.83
588.65	44669.12
588.81	44474.86
588.97	44107.40
589.13	44353.15
589.29	44460.82
589.45	45308.09
589.61	44725.30
589.77	45134.89
589.93	44662.10
590.08	44886.79
590.24	45085.74
