SpectraSuite Data File
++++++++++++++++++++++++++++++++++++
Date: Fri Oct 25 11:22:34 EDT 2013
User: price-jones
Dark Spectrum Present: No
Reference Spectrum Present: No
Number of Sampled Component Spectra: 1
Spectrometers: USB2+H05261
Integration Time (usec): 100000 (USB2+H05261)
Spectra Averaged: 1 (USB2+H05261)
Boxcar Smoothing: 0 (USB2+H05261)
Correct for Electrical Dark: No (USB2+H05261)
Strobe/Lamp Enabled: No (USB2+H05261)
Correct for Detector Non-linearity: No (USB2+H05261)
Correct for Stray Light: No (USB2+H05261)
Number of Pixels in Processed Spectrum: 2048
>>>>>Begin Processed Spectral Data<<<<<
365.73	198.95
365.92	198.95
366.12	198.95
366.32	161.50
366.52	156.82
366.72	119.37
366.91	102.98
367.11	163.84
367.31	93.62
367.51	107.66
367.70	173.20
367.90	79.58
368.10	140.43
368.30	74.90
368.49	53.83
368.69	152.13
368.89	95.96
369.09	145.11
369.28	107.66
369.48	117.03
369.68	154.48
369.87	212.99
370.07	170.86
370.27	198.95
370.47	365.12
370.66	554.71
370.86	653.01
371.06	690.46
371.25	681.10
371.45	697.48
371.65	699.82
371.84	739.61
372.04	706.84
372.24	744.29
372.44	732.59
372.63	718.54
372.83	760.67
373.03	730.25
373.22	755.99
373.42	723.23
373.62	795.78
373.81	833.23
374.01	835.57
374.21	858.98
374.40	788.76
374.60	919.83
374.79	777.06
374.99	807.48
375.19	828.55
375.38	823.87
375.58	908.13
375.78	938.55
375.97	873.02
376.17	971.32
376.37	896.43
376.56	894.08
376.76	891.74
376.95	901.11
377.15	840.25
377.35	908.13
377.54	868.34
377.74	847.27
377.93	870.68
378.13	931.53
378.33	880.04
378.52	938.55
378.72	1025.15
378.91	854.30
379.11	898.77
379.31	880.04
379.50	945.58
379.70	1078.99
379.89	1029.84
380.09	973.66
380.28	959.62
380.48	966.64
380.68	1050.90
380.87	940.90
381.07	983.02
381.26	1011.11
381.46	1022.81
381.65	1053.24
381.85	1074.31
382.04	1041.54
382.24	1090.69
382.43	1078.99
382.63	999.41
382.83	971.32
383.02	1100.05
383.22	1125.80
383.41	1156.22
383.61	1132.82
383.80	1083.67
384.00	1151.54
384.19	1249.85
384.39	1170.27
384.58	1153.88
384.78	1146.86
384.97	1128.14
385.17	1254.53
385.36	1149.20
385.56	1177.29
385.75	1069.62
385.95	1174.95
386.14	1256.87
386.34	1170.27
386.53	1146.86
386.72	1174.95
386.92	1252.19
387.11	1273.25
387.31	1179.63
387.50	1130.48
387.70	1280.27
387.89	1306.02
388.09	1221.76
388.28	1306.02
388.48	1324.74
388.67	1247.51
388.86	1376.24
389.06	1378.58
389.25	1341.13
389.45	1359.85
389.64	1310.70
389.84	1394.96
390.03	1432.41
390.22	1465.18
390.42	1338.79
390.61	1352.83
390.81	1404.32
391.00	1392.62
391.19	1577.52
391.39	1401.98
391.58	1486.24
391.78	1493.26
391.97	1425.39
392.16	1528.37
392.36	1519.01
392.55	1434.75
392.75	1535.39
392.94	1549.43
393.13	1638.38
393.33	1582.20
393.52	1584.54
393.71	1647.74
393.91	1568.16
394.10	1540.07
394.29	1589.22
394.49	1610.29
394.68	1577.52
394.88	1654.76
395.07	1657.10
395.26	1724.97
395.46	1675.82
395.65	1678.16
395.84	1722.63
396.04	1696.89
396.23	1724.97
396.42	1701.57
396.62	1767.10
396.81	1827.96
397.00	1781.15
397.19	1729.66
397.39	1748.38
397.58	1858.39
397.77	1928.60
397.97	1818.60
398.16	1916.90
398.35	1856.04
398.55	1973.07
398.74	1984.77
398.93	2031.58
399.12	1888.81
399.32	1919.24
399.51	2050.31
399.70	2108.82
399.90	1970.73
400.09	2076.06
400.28	2106.48
400.47	2001.16
400.67	2148.61
400.86	2162.66
401.05	2167.34
401.24	2106.48
401.44	2113.50
401.63	2202.44
401.82	2162.66
402.01	2134.57
402.21	2165.00
402.40	2211.81
402.59	2172.02
402.78	2209.47
402.97	2211.81
403.17	2366.28
403.36	2324.15
403.55	2345.22
403.74	2457.56
403.93	2422.45
404.13	2382.67
404.32	2345.22
404.51	2392.03
404.70	2452.88
404.89	2361.60
405.09	2450.54
405.28	2534.80
405.47	2469.27
405.66	2504.37
405.85	2534.80
406.05	2520.76
406.24	2476.29
406.43	2605.02
406.62	2700.98
406.81	2572.25
407.00	2609.70
407.20	2712.68
407.39	2562.89
407.58	2808.64
407.77	2841.41
407.96	2647.15
408.15	2832.05
408.34	2806.30
408.54	2794.60
408.73	2813.32
408.92	2745.45
409.11	2843.75
409.30	3047.38
409.49	2928.01
409.68	2963.12
409.87	2867.16
410.07	3108.23
410.26	3087.17
410.45	2942.05
410.64	3101.21
410.83	3148.02
411.02	3124.62
411.21	3194.83
411.40	3016.95
411.59	3316.54
411.78	3178.45
411.98	3213.56
412.17	3304.84
412.36	3218.24
412.55	3405.48
412.74	3391.44
412.93	3445.27
413.12	3342.28
413.31	3588.04
413.50	3538.89
413.69	3660.60
413.88	3651.24
414.07	3524.85
414.26	3662.94
414.45	3700.39
414.64	3599.74
414.83	3824.44
415.02	3864.22
415.22	3784.65
415.41	3906.35
415.60	3829.12
415.79	3866.56
415.98	4028.06
416.17	4011.68
416.36	3992.95
416.55	4166.15
416.74	4081.89
416.93	4098.28
417.12	4128.70
417.31	4245.73
417.50	4217.65
417.69	4248.07
417.88	4308.93
418.07	4283.18
418.26	4479.79
418.45	4374.46
418.64	4484.47
418.83	4411.91
419.02	4521.92
419.21	4596.81
419.39	4620.22
419.58	4475.10
419.77	4674.05
419.96	4730.22
420.15	4643.62
420.34	4772.35
420.53	4580.43
420.72	4772.35
420.91	4695.11
421.10	4730.22
421.29	4812.14
421.48	4751.29
421.67	4933.85
421.86	4688.09
422.05	4882.36
422.24	4823.84
422.43	4723.20
422.61	4887.04
422.80	4980.66
422.99	4954.91
423.18	5043.85
423.37	5076.62
423.56	4990.02
423.75	4809.80
423.94	4868.31
424.13	4641.28
424.32	4877.68
424.50	5078.96
424.69	5060.24
424.88	5238.12
425.07	4901.08
425.26	4889.38
425.45	5071.94
425.64	5022.79
425.83	5013.43
426.01	5046.20
426.20	5135.14
426.39	5111.73
426.58	5071.94
426.77	4992.36
426.96	5294.29
427.15	5160.88
427.33	5357.49
427.52	5247.48
427.71	5439.40
427.90	5210.03
428.09	5322.38
428.28	5284.93
428.46	5301.31
428.65	5500.26
428.84	5605.58
429.03	5738.99
429.22	5408.98
429.40	5577.50
429.59	5643.03
429.78	5345.78
429.97	5359.83
430.16	5387.91
430.34	5762.40
430.53	5776.44
430.72	5734.31
430.91	5689.84
431.10	5792.83
431.28	5731.97
431.47	5975.39
431.66	5902.83
431.85	5771.76
432.03	5825.59
432.22	6008.16
432.41	6136.88
432.60	5956.66
432.79	6043.26
432.97	6176.67
433.16	6080.71
433.35	6017.52
433.54	6129.86
433.72	6162.63
433.91	6129.86
434.10	6267.95
434.28	6167.31
434.47	6221.14
434.66	6387.32
434.85	6363.92
435.03	6445.84
435.22	6225.82
435.41	6665.85
435.59	6502.01
435.78	6642.44
435.97	6630.74
436.16	6438.81
436.34	6438.81
436.53	6597.97
436.72	6600.31
436.90	6586.27
437.09	6675.21
437.28	6415.41
437.46	6670.53
437.65	6619.04
437.84	7000.54
438.02	6881.18
438.21	6946.71
438.40	6855.43
438.58	6785.21
438.77	7255.66
438.96	6972.46
439.14	7201.83
439.33	7258.00
439.52	7342.26
439.70	7279.07
439.89	7442.90
440.08	7358.64
440.26	7405.46
440.45	7452.27
440.63	7651.21
440.82	7545.89
441.01	7588.02
441.19	7733.13
441.38	7808.03
441.57	7878.24
441.75	8021.02
441.94	7976.55
442.12	8301.88
442.31	8152.09
442.50	8271.45
442.68	8032.72
442.87	8168.47
443.05	8044.42
443.24	8196.56
443.43	8388.48
443.61	8374.44
443.80	8585.08
443.98	8173.15
444.17	7922.71
444.35	8224.64
444.54	8341.67
444.73	8439.97
444.91	8271.45
445.10	8365.07
445.28	8545.30
445.47	8409.54
445.65	8407.20
445.84	8505.51
446.02	8327.63
446.21	8571.04
446.39	8482.10
446.58	8608.49
446.77	8671.68
446.95	8376.78
447.14	8709.13
447.32	8674.03
447.51	8706.79
447.69	8688.07
447.88	8512.53
448.06	8531.25
448.25	8493.80
448.43	8772.33
448.62	8765.31
448.80	8709.13
448.99	8655.30
449.17	8840.20
449.36	8659.98
449.54	9057.87
449.73	9057.87
449.91	9142.13
450.10	9032.13
450.28	9107.02
450.46	9144.47
450.65	9163.20
450.83	9128.09
451.02	9142.13
451.20	9193.62
451.39	9167.88
451.57	9202.99
451.76	9193.62
451.94	9490.87
452.13	9331.72
452.31	9364.48
452.49	9146.81
452.68	9425.34
452.86	9528.32
453.05	9575.13
453.23	9544.70
453.42	9556.41
453.60	9493.21
453.78	9404.27
453.97	9465.13
454.15	9736.63
454.34	9537.68
454.52	9956.64
454.70	9825.57
454.89	9596.20
455.07	9771.74
455.26	9743.65
455.44	9937.91
455.62	10153.24
455.81	10017.49
455.99	10036.22
456.17	10148.56
456.36	10057.28
456.54	10237.50
456.73	10335.81
456.91	10686.89
457.09	10644.76
457.28	10677.52
457.46	10370.91
457.64	10497.30
457.83	10581.56
458.01	10541.77
458.19	10810.93
458.38	10640.08
458.56	10878.81
458.74	10820.30
458.93	10867.11
459.11	10724.33
459.29	10846.04
459.48	10897.53
459.66	11061.37
459.84	11119.89
460.03	11166.70
460.21	10991.16
460.39	10944.34
460.57	11314.15
460.76	11377.34
460.94	11473.31
461.12	11403.09
461.31	11272.02
461.49	11674.59
461.67	11295.43
461.85	11536.50
462.04	11487.35
462.22	11962.48
462.40	11957.80
462.59	11688.64
462.77	11559.91
462.95	11573.95
463.13	11686.29
463.32	12030.35
463.50	11948.43
463.68	11714.38
463.86	12058.44
464.05	11793.96
464.23	11875.88
464.41	12018.65
464.59	11676.93
464.78	12346.33
464.96	12086.53
465.14	11995.25
465.32	12184.83
465.50	12173.13
465.69	12327.60
465.87	12372.07
466.05	12173.13
466.23	12255.04
466.41	12278.45
466.60	12540.59
466.78	12573.36
466.96	12379.09
467.14	12547.61
467.32	12416.54
467.51	12748.90
467.69	12325.26
467.87	12439.95
468.05	12585.06
468.23	12540.59
468.41	12479.74
468.60	12746.56
468.78	12847.20
468.96	12643.57
469.14	12922.10
469.32	13060.19
469.50	12870.61
469.69	13296.58
469.87	13226.37
470.05	13434.68
470.23	13249.77
470.41	13224.03
470.59	13394.89
470.77	13198.28
470.95	13179.56
471.14	13621.92
471.32	13221.69
471.50	13451.06
471.68	13628.94
471.86	13855.97
472.04	13926.19
472.22	14125.13
472.40	13802.14
472.58	14010.45
472.77	14321.74
472.95	14136.84
473.13	14642.39
473.31	14132.15
473.49	14340.46
473.67	14319.40
473.85	14551.11
474.03	14576.86
474.21	14740.69
474.39	14995.81
474.57	14787.50
474.75	15033.26
474.93	15171.35
475.12	15070.71
475.30	15351.57
475.48	15208.80
475.66	15555.20
475.84	15370.30
476.02	15515.41
476.20	15571.58
476.38	16030.33
476.56	16182.46
476.74	16119.27
476.92	16388.43
477.10	15915.64
477.28	16386.09
477.46	16531.20
477.64	16468.01
477.82	16732.49
478.00	17027.40
478.18	17142.08
478.36	17078.89
478.54	17099.95
478.72	17172.51
478.90	17680.41
479.08	18125.11
479.26	18050.21
479.44	17928.50
479.62	17577.42
479.80	18207.03
479.98	18661.09
480.16	18836.63
480.34	18490.23
480.52	18719.60
480.70	18820.25
480.88	18686.84
481.06	18782.80
481.24	19047.28
481.41	19470.92
481.59	19503.68
481.77	19655.82
481.95	19932.00
482.13	19826.68
482.31	20079.46
482.49	20725.44
482.67	20280.74
482.85	20723.10
483.03	20641.18
483.21	21057.80
483.39	21429.94
483.57	21083.55
483.74	21628.89
483.92	21387.82
484.10	21462.71
484.28	21727.19
484.46	22288.92
484.64	22405.95
484.82	22073.59
485.00	22635.32
485.18	22948.95
485.35	23133.86
485.53	23105.77
485.71	23239.18
485.89	23812.61
486.07	23438.12
486.25	23747.08
486.43	24191.78
486.61	23957.72
486.78	24233.91
486.96	24353.27
487.14	24718.40
487.32	24563.92
487.50	25104.59
487.68	25598.44
487.85	25682.70
488.03	25993.99
488.21	25963.56
488.39	26155.49
488.57	26263.15
488.75	26464.44
488.92	27222.77
489.10	27470.87
489.28	27164.26
489.46	27367.88
489.64	27590.24
489.81	28070.04
489.99	27824.29
490.17	28350.91
490.35	28173.03
490.53	28570.92
490.70	28439.85
490.88	29029.66
491.06	29090.52
491.24	28982.85
491.41	29102.22
491.59	29645.23
491.77	29675.65
491.95	29930.77
492.13	29907.37
492.30	30328.66
492.48	30866.98
492.66	30225.68
492.84	30401.22
493.01	30679.74
493.19	30951.24
493.37	31477.86
493.54	31723.62
493.72	32175.34
493.90	31985.76
494.08	32273.65
494.25	32610.68
494.43	32503.02
494.61	32481.95
494.79	33106.88
494.96	32758.14
495.14	33675.63
495.32	33113.90
495.49	33156.03
495.67	33099.86
495.85	34174.16
496.02	33865.21
496.20	34560.35
496.38	34476.09
496.55	34763.98
496.73	35426.35
496.91	34967.60
497.09	35349.11
497.26	35164.21
497.44	35517.63
497.62	35754.02
497.79	36018.50
497.97	35768.07
498.14	36362.56
498.32	36605.98
498.50	36603.64
498.67	37177.07
498.85	36837.69
499.03	37174.73
499.20	37036.64
499.38	37015.57
499.56	37216.86
499.73	37708.37
499.91	37919.02
500.08	37804.33
500.26	37841.78
500.44	38263.08
500.61	38284.14
500.79	38476.07
500.97	38511.17
501.14	39115.03
501.32	39157.16
501.49	38941.83
501.67	39091.63
501.84	39545.69
502.02	39463.77
502.20	39636.97
502.37	39629.95
502.55	39770.38
502.72	40023.16
502.90	39601.86
503.07	39903.79
503.25	39974.01
503.43	40196.36
503.60	40620.00
503.78	40737.02
503.95	40627.02
504.13	40945.33
504.30	41045.97
504.48	41060.02
504.65	41092.79
504.83	41785.58
505.01	41738.77
505.18	41434.50
505.36	41944.74
505.53	41628.77
505.71	42124.96
505.88	42241.99
506.06	42080.49
506.23	42419.87
506.41	42258.37
506.58	42679.67
506.76	43222.67
506.93	42632.86
507.11	42939.47
507.28	42852.87
507.46	43386.51
507.63	43662.69
507.81	43601.84
507.98	43580.78
508.16	44095.69
508.33	43929.51
508.50	44002.07
508.68	43922.49
508.85	44217.40
509.03	44332.09
509.20	44559.12
509.38	44868.07
509.55	44891.48
509.73	44947.65
509.90	44954.67
510.08	44959.35
510.25	44947.65
510.42	45265.96
510.60	45535.12
510.77	45546.82
510.95	45881.52
511.12	45523.42
511.30	45661.51
511.47	45759.81
511.64	46155.36
511.82	46162.39
511.99	46012.59
512.17	46471.34
512.34	46321.54
512.51	46960.51
512.69	46967.53
512.86	46600.07
513.04	47253.08
513.21	47236.69
513.38	46962.85
513.56	47316.27
513.73	47323.29
513.90	47480.11
514.08	47732.89
514.25	47899.06
514.43	47803.10
514.60	48215.04
514.77	47973.96
514.95	48435.05
515.12	48081.63
515.29	47845.23
515.47	48610.59
515.64	48535.69
515.81	48605.91
515.99	48575.48
516.16	48837.62
516.33	48439.73
516.51	49340.83
516.68	48519.31
516.85	49137.21
517.03	49408.71
517.20	49368.92
517.37	49305.73
517.54	49132.53
517.72	49193.38
517.89	49392.33
518.06	49502.33
518.24	49776.17
518.41	49567.87
518.58	49769.15
518.75	49563.18
518.93	49858.09
519.10	49815.96
519.27	49968.10
519.45	49956.39
519.62	50277.05
519.79	50548.55
519.96	50337.90
520.14	50714.73
520.31	50747.50
520.48	50681.96
520.65	50820.05
520.83	50899.63
521.00	51159.43
521.17	50646.85
521.34	50801.33
521.52	51063.47
521.69	51112.62
521.86	51379.44
522.03	51463.70
522.20	51866.27
522.38	51992.66
522.55	51856.91
522.72	52051.17
522.89	51906.06
523.07	51962.23
523.24	52229.05
523.41	51997.34
523.58	51983.30
523.75	52435.02
523.92	52278.21
524.10	52463.11
524.27	52554.39
524.44	52362.46
524.61	52498.22
524.78	52533.32
524.96	52542.69
525.13	52715.89
525.30	52683.12
525.47	53176.97
525.64	52736.95
525.81	53055.26
525.98	53099.73
526.16	52886.74
526.33	52839.93
526.50	53396.98
526.67	53013.13
526.84	53471.88
527.01	53127.82
527.18	53375.92
527.36	53282.30
527.53	53649.76
527.70	53701.25
527.87	53509.33
528.04	53762.11
528.21	53837.00
528.38	53841.68
528.55	53993.82
528.72	53663.80
528.89	54061.69
529.07	53865.09
529.24	53820.62
529.41	54234.89
529.58	53958.71
529.75	54209.15
529.92	54277.02
530.09	54391.71
530.26	54440.86
530.43	54438.52
530.60	54298.09
530.77	54429.16
530.94	54745.13
531.11	54370.64
531.28	54361.28
531.46	54548.53
531.63	54686.62
531.80	54672.57
531.97	55063.44
532.14	54911.31
532.31	55063.44
532.48	54941.74
532.65	54981.52
532.82	54742.79
532.99	55110.25
533.16	54726.41
533.33	55222.60
533.50	55288.13
533.67	54972.16
533.84	54948.76
534.01	55281.11
534.18	55070.46
534.35	55543.25
534.52	55288.13
534.69	55543.25
534.86	55779.65
535.03	55526.87
535.20	55634.53
535.37	55615.81
535.54	55737.52
535.71	55461.33
535.88	55440.27
536.05	55730.50
536.22	55863.91
536.38	55845.18
536.55	55845.18
536.72	55833.48
536.89	55842.84
537.06	55969.23
537.23	56282.86
537.40	55847.52
537.57	56137.75
537.74	56273.50
537.91	56268.82
538.08	56128.39
538.25	56055.83
538.42	56149.45
538.59	56493.51
538.75	56287.54
538.92	56390.53
539.09	56535.64
539.26	56322.65
539.43	56561.39
539.60	56619.90
539.77	56554.36
539.94	56741.61
540.11	56762.67
540.28	56659.69
540.44	56722.88
540.61	56629.26
540.78	56720.54
540.95	56860.97
541.12	56715.86
541.29	56683.09
541.46	56886.72
541.62	56959.28
541.79	56999.07
541.96	56818.84
542.13	56818.84
542.30	56809.48
542.47	57186.31
542.63	57373.55
542.80	57240.14
542.97	57635.69
543.14	57579.52
543.31	57446.11
543.48	57698.89
543.64	57663.78
543.81	57544.41
543.98	57542.07
544.15	57537.39
544.32	57869.75
544.48	57780.81
544.65	57668.46
544.82	57726.97
544.99	57626.33
545.16	57511.64
545.32	57822.93
545.49	58071.03
545.66	58096.78
545.83	57893.15
546.00	58174.02
546.16	58134.23
546.33	57780.81
546.50	57755.06
546.67	58094.44
546.83	57598.24
547.00	57975.07
547.17	58286.36
547.34	58227.85
547.50	58403.39
547.67	58398.71
547.84	58384.66
548.00	58375.30
548.17	58354.24
548.34	58237.21
548.51	58705.32
548.67	58497.01
548.84	58419.77
549.01	58377.64
549.18	58288.70
549.34	58578.93
549.51	58679.57
549.68	58403.39
549.84	58560.20
550.01	58805.96
550.18	58452.54
550.34	58621.06
550.51	58791.92
550.68	58686.59
550.84	58691.27
551.01	59021.29
551.18	58836.39
551.34	58642.12
551.51	58768.51
551.68	58763.83
551.84	58820.00
552.01	58731.06
552.18	58988.52
552.34	58756.81
552.51	59086.82
552.68	58714.68
552.84	58983.84
553.01	59049.38
553.18	59187.47
553.34	59070.44
553.51	59112.57
553.67	59185.13
553.84	59360.67
554.01	59274.07
554.17	59510.46
554.34	59245.98
554.51	59119.59
554.67	59154.70
554.84	59377.05
555.00	58944.05
555.17	59231.94
555.33	59295.13
555.50	59231.94
555.67	59346.62
555.83	59377.05
556.00	59428.54
556.16	59505.78
556.33	59384.07
556.50	59590.04
556.66	59826.43
556.83	59468.33
556.99	59522.16
557.16	59671.96
557.32	59669.62
557.49	60009.00
557.65	59536.21
557.82	59711.75
557.98	59711.75
558.15	59512.80
558.32	59788.98
558.48	59690.68
558.65	59653.23
558.81	59646.21
558.98	59847.50
559.14	59945.80
559.31	60093.25
559.47	59976.23
559.64	60254.75
559.80	59927.08
559.97	60172.83
560.13	60013.68
560.30	59845.16
560.46	59856.86
560.63	59971.55
560.79	60210.28
560.96	60205.60
561.12	60093.25
561.29	60030.06
561.45	60259.43
561.61	60027.72
561.78	60252.41
561.94	60177.51
562.11	60044.10
562.27	60163.47
562.44	60210.28
562.60	60278.16
562.77	60257.09
562.93	59999.63
563.10	60334.33
563.26	60158.79
563.42	60364.76
563.59	60189.22
563.75	60317.95
563.92	60402.21
564.08	60355.39
564.24	60320.29
564.41	60458.38
564.57	60507.53
564.74	60458.38
564.90	60427.95
565.07	60343.69
565.23	60376.46
565.39	60437.31
565.56	60491.15
565.72	60456.04
565.88	60474.76
566.05	60514.55
566.21	60357.74
566.38	60456.04
566.54	60427.95
566.70	60657.32
566.87	60678.39
567.03	60371.78
567.19	60858.61
567.36	60704.13
567.52	60582.43
567.68	60774.35
567.85	60547.32
568.01	60734.56
568.17	60654.98
568.34	60891.38
568.50	60734.56
568.66	60552.00
568.83	60605.83
568.99	60835.20
569.15	60662.00
569.32	60727.54
569.48	60734.56
569.64	60900.74
569.81	60659.66
569.97	60680.73
570.13	60699.45
570.30	60814.14
570.46	60823.50
570.62	60720.52
570.78	60821.16
570.95	60781.37
571.11	60645.62
571.27	60821.16
571.43	60961.59
571.60	60945.21
571.76	60814.14
571.92	60811.80
572.09	60729.88
572.25	60956.91
572.41	61087.98
572.57	60867.97
572.74	61043.51
572.90	61027.13
573.06	60917.12
573.22	60797.76
573.38	61118.41
573.55	60907.76
573.71	61020.11
573.87	60942.87
574.03	60584.77
574.20	60980.32
574.36	61027.13
574.52	61085.64
574.68	60973.30
574.84	61048.19
575.01	60963.93
575.17	61013.08
575.33	60914.78
575.49	61029.47
575.65	61151.18
575.82	61076.28
575.98	61095.00
576.14	61130.11
576.30	61443.74
576.46	60823.50
576.62	61116.07
576.79	61010.74
576.95	60867.97
577.11	60975.64
577.27	61219.05
577.43	61118.41
577.59	61116.07
577.75	61076.28
577.92	60999.04
578.08	61247.14
578.24	61205.01
578.40	61085.64
578.56	61113.73
578.72	61078.62
578.88	61401.61
579.04	61312.67
579.21	61076.28
579.37	61242.46
579.53	61125.43
579.69	61064.58
579.85	61087.98
580.01	61116.07
580.17	61139.47
580.33	61116.07
580.49	61415.66
580.65	61066.92
580.82	61102.03
580.98	61036.49
581.14	60910.10
581.30	61247.14
581.46	61083.30
581.62	61104.37
581.78	61244.80
581.94	61251.82
582.10	61041.17
582.26	61357.14
582.42	61277.57
582.58	61155.86
582.74	61244.80
582.90	61043.51
583.06	61310.33
583.22	61041.17
583.38	61205.01
583.54	61148.84
583.70	61284.59
583.86	61223.73
584.02	61139.47
584.18	61350.12
584.34	61214.37
584.50	61336.08
584.66	61111.39
584.82	61048.19
584.98	61343.10
585.14	61324.38
585.30	61209.69
585.46	61352.46
585.62	61422.68
585.78	61439.06
585.94	61008.40
586.10	61153.52
586.26	61226.07
586.42	61312.67
586.58	61340.76
586.74	61130.11
586.90	61244.80
587.06	61188.63
587.22	61319.70
587.38	61242.46
587.54	61319.70
587.70	61591.20
587.86	61319.70
588.02	61537.36
588.18	61565.45
588.34	61340.76
588.49	61176.92
