SpectraSuite Data File
++++++++++++++++++++++++++++++++++++
Date: Fri Oct 25 10:44:24 EDT 2013
User: price-jones
Dark Spectrum Present: No
Reference Spectrum Present: No
Number of Sampled Component Spectra: 1
Spectrometers: USB2+H05261
Integration Time (usec): 100000 (USB2+H05261)
Spectra Averaged: 1 (USB2+H05261)
Boxcar Smoothing: 0 (USB2+H05261)
Correct for Electrical Dark: No (USB2+H05261)
Strobe/Lamp Enabled: No (USB2+H05261)
Correct for Detector Non-linearity: No (USB2+H05261)
Correct for Stray Light: No (USB2+H05261)
Number of Pixels in Processed Spectrum: 2048
>>>>>Begin Processed Spectral Data<<<<<
365.73	95.96
365.92	95.96
366.12	95.96
366.32	49.15
366.52	21.06
366.72	42.13
366.91	84.26
367.11	51.49
367.31	25.75
367.51	42.13
367.70	42.13
367.90	35.11
368.10	37.45
368.30	39.79
368.49	77.24
368.69	95.96
368.89	42.13
369.09	0.00
369.28	77.24
369.48	25.75
369.68	65.54
369.87	77.24
370.07	88.94
370.27	100.64
370.47	217.67
370.66	400.23
370.86	458.74
371.06	559.39
371.25	479.81
371.45	379.17
371.65	507.90
371.84	519.60
372.04	512.58
372.24	463.43
372.44	535.98
372.63	519.60
372.83	505.56
373.03	484.49
373.22	535.98
373.42	442.36
373.62	512.58
373.81	517.26
374.01	554.71
374.21	580.45
374.40	571.09
374.60	610.88
374.79	547.69
374.99	571.09
375.19	545.34
375.38	610.88
375.58	557.05
375.78	599.18
375.97	608.54
376.17	655.35
376.37	681.10
376.56	695.14
376.76	631.94
376.95	601.52
377.15	587.47
377.35	601.52
377.54	638.97
377.74	711.52
377.93	674.07
378.13	657.69
378.33	645.99
378.52	688.12
378.72	730.25
378.91	662.37
379.11	664.71
379.31	685.78
379.50	711.52
379.70	753.65
379.89	739.61
380.09	681.10
380.28	645.99
380.48	711.52
380.68	718.54
380.87	685.78
381.07	713.86
381.26	734.93
381.46	730.25
381.65	704.50
381.85	697.48
382.04	674.07
382.24	688.12
382.43	699.82
382.63	669.39
382.83	692.80
383.02	699.82
383.22	720.88
383.41	746.63
383.61	856.64
383.80	851.96
384.00	816.85
384.19	802.80
384.39	887.06
384.58	765.36
384.78	896.43
384.97	858.98
385.17	751.31
385.36	828.55
385.56	774.72
385.75	807.48
385.95	896.43
386.14	884.72
386.34	875.36
386.53	910.47
386.72	901.11
386.92	851.96
387.11	854.30
387.31	954.94
387.50	915.15
387.70	929.19
387.89	884.72
388.09	933.87
388.28	793.44
388.48	985.37
388.67	1020.47
388.86	980.68
389.06	1008.77
389.25	973.66
389.45	1116.44
389.64	877.70
389.84	1144.52
390.03	1078.99
390.22	1053.24
390.42	992.39
390.61	1128.14
390.81	1090.69
391.00	1004.09
391.19	1097.71
391.39	1062.60
391.58	1153.88
391.78	1137.50
391.97	1111.75
392.16	1006.43
392.36	1076.65
392.55	1062.60
392.75	997.07
392.94	1102.39
393.13	1027.50
393.33	1156.22
393.52	1081.33
393.71	1163.25
393.91	1144.52
394.10	1177.29
394.29	1125.80
394.49	1100.05
394.68	1247.51
394.88	1273.25
395.07	1280.27
395.26	1369.21
395.46	1366.87
395.65	1217.08
395.84	1282.61
396.04	1217.08
396.23	1191.33
396.42	1207.72
396.62	1160.91
396.81	1235.80
397.00	1198.35
397.19	1275.59
397.39	1320.06
397.58	1394.96
397.77	1322.40
397.97	1427.73
398.16	1446.45
398.35	1486.24
398.55	1521.35
398.74	1554.12
398.93	1497.94
399.12	1376.24
399.32	1460.49
399.51	1528.37
399.70	1537.73
399.90	1591.56
400.09	1607.95
400.28	1633.69
400.47	1706.25
400.67	1619.65
400.86	1636.03
401.05	1706.25
401.24	1767.10
401.44	1753.06
401.63	1746.04
401.82	1783.49
402.01	1680.50
402.21	1722.63
402.40	1851.36
402.59	1830.30
402.78	1877.11
402.97	1856.04
403.17	1914.56
403.36	1818.60
403.55	1900.52
403.74	1949.67
403.93	1907.54
404.13	1914.56
404.32	1937.96
404.51	1877.11
404.70	1944.99
404.89	1996.48
405.09	2052.65
405.28	2099.46
405.47	2160.31
405.66	2003.50
405.85	2104.14
406.05	2005.84
406.24	2047.97
406.43	2062.01
406.62	2047.97
406.81	2186.06
407.00	2125.21
407.20	2122.87
407.39	2207.13
407.58	2211.81
407.77	2296.07
407.96	2239.89
408.15	2392.03
408.34	2312.45
408.54	2342.88
408.73	2289.04
408.92	2370.96
409.11	2361.60
409.30	2319.47
409.49	2354.58
409.68	2410.75
409.87	2399.05
410.07	2459.90
410.26	2464.58
410.45	2417.77
410.64	2558.21
410.83	2736.09
411.02	2717.36
411.21	2623.74
411.40	2616.72
411.59	2801.62
411.78	2712.68
411.98	2654.17
412.17	2743.11
412.36	2698.64
412.55	2834.39
412.74	2689.28
412.93	2883.54
413.12	2883.54
413.31	2972.48
413.50	2906.95
413.69	2960.78
413.88	2860.13
414.07	3030.99
414.26	3045.04
414.45	3056.74
414.64	3052.06
414.83	3075.46
415.02	3173.77
415.22	3162.06
415.41	3141.00
415.60	3187.81
415.79	3337.60
415.98	3349.31
416.17	3307.18
416.36	3229.94
416.55	3375.05
416.74	3344.63
416.93	3253.34
417.12	3419.52
417.31	3445.27
417.50	3379.73
417.69	3595.06
417.88	3588.04
418.07	3463.99
418.26	3604.42
418.45	3716.77
418.64	3754.22
418.83	3700.39
419.02	3637.19
419.21	3815.07
419.39	3616.13
419.58	3510.80
419.77	3623.15
419.96	3644.21
420.15	3747.20
420.34	3772.94
420.53	3929.76
420.72	4023.38
420.91	3901.67
421.10	3843.16
421.29	4126.36
421.48	3882.95
421.67	3995.29
421.86	3978.91
422.05	3852.52
422.24	3957.85
422.43	3852.52
422.61	3906.35
422.80	3922.74
422.99	3992.95
423.18	3992.95
423.37	4145.09
423.56	4182.54
423.75	4051.47
423.94	3934.44
424.13	3913.38
424.32	3920.40
424.50	4009.34
424.69	4170.83
424.88	4114.66
425.07	3995.29
425.26	3911.04
425.45	4007.00
425.64	4028.06
425.83	3969.55
426.01	3936.78
426.20	4184.88
426.39	4098.28
426.58	4023.38
426.77	4098.28
426.96	4140.41
427.15	4131.05
427.33	4126.36
427.52	4156.79
427.71	4217.65
427.90	4250.41
428.09	4114.66
428.28	4128.70
428.46	4297.22
428.65	4227.01
428.84	4423.61
429.03	4430.63
429.22	4004.66
429.40	4250.41
429.59	4093.60
429.78	4002.32
429.97	4117.00
430.16	4102.96
430.34	4250.41
430.53	4219.99
430.72	4182.54
430.91	4362.76
431.10	4402.55
431.28	4718.52
431.47	4685.75
431.66	4758.31
431.85	4603.83
432.03	4739.58
432.22	4798.10
432.41	4711.50
432.60	4755.97
432.79	4926.83
432.97	4971.30
433.16	4912.78
433.35	4870.65
433.54	4713.84
433.72	4896.40
433.91	4737.24
434.10	4765.33
434.28	4823.84
434.47	5085.98
434.66	5022.79
434.85	5128.11
435.03	5095.35
435.22	5013.43
435.41	5228.76
435.59	5188.97
435.78	5181.95
435.97	5266.21
436.16	5355.15
436.34	5151.52
436.53	5270.89
436.72	5256.84
436.90	5193.65
437.09	5441.75
437.28	5350.46
437.46	5296.63
437.65	5341.10
437.84	5352.81
438.02	5217.05
438.21	5350.46
438.40	5291.95
438.58	5177.26
438.77	5486.22
438.96	5568.13
439.14	5781.12
439.33	5802.19
439.52	5905.17
439.70	5827.93
439.89	5816.23
440.08	6043.26
440.26	5750.70
440.45	5713.25
440.63	5949.64
440.82	6164.97
441.01	5935.60
441.19	6326.47
441.38	6207.10
441.57	6181.35
441.75	6279.66
441.94	6551.16
442.12	6338.17
442.31	6670.53
442.50	6644.78
442.68	6487.96
442.87	6607.33
443.05	6604.99
443.24	6846.07
443.43	6471.58
443.61	6555.84
443.80	6724.36
443.98	6642.44
444.17	6541.80
444.35	6612.01
444.54	6750.10
444.73	6796.92
444.91	6729.04
445.10	6686.91
445.28	6518.39
445.47	6520.73
445.65	6565.20
445.84	6703.29
446.02	6871.81
446.21	6785.21
446.39	6876.49
446.58	6953.73
446.77	6820.32
446.95	6899.90
447.14	6825.00
447.32	7028.63
447.51	6918.62
447.69	6862.45
447.88	6963.09
448.06	6995.86
448.25	6925.65
448.43	6913.94
448.62	7033.31
448.80	6801.60
448.99	6876.49
449.17	6935.01
449.36	6958.41
449.54	7248.64
449.73	7236.94
449.91	7290.77
450.10	7279.07
450.28	7438.22
450.46	7307.15
450.65	7508.44
450.83	7452.27
451.02	7220.55
451.20	7461.63
451.39	7344.60
451.57	7370.35
451.76	7407.80
451.94	7534.18
452.13	7386.73
452.31	7386.73
452.49	7302.47
452.68	7356.30
452.86	7496.74
453.05	7466.31
453.23	7382.05
453.42	7513.12
453.60	7513.12
453.78	7641.85
453.97	7686.32
454.15	7555.25
454.34	7534.18
454.52	7829.09
454.70	7613.76
454.89	7817.39
455.07	7798.66
455.26	7815.05
455.44	7948.46
455.62	7744.83
455.81	7831.43
455.99	7859.52
456.17	8063.15
456.36	8028.04
456.54	8081.87
456.73	8159.11
456.91	8470.40
457.09	8273.79
457.28	8631.90
457.46	8313.58
457.64	8320.60
457.83	8346.35
458.01	8262.09
458.19	8489.12
458.38	8311.24
458.56	8559.34
458.74	8557.00
458.93	8624.87
459.11	8428.27
459.29	8596.79
459.48	8669.34
459.66	8470.40
459.84	8758.28
460.03	8819.14
460.21	8720.84
460.39	8884.67
460.57	8718.50
460.76	8784.03
460.94	9034.47
461.12	8851.91
461.31	8851.91
461.49	9029.79
461.67	8697.43
461.85	9116.39
462.04	8844.88
462.22	9074.26
462.40	9132.77
462.59	9046.17
462.77	9167.88
462.95	9240.44
463.13	9247.46
463.32	9202.99
463.50	9205.33
463.68	9151.49
463.86	9444.06
464.05	9186.60
464.23	9301.29
464.41	9294.27
464.59	9200.65
464.78	9458.10
464.96	9312.99
465.14	9303.63
465.32	9352.78
465.50	9626.62
465.69	9694.50
465.87	9458.10
466.05	9657.05
466.23	9355.12
466.41	9525.98
466.60	9533.00
466.78	9434.70
466.96	9408.95
467.14	9572.79
467.32	9671.09
467.51	9638.33
467.69	9607.90
467.87	9542.36
468.05	9734.29
468.23	9518.96
468.41	9692.16
468.60	9640.67
468.78	9813.87
468.96	9853.66
469.14	10054.94
469.32	9975.36
469.50	9863.02
469.69	9989.41
469.87	10040.90
470.05	9933.23
470.23	10183.67
470.41	10033.88
470.59	10146.22
470.77	10125.16
470.95	10242.18
471.14	10270.27
471.32	10085.37
471.50	10569.86
471.68	10490.28
471.86	10583.90
472.04	10565.18
472.22	10714.97
472.40	10490.28
472.58	10787.53
472.77	10729.02
472.95	10794.55
473.13	11035.63
473.31	10729.02
473.49	10820.30
473.67	10705.61
473.85	10899.87
474.03	11218.19
474.21	11157.33
474.39	11470.97
474.57	11192.44
474.75	11307.13
474.93	11496.71
475.12	11702.68
475.30	11576.29
475.48	11562.25
475.66	11555.22
475.84	11793.96
476.02	11698.00
476.20	11749.49
476.38	11836.09
476.56	12053.76
476.74	12292.49
476.92	12231.64
477.10	12301.86
477.28	12484.42
477.46	12002.27
477.64	12549.95
477.82	12650.60
478.00	12718.47
478.18	12961.89
478.36	12809.75
478.54	13032.10
478.72	13083.59
478.90	13074.23
479.08	13429.99
479.26	13584.47
479.44	13465.10
479.62	13760.01
479.80	13619.58
479.98	13874.70
480.16	13984.70
480.34	13717.88
480.52	14045.55
480.70	14398.98
480.88	13830.23
481.06	14298.33
481.24	14352.16
481.41	14434.08
481.59	14686.86
481.77	15026.24
481.95	14768.78
482.13	14857.72
482.31	14930.28
482.49	15279.02
482.67	15353.91
482.85	15580.95
483.03	15721.38
483.21	15721.38
483.39	15517.75
483.57	15850.11
483.74	16004.58
483.92	16152.04
484.10	15864.15
484.28	16093.52
484.46	16702.06
484.64	16837.81
484.82	16634.19
485.00	16669.30
485.18	16746.53
485.35	16896.33
485.53	16556.95
485.71	16570.99
485.89	16744.19
486.07	16439.92
486.25	16901.01
486.43	17151.45
486.61	17467.42
486.78	17762.33
486.96	17654.66
487.14	18288.95
487.32	17956.59
487.50	18548.75
487.68	18434.06
487.85	18850.67
488.03	18913.87
488.21	18885.78
488.39	18874.08
488.57	19124.52
488.75	19407.72
488.92	19543.47
489.10	19779.87
489.28	20020.94
489.46	20208.19
489.64	19988.18
489.81	20439.90
489.99	20528.84
490.17	20638.84
490.35	20875.24
490.53	20877.58
490.70	21282.49
490.88	20943.11
491.06	21387.82
491.24	20936.09
491.41	21163.12
491.59	21380.79
491.77	21249.72
491.95	21556.33
492.13	22097.00
492.30	21869.97
492.48	22251.47
492.66	22436.38
492.84	22766.39
493.01	22766.39
493.19	22443.40
493.37	22888.10
493.54	23019.17
493.72	22995.76
493.90	23080.02
494.08	23569.19
494.25	23573.88
494.43	23648.77
494.61	23957.72
494.79	23934.32
494.96	23843.04
495.14	23861.76
495.32	24390.72
495.49	24056.03
495.67	24390.72
495.85	24774.57
496.02	24638.82
496.20	24720.74
496.38	24683.29
496.55	25348.00
496.73	25598.44
496.91	25345.66
497.09	25532.90
497.26	25970.58
497.44	25322.26
497.62	25266.08
497.79	25916.75
497.97	25876.96
498.14	26064.21
498.32	26377.84
498.50	26235.06
498.67	26628.27
498.85	26897.44
499.03	27215.75
499.20	26656.36
499.38	26937.23
499.56	26890.41
499.73	27534.06
499.91	26998.08
500.08	26850.63
500.26	26728.92
500.44	27332.78
500.61	27087.02
500.79	27054.25
500.97	27243.84
501.14	27384.27
501.32	27278.94
501.49	27887.48
501.67	27835.99
501.84	27807.90
502.02	28084.09
502.20	28355.59
502.37	28313.46
502.55	28362.61
502.72	28589.64
502.90	28868.17
503.07	28486.66
503.25	28690.29
503.43	29006.26
503.60	28716.03
503.78	28697.31
503.95	28816.68
504.13	28903.28
504.30	29369.04
504.48	29261.38
504.65	29481.39
504.83	29598.41
505.01	29876.94
505.18	30022.05
505.36	30059.50
505.53	30075.88
505.71	30195.25
505.88	30583.78
506.06	30256.11
506.23	30267.81
506.41	30096.95
506.58	30822.51
506.76	30565.06
506.93	30462.07
507.11	30150.78
507.28	30857.62
507.46	30522.93
507.63	30958.27
507.81	30792.09
507.98	30916.14
508.16	30932.52
508.33	31271.90
508.50	31683.83
508.68	31456.80
508.85	31583.19
509.03	31662.77
509.20	31620.64
509.38	32079.38
509.55	32112.15
509.73	31732.98
509.90	32451.53
510.08	31880.44
510.25	32322.80
510.42	32025.55
510.60	31974.06
510.77	32589.62
510.95	32758.14
511.12	32711.33
511.30	33097.52
511.47	33413.49
511.64	32847.08
511.82	32884.53
511.99	32818.99
512.17	33113.90
512.34	32840.06
512.51	33228.59
512.69	33237.95
512.86	33376.04
513.04	33448.60
513.21	33441.57
513.38	33237.95
513.56	33200.50
513.73	33226.24
513.90	33525.83
514.08	33797.34
514.25	33919.04
514.43	33633.50
514.60	33563.28
514.77	34129.69
514.95	34078.20
515.12	33942.45
515.29	34211.61
515.47	34881.00
515.64	34742.91
515.81	34431.62
515.99	34326.30
516.16	34553.33
516.33	33893.30
516.51	34033.73
516.68	33717.76
516.85	33832.44
517.03	34408.22
517.20	34443.32
517.37	34637.59
517.54	34735.89
517.72	34668.02
517.89	35047.18
518.06	34206.93
518.24	34829.51
518.41	34916.11
518.58	35325.71
518.75	34909.09
518.93	35103.35
519.10	35590.19
519.27	35552.74
519.45	35725.94
519.62	35845.30
519.79	36149.57
519.96	36165.96
520.14	36737.05
520.31	35751.68
520.48	36264.26
520.65	36322.77
520.83	36613.00
521.00	36793.22
521.17	36299.37
521.34	36924.29
521.52	36910.25
521.69	37097.49
521.86	37207.50
522.03	37289.42
522.20	36992.17
522.38	37368.99
522.55	36849.39
522.72	37118.56
522.89	36870.46
523.07	37565.60
523.24	37322.18
523.41	37333.89
523.58	37593.68
523.75	38169.46
523.92	38127.33
524.10	38106.26
524.27	38190.52
524.44	37916.68
524.61	38583.73
524.78	38089.88
524.96	38117.96
525.13	38288.82
525.30	38686.71
525.47	38871.62
525.64	38714.80
525.81	38450.32
525.98	37902.64
526.16	37762.20
526.33	37909.66
526.50	38066.47
526.67	37553.90
526.84	38396.49
527.01	38146.05
527.18	38323.93
527.36	38560.33
527.53	38932.47
527.70	38969.92
527.87	39159.50
528.04	39384.19
528.21	38925.45
528.38	39021.41
528.55	39555.05
528.72	39583.14
528.89	39864.00
529.07	39377.17
529.24	39477.82
529.41	39578.46
529.58	39480.16
529.75	39335.04
529.92	39482.50
530.09	39814.85
530.26	39866.34
530.43	39957.63
530.60	39662.72
530.77	39908.47
530.94	40566.16
531.11	40240.83
531.28	39758.68
531.46	40378.92
531.63	40252.53
531.80	40051.25
531.97	39901.45
532.14	40224.45
532.31	40149.55
532.48	40172.96
532.65	40367.22
532.82	40023.16
532.99	40526.38
533.16	40547.44
533.33	40484.25
533.50	40863.41
533.67	40889.16
533.84	40444.46
534.01	40535.74
534.18	40589.57
534.35	41134.92
534.52	40900.86
534.69	41163.00
534.86	41083.42
535.03	41165.34
535.20	41631.11
535.37	41591.32
535.54	41731.75
535.71	41638.13
535.88	41462.59
536.05	41277.69
536.22	41462.59
536.38	41230.88
536.55	42019.64
536.72	41422.80
536.89	41530.47
537.06	41584.30
537.23	41731.75
537.40	42197.52
537.57	41794.95
537.74	41610.04
537.91	42078.15
538.08	41684.94
538.25	41787.92
538.42	41617.07
538.59	42050.06
538.75	41722.39
538.92	41783.24
539.09	42054.75
539.26	42340.29
539.43	41982.19
539.60	42117.94
539.77	41837.08
539.94	41944.74
540.11	42286.46
540.28	42309.86
540.44	42206.88
540.61	42199.86
540.78	42066.45
540.95	42366.04
541.12	42560.30
541.29	42532.22
541.46	42403.49
541.62	42642.22
541.79	42904.36
541.96	42649.24
542.13	42651.58
542.30	42792.01
542.47	43044.79
542.63	43393.53
542.80	42934.79
542.97	43543.33
543.14	43346.72
543.31	43063.52
543.48	43388.85
543.64	44411.67
543.81	43608.86
543.98	43723.55
544.15	43613.54
544.32	43438.00
544.48	43936.54
544.65	43505.88
544.82	43999.73
544.99	43592.48
545.16	43793.76
545.32	43791.42
545.49	43964.62
545.66	44067.61
545.83	43793.76
546.00	43753.97
546.16	43863.98
546.33	43531.62
546.50	43302.25
546.67	43791.42
546.83	43711.84
547.00	43732.91
547.17	44210.38
547.34	44329.75
547.50	44182.29
547.67	43929.51
547.84	44119.10
548.00	44488.90
548.17	44669.12
548.34	44039.52
548.51	44500.61
548.67	44818.92
548.84	44390.60
549.01	44191.65
549.18	44540.39
549.34	44652.74
549.51	44783.81
549.68	44788.49
549.84	44488.90
550.01	44830.62
550.18	44458.48
550.34	44779.13
550.51	44325.07
550.68	44809.56
550.84	44392.94
551.01	44973.39
551.18	44577.84
551.34	44765.09
551.51	45048.29
551.68	45507.04
551.84	44912.54
552.01	44737.00
552.18	45357.24
552.34	44706.57
552.51	44708.91
552.68	44968.71
552.84	45347.88
553.01	45371.28
553.18	45413.41
553.34	44917.22
553.51	45188.72
553.67	44898.50
553.84	45497.67
554.01	45326.81
554.17	45471.93
554.34	45551.51
554.51	45717.68
554.67	45853.44
554.84	45436.82
555.00	44753.38
555.17	45567.89
555.33	45663.85
555.50	45460.23
555.67	45380.65
555.83	45481.29
556.00	45902.59
556.16	45799.60
556.33	45102.12
556.50	45848.75
556.66	45797.26
556.83	45368.94
556.99	45993.87
557.16	45766.84
557.32	45694.28
557.49	45858.12
557.65	45509.38
557.82	45481.29
557.98	45663.85
558.15	45558.53
558.32	45668.53
558.48	45869.82
558.65	45633.42
558.81	45439.16
558.98	45514.06
559.14	45631.08
559.31	45806.62
559.47	46113.23
559.64	45755.13
559.80	46321.54
559.97	45762.15
560.13	45584.27
560.30	45872.16
560.46	46036.00
560.63	45792.58
560.79	46354.31
560.96	46447.93
561.12	46057.06
561.29	46146.00
561.45	46078.13
561.61	46122.60
561.78	46305.16
561.94	46010.25
562.11	45911.95
562.27	45874.50
562.44	46246.65
562.60	46429.21
562.77	46506.44
562.93	46059.40
563.10	46117.92
563.26	45581.93
563.42	46309.84
563.59	46181.11
563.75	46134.30
563.92	46265.37
564.08	46375.37
564.24	46351.97
564.41	46054.72
564.57	45818.33
564.74	46515.81
564.90	46344.95
565.07	46078.13
565.23	46312.18
565.39	46153.02
565.56	46213.88
565.72	46052.38
565.88	46450.27
566.05	46089.83
566.21	46263.03
566.38	46199.83
566.54	46518.15
566.70	46824.76
566.87	46518.15
567.03	46466.66
567.19	47030.72
567.36	46653.90
567.52	46635.17
567.68	46808.37
567.85	46525.17
568.01	46581.34
568.17	46124.94
568.34	46195.15
568.50	46199.83
568.66	46684.33
568.83	46426.87
568.99	45958.76
569.15	46061.74
569.32	46656.24
569.48	46368.35
569.64	46291.12
569.81	46700.71
569.97	46452.61
570.13	46553.26
570.30	46391.76
570.46	46190.47
570.62	46508.79
570.78	46478.36
570.95	46202.18
571.11	47061.15
571.27	46375.37
571.43	46621.13
571.60	46354.31
571.76	46574.32
571.92	46616.45
572.09	46639.86
572.25	46653.90
572.41	46508.79
572.57	46763.90
572.74	46504.10
572.90	46820.08
573.06	46686.67
573.22	46604.75
573.38	46454.95
573.55	46614.11
573.71	46651.56
573.87	46726.46
574.03	46415.16
574.20	46707.73
574.36	46710.07
574.52	46656.24
574.68	47040.09
574.84	46635.17
575.01	46330.90
575.17	46494.74
575.33	46396.44
575.49	46204.52
575.65	47250.74
575.82	46733.48
575.98	46967.53
576.14	46941.78
576.30	46813.05
576.46	46476.02
576.62	46574.32
576.79	46897.31
576.95	46476.02
577.11	46571.98
577.27	46960.51
577.43	46707.73
577.59	46082.81
577.75	46759.22
577.92	46171.75
578.08	46045.36
578.24	46263.03
578.40	46513.47
578.56	46775.61
578.72	46490.06
578.88	47000.30
579.04	46965.19
579.21	46628.15
579.37	46990.94
579.53	46609.43
579.69	46567.30
579.85	46841.14
580.01	46749.86
580.17	46504.10
580.33	46824.76
580.49	46801.35
580.65	46897.31
580.82	46799.01
580.98	46527.51
581.14	46459.63
581.30	46705.39
581.46	46990.94
581.62	46780.29
581.78	46967.53
581.94	46799.01
582.10	46621.13
582.26	46909.02
582.42	46951.15
582.58	46859.87
582.74	46857.52
582.90	46745.18
583.06	46941.78
583.22	46841.14
583.38	47124.35
583.54	47129.03
583.70	47309.25
583.86	46656.24
584.02	46543.89
584.18	47124.35
584.34	46752.20
584.50	46731.14
584.66	46810.71
584.82	46644.54
584.98	47126.69
585.14	46756.88
585.30	46693.69
585.46	46897.31
585.62	46724.11
585.78	46799.01
585.94	46412.82
586.10	46515.81
586.26	46726.46
586.42	47131.37
586.58	47124.35
586.74	46731.14
586.90	46461.97
587.06	46806.03
587.22	46696.03
587.38	46539.21
587.54	46862.21
587.70	46803.69
587.86	46611.77
588.02	46810.71
588.18	46602.41
588.34	46445.59
588.49	46333.24
588.65	45834.71
588.81	45823.01
588.97	46216.22
589.13	46155.36
589.29	46478.36
589.45	46738.16
589.61	46628.15
589.77	46724.11
589.93	46745.18
