SpectraSuite Data File
++++++++++++++++++++++++++++++++++++
Date: Fri Oct 25 11:25:51 EDT 2013
User: price-jones
Dark Spectrum Present: No
Reference Spectrum Present: No
Number of Sampled Component Spectra: 1
Spectrometers: USB2+H05261
Integration Time (usec): 100000 (USB2+H05261)
Spectra Averaged: 1 (USB2+H05261)
Boxcar Smoothing: 0 (USB2+H05261)
Correct for Electrical Dark: No (USB2+H05261)
Strobe/Lamp Enabled: No (USB2+H05261)
Correct for Detector Non-linearity: No (USB2+H05261)
Correct for Stray Light: No (USB2+H05261)
Number of Pixels in Processed Spectrum: 2048
>>>>>Begin Processed Spectral Data<<<<<
365.73	257.46
365.92	257.46
366.12	257.46
366.32	196.60
366.52	184.90
366.72	119.37
366.91	119.37
367.11	159.16
367.31	145.11
367.51	124.05
367.70	133.41
367.90	147.45
368.10	168.52
368.30	70.22
368.49	86.60
368.69	166.18
368.89	175.54
369.09	112.35
369.28	215.33
369.48	152.13
369.68	224.69
369.87	257.46
370.07	212.99
370.27	248.10
370.47	285.55
370.66	543.00
370.86	674.07
371.06	657.69
371.25	699.82
371.45	669.39
371.65	629.60
371.84	692.80
372.04	706.84
372.24	718.54
372.44	739.61
372.63	770.04
372.83	781.74
373.03	739.61
373.22	751.31
373.42	781.74
373.62	788.76
373.81	807.48
374.01	755.99
374.21	777.06
374.40	779.40
374.60	802.80
374.79	826.21
374.99	821.53
375.19	884.72
375.38	858.98
375.58	770.04
375.78	866.00
375.97	922.17
376.17	908.13
376.37	844.93
376.56	840.25
376.76	894.08
376.95	873.02
377.15	924.51
377.35	903.45
377.54	905.79
377.74	851.96
377.93	847.27
378.13	966.64
378.33	971.32
378.52	943.24
378.72	915.15
378.91	891.74
379.11	910.47
379.31	924.51
379.50	929.19
379.70	912.81
379.89	997.07
380.09	917.49
380.28	1039.20
380.48	983.02
380.68	1046.22
380.87	917.49
381.07	964.30
381.26	999.41
381.46	959.62
381.65	1060.26
381.85	976.00
382.04	1074.31
382.24	992.39
382.43	1076.65
382.63	1032.18
382.83	1142.18
383.02	1088.35
383.22	1142.18
383.41	1034.52
383.61	1109.41
383.80	1090.69
384.00	1018.13
384.19	1074.31
384.39	1104.73
384.58	1118.78
384.78	1144.52
384.97	1156.22
385.17	1153.88
385.36	1100.05
385.56	1167.93
385.75	1188.99
385.95	1254.53
386.14	1212.40
386.34	1158.57
386.53	1301.34
386.72	1224.10
386.92	1233.46
387.11	1181.97
387.31	1235.80
387.50	1135.16
387.70	1207.72
387.89	1174.95
388.09	1261.55
388.28	1188.99
388.48	1315.38
388.67	1343.47
388.86	1245.16
389.06	1411.34
389.25	1380.92
389.45	1406.66
389.64	1317.72
389.84	1406.66
390.03	1376.24
390.22	1444.11
390.42	1444.11
390.61	1322.40
390.81	1387.94
391.00	1409.00
391.19	1446.45
391.39	1486.24
391.58	1376.24
391.78	1533.05
391.97	1451.13
392.16	1476.88
392.36	1568.16
392.55	1493.26
392.75	1535.39
392.94	1479.22
393.13	1472.20
393.33	1514.33
393.52	1582.20
393.71	1584.54
393.91	1596.25
394.10	1547.09
394.29	1675.82
394.49	1582.20
394.68	1654.76
394.88	1631.35
395.07	1617.31
395.26	1666.46
395.46	1605.61
395.65	1701.57
395.84	1748.38
396.04	1774.13
396.23	1678.16
396.42	1720.29
396.62	1732.00
396.81	1706.25
397.00	1771.79
397.19	1935.62
397.39	1750.72
397.58	1858.39
397.77	1816.26
397.97	1846.68
398.16	1849.02
398.35	1912.22
398.55	1900.52
398.74	1804.55
398.93	1914.56
399.12	1935.62
399.32	2001.16
399.51	1930.94
399.70	1921.58
399.90	1996.48
400.09	2031.58
400.28	2062.01
400.47	2094.78
400.67	2134.57
400.86	2036.27
401.05	2026.90
401.24	2085.42
401.44	2134.57
401.63	2099.46
401.82	2092.44
402.01	2064.35
402.21	2165.00
402.40	2256.28
402.59	2118.18
402.78	2129.89
402.97	2120.53
403.17	2160.31
403.36	2235.21
403.55	2396.71
403.74	2303.09
403.93	2237.55
404.13	2326.49
404.32	2361.60
404.51	2382.67
404.70	2499.69
404.89	2410.75
405.09	2436.50
405.28	2485.65
405.47	2452.88
405.66	2326.49
405.85	2478.63
406.05	2546.50
406.24	2609.70
406.43	2565.23
406.62	2572.25
406.81	2726.72
407.00	2581.61
407.20	2569.91
407.39	2703.32
407.58	2698.64
407.77	2825.03
407.96	2801.62
408.15	2738.43
408.34	2726.72
408.54	2768.85
408.73	2813.32
408.92	2715.02
409.11	2904.60
409.30	2885.88
409.49	2942.05
409.68	2944.39
409.87	2967.80
410.07	2958.44
410.26	2892.90
410.45	2923.33
410.64	3054.40
410.83	3075.46
411.02	3171.43
411.21	3236.96
411.40	3038.02
411.59	3276.75
411.78	3030.99
411.98	3187.81
412.17	3269.73
412.36	3325.90
412.55	3393.78
412.74	3478.04
412.93	3391.44
413.12	3410.16
413.31	3506.12
413.50	3480.38
413.69	3508.46
413.88	3534.21
414.07	3602.08
414.26	3613.79
414.45	3719.11
414.64	3634.85
414.83	3716.77
415.02	3698.05
415.22	3812.73
415.41	3840.82
415.60	3894.65
415.79	3946.14
415.98	4009.34
416.17	4002.32
416.36	4154.45
416.55	4044.45
416.74	4124.02
416.93	3988.27
417.12	4126.36
417.31	4243.39
417.50	4117.00
417.69	4273.82
417.88	4334.67
418.07	4341.69
418.26	4278.50
418.45	4145.09
418.64	4573.41
418.83	4367.44
419.02	4407.23
419.21	4444.68
419.39	4610.86
419.58	4440.00
419.77	4339.35
419.96	4547.66
420.15	4624.90
420.34	4638.94
420.53	4554.68
420.72	4587.45
420.91	4652.98
421.10	4643.62
421.29	4739.58
421.48	4734.90
421.67	4720.86
421.86	4683.41
422.05	4835.55
422.24	4847.25
422.43	4894.06
422.61	4999.38
422.80	4873.00
422.99	5008.75
423.18	5015.77
423.37	4875.34
423.56	4919.81
423.75	4926.83
423.94	4809.80
424.13	4482.13
424.32	4819.16
424.50	4954.91
424.69	5210.03
424.88	5043.85
425.07	4896.40
425.26	4936.19
425.45	4936.19
425.64	4919.81
425.83	4919.81
426.01	5004.07
426.20	5041.51
426.39	5118.75
426.58	5071.94
426.77	4901.08
426.96	5006.41
427.15	5139.82
427.33	5153.86
427.52	5088.32
427.71	5263.86
427.90	5334.08
428.09	5329.40
428.28	5418.34
428.46	5334.08
428.65	5301.31
428.84	5628.99
429.03	5502.60
429.22	5373.87
429.40	5434.72
429.59	5390.25
429.78	5247.48
429.97	5296.63
430.16	5575.16
430.34	5497.92
430.53	5750.70
430.72	5640.69
430.91	5612.60
431.10	5696.86
431.28	5760.06
431.47	5748.36
431.66	5804.53
431.85	5612.60
432.03	5989.43
432.22	5944.96
432.41	5771.76
432.60	5844.32
432.79	5767.08
432.97	5870.06
433.16	6017.52
433.35	5858.36
433.54	5919.21
433.72	6286.68
433.91	5980.07
434.10	6282.00
434.28	6209.44
434.47	6202.42
434.66	6106.46
434.85	6211.78
435.03	6253.91
435.22	6289.02
435.41	6401.37
435.59	6408.39
435.78	6380.30
435.97	6420.09
436.16	6473.92
436.34	6410.73
436.53	6441.15
436.72	6600.31
436.90	6270.30
437.09	6656.48
437.28	6455.20
437.46	6677.55
437.65	6621.38
437.84	6621.38
438.02	6729.04
438.21	6719.68
438.40	6647.12
438.58	7012.24
438.77	6986.50
438.96	7119.91
439.14	7054.37
439.33	7227.57
439.52	7101.19
439.70	7211.19
439.89	7126.93
440.08	7218.21
440.26	7295.45
440.45	7267.36
440.63	7487.37
440.82	7627.81
441.01	7618.44
441.19	7557.59
441.38	7688.66
441.57	7644.19
441.75	7733.13
441.94	7941.44
442.12	7847.82
442.31	7915.69
442.50	7981.23
442.68	7681.64
442.87	7971.86
443.05	8084.21
443.24	8273.79
443.43	8135.70
443.61	8262.09
443.80	8416.57
443.98	8107.62
444.17	7705.04
444.35	8149.75
444.54	8259.75
444.73	8407.20
444.91	8145.06
445.10	8273.79
445.28	8346.35
445.47	8215.28
445.65	8229.32
445.84	8449.33
446.02	8559.34
446.21	8358.05
446.39	8245.71
446.58	8383.80
446.77	8505.51
446.95	8320.60
447.14	8376.78
447.32	8369.76
447.51	8496.14
447.69	8512.53
447.88	8468.06
448.06	8514.87
448.25	8470.40
448.43	8664.66
448.62	8444.65
448.80	8610.83
448.99	8531.25
449.17	8737.22
449.36	8631.90
449.54	8828.50
449.73	8990.00
449.91	8819.14
450.10	8929.14
450.28	8887.01
450.46	9100.00
450.65	8851.91
450.83	9261.50
451.02	8961.91
451.20	9188.94
451.39	9090.64
451.57	9025.11
451.76	9095.32
451.94	9118.73
452.13	9312.99
452.31	9387.89
452.49	9287.25
452.68	9238.09
452.86	9130.43
453.05	9352.78
453.23	9535.34
453.42	9441.72
453.60	9317.67
453.78	9584.49
453.97	9479.17
454.15	9638.33
454.34	9268.52
454.52	9589.17
454.70	9734.29
454.89	9870.04
455.07	9745.99
455.26	9872.38
455.44	9839.61
455.62	9846.63
455.81	9818.55
455.99	9942.60
456.17	9879.40
456.36	10087.71
456.54	10033.88
456.73	9970.68
456.91	10431.77
457.09	10359.21
457.28	10649.44
457.46	10363.89
457.64	10422.41
457.83	10595.61
458.01	10176.65
458.19	10700.93
458.38	10654.12
458.56	10789.87
458.74	10874.13
458.93	10614.33
459.11	10710.29
459.29	10640.08
459.48	10544.11
459.66	10810.93
459.84	10691.57
460.03	11037.97
460.21	10794.55
460.39	11014.56
460.57	10857.75
460.76	11140.95
460.94	11145.63
461.12	10871.79
461.31	10829.66
461.49	11115.20
461.67	11077.76
461.85	11382.03
462.04	11136.27
462.22	11587.99
462.40	11590.33
462.59	11440.54
462.77	11419.47
462.95	11510.75
463.13	11639.48
463.32	11529.48
463.50	11854.81
463.68	11681.61
463.86	11784.60
464.05	11735.45
464.23	11634.80
464.41	11866.52
464.59	11686.29
464.78	11960.14
464.96	11971.84
465.14	11887.58
465.32	12020.99
465.50	12159.08
465.69	12023.33
465.87	11815.02
466.05	12018.65
466.23	12238.66
466.41	11995.25
466.60	12547.61
466.78	11854.81
466.96	12131.00
467.14	12233.98
467.32	12208.23
467.51	12409.52
467.69	12175.47
467.87	12369.73
468.05	12517.18
468.23	12273.77
468.41	12414.20
468.60	12519.53
468.78	12765.28
468.96	12652.94
469.14	12517.18
469.32	12772.30
469.50	12528.89
469.69	13046.15
469.87	13018.06
470.05	12980.61
470.23	13212.32
470.41	13125.72
470.59	12996.99
470.77	13179.56
470.95	13107.00
471.14	13394.89
471.32	13200.62
471.50	13516.59
471.68	13415.95
471.86	13556.38
472.04	13540.00
472.22	14230.46
472.40	13540.00
472.58	13832.57
472.77	13769.37
472.95	14115.77
473.13	14298.33
473.31	13954.27
473.49	14183.65
473.67	14108.75
473.85	14115.77
474.03	14937.30
474.21	14572.18
474.39	14721.97
474.57	14689.20
474.75	14600.26
474.93	14700.90
475.12	14829.63
475.30	14984.11
475.48	14937.30
475.66	15140.93
475.84	15047.30
476.02	15344.55
476.20	15073.05
476.38	15712.02
476.56	15742.44
476.74	15791.59
476.92	15791.59
477.10	15789.25
477.28	16016.29
477.46	15939.05
477.64	16343.96
477.82	16538.23
478.00	16849.52
478.18	16634.19
478.36	16992.29
478.54	17041.44
478.72	17198.26
478.90	17301.24
479.08	17474.44
479.26	17186.55
479.44	17596.15
479.62	17642.96
479.80	17785.73
479.98	17958.93
480.16	18356.82
480.34	18251.50
480.52	18391.93
480.70	18548.75
480.88	18321.71
481.06	18787.48
481.24	18838.97
481.41	18953.66
481.59	19386.66
481.77	19662.84
481.95	19403.04
482.13	19765.82
482.31	19510.71
482.49	20257.34
482.67	20093.50
482.85	20374.36
483.03	20475.01
483.21	20788.64
483.39	20840.13
483.57	21043.76
483.74	21069.50
483.92	21472.07
484.10	21139.72
484.28	21607.83
484.46	21802.09
484.64	22298.28
484.82	21947.20
485.00	22317.01
485.18	22548.72
485.35	22761.71
485.53	22967.68
485.71	22689.15
485.89	23480.25
486.07	23021.51
486.25	23307.05
486.43	23283.65
486.61	23606.64
486.78	24020.92
486.96	24285.40
487.14	24301.78
487.32	24638.82
487.50	24697.33
487.68	24809.68
487.85	25357.36
488.03	25521.20
488.21	25818.45
488.39	25743.55
488.57	25832.49
488.75	25858.24
488.92	26232.72
489.10	26462.10
489.28	26852.97
489.46	26974.67
489.64	27054.25
489.81	27571.51
489.99	27515.34
490.17	27756.41
490.35	28198.77
490.53	28210.48
490.70	28332.18
490.88	28105.15
491.06	28629.43
491.24	28811.99
491.41	28535.81
491.59	29219.25
491.77	28957.11
491.95	29434.58
492.13	29748.21
492.30	29694.38
492.48	29844.17
492.66	30043.12
492.84	29972.90
493.01	30221.00
493.19	30728.89
493.37	30562.72
493.54	31070.61
493.72	30951.24
493.90	31201.68
494.08	31791.50
494.25	31864.05
494.43	31917.89
494.61	32147.26
494.79	32142.58
494.96	32175.34
495.14	32645.79
495.32	32566.21
495.49	32968.79
495.67	33064.75
495.85	33446.26
496.02	33577.33
496.20	33926.07
496.38	33916.70
496.55	33900.32
496.73	34415.24
496.91	34127.35
497.09	34740.57
497.26	34754.61
497.44	34742.91
497.62	35321.02
497.79	35534.01
497.97	35386.56
498.14	35957.65
498.32	35751.68
498.50	36240.86
498.67	36362.56
498.85	36449.16
499.03	36491.29
499.20	36512.36
499.38	36247.88
499.56	36589.59
499.73	37191.11
499.91	36989.83
500.08	37570.28
500.26	37184.09
500.44	37706.03
500.61	37968.17
500.79	37354.95
500.97	37963.49
501.14	38295.85
501.32	38415.21
501.49	37940.08
501.67	38829.49
501.84	38586.07
502.02	38693.74
502.20	38880.98
502.37	39077.58
502.55	39026.09
502.72	39229.72
502.90	39140.78
503.07	39421.64
503.25	39573.78
503.43	39627.61
503.60	39971.67
503.78	40165.93
503.95	40142.53
504.13	40196.36
504.30	40222.11
504.48	40437.44
504.65	40587.23
504.83	41099.81
505.01	41270.67
505.18	40830.65
505.36	41095.13
505.53	41265.99
505.71	41483.66
505.88	41270.67
506.06	41542.17
506.23	41607.70
506.41	41684.94
506.58	41855.80
506.76	42183.48
506.93	42445.62
507.11	42394.12
507.28	42185.82
507.46	42658.60
507.63	42880.95
507.81	42948.83
507.98	42705.41
508.16	43185.22
508.33	43225.01
508.50	43316.29
508.68	42953.51
508.85	43157.14
509.03	43576.09
509.20	43690.78
509.38	43964.62
509.55	43765.68
509.73	44655.08
509.90	44065.27
510.08	44086.33
510.25	44479.54
510.42	44435.07
510.60	44968.71
510.77	45006.16
510.95	45467.25
511.12	44882.11
511.30	44521.67
511.47	45120.85
511.64	45455.54
511.82	45661.51
511.99	45387.67
512.17	45794.92
512.34	45591.30
512.51	46211.54
512.69	46167.07
512.86	46003.23
513.04	46822.42
513.21	46459.63
513.38	46508.79
513.56	46567.30
513.73	46595.38
513.90	46658.58
514.08	46932.42
514.25	46993.28
514.43	47466.06
514.60	47129.03
514.77	47122.01
514.95	47386.49
515.12	47555.00
515.29	47374.78
515.47	47686.07
515.64	47856.93
515.81	47775.02
515.99	47887.36
516.16	48112.05
516.33	48076.94
516.51	48725.27
516.68	48318.02
516.85	48446.75
517.03	48755.70
517.20	48694.85
517.37	48802.51
517.54	48484.20
517.72	49081.03
517.89	48879.75
518.06	48783.79
518.24	48949.96
518.41	49455.52
518.58	49399.35
518.75	49165.29
518.93	49240.19
519.10	49322.11
519.27	49574.89
519.45	49670.85
519.62	49825.32
519.79	50054.70
519.96	49577.23
520.14	50003.20
520.31	50082.78
520.48	50035.97
520.65	49975.12
520.83	50403.44
521.00	50475.99
521.17	50443.23
521.34	50356.63
521.52	50136.62
521.69	50658.56
521.86	50883.25
522.03	50946.44
522.20	51210.92
522.38	51152.41
522.55	51168.79
522.72	50927.72
522.89	51173.47
523.07	51484.76
523.24	51236.67
523.41	51508.17
523.58	51042.40
523.75	51576.04
523.92	51875.63
524.10	51782.01
524.27	51819.46
524.44	51786.69
524.61	51774.99
524.78	51908.40
524.96	51779.67
525.13	52055.85
525.30	51934.15
525.47	52495.88
525.64	52303.95
525.81	52437.36
525.98	52549.71
526.16	52467.79
526.33	52676.10
526.50	52657.37
526.67	52839.93
526.84	52610.56
527.01	52940.58
527.18	52781.42
527.36	52549.71
527.53	52907.81
527.70	53134.84
527.87	53010.79
528.04	53230.80
528.21	53031.86
528.38	53441.45
528.55	53460.18
528.72	53324.43
528.89	53200.38
529.07	53158.25
529.24	53198.04
529.41	53642.74
529.58	53542.10
529.75	53680.19
529.92	53490.60
530.09	53633.38
530.26	53790.19
530.43	53794.87
530.60	53848.71
530.77	53668.48
530.94	53907.22
531.11	53797.21
531.28	53902.54
531.46	53698.91
531.63	54415.11
531.80	53911.90
531.97	54101.48
532.14	54368.30
532.31	54281.70
532.48	54426.82
532.65	54316.81
532.82	54335.54
532.99	54801.30
533.16	54452.56
533.33	54609.38
533.50	54733.43
533.67	54742.79
533.84	54553.21
534.01	54747.47
534.18	54901.95
534.35	55168.77
534.52	54827.05
534.69	54813.01
534.86	55126.64
535.03	55133.66
535.20	55320.90
535.37	55318.56
535.54	55370.05
535.71	54974.50
535.88	55203.88
536.05	55386.44
536.22	55487.08
536.38	55210.90
536.55	55524.53
536.72	55512.83
536.89	55248.35
537.06	55543.25
537.23	55398.14
537.40	55444.95
537.57	55721.13
537.74	55414.52
537.91	55683.69
538.08	55821.78
538.25	55203.88
538.42	55763.26
538.59	55931.78
538.75	55805.39
538.92	56041.79
539.09	56002.00
539.26	55845.18
539.43	56170.52
539.60	56079.24
539.77	56051.15
539.94	56137.75
540.11	56327.33
540.28	56210.31
540.44	56449.04
540.61	56147.11
540.78	56526.28
540.95	56570.75
541.12	56430.32
541.29	56203.28
541.46	56409.25
541.62	56552.02
541.79	56308.61
541.96	56268.82
542.13	56317.97
542.30	56477.13
542.47	56741.61
542.63	56938.21
542.80	56938.21
542.97	56959.28
543.14	57095.03
543.31	56877.36
543.48	57207.37
543.64	57174.61
543.81	57418.02
543.98	57303.34
544.15	57261.21
544.32	57340.78
544.48	57373.55
544.65	57193.33
544.82	57291.63
544.99	57160.56
545.16	57354.83
545.32	57193.33
545.49	57382.91
545.66	57687.18
545.83	57530.37
546.00	57631.01
546.16	57549.09
546.33	57396.96
546.50	57289.29
546.67	57759.74
546.83	57256.53
547.00	57649.74
547.17	57663.78
547.34	57593.56
547.50	57820.59
547.67	57801.87
547.84	57848.68
548.00	58092.10
548.17	58356.58
548.34	57982.09
548.51	58099.12
548.67	58092.10
548.84	57907.19
549.01	57918.90
549.18	58106.14
549.34	58145.93
549.51	57893.15
549.68	58356.58
549.84	58293.38
550.01	58429.13
550.18	58045.29
550.34	58384.66
550.51	58656.17
550.68	58223.17
550.84	57935.28
551.01	58419.77
551.18	58401.05
551.34	58618.72
551.51	58375.30
551.68	58316.79
551.84	58431.47
552.01	58298.06
552.18	58471.26
552.34	58239.55
552.51	58653.82
552.68	58368.28
552.84	58726.38
553.01	58852.77
553.18	58550.84
553.34	58827.02
553.51	58635.10
553.67	58653.82
553.84	58908.94
554.01	58897.24
554.17	58894.90
554.34	58862.13
554.51	58948.73
554.67	58845.75
554.84	59040.01
555.00	58791.92
555.17	58913.62
555.33	58944.05
555.50	58801.28
555.67	59016.61
555.83	58838.73
556.00	59030.65
556.16	59295.13
556.33	59042.35
556.50	58997.88
556.66	59168.74
556.83	58990.86
556.99	59323.22
557.16	59370.03
557.32	59421.52
557.49	59461.31
557.65	59220.23
557.82	59213.21
557.98	59072.78
558.15	59166.40
558.32	59536.21
558.48	58997.88
558.65	59231.94
558.81	59463.65
558.98	59405.14
559.14	59475.35
559.31	59561.95
559.47	59639.19
559.64	59667.28
559.80	59688.34
559.97	59592.38
560.13	59660.26
560.30	59599.40
560.46	59400.46
560.63	59742.17
560.79	59597.06
560.96	59730.47
561.12	59613.44
561.29	59723.45
561.45	59854.52
561.61	59737.49
561.78	59840.48
561.94	59718.77
562.11	59667.28
562.27	59737.49
562.44	59805.37
562.60	59861.54
562.77	59847.50
562.93	59718.77
563.10	60224.32
563.26	59882.61
563.42	60055.81
563.59	59845.16
563.75	59812.39
563.92	59805.37
564.08	59938.78
564.24	60126.02
564.41	59938.78
564.57	60013.68
564.74	59980.91
564.90	60069.85
565.07	59945.80
565.23	59987.93
565.39	60107.30
565.56	60116.66
565.72	60018.36
565.88	60006.65
566.05	60018.36
566.21	60088.57
566.38	60179.85
566.54	60179.85
566.70	60381.14
566.87	60420.93
567.03	60088.57
567.19	60221.98
567.36	60292.20
567.52	60280.50
567.68	60427.95
567.85	60114.32
568.01	60367.10
568.17	60278.16
568.34	60521.57
568.50	60165.81
568.66	60196.24
568.83	60378.80
568.99	59957.50
569.15	60399.86
569.32	60240.71
569.48	60254.75
569.64	60434.97
569.81	60247.73
569.97	60275.82
570.13	60456.04
570.30	60331.99
570.46	60355.39
570.62	60516.89
570.78	60229.01
570.95	60177.51
571.11	60437.31
571.27	60528.59
571.43	60322.63
571.60	60542.64
571.76	60514.55
571.92	60357.74
572.09	60472.42
572.25	60535.62
572.41	60456.04
572.57	60341.35
572.74	60762.65
572.90	60612.85
573.06	60420.93
573.22	60343.69
573.38	60521.57
573.55	60299.22
573.71	60676.05
573.87	60633.92
574.03	60310.92
574.20	60446.68
574.36	60406.89
574.52	60638.60
574.68	60687.75
574.84	60692.43
575.01	60692.43
575.17	60486.46
575.33	60521.57
575.49	60467.74
575.65	60704.13
575.82	60779.03
575.98	60552.00
576.14	60952.23
576.30	60795.42
576.46	60748.60
576.62	60678.39
576.79	60540.30
576.95	60638.60
577.11	60523.91
577.27	60762.65
577.43	60512.21
577.59	60697.11
577.75	60715.84
577.92	60610.51
578.08	60788.39
578.24	60739.24
578.40	60835.20
578.56	60631.58
578.72	60804.78
578.88	60851.59
579.04	60853.93
579.21	60685.41
579.37	60786.05
579.53	60776.69
579.69	60680.73
579.85	60835.20
580.01	60694.77
580.17	60638.60
580.33	60795.42
580.49	60889.04
580.65	60783.71
580.82	60720.52
580.98	60851.59
581.14	60654.98
581.30	60928.83
581.46	60701.79
581.62	60891.38
581.78	60610.51
581.94	60961.59
582.10	60828.18
582.26	60692.43
582.42	60718.18
582.58	60788.39
582.74	60633.92
582.90	60807.12
583.06	60734.56
583.22	60631.58
583.38	60818.82
583.54	60844.57
583.70	60739.24
583.86	60832.86
584.02	60846.91
584.18	60811.80
584.34	60779.03
584.50	60713.50
584.66	60839.89
584.82	60701.79
584.98	60985.00
585.14	61120.75
585.30	60633.92
585.46	60963.93
585.62	60949.89
585.78	60996.70
585.94	60800.10
586.10	60973.30
586.26	60835.20
586.42	61073.94
586.58	60947.55
586.74	60825.84
586.90	60926.49
587.06	60788.39
587.22	60931.17
587.38	60846.91
587.54	61071.60
587.70	61186.28
587.86	61123.09
588.02	60921.80
588.18	60989.68
588.34	60797.76
588.49	60804.78
