SpectraSuite Data File
++++++++++++++++++++++++++++++++++++
Date: Fri Oct 25 11:23:57 EDT 2013
User: price-jones
Dark Spectrum Present: No
Reference Spectrum Present: No
Number of Sampled Component Spectra: 1
Spectrometers: USB2+H05261
Integration Time (usec): 100000 (USB2+H05261)
Spectra Averaged: 1 (USB2+H05261)
Boxcar Smoothing: 0 (USB2+H05261)
Correct for Electrical Dark: No (USB2+H05261)
Strobe/Lamp Enabled: No (USB2+H05261)
Correct for Detector Non-linearity: No (USB2+H05261)
Correct for Stray Light: No (USB2+H05261)
Number of Pixels in Processed Spectrum: 2048
>>>>>Begin Processed Spectral Data<<<<<
365.73	210.65
365.92	210.65
366.12	210.65
366.32	168.52
366.52	170.86
366.72	149.79
366.91	194.26
367.11	131.07
367.31	175.54
367.51	121.71
367.70	84.26
367.90	126.39
368.10	175.54
368.30	138.09
368.49	180.22
368.69	198.95
368.89	177.88
369.09	187.24
369.28	156.82
369.48	180.22
369.68	119.37
369.87	212.99
370.07	124.05
370.27	257.46
370.47	339.38
370.66	566.41
370.86	634.29
371.06	678.76
371.25	610.88
371.45	720.88
371.65	723.23
371.84	713.86
372.04	711.52
372.24	716.20
372.44	732.59
372.63	788.76
372.83	767.70
373.03	755.99
373.22	704.50
373.42	711.52
373.62	702.16
373.81	842.59
374.01	837.91
374.21	835.57
374.40	800.46
374.60	770.04
374.79	854.30
374.99	723.23
375.19	821.53
375.38	863.66
375.58	887.06
375.78	931.53
375.97	912.81
376.17	889.40
376.37	833.23
376.56	940.90
376.76	936.21
376.95	858.98
377.15	868.34
377.35	903.45
377.54	849.61
377.74	861.32
377.93	926.85
378.13	903.45
378.33	938.55
378.52	880.04
378.72	952.60
378.91	961.96
379.11	926.85
379.31	973.66
379.50	912.81
379.70	926.85
379.89	961.96
380.09	964.30
380.28	968.98
380.48	1053.24
380.68	936.21
380.87	919.83
381.07	992.39
381.26	978.34
381.46	999.41
381.65	999.41
381.85	1001.75
382.04	1025.15
382.24	976.00
382.43	1151.54
382.63	980.68
382.83	1043.88
383.02	1055.58
383.22	1114.10
383.41	1104.73
383.61	1156.22
383.80	1153.88
384.00	1001.75
384.19	1137.50
384.39	1210.06
384.58	1172.61
384.78	1132.82
384.97	1163.25
385.17	1181.97
385.36	1069.62
385.56	1268.57
385.75	1188.99
385.95	1177.29
386.14	1114.10
386.34	1142.18
386.53	1242.82
386.72	1240.48
386.92	1254.53
387.11	1224.10
387.31	1277.93
387.50	1200.69
387.70	1270.91
387.89	1275.59
388.09	1294.32
388.28	1296.66
388.48	1275.59
388.67	1268.57
388.86	1289.64
389.06	1301.34
389.25	1299.00
389.45	1338.79
389.64	1263.89
389.84	1306.02
390.03	1455.81
390.22	1301.34
390.42	1357.51
390.61	1369.21
390.81	1462.83
391.00	1418.36
391.19	1373.89
391.39	1451.13
391.58	1430.07
391.78	1467.52
391.97	1448.79
392.16	1493.26
392.36	1486.24
392.55	1591.56
392.75	1542.41
392.94	1568.16
393.13	1500.28
393.33	1561.14
393.52	1612.63
393.71	1558.80
393.91	1563.48
394.10	1579.86
394.29	1621.99
394.49	1577.52
394.68	1694.55
394.88	1645.40
395.07	1664.12
395.26	1682.85
395.46	1694.55
395.65	1633.69
395.84	1739.02
396.04	1830.30
396.23	1755.40
396.42	1767.10
396.62	1717.95
396.81	1790.51
397.00	1750.72
397.19	1743.70
397.39	1736.68
397.58	1715.61
397.77	1820.94
397.97	1909.88
398.16	1804.55
398.35	1846.68
398.55	1879.45
398.74	1914.56
398.93	1956.69
399.12	1942.64
399.32	1827.96
399.51	1975.41
399.70	2069.03
399.90	1977.75
400.09	2094.78
400.28	2012.86
400.47	1994.14
400.67	2083.08
400.86	2139.25
401.05	2132.23
401.24	2174.36
401.44	2040.95
401.63	2188.40
401.82	2244.57
402.01	2162.66
402.21	2172.02
402.40	2090.10
402.59	2143.93
402.78	2188.40
402.97	2148.61
403.17	2293.72
403.36	2251.60
403.55	2249.25
403.74	2342.88
403.93	2366.28
404.13	2305.43
404.32	2317.13
404.51	2314.79
404.70	2359.26
404.89	2385.01
405.09	2537.14
405.28	2441.18
405.47	2476.29
405.66	2525.44
405.85	2567.57
406.05	2497.35
406.24	2614.38
406.43	2614.38
406.62	2642.46
406.81	2736.09
407.00	2609.70
407.20	2621.40
407.39	2605.02
407.58	2782.90
407.77	2724.38
407.96	2848.43
408.15	2708.00
408.34	2738.43
408.54	2761.83
408.73	2785.24
408.92	2853.11
409.11	2843.75
409.30	2960.78
409.49	2937.37
409.68	2827.37
409.87	2920.99
410.07	2984.18
410.26	3052.06
410.45	2918.65
410.64	2935.03
410.83	3038.02
411.02	3005.25
411.21	3150.36
411.40	3063.76
411.59	3339.94
411.78	3229.94
411.98	3171.43
412.17	3279.09
412.36	3337.60
412.55	3236.96
412.74	3499.10
412.93	3412.50
413.12	3342.28
413.31	3679.32
413.50	3611.45
413.69	3471.01
413.88	3574.00
414.07	3620.81
414.26	3616.13
414.45	3749.54
414.64	3646.55
414.83	3653.58
415.02	3721.45
415.22	3918.06
415.41	3988.27
415.60	3777.62
415.79	3885.29
415.98	3871.25
416.17	3927.42
416.36	4039.76
416.55	4084.23
416.74	4149.77
416.93	3950.82
417.12	4173.18
417.31	4156.79
417.50	4142.75
417.69	4449.36
417.88	4365.10
418.07	4259.78
418.26	4388.50
418.45	4367.44
418.64	4655.33
418.83	4489.15
419.02	4524.26
419.21	4533.62
419.39	4505.53
419.58	4510.21
419.77	4374.46
419.96	4589.79
420.15	4580.43
420.34	4634.26
420.53	4655.33
420.72	4800.44
420.91	4669.37
421.10	4739.58
421.29	4809.80
421.48	4517.23
421.67	4770.01
421.86	4739.58
422.05	4805.12
422.24	4709.16
422.43	4753.63
422.61	4772.35
422.80	5018.11
422.99	4922.15
423.18	5043.85
423.37	4964.28
423.56	4678.73
423.75	4767.67
423.94	4961.94
424.13	4484.47
424.32	4863.63
424.50	5062.58
424.69	5179.61
424.88	5212.37
425.07	4901.08
425.26	4819.16
425.45	4891.72
425.64	5011.09
425.83	5006.41
426.01	4945.55
426.20	5125.77
426.39	5139.82
426.58	5048.54
426.77	5011.09
426.96	5226.42
427.15	5083.64
427.33	5177.26
427.52	5298.97
427.71	5427.70
427.90	5097.69
428.09	5327.06
428.28	5383.23
428.46	5289.61
428.65	5348.12
428.84	5621.97
429.03	5472.17
429.22	5561.11
429.40	5273.23
429.59	5561.11
429.78	5418.34
429.97	5273.23
430.16	5561.11
430.34	5563.45
430.53	5678.14
430.72	5671.12
430.91	5575.16
431.10	5542.39
431.28	5734.31
431.47	5895.81
431.66	5830.27
431.85	5720.27
432.03	6045.60
432.22	6045.60
432.41	6001.13
432.60	5799.85
432.79	6179.01
432.97	6059.65
433.16	6111.14
433.35	6066.67
433.54	6045.60
433.72	6012.84
433.91	6047.94
434.10	6176.67
434.28	6188.38
434.47	6036.24
434.66	6230.51
434.85	6249.23
435.03	6331.15
435.22	6195.40
435.41	6590.95
435.59	6450.52
435.78	6382.64
435.97	6487.96
436.16	6417.75
436.34	6324.13
436.53	6530.09
436.72	6516.05
436.90	6649.46
437.09	6745.42
437.28	6506.69
437.46	6452.86
437.65	6757.13
437.84	6771.17
438.02	6771.17
438.21	6906.92
438.40	6621.38
438.58	7103.53
438.77	7110.55
438.96	6843.73
439.14	7197.15
439.33	7148.00
439.52	7061.40
439.70	7213.53
439.89	7330.56
440.08	7339.92
440.26	7403.11
440.45	7494.40
440.63	7459.29
440.82	7686.32
441.01	7573.97
441.19	7503.76
441.38	7829.09
441.57	7843.14
441.75	7716.75
441.94	7939.10
442.12	8030.38
442.31	8098.25
442.50	7903.99
442.68	8039.74
442.87	8004.63
443.05	8226.98
443.24	8067.83
443.43	8203.58
443.61	8241.03
443.80	8545.30
443.98	8088.89
444.17	7911.01
444.35	8264.43
444.54	8435.29
444.73	8339.33
444.91	8353.37
445.10	8446.99
445.28	8208.26
445.47	8411.89
445.65	8262.09
445.84	8540.61
446.02	8383.80
446.21	8360.39
446.39	8489.12
446.58	8411.89
446.77	8634.24
446.95	8107.62
447.14	8386.14
447.32	8355.71
447.51	8538.27
447.69	8486.78
447.88	8540.61
448.06	8652.96
448.25	8657.64
448.43	8477.42
448.62	8496.14
448.80	8439.97
448.99	8648.28
449.17	8610.83
449.36	8725.52
449.54	8802.75
449.73	9043.83
449.91	9097.66
450.10	8793.39
450.28	9104.68
450.46	9071.92
450.65	9050.85
450.83	9048.51
451.02	9029.79
451.20	9177.24
451.39	9074.26
451.57	9170.22
451.76	8987.66
451.94	9165.54
452.13	9383.21
452.31	9240.44
452.49	9156.18
452.68	9408.95
452.86	9343.42
453.05	9516.62
453.23	9549.39
453.42	9362.14
453.60	9610.24
453.78	9696.84
453.97	9554.07
454.15	9624.28
454.34	9563.43
454.52	9710.88
454.70	9547.05
454.89	9788.12
455.07	9598.54
455.26	9652.37
455.44	9951.96
455.62	9905.15
455.81	9844.29
455.99	9954.30
456.17	9858.34
456.36	9891.10
456.54	10162.61
456.73	10356.87
456.91	10382.62
457.09	10471.56
457.28	10399.00
457.46	10389.64
457.64	10324.10
457.83	10609.65
458.01	10436.45
458.19	10766.46
458.38	10352.19
458.56	10757.10
458.74	10663.48
458.93	10511.35
459.11	10679.86
459.29	10796.89
459.48	10752.42
459.66	10857.75
459.84	10775.83
460.03	11089.46
460.21	10916.26
460.39	10843.70
460.57	10944.34
460.76	11187.76
460.94	11302.45
461.12	11162.01
461.31	11164.36
461.49	11084.78
461.67	11218.19
461.85	11323.51
462.04	11435.86
462.22	11470.97
462.40	11698.00
462.59	11386.71
462.77	11623.10
462.95	11585.65
463.13	11609.06
463.32	11433.52
463.50	11723.74
463.68	11737.79
463.86	11733.11
464.05	11590.33
464.23	11569.27
464.41	11861.84
464.59	11637.14
464.78	12142.70
464.96	11946.09
465.14	11683.95
465.32	12042.06
465.50	12102.91
465.69	11978.86
465.87	12322.92
466.05	12159.08
466.23	12320.58
466.41	12173.13
466.60	12468.03
466.78	12283.13
466.96	12119.29
467.14	12283.13
467.32	12386.12
467.51	12587.40
467.69	12194.19
467.87	12484.42
468.05	12690.38
468.23	12568.68
468.41	12437.61
468.60	12571.02
468.78	12957.21
468.96	12648.26
469.14	12901.03
469.32	13277.86
469.50	12606.13
469.69	13104.66
469.87	13064.87
470.05	13233.39
470.23	13083.59
470.41	13015.72
470.59	13408.93
470.77	13476.80
470.95	13282.54
471.14	13446.38
471.32	13158.49
471.50	13561.06
471.68	13846.61
471.86	13745.97
472.04	13771.71
472.22	14078.32
472.40	13870.01
472.58	13858.31
472.77	13954.27
472.95	13898.10
473.13	14618.99
473.31	14008.11
473.49	14059.60
473.67	14265.57
473.85	14420.04
474.03	14848.36
474.21	14583.88
474.39	14796.87
474.57	14843.68
474.75	15002.83
474.93	15098.80
475.12	15082.41
475.30	15183.06
475.48	14939.64
475.66	14977.09
475.84	15260.29
476.02	15487.32
476.20	15562.22
476.38	15957.77
476.56	15927.35
476.74	16119.27
476.92	16044.37
477.10	15946.07
477.28	16100.55
477.46	16189.49
477.64	16290.13
477.82	16201.19
478.00	17020.38
478.18	16823.77
478.36	16957.18
478.54	17277.83
478.72	17287.20
478.90	17535.29
479.08	17678.07
479.26	17717.86
479.44	17867.65
479.62	17940.21
479.80	17846.58
479.98	18176.60
480.16	18625.98
480.34	18675.13
480.52	18663.43
480.70	18436.40
480.88	18466.83
481.06	18728.97
481.24	18981.74
481.41	19185.37
481.59	19337.51
481.77	19447.51
481.95	19302.40
482.13	19740.08
482.31	19761.14
482.49	20166.06
482.67	20020.94
482.85	20432.88
483.03	20568.63
483.21	20985.24
483.39	20973.54
483.57	21097.59
483.74	21186.53
483.92	21245.04
484.10	21156.10
484.28	21750.60
484.46	22157.85
484.64	22239.77
484.82	21961.25
485.00	22232.75
485.18	22953.63
485.35	23293.01
485.53	22984.06
485.71	22993.42
485.89	23651.11
486.07	23271.95
486.25	23534.09
486.43	23578.56
486.61	23737.71
486.78	24477.32
486.96	24243.27
487.14	24680.95
487.32	24875.21
487.50	24917.34
487.68	25010.96
487.85	25397.15
488.03	25607.80
488.21	25923.77
488.39	26038.46
488.57	26284.22
488.75	26422.31
488.92	26270.17
489.10	26654.02
489.28	26906.80
489.46	27447.46
489.64	26937.23
489.81	27323.41
489.99	27981.10
490.17	27777.48
490.35	28294.74
490.53	28105.15
490.70	28620.07
490.88	28594.32
491.06	29181.80
491.24	29008.60
491.41	29104.56
491.59	29294.14
491.77	29490.75
491.95	29619.48
492.13	29593.73
492.30	30487.82
492.48	30342.70
492.66	30426.96
492.84	30281.85
493.01	31023.80
493.19	30586.12
493.37	31246.15
493.54	31084.65
493.72	31725.96
493.90	31494.25
494.08	32063.00
494.25	32112.15
494.43	32119.17
494.61	32442.17
494.79	32540.47
494.96	32598.98
495.14	32428.12
495.32	32861.12
495.49	33432.21
495.67	33387.74
495.85	33797.34
496.02	33923.72
496.20	34082.88
496.38	33907.34
496.55	34134.37
496.73	34876.32
496.91	34916.11
497.09	34522.90
497.26	34689.08
497.44	34906.75
497.62	35271.87
497.79	35739.98
497.97	35798.49
498.14	36077.02
498.32	36264.26
498.50	36472.57
498.67	36865.78
498.85	36772.16
499.03	36613.00
499.20	36900.89
499.38	37282.39
499.56	36769.82
499.73	37198.13
499.91	37268.35
500.08	37752.84
500.26	37565.60
500.44	37488.36
500.61	37876.89
500.79	37755.18
500.97	37942.42
501.14	38611.82
501.32	38359.04
501.49	38726.50
501.67	39257.81
501.84	38693.74
502.02	38705.44
502.20	39419.30
502.37	39447.39
502.55	39498.88
502.72	39573.78
502.90	40067.63
503.07	39667.40
503.25	39995.07
503.43	39962.31
503.60	40030.18
503.78	40130.83
503.95	40465.52
504.13	40751.07
504.30	40999.16
504.48	40835.33
504.65	41092.79
504.83	41191.09
505.01	41123.21
505.18	41343.22
505.36	41319.82
505.53	41179.39
505.71	42029.00
505.88	41872.18
506.06	41759.84
506.23	42309.86
506.41	41790.27
506.58	42417.53
506.76	42263.05
506.93	42932.45
507.11	42579.03
507.28	42401.14
507.46	43129.05
507.63	42967.55
507.81	43484.81
507.98	42831.80
508.16	43515.24
508.33	43585.46
508.50	43311.61
508.68	43653.33
508.85	44179.95
509.03	43969.30
509.20	43871.00
509.38	44353.15
509.55	44140.16
509.73	44641.04
509.90	44790.83
510.08	44931.26
510.25	44542.74
510.42	44809.56
510.60	44961.69
510.77	45312.77
510.95	45385.33
511.12	45581.93
511.30	45446.18
511.47	45485.97
511.64	45998.55
511.82	46003.23
511.99	45972.80
512.17	46181.11
512.34	46101.53
512.51	46487.72
512.69	46440.91
512.86	46660.92
513.04	46892.63
513.21	46789.65
513.38	46916.04
513.56	46965.19
513.73	47215.63
513.90	47096.26
514.08	46899.65
514.25	47358.40
514.43	47653.31
514.60	47746.93
514.77	47185.20
514.95	48020.77
515.12	47636.92
515.29	47648.63
515.47	47849.91
515.64	48402.28
515.81	47812.46
515.99	48282.91
516.16	48528.67
516.33	48371.85
516.51	49036.56
516.68	48666.76
516.85	48964.01
517.03	48821.23
517.20	48708.89
517.37	48987.41
517.54	49177.00
517.72	48999.12
517.89	49158.27
518.06	49399.35
518.24	49120.82
518.41	49368.92
518.58	49584.25
518.75	48928.90
518.93	49614.68
519.10	49701.28
519.27	49925.97
519.45	49584.25
519.62	49925.97
519.79	50073.42
519.96	49930.65
520.14	50148.32
520.31	50253.64
520.48	50663.24
520.65	50693.66
520.83	50534.51
521.00	50955.80
521.17	50768.56
521.34	50880.91
521.52	50873.88
521.69	51007.29
521.86	50986.23
522.03	51414.55
522.20	51311.56
522.38	51767.97
522.55	51332.63
522.72	51440.29
522.89	51330.29
523.07	51674.35
523.24	51449.66
523.41	51793.71
523.58	51880.31
523.75	52193.95
523.92	51824.14
524.10	52259.48
524.27	52224.37
524.44	52367.15
524.61	52343.74
524.78	52268.84
524.96	52395.23
525.13	52488.85
525.30	52481.83
525.47	52767.38
525.64	52273.52
525.81	52793.12
525.98	52839.93
526.16	52853.98
526.33	52514.60
526.50	53106.76
526.67	52891.43
526.84	53146.54
527.01	53095.05
527.18	52956.96
527.36	53151.23
527.53	53371.24
527.70	53478.90
527.87	53436.77
528.04	53085.69
528.21	53719.98
528.38	53640.40
528.55	53876.79
528.72	53169.95
528.89	53783.17
529.07	53783.17
529.24	53666.14
529.41	54075.74
529.58	53743.38
529.75	53694.23
529.92	53890.83
530.09	53914.24
530.26	54108.50
530.43	53839.34
530.60	53996.16
530.77	53972.75
530.94	54213.83
531.11	54223.19
531.28	54405.75
531.46	54181.06
531.63	54335.54
531.80	54398.73
531.97	54244.26
532.14	54656.19
532.31	54672.57
532.48	54986.21
532.65	54562.57
532.82	54513.42
532.99	54857.48
533.16	54831.73
533.33	54920.67
533.50	55173.45
533.67	54962.80
533.84	55058.76
534.01	55203.88
534.18	54827.05
534.35	55363.03
534.52	55091.53
534.69	55484.74
534.86	55356.01
535.03	55346.65
535.20	55302.18
535.37	55278.77
535.54	55304.52
535.71	55325.58
535.88	55543.25
536.05	55477.72
536.22	55667.30
536.38	55592.40
536.55	55636.87
536.72	55583.04
536.89	55594.74
537.06	55765.60
537.23	55714.11
537.40	55791.35
537.57	55826.46
537.74	55868.59
537.91	56009.02
538.08	55807.73
538.25	55702.41
538.42	55943.48
538.59	56137.75
538.75	55969.23
538.92	56170.52
539.09	56481.81
539.26	56135.41
539.43	55959.87
539.60	56172.86
539.77	56116.68
539.94	56561.39
540.11	56542.66
540.28	56327.33
540.44	56362.44
540.61	56470.11
540.78	56060.51
540.95	56446.70
541.12	56629.26
541.29	56624.58
541.46	56734.59
541.62	56423.29
541.79	56594.15
541.96	56629.26
542.13	56561.39
542.30	56605.86
542.47	56924.17
542.63	57076.30
542.80	57078.64
542.97	57345.47
543.14	57406.32
543.31	57324.40
543.48	57401.64
543.64	57574.84
543.81	57291.63
543.98	57382.91
544.15	57411.00
544.32	57701.23
544.48	57574.84
544.65	57439.09
544.82	57518.67
544.99	57312.70
545.16	57715.27
545.32	57485.90
545.49	57855.70
545.66	57696.55
545.83	57581.86
546.00	57726.97
546.16	57670.80
546.33	57497.60
546.50	57544.41
546.67	57741.02
546.83	57691.86
547.00	57790.17
547.17	57996.13
547.34	57773.78
547.50	58005.50
547.67	58096.78
547.84	57993.79
548.00	58099.12
548.17	58258.27
548.34	58298.06
548.51	58520.41
548.67	58199.76
548.84	58188.06
549.01	58262.96
549.18	58363.60
549.34	58422.11
549.51	58274.66
549.68	58382.32
549.84	58450.20
550.01	58487.65
550.18	58319.13
550.34	58557.86
550.51	58630.42
550.68	58684.25
550.84	58328.49
551.01	58688.93
551.18	58436.16
551.34	58752.13
551.51	58838.73
551.68	58702.98
551.84	58569.57
552.01	58717.02
552.18	58616.38
552.34	58672.55
552.51	58836.39
552.68	58532.12
552.84	58812.98
553.01	59105.55
553.18	58876.18
553.34	58820.00
553.51	58688.93
553.67	59030.65
553.84	59061.08
554.01	59044.69
554.17	58922.99
554.34	59224.92
554.51	58995.54
554.67	59248.32
554.84	59107.89
555.00	59206.19
555.17	59002.56
555.33	59072.78
555.50	59035.33
555.67	59208.53
555.83	59178.10
556.00	59302.15
556.16	59449.61
556.33	59370.03
556.50	59178.10
556.66	59313.86
556.83	59320.88
556.99	59465.99
557.16	59435.56
557.32	59339.60
557.49	59693.02
557.65	59344.28
557.82	59487.06
557.98	59442.59
558.15	59536.21
558.32	59440.24
558.48	59447.27
558.65	59674.30
558.81	59739.83
558.98	59458.97
559.14	59805.37
559.31	59620.47
559.47	59697.70
559.64	59845.16
559.80	59786.64
559.97	59915.37
560.13	59632.17
560.30	59700.04
560.46	59763.24
560.63	59807.71
560.79	59894.31
560.96	59943.46
561.12	59962.18
561.29	59676.64
561.45	59948.14
561.61	59732.81
561.78	59788.98
561.94	59915.37
562.11	59831.11
562.27	59894.31
562.44	60058.15
562.60	60053.47
562.77	60093.25
562.93	59927.08
563.10	59929.42
563.26	59997.29
563.42	60219.64
563.59	60109.64
563.75	59985.59
563.92	60053.47
564.08	60030.06
564.24	60219.64
564.41	60226.66
564.57	59985.59
564.74	60280.50
564.90	60184.54
565.07	60219.64
565.23	60175.17
565.39	60121.34
565.56	60231.35
565.72	60149.43
565.88	60219.64
566.05	60184.54
566.21	60191.56
566.38	60388.16
566.54	60310.92
566.70	60467.74
566.87	60458.38
567.03	60303.90
567.19	60441.99
567.36	60353.05
567.52	60158.79
567.68	60629.24
567.85	60449.02
568.01	60402.21
568.17	60245.39
568.34	60692.43
568.50	60477.10
568.66	60357.74
568.83	60395.18
568.99	60273.48
569.15	60659.66
569.32	60434.97
569.48	60381.14
569.64	60498.17
569.81	60542.64
569.97	60364.76
570.13	60362.42
570.30	60472.42
570.46	60615.19
570.62	60729.88
570.78	60748.60
570.95	60439.65
571.11	60629.24
571.27	60404.55
571.43	60701.79
571.60	60811.80
571.76	60568.38
571.92	60615.19
572.09	60444.33
572.25	60678.39
572.41	60727.54
572.57	60486.46
572.74	60917.12
572.90	60626.90
573.06	60837.54
573.22	60589.45
573.38	60835.20
573.55	60694.77
573.71	60975.64
573.87	60846.91
574.03	60601.15
574.20	60816.48
574.36	60626.90
574.52	60839.89
574.68	60898.40
574.84	60879.67
575.01	60746.26
575.17	60757.97
575.33	60732.22
575.49	60924.14
575.65	60928.83
575.82	61085.64
575.98	60757.97
576.14	61254.16
576.30	60825.84
576.46	60736.90
576.62	60809.46
576.79	60938.19
576.95	60640.94
577.11	60746.26
577.27	60809.46
577.43	60963.93
577.59	60828.18
577.75	60924.14
577.92	60762.65
578.08	60762.65
578.24	60781.37
578.40	61057.56
578.56	60963.93
578.72	61057.56
578.88	61118.41
579.04	60982.66
579.21	60867.97
579.37	61080.96
579.53	60898.40
579.69	60879.67
579.85	60767.33
580.01	61090.32
580.17	60800.10
580.33	60842.23
580.49	61268.20
580.65	60961.59
580.82	60928.83
580.98	61013.08
581.14	60884.36
581.30	61071.60
581.46	60954.57
581.62	61076.28
581.78	61055.21
581.94	60961.59
582.10	60893.72
582.26	61071.60
582.42	60924.14
582.58	60769.67
582.74	60912.44
582.90	60975.64
583.06	60860.95
583.22	60802.44
583.38	60917.12
583.54	60818.82
583.70	61200.33
583.86	61169.90
584.02	60800.10
584.18	60893.72
584.34	60940.53
584.50	60970.96
584.66	60982.66
584.82	60849.25
584.98	61148.84
585.14	61029.47
585.30	60837.54
585.46	61066.92
585.62	61017.77
585.78	61186.28
585.94	60907.76
586.10	61153.52
586.26	61141.81
586.42	61050.53
586.58	61331.40
586.74	60970.96
586.90	61123.09
587.06	61029.47
587.22	61410.98
587.38	61031.81
587.54	61240.12
587.70	61415.66
587.86	61097.34
588.02	60989.68
588.18	61169.90
588.34	61167.56
588.49	61132.45
