SpectraSuite Data File
++++++++++++++++++++++++++++++++++++
Date: Fri Oct 25 11:33:42 EDT 2013
User: price-jones
Dark Spectrum Present: No
Reference Spectrum Present: No
Number of Sampled Component Spectra: 1
Spectrometers: USB2+H05261
Integration Time (usec): 100000 (USB2+H05261)
Spectra Averaged: 1 (USB2+H05261)
Boxcar Smoothing: 0 (USB2+H05261)
Correct for Electrical Dark: No (USB2+H05261)
Strobe/Lamp Enabled: No (USB2+H05261)
Correct for Detector Non-linearity: No (USB2+H05261)
Correct for Stray Light: No (USB2+H05261)
Number of Pixels in Processed Spectrum: 2048
>>>>>Begin Processed Spectral Data<<<<<
365.73	299.59
365.92	299.59
366.12	299.59
366.32	229.37
366.52	152.13
366.72	215.33
366.91	205.97
367.11	198.95
367.31	177.88
367.51	170.86
367.70	215.33
367.90	156.82
368.10	159.16
368.30	147.45
368.49	227.03
368.69	203.63
368.89	166.18
369.09	163.84
369.28	187.24
369.48	107.66
369.68	229.37
369.87	304.27
370.07	259.80
370.27	236.39
370.47	332.36
370.66	442.36
370.86	496.19
371.06	554.71
371.25	601.52
371.45	629.60
371.65	547.69
371.84	510.24
372.04	543.00
372.24	582.79
372.44	540.66
372.63	645.99
372.83	561.73
373.03	641.31
373.22	643.65
373.42	575.77
373.62	660.03
373.81	624.92
374.01	655.35
374.21	676.41
374.40	650.67
374.60	631.94
374.79	662.37
374.99	657.69
375.19	566.41
375.38	617.90
375.58	662.37
375.78	720.88
375.97	699.82
376.17	709.18
376.37	713.86
376.56	599.18
376.76	690.46
376.95	582.79
377.15	624.92
377.35	716.20
377.54	709.18
377.74	777.06
377.93	688.12
378.13	793.44
378.33	653.01
378.52	741.95
378.72	688.12
378.91	751.31
379.11	643.65
379.31	645.99
379.50	678.76
379.70	664.71
379.89	734.93
380.09	734.93
380.28	793.44
380.48	788.76
380.68	713.86
380.87	683.44
381.07	727.91
381.26	784.08
381.46	830.89
381.65	805.14
381.85	791.10
382.04	805.14
382.24	664.71
382.43	774.72
382.63	774.72
382.83	741.95
383.02	856.64
383.22	861.32
383.41	798.12
383.61	873.02
383.80	840.25
384.00	758.33
384.19	819.19
384.39	844.93
384.58	814.51
384.78	816.85
384.97	863.66
385.17	856.64
385.36	880.04
385.56	812.17
385.75	863.66
385.95	866.00
386.14	910.47
386.34	910.47
386.53	873.02
386.72	826.21
386.92	882.38
387.11	840.25
387.31	837.91
387.50	936.21
387.70	940.90
387.89	910.47
388.09	901.11
388.28	826.21
388.48	891.74
388.67	919.83
388.86	905.79
389.06	952.60
389.25	964.30
389.45	910.47
389.64	1001.75
389.84	926.85
390.03	1004.09
390.22	947.92
390.42	994.73
390.61	882.38
390.81	1034.52
391.00	978.34
391.19	1006.43
391.39	1050.90
391.58	1036.86
391.78	997.07
391.97	901.11
392.16	1074.31
392.36	1020.47
392.55	1088.35
392.75	1128.14
392.94	1041.54
393.13	1093.03
393.33	1081.33
393.52	1020.47
393.71	1144.52
393.91	1088.35
394.10	1029.84
394.29	1078.99
394.49	1139.84
394.68	1165.59
394.88	1179.63
395.07	1097.71
395.26	1128.14
395.46	1095.37
395.65	1245.16
395.84	1221.76
396.04	1282.61
396.23	1160.91
396.42	1235.80
396.62	1259.21
396.81	1266.23
397.00	1184.31
397.19	1310.70
397.39	1320.06
397.58	1313.04
397.77	1247.51
397.97	1219.42
398.16	1294.32
398.35	1238.14
398.55	1315.38
398.74	1277.93
398.93	1366.87
399.12	1284.95
399.32	1284.95
399.51	1364.53
399.70	1320.06
399.90	1378.58
400.09	1362.19
400.28	1441.77
400.47	1394.96
400.67	1406.66
400.86	1338.79
401.05	1413.68
401.24	1495.60
401.44	1455.81
401.63	1448.79
401.82	1486.24
402.01	1483.90
402.21	1488.58
402.40	1540.07
402.59	1605.61
402.78	1401.98
402.97	1565.82
403.17	1561.14
403.36	1551.78
403.55	1603.27
403.74	1526.03
403.93	1652.42
404.13	1671.14
404.32	1577.52
404.51	1523.69
404.70	1610.29
404.89	1596.25
405.09	1671.14
405.28	1682.85
405.47	1671.14
405.66	1739.02
405.85	1734.34
406.05	1776.47
406.24	1839.66
406.43	1722.63
406.62	1830.30
406.81	1839.66
407.00	1858.39
407.20	1834.98
407.39	1823.28
407.58	1818.60
407.77	1858.39
407.96	1872.43
408.15	2003.50
408.34	1898.17
408.54	1937.96
408.73	1858.39
408.92	1900.52
409.11	2069.03
409.30	1940.30
409.49	1930.94
409.68	2033.93
409.87	2015.20
410.07	2097.12
410.26	2136.91
410.45	2136.91
410.64	2085.42
410.83	2200.10
411.02	2111.16
411.21	2162.66
411.40	2097.12
411.59	2277.34
411.78	2256.28
411.98	2221.17
412.17	2251.60
412.36	2209.47
412.55	2314.79
412.74	2389.69
412.93	2195.42
413.12	2312.45
413.31	2434.16
413.50	2497.35
413.69	2431.82
413.88	2385.01
414.07	2469.27
414.26	2518.42
414.45	2583.95
414.64	2466.92
414.83	2518.42
415.02	2555.86
415.22	2562.89
415.41	2621.40
415.60	2736.09
415.79	2738.43
415.98	2684.59
416.17	2736.09
416.36	2745.45
416.55	2693.96
416.74	2768.85
416.93	2754.81
417.12	2712.68
417.31	2738.43
417.50	2860.13
417.69	2890.56
417.88	2965.46
418.07	3028.65
418.26	2986.52
418.45	3089.51
418.64	3162.06
418.83	3101.21
419.02	3038.02
419.21	3162.06
419.39	3199.51
419.58	3087.17
419.77	3112.91
419.96	3138.66
420.15	3089.51
420.34	3201.85
420.53	3199.51
420.72	3199.51
420.91	3314.20
421.10	3300.16
421.29	3276.75
421.48	3269.73
421.67	3344.63
421.86	3330.58
422.05	3335.26
422.24	3201.85
422.43	3344.63
422.61	3351.65
422.80	3332.92
422.99	3485.06
423.18	3417.18
423.37	3417.18
423.56	3407.82
423.75	3307.18
423.94	3339.94
424.13	3201.85
424.32	3204.19
424.50	3475.70
424.69	3541.23
424.88	3494.42
425.07	3403.14
425.26	3419.52
425.45	3459.31
425.64	3438.25
425.83	3349.31
426.01	3578.68
426.20	3393.78
426.39	3548.25
426.58	3499.10
426.77	3349.31
426.96	3442.93
427.15	3564.64
427.33	3618.47
427.52	3588.04
427.71	3674.64
427.90	3655.92
428.09	3646.55
428.28	3576.34
428.46	3691.02
428.65	3735.50
428.84	3960.19
429.03	3798.69
429.22	3686.34
429.40	3770.60
429.59	3726.13
429.78	3674.64
429.97	3611.45
430.16	3779.97
430.34	3810.39
430.53	3997.64
430.72	3983.59
430.91	3922.74
431.10	3784.65
431.28	3831.46
431.47	3913.38
431.66	4086.58
431.85	3995.29
432.03	4081.89
432.22	4147.43
432.41	3948.48
432.60	4044.45
432.79	4091.26
432.97	4124.02
433.16	4039.76
433.35	3925.08
433.54	4098.28
433.72	4145.09
433.91	4084.23
434.10	4322.97
434.28	4014.02
434.47	4231.69
434.66	4325.31
434.85	4341.69
435.03	4442.34
435.22	4334.67
435.41	4489.15
435.59	4475.10
435.78	4360.42
435.97	4402.55
436.16	4477.44
436.34	4327.65
436.53	4493.83
436.72	4498.51
436.90	4463.40
437.09	4444.68
437.28	4414.25
437.46	4538.30
437.65	4528.94
437.84	4631.92
438.02	4755.97
438.21	4678.73
438.40	4578.09
438.58	4634.26
438.77	4922.15
438.96	4737.24
439.14	4786.40
439.33	4896.40
439.52	4954.91
439.70	4964.28
439.89	5025.13
440.08	5027.47
440.26	5050.88
440.45	5076.62
440.63	5118.75
440.82	5174.92
441.01	5018.11
441.19	5118.75
441.38	5163.22
441.57	5249.82
441.75	5210.03
441.94	5303.65
442.12	5371.53
442.31	5458.13
442.50	5469.83
442.68	5434.72
442.87	5420.68
443.05	5495.58
443.24	5659.42
443.43	5521.32
443.61	5486.22
443.80	5666.44
443.98	5472.17
444.17	5277.91
444.35	5612.60
444.54	5699.20
444.73	5764.74
444.91	5617.29
445.10	5614.95
445.28	5729.63
445.47	5350.46
445.65	5783.46
445.84	5682.82
446.02	5881.77
446.21	5717.93
446.39	5502.60
446.58	5572.82
446.77	5722.61
446.95	5743.67
447.14	5645.37
447.32	5982.41
447.51	5788.14
447.69	5715.59
447.88	5856.02
448.06	5760.06
448.25	5708.57
448.43	5746.02
448.62	5867.72
448.80	5923.90
448.99	5874.74
449.17	6012.84
449.36	5792.83
449.54	6059.65
449.73	6104.12
449.91	6207.10
450.10	6111.14
450.28	6244.55
450.46	6221.14
450.65	6108.80
450.83	6146.25
451.02	6148.59
451.20	6300.72
451.39	6370.94
451.57	6078.37
451.76	6115.82
451.94	6265.61
452.13	6466.90
452.31	6181.35
452.49	6150.93
452.68	6282.00
452.86	6216.46
453.05	6333.49
453.23	6506.69
453.42	6328.81
453.60	6270.30
453.78	6464.56
453.97	6392.00
454.15	6527.75
454.34	6380.30
454.52	6722.02
454.70	6445.84
454.89	6621.38
455.07	6642.44
455.26	6614.35
455.44	6895.22
455.62	6686.91
455.81	6799.26
455.99	6768.83
456.17	6782.87
456.36	6590.95
456.54	6822.66
456.73	6958.41
456.91	7129.27
457.09	6904.58
457.28	7059.06
457.46	6726.70
457.64	7131.61
457.83	7190.13
458.01	6956.07
458.19	7316.51
458.38	7164.38
458.56	7360.98
458.74	7197.15
458.93	7358.64
459.11	7520.14
459.29	7307.15
459.48	7407.80
459.66	7150.34
459.84	7400.77
460.03	7337.58
460.21	7286.09
460.39	7220.55
460.57	7536.52
460.76	7470.99
460.94	7503.76
461.12	7384.39
461.31	7562.27
461.49	7559.93
461.67	7581.00
461.85	7768.24
462.04	7557.59
462.22	8189.53
462.40	7854.84
462.59	7735.47
462.77	7660.57
462.95	7712.07
463.13	7775.26
463.32	7906.33
463.50	7810.37
463.68	8056.12
463.86	7920.37
464.05	7854.84
464.23	7810.37
464.41	8060.80
464.59	7833.77
464.78	8086.55
464.96	8077.19
465.14	8081.87
465.32	8079.53
465.50	8114.64
465.69	8292.52
465.87	8140.38
466.05	7857.18
466.23	8226.98
466.41	8215.28
466.60	8269.11
466.78	8156.77
466.96	8201.24
467.14	8060.80
467.32	8414.23
467.51	8262.09
467.69	8278.47
467.87	8341.67
468.05	8358.05
468.23	8374.44
468.41	8458.70
468.60	8578.06
468.78	8358.05
468.96	8414.23
469.14	8585.08
469.32	8638.92
469.50	8507.85
469.69	8791.05
469.87	8690.41
470.05	8896.38
470.23	8910.42
470.41	8978.30
470.59	8858.93
470.77	8798.07
470.95	8762.97
471.14	9083.62
471.32	8980.64
471.50	9060.21
471.68	9130.43
471.86	9092.98
472.04	9217.03
472.22	9254.48
472.40	9020.42
472.58	9233.41
472.77	9207.67
472.95	9525.98
473.13	9575.13
473.31	9336.40
473.49	9476.83
473.67	9462.79
473.85	9523.64
474.03	9823.23
474.21	9802.16
474.39	9703.86
474.57	9865.36
474.75	9837.27
474.93	9970.68
475.12	10052.60
475.30	10033.88
475.48	9940.26
475.66	10249.21
475.84	10148.56
476.02	10459.85
476.20	10361.55
476.38	10448.15
476.56	10738.38
476.74	10574.54
476.92	10558.16
477.10	10527.73
477.28	10663.48
477.46	10775.83
477.64	10850.72
477.82	10946.69
478.00	11222.87
478.18	11066.05
478.36	11470.97
478.54	11344.58
478.72	11515.44
478.90	11459.26
479.08	11796.30
479.26	11707.36
479.44	11789.28
479.62	11765.87
479.80	11990.56
479.98	12084.19
480.16	12245.68
480.34	12006.95
480.52	12379.09
480.70	12255.04
480.88	12187.17
481.06	12393.14
481.24	12538.25
481.41	12713.79
481.59	12734.85
481.77	12865.92
481.95	12737.20
482.13	13078.91
482.31	13032.10
482.49	13247.43
482.67	13446.38
482.85	13607.87
483.03	13844.27
483.21	13767.03
483.39	13963.64
483.57	13537.66
483.74	13928.53
483.92	14015.13
484.10	13678.09
484.28	14321.74
484.46	14665.80
484.64	14579.20
484.82	14420.04
485.00	14799.21
485.18	14956.02
485.35	15108.16
485.53	15042.62
485.71	15108.16
485.89	15587.97
486.07	15562.22
486.25	15414.77
486.43	15613.71
486.61	15915.64
486.78	15784.57
486.96	15971.82
487.14	15976.50
487.32	16166.08
487.50	16287.79
487.68	16407.16
487.85	16528.86
488.03	16681.00
488.21	17158.47
488.39	17191.23
488.57	17053.14
488.75	17172.51
488.92	17584.44
489.10	17268.47
489.28	17659.34
489.46	17851.27
489.64	18148.51
489.81	18122.77
489.99	18127.45
490.17	18153.20
490.35	18307.67
490.53	18279.58
490.70	18691.52
490.88	18574.49
491.06	18759.39
491.24	19117.50
491.41	19227.50
491.59	19140.90
491.77	19098.77
491.95	19447.51
492.13	19529.43
492.30	19609.01
492.48	20074.77
492.66	19927.32
492.84	19946.05
493.01	20112.22
493.19	20208.19
493.37	20189.46
493.54	20617.78
493.72	20652.89
493.90	20739.49
494.08	20645.87
494.25	21214.62
494.43	21223.98
494.61	21362.07
494.79	21418.24
494.96	21249.72
495.14	21406.54
495.32	21909.75
495.49	22291.26
495.67	22082.95
495.85	22155.51
496.02	22207.00
496.20	22623.62
496.38	22518.29
496.55	22438.72
496.73	23140.88
496.91	22530.00
497.09	22785.12
497.26	22874.06
497.44	22988.74
497.62	22939.59
497.79	23594.94
497.97	23257.90
498.14	23496.64
498.32	23836.02
498.50	23658.14
498.67	23885.17
498.85	23747.08
499.03	24093.47
499.20	24240.93
499.38	24531.15
499.56	24594.35
499.73	24730.10
499.91	24748.82
500.08	24790.95
500.26	24624.78
500.44	24837.76
500.61	24617.75
500.79	24657.54
500.97	24968.84
501.14	25528.22
501.32	25378.43
501.49	25305.87
501.67	25359.70
501.84	25902.71
502.02	25813.77
502.20	25465.03
502.37	25731.85
502.55	25764.62
502.72	26235.06
502.90	26204.64
503.07	25989.31
503.25	25919.09
503.43	26239.75
503.60	26412.95
503.78	26675.09
503.95	26127.40
504.13	26663.38
504.30	26859.99
504.48	26579.12
504.65	26883.39
504.83	27002.76
505.01	27204.05
505.18	27094.04
505.36	27283.62
505.53	27215.75
505.71	27803.22
505.88	27412.35
506.06	27410.01
506.23	27733.01
506.41	27414.69
506.58	27718.96
506.76	27768.12
506.93	28407.08
507.11	28156.64
507.28	28023.23
507.46	27985.79
507.63	28247.93
507.81	28418.78
507.98	28528.79
508.16	28540.49
508.33	28694.97
508.50	28671.56
508.68	28999.24
508.85	29041.37
509.03	29177.12
509.20	29083.50
509.38	29240.31
509.55	29343.30
509.73	29457.98
509.90	29514.16
510.08	29504.79
510.25	29727.14
510.42	29930.77
510.60	30022.05
510.77	30221.00
510.95	30256.11
511.12	29860.55
511.30	30033.75
511.47	30174.19
511.64	30040.78
511.82	30665.70
511.99	30387.18
512.17	30312.28
512.34	30623.57
512.51	30918.48
512.69	31267.22
512.86	30733.57
513.04	30649.32
513.21	31000.40
513.38	30979.33
513.56	31321.05
513.73	31199.34
513.90	31386.58
514.08	31349.14
514.25	31573.83
514.43	31283.60
514.60	31704.90
514.77	31976.40
514.95	31424.03
515.12	31969.38
515.29	31744.69
515.47	31784.48
515.64	32165.98
515.81	31962.36
515.99	32191.73
516.16	32212.79
516.33	32444.51
516.51	32531.11
516.68	32451.53
516.85	32517.06
517.03	32687.92
517.20	32711.33
517.37	32835.38
517.54	33015.60
517.72	33003.89
517.89	32980.49
518.06	33289.44
518.24	33214.54
518.41	32690.26
518.58	33113.90
518.75	33064.75
518.93	33338.59
519.10	33380.72
519.27	33727.12
519.45	33570.30
519.62	33682.65
519.79	33860.53
519.96	33722.44
520.14	34031.39
520.31	34019.69
520.48	34199.91
520.65	34478.43
520.83	34539.29
521.00	34291.19
521.17	34593.12
521.34	34651.63
521.52	34768.66
521.69	34429.28
521.86	34483.11
522.03	35138.46
522.20	35152.51
522.38	35494.22
522.55	35007.39
522.72	35103.35
522.89	35316.34
523.07	35400.60
523.24	35232.08
523.41	35491.88
523.58	35255.49
523.75	35431.03
523.92	35597.21
524.10	35929.56
524.27	35585.50
524.44	35929.56
524.61	35648.70
524.78	36259.58
524.96	35983.40
525.13	35782.11
525.30	36514.70
525.47	36198.73
525.64	36093.40
525.81	36608.32
525.98	36086.38
526.16	36425.76
526.33	36505.34
526.50	36493.63
526.67	36503.00
526.84	36631.72
527.01	36744.07
527.18	36715.98
527.36	37008.55
527.53	36575.55
527.70	37366.65
527.87	37207.50
528.04	37228.56
528.21	37736.46
528.38	37273.03
528.55	36973.44
528.72	37469.64
528.89	37277.71
529.07	37427.51
529.24	36833.01
529.41	37390.06
529.58	37376.01
529.75	37839.44
529.92	37556.24
530.09	37902.64
530.26	38160.09
530.43	37654.54
530.60	37757.52
530.77	37687.31
530.94	37942.42
531.11	37876.89
531.28	37916.68
531.46	38281.80
531.63	38642.24
531.80	38010.30
531.97	38525.22
532.14	38202.22
532.31	38590.75
532.48	38576.71
532.65	38712.46
532.82	38656.29
532.99	38670.33
533.16	39026.09
533.33	38817.78
533.50	39199.29
533.67	38712.46
533.84	38499.47
534.01	39201.63
534.18	38848.21
534.35	38962.90
534.52	39140.78
534.69	39196.95
534.86	39688.46
535.03	39210.99
535.20	39213.34
535.37	39440.37
535.54	39538.67
535.71	39613.57
535.88	39629.95
536.05	39557.39
536.22	39835.92
536.38	39838.26
536.55	39676.76
536.72	39571.44
536.89	39856.98
537.06	39990.39
537.23	40346.15
537.40	40126.14
537.57	40011.46
537.74	40259.55
537.91	40402.33
538.08	39922.52
538.25	39828.90
538.42	40348.50
538.59	40685.53
538.75	40301.68
538.92	40690.21
539.09	41041.29
539.26	40517.01
539.43	40809.58
539.60	40575.53
539.77	40470.20
539.94	41184.07
540.11	41144.28
540.28	40903.20
540.44	41024.91
540.61	40428.07
540.78	41060.02
540.95	40982.78
541.12	40790.86
541.29	41151.30
541.46	40912.56
541.62	41282.37
541.79	41188.75
541.96	40861.07
542.13	40973.42
542.30	41303.43
542.47	41350.24
542.63	41610.04
542.80	41570.25
542.97	42124.96
543.14	42279.44
543.31	41708.35
543.48	41792.61
543.64	42408.17
543.81	42499.45
543.98	42029.00
544.15	42064.11
544.32	42370.72
544.48	43019.05
544.65	42557.96
544.82	42424.55
544.99	42007.94
545.16	42356.67
545.32	42707.76
545.49	42808.40
545.66	42972.24
545.83	42492.43
546.00	42761.59
546.16	42663.28
546.33	42733.50
546.50	42497.11
546.67	42726.48
546.83	42618.81
547.00	42139.00
547.17	43145.44
547.34	43065.86
547.50	43229.69
547.67	43524.60
547.84	43421.62
548.00	43274.16
548.17	43566.73
548.34	43229.69
548.51	43533.96
548.67	43569.07
548.84	43215.65
549.01	43470.77
549.18	43065.86
549.34	43672.06
549.51	43784.40
549.68	43484.81
549.84	43330.34
550.01	43887.39
550.18	43398.21
550.34	43391.19
550.51	43931.86
550.68	43887.39
550.84	43524.60
551.01	43660.35
551.18	43819.51
551.34	43807.81
551.51	44065.27
551.68	43861.64
551.84	43721.21
552.01	43779.72
552.18	44023.14
552.34	43489.49
552.51	44098.03
552.68	43936.54
552.84	44205.70
553.01	43817.17
553.18	44140.16
553.34	44247.83
553.51	44149.53
553.67	44437.41
553.84	44673.81
554.01	44809.56
554.17	44219.74
554.34	44776.79
554.51	44793.17
554.67	44526.35
554.84	44601.25
555.00	44421.03
555.17	44591.89
555.33	44472.52
555.50	44919.56
555.67	44973.39
555.83	44587.21
556.00	45123.19
556.16	45350.22
556.33	45184.04
556.50	44767.43
556.66	45097.44
556.83	44486.56
556.99	45411.07
557.16	44882.11
557.32	44949.99
557.49	45284.68
557.65	45200.43
557.82	45471.93
557.98	45078.72
558.15	44839.98
558.32	45518.74
558.48	45378.31
558.65	44931.26
558.81	45448.52
558.98	44926.58
559.14	45090.42
559.31	45539.80
559.47	45207.45
559.64	45933.01
559.80	45251.92
559.97	45626.40
560.13	45619.38
560.30	45521.08
560.46	45785.56
560.63	46007.91
560.79	45642.79
560.96	45834.71
561.12	45408.73
561.29	45663.85
561.45	45694.28
561.61	45923.65
561.78	45336.18
561.94	45193.40
562.11	45808.96
562.27	45785.56
562.44	45773.86
562.60	45841.73
562.77	45595.98
562.93	45661.51
563.10	46047.70
563.26	46040.68
563.42	46234.94
563.59	46160.05
563.75	46141.32
563.92	46007.91
564.08	46279.41
564.24	46246.65
564.41	46347.29
564.57	46108.55
564.74	46485.38
564.90	46059.40
565.07	46248.99
565.23	46171.75
565.39	45914.29
565.56	46532.19
565.72	46548.57
565.88	46370.69
566.05	46117.92
566.21	45942.38
566.38	46461.97
566.54	46576.66
566.70	46490.06
566.87	46738.16
567.03	46211.54
567.19	46707.73
567.36	46906.68
567.52	46347.29
567.68	47063.49
567.85	46457.29
568.01	46483.04
568.17	46265.37
568.34	47037.75
568.50	46904.34
568.66	46094.51
568.83	46766.24
568.99	46672.62
569.15	46850.50
569.32	46387.08
569.48	46316.86
569.64	47105.62
569.81	46543.89
569.97	46529.85
570.13	47021.36
570.30	46536.87
570.46	46747.52
570.62	46894.97
570.78	46780.29
570.95	46738.16
571.11	47016.68
571.27	46719.43
571.43	46684.33
571.60	46696.03
571.76	46728.80
571.92	47002.64
572.09	46829.44
572.25	46571.98
572.41	46974.55
572.57	46866.89
572.74	47131.37
572.90	46567.30
573.06	46962.85
573.22	47079.88
573.38	46747.52
573.55	46857.52
573.71	47330.31
573.87	47260.10
574.03	46885.61
574.20	47257.76
574.36	46988.60
574.52	47019.02
574.68	47337.33
574.84	47182.86
575.01	47243.71
575.17	46756.88
575.33	47082.22
575.49	46681.98
575.65	47351.38
575.82	47536.28
575.98	47098.60
576.14	47196.90
576.30	47629.90
576.46	47264.78
576.62	46869.23
576.79	46721.77
576.95	46733.48
577.11	47044.77
577.27	46887.95
577.43	47180.52
577.59	46958.17
577.75	46967.53
577.92	46906.68
578.08	47150.09
578.24	47033.07
578.40	47657.99
578.56	46972.21
578.72	47297.55
578.88	47557.35
579.04	47250.74
579.21	46927.74
579.37	47222.65
579.53	47505.85
579.69	47140.73
579.85	47386.49
580.01	47082.22
580.17	47320.95
580.33	47297.55
580.49	47365.42
580.65	47618.20
580.82	47393.51
580.98	47002.64
581.14	47072.85
581.30	47358.40
581.46	47159.45
581.62	47309.25
581.78	47175.84
581.94	47473.09
582.10	47112.64
582.26	47662.67
582.42	47173.50
582.58	47072.85
582.74	47608.84
582.90	47732.89
583.06	47650.97
583.22	47210.95
583.38	47435.64
583.54	47515.22
583.70	47356.06
583.86	47456.70
584.02	47463.72
584.18	47887.36
584.34	47662.67
584.50	47880.34
584.66	47711.82
584.82	47601.82
584.98	47999.71
585.14	47681.39
585.30	47129.03
585.46	47445.00
585.62	47477.77
585.78	47466.06
585.94	47014.34
586.10	47264.78
586.26	47381.80
586.42	47395.85
586.58	47746.93
586.74	47274.14
586.90	47042.43
587.06	47318.61
587.22	47627.56
587.38	47171.16
587.54	47910.77
587.70	47590.11
587.86	47742.25
588.02	47590.11
588.18	47482.45
588.34	47662.67
588.49	47201.58
588.65	47669.69
588.81	47604.16
588.97	47966.94
589.13	47779.70
589.29	47627.56
589.45	47650.97
589.61	47784.38
589.77	48027.79
589.93	47924.81
