SpectraSuite Data File
++++++++++++++++++++++++++++++++++++
Date: Fri Oct 25 11:26:29 EDT 2013
User: price-jones
Dark Spectrum Present: No
Reference Spectrum Present: No
Number of Sampled Component Spectra: 1
Spectrometers: USB2+H05261
Integration Time (usec): 100000 (USB2+H05261)
Spectra Averaged: 1 (USB2+H05261)
Boxcar Smoothing: 0 (USB2+H05261)
Correct for Electrical Dark: No (USB2+H05261)
Strobe/Lamp Enabled: No (USB2+H05261)
Correct for Detector Non-linearity: No (USB2+H05261)
Correct for Stray Light: No (USB2+H05261)
Number of Pixels in Processed Spectrum: 2048
>>>>>Begin Processed Spectral Data<<<<<
365.73	229.37
365.92	229.37
366.12	229.37
366.32	205.97
366.52	138.09
366.72	161.50
366.91	98.30
367.11	212.99
367.31	77.24
367.51	149.79
367.70	124.05
367.90	131.07
368.10	110.01
368.30	173.20
368.49	58.51
368.69	210.65
368.89	191.92
369.09	166.18
369.28	124.05
369.48	177.88
369.68	170.86
369.87	205.97
370.07	250.44
370.27	201.29
370.47	334.70
370.66	582.79
370.86	697.48
371.06	655.35
371.25	648.33
371.45	620.24
371.65	702.16
371.84	697.48
372.04	674.07
372.24	655.35
372.44	674.07
372.63	753.65
372.83	779.40
373.03	805.14
373.22	753.65
373.42	748.97
373.62	851.96
373.81	847.27
374.01	805.14
374.21	734.93
374.40	880.04
374.60	746.63
374.79	791.10
374.99	826.21
375.19	856.64
375.38	842.59
375.58	870.68
375.78	905.79
375.97	821.53
376.17	866.00
376.37	849.61
376.56	896.43
376.76	912.81
376.95	929.19
377.15	875.36
377.35	898.77
377.54	882.38
377.74	854.30
377.93	903.45
378.13	833.23
378.33	917.49
378.52	901.11
378.72	947.92
378.91	947.92
379.11	1046.22
379.31	957.28
379.50	973.66
379.70	990.05
379.89	945.58
380.09	994.73
380.28	945.58
380.48	940.90
380.68	1013.45
380.87	990.05
381.07	978.34
381.26	1022.81
381.46	959.62
381.65	1083.67
381.85	1083.67
382.04	1071.97
382.24	1123.46
382.43	1055.58
382.63	1053.24
382.83	1060.26
383.02	1069.62
383.22	1165.59
383.41	1046.22
383.61	1114.10
383.80	1081.33
384.00	1083.67
384.19	1097.71
384.39	1135.16
384.58	1212.40
384.78	1156.22
384.97	1107.07
385.17	1231.12
385.36	1198.35
385.56	1184.31
385.75	1125.80
385.95	1153.88
386.14	1172.61
386.34	1191.33
386.53	1280.27
386.72	1273.25
386.92	1242.82
387.11	1203.04
387.31	1186.65
387.50	1184.31
387.70	1294.32
387.89	1287.29
388.09	1256.87
388.28	1273.25
388.48	1320.06
388.67	1373.89
388.86	1291.98
389.06	1284.95
389.25	1303.68
389.45	1343.47
389.64	1296.66
389.84	1357.51
390.03	1427.73
390.22	1301.34
390.42	1357.51
390.61	1387.94
390.81	1327.08
391.00	1446.45
391.19	1493.26
391.39	1448.79
391.58	1448.79
391.78	1359.85
391.97	1493.26
392.16	1378.58
392.36	1526.03
392.55	1537.73
392.75	1526.03
392.94	1549.43
393.13	1603.27
393.33	1465.18
393.52	1519.01
393.71	1486.24
393.91	1504.96
394.10	1596.25
394.29	1519.01
394.49	1504.96
394.68	1666.46
394.88	1652.42
395.07	1748.38
395.26	1685.19
395.46	1624.33
395.65	1713.27
395.84	1685.19
396.04	1771.79
396.23	1668.80
396.42	1811.57
396.62	1834.98
396.81	1769.44
397.00	1783.49
397.19	1797.53
397.39	1774.13
397.58	1830.30
397.77	1732.00
397.97	1844.34
398.16	1893.49
398.35	1849.02
398.55	1928.60
398.74	1916.90
398.93	1914.56
399.12	1907.54
399.32	1954.35
399.51	1877.11
399.70	1949.67
399.90	2094.78
400.09	2005.84
400.28	2031.58
400.47	1989.46
400.67	2132.23
400.86	2057.33
401.05	2040.95
401.24	2132.23
401.44	2066.69
401.63	2143.93
401.82	2024.56
402.01	2043.29
402.21	2139.25
402.40	2207.13
402.59	2225.85
402.78	2202.44
402.97	2200.10
403.17	2260.96
403.36	2282.02
403.55	2270.32
403.74	2366.28
403.93	2326.49
404.13	2373.30
404.32	2326.49
404.51	2387.35
404.70	2462.24
404.89	2410.75
405.09	2408.41
405.28	2403.73
405.47	2466.92
405.66	2462.24
405.85	2509.05
406.05	2633.10
406.24	2649.49
406.43	2478.63
406.62	2722.04
406.81	2775.88
407.00	2644.81
407.20	2516.08
407.39	2616.72
407.58	2663.53
407.77	2642.46
407.96	2663.53
408.15	2855.45
408.34	2759.49
408.54	2796.94
408.73	2752.47
408.92	2850.77
409.11	2869.50
409.30	2810.98
409.49	2878.86
409.68	2813.32
409.87	2930.35
410.07	3007.59
410.26	2981.84
410.45	3009.93
410.64	2981.84
410.83	2965.46
411.02	3063.76
411.21	3138.66
411.40	3206.53
411.59	3173.77
411.78	3131.64
411.98	3229.94
412.17	3253.34
412.36	3218.24
412.55	3311.86
412.74	3471.01
412.93	3318.88
413.12	3248.66
413.31	3602.08
413.50	3459.31
413.69	3485.06
413.88	3655.92
414.07	3485.06
414.26	3508.46
414.45	3674.64
414.64	3719.11
414.83	3679.32
415.02	3676.98
415.22	3796.35
415.41	3758.90
415.60	3789.33
415.79	3861.88
415.98	3995.29
416.17	3873.59
416.36	3990.61
416.55	4009.34
416.74	4112.32
416.93	4051.47
417.12	4109.98
417.31	4102.96
417.50	4095.94
417.69	4205.94
417.88	4290.20
418.07	4358.08
418.26	4367.44
418.45	4360.42
418.64	4601.49
418.83	4325.31
419.02	4369.78
419.21	4355.74
419.39	4470.42
419.58	4540.64
419.77	4512.55
419.96	4442.34
420.15	4510.21
420.34	4395.53
420.53	4498.51
420.72	4617.88
420.91	4629.58
421.10	4702.14
421.29	4854.27
421.48	4774.69
421.67	4636.60
421.86	4966.62
422.05	4755.97
422.24	4755.97
422.43	4938.53
422.61	4898.74
422.80	5046.20
422.99	4954.91
423.18	5004.07
423.37	4987.68
423.56	4994.70
423.75	4765.33
423.94	4880.02
424.13	4500.85
424.32	4748.95
424.50	4957.25
424.69	5320.04
424.88	5064.92
425.07	5025.13
425.26	4910.44
425.45	4788.74
425.64	4922.15
425.83	5036.83
426.01	5160.88
426.20	5130.45
426.39	4971.30
426.58	4938.53
426.77	5006.41
426.96	5090.67
427.15	5111.73
427.33	5144.50
427.52	5069.60
427.71	5259.18
427.90	5266.21
428.09	5287.27
428.28	5448.77
428.46	5383.23
428.65	5263.86
428.84	5497.92
429.03	5497.92
429.22	5371.53
429.40	5490.90
429.59	5535.37
429.78	5193.65
429.97	5242.80
430.16	5490.90
430.34	5647.71
430.53	5640.69
430.72	5643.03
430.91	5687.50
431.10	5650.05
431.28	5722.61
431.47	5853.68
431.66	5809.21
431.85	5757.72
432.03	6008.16
432.22	5884.11
432.41	5921.56
432.60	5874.74
432.79	5888.79
432.97	6031.56
433.16	6078.37
433.35	5682.82
433.54	6045.60
433.72	6171.99
433.91	6059.65
434.10	6094.76
434.28	6157.95
434.47	6129.86
434.66	6326.47
434.85	6134.54
435.03	6204.76
435.22	6171.99
435.41	6324.13
435.59	6354.55
435.78	6291.36
435.97	6473.92
436.16	6567.54
436.34	6293.70
436.53	6408.39
436.72	6581.59
436.90	6242.21
437.09	6689.25
437.28	6511.37
437.46	6609.67
437.65	6700.95
437.84	6780.53
438.02	6516.05
438.21	6768.83
438.40	6810.96
438.58	6932.67
438.77	7126.93
438.96	6766.49
439.14	7054.37
439.33	7192.47
439.52	7220.55
439.70	7204.17
439.89	7096.50
440.08	7351.62
440.26	7321.20
440.45	7218.21
440.63	7344.60
440.82	7447.58
441.01	7391.41
441.19	7620.78
441.38	7716.75
441.57	7749.51
441.75	7770.58
441.94	7985.91
442.12	7878.24
442.31	7887.61
442.50	7918.03
442.68	7852.50
442.87	7810.37
443.05	7955.48
443.24	7908.67
443.43	7929.74
443.61	8119.32
443.80	8278.47
443.98	8035.06
444.17	7693.34
444.35	8306.56
444.54	8332.31
444.73	8248.05
444.91	8243.37
445.10	8461.04
445.28	8231.66
445.47	8145.06
445.65	8262.09
445.84	8332.31
446.02	8273.79
446.21	8454.02
446.39	8241.03
446.58	8519.55
446.77	8360.39
446.95	8140.38
447.14	8416.57
447.32	8641.26
447.51	8423.59
447.69	8479.76
447.88	8454.02
448.06	8549.98
448.25	8308.90
448.43	8571.04
448.62	8643.60
448.80	8374.44
448.99	8720.84
449.17	8758.28
449.36	8622.53
449.54	8695.09
449.73	8994.68
449.91	9156.18
450.10	8875.31
450.28	8849.57
450.46	8910.42
450.65	8992.34
450.83	9104.68
451.02	8865.95
451.20	9191.28
451.39	9146.81
451.57	9069.58
451.76	9036.81
451.94	9064.89
452.13	9245.12
452.31	9193.62
452.49	9170.22
452.68	9394.91
452.86	9020.42
453.05	9444.06
453.23	9451.08
453.42	9385.55
453.60	9331.72
453.78	9401.93
453.97	9488.53
454.15	9474.49
454.34	9411.29
454.52	9753.01
454.70	9631.30
454.89	9549.39
455.07	9795.14
455.26	9895.78
455.44	9900.47
455.62	9834.93
455.81	9856.00
455.99	10106.43
456.17	10040.90
456.36	10080.69
456.54	10022.17
456.73	10429.43
456.91	10267.93
457.09	10319.42
457.28	10466.88
457.46	10202.40
457.64	10422.41
457.83	10548.79
458.01	10223.46
458.19	10609.65
458.38	10413.04
458.56	10619.01
458.74	10574.54
458.93	10743.06
459.11	10665.82
459.29	10733.70
459.48	10942.00
459.66	10609.65
459.84	10843.70
460.03	11117.54
460.21	11030.94
460.39	10836.68
460.57	10764.12
460.76	11082.44
460.94	10977.11
461.12	11019.24
461.31	10958.39
461.49	11157.33
461.67	11087.12
461.85	11140.95
462.04	11283.72
462.22	11604.38
462.40	11625.44
462.59	11463.94
462.77	11260.32
462.95	11658.21
463.13	11698.00
463.32	11627.78
463.50	11552.88
463.68	11658.21
463.86	11819.71
464.05	11520.12
464.23	11534.16
464.41	11859.49
464.59	11499.05
464.78	12037.38
464.96	11925.03
465.14	11920.35
465.32	11939.07
465.50	12037.38
465.69	12046.74
465.87	12149.72
466.05	12060.78
466.23	12035.03
466.41	12046.74
466.60	12320.58
466.78	12065.46
466.96	12325.26
467.14	12241.00
467.32	12428.24
467.51	12556.97
467.69	11955.46
467.87	12318.24
468.05	12580.38
468.23	12315.90
468.41	12388.46
468.60	12416.54
468.78	12482.08
468.96	12456.33
469.14	12711.45
469.32	12762.94
469.50	12437.61
469.69	13004.02
469.87	13085.94
470.05	12704.43
470.23	13181.90
470.41	12894.01
470.59	13202.96
470.77	12793.37
470.95	13116.36
471.14	13497.87
471.32	12978.27
471.50	13462.76
471.68	13177.22
471.86	13563.40
472.04	13689.79
472.22	13809.16
472.40	13806.82
472.58	13675.75
472.77	14097.05
472.95	14033.85
473.13	14230.46
473.31	14185.99
473.49	14146.20
473.67	13888.74
473.85	14265.57
474.03	14295.99
474.21	14925.60
474.39	14588.56
474.57	14785.16
474.75	14761.76
474.93	15002.83
475.12	14794.53
475.30	15356.25
475.48	15143.27
475.66	14911.55
475.84	15281.36
476.02	15396.04
476.20	15421.79
476.38	15733.08
476.56	15925.00
476.74	16051.39
476.92	16086.50
477.10	15566.90
477.28	15880.53
477.46	16039.69
477.64	16212.89
477.82	16608.44
478.00	16863.56
478.18	16648.23
478.36	16793.34
478.54	17095.27
478.72	16996.97
478.90	17376.14
479.08	17266.13
479.26	17584.44
479.44	17647.64
479.62	17806.80
479.80	18008.08
479.98	17848.93
480.16	18614.28
480.34	18167.24
480.52	18520.66
480.70	18410.65
480.88	18244.48
481.06	18518.32
481.24	18661.09
481.41	18885.78
481.59	19098.77
481.77	18963.02
481.95	19356.23
482.13	19365.59
482.31	19428.79
482.49	20238.61
482.67	19950.73
482.85	20320.53
483.03	20360.32
483.21	20634.16
483.39	20720.76
483.57	20695.02
483.74	20854.17
483.92	21172.49
484.10	20975.88
484.28	21184.19
484.46	21633.57
484.64	22361.48
484.82	21565.70
485.00	22155.51
485.18	22654.05
485.35	22773.41
485.53	22515.95
485.71	22785.12
485.89	23644.09
486.07	23000.44
486.25	23201.73
486.43	23445.15
486.61	23747.08
486.78	23803.25
486.96	24053.69
487.14	24339.23
487.32	24577.97
487.50	24489.03
487.68	24458.60
487.85	25046.07
488.03	25301.19
488.21	25565.67
488.39	25291.83
488.57	25823.13
488.75	25937.82
488.92	26316.98
489.10	26703.17
489.28	26670.40
489.46	26988.72
489.64	26801.47
489.81	27517.68
489.99	27484.91
490.17	27491.93
490.35	28180.05
490.53	27845.35
490.70	28091.11
490.88	28276.01
491.06	28411.76
491.24	28535.81
491.41	28786.25
491.59	28968.81
491.77	29039.03
491.95	29167.76
492.13	29668.63
492.30	29776.30
492.48	30033.75
492.66	29886.30
492.84	30085.25
493.01	30497.18
493.19	30497.18
493.37	30845.92
493.54	30866.98
493.72	31309.35
493.90	31302.32
494.08	31943.63
494.25	31613.62
494.43	31676.81
494.61	32451.53
494.79	32458.55
494.96	32093.43
495.14	32535.79
495.32	33008.58
495.49	32872.82
495.67	32797.93
495.85	33174.75
496.02	33710.74
496.20	33846.49
496.38	33844.15
496.55	34417.58
496.73	34658.65
496.91	34492.47
497.09	34600.14
497.26	34890.37
497.44	34939.52
497.62	35281.24
497.79	35833.60
497.97	35702.53
498.14	35999.78
498.32	36126.17
498.50	36100.42
498.67	36318.09
498.85	36163.62
499.03	36247.88
499.20	36804.92
499.38	36861.10
499.56	36804.92
499.73	37130.26
499.91	36947.70
500.08	37373.67
500.26	36917.27
500.44	37404.10
500.61	37542.19
500.79	37603.05
500.97	38096.90
501.14	38649.27
501.32	37914.34
501.49	38600.12
501.67	38700.76
501.84	38555.64
502.02	38717.14
502.20	38859.91
502.37	38871.62
502.55	38649.27
502.72	38866.94
502.90	39030.77
503.07	39421.64
503.25	39754.00
503.43	39487.18
503.60	39662.72
503.78	39716.55
503.95	39618.25
504.13	40374.24
504.30	40030.18
504.48	40402.33
504.65	40659.79
504.83	40823.62
505.01	41064.70
505.18	40847.03
505.36	41352.58
505.53	41057.68
505.71	41174.70
505.88	41090.44
506.06	41097.47
506.23	41481.31
506.41	41649.83
506.58	41553.87
506.76	42000.91
506.93	41979.85
507.11	41991.55
507.28	42349.65
507.46	42284.12
507.63	42890.32
507.81	42887.98
507.98	42562.64
508.16	42745.20
508.33	42682.01
508.50	43180.54
508.68	43784.40
508.85	44072.29
509.03	43335.02
509.20	43569.07
509.38	43601.84
509.55	43955.26
509.73	44329.75
509.90	44114.42
510.08	44416.35
510.25	44587.21
510.42	44172.93
510.60	45160.64
510.77	44996.80
510.95	45170.00
511.12	45090.42
511.30	44938.29
511.47	45205.11
511.64	45406.39
511.82	46005.57
511.99	45741.09
512.17	45448.52
512.34	45979.82
512.51	46157.70
512.69	45975.14
512.86	46167.07
513.04	46511.13
513.21	46131.96
513.38	46288.77
513.56	46733.48
513.73	46361.33
513.90	46894.97
514.08	46487.72
514.25	47592.45
514.43	46946.47
514.60	46897.31
514.77	46784.97
514.95	47114.98
515.12	47449.68
515.29	47129.03
515.47	47690.76
515.64	47917.79
515.81	47510.53
515.99	48142.48
516.16	47817.14
516.33	47835.87
516.51	48521.65
516.68	48493.56
516.85	47714.16
517.03	48755.70
517.20	48540.37
517.37	48474.84
517.54	48638.67
517.72	48727.61
517.89	48657.40
518.06	48830.60
518.24	48633.99
518.41	48919.54
518.58	49146.57
518.75	48800.17
518.93	49263.60
519.10	48638.67
519.27	49387.64
519.45	48933.58
519.62	49336.15
519.79	49818.30
519.96	49530.42
520.14	49907.24
520.31	49792.56
520.48	50089.80
520.65	50078.10
520.83	50607.06
521.00	50092.15
521.17	49923.63
521.34	50541.53
521.52	50443.23
521.69	50522.80
521.86	50759.20
522.03	50883.25
522.20	51016.66
522.38	51140.71
522.55	51358.38
522.72	50937.08
522.89	51194.54
523.07	51583.07
523.24	51110.28
523.41	51557.32
523.58	51114.96
523.75	51423.91
523.92	51423.91
524.10	51894.36
524.27	51793.71
524.44	51812.44
524.61	52156.50
524.78	51978.62
524.96	51889.68
525.13	52072.24
525.30	51997.34
525.47	52161.18
525.64	52332.04
525.81	52090.96
525.98	52547.37
526.16	52165.86
526.33	52273.52
526.50	52968.66
526.67	52605.88
526.84	52645.67
527.01	52692.48
527.18	52657.37
527.36	52715.89
527.53	53062.29
527.70	52931.22
527.87	53380.60
528.04	52886.74
528.21	53272.93
528.38	53057.60
528.55	53277.61
528.72	53319.74
528.89	53160.59
529.07	53268.25
529.24	53167.61
529.41	53434.43
529.58	53591.25
529.75	53499.97
529.92	53745.72
530.09	53619.33
530.26	53628.69
530.43	53876.79
530.60	53773.81
530.77	53647.42
530.94	53860.41
531.11	53769.13
531.28	54026.59
531.46	53956.37
531.63	53991.48
531.80	54075.74
531.97	54225.53
532.14	54124.89
532.31	54248.94
532.48	54440.86
532.65	54415.11
532.82	54157.66
532.99	54218.51
533.16	54515.76
533.33	54513.42
533.50	54492.35
533.67	54681.94
533.84	54478.31
534.01	54763.85
534.18	54651.51
534.35	54768.54
534.52	54801.30
534.69	55231.96
534.86	54862.16
535.03	55037.70
535.20	55058.76
535.37	55182.81
535.54	55374.73
535.71	55224.94
535.88	55311.54
536.05	55157.06
536.22	55559.64
536.38	55466.02
536.55	55606.45
536.72	55341.97
536.89	55215.58
537.06	55365.37
537.23	55681.34
537.40	55250.69
537.57	55224.94
537.74	55323.24
537.91	55636.87
538.08	55765.60
538.25	55810.07
538.42	55632.19
538.59	55870.93
538.75	55571.34
538.92	55894.33
539.09	55952.85
539.26	55901.36
539.43	55927.10
539.60	55992.64
539.77	56041.79
539.94	56355.42
540.11	56310.95
540.28	56205.62
540.44	55983.27
540.61	55964.55
540.78	56177.54
540.95	56168.18
541.12	56268.82
541.29	56296.91
541.46	56460.74
541.62	56577.77
541.79	56453.72
541.96	56282.86
542.13	56388.19
542.30	56388.19
542.47	56795.44
542.63	56687.78
542.80	56708.84
542.97	56905.44
543.14	57022.47
543.31	56949.92
543.48	56870.34
543.64	57214.40
543.81	57532.71
543.98	57226.10
544.15	57244.82
544.32	57123.11
544.48	57340.78
544.65	57368.87
544.82	57359.51
544.99	57064.60
545.16	57471.85
545.32	57361.85
545.49	57413.34
545.66	57485.90
545.83	57382.91
546.00	57631.01
546.16	57523.35
546.33	57336.10
546.50	57389.94
546.67	57640.37
546.83	57429.72
547.00	57715.27
547.17	57240.14
547.34	57518.67
547.50	57542.07
547.67	57848.68
547.84	57553.77
548.00	57923.58
548.17	58164.65
548.34	57736.34
548.51	58192.74
548.67	57832.30
548.84	58019.54
549.01	57829.96
549.18	57982.09
549.34	58000.82
549.51	58064.01
549.68	58211.46
549.84	58258.27
550.01	58178.70
550.18	58117.84
550.34	58162.31
550.51	58056.99
550.68	58412.75
550.84	58000.82
551.01	58234.87
551.18	58277.00
551.34	58286.36
551.51	58513.39
551.68	58394.03
551.84	58295.72
552.01	58152.95
552.18	58333.17
552.34	58220.83
552.51	58607.01
552.68	58274.66
552.84	58632.76
553.01	58686.59
553.18	58866.81
553.34	58702.98
553.51	58794.26
553.67	58731.06
553.84	58997.88
554.01	58862.13
554.17	58749.79
554.34	58894.90
554.51	58827.02
554.67	59056.40
554.84	58824.68
555.00	58810.64
555.17	58721.70
555.33	58822.34
555.50	58918.31
555.67	58953.41
555.83	58841.07
556.00	59063.42
556.16	59255.34
556.33	59110.23
556.50	59025.97
556.66	59032.99
556.83	58918.31
556.99	59192.15
557.16	59269.39
557.32	59271.73
557.49	59367.69
557.65	59227.26
557.82	59171.08
557.98	59229.60
558.15	59138.32
558.32	59334.92
558.48	59281.09
558.65	59458.97
558.81	59215.55
558.98	59365.35
559.14	59245.98
559.31	59550.25
559.47	59423.86
559.64	59604.08
559.80	59480.03
559.97	59398.12
560.13	59388.75
560.30	59625.15
560.46	59737.49
560.63	59515.14
560.79	59430.88
560.96	59561.95
561.12	59744.51
561.29	59650.89
561.45	59667.28
561.61	59648.55
561.78	59639.19
561.94	59627.49
562.11	59777.28
562.27	59639.19
562.44	59948.14
562.60	59987.93
562.77	59824.09
562.93	59552.59
563.10	59894.31
563.26	59817.07
563.42	60032.40
563.59	59842.82
563.75	59791.33
563.92	59772.60
564.08	59983.25
564.24	60001.97
564.41	59880.27
564.57	60018.36
564.74	59812.39
564.90	59906.01
565.07	59906.01
565.23	60119.00
565.39	60062.83
565.56	60121.34
565.72	59882.61
565.88	60086.23
566.05	60006.65
566.21	59999.63
566.38	60107.30
566.54	60121.34
566.70	60191.56
566.87	60151.77
567.03	60104.96
567.19	60207.94
567.36	60090.91
567.52	60207.94
567.68	60392.84
567.85	60163.47
568.01	60191.56
568.17	60126.02
568.34	60411.57
568.50	60041.76
568.66	60212.62
568.83	60254.75
568.99	60116.66
569.15	60257.09
569.32	60247.73
569.48	60273.48
569.64	60308.58
569.81	60310.92
569.97	60231.35
570.13	60229.01
570.30	60020.70
570.46	60439.65
570.62	60547.32
570.78	60217.30
570.95	60303.90
571.11	60404.55
571.27	60296.88
571.43	60308.58
571.60	60488.80
571.76	60516.89
571.92	60378.80
572.09	60505.19
572.25	60498.17
572.41	60341.35
572.57	60205.60
572.74	60554.34
572.90	60406.89
573.06	60453.70
573.22	60444.33
573.38	60420.93
573.55	60568.38
573.71	60659.66
573.87	60470.08
574.03	60411.57
574.20	60493.49
574.36	60521.57
574.52	60764.99
574.68	60610.51
574.84	60673.71
575.01	60704.13
575.17	60615.19
575.33	60549.66
575.49	60423.27
575.65	60474.76
575.82	60687.75
575.98	60664.35
576.14	60755.63
576.30	60654.98
576.46	60605.83
576.62	60591.79
576.79	60523.91
576.95	60584.77
577.11	60636.26
577.27	60657.32
577.43	60640.94
577.59	60477.10
577.75	60748.60
577.92	60376.46
578.08	60512.21
578.24	60662.00
578.40	60776.69
578.56	60807.12
578.72	60465.40
578.88	60748.60
579.04	60835.20
579.21	60664.35
579.37	60795.42
579.53	60732.22
579.69	60608.17
579.85	60654.98
580.01	60573.06
580.17	60547.32
580.33	60701.79
580.49	60889.04
580.65	60837.54
580.82	60605.83
580.98	60673.71
581.14	60622.22
581.30	60912.44
581.46	60552.00
581.62	60783.71
581.78	60732.22
581.94	60746.26
582.10	60582.43
582.26	60804.78
582.42	60697.11
582.58	60797.76
582.74	60601.15
582.90	60807.12
583.06	60732.22
583.22	60598.81
583.38	60734.56
583.54	60708.82
583.70	60769.67
583.86	60795.42
584.02	60598.81
584.18	61055.21
584.34	60870.31
584.50	60872.65
584.66	60764.99
584.82	60748.60
584.98	61020.11
585.14	60870.31
585.30	60802.44
585.46	61031.81
585.62	60818.82
585.78	60996.70
585.94	60940.53
586.10	60884.36
586.26	60907.76
586.42	61034.15
586.58	60891.38
586.74	61069.26
586.90	60694.77
587.06	60830.52
587.22	61022.45
587.38	61006.06
587.54	61090.32
587.70	61045.85
587.86	60954.57
588.02	61092.66
588.18	60992.02
588.34	60926.49
588.49	60844.57
