SpectraSuite Data File
++++++++++++++++++++++++++++++++++++
Date: Fri Oct 25 11:23:12 EDT 2013
User: price-jones
Dark Spectrum Present: No
Reference Spectrum Present: No
Number of Sampled Component Spectra: 1
Spectrometers: USB2+H05261
Integration Time (usec): 100000 (USB2+H05261)
Spectra Averaged: 1 (USB2+H05261)
Boxcar Smoothing: 0 (USB2+H05261)
Correct for Electrical Dark: No (USB2+H05261)
Strobe/Lamp Enabled: No (USB2+H05261)
Correct for Detector Non-linearity: No (USB2+H05261)
Correct for Stray Light: No (USB2+H05261)
Number of Pixels in Processed Spectrum: 2048
>>>>>Begin Processed Spectral Data<<<<<
365.73	180.22
365.92	180.22
366.12	180.22
366.32	168.52
366.52	124.05
366.72	84.26
366.91	107.66
367.11	102.98
367.31	53.83
367.51	79.58
367.70	81.92
367.90	175.54
368.10	173.20
368.30	159.16
368.49	124.05
368.69	105.32
368.89	142.77
369.09	161.50
369.28	191.92
369.48	168.52
369.68	208.31
369.87	149.79
370.07	149.79
370.27	229.37
370.47	334.70
370.66	620.24
370.86	669.39
371.06	627.26
371.25	650.67
371.45	702.16
371.65	683.44
371.84	669.39
372.04	622.58
372.24	709.18
372.44	755.99
372.63	758.33
372.83	767.70
373.03	760.67
373.22	734.93
373.42	777.06
373.62	765.36
373.81	819.19
374.01	777.06
374.21	833.23
374.40	816.85
374.60	866.00
374.79	795.78
374.99	784.08
375.19	809.83
375.38	816.85
375.58	833.23
375.78	933.87
375.97	795.78
376.17	940.90
376.37	882.38
376.56	870.68
376.76	863.66
376.95	812.17
377.15	943.24
377.35	891.74
377.54	875.36
377.74	884.72
377.93	929.19
378.13	938.55
378.33	873.02
378.52	798.12
378.72	915.15
378.91	999.41
379.11	814.51
379.31	898.77
379.50	987.71
379.70	919.83
379.89	894.08
380.09	985.37
380.28	952.60
380.48	1062.60
380.68	917.49
380.87	917.49
381.07	1020.47
381.26	1107.07
381.46	1071.97
381.65	1025.15
381.85	1011.11
382.04	985.37
382.24	983.02
382.43	1013.45
382.63	1074.31
382.83	1064.94
383.02	1111.75
383.22	1053.24
383.41	1104.73
383.61	1170.27
383.80	1130.48
384.00	1177.29
384.19	1128.14
384.39	1107.07
384.58	1114.10
384.78	1184.31
384.97	1114.10
385.17	1151.54
385.36	1151.54
385.56	1179.63
385.75	1207.72
385.95	1100.05
386.14	1217.08
386.34	1205.38
386.53	1207.72
386.72	1221.76
386.92	1261.55
387.11	1212.40
387.31	1273.25
387.50	1228.78
387.70	1254.53
387.89	1252.19
388.09	1256.87
388.28	1289.64
388.48	1193.67
388.67	1277.93
388.86	1221.76
389.06	1238.14
389.25	1301.34
389.45	1315.38
389.64	1315.38
389.84	1434.75
390.03	1441.77
390.22	1474.54
390.42	1409.00
390.61	1371.55
390.81	1401.98
391.00	1359.85
391.19	1521.35
391.39	1364.53
391.58	1509.65
391.78	1465.18
391.97	1448.79
392.16	1413.68
392.36	1565.82
392.55	1455.81
392.75	1533.05
392.94	1579.86
393.13	1526.03
393.33	1432.41
393.52	1533.05
393.71	1657.10
393.91	1577.52
394.10	1568.16
394.29	1650.08
394.49	1563.48
394.68	1685.19
394.88	1732.00
395.07	1650.08
395.26	1727.32
395.46	1675.82
395.65	1748.38
395.84	1724.97
396.04	1717.95
396.23	1694.55
396.42	1671.14
396.62	1717.95
396.81	1846.68
397.00	1799.87
397.19	1706.25
397.39	1636.03
397.58	1879.45
397.77	1748.38
397.97	1863.07
398.16	1888.81
398.35	1851.36
398.55	1886.47
398.74	1806.89
398.93	1961.37
399.12	1856.04
399.32	1980.09
399.51	1961.37
399.70	1987.11
399.90	2022.22
400.09	2080.74
400.28	2038.61
400.47	2057.33
400.67	2092.44
400.86	2162.66
401.05	2143.93
401.24	2148.61
401.44	2087.76
401.63	2160.31
401.82	2111.16
402.01	2094.78
402.21	2265.64
402.40	2218.83
402.59	2155.63
402.78	2249.25
402.97	2237.55
403.17	2249.25
403.36	2225.85
403.55	2338.20
403.74	2363.94
403.93	2392.03
404.13	2307.77
404.32	2415.43
404.51	2436.50
404.70	2443.52
404.89	2436.50
405.09	2502.03
405.28	2534.80
405.47	2511.39
405.66	2377.98
405.85	2530.12
406.05	2483.31
406.24	2495.01
406.43	2623.74
406.62	2665.87
406.81	2605.02
407.00	2607.36
407.20	2593.31
407.39	2649.49
407.58	2719.70
407.77	2705.66
407.96	2708.00
408.15	2857.79
408.34	2740.77
408.54	2731.41
408.73	2967.80
408.92	2827.37
409.11	2974.82
409.30	2867.16
409.49	2944.39
409.68	2902.26
409.87	2911.63
410.07	3084.83
410.26	3103.55
410.45	2939.71
410.64	3119.93
410.83	3117.59
411.02	3133.98
411.21	3159.72
411.40	3133.98
411.59	3332.92
411.78	3157.38
411.98	3152.70
412.17	3304.84
412.36	3330.58
412.55	3391.44
412.74	3332.92
412.93	3424.20
413.12	3253.34
413.31	3449.95
413.50	3449.95
413.69	3576.34
413.88	3796.35
414.07	3550.59
414.26	3761.24
414.45	3679.32
414.64	3658.26
414.83	3754.22
415.02	3770.60
415.22	3768.26
415.41	3866.56
415.60	3845.50
415.79	4025.72
415.98	3892.31
416.17	3969.55
416.36	4072.53
416.55	4032.74
416.74	4095.94
416.93	4124.02
417.12	4124.02
417.31	4184.88
417.50	4152.11
417.69	4339.35
417.88	4250.41
418.07	4297.22
418.26	4388.50
418.45	4290.20
418.64	4496.17
418.83	4505.53
419.02	4437.66
419.21	4505.53
419.39	4517.23
419.58	4517.23
419.77	4472.76
419.96	4690.43
420.15	4547.66
420.34	4498.51
420.53	4550.00
420.72	4760.65
420.91	4784.06
421.10	4814.48
421.29	4912.78
421.48	4713.84
421.67	4910.44
421.86	4821.50
422.05	4826.18
422.24	4753.63
422.43	5020.45
422.61	4873.00
422.80	4978.32
422.99	4926.83
423.18	4957.25
423.37	5046.20
423.56	4938.53
423.75	4765.33
423.94	4971.30
424.13	4461.06
424.32	4664.69
424.50	4919.81
424.69	5118.75
424.88	5123.43
425.07	4973.64
425.26	4880.02
425.45	5160.88
425.64	4987.68
425.83	4929.17
426.01	5184.29
426.20	5095.35
426.39	4980.66
426.58	5137.48
426.77	5116.41
426.96	5107.05
427.15	5287.27
427.33	5219.39
427.52	5125.77
427.71	5275.57
427.90	5195.99
428.09	5345.78
428.28	5481.53
428.46	5397.28
428.65	5305.99
428.84	5605.58
429.03	5455.79
429.22	5565.79
429.40	5324.72
429.59	5488.56
429.78	5413.66
429.97	5472.17
430.16	5488.56
430.34	5750.70
430.53	5755.38
430.72	5643.03
430.91	5523.66
431.10	5533.03
431.28	5743.67
431.47	5905.17
431.66	5977.73
431.85	5856.02
432.03	6040.92
432.22	6193.06
432.41	5867.72
432.60	6097.10
432.79	6005.81
432.97	6071.35
433.16	6094.76
433.35	5966.03
433.54	6291.36
433.72	5987.09
433.91	6162.63
434.10	6146.25
434.28	6085.39
434.47	6162.63
434.66	6256.25
434.85	6483.28
435.03	6427.11
435.22	6438.81
435.41	6403.71
435.59	6478.60
435.78	6633.08
435.97	6600.31
436.16	6473.92
436.34	6352.21
436.53	6637.76
436.72	6827.34
436.90	6417.75
437.09	6614.35
437.28	6485.62
437.46	6558.18
437.65	6658.82
437.84	6710.32
438.02	6827.34
438.21	6920.96
438.40	6626.06
438.58	6949.05
438.77	7066.08
438.96	7049.69
439.14	7213.53
439.33	7269.70
439.52	7337.58
439.70	7281.41
439.89	7489.71
440.08	7510.78
440.26	7520.14
440.45	7314.17
440.63	7468.65
440.82	7733.13
441.01	7618.44
441.19	7510.78
441.38	7653.55
441.57	7782.28
441.75	7735.47
441.94	8037.40
442.12	8021.02
442.31	7990.59
442.50	8030.38
442.68	8126.34
442.87	8168.47
443.05	8074.85
443.24	8182.51
443.43	8140.38
443.61	8407.20
443.80	8493.80
443.98	8229.32
444.17	7859.52
444.35	8313.58
444.54	8491.46
444.73	8248.05
444.91	8299.54
445.10	8336.99
445.28	8442.31
445.47	8269.11
445.65	8470.40
445.84	8423.59
446.02	8454.02
446.21	8379.12
446.39	8444.65
446.58	8566.36
446.77	8346.35
446.95	8332.31
447.14	8561.68
447.32	8669.34
447.51	8636.58
447.69	8697.43
447.88	8470.40
448.06	8608.49
448.25	8636.58
448.43	8559.34
448.62	8503.17
448.80	8601.47
448.99	9057.87
449.17	8671.68
449.36	8765.31
449.54	8865.95
449.73	8945.53
449.91	9132.77
450.10	9085.96
450.28	9097.66
450.46	9135.11
450.65	9092.98
450.83	9097.66
451.02	9090.64
451.20	9439.38
451.39	9214.69
451.57	9240.44
451.76	9167.88
451.94	9156.18
452.13	9315.33
452.31	9352.78
452.49	9224.05
452.68	9284.91
452.86	9275.54
453.05	9502.58
453.23	9603.22
453.42	9446.40
453.60	9469.81
453.78	9586.83
453.97	9343.42
454.15	9427.68
454.34	9509.60
454.52	9834.93
454.70	9834.93
454.89	9790.46
455.07	9891.10
455.26	9848.97
455.44	9982.38
455.62	9750.67
455.81	10132.18
455.99	10115.80
456.17	10076.01
456.36	10221.12
456.54	10387.30
456.73	10427.09
456.91	10630.71
457.09	10401.34
457.28	10560.50
457.46	10279.63
457.64	10597.95
457.83	10565.18
458.01	10520.71
458.19	10803.91
458.38	10558.16
458.56	10855.40
458.74	10768.80
458.93	10808.59
459.11	10942.00
459.29	10726.68
459.48	10745.40
459.66	10939.66
459.84	11014.56
460.03	11033.29
460.21	11211.17
460.39	10813.28
460.57	11044.99
460.76	11246.27
460.94	11379.68
461.12	11375.00
461.31	11096.48
461.49	11328.19
461.67	11183.08
461.85	11672.25
462.04	11513.10
462.22	11351.60
462.40	11742.47
462.59	11463.94
462.77	11644.17
462.95	11749.49
463.13	11651.19
463.32	11456.92
463.50	11782.26
463.68	11950.78
463.86	11819.71
464.05	11562.25
464.23	11953.12
464.41	12018.65
464.59	11758.85
464.78	12294.83
464.96	12011.63
465.14	11976.52
465.32	12517.18
465.50	12163.76
465.69	12255.04
465.87	12273.77
466.05	12198.87
466.23	12184.83
466.41	12184.83
466.60	12631.87
466.78	12414.20
466.96	12241.00
467.14	12369.73
467.32	12613.15
467.51	12805.07
467.69	12243.34
467.87	12556.97
468.05	12737.20
468.23	12315.90
468.41	12578.04
468.60	12746.56
468.78	12971.25
468.96	12931.46
469.14	12755.92
469.32	13111.68
469.50	12870.61
469.69	13181.90
469.87	13254.45
470.05	13221.69
470.23	13179.56
470.41	13217.01
470.59	13399.57
470.77	13177.22
470.95	13479.15
471.14	13621.92
471.32	13245.09
471.50	13792.78
471.68	13652.34
471.86	13668.73
472.04	13797.46
472.22	14118.11
472.40	13727.24
472.58	13795.12
472.77	14075.98
472.95	14347.48
473.13	14661.12
473.31	14235.14
473.49	14338.12
473.67	14195.35
473.85	14368.55
474.03	14815.59
474.21	14736.01
474.39	14724.31
474.57	14920.92
474.75	15042.62
474.93	15124.54
475.12	14949.00
475.30	15337.53
475.48	15323.49
475.66	15325.83
475.84	15400.72
476.02	15538.82
476.20	15613.71
476.38	15440.51
476.56	16248.00
476.74	15768.19
476.92	15845.43
477.10	15726.06
477.28	16556.95
477.46	16360.34
477.64	16365.03
477.82	16538.23
478.00	17135.06
478.18	17025.06
478.36	17085.91
478.54	17504.87
478.72	17207.62
478.90	17659.34
479.08	17703.81
479.26	17741.26
479.44	17633.60
479.62	17853.61
479.80	18314.69
479.98	18485.55
480.16	18778.12
480.34	18097.02
480.52	18644.71
480.70	18640.03
480.88	18581.51
481.06	18850.67
481.24	18991.11
481.41	19431.13
481.59	19482.62
481.77	19564.54
481.95	19580.92
482.13	19843.06
482.31	20060.73
482.49	20559.27
482.67	20177.76
482.85	20386.07
483.03	20580.33
483.21	21280.15
483.39	20872.90
483.57	20851.83
483.74	21046.10
483.92	21994.01
484.10	21406.54
484.28	22054.87
484.46	22160.19
484.64	22277.22
484.82	21757.62
485.00	22544.04
485.18	22801.50
485.35	23147.90
485.53	23157.26
485.71	23243.86
485.89	23777.50
486.07	23672.18
486.25	23840.70
486.43	23740.05
486.61	24051.34
486.78	24294.76
486.96	24676.27
487.14	24837.76
487.32	25039.05
487.50	25050.75
487.68	25139.69
487.85	25259.06
488.03	25930.80
488.21	25998.67
488.39	25965.90
488.57	25921.43
488.75	26473.80
488.92	26778.07
489.10	26979.36
489.28	27126.81
489.46	27386.61
489.64	27271.92
489.81	28191.75
489.99	27814.93
490.17	28386.02
490.35	28414.10
490.53	28271.33
490.70	28594.32
490.88	28348.57
491.06	29050.73
491.24	29366.70
491.41	29336.27
491.59	29560.97
491.77	29715.44
491.95	30085.25
492.13	30204.61
492.30	30426.96
492.48	30221.00
492.66	30625.91
492.84	30714.85
493.01	30714.85
493.19	30808.47
493.37	31189.98
493.54	31391.26
493.72	31737.66
493.90	31728.30
494.08	31920.23
494.25	32634.09
494.43	32669.20
494.61	32388.33
494.79	32498.34
494.96	32648.13
495.14	32776.86
495.32	33804.36
495.49	34007.98
495.67	33673.29
495.85	33853.51
496.02	34167.14
496.20	34597.80
496.38	34515.88
496.55	34066.50
496.73	35384.22
496.91	35054.20
497.09	35426.35
497.26	35487.20
497.44	35316.34
497.62	35676.79
497.79	36245.54
497.97	35716.58
498.14	35964.67
498.32	36519.38
498.50	36357.88
498.67	36900.89
498.85	36694.92
499.03	37221.54
499.20	36849.39
499.38	37282.39
499.56	37144.30
499.73	37865.19
499.91	37764.54
500.08	38043.07
500.26	37909.66
500.44	38183.50
500.61	38038.39
500.79	38375.42
500.97	38234.99
501.14	39164.18
501.32	38696.08
501.49	38852.89
501.67	39068.22
501.84	39452.07
502.02	39229.72
502.20	39400.58
502.37	39524.63
502.55	39229.72
502.72	39651.02
502.90	39814.85
503.07	39885.07
503.25	39938.90
503.43	40177.64
503.60	40348.50
503.78	40505.31
503.95	40622.34
504.13	40474.88
504.30	41045.97
504.48	41123.21
504.65	40582.55
504.83	41640.47
505.01	41811.33
505.18	41434.50
505.36	41687.28
505.53	41542.17
505.71	41904.95
505.88	41848.78
506.06	41937.72
506.23	42272.42
506.41	42167.09
506.58	42178.79
506.76	42827.12
506.93	42490.09
507.11	42508.81
507.28	43150.12
507.46	43351.40
507.63	43412.26
507.81	43311.61
507.98	43225.01
508.16	43784.40
508.33	43803.13
508.50	43761.00
508.68	43988.03
508.85	44161.23
509.03	44210.38
509.20	44102.71
509.38	44495.92
509.55	45272.98
509.73	44741.68
509.90	45202.77
510.08	44570.82
510.25	44659.76
510.42	45312.77
510.60	45808.96
510.77	45394.69
510.95	45593.64
511.12	45600.66
511.30	45448.52
511.47	45624.06
511.64	45797.26
511.82	46061.74
511.99	46176.43
512.17	46272.39
512.34	45975.14
512.51	46955.83
512.69	46890.29
512.86	46396.44
513.04	46920.72
513.21	46976.89
513.38	47255.42
513.56	47456.70
513.73	47004.98
513.90	47566.71
514.08	47461.38
514.25	47585.43
514.43	47803.10
514.60	47700.12
514.77	47562.03
514.95	48329.72
515.12	47833.53
515.29	47845.23
515.47	48163.54
515.64	48507.60
515.81	48322.70
515.99	48631.65
516.16	48545.05
516.33	48718.25
516.51	48926.56
516.68	48680.80
516.85	48741.66
517.03	48973.37
517.20	49111.46
517.37	49263.60
517.54	49221.47
517.72	49418.07
517.89	49443.82
518.06	49462.54
518.24	49652.12
518.41	49471.90
518.58	49897.88
518.75	49193.38
518.93	49895.54
519.10	49986.82
519.27	50316.84
519.45	49965.76
519.62	50232.58
519.79	50267.69
519.96	50099.17
520.14	50171.72
520.31	50464.29
520.48	50475.99
520.65	50567.27
520.83	50901.97
521.00	51185.18
521.17	50904.31
521.34	51026.02
521.52	50658.56
521.69	50871.54
521.86	51147.73
522.03	51487.10
522.20	51838.18
522.38	52093.30
522.55	51739.88
522.72	51861.59
522.89	51337.31
523.07	51922.44
523.24	51723.50
523.41	51962.23
523.58	51828.82
523.75	52303.95
523.92	52097.98
524.10	52207.99
524.27	52126.07
524.44	52690.14
524.61	52191.61
524.78	52685.46
524.96	52245.44
525.13	52369.49
525.30	52811.85
525.47	52772.06
525.64	53001.43
525.81	52823.55
525.98	53034.20
526.16	52968.66
526.33	53137.18
526.50	53230.80
526.67	53272.93
526.84	53176.97
527.01	53015.47
527.18	53359.53
527.36	53006.11
527.53	53057.60
527.70	53413.37
527.87	53867.43
528.04	53476.56
528.21	53366.55
528.38	53750.40
528.55	53675.51
528.72	53729.34
528.89	53542.10
529.07	53432.09
529.24	53628.69
529.41	53914.24
529.58	54045.31
529.75	53820.62
529.92	54145.95
530.09	53825.30
530.26	54209.15
530.43	54447.88
530.60	53986.80
530.77	54028.93
530.94	54127.23
531.11	54349.58
531.28	54195.10
531.46	54155.32
531.63	54670.23
531.80	54597.68
531.97	54869.18
532.14	54798.96
532.31	54798.96
532.48	54962.80
532.65	54974.50
532.82	54780.24
532.99	54946.42
533.16	54958.12
533.33	55084.51
533.50	54885.56
533.67	55386.44
533.84	54742.79
534.01	55124.30
534.18	55171.11
534.35	55470.70
534.52	55213.24
534.69	55484.74
534.86	55292.82
535.03	55276.43
535.20	55220.26
535.37	55618.15
535.54	55789.01
535.71	55430.91
535.88	55646.24
536.05	55629.85
536.22	55824.12
536.38	56037.11
536.55	56025.40
536.72	55866.25
536.89	55765.60
537.06	55833.48
537.23	56191.58
537.40	55875.61
537.57	55849.86
537.74	55959.87
537.91	56168.18
538.08	55922.42
538.25	55817.10
538.42	56186.90
538.59	56378.82
538.75	56044.13
538.92	56142.43
539.09	56507.55
539.26	56245.41
539.43	56437.34
539.60	56655.01
539.77	56437.34
539.94	56406.91
540.11	56584.79
540.28	56666.71
540.44	56750.97
540.61	56575.43
540.78	56514.58
540.95	56526.28
541.12	56530.96
541.29	56755.65
541.46	56868.00
541.62	56739.27
541.79	56849.27
541.96	56779.06
542.13	56818.84
542.30	56872.68
542.47	57209.71
542.63	57116.09
542.80	57148.86
542.97	57202.69
543.14	57322.06
543.31	57495.26
543.48	57439.09
543.64	57518.67
543.81	57776.12
543.98	57516.32
544.15	57619.31
544.32	57544.41
544.48	57595.90
544.65	57460.15
544.82	57556.11
544.99	57595.90
545.16	57570.16
545.32	57584.20
545.49	57844.00
545.66	57970.39
545.83	57942.30
546.00	57991.45
546.16	58003.16
546.33	57722.29
546.50	57771.44
546.67	57776.12
546.83	57752.72
547.00	57972.73
547.17	58267.64
547.34	57989.11
547.50	58237.21
547.67	58309.77
547.84	58120.18
548.00	58398.71
548.17	58375.30
548.34	58316.79
548.51	58480.63
548.67	58358.92
548.84	58494.67
549.01	58375.30
549.18	58389.34
549.34	58234.87
549.51	58473.60
549.68	58445.52
549.84	58562.54
550.01	58735.74
550.18	58710.00
550.34	58497.01
550.51	58578.93
550.68	58630.42
550.84	58576.59
551.01	58805.96
551.18	58761.49
551.34	58801.28
551.51	58665.53
551.68	58747.45
551.84	58585.95
552.01	58815.32
552.18	58801.28
552.34	58932.35
552.51	58712.34
552.68	58801.28
552.84	58969.80
553.01	59028.31
553.18	58988.52
553.34	59138.32
553.51	58983.84
553.67	58937.03
553.84	59297.47
554.01	59159.38
554.17	59126.61
554.34	59152.36
554.51	59161.72
554.67	59168.74
554.84	59257.68
555.00	59119.59
555.17	59358.33
555.33	59260.02
555.50	59220.23
555.67	59238.96
555.83	59241.30
556.00	59302.15
556.16	59763.24
556.33	59245.98
556.50	59512.80
556.66	59358.33
556.83	59320.88
556.99	59650.89
557.16	59646.21
557.32	59604.08
557.49	59756.22
557.65	59524.50
557.82	59578.34
557.98	59477.69
558.15	59662.60
558.32	59758.56
558.48	59599.40
558.65	59725.79
558.81	59662.60
558.98	59952.82
559.14	59952.82
559.31	59749.20
559.47	59973.89
559.64	59994.95
559.80	59807.71
559.97	60093.25
560.13	59770.26
560.30	59938.78
560.46	59732.81
560.63	60093.25
560.79	59992.61
560.96	60378.80
561.12	60133.04
561.29	59945.80
561.45	59973.89
561.61	60140.07
561.78	60018.36
561.94	59948.14
562.11	60128.36
562.27	59992.61
562.44	60065.17
562.60	60287.52
562.77	60175.17
562.93	59906.01
563.10	60126.02
563.26	59994.95
563.42	60292.20
563.59	60116.66
563.75	60198.58
563.92	60409.23
564.08	60273.48
564.24	60264.11
564.41	60130.70
564.57	60083.89
564.74	60205.60
564.90	60261.77
565.07	60175.17
565.23	60280.50
565.39	60294.54
565.56	60486.46
565.72	60299.22
565.88	60364.76
566.05	60341.35
566.21	60514.55
566.38	60310.92
566.54	60465.40
566.70	60519.23
566.87	60617.53
567.03	60306.24
567.19	60662.00
567.36	60537.96
567.52	60559.02
567.68	60788.39
567.85	60552.00
568.01	60781.37
568.17	60402.21
568.34	60643.28
568.50	60486.46
568.66	60423.27
568.83	60708.82
568.99	60481.78
569.15	60601.15
569.32	60638.60
569.48	60601.15
569.64	60481.78
569.81	60619.88
569.97	60465.40
570.13	60563.70
570.30	60439.65
570.46	60521.57
570.62	60755.63
570.78	60795.42
570.95	60720.52
571.11	60767.33
571.27	60589.45
571.43	60769.67
571.60	60823.50
571.76	60823.50
571.92	60800.10
572.09	60685.41
572.25	60938.19
572.41	60706.47
572.57	60636.26
572.74	61188.63
572.90	60608.17
573.06	60685.41
573.22	60903.08
573.38	60900.74
573.55	60617.53
573.71	60992.02
573.87	61029.47
574.03	60690.09
574.20	60994.36
574.36	60863.29
574.52	60741.58
574.68	60921.80
574.84	61022.45
575.01	60968.61
575.17	60860.95
575.33	60856.27
575.49	60736.90
575.65	60919.46
575.82	60940.53
575.98	60926.49
576.14	61261.18
576.30	60992.02
576.46	60867.97
576.62	61069.26
576.79	61031.81
576.95	60598.81
577.11	60968.61
577.27	60987.34
577.43	60963.93
577.59	60844.57
577.75	61020.11
577.92	60910.10
578.08	61160.54
578.24	60921.80
578.40	61020.11
578.56	61181.60
578.72	61251.82
578.88	61240.12
579.04	61272.88
579.21	61069.26
579.37	61317.35
579.53	61193.31
579.69	60891.38
579.85	61076.28
580.01	61071.60
580.17	60907.76
580.33	61062.24
580.49	61244.80
580.65	61109.05
580.82	61190.97
580.98	60853.93
581.14	60867.97
581.30	60966.27
581.46	61123.09
581.62	61151.18
581.78	61078.62
581.94	61085.64
582.10	61106.71
582.26	61137.13
582.42	61024.79
582.58	60992.02
582.74	61165.22
582.90	61106.71
583.06	61169.90
583.22	61071.60
583.38	61298.63
583.54	61109.05
583.70	61020.11
583.86	61401.61
584.02	60959.25
584.18	61197.99
584.34	61137.13
584.50	61055.21
584.66	60966.27
584.82	60968.61
584.98	61387.57
585.14	61427.36
585.30	61020.11
585.46	61041.17
585.62	61113.73
585.78	61303.31
585.94	61036.49
586.10	61216.71
586.26	61155.86
586.42	61263.52
586.58	61275.22
586.74	61289.27
586.90	61209.69
587.06	61144.16
587.22	61331.40
587.38	61380.55
587.54	61338.42
587.70	61413.32
587.86	61062.24
588.02	61174.58
588.18	61584.18
588.34	61392.25
588.49	61212.03
