SpectraSuite Data File
++++++++++++++++++++++++++++++++++++
Date: Fri Oct 25 10:47:35 EDT 2013
User: price-jones
Dark Spectrum Present: No
Reference Spectrum Present: No
Number of Sampled Component Spectra: 1
Spectrometers: USB2+H05261
Integration Time (usec): 100000 (USB2+H05261)
Spectra Averaged: 1 (USB2+H05261)
Boxcar Smoothing: 0 (USB2+H05261)
Correct for Electrical Dark: No (USB2+H05261)
Strobe/Lamp Enabled: No (USB2+H05261)
Correct for Detector Non-linearity: No (USB2+H05261)
Correct for Stray Light: No (USB2+H05261)
Number of Pixels in Processed Spectrum: 2048
>>>>>Begin Processed Spectral Data<<<<<
365.73	161.50
365.92	161.50
366.12	161.50
366.32	35.11
366.52	60.85
366.72	23.41
366.91	21.06
367.11	65.54
367.31	51.49
367.51	56.17
367.70	21.06
367.90	112.35
368.10	65.54
368.30	51.49
368.49	11.70
368.69	25.75
368.89	63.19
369.09	14.04
369.28	14.04
369.48	0.00
369.68	147.45
369.87	163.84
370.07	105.32
370.27	154.48
370.47	196.60
370.66	322.99
370.86	390.87
371.06	444.70
371.25	533.64
371.45	388.53
371.65	404.91
371.84	411.93
372.04	402.57
372.24	479.81
372.44	442.36
372.63	458.74
372.83	456.40
373.03	498.53
373.22	512.58
373.42	423.64
373.62	489.17
373.81	535.98
374.01	531.30
374.21	512.58
374.40	561.73
374.60	543.00
374.79	514.92
374.99	470.45
375.19	538.32
375.38	510.24
375.58	559.39
375.78	587.47
375.97	528.96
376.17	592.16
376.37	585.13
376.56	599.18
376.76	596.84
376.95	608.54
377.15	653.01
377.35	613.22
377.54	557.05
377.74	613.22
377.93	578.11
378.13	645.99
378.33	653.01
378.52	620.24
378.72	561.73
378.91	610.88
379.11	592.16
379.31	524.28
379.50	613.22
379.70	711.52
379.89	678.76
380.09	657.69
380.28	631.94
380.48	650.67
380.68	594.50
380.87	568.75
381.07	730.25
381.26	676.41
381.46	636.63
381.65	699.82
381.85	685.78
382.04	624.92
382.24	653.01
382.43	610.88
382.63	653.01
382.83	683.44
383.02	760.67
383.22	755.99
383.41	636.63
383.61	746.63
383.80	770.04
384.00	706.84
384.19	779.40
384.39	746.63
384.58	622.58
384.78	812.17
384.97	791.10
385.17	699.82
385.36	781.74
385.56	751.31
385.75	755.99
385.95	809.83
386.14	777.06
386.34	791.10
386.53	819.19
386.72	826.21
386.92	821.53
387.11	800.46
387.31	786.42
387.50	781.74
387.70	814.51
387.89	798.12
388.09	844.93
388.28	856.64
388.48	863.66
388.67	922.17
388.86	854.30
389.06	889.40
389.25	924.51
389.45	926.85
389.64	887.06
389.84	905.79
390.03	919.83
390.22	940.90
390.42	910.47
390.61	931.53
390.81	905.79
391.00	945.58
391.19	1008.77
391.39	952.60
391.58	894.08
391.78	945.58
391.97	992.39
392.16	938.55
392.36	947.92
392.55	964.30
392.75	905.79
392.94	926.85
393.13	954.94
393.33	968.98
393.52	1020.47
393.71	1069.62
393.91	1036.86
394.10	992.39
394.29	1156.22
394.49	1039.20
394.68	1093.03
394.88	1107.07
395.07	1149.20
395.26	1100.05
395.46	1067.28
395.65	1142.18
395.84	1034.52
396.04	1114.10
396.23	1158.57
396.42	1053.24
396.62	1163.25
396.81	1071.97
397.00	1179.63
397.19	1212.40
397.39	1320.06
397.58	1334.11
397.77	1200.69
397.97	1289.64
398.16	1224.10
398.35	1294.32
398.55	1270.91
398.74	1245.16
398.93	1380.92
399.12	1341.13
399.32	1313.04
399.51	1343.47
399.70	1306.02
399.90	1383.26
400.09	1282.61
400.28	1350.49
400.47	1406.66
400.67	1486.24
400.86	1411.34
401.05	1397.30
401.24	1430.07
401.44	1455.81
401.63	1441.77
401.82	1469.86
402.01	1423.05
402.21	1472.20
402.40	1528.37
402.59	1504.96
402.78	1500.28
402.97	1530.71
403.17	1586.88
403.36	1558.80
403.55	1556.46
403.74	1596.25
403.93	1565.82
404.13	1661.78
404.32	1717.95
404.51	1570.50
404.70	1680.50
404.89	1556.46
405.09	1699.23
405.28	1769.44
405.47	1799.87
405.66	1645.40
405.85	1739.02
406.05	1781.15
406.24	1804.55
406.43	1799.87
406.62	1799.87
406.81	1825.62
407.00	1767.10
407.20	1834.98
407.39	1818.60
407.58	1799.87
407.77	1884.13
407.96	2064.35
408.15	1987.11
408.34	1930.94
408.54	1919.24
408.73	2052.65
408.92	2010.52
409.11	1963.71
409.30	2108.82
409.49	2003.50
409.68	2022.22
409.87	1968.39
410.07	1989.46
410.26	2010.52
410.45	2125.21
410.64	2111.16
410.83	2267.98
411.02	2167.34
411.21	2176.70
411.40	2263.30
411.59	2235.21
411.78	2326.49
411.98	2361.60
412.17	2347.56
412.36	2279.68
412.55	2473.95
412.74	2464.58
412.93	2401.39
413.12	2392.03
413.31	2466.92
413.50	2525.44
413.69	2511.39
413.88	2607.36
414.07	2466.92
414.26	2537.14
414.45	2541.82
414.64	2689.28
414.83	2541.82
415.02	2684.59
415.22	2640.12
415.41	2778.22
415.60	2832.05
415.79	2829.71
415.98	2820.35
416.17	2963.12
416.36	2846.09
416.55	2942.05
416.74	2808.64
416.93	2911.63
417.12	3023.97
417.31	2928.01
417.50	2942.05
417.69	3084.83
417.88	3073.12
418.07	3000.57
418.26	3091.85
418.45	3206.53
418.64	3164.40
418.83	3143.34
419.02	3164.40
419.21	3180.79
419.39	3274.41
419.58	3225.26
419.77	3190.15
419.96	3197.17
420.15	3318.88
420.34	3316.54
420.53	3180.79
420.72	3428.88
420.91	3229.94
421.10	3304.84
421.29	3482.72
421.48	3440.59
421.67	3384.41
421.86	3524.85
422.05	3419.52
422.24	3461.65
422.43	3459.31
422.61	3456.97
422.80	3599.74
422.99	3471.01
423.18	3478.04
423.37	3604.42
423.56	3599.74
423.75	3576.34
423.94	3548.25
424.13	3302.50
424.32	3382.07
424.50	3447.61
424.69	3616.13
424.88	3510.80
425.07	3599.74
425.26	3461.65
425.45	3616.13
425.64	3562.30
425.83	3524.85
426.01	3630.17
426.20	3548.25
426.39	3531.87
426.58	3550.59
426.77	3583.36
426.96	3550.59
427.15	3721.45
427.33	3726.13
427.52	3754.22
427.71	3700.39
427.90	3700.39
428.09	3651.24
428.28	3595.06
428.46	3882.95
428.65	3637.19
428.84	3950.82
429.03	3819.75
429.22	3775.28
429.40	3756.56
429.59	3908.69
429.78	3705.07
429.97	3660.60
430.16	3590.38
430.34	3941.46
430.53	3784.65
430.72	3969.55
430.91	3861.88
431.10	4049.13
431.28	3953.16
431.47	4081.89
431.66	4177.86
431.85	3901.67
432.03	4002.32
432.22	4152.11
432.41	4002.32
432.60	4189.56
432.79	4243.39
432.97	4337.01
433.16	4140.41
433.35	4184.88
433.54	4173.18
433.72	4262.12
433.91	4229.35
434.10	4353.40
434.28	4365.10
434.47	4278.50
434.66	4507.87
434.85	4409.57
435.03	4500.85
435.22	4442.34
435.41	4475.10
435.59	4458.72
435.78	4582.77
435.97	4482.13
436.16	4636.60
436.34	4631.92
436.53	4606.17
436.72	4704.48
436.90	4465.74
437.09	4634.26
437.28	4652.98
437.46	4713.84
437.65	4601.49
437.84	4695.11
438.02	4634.26
438.21	4781.71
438.40	4627.24
438.58	4725.54
438.77	5027.47
438.96	4950.23
439.14	4884.70
439.33	4992.36
439.52	5020.45
439.70	5013.43
439.89	5142.16
440.08	5078.96
440.26	5231.10
440.45	5114.07
440.63	5305.99
440.82	5296.63
441.01	5160.88
441.19	5317.70
441.38	5373.87
441.57	5481.53
441.75	5523.66
441.94	5563.45
442.12	5706.23
442.31	5554.09
442.50	5671.12
442.68	5617.29
442.87	5689.84
443.05	5694.52
443.24	5682.82
443.43	5802.19
443.61	5713.25
443.80	5841.98
443.98	5650.05
444.17	5563.45
444.35	5909.85
444.54	5860.70
444.73	5769.42
444.91	5668.78
445.10	5795.17
445.28	5856.02
445.47	5865.38
445.65	5785.80
445.84	5790.49
446.02	5888.79
446.21	5893.47
446.39	5816.23
446.58	6118.16
446.77	6022.20
446.95	5893.47
447.14	6111.14
447.32	5928.58
447.51	5858.36
447.69	5867.72
447.88	5888.79
448.06	5923.90
448.25	5998.79
448.43	5914.53
448.62	5884.11
448.80	6148.59
448.99	6050.28
449.17	6193.06
449.36	5954.32
449.54	6204.76
449.73	6370.94
449.91	6335.83
450.10	6253.91
450.28	6469.24
450.46	6392.00
450.65	6464.56
450.83	6349.87
451.02	6242.21
451.20	6511.37
451.39	6429.45
451.57	6525.41
451.76	6326.47
451.94	6490.31
452.13	6607.33
452.31	6457.54
452.49	6544.14
452.68	6541.80
452.86	6312.42
453.05	6569.88
453.23	6754.79
453.42	6494.99
453.60	6628.40
453.78	6525.41
453.97	6633.08
454.15	6593.29
454.34	6490.31
454.52	6792.23
454.70	6715.00
454.89	6808.62
455.07	6757.13
455.26	6775.85
455.44	7005.22
455.62	6754.79
455.81	6883.52
455.99	6984.16
456.17	6981.82
456.36	7087.14
456.54	6993.52
456.73	7150.34
456.91	7323.54
457.09	7272.04
457.28	7393.75
457.46	7232.26
457.64	7236.94
457.83	7148.00
458.01	7080.12
458.19	7438.22
458.38	7164.38
458.56	7389.07
458.74	7332.90
458.93	7234.60
459.11	7302.47
459.29	7342.26
459.48	7522.48
459.66	7515.46
459.84	7531.84
460.03	7637.17
460.21	7604.40
460.39	7581.00
460.57	7676.96
460.76	7896.97
460.94	7768.24
461.12	7868.88
461.31	7791.64
461.49	7889.95
461.67	7730.79
461.85	7817.39
462.04	7789.30
462.22	8374.44
462.40	8013.99
462.59	7936.76
462.77	7988.25
462.95	7889.95
463.13	8072.51
463.32	7988.25
463.50	7990.59
463.68	8189.53
463.86	8177.83
464.05	8107.62
464.23	8023.36
464.41	8210.60
464.59	8006.97
464.78	8124.00
464.96	8212.94
465.14	8201.24
465.32	8278.47
465.50	8339.33
465.69	8243.37
465.87	8329.97
466.05	8507.85
466.23	8315.92
466.41	8084.21
466.60	8496.14
466.78	8241.03
466.96	8077.19
467.14	8329.97
467.32	8554.66
467.51	8276.13
467.69	8559.34
467.87	8547.64
468.05	8634.24
468.23	8629.56
468.41	8374.44
468.60	8575.72
468.78	8744.24
468.96	8542.96
469.14	8929.14
469.32	8762.97
469.50	8645.94
469.69	8821.48
469.87	9020.42
470.05	8894.04
470.23	8863.61
470.41	8802.75
470.59	8784.03
470.77	8723.18
470.95	8798.07
471.14	9100.00
471.32	9060.21
471.50	9320.01
471.68	9378.53
471.86	9259.16
472.04	9530.66
472.22	9673.43
472.40	9303.63
472.58	9380.87
472.77	9315.33
472.95	9455.76
473.13	9874.72
473.31	9575.13
473.49	9542.36
473.67	9472.15
473.85	9516.62
474.03	9802.16
474.21	9884.08
474.39	9818.55
474.57	10036.22
474.75	10141.54
474.93	10153.24
475.12	10141.54
475.30	10307.72
475.48	10160.27
475.66	10087.71
475.84	10115.80
476.02	10511.35
476.20	10375.59
476.38	10750.08
476.56	10913.92
476.74	10850.72
476.92	10801.57
477.10	10789.87
477.28	10808.59
477.46	10813.28
477.64	11009.88
477.82	11047.33
478.00	11403.09
478.18	11496.71
478.36	11461.60
478.54	11529.48
478.72	11679.27
478.90	11569.27
479.08	11887.58
479.26	11653.53
479.44	11936.73
479.62	11925.03
479.80	11927.37
479.98	12182.49
480.16	12524.21
480.34	12264.41
480.52	12397.82
480.70	12379.09
480.88	12423.56
481.06	12683.36
481.24	12496.12
481.41	12500.80
481.59	12697.41
481.77	13083.59
481.95	13057.85
482.13	13128.06
482.31	13305.95
482.49	13479.15
482.67	13474.46
482.85	13619.58
483.03	13963.64
483.21	13769.37
483.39	13888.74
483.57	13895.76
483.74	14125.13
483.92	13956.61
484.10	14043.21
484.28	14544.09
484.46	14803.89
484.64	14991.13
484.82	14569.83
485.00	14885.81
485.18	15108.16
485.35	15389.02
485.53	15136.24
485.71	14974.75
485.89	15201.78
486.07	15012.20
486.25	15499.03
486.43	15510.73
486.61	15791.59
486.78	15948.41
486.96	15880.53
487.14	16065.44
487.32	16297.15
487.50	16360.34
487.68	16313.53
487.85	16594.40
488.03	17018.04
488.21	17116.34
488.39	16947.82
488.57	17179.53
488.75	17128.04
488.92	17462.74
489.10	17720.20
489.28	17579.76
489.46	18066.60
489.64	18101.70
489.81	18525.34
489.99	18394.27
490.17	18375.55
490.35	18607.26
490.53	18478.53
490.70	18757.05
490.88	18787.48
491.06	18888.12
491.24	19014.51
491.41	19190.05
491.59	19246.23
491.77	19030.90
491.95	19360.91
492.13	19655.82
492.30	19447.51
492.48	19733.06
492.66	19875.83
492.84	19793.91
493.01	20325.21
493.19	20102.86
493.37	20734.81
493.54	20547.56
493.72	20842.47
493.90	20697.36
494.08	20788.64
494.25	21144.40
494.43	21172.49
494.61	21561.02
494.79	21481.44
494.96	21298.88
495.14	21446.33
495.32	21654.64
495.49	21778.68
495.67	21865.28
495.85	21771.66
496.02	22263.18
496.20	22408.29
496.38	22616.60
496.55	22553.40
496.73	23019.17
496.91	22640.00
497.09	22967.68
497.26	23187.69
497.44	22977.04
497.62	23030.87
497.79	23269.61
497.97	22930.23
498.14	23400.68
498.32	23716.65
498.50	23620.69
498.67	23962.40
498.85	24173.05
499.03	24245.61
499.20	24123.90
499.38	24390.72
499.56	24212.84
499.73	24453.92
499.91	24360.30
500.08	24650.52
500.26	24112.20
500.44	24774.57
500.61	24779.25
500.79	24467.96
500.97	25202.89
501.14	25378.43
501.32	25146.72
501.49	25223.95
501.67	25268.42
501.84	25254.38
502.02	25542.27
502.20	25596.10
502.37	25729.51
502.55	25703.76
502.72	25663.97
502.90	25834.83
503.07	25853.56
503.25	25958.88
503.43	25722.49
503.60	26466.78
503.78	26253.79
503.95	26031.44
504.13	26501.89
504.30	26223.36
504.48	26293.58
504.65	26806.16
504.83	26740.62
505.01	26766.37
505.18	26817.86
505.36	27091.70
505.53	26845.94
505.71	27405.33
505.88	27281.28
506.06	27178.30
506.23	27335.12
506.41	27358.52
506.58	27351.50
506.76	27611.30
506.93	27807.90
507.11	28147.28
507.28	27569.17
507.46	27510.66
507.63	27889.82
507.81	28163.67
507.98	27791.52
508.16	28397.72
508.33	28346.23
508.50	28594.32
508.68	28479.64
508.85	28577.94
509.03	28727.74
509.20	28716.03
509.38	29209.89
509.55	28863.49
509.73	28868.17
509.90	29298.83
510.08	29113.92
510.25	29460.32
510.42	29507.13
510.60	29509.47
510.77	29387.77
510.95	29750.55
511.12	29539.90
511.30	29876.94
511.47	30050.14
511.64	29764.59
511.82	30040.78
511.99	29991.62
512.17	30260.79
512.34	30108.65
512.51	30335.68
512.69	30700.81
512.86	30305.26
513.04	30424.62
513.21	30792.09
513.38	30485.48
513.56	30312.28
513.73	30494.84
513.90	30693.79
514.08	30845.92
514.25	30679.74
514.43	30497.18
514.60	30934.86
514.77	31126.78
514.95	30862.30
515.12	31058.91
515.29	31098.70
515.47	31819.58
515.64	31920.23
515.81	31288.28
515.99	31505.95
516.16	31239.13
516.33	31838.31
516.51	31613.62
516.68	31658.09
516.85	31611.28
517.03	31861.71
517.20	32226.84
517.37	32280.67
517.54	32542.81
517.72	32421.10
517.89	32278.33
518.06	32271.31
518.24	31861.71
518.41	31985.76
518.58	32643.45
518.75	32620.05
518.93	32121.51
519.10	32645.79
519.27	32687.92
519.45	32786.22
519.62	32966.45
519.79	32914.95
519.96	32786.22
520.14	33574.98
520.31	33315.19
520.48	33827.76
520.65	33453.28
520.83	33589.03
521.00	33472.00
521.17	33921.38
521.34	33464.98
521.52	33921.38
521.69	33656.90
521.86	34092.24
522.03	33839.47
522.20	33972.88
522.38	34094.58
522.55	34136.71
522.72	33797.34
522.89	34440.98
523.07	34485.45
523.24	34052.45
523.41	34375.45
523.58	34176.50
523.75	34642.27
523.92	34902.07
524.10	35204.00
524.27	35061.22
524.44	35119.74
524.61	34948.88
524.78	34932.50
524.96	35056.54
525.13	35534.01
525.30	35585.50
525.47	35569.12
525.64	35438.05
525.81	35861.69
525.98	35644.02
526.16	35386.56
526.33	35438.05
526.50	35562.10
526.67	35292.94
526.84	35035.48
527.01	35419.33
527.18	35910.84
527.36	36254.90
527.53	35810.20
527.70	36203.41
527.87	36233.83
528.04	36158.94
528.21	36378.95
528.38	36622.36
528.55	36587.25
528.72	36542.78
528.89	36680.88
529.07	36800.24
529.24	36362.56
529.41	36517.04
529.58	36088.72
529.75	36720.66
529.92	36505.34
530.09	36776.84
530.26	36943.02
530.43	37036.64
530.60	36891.52
530.77	36943.02
530.94	37235.58
531.11	36947.70
531.28	37324.52
531.46	37460.27
531.63	37158.34
531.80	37364.31
531.97	37579.64
532.14	37361.97
532.31	37404.10
532.48	37371.33
532.65	37809.01
532.82	37336.23
532.99	37661.56
533.16	37219.20
533.33	37621.77
533.50	38054.77
533.67	37769.22
533.84	37591.34
534.01	37785.61
534.18	37806.67
534.35	37961.15
534.52	37734.12
534.69	37968.17
534.86	38082.86
535.03	37654.54
535.20	38302.87
535.37	38244.35
535.54	38806.08
535.71	38443.30
535.88	38607.14
536.05	38234.99
536.22	38487.77
536.38	38852.89
536.55	38710.12
536.72	38473.73
536.89	38342.66
537.06	38567.35
537.23	39009.71
537.40	38588.41
537.57	38756.93
537.74	38852.89
537.91	38761.61
538.08	38789.70
538.25	38705.44
538.42	39019.07
538.59	39255.46
538.75	38665.65
538.92	39159.50
539.09	39679.10
539.26	39412.28
539.43	39346.75
539.60	39264.83
539.77	38873.96
539.94	39512.92
540.11	39325.68
540.28	39524.63
540.44	39618.25
540.61	39344.41
540.78	39566.76
540.95	39526.97
541.12	39569.10
541.29	39700.17
541.46	40011.46
541.62	39889.75
541.79	39974.01
541.96	39459.09
542.13	39901.45
542.30	39976.35
542.47	39927.20
542.63	39669.74
542.80	40011.46
542.97	40481.91
543.14	40687.87
543.31	40430.41
543.48	40135.51
543.64	40739.36
543.81	40734.68
543.98	40645.74
544.15	40402.33
544.32	40844.69
544.48	40980.44
544.65	40659.79
544.82	40697.24
544.99	40385.94
545.16	40545.10
545.32	40664.47
545.49	41464.93
545.66	40971.08
545.83	41317.48
546.00	41127.89
546.16	40959.38
546.33	40737.02
546.50	40828.30
546.67	41085.76
546.83	41134.92
547.00	41284.71
547.17	41273.01
547.34	41361.95
547.50	40914.90
547.67	41670.90
547.84	41462.59
548.00	41900.27
548.17	41668.56
548.34	41738.77
548.51	42108.58
548.67	41443.87
548.84	41757.50
549.01	41752.82
549.18	41469.61
549.34	41640.47
549.51	41956.44
549.68	42073.47
549.84	42078.15
550.01	41902.61
550.18	41640.47
550.34	41954.10
550.51	41694.30
550.68	41607.70
550.84	41457.91
551.01	41801.97
551.18	41612.38
551.34	41989.21
551.51	42642.22
551.68	42232.63
551.84	42504.13
552.01	42108.58
552.18	42256.03
552.34	42436.25
552.51	42377.74
552.68	42344.97
552.84	42588.39
553.01	42658.60
553.18	42234.97
553.34	42309.86
553.51	42326.25
553.67	42368.38
553.84	42499.45
554.01	42990.96
554.17	43227.35
554.34	42604.77
554.51	42934.79
554.67	43166.50
554.84	42913.72
555.00	42527.53
555.17	42513.49
555.33	42899.68
555.50	42230.29
555.67	42887.98
555.83	43126.71
556.00	42738.18
556.16	43489.49
556.33	42946.49
556.50	42979.26
556.66	42895.00
556.83	42920.74
556.99	43168.84
557.16	43227.35
557.32	43416.94
557.49	43091.60
557.65	43077.56
557.82	42782.65
557.98	43159.48
558.15	43445.02
558.32	43168.84
558.48	42857.55
558.65	43098.62
558.81	43512.90
558.98	43416.94
559.14	43433.32
559.31	43316.29
559.47	43316.29
559.64	43599.50
559.80	43957.60
559.97	43784.40
560.13	43302.25
560.30	43208.63
560.46	43124.37
560.63	43501.20
560.79	44226.76
560.96	44044.20
561.12	43835.89
561.29	43601.84
561.45	43456.73
561.61	43718.87
561.78	43510.56
561.94	43393.53
562.11	43526.94
562.27	43447.36
562.44	43297.57
562.60	43863.98
562.77	43667.37
562.93	43629.93
563.10	43899.09
563.26	43686.10
563.42	44062.93
563.59	43636.95
563.75	43751.63
563.92	43786.74
564.08	44109.74
564.24	44105.06
564.41	43618.22
564.57	43866.32
564.74	43971.64
564.90	44072.29
565.07	43828.87
565.23	43964.62
565.39	43903.77
565.56	44451.45
565.72	43873.34
565.88	44458.48
566.05	43718.87
566.21	43812.49
566.38	44116.76
566.54	44250.17
566.70	44554.44
566.87	44715.93
567.03	44011.43
567.19	44439.75
567.36	44147.18
567.52	44074.63
567.68	44254.85
567.85	44278.25
568.01	44385.92
568.17	43903.77
568.34	44233.78
568.50	44016.11
568.66	44308.68
568.83	44076.97
568.99	43779.72
569.15	44177.61
569.32	44177.61
569.48	43791.42
569.64	44311.02
569.81	44364.85
569.97	44533.37
570.13	44392.94
570.30	44271.23
570.46	43943.56
570.62	44088.67
570.78	44273.57
570.95	44252.51
571.11	44243.15
571.27	44020.80
571.43	44437.41
571.60	44299.32
571.76	43943.56
571.92	44184.63
572.09	44116.76
572.25	44083.99
572.41	44568.48
572.57	44025.48
572.74	44601.25
572.90	44605.93
573.06	44556.78
573.22	44666.78
573.38	44392.94
573.55	44538.05
573.71	44739.34
573.87	43880.36
574.03	44091.01
574.20	44875.09
574.36	44376.56
574.52	44708.91
574.68	44596.57
574.84	44554.44
575.01	44093.35
575.17	44692.53
575.33	44402.30
575.49	44456.14
575.65	45130.21
575.82	45001.48
575.98	44652.74
576.14	44477.20
576.30	44584.86
576.46	44477.20
576.62	44179.95
576.79	44437.41
576.95	44243.15
577.11	44608.27
577.27	44341.45
577.43	44561.46
577.59	44449.11
577.75	44474.86
577.92	44296.98
578.08	44514.65
578.24	44516.99
578.40	44676.15
578.56	44917.22
578.72	44453.79
578.88	45088.08
579.04	44994.46
579.21	44395.28
579.37	44292.30
579.53	44835.30
579.69	44648.06
579.85	44442.09
580.01	44554.44
580.17	44540.39
580.33	44641.04
580.49	45160.64
580.65	45219.15
580.82	45425.12
580.98	44825.94
581.14	44147.18
581.30	44800.19
581.46	44456.14
581.62	44184.63
581.78	44357.83
581.94	44987.44
582.10	44687.85
582.26	44631.68
582.42	44809.56
582.58	44797.85
582.74	44442.09
582.90	44706.57
583.06	44734.66
583.22	45104.46
583.38	44919.56
583.54	44659.76
583.70	44856.37
583.86	44753.38
584.02	44598.91
584.18	45038.93
584.34	44706.57
584.50	44779.13
584.66	44842.32
584.82	44378.90
584.98	44762.75
585.14	44779.13
585.30	44516.99
585.46	44140.16
585.62	44411.67
585.78	44699.55
585.94	44381.24
586.10	44673.81
586.26	44296.98
586.42	44601.25
586.58	45099.78
586.74	44978.07
586.90	44484.22
587.06	44435.07
587.22	44720.62
587.38	44191.65
587.54	45071.70
587.70	45003.82
587.86	44879.77
588.02	44954.67
588.18	44690.19
588.34	44734.66
588.49	44568.48
588.65	44395.28
588.81	44629.34
588.97	44797.85
589.13	44561.46
589.29	44676.15
589.45	45160.64
589.61	44849.35
589.77	45050.63
589.93	45289.37
590.08	45258.94
590.24	45151.27
