SpectraSuite Data File
++++++++++++++++++++++++++++++++++++
Date: Fri Oct 25 11:23:16 EDT 2013
User: price-jones
Dark Spectrum Present: No
Reference Spectrum Present: No
Number of Sampled Component Spectra: 1
Spectrometers: USB2+H05261
Integration Time (usec): 100000 (USB2+H05261)
Spectra Averaged: 1 (USB2+H05261)
Boxcar Smoothing: 0 (USB2+H05261)
Correct for Electrical Dark: No (USB2+H05261)
Strobe/Lamp Enabled: No (USB2+H05261)
Correct for Detector Non-linearity: No (USB2+H05261)
Correct for Stray Light: No (USB2+H05261)
Number of Pixels in Processed Spectrum: 2048
>>>>>Begin Processed Spectral Data<<<<<
365.73	243.42
365.92	243.42
366.12	243.42
366.32	133.41
366.52	105.32
366.72	124.05
366.91	147.45
367.11	112.35
367.31	112.35
367.51	149.79
367.70	128.73
367.90	107.66
368.10	128.73
368.30	117.03
368.49	152.13
368.69	184.90
368.89	100.64
369.09	140.43
369.28	128.73
369.48	138.09
369.68	161.50
369.87	208.31
370.07	133.41
370.27	231.71
370.47	313.63
370.66	547.69
370.86	608.54
371.06	692.80
371.25	699.82
371.45	645.99
371.65	704.50
371.84	634.29
372.04	727.91
372.24	660.03
372.44	727.91
372.63	812.17
372.83	760.67
373.03	676.41
373.22	706.84
373.42	805.14
373.62	739.61
373.81	730.25
374.01	781.74
374.21	802.80
374.40	823.87
374.60	781.74
374.79	781.74
374.99	816.85
375.19	823.87
375.38	901.11
375.58	868.34
375.78	889.40
375.97	856.64
376.17	863.66
376.37	915.15
376.56	837.91
376.76	905.79
376.95	835.57
377.15	809.83
377.35	805.14
377.54	877.70
377.74	990.05
377.93	875.36
378.13	912.81
378.33	940.90
378.52	978.34
378.72	987.71
378.91	980.68
379.11	1001.75
379.31	966.64
379.50	968.98
379.70	971.32
379.89	1013.45
380.09	978.34
380.28	1043.88
380.48	933.87
380.68	1046.22
380.87	940.90
381.07	1004.09
381.26	1048.56
381.46	976.00
381.65	1018.13
381.85	1048.56
382.04	1001.75
382.24	1025.15
382.43	1062.60
382.63	1067.28
382.83	1015.79
383.02	1067.28
383.22	1130.48
383.41	1128.14
383.61	1142.18
383.80	1146.86
384.00	1116.44
384.19	1064.94
384.39	1139.84
384.58	1238.14
384.78	1095.37
384.97	1214.74
385.17	1196.01
385.36	1226.44
385.56	1153.88
385.75	1203.04
385.95	1256.87
386.14	1188.99
386.34	1270.91
386.53	1245.16
386.72	1224.10
386.92	1231.12
387.11	1193.67
387.31	1266.23
387.50	1291.98
387.70	1310.70
387.89	1275.59
388.09	1352.83
388.28	1303.68
388.48	1299.00
388.67	1357.51
388.86	1359.85
389.06	1364.53
389.25	1413.68
389.45	1336.45
389.64	1320.06
389.84	1348.15
390.03	1294.32
390.22	1401.98
390.42	1380.92
390.61	1369.21
390.81	1385.60
391.00	1420.71
391.19	1507.30
391.39	1446.45
391.58	1462.83
391.78	1460.49
391.97	1458.15
392.16	1521.35
392.36	1519.01
392.55	1551.78
392.75	1474.54
392.94	1486.24
393.13	1519.01
393.33	1526.03
393.52	1586.88
393.71	1528.37
393.91	1610.29
394.10	1586.88
394.29	1586.88
394.49	1638.38
394.68	1713.27
394.88	1661.78
395.07	1633.69
395.26	1652.42
395.46	1673.48
395.65	1732.00
395.84	1834.98
396.04	1774.13
396.23	1783.49
396.42	1739.02
396.62	1809.23
396.81	1797.53
397.00	1825.62
397.19	1830.30
397.39	1837.32
397.58	1886.47
397.77	1804.55
397.97	1795.19
398.16	1994.14
398.35	1888.81
398.55	1914.56
398.74	1914.56
398.93	1982.43
399.12	1907.54
399.32	1851.36
399.51	1994.14
399.70	2015.20
399.90	1961.37
400.09	2036.27
400.28	2120.53
400.47	2054.99
400.67	2085.42
400.86	2083.08
401.05	2078.40
401.24	2113.50
401.44	2146.27
401.63	2165.00
401.82	2225.85
402.01	2022.22
402.21	2120.53
402.40	2228.19
402.59	2160.31
402.78	2232.87
402.97	2214.15
403.17	2300.75
403.36	2312.45
403.55	2314.79
403.74	2298.41
403.93	2452.88
404.13	2363.94
404.32	2338.20
404.51	2363.94
404.70	2424.80
404.89	2492.67
405.09	2539.48
405.28	2455.22
405.47	2609.70
405.66	2537.14
405.85	2438.84
406.05	2518.42
406.24	2619.06
406.43	2614.38
406.62	2715.02
406.81	2686.94
407.00	2626.08
407.20	2551.18
407.39	2537.14
407.58	2736.09
407.77	2778.22
407.96	2736.09
408.15	2661.19
408.34	2799.28
408.54	2881.20
408.73	2829.71
408.92	2906.95
409.11	2810.98
409.30	2925.67
409.49	2883.54
409.68	3033.33
409.87	2911.63
410.07	2998.23
410.26	3012.27
410.45	3045.04
410.64	3126.96
410.83	3124.62
411.02	3035.67
411.21	3293.13
411.40	2974.82
411.59	3178.45
411.78	3110.57
411.98	3206.53
412.17	3246.32
412.36	3262.71
412.55	3272.07
412.74	3438.25
412.93	3393.78
413.12	3304.84
413.31	3627.83
413.50	3492.08
413.69	3613.79
413.88	3702.73
414.07	3639.53
414.26	3651.24
414.45	3620.81
414.64	3693.37
414.83	3789.33
415.02	3705.07
415.22	3747.20
415.41	3751.88
415.60	3796.35
415.79	3754.22
415.98	3915.72
416.17	4044.45
416.36	3983.59
416.55	3999.98
416.74	4142.75
416.93	4056.15
417.12	4191.90
417.31	4285.52
417.50	4084.23
417.69	4346.37
417.88	4255.09
418.07	4285.52
418.26	4334.67
418.45	4379.14
418.64	4428.29
418.83	4493.83
419.02	4393.19
419.21	4479.79
419.39	4596.81
419.58	4519.57
419.77	4610.86
419.96	4566.39
420.15	4606.17
420.34	4475.10
420.53	4505.53
420.72	4737.24
420.91	4812.14
421.10	4837.89
421.29	4809.80
421.48	4732.56
421.67	5018.11
421.86	4793.42
422.05	4891.72
422.24	4821.50
422.43	4938.53
422.61	5078.96
422.80	4997.04
422.99	4936.19
423.18	5046.20
423.37	4945.55
423.56	4936.19
423.75	4870.65
423.94	4802.78
424.13	4634.26
424.32	4725.54
424.50	5121.09
424.69	5153.86
424.88	5114.07
425.07	5090.67
425.26	5146.84
425.45	5029.81
425.64	5039.17
425.83	5060.24
426.01	5090.67
426.20	5095.35
426.39	4994.70
426.58	5083.64
426.77	5067.26
426.96	5160.88
427.15	5137.48
427.33	5270.89
427.52	5114.07
427.71	5275.57
427.90	5107.05
428.09	5373.87
428.28	5476.85
428.46	5500.26
428.65	5472.17
428.84	5455.79
429.03	5453.45
429.22	5308.34
429.40	5373.87
429.59	5603.24
429.78	5298.97
429.97	5210.03
430.16	5617.29
430.34	5610.26
430.53	5638.35
430.72	5748.36
430.91	5579.84
431.10	5671.12
431.28	5673.46
431.47	5825.59
431.66	5900.49
431.85	5813.89
432.03	5858.36
432.22	5954.32
432.41	5968.37
432.60	5968.37
432.79	6080.71
432.97	5970.71
433.16	6066.67
433.35	6052.63
433.54	6125.18
433.72	6230.51
433.91	6036.24
434.10	6324.13
434.28	6270.30
434.47	6099.44
434.66	6375.62
434.85	6406.05
435.03	6363.92
435.22	6387.32
435.41	6406.05
435.59	6324.13
435.78	6546.48
435.97	6511.37
436.16	6420.09
436.34	6527.75
436.53	6593.29
436.72	6712.66
436.90	6263.27
437.09	6761.81
437.28	6455.20
437.46	6715.00
437.65	6628.40
437.84	6822.66
438.02	6794.58
438.21	6843.73
438.40	6785.21
438.58	6909.26
438.77	7096.50
438.96	6949.05
439.14	7173.74
439.33	7033.31
439.52	7279.07
439.70	7246.30
439.89	7442.90
440.08	7379.71
440.26	7382.05
440.45	7393.75
440.63	7604.40
440.82	7777.60
441.01	7679.30
441.19	7707.38
441.38	7494.40
441.57	7871.22
441.75	7950.80
441.94	8030.38
442.12	7941.44
442.31	8133.36
442.50	8018.68
442.68	7840.79
442.87	8086.55
443.05	8250.39
443.24	8252.73
443.43	8196.56
443.61	8374.44
443.80	8465.72
443.98	8241.03
444.17	7978.89
444.35	8243.37
444.54	8374.44
444.73	8339.33
444.91	8322.94
445.10	8346.35
445.28	8390.82
445.47	8287.84
445.65	8498.49
445.84	8671.68
446.02	8573.38
446.21	8610.83
446.39	8358.05
446.58	8624.87
446.77	8477.42
446.95	8535.93
447.14	8444.65
447.32	8634.24
447.51	8493.80
447.69	8606.15
447.88	8617.85
448.06	8549.98
448.25	8482.10
448.43	8578.06
448.62	8535.93
448.80	8599.13
448.99	8524.23
449.17	8753.60
449.36	8531.25
449.54	8954.89
449.73	9001.70
449.91	9078.94
450.10	8898.72
450.28	9034.47
450.46	9078.94
450.65	8980.64
450.83	9137.45
451.02	9013.40
451.20	9376.19
451.39	9343.42
451.57	9235.75
451.76	9128.09
451.94	9305.97
452.13	9465.13
452.31	9460.45
452.49	9305.97
452.68	9348.10
452.86	9490.87
453.05	9605.56
453.23	9441.72
453.42	9575.13
453.60	9280.22
453.78	9525.98
453.97	9420.66
454.15	9647.69
454.34	9614.92
454.52	9820.89
454.70	9673.43
454.89	9778.76
455.07	9905.15
455.26	9708.54
455.44	10113.45
455.62	9991.75
455.81	9944.94
455.99	10160.27
456.17	10111.11
456.36	10228.14
456.54	10176.65
456.73	10073.67
456.91	10335.81
457.09	10413.04
457.28	10635.39
457.46	10333.47
457.64	10523.05
457.83	10782.85
458.01	10611.99
458.19	10771.15
458.38	10686.89
458.56	10902.22
458.74	10801.57
458.93	10733.70
459.11	10963.07
459.29	10785.19
459.48	10942.00
459.66	10981.79
459.84	10932.64
460.03	11377.34
460.21	11101.16
460.39	11087.12
460.57	11159.67
460.76	11185.42
460.94	11267.34
461.12	11276.70
461.31	11300.11
461.49	11190.10
461.67	11075.42
461.85	11346.92
462.04	11630.12
462.22	11595.01
462.40	11721.40
462.59	11515.44
462.77	11290.74
462.95	11735.45
463.13	11953.12
463.32	11705.02
463.50	11730.76
463.68	11770.55
463.86	11808.00
464.05	11728.42
464.23	11676.93
464.41	11815.02
464.59	11808.00
464.78	12173.13
464.96	12123.98
465.14	12112.27
465.32	12107.59
465.50	12194.19
465.69	12208.23
465.87	12297.17
466.05	12145.04
466.23	12343.99
466.41	12063.12
466.60	12634.21
466.78	12198.87
466.96	12409.52
467.14	12276.11
467.32	12585.06
467.51	12734.85
467.69	12215.26
467.87	12788.69
468.05	12739.54
468.23	12535.91
468.41	12491.44
468.60	12641.23
468.78	12973.59
468.96	12669.32
469.14	12868.27
469.32	13371.48
469.50	12791.03
469.69	12980.61
469.87	13364.46
470.05	12940.82
470.23	13181.90
470.41	13060.19
470.59	13511.91
470.77	13284.88
470.95	13383.18
471.14	13701.50
471.32	13345.73
471.50	13561.06
471.68	13823.20
471.86	13792.78
472.04	13872.36
472.22	14178.97
472.40	13930.87
472.58	13877.04
472.77	14127.47
472.95	14216.41
473.13	14860.06
473.31	14267.91
473.49	14265.57
473.67	14139.18
473.85	14436.42
474.03	14778.14
474.21	14752.40
474.39	14705.59
474.57	14956.02
474.75	14810.91
474.93	15178.37
475.12	14958.36
475.30	15117.52
475.48	15185.40
475.66	15314.13
475.84	15492.01
476.02	15693.29
476.20	15583.29
476.38	15875.85
476.56	16109.91
476.74	16257.36
476.92	16292.47
477.10	15901.60
477.28	16376.73
477.46	16240.98
477.64	16224.59
477.82	16528.86
478.00	17128.04
478.18	17034.42
478.36	16924.41
478.54	17392.52
478.72	17238.05
478.90	17315.28
479.08	17839.56
479.26	17977.65
479.44	17867.65
479.62	17848.93
479.80	17991.70
479.98	18331.08
480.16	18707.90
480.34	18429.38
480.52	18806.20
480.70	18902.17
480.88	18434.06
481.06	18745.35
481.24	19094.09
481.41	19370.27
481.59	19194.73
481.77	19531.77
481.95	19524.75
482.13	19910.94
482.31	19995.20
482.49	20285.42
482.67	20137.97
482.85	20671.61
483.03	20828.43
483.21	21376.11
483.39	21315.26
483.57	21088.23
483.74	21383.13
483.92	21523.57
484.10	21301.22
484.28	21678.04
484.46	22412.97
484.64	22611.92
484.82	22162.53
485.00	22691.49
485.18	22867.03
485.35	23042.57
485.53	22827.24
485.71	23314.08
485.89	23702.61
486.07	23297.69
486.25	23634.73
486.43	23779.84
486.61	23714.31
486.78	24517.11
486.96	24723.08
487.14	24844.79
487.32	24697.33
487.50	25242.68
487.68	25350.34
487.85	25642.91
488.03	25841.85
488.21	26103.99
488.39	26164.85
488.57	26242.09
488.75	26221.02
488.92	26696.15
489.10	26941.91
489.28	27232.13
489.46	27197.02
489.64	27482.57
489.81	27744.71
489.99	27419.38
490.17	27562.15
490.35	28367.29
490.53	28481.98
490.70	28978.17
490.88	28357.93
491.06	29113.92
491.24	29139.67
491.41	29429.90
491.59	29490.75
491.77	29560.97
491.95	30092.27
492.13	30050.14
492.30	30087.59
492.48	30340.36
492.66	30356.75
492.84	30862.30
493.01	30822.51
493.19	30848.26
493.37	31084.65
493.54	31468.50
493.72	31660.43
493.90	32259.60
494.08	31728.30
494.25	32306.41
494.43	32236.20
494.61	32711.33
494.79	32620.05
494.96	32624.73
495.14	33041.34
495.32	33397.10
495.49	33521.15
495.67	33369.02
495.85	33497.75
496.02	34108.63
496.20	34061.82
496.38	34546.31
496.55	34501.84
496.73	34918.45
496.91	34895.05
497.09	35054.20
497.26	35040.16
497.44	35295.28
497.62	35545.72
497.79	35985.74
497.97	35697.85
498.14	36463.21
498.32	36542.78
498.50	36449.16
498.67	37081.11
498.85	37120.90
499.03	37069.40
499.20	37170.05
499.38	37085.79
499.56	37113.87
499.73	37563.26
499.91	37464.96
500.08	38192.86
500.26	37652.20
500.44	38040.73
500.61	38003.28
500.79	37703.69
500.97	38759.27
501.14	38778.00
501.32	38834.17
501.49	38808.42
501.67	39021.41
501.84	38700.76
502.02	39370.15
502.20	39269.51
502.37	39344.41
502.55	39604.20
502.72	39601.86
502.90	39868.69
503.07	39943.58
503.25	40018.48
503.43	39875.71
503.60	40371.90
503.78	40776.81
503.95	40484.25
504.13	41191.09
504.30	41181.73
504.48	40526.38
504.65	41310.46
504.83	41399.40
505.01	41951.76
505.18	41516.42
505.36	41958.78
505.53	41588.98
505.71	41933.04
505.88	41542.17
506.06	41881.55
506.23	42064.11
506.41	42021.98
506.58	42387.10
506.76	42370.72
506.93	42887.98
507.11	42855.21
507.28	42941.81
507.46	42768.61
507.63	43423.96
507.81	43648.65
507.98	43159.48
508.16	43681.42
508.33	43889.73
508.50	44004.41
508.68	43807.81
508.85	44086.33
509.03	44484.22
509.20	44147.18
509.38	44636.36
509.55	44779.13
509.73	45048.29
509.90	45226.17
510.08	45043.61
510.25	44823.60
510.42	44865.73
510.60	45247.24
510.77	45457.88
510.95	45961.10
511.12	45310.43
511.30	45530.44
511.47	45392.35
511.64	45703.64
511.82	46134.30
511.99	45998.55
512.17	46665.60
512.34	46251.33
512.51	46885.61
512.69	46564.96
512.86	46616.45
513.04	46946.47
513.21	46817.74
513.38	46522.83
513.56	47253.08
513.73	47047.11
513.90	47313.93
514.08	47208.61
514.25	47552.66
514.43	47489.47
514.60	47791.40
514.77	47547.98
514.95	48058.22
515.12	47978.64
515.29	48170.57
515.47	48308.66
515.64	48296.95
515.81	48250.14
515.99	48446.75
516.16	48811.87
516.33	48762.72
516.51	48856.34
516.68	48898.47
516.85	49258.91
517.03	49085.72
517.20	49291.68
517.37	49125.50
517.54	49261.26
517.72	49160.61
517.89	49638.08
518.06	49535.10
518.24	49446.16
518.41	49556.16
518.58	49574.89
518.75	49326.79
518.93	49738.72
519.10	50347.26
519.27	49839.37
519.45	49792.56
519.62	50227.90
519.79	49989.16
519.96	50410.46
520.14	50377.69
520.31	50239.60
520.48	50752.18
520.65	50820.05
520.83	50930.06
521.00	50864.52
521.17	50841.12
521.34	51037.72
521.52	51283.48
521.69	50920.70
521.86	51545.62
522.03	51681.37
522.20	51840.53
522.38	51746.90
522.55	51470.72
522.72	51784.35
522.89	51667.33
523.07	51756.27
523.24	51587.75
523.41	51976.28
523.58	51877.97
523.75	52353.10
523.92	52133.09
524.10	52296.93
524.27	52516.94
524.44	52142.45
524.61	52631.63
524.78	52392.89
524.96	52142.45
525.13	52435.02
525.30	52816.53
525.47	52940.58
525.64	52650.35
525.81	52938.24
525.98	52793.12
526.16	52776.74
526.33	52987.39
526.50	53345.49
526.67	53310.38
526.84	53123.14
527.01	52982.71
527.18	53120.80
527.36	53251.87
527.53	53174.63
527.70	53490.60
527.87	53490.60
528.04	53605.29
528.21	53542.10
528.38	53748.06
528.55	53598.27
528.72	53860.41
528.89	53586.57
529.07	53663.80
529.24	53652.10
529.41	54080.42
529.58	53961.05
529.75	53656.78
529.92	54080.42
530.09	53909.56
530.26	54152.97
530.43	54518.10
530.60	53806.58
530.77	53890.83
530.94	54560.23
531.11	54478.31
531.28	54436.18
531.46	54403.41
531.63	54607.04
531.80	54630.44
531.97	54555.55
532.14	54588.31
532.31	54761.51
532.48	54611.72
532.65	54880.88
532.82	54677.25
532.99	55072.81
533.16	55154.72
533.33	55217.92
533.50	55021.31
533.67	54911.31
533.84	54927.69
534.01	54997.91
534.18	55339.63
534.35	55576.02
534.52	55283.45
534.69	55622.83
534.86	55718.79
535.03	55264.73
535.20	55505.80
535.37	55437.93
535.54	55695.39
535.71	55456.65
535.88	55781.99
536.05	55779.65
536.22	55758.58
536.38	55777.31
536.55	55707.09
536.72	55922.42
536.89	55901.36
537.06	55966.89
537.23	55927.10
537.40	55927.10
537.57	56025.40
537.74	56016.04
537.91	56212.65
538.08	56240.73
538.25	55655.60
538.42	56186.90
538.59	56566.07
538.75	56027.74
538.92	56317.97
539.09	56523.94
539.26	56329.67
539.43	56320.31
539.60	56343.72
539.77	56367.12
539.94	56741.61
540.11	56662.03
540.28	56706.50
540.44	56814.16
540.61	56783.74
540.78	56453.72
540.95	56554.36
541.12	56545.00
541.29	56711.18
541.46	56886.72
541.62	56488.83
541.79	56868.00
541.96	56547.34
542.13	56659.69
542.30	56931.19
542.47	56931.19
542.63	57368.87
542.80	56938.21
542.97	57394.62
543.14	57411.00
543.31	57340.78
543.48	57446.11
543.64	57579.52
543.81	57528.03
543.98	57427.38
544.15	57584.20
544.32	57792.51
544.48	57804.21
544.65	57506.96
544.82	57633.35
544.99	57364.19
545.16	57741.02
545.32	57593.56
545.49	57846.34
545.66	57818.25
545.83	57900.17
546.00	57853.36
546.16	57939.96
546.33	57794.85
546.50	57860.38
546.67	57865.06
546.83	57413.34
547.00	57897.83
547.17	57975.07
547.34	57937.62
547.50	58305.09
547.67	58251.25
547.84	58267.64
548.00	58522.76
548.17	58632.76
548.34	58239.55
548.51	58588.29
548.67	58316.79
548.84	58316.79
549.01	58262.96
549.18	58401.05
549.34	58518.07
549.51	58499.35
549.68	58571.91
549.84	58651.48
550.01	58922.99
550.18	58553.18
550.34	58789.58
550.51	58803.62
550.68	58665.53
550.84	58527.44
551.01	58707.66
551.18	58698.30
551.34	58798.94
551.51	58644.46
551.68	58639.78
551.84	58688.93
552.01	58712.34
552.18	59084.48
552.34	58679.57
552.51	58915.96
552.68	58745.11
552.84	58749.79
553.01	59281.09
553.18	59054.06
553.34	59100.87
553.51	58784.90
553.67	59065.76
553.84	59416.84
554.01	59000.22
554.17	59201.51
554.34	59299.81
554.51	59374.71
554.67	59192.15
554.84	59229.60
555.00	58990.86
555.17	59175.76
555.33	59201.51
555.50	59395.77
555.67	59264.70
555.83	59255.34
556.00	59253.00
556.16	59437.90
556.33	59465.99
556.50	59540.89
556.66	59788.98
556.83	59241.30
556.99	59620.47
557.16	59641.53
557.32	59728.13
557.49	59828.77
557.65	59332.58
557.82	59718.77
557.98	59590.04
558.15	59604.08
558.32	59648.55
558.48	59697.70
558.65	59655.57
558.81	59538.55
558.98	59791.33
559.14	59955.16
559.31	59950.48
559.47	59959.84
559.64	59987.93
559.80	59924.74
559.97	60013.68
560.13	59693.02
560.30	59863.88
560.46	59938.78
560.63	60067.51
560.79	59882.61
560.96	59891.97
561.12	59997.29
561.29	60156.45
561.45	60048.78
561.61	60001.97
561.78	60163.47
561.94	60025.38
562.11	60081.55
562.27	60119.00
562.44	60154.11
562.60	60163.47
562.77	60233.69
562.93	60046.44
563.10	60315.61
563.26	59999.63
563.42	60425.61
563.59	60224.32
563.75	60058.15
563.92	60198.58
564.08	60186.88
564.24	60364.76
564.41	60357.74
564.57	60240.71
564.74	60481.78
564.90	60296.88
565.07	60273.48
565.23	60355.39
565.39	60296.88
565.56	60388.16
565.72	60339.01
565.88	60343.69
566.05	60329.65
566.21	60369.44
566.38	60250.07
566.54	60500.51
566.70	60484.12
566.87	60392.84
567.03	60336.67
567.19	60652.64
567.36	60537.96
567.52	60589.45
567.68	60804.78
567.85	60502.85
568.01	60659.66
568.17	60456.04
568.34	60755.63
568.50	60568.38
568.66	60654.98
568.83	60411.57
568.99	60575.40
569.15	60526.25
569.32	60540.30
569.48	60554.34
569.64	60781.37
569.81	60580.09
569.97	60636.26
570.13	60664.35
570.30	60598.81
570.46	60617.53
570.62	60669.03
570.78	60853.93
570.95	60584.77
571.11	60755.63
571.27	60760.31
571.43	60931.17
571.60	60823.50
571.76	60748.60
571.92	60748.60
572.09	60931.17
572.25	60694.77
572.41	60830.52
572.57	60982.66
572.74	61123.09
572.90	60837.54
573.06	60942.87
573.22	60980.32
573.38	60818.82
573.55	60755.63
573.71	61158.20
573.87	60942.87
574.03	60715.84
574.20	60762.65
574.36	60928.83
574.52	60961.59
574.68	60898.40
574.84	60982.66
575.01	60788.39
575.17	60994.36
575.33	60732.22
575.49	60570.72
575.65	61113.73
575.82	61024.79
575.98	60879.67
576.14	61165.22
576.30	60959.25
576.46	60743.92
576.62	60926.49
576.79	60790.73
576.95	60825.84
577.11	60935.85
577.27	60928.83
577.43	60931.17
577.59	60823.50
577.75	60933.51
577.92	60963.93
578.08	60973.30
578.24	60884.36
578.40	61223.73
578.56	61043.51
578.72	61015.43
578.88	61371.19
579.04	61134.79
579.21	61027.13
579.37	61448.42
579.53	61106.71
579.69	60734.56
579.85	60982.66
580.01	61148.84
580.17	60956.91
580.33	61076.28
580.49	61282.25
580.65	60949.89
580.82	61057.56
580.98	61027.13
581.14	61085.64
581.30	61134.79
581.46	60910.10
581.62	61106.71
581.78	61134.79
581.94	61221.39
582.10	61083.30
582.26	61120.75
582.42	61066.92
582.58	60844.57
582.74	61085.64
582.90	61155.86
583.06	61237.78
583.22	60919.46
583.38	61095.00
583.54	61359.48
583.70	61263.52
583.86	61279.91
584.02	61010.74
584.18	61261.18
584.34	61181.60
584.50	60905.42
584.66	61298.63
584.82	61092.66
584.98	61254.16
585.14	61153.52
585.30	61036.49
585.46	61181.60
585.62	61242.46
585.78	61401.61
585.94	61130.11
586.10	61193.31
586.26	61146.50
586.42	61399.27
586.58	61183.94
586.74	61080.96
586.90	61153.52
587.06	61197.99
587.22	61134.79
587.38	61226.07
587.54	61462.47
587.70	61359.48
587.86	61277.57
588.02	61392.25
588.18	61380.55
588.34	61073.94
