SpectraSuite Data File
++++++++++++++++++++++++++++++++++++
Date: Fri Oct 25 10:48:08 EDT 2013
User: price-jones
Dark Spectrum Present: No
Reference Spectrum Present: No
Number of Sampled Component Spectra: 1
Spectrometers: USB2+H05261
Integration Time (usec): 100000 (USB2+H05261)
Spectra Averaged: 1 (USB2+H05261)
Boxcar Smoothing: 0 (USB2+H05261)
Correct for Electrical Dark: No (USB2+H05261)
Strobe/Lamp Enabled: No (USB2+H05261)
Correct for Detector Non-linearity: No (USB2+H05261)
Correct for Stray Light: No (USB2+H05261)
Number of Pixels in Processed Spectrum: 2048
>>>>>Begin Processed Spectral Data<<<<<
365.73	208.31
365.92	208.31
366.12	208.31
366.32	53.83
366.52	37.45
366.72	58.51
366.91	107.66
367.11	28.09
367.31	49.15
367.51	42.13
367.70	30.43
367.90	102.98
368.10	0.00
368.30	39.79
368.49	128.73
368.69	140.43
368.89	88.94
369.09	79.58
369.28	88.94
369.48	81.92
369.68	105.32
369.87	117.03
370.07	110.01
370.27	210.65
370.47	191.92
370.66	390.87
370.86	390.87
371.06	367.46
371.25	400.23
371.45	468.11
371.65	461.09
371.84	423.64
372.04	463.43
372.24	521.94
372.44	510.24
372.63	463.43
372.83	465.77
373.03	447.04
373.22	470.45
373.42	557.05
373.62	547.69
373.81	533.64
374.01	585.13
374.21	554.71
374.40	559.39
374.60	634.29
374.79	528.96
374.99	582.79
375.19	517.26
375.38	631.94
375.58	545.34
375.78	603.86
375.97	599.18
376.17	594.50
376.37	575.77
376.56	589.82
376.76	608.54
376.95	589.82
377.15	643.65
377.35	657.69
377.54	627.26
377.74	601.52
377.93	545.34
378.13	564.07
378.33	641.31
378.52	615.56
378.72	676.41
378.91	636.63
379.11	613.22
379.31	641.31
379.50	587.47
379.70	601.52
379.89	634.29
380.09	678.76
380.28	697.48
380.48	655.35
380.68	531.30
380.87	643.65
381.07	596.84
381.26	690.46
381.46	650.67
381.65	589.82
381.85	683.44
382.04	620.24
382.24	753.65
382.43	772.38
382.63	730.25
382.83	727.91
383.02	723.23
383.22	718.54
383.41	683.44
383.61	718.54
383.80	748.97
384.00	758.33
384.19	706.84
384.39	739.61
384.58	713.86
384.78	725.57
384.97	725.57
385.17	732.59
385.36	685.78
385.56	709.18
385.75	720.88
385.95	737.27
386.14	842.59
386.34	746.63
386.53	823.87
386.72	774.72
386.92	814.51
387.11	858.98
387.31	816.85
387.50	793.44
387.70	795.78
387.89	781.74
388.09	788.76
388.28	929.19
388.48	798.12
388.67	844.93
388.86	798.12
389.06	957.28
389.25	884.72
389.45	880.04
389.64	791.10
389.84	999.41
390.03	891.74
390.22	910.47
390.42	940.90
390.61	837.91
390.81	915.15
391.00	908.13
391.19	940.90
391.39	919.83
391.58	1034.52
391.78	936.21
391.97	912.81
392.16	929.19
392.36	992.39
392.55	1006.43
392.75	889.40
392.94	917.49
393.13	1060.26
393.33	844.93
393.52	959.62
393.71	1076.65
393.91	1025.15
394.10	1022.81
394.29	1041.54
394.49	1036.86
394.68	1076.65
394.88	1135.16
395.07	1200.69
395.26	1116.44
395.46	1104.73
395.65	1097.71
395.84	1156.22
396.04	1263.89
396.23	1181.97
396.42	1128.14
396.62	1055.58
396.81	1156.22
397.00	1158.57
397.19	1135.16
397.39	1121.12
397.58	1245.16
397.77	1266.23
397.97	1203.04
398.16	1214.74
398.35	1275.59
398.55	1214.74
398.74	1287.29
398.93	1352.83
399.12	1259.21
399.32	1341.13
399.51	1320.06
399.70	1364.53
399.90	1275.59
400.09	1357.51
400.28	1331.76
400.47	1416.02
400.67	1427.73
400.86	1535.39
401.05	1439.43
401.24	1423.05
401.44	1462.83
401.63	1458.15
401.82	1458.15
402.01	1451.13
402.21	1486.24
402.40	1451.13
402.59	1535.39
402.78	1547.09
402.97	1561.14
403.17	1565.82
403.36	1575.18
403.55	1603.27
403.74	1647.74
403.93	1643.06
404.13	1605.61
404.32	1643.06
404.51	1551.78
404.70	1664.12
404.89	1696.89
405.09	1729.66
405.28	1755.40
405.47	1685.19
405.66	1675.82
405.85	1668.80
406.05	1710.93
406.24	1813.92
406.43	1846.68
406.62	1771.79
406.81	1778.81
407.00	1722.63
407.20	1804.55
407.39	1755.40
407.58	1767.10
407.77	1853.70
407.96	1935.62
408.15	1863.07
408.34	1926.26
408.54	2024.56
408.73	1893.49
408.92	1982.43
409.11	2069.03
409.30	1921.58
409.49	2050.31
409.68	2033.93
409.87	1996.48
410.07	1987.11
410.26	1987.11
410.45	2012.86
410.64	2153.29
410.83	2047.97
411.02	2200.10
411.21	2328.83
411.40	2174.36
411.59	2319.47
411.78	2303.09
411.98	2249.25
412.17	2253.94
412.36	2272.66
412.55	2377.98
412.74	2370.96
412.93	2307.77
413.12	2321.81
413.31	2380.32
413.50	2375.64
413.69	2448.20
413.88	2483.31
414.07	2574.59
414.26	2506.71
414.45	2661.19
414.64	2658.85
414.83	2750.13
415.02	2600.34
415.22	2654.17
415.41	2771.19
415.60	2715.02
415.79	2764.17
415.98	2862.48
416.17	2761.83
416.36	2764.17
416.55	2775.88
416.74	2857.79
416.93	2932.69
417.12	2801.62
417.31	2768.85
417.50	2761.83
417.69	3115.25
417.88	2991.20
418.07	3131.64
418.26	2951.42
418.45	3052.06
418.64	3084.83
418.83	3005.25
419.02	3150.36
419.21	3101.21
419.39	3173.77
419.58	3211.22
419.77	3136.32
419.96	3166.74
420.15	3295.47
420.34	3241.64
420.53	3349.31
420.72	3396.12
420.91	3339.94
421.10	3300.16
421.29	3332.92
421.48	3157.38
421.67	3349.31
421.86	3417.18
422.05	3487.40
422.24	3407.82
422.43	3389.10
422.61	3393.78
422.80	3274.41
422.99	3417.18
423.18	3576.34
423.37	3442.93
423.56	3588.04
423.75	3501.44
423.94	3248.66
424.13	3269.73
424.32	3211.22
424.50	3534.21
424.69	3478.04
424.88	3569.32
425.07	3398.46
425.26	3508.46
425.45	3379.73
425.64	3426.54
425.83	3557.61
426.01	3566.98
426.20	3534.21
426.39	3508.46
426.58	3557.61
426.77	3536.55
426.96	3426.54
427.15	3508.46
427.33	3609.11
427.52	3510.80
427.71	3552.93
427.90	3719.11
428.09	3681.66
428.28	3541.23
428.46	3609.11
428.65	3644.21
428.84	3742.52
429.03	3843.16
429.22	3749.54
429.40	3702.73
429.59	3796.35
429.78	3499.10
429.97	3604.42
430.16	3681.66
430.34	3819.75
430.53	3786.99
430.72	3796.35
430.91	3761.24
431.10	3847.84
431.28	3988.27
431.47	3896.99
431.66	4067.85
431.85	3983.59
432.03	4201.26
432.22	4147.43
432.41	4121.68
432.60	4109.98
432.79	4084.23
432.97	4177.86
433.16	4042.11
433.35	4198.92
433.54	4222.33
433.72	4198.92
433.91	4177.86
434.10	4056.15
434.28	4227.01
434.47	4276.16
434.66	4262.12
434.85	4367.44
435.03	4409.57
435.22	4344.03
435.41	4528.94
435.59	4454.04
435.78	4381.48
435.97	4547.66
436.16	4461.06
436.34	4533.62
436.53	4423.61
436.72	4788.74
436.90	4500.85
437.09	4585.11
437.28	4454.04
437.46	4512.55
437.65	4386.16
437.84	4552.34
438.02	4645.96
438.21	4561.70
438.40	4613.20
438.58	4723.20
438.77	4826.18
438.96	4830.87
439.14	4873.00
439.33	5011.09
439.52	4887.04
439.70	4975.98
439.89	5090.67
440.08	5107.05
440.26	4943.21
440.45	5060.24
440.63	5174.92
440.82	5343.44
441.01	5289.61
441.19	5317.70
441.38	5348.12
441.57	5362.17
441.75	5210.03
441.94	5462.81
442.12	5556.43
442.31	5369.19
442.50	5516.64
442.68	5504.94
442.87	5612.60
443.05	5631.33
443.24	5792.83
443.43	5738.99
443.61	5816.23
443.80	5767.08
443.98	5490.90
444.17	5380.89
444.35	5783.46
444.54	5720.27
444.73	5776.44
444.91	5736.65
445.10	5628.99
445.28	5666.44
445.47	5738.99
445.65	5746.02
445.84	5748.36
446.02	5776.44
446.21	5792.83
446.39	5748.36
446.58	5919.21
446.77	5781.12
446.95	5762.40
447.14	5825.59
447.32	5944.96
447.51	5841.98
447.69	5799.85
447.88	5832.62
448.06	5797.51
448.25	5951.98
448.43	5982.41
448.62	5753.04
448.80	5912.19
448.99	5959.00
449.17	6001.13
449.36	5989.43
449.54	5994.11
449.73	6085.39
449.91	6132.20
450.10	6291.36
450.28	6291.36
450.46	6193.06
450.65	6167.31
450.83	6258.59
451.02	6127.52
451.20	6274.98
451.39	6427.11
451.57	6349.87
451.76	6267.95
451.94	6370.94
452.13	6277.32
452.31	6370.94
452.49	6253.91
452.68	6286.68
452.86	6509.03
453.05	6417.75
453.23	6445.84
453.42	6480.94
453.60	6441.15
453.78	6635.42
453.97	6462.22
454.15	6602.65
454.34	6317.11
454.52	6544.14
454.70	6504.35
454.89	6747.76
455.07	6567.54
455.26	6712.66
455.44	6799.26
455.62	6750.10
455.81	6813.30
455.99	6883.52
456.17	6853.09
456.36	6970.12
456.54	6927.99
456.73	6899.90
456.91	7089.48
457.09	7143.32
457.28	7288.43
457.46	7068.42
457.64	6932.67
457.83	7063.74
458.01	7063.74
458.19	7517.80
458.38	7260.34
458.56	7368.01
458.74	7199.49
458.93	7393.75
459.11	7185.44
459.29	7316.51
459.48	7375.03
459.66	7349.28
459.84	7508.44
460.03	7583.34
460.21	7360.98
460.39	7487.37
460.57	7562.27
460.76	7702.70
460.94	7466.31
461.12	7681.64
461.31	7648.87
461.49	7630.15
461.67	7595.04
461.85	7709.72
462.04	7646.53
462.22	8280.82
462.40	7925.05
462.59	7824.41
462.77	8021.02
462.95	8021.02
463.13	7786.96
463.32	7840.79
463.50	7927.39
463.68	8056.12
463.86	8051.44
464.05	7894.63
464.23	7859.52
464.41	8154.43
464.59	7819.73
464.78	7922.71
464.96	8109.96
465.14	7779.94
465.32	8044.42
465.50	8231.66
465.69	8142.72
465.87	8201.24
466.05	8140.38
466.23	8264.43
466.41	8351.03
466.60	8475.08
466.78	8152.09
466.96	8184.85
467.14	8322.94
467.32	8264.43
467.51	8552.32
467.69	8166.13
467.87	8344.01
468.05	8582.74
468.23	8454.02
468.41	8400.18
468.60	8360.39
468.78	8475.08
468.96	8484.44
469.14	8704.45
469.32	8751.26
469.50	8449.33
469.69	8634.24
469.87	8608.49
470.05	8711.47
470.23	8891.70
470.41	8868.29
470.59	8828.50
470.77	8688.07
470.95	8924.46
471.14	9001.70
471.32	8924.46
471.50	9034.47
471.68	9156.18
471.86	9095.32
472.04	9100.00
472.22	9423.00
472.40	9170.22
472.58	9242.78
472.77	9179.58
472.95	9411.29
473.13	9720.24
473.31	9397.25
473.49	9415.98
473.67	9497.89
473.85	9572.79
474.03	9652.37
474.21	9797.48
474.39	9731.95
474.57	9537.68
474.75	9839.61
474.93	9996.43
475.12	9884.08
475.30	10083.03
475.48	9994.09
475.66	10115.80
475.84	9958.98
476.02	10335.81
476.20	10380.28
476.38	10434.11
476.56	10637.73
476.74	10679.86
476.92	10546.45
477.10	10637.73
477.28	10642.42
477.46	10850.72
477.64	10923.28
477.82	11007.54
478.00	10944.34
478.18	11110.52
478.36	11178.40
478.54	11463.94
478.72	11417.13
478.90	11618.42
479.08	11496.71
479.26	11520.12
479.44	11756.51
479.62	11779.92
479.80	11985.88
479.98	11836.09
480.16	12315.90
480.34	12100.57
480.52	12325.26
480.70	12388.46
480.88	12135.68
481.06	12437.61
481.24	12334.62
481.41	12325.26
481.59	12732.51
481.77	12933.80
481.95	12596.76
482.13	12982.95
482.31	13102.32
482.49	13170.19
482.67	13270.84
482.85	13413.61
483.03	13383.18
483.21	13638.30
483.39	13729.58
483.57	13495.53
483.74	13958.96
483.92	13930.87
484.10	13848.95
484.28	14090.02
484.46	14452.81
484.64	14651.75
484.82	14263.22
485.00	14700.90
485.18	14661.12
485.35	14836.66
485.53	14848.36
485.71	14904.53
485.89	15012.20
486.07	15346.89
486.25	15367.96
486.43	15110.50
486.61	15410.09
486.78	15817.34
486.96	15932.03
487.14	15981.18
487.32	15810.32
487.50	16379.07
487.68	16315.87
487.85	16650.57
488.03	16631.85
488.21	16816.75
488.39	16451.63
488.57	16671.64
488.75	17216.98
488.92	17238.05
489.10	17343.37
489.28	17759.98
489.46	17579.76
489.64	17706.15
489.81	17975.31
489.99	18092.34
490.17	18047.87
490.35	18410.65
490.53	18228.09
490.70	18487.89
490.88	18551.09
491.06	18803.86
491.24	18853.02
491.41	18576.83
491.59	18824.93
491.77	18904.51
491.95	19335.17
492.13	19274.31
492.30	19620.71
492.48	19325.80
492.66	19543.47
492.84	19733.06
493.01	19908.60
493.19	19941.36
493.37	20250.32
493.54	20339.26
493.72	20259.68
493.90	20428.20
494.08	20423.51
494.25	20891.62
494.43	20994.61
494.61	20828.43
494.79	21111.63
494.96	21046.10
495.14	21380.79
495.32	21345.69
495.49	21699.11
495.67	21135.04
495.85	21912.10
496.02	21664.00
496.20	21947.20
496.38	22211.68
496.55	21977.63
496.73	22841.29
496.91	22209.34
497.09	22780.43
497.26	22801.50
497.44	22881.08
497.62	22684.47
497.79	23154.92
497.97	22874.06
498.14	22904.48
498.32	23246.20
498.50	23438.12
498.67	23620.69
498.85	23896.87
499.03	23349.18
499.20	23667.50
499.38	23754.10
499.56	23995.17
499.73	24039.64
499.91	24084.11
500.08	24240.93
500.26	24341.57
500.44	24222.20
500.61	24037.30
500.79	24142.63
500.97	24753.51
501.14	25034.37
501.32	24900.96
501.49	24795.64
501.67	24826.06
501.84	25104.59
502.02	24861.17
502.20	25046.07
502.37	25441.62
502.55	25287.15
502.72	25685.04
502.90	25685.04
503.07	25355.02
503.25	25474.39
503.43	25818.45
503.60	25549.29
503.78	25701.42
503.95	25947.18
504.13	25989.31
504.30	26256.13
504.48	26024.42
504.65	26206.98
504.83	26607.21
505.01	26923.18
505.18	26476.14
505.36	27297.67
505.53	26696.15
505.71	27138.51
505.88	27213.41
506.06	26405.92
506.23	27131.49
506.41	26850.63
506.58	27122.13
506.76	27309.37
506.93	27903.87
507.11	27426.40
507.28	27615.98
507.46	27529.38
507.63	27714.28
507.81	27131.49
507.98	27515.34
508.16	27810.25
508.33	28208.14
508.50	28325.16
508.68	28121.54
508.85	28346.23
509.03	28217.50
509.20	28325.16
509.38	28856.46
509.55	28575.60
509.73	28732.42
509.90	29050.73
510.08	28835.40
510.25	28999.24
510.42	29057.75
510.60	28966.47
510.77	29099.88
510.95	29202.86
511.12	29350.32
511.30	29310.53
511.47	29422.87
511.64	29898.00
511.82	29923.75
511.99	29677.99
512.17	29649.91
512.34	29783.32
512.51	30036.09
512.69	30228.02
512.86	30185.89
513.04	30478.46
513.21	30169.51
513.38	30108.65
513.56	30340.36
513.73	30160.14
513.90	30782.73
514.08	30579.10
514.25	31026.14
514.43	30644.63
514.60	30623.57
514.77	30476.12
514.95	30841.24
515.12	30953.58
515.29	31157.21
515.47	31519.99
515.64	31538.72
515.81	31131.47
515.99	31274.24
516.16	31370.20
516.33	31171.25
516.51	31297.64
516.68	31145.51
516.85	31166.57
517.03	31658.09
517.20	31466.16
517.37	31763.41
517.54	31772.77
517.72	31709.58
517.89	31758.73
518.06	31887.46
518.24	31838.31
518.41	31473.18
518.58	31892.14
518.75	32215.13
518.93	32723.03
519.10	32460.89
519.27	32393.01
519.45	32765.16
519.62	32659.84
519.79	32706.65
519.96	33198.16
520.14	33284.76
520.31	32954.74
520.48	32755.80
520.65	32744.09
520.83	33296.46
521.00	33298.80
521.17	33151.35
521.34	33352.63
521.52	33394.76
521.69	33542.22
521.86	33631.16
522.03	33553.92
522.20	33729.46
522.38	34134.37
522.55	33780.95
522.72	33682.65
522.89	33542.22
523.07	34017.35
523.24	33586.69
523.41	34099.26
523.58	33874.57
523.75	34778.02
523.92	34600.14
524.10	34277.15
524.27	34726.53
524.44	34623.54
524.61	34848.24
524.78	34693.76
524.96	34998.03
525.13	34735.89
525.30	35084.63
525.47	35093.99
525.64	35196.98
525.81	35105.70
525.98	35435.71
526.16	34808.45
526.33	34841.21
526.50	35531.67
526.67	35250.81
526.84	35239.11
527.01	34761.64
527.18	35117.40
527.36	35529.33
527.53	35679.13
527.70	36004.46
527.87	35777.43
528.04	35871.05
528.21	35356.13
528.38	35894.46
528.55	35988.08
528.72	35683.81
528.89	36032.55
529.07	36025.53
529.24	36074.68
529.41	36357.88
529.58	36491.29
529.75	36201.07
529.92	36217.45
530.09	36280.64
530.26	36631.72
530.43	36608.32
530.60	36339.16
530.77	36500.65
530.94	36582.57
531.11	36671.51
531.28	36418.74
531.46	37099.83
531.63	36535.76
531.80	37083.45
531.97	36627.04
532.14	36872.80
532.31	36814.29
532.48	36961.74
532.65	37251.97
532.82	37015.57
532.99	37542.19
533.16	37163.03
533.33	37457.93
533.50	37511.77
533.67	37511.77
533.84	37132.60
534.01	37471.98
534.18	37823.06
534.35	37972.85
534.52	37851.14
534.69	37310.48
534.86	37979.87
535.03	37539.85
535.20	38206.90
535.37	38476.07
535.54	37951.79
535.71	38136.69
535.88	37544.53
536.05	38094.56
536.22	38101.58
536.38	38157.75
536.55	38026.68
536.72	37764.54
536.89	37748.16
537.06	38508.83
537.23	38483.09
537.40	38396.49
537.57	38590.75
537.74	38560.33
537.91	38866.94
538.08	38604.80
538.25	38234.99
538.42	38513.52
538.59	38899.70
538.75	38136.69
538.92	38387.13
539.09	39105.67
539.26	38543.94
539.43	38726.50
539.60	38979.28
539.77	38478.41
539.94	39140.78
540.11	38871.62
540.28	38892.68
540.44	38993.32
540.61	39187.59
540.78	39246.10
540.95	38902.04
541.12	39049.50
541.29	39225.04
541.46	39145.46
541.62	39339.72
541.79	39421.64
541.96	39108.01
542.13	39222.70
542.30	40009.12
542.47	39185.25
542.63	39398.24
542.80	39763.36
542.97	40032.52
543.14	40254.87
543.31	40465.52
543.48	40376.58
543.64	40657.45
543.81	40477.22
543.98	40229.13
544.15	40362.54
544.32	40222.11
544.48	40542.76
544.65	40418.71
544.82	40306.37
544.99	39945.92
545.16	40620.00
545.32	40493.61
545.49	40612.98
545.66	40919.59
545.83	40535.74
546.00	41099.81
546.16	40343.81
546.33	40545.10
546.50	40353.18
546.67	40554.46
546.83	40062.95
547.00	40835.33
547.17	41010.87
547.34	40610.64
547.50	41289.39
547.67	41572.60
547.84	40809.58
548.00	40973.42
548.17	41500.04
548.34	41013.21
548.51	41364.29
548.67	41317.48
548.84	41706.01
549.01	41219.17
549.18	41022.57
549.34	41390.03
549.51	41158.32
549.68	41766.86
549.84	41797.29
550.01	41691.96
550.18	41516.42
550.34	41596.00
550.51	41387.69
550.68	41706.01
550.84	41191.09
551.01	41787.92
551.18	41895.59
551.34	41425.14
551.51	42206.88
551.68	42012.62
551.84	42141.35
552.01	41514.08
552.18	41921.34
552.34	41947.08
552.51	41947.08
552.68	42368.38
552.84	42436.25
553.01	42204.54
553.18	42347.31
553.34	42239.65
553.51	42057.09
553.67	41612.38
553.84	42464.34
554.01	42253.69
554.17	42866.91
554.34	42557.96
554.51	42623.50
554.67	42590.73
554.84	42492.43
555.00	42131.98
555.17	42089.85
555.33	42092.19
555.50	42361.36
555.67	42349.65
555.83	42520.51
556.00	42679.67
556.16	43430.98
556.33	42848.19
556.50	42628.18
556.66	42677.33
556.83	42305.18
556.99	43335.02
557.16	43075.22
557.32	42735.84
557.49	43365.45
557.65	42192.84
557.82	42822.44
557.98	42803.72
558.15	43133.73
558.32	42852.87
558.48	42672.65
558.65	43566.73
558.81	43292.89
558.98	43189.91
559.14	43012.02
559.31	42925.42
559.47	43157.14
559.64	43592.48
559.80	43557.37
559.97	43222.67
560.13	43426.30
560.30	43217.99
560.46	43217.99
560.63	43461.41
560.79	43061.18
560.96	43374.81
561.12	43262.46
561.29	43049.47
561.45	43409.92
561.61	43452.05
561.78	43124.37
561.94	43035.43
562.11	42845.85
562.27	43482.47
562.44	43351.40
562.60	43454.39
562.77	43332.68
562.93	43096.28
563.10	43566.73
563.26	43068.20
563.42	43735.25
563.59	43475.45
563.75	43290.55
563.92	44025.48
564.08	43388.85
564.24	43592.48
564.41	44156.55
564.57	43650.99
564.74	43782.06
564.90	43524.60
565.07	43594.82
565.23	43281.19
565.39	43445.02
565.56	43770.36
565.72	43723.55
565.88	43718.87
566.05	43447.36
566.21	44074.63
566.38	43910.79
566.54	43606.52
566.70	44336.77
566.87	44250.17
567.03	44037.18
567.19	44236.12
567.36	43824.19
567.52	43412.26
567.68	43868.66
567.85	43856.96
568.01	43871.00
568.17	44048.88
568.34	44095.69
568.50	43744.61
568.66	44023.14
568.83	44215.06
568.99	43775.04
569.15	43564.39
569.32	43524.60
569.48	43784.40
569.64	44144.84
569.81	44282.94
569.97	43395.87
570.13	43920.15
570.30	43838.23
570.46	44133.14
570.62	44025.48
570.78	43697.80
570.95	44130.80
571.11	44467.84
571.27	43922.49
571.43	43784.40
571.60	43889.73
571.76	43983.35
571.92	44184.63
572.09	43866.32
572.25	43777.38
572.41	44037.18
572.57	44147.18
572.74	44694.87
572.90	43936.54
573.06	43793.76
573.22	44594.23
573.38	44325.07
573.55	43882.70
573.71	44453.79
573.87	44039.52
574.03	43658.01
574.20	43973.98
574.36	43917.81
574.52	44306.34
574.68	44690.19
574.84	44046.54
575.01	43903.77
575.17	44098.03
575.33	43650.99
575.49	43976.33
575.65	44210.38
575.82	44556.78
575.98	44739.34
576.14	44519.33
576.30	44198.68
576.46	44229.10
576.62	43896.75
576.79	44023.14
576.95	43285.87
577.11	44332.09
577.27	43842.92
577.43	44259.53
577.59	43978.67
577.75	44128.46
577.92	43889.73
578.08	44048.88
578.24	43943.56
578.40	43725.89
578.56	44037.18
578.72	44289.96
578.88	44493.58
579.04	44554.44
579.21	43917.81
579.37	43861.64
579.53	44091.01
579.69	44065.27
579.85	44149.53
580.01	44568.48
580.17	44847.00
580.33	44472.52
580.49	44694.87
580.65	44226.76
580.82	44432.73
580.98	44470.18
581.14	44163.57
581.30	44690.19
581.46	44215.06
581.62	44428.05
581.78	44521.67
581.94	44814.24
582.10	43650.99
582.26	44119.10
582.42	44355.49
582.58	44531.03
582.74	44121.44
582.90	44980.42
583.06	44194.00
583.22	44961.69
583.38	44584.86
583.54	44767.43
583.70	44591.89
583.86	44708.91
584.02	44004.41
584.18	44336.77
584.34	44149.53
584.50	44390.60
584.66	44451.45
584.82	44210.38
584.98	44516.99
585.14	44507.63
585.30	44418.69
585.46	44706.57
585.62	44458.48
585.78	44444.43
585.94	43995.05
586.10	44528.69
586.26	44388.26
586.42	44690.19
586.58	44432.73
586.74	44751.04
586.90	44245.49
587.06	44472.52
587.22	44638.70
587.38	44018.46
587.54	44781.47
587.70	44804.88
587.86	44465.50
588.02	44458.48
588.18	44772.11
588.34	44374.22
588.49	44713.59
588.65	44259.53
588.81	44034.84
588.97	44378.90
589.13	44629.34
589.29	44421.03
589.45	44559.12
589.61	44308.68
589.77	44772.11
589.93	44835.30
590.08	44531.03
590.24	44545.08
