SpectraSuite Data File
++++++++++++++++++++++++++++++++++++
Date: Fri Oct 25 10:48:10 EDT 2013
User: price-jones
Dark Spectrum Present: No
Reference Spectrum Present: No
Number of Sampled Component Spectra: 1
Spectrometers: USB2+H05261
Integration Time (usec): 100000 (USB2+H05261)
Spectra Averaged: 1 (USB2+H05261)
Boxcar Smoothing: 0 (USB2+H05261)
Correct for Electrical Dark: No (USB2+H05261)
Strobe/Lamp Enabled: No (USB2+H05261)
Correct for Detector Non-linearity: No (USB2+H05261)
Correct for Stray Light: No (USB2+H05261)
Number of Pixels in Processed Spectrum: 2048
>>>>>Begin Processed Spectral Data<<<<<
365.73	133.41
365.92	133.41
366.12	133.41
366.32	117.03
366.52	21.06
366.72	74.90
366.91	65.54
367.11	142.77
367.31	60.85
367.51	95.96
367.70	0.00
367.90	74.90
368.10	2.34
368.30	23.41
368.49	72.56
368.69	51.49
368.89	86.60
369.09	67.88
369.28	81.92
369.48	81.92
369.68	53.83
369.87	21.06
370.07	163.84
370.27	177.88
370.47	196.60
370.66	440.02
370.86	365.12
371.06	458.74
371.25	454.06
371.45	416.62
371.65	402.57
371.84	442.36
372.04	435.34
372.24	423.64
372.44	517.26
372.63	517.26
372.83	557.05
373.03	564.07
373.22	447.04
373.42	524.28
373.62	526.62
373.81	517.26
374.01	561.73
374.21	540.66
374.40	491.51
374.60	573.43
374.79	557.05
374.99	596.84
375.19	545.34
375.38	568.75
375.58	580.45
375.78	533.64
375.97	648.33
376.17	566.41
376.37	454.06
376.56	571.09
376.76	550.03
376.95	669.39
377.15	631.94
377.35	573.43
377.54	596.84
377.74	613.22
377.93	550.03
378.13	582.79
378.33	613.22
378.52	631.94
378.72	592.16
378.91	582.79
379.11	601.52
379.31	662.37
379.50	613.22
379.70	676.41
379.89	685.78
380.09	620.24
380.28	620.24
380.48	727.91
380.68	638.97
380.87	641.31
381.07	678.76
381.26	690.46
381.46	653.01
381.65	697.48
381.85	744.29
382.04	662.37
382.24	676.41
382.43	725.57
382.63	650.67
382.83	589.82
383.02	657.69
383.22	767.70
383.41	653.01
383.61	653.01
383.80	758.33
384.00	730.25
384.19	683.44
384.39	763.01
384.58	758.33
384.78	788.76
384.97	784.08
385.17	758.33
385.36	765.36
385.56	751.31
385.75	812.17
385.95	770.04
386.14	734.93
386.34	723.23
386.53	840.25
386.72	793.44
386.92	816.85
387.11	784.08
387.31	837.91
387.50	748.97
387.70	748.97
387.89	807.48
388.09	767.70
388.28	823.87
388.48	870.68
388.67	884.72
388.86	873.02
389.06	807.48
389.25	922.17
389.45	912.81
389.64	933.87
389.84	917.49
390.03	950.26
390.22	931.53
390.42	943.24
390.61	812.17
390.81	898.77
391.00	910.47
391.19	1004.09
391.39	945.58
391.58	999.41
391.78	1015.79
391.97	992.39
392.16	882.38
392.36	950.26
392.55	1123.46
392.75	971.32
392.94	1060.26
393.13	926.85
393.33	952.60
393.52	959.62
393.71	1062.60
393.91	1088.35
394.10	1004.09
394.29	1039.20
394.49	1043.88
394.68	1062.60
394.88	1020.47
395.07	1238.14
395.26	1132.82
395.46	1156.22
395.65	1118.78
395.84	1142.18
396.04	1158.57
396.23	1032.18
396.42	1149.20
396.62	1170.27
396.81	1109.41
397.00	1167.93
397.19	1231.12
397.39	1179.63
397.58	1259.21
397.77	1291.98
397.97	1313.04
398.16	1226.44
398.35	1270.91
398.55	1275.59
398.74	1287.29
398.93	1273.25
399.12	1245.16
399.32	1343.47
399.51	1266.23
399.70	1331.76
399.90	1385.60
400.09	1369.21
400.28	1376.24
400.47	1411.34
400.67	1378.58
400.86	1380.92
401.05	1481.56
401.24	1488.58
401.44	1378.58
401.63	1561.14
401.82	1423.05
402.01	1385.60
402.21	1462.83
402.40	1535.39
402.59	1446.45
402.78	1600.93
402.97	1495.60
403.17	1465.18
403.36	1596.25
403.55	1540.07
403.74	1516.67
403.93	1547.09
404.13	1755.40
404.32	1638.38
404.51	1645.40
404.70	1640.72
404.89	1582.20
405.09	1650.08
405.28	1710.93
405.47	1682.85
405.66	1647.74
405.85	1682.85
406.05	1767.10
406.24	1694.55
406.43	1863.07
406.62	1893.49
406.81	1851.36
407.00	1743.70
407.20	1813.92
407.39	1748.38
407.58	1909.88
407.77	1834.98
407.96	1907.54
408.15	1926.26
408.34	1970.73
408.54	2024.56
408.73	1956.69
408.92	1963.71
409.11	2059.67
409.30	1991.80
409.49	1886.47
409.68	2033.93
409.87	2019.88
410.07	2052.65
410.26	2026.90
410.45	2122.87
410.64	2101.80
410.83	2282.02
411.02	2111.16
411.21	2235.21
411.40	2352.24
411.59	2282.02
411.78	2176.70
411.98	2289.04
412.17	2408.41
412.36	2272.66
412.55	2326.49
412.74	2317.13
412.93	2417.77
413.12	2359.26
413.31	2450.54
413.50	2495.01
413.69	2413.09
413.88	2462.24
414.07	2558.21
414.26	2537.14
414.45	2605.02
414.64	2586.29
414.83	2581.61
415.02	2583.95
415.22	2768.85
415.41	2656.51
415.60	2698.64
415.79	2789.92
415.98	2825.03
416.17	2813.32
416.36	2813.32
416.55	2773.53
416.74	2778.22
416.93	2839.07
417.12	2839.07
417.31	2916.31
417.50	2984.18
417.69	2998.23
417.88	3054.40
418.07	3005.25
418.26	3061.42
418.45	2970.14
418.64	3138.66
418.83	3098.87
419.02	3112.91
419.21	3108.23
419.39	3052.06
419.58	3094.19
419.77	3119.93
419.96	3180.79
420.15	3213.56
420.34	3232.28
420.53	3272.07
420.72	3297.81
420.91	3283.77
421.10	3351.65
421.29	3485.06
421.48	3267.39
421.67	3494.42
421.86	3435.91
422.05	3412.50
422.24	3274.41
422.43	3368.03
422.61	3433.57
422.80	3459.31
422.99	3569.32
423.18	3468.67
423.37	3503.78
423.56	3487.40
423.75	3485.06
423.94	3412.50
424.13	3356.33
424.32	3517.83
424.50	3407.82
424.69	3597.40
424.88	3482.72
425.07	3421.86
425.26	3522.51
425.45	3522.51
425.64	3543.57
425.83	3517.83
426.01	3613.79
426.20	3644.21
426.39	3651.24
426.58	3499.10
426.77	3456.97
426.96	3485.06
427.15	3543.57
427.33	3564.64
427.52	3611.45
427.71	3578.68
427.90	3754.22
428.09	3632.51
428.28	3798.69
428.46	3801.03
428.65	3676.98
428.84	3826.78
429.03	3845.50
429.22	3721.45
429.40	3707.41
429.59	3770.60
429.78	3651.24
429.97	3726.13
430.16	3728.47
430.34	3695.71
430.53	3779.97
430.72	3955.51
430.91	3939.12
431.10	4016.36
431.28	4011.68
431.47	4112.32
431.66	4102.96
431.85	3971.89
432.03	4077.21
432.22	4227.01
432.41	4021.04
432.60	4168.49
432.79	4102.96
432.97	4168.49
433.16	4194.24
433.35	4098.28
433.54	4187.22
433.72	4067.85
433.91	4297.22
434.10	4255.09
434.28	4290.20
434.47	4360.42
434.66	4306.59
434.85	4458.72
435.03	4435.32
435.22	4374.46
435.41	4477.44
435.59	4449.36
435.78	4456.38
435.97	4559.36
436.16	4571.07
436.34	4447.02
436.53	4456.38
436.72	4662.35
436.90	4512.55
437.09	4482.13
437.28	4580.43
437.46	4655.33
437.65	4622.56
437.84	4652.98
438.02	4638.94
438.21	4777.03
438.40	4615.54
438.58	4725.54
438.77	4746.61
438.96	4880.02
439.14	4849.59
439.33	4985.34
439.52	4971.30
439.70	5121.09
439.89	4959.60
440.08	5001.72
440.26	5233.44
440.45	5020.45
440.63	5078.96
440.82	5373.87
441.01	5369.19
441.19	5366.85
441.38	5439.40
441.57	5357.49
441.75	5554.09
441.94	5490.90
442.12	5633.67
442.31	5664.10
442.50	5687.50
442.68	5481.53
442.87	5727.29
443.05	5657.07
443.24	5736.65
443.43	5710.91
443.61	5706.23
443.80	5907.51
443.98	5760.06
444.17	5507.28
444.35	5598.56
444.54	5846.66
444.73	5673.46
444.91	5624.31
445.10	5666.44
445.28	5825.59
445.47	5682.82
445.65	5713.25
445.84	5771.76
446.02	5837.30
446.21	5720.27
446.39	5694.52
446.58	5823.25
446.77	5846.66
446.95	5746.02
447.14	5844.32
447.32	5879.43
447.51	6078.37
447.69	5834.96
447.88	5989.43
448.06	5853.68
448.25	5916.87
448.43	6069.01
448.62	5872.40
448.80	6003.47
448.99	6162.63
449.17	6136.88
449.36	5928.58
449.54	6153.27
449.73	6097.10
449.91	6090.07
450.10	6171.99
450.28	6139.23
450.46	6282.00
450.65	6387.32
450.83	6303.06
451.02	6410.73
451.20	6424.77
451.39	6342.85
451.57	6361.58
451.76	6349.87
451.94	6506.69
452.13	6317.11
452.31	6513.71
452.49	6317.11
452.68	6548.82
452.86	6399.02
453.05	6586.27
453.23	6630.74
453.42	6478.60
453.60	6448.18
453.78	6480.94
453.97	6504.35
454.15	6525.41
454.34	6483.28
454.52	6663.51
454.70	6752.45
454.89	6574.56
455.07	6750.10
455.26	6736.06
455.44	6768.83
455.62	6813.30
455.81	6796.92
455.99	6977.14
456.17	6998.20
456.36	6988.84
456.54	6984.16
456.73	7124.59
456.91	7234.60
457.09	7155.02
457.28	7302.47
457.46	7246.30
457.64	7286.09
457.83	7166.72
458.01	7152.68
458.19	7253.32
458.38	7201.83
458.56	7307.15
458.74	7375.03
458.93	7335.24
459.11	7407.80
459.29	7522.48
459.48	7473.33
459.66	7375.03
459.84	7639.51
460.03	7419.50
460.21	7719.09
460.39	7461.63
460.57	7468.65
460.76	7709.72
460.94	7644.19
461.12	7737.81
461.31	7793.98
461.49	7719.09
461.67	7616.10
461.85	7791.64
462.04	7737.81
462.22	8262.09
462.40	8030.38
462.59	7878.24
462.77	7812.71
462.95	7964.84
463.13	7911.01
463.32	8009.31
463.50	7796.32
463.68	8016.33
463.86	7978.89
464.05	7812.71
464.23	7803.35
464.41	7854.84
464.59	7908.67
464.78	8222.30
464.96	8252.73
465.14	7918.03
465.32	8203.58
465.50	8131.02
465.69	8255.07
465.87	8287.84
466.05	8215.28
466.23	8278.47
466.41	8311.24
466.60	8245.71
466.78	8166.13
466.96	8425.93
467.14	8404.86
467.32	8166.13
467.51	8484.44
467.69	8381.46
467.87	8496.14
468.05	8362.73
468.23	8521.89
468.41	8652.96
468.60	8435.29
468.78	8737.22
468.96	8451.67
469.14	8629.56
469.32	8784.03
469.50	8606.15
469.69	8872.97
469.87	8739.56
470.05	8784.03
470.23	8891.70
470.41	8840.20
470.59	8894.04
470.77	8990.00
470.95	8891.70
471.14	9174.90
471.32	8784.03
471.50	9083.62
471.68	9207.67
471.86	9160.86
472.04	9327.03
472.22	9565.77
472.40	9085.96
472.58	9266.18
472.77	9312.99
472.95	9373.85
473.13	9804.50
473.31	9446.40
473.49	9277.88
473.67	9518.96
473.85	9692.16
474.03	9856.00
474.21	9731.95
474.39	9799.82
474.57	9628.96
474.75	10080.69
474.93	10040.90
475.12	9788.12
475.30	9923.87
475.48	10171.97
475.66	10106.43
475.84	10169.63
476.02	10258.57
476.20	10396.66
476.38	10310.06
476.56	10651.78
476.74	10452.83
476.92	10457.51
477.10	10373.25
477.28	10874.13
477.46	10953.71
477.64	10871.79
477.82	10911.58
478.00	11260.32
478.18	11250.96
478.36	11375.00
478.54	11735.45
478.72	11513.10
478.90	11651.19
479.08	11808.00
479.26	11903.96
479.44	11761.19
479.62	11915.67
479.80	11990.56
479.98	11812.68
480.16	12383.77
480.34	12210.57
480.52	12367.39
480.70	12306.54
480.88	12400.16
481.06	12456.33
481.24	12554.63
481.41	12767.62
481.59	13008.70
481.77	12720.81
481.95	12910.40
482.13	13252.11
482.31	13018.06
482.49	13046.15
482.67	13680.43
482.85	13441.70
483.03	13666.39
483.21	13823.20
483.39	13729.58
483.57	13937.89
483.74	14101.73
483.92	14162.58
484.10	14033.85
484.28	14391.95
484.46	14546.43
484.64	14649.41
484.82	14408.34
485.00	14644.73
485.18	15087.09
485.35	14949.00
485.53	14927.94
485.71	14754.74
485.89	15164.33
486.07	15311.78
486.25	15082.41
486.43	15279.02
486.61	15655.84
486.78	15756.49
486.96	15683.93
487.14	16325.24
487.32	16287.79
487.50	16037.35
487.68	16655.25
487.85	16566.31
488.03	16915.05
488.21	17046.12
488.39	16772.28
488.57	17041.44
488.75	17184.21
488.92	17301.24
489.10	17411.25
489.28	17750.62
489.46	17785.73
489.64	17727.22
489.81	18045.53
489.99	18408.31
490.17	18389.59
490.35	18630.66
490.53	18349.80
490.70	18541.72
490.88	18583.85
491.06	18843.65
491.24	18834.29
491.41	19119.84
491.59	19257.93
491.77	18948.98
491.95	19316.44
492.13	19339.85
492.30	19557.52
492.48	19955.41
492.66	19707.31
492.84	19758.80
493.01	20123.93
493.19	20023.28
493.37	20079.46
493.54	20381.38
493.72	20652.89
493.90	20383.73
494.08	20957.16
494.25	20690.34
494.43	21041.42
494.61	21097.59
494.79	21151.42
494.96	21331.64
495.14	21373.77
495.32	21514.20
495.49	21912.10
495.67	21898.05
495.85	21958.91
496.02	22059.55
496.20	21937.84
496.38	22359.14
496.55	22567.45
496.73	22864.69
496.91	22291.26
497.09	22551.06
497.26	22782.77
497.44	22607.23
497.62	23110.45
497.79	23044.91
497.97	23168.96
498.14	23426.42
498.32	23206.41
498.50	23400.68
498.67	23349.18
498.85	24020.92
499.03	23765.80
499.20	24109.86
499.38	24290.08
499.56	24182.42
499.73	24191.78
499.91	23985.81
500.08	24304.12
500.26	24395.40
500.44	24575.62
500.61	24563.92
500.79	24453.92
500.97	24905.64
501.14	25146.72
501.32	25209.91
501.49	24891.60
501.67	25598.44
501.84	25195.87
502.02	25090.54
502.20	25624.18
502.37	25425.24
502.55	25614.82
502.72	25542.27
502.90	25818.45
503.07	25703.76
503.25	25855.90
503.43	25722.49
503.60	26127.40
503.78	26078.25
503.95	25813.77
504.13	26352.09
504.30	26324.01
504.48	26277.19
504.65	26595.51
504.83	26529.97
505.01	26845.94
505.18	26686.79
505.36	27096.38
505.53	26731.26
505.71	26857.65
505.88	27384.27
506.06	27033.19
506.23	26796.79
506.41	26883.39
506.58	27323.41
506.76	27056.59
506.93	27491.93
507.11	27531.72
507.28	27555.13
507.46	27737.69
507.63	27835.99
507.81	27941.32
507.98	27754.07
508.16	28056.00
508.33	28154.30
508.50	28254.95
508.68	28444.53
508.85	28617.73
509.03	28662.20
509.20	28755.82
509.38	28678.58
509.55	28835.40
509.73	28849.44
509.90	29071.79
510.08	28573.26
510.25	29032.00
510.42	29001.58
510.60	29015.62
510.77	29441.60
510.95	29689.70
511.12	29149.03
511.30	29326.91
511.47	29663.95
511.64	29823.11
511.82	30038.44
511.99	30082.91
512.17	30281.85
512.34	30164.82
512.51	30043.12
512.69	30448.03
512.86	30085.25
513.04	30778.04
513.21	30417.60
513.38	29933.11
513.56	30850.60
513.73	30326.32
513.90	30756.98
514.08	30377.81
514.25	30937.20
514.43	30651.66
514.60	30654.00
514.77	30829.54
514.95	31042.53
515.12	31358.50
515.29	31335.09
515.47	31388.92
515.64	31763.41
515.81	31648.72
515.99	31442.76
516.16	31463.82
516.33	31777.45
516.51	31384.24
516.68	31658.09
516.85	31358.50
517.03	31744.69
517.20	31688.51
517.37	31665.11
517.54	32233.86
517.72	32112.15
517.89	31878.10
518.06	32189.39
518.24	32285.35
518.41	32261.94
518.58	32306.41
518.75	32203.43
518.93	32500.68
519.10	32439.82
519.27	32774.52
519.45	32596.64
519.62	33109.22
519.79	32950.06
519.96	32744.09
520.14	32987.51
520.31	32842.40
520.48	33050.70
520.65	32739.41
520.83	33455.62
521.00	33404.13
521.17	33422.85
521.34	33523.49
521.52	34134.37
521.69	33979.90
521.86	34036.07
522.03	34073.52
522.20	34167.14
522.38	33928.41
522.55	34338.00
522.72	34314.59
522.89	33804.36
523.07	34312.25
523.24	33762.23
523.41	34225.65
523.58	34075.86
523.75	34998.03
523.92	34909.09
524.10	34623.54
524.27	34532.26
524.44	34838.87
524.61	34785.04
524.78	34742.91
524.96	35138.46
525.13	34834.19
525.30	35466.14
525.47	35353.79
525.64	35253.15
525.81	35632.32
525.98	35529.33
526.16	35262.51
526.33	35112.72
526.50	35461.46
526.67	35271.87
526.84	35421.67
527.01	35360.81
527.18	35459.12
527.36	35655.72
527.53	35742.32
527.70	35885.09
527.87	35861.69
528.04	35943.61
528.21	36119.15
528.38	35789.13
528.55	36250.22
528.72	35901.48
528.89	36357.88
529.07	36231.49
529.24	36339.16
529.41	36147.23
529.58	36353.20
529.75	36280.64
529.92	36315.75
530.09	36596.62
530.26	36985.15
530.43	36692.58
530.60	36552.15
530.77	36641.09
530.94	36753.43
531.11	36900.89
531.28	36657.47
531.46	36851.73
531.63	37301.12
531.80	36973.44
531.97	36950.04
532.14	37083.45
532.31	36861.10
532.48	37298.78
532.65	37565.60
532.82	37628.79
532.99	37614.75
533.16	37427.51
533.33	37380.70
533.50	37610.07
533.67	37731.78
533.84	37441.55
534.01	37488.36
534.18	37422.83
534.35	38277.12
534.52	37949.45
534.69	38267.76
534.86	38139.03
535.03	37752.84
535.20	37895.61
535.37	38466.70
535.54	38433.94
535.71	38040.73
535.88	38295.85
536.05	38192.86
536.22	38293.50
536.38	38089.88
536.55	38525.22
536.72	38340.32
536.89	38445.64
537.06	38312.23
537.23	38614.16
537.40	38424.57
537.57	38417.55
537.74	38632.88
537.91	39082.27
538.08	39077.58
538.25	38473.73
538.42	38389.47
538.59	38686.71
538.75	39058.86
538.92	39122.05
539.09	39189.93
539.26	39065.88
539.43	38993.32
539.60	39070.56
539.77	38976.94
539.94	39299.94
540.11	39328.02
540.28	38951.20
540.44	39442.71
540.61	39122.05
540.78	38773.31
540.95	39119.71
541.12	39143.12
541.29	39306.96
541.46	39475.48
541.62	39393.56
541.79	39466.11
541.96	39548.03
542.13	39695.49
542.30	39758.68
542.47	39943.58
542.63	39746.98
542.80	39887.41
542.97	39929.54
543.14	40526.38
543.31	40102.74
543.48	40432.75
543.64	40882.14
543.81	40517.01
543.98	40154.23
544.15	40685.53
544.32	40982.78
544.48	40942.99
544.65	40601.27
544.82	40502.97
544.99	40301.68
545.16	40479.57
545.32	40435.10
545.49	40865.75
545.66	40903.20
545.83	40568.51
546.00	41338.54
546.16	40730.00
546.33	41167.68
546.50	40776.81
546.67	40816.60
546.83	40666.81
547.00	40872.78
547.17	40753.41
547.34	40882.14
547.50	40924.27
547.67	41170.02
547.84	41263.64
548.00	41207.47
548.17	41399.40
548.34	41315.14
548.51	41324.50
548.67	41755.16
548.84	41593.66
549.01	41654.51
549.18	41956.44
549.34	41574.94
549.51	42029.00
549.68	41642.81
549.84	41858.14
550.01	41743.45
550.18	41397.06
550.34	41593.66
550.51	41787.92
550.68	41659.20
550.84	41642.81
551.01	41879.21
551.18	41867.50
551.34	41710.69
551.51	41984.53
551.68	41748.14
551.84	42267.73
552.01	41975.17
552.18	42155.39
552.34	41937.72
552.51	42253.69
552.68	42108.58
552.84	42211.56
553.01	42550.94
553.18	42216.24
553.34	42106.24
553.51	42340.29
553.67	42312.20
553.84	42424.55
554.01	42405.83
554.17	42852.87
554.34	42665.63
554.51	42380.08
554.67	43040.11
554.84	42471.36
555.00	42253.69
555.17	42546.26
555.33	42920.74
555.50	42660.94
555.67	42906.70
555.83	42614.13
556.00	42656.26
556.16	43232.04
556.33	43009.68
556.50	42993.30
556.66	42848.19
556.83	42770.95
556.99	42721.80
557.16	43110.33
557.32	43129.05
557.49	43093.94
557.65	42513.49
557.82	42834.14
557.98	42878.61
558.15	42944.15
558.32	43196.93
558.48	42895.00
558.65	43248.42
558.81	43000.32
558.98	43428.64
559.14	43351.40
559.31	43363.11
559.47	43313.95
559.64	43033.09
559.80	43679.08
559.97	43182.88
560.13	42726.48
560.30	43225.01
560.46	43269.48
560.63	43665.03
560.79	43325.66
560.96	43658.01
561.12	43849.94
561.29	43400.55
561.45	43356.08
561.61	43660.35
561.78	43302.25
561.94	43377.15
562.11	43557.37
562.27	43456.73
562.44	43599.50
562.60	43908.45
562.77	43672.06
562.93	43779.72
563.10	44041.86
563.26	43473.11
563.42	43814.83
563.59	43395.87
563.75	43578.43
563.92	43763.34
564.08	43768.02
564.24	43887.39
564.41	44147.18
564.57	43779.72
564.74	43576.09
564.90	43753.97
565.07	44025.48
565.23	43985.69
565.39	43856.96
565.56	43873.34
565.72	43650.99
565.88	44034.84
566.05	44147.18
566.21	44074.63
566.38	44011.43
566.54	43482.47
566.70	44156.55
566.87	44685.51
567.03	44348.47
567.19	44552.10
567.36	44119.10
567.52	43573.75
567.68	44142.50
567.85	43948.24
568.01	44285.28
568.17	43208.63
568.34	43894.41
568.50	43901.43
568.66	43807.81
568.83	43765.68
568.99	43908.45
569.15	43887.39
569.32	44163.57
569.48	44091.01
569.64	44273.57
569.81	43983.35
569.97	44144.84
570.13	44238.47
570.30	43552.69
570.46	43920.15
570.62	43643.97
570.78	43943.56
570.95	44250.17
571.11	44355.49
571.27	43955.26
571.43	44287.62
571.60	44318.04
571.76	44182.29
571.92	44048.88
572.09	44044.20
572.25	44458.48
572.41	43686.10
572.57	43889.73
572.74	44580.18
572.90	44381.24
573.06	44655.08
573.22	44648.06
573.38	44704.23
573.55	43653.33
573.71	44472.52
573.87	43929.51
574.03	43863.98
574.20	45010.84
574.36	44222.08
574.52	44341.45
574.68	44512.31
574.84	44278.25
575.01	44069.95
575.17	43924.83
575.33	44069.95
575.49	44374.22
575.65	44641.04
575.82	44570.82
575.98	44809.56
576.14	44851.69
576.30	44409.32
576.46	43959.94
576.62	44179.95
576.79	44783.81
576.95	43861.64
577.11	44435.07
577.27	44610.61
577.43	44821.26
577.59	44179.95
577.75	44315.70
577.92	44039.52
578.08	44130.80
578.24	43798.44
578.40	44308.68
578.56	43875.68
578.72	44161.23
578.88	44657.42
579.04	44140.16
579.21	44144.84
579.37	44421.03
579.53	44208.04
579.69	44044.20
579.85	44467.84
580.01	44519.33
580.17	44329.75
580.33	44753.38
580.49	44622.31
580.65	44722.96
580.82	44549.76
580.98	44828.28
581.14	44247.83
581.30	44502.95
581.46	44526.35
581.62	44800.19
581.78	44430.39
581.94	44847.00
582.10	44926.58
582.26	44797.85
582.42	44823.60
582.58	44531.03
582.74	44341.45
582.90	44821.26
583.06	44814.24
583.22	44751.04
583.38	44931.26
583.54	44683.17
583.70	44758.06
583.86	44519.33
584.02	44430.39
584.18	44605.93
584.34	44531.03
584.50	44495.92
584.66	44418.69
584.82	44418.69
584.98	44692.53
585.14	44577.84
585.30	44587.21
585.46	44758.06
585.62	44210.38
585.78	44514.65
585.94	43969.30
586.10	44414.01
586.26	44395.28
586.42	44453.79
586.58	44882.11
586.74	44514.65
586.90	44458.48
587.06	44395.28
587.22	44617.63
587.38	44072.29
587.54	44938.29
587.70	44996.80
587.86	44744.02
588.02	44577.84
588.18	44402.30
588.34	44395.28
588.49	44470.18
588.65	44039.52
588.81	44720.62
588.97	44692.53
589.13	44444.43
589.29	44697.21
589.45	44561.46
589.61	44673.81
589.77	45457.88
589.93	45041.27
590.08	44851.69
590.24	44615.29
