SpectraSuite Data File
++++++++++++++++++++++++++++++++++++
Date: Fri Oct 25 10:46:55 EDT 2013
User: price-jones
Dark Spectrum Present: No
Reference Spectrum Present: No
Number of Sampled Component Spectra: 1
Spectrometers: USB2+H05261
Integration Time (usec): 100000 (USB2+H05261)
Spectra Averaged: 1 (USB2+H05261)
Boxcar Smoothing: 0 (USB2+H05261)
Correct for Electrical Dark: No (USB2+H05261)
Strobe/Lamp Enabled: No (USB2+H05261)
Correct for Detector Non-linearity: No (USB2+H05261)
Correct for Stray Light: No (USB2+H05261)
Number of Pixels in Processed Spectrum: 2048
>>>>>Begin Processed Spectral Data<<<<<
365.73	74.90
365.92	74.90
366.12	74.90
366.32	86.60
366.52	79.58
366.72	51.49
366.91	72.56
367.11	7.02
367.31	0.00
367.51	79.58
367.70	30.43
367.90	32.77
368.10	11.70
368.30	60.85
368.49	70.22
368.69	28.09
368.89	11.70
369.09	0.00
369.28	72.56
369.48	95.96
369.68	119.37
369.87	100.64
370.07	170.86
370.27	112.35
370.47	217.67
370.66	376.83
370.86	475.13
371.06	543.00
371.25	421.30
371.45	414.27
371.65	470.45
371.84	411.93
372.04	514.92
372.24	535.98
372.44	507.90
372.63	517.26
372.83	585.13
373.03	568.75
373.22	510.24
373.42	517.26
373.62	528.96
373.81	573.43
374.01	550.03
374.21	585.13
374.40	545.34
374.60	596.84
374.79	636.63
374.99	629.60
375.19	601.52
375.38	634.29
375.58	547.69
375.78	653.01
375.97	622.58
376.17	624.92
376.37	498.53
376.56	622.58
376.76	589.82
376.95	617.90
377.15	718.54
377.35	641.31
377.54	629.60
377.74	606.20
377.93	657.69
378.13	671.73
378.33	660.03
378.52	643.65
378.72	676.41
378.91	692.80
379.11	657.69
379.31	688.12
379.50	631.94
379.70	678.76
379.89	744.29
380.09	681.10
380.28	641.31
380.48	777.06
380.68	645.99
380.87	744.29
381.07	688.12
381.26	709.18
381.46	688.12
381.65	795.78
381.85	716.20
382.04	713.86
382.24	650.67
382.43	781.74
382.63	641.31
382.83	716.20
383.02	730.25
383.22	779.40
383.41	727.91
383.61	800.46
383.80	781.74
384.00	741.95
384.19	781.74
384.39	795.78
384.58	727.91
384.78	816.85
384.97	828.55
385.17	833.23
385.36	802.80
385.56	800.46
385.75	723.23
385.95	777.06
386.14	812.17
386.34	800.46
386.53	821.53
386.72	828.55
386.92	847.27
387.11	880.04
387.31	866.00
387.50	858.98
387.70	884.72
387.89	851.96
388.09	830.89
388.28	821.53
388.48	924.51
388.67	898.77
388.86	884.72
389.06	931.53
389.25	1008.77
389.45	994.73
389.64	894.08
389.84	1097.71
390.03	957.28
390.22	950.26
390.42	983.02
390.61	1036.86
390.81	1055.58
391.00	1081.33
391.19	1071.97
391.39	1062.60
391.58	1025.15
391.78	1071.97
391.97	1041.54
392.16	1071.97
392.36	1053.24
392.55	1104.73
392.75	994.73
392.94	1064.94
393.13	1069.62
393.33	1027.50
393.52	1022.81
393.71	1081.33
393.91	1074.31
394.10	1081.33
394.29	1118.78
394.49	1069.62
394.68	1249.85
394.88	1217.08
395.07	1214.74
395.26	1268.57
395.46	1207.72
395.65	1186.65
395.84	1261.55
396.04	1289.64
396.23	1203.04
396.42	1179.63
396.62	1205.38
396.81	1217.08
397.00	1284.95
397.19	1252.19
397.39	1329.42
397.58	1376.24
397.77	1348.15
397.97	1401.98
398.16	1434.75
398.35	1451.13
398.55	1507.30
398.74	1390.28
398.93	1488.58
399.12	1591.56
399.32	1437.09
399.51	1493.26
399.70	1516.67
399.90	1631.35
400.09	1586.88
400.28	1647.74
400.47	1589.22
400.67	1671.14
400.86	1685.19
401.05	1673.48
401.24	1631.35
401.44	1797.53
401.63	1610.29
401.82	1643.06
402.01	1696.89
402.21	1701.57
402.40	1607.95
402.59	1734.34
402.78	1650.08
402.97	1748.38
403.17	1767.10
403.36	1809.23
403.55	1802.21
403.74	1811.57
403.93	1874.77
404.13	1827.96
404.32	1816.26
404.51	1846.68
404.70	1968.39
404.89	1944.99
405.09	1914.56
405.28	1928.60
405.47	1884.13
405.66	1977.75
405.85	1973.07
406.05	1902.86
406.24	1963.71
406.43	1984.77
406.62	2080.74
406.81	2090.10
407.00	1982.43
407.20	2036.27
407.39	2038.61
407.58	2076.06
407.77	2209.47
407.96	2148.61
408.15	2270.32
408.34	2193.08
408.54	2275.00
408.73	2275.00
408.92	2202.44
409.11	2312.45
409.30	2221.17
409.49	2230.53
409.68	2090.10
409.87	2312.45
410.07	2317.13
410.26	2356.92
410.45	2368.62
410.64	2420.11
410.83	2476.29
411.02	2537.14
411.21	2495.01
411.40	2513.74
411.59	2551.18
411.78	2499.69
411.98	2523.10
412.17	2668.21
412.36	2623.74
412.55	2635.44
412.74	2661.19
412.93	2679.91
413.12	2672.89
413.31	2743.11
413.50	2698.64
413.69	2888.22
413.88	2937.37
414.07	2771.19
414.26	2970.14
414.45	3124.62
414.64	2951.42
414.83	2970.14
415.02	3000.57
415.22	2951.42
415.41	3138.66
415.60	3166.74
415.79	3136.32
415.98	3300.16
416.17	3190.15
416.36	3234.62
416.55	3236.96
416.74	3248.66
416.93	3169.09
417.12	3262.71
417.31	3302.50
417.50	3323.56
417.69	3370.37
417.88	3424.20
418.07	3316.54
418.26	3342.28
418.45	3445.27
418.64	3574.00
418.83	3581.02
419.02	3515.48
419.21	3531.87
419.39	3421.86
419.58	3496.76
419.77	3459.31
419.96	3562.30
420.15	3620.81
420.34	3513.14
420.53	3667.62
420.72	3805.71
420.91	3871.25
421.10	3674.64
421.29	3840.82
421.48	3772.94
421.67	3831.46
421.86	3873.59
422.05	3702.73
422.24	3735.50
422.43	3779.97
422.61	3777.62
422.80	4039.76
422.99	3836.14
423.18	3934.44
423.37	3875.93
423.56	3859.54
423.75	3740.18
423.94	3899.33
424.13	3726.13
424.32	3798.69
424.50	4035.08
424.69	3978.91
424.88	3864.22
425.07	3847.84
425.26	3779.97
425.45	3922.74
425.64	3871.25
425.83	3915.72
426.01	3988.27
426.20	3962.53
426.39	4149.77
426.58	3861.88
426.77	3889.97
426.96	3866.56
427.15	3922.74
427.33	3932.10
427.52	4112.32
427.71	4053.81
427.90	4067.85
428.09	4161.47
428.28	3967.21
428.46	4184.88
428.65	4088.92
428.84	4367.44
429.03	4332.33
429.22	3964.87
429.40	4114.66
429.59	4030.40
429.78	4032.74
429.97	4002.32
430.16	3976.57
430.34	4025.72
430.53	4124.02
430.72	4236.37
430.91	4236.37
431.10	4329.99
431.28	4613.20
431.47	4720.86
431.66	4594.47
431.85	4554.68
432.03	4561.70
432.22	4669.37
432.41	4585.11
432.60	4695.11
432.79	4521.92
432.97	4685.75
433.16	4638.94
433.35	4652.98
433.54	4688.09
433.72	4634.26
433.91	4662.35
434.10	4819.16
434.28	4716.18
434.47	4791.08
434.66	4844.91
434.85	4901.08
435.03	4992.36
435.22	4826.18
435.41	5039.17
435.59	4894.06
435.78	5111.73
435.97	5181.95
436.16	5128.11
436.34	5090.67
436.53	5090.67
436.72	5153.86
436.90	5025.13
437.09	5074.28
437.28	5109.39
437.46	5125.77
437.65	5076.62
437.84	5135.14
438.02	5111.73
438.21	5261.52
438.40	5231.10
438.58	5469.83
438.77	5287.27
438.96	5322.38
439.14	5364.51
439.33	5518.98
439.52	5495.58
439.70	5621.97
439.89	5598.56
440.08	5692.18
440.26	5715.59
440.45	5731.97
440.63	5621.97
440.82	5886.45
441.01	5795.17
441.19	6017.52
441.38	6232.85
441.57	6010.50
441.75	6026.88
441.94	6169.65
442.12	6181.35
442.31	6324.13
442.50	6230.51
442.68	6375.62
442.87	6352.21
443.05	6193.06
443.24	6429.45
443.43	6427.11
443.61	6417.75
443.80	6483.28
443.98	6258.59
444.17	6097.10
444.35	6560.52
444.54	6600.31
444.73	6251.57
444.91	6387.32
445.10	6387.32
445.28	6193.06
445.47	6071.35
445.65	6392.00
445.84	6366.26
446.02	6548.82
446.21	6583.93
446.39	6471.58
446.58	6616.69
446.77	6691.59
446.95	6602.65
447.14	6597.97
447.32	6600.31
447.51	6548.82
447.69	6483.28
447.88	6761.81
448.06	6750.10
448.25	6612.01
448.43	6719.68
448.62	6597.97
448.80	6677.55
448.99	6773.51
449.17	6881.18
449.36	6927.99
449.54	6909.26
449.73	6913.94
449.91	6942.03
450.10	7220.55
450.28	6953.73
450.46	7077.78
450.65	7089.48
450.83	6916.28
451.02	6937.35
451.20	7103.53
451.39	7344.60
451.57	7049.69
451.76	7204.17
451.94	7255.66
452.13	7316.51
452.31	7204.17
452.49	7033.31
452.68	7080.12
452.86	7059.06
453.05	7129.27
453.23	7304.81
453.42	7138.63
453.60	7140.97
453.78	7470.99
453.97	7234.60
454.15	7208.85
454.34	7140.97
454.52	7410.14
454.70	7335.24
454.89	7419.50
455.07	7398.43
455.26	7524.82
455.44	7723.77
455.62	7686.32
455.81	7611.42
455.99	7854.84
456.17	7831.43
456.36	7791.64
456.54	7768.24
456.73	7815.05
456.91	8266.77
457.09	8030.38
457.28	8215.28
457.46	8112.30
457.64	8006.97
457.83	8042.08
458.01	7999.95
458.19	8121.66
458.38	8049.10
458.56	8067.83
458.74	8217.62
458.93	8292.52
459.11	8060.80
459.29	8243.37
459.48	8484.44
459.66	8222.30
459.84	8259.75
460.03	8559.34
460.21	8418.91
460.39	8400.18
460.57	8547.64
460.76	8379.12
460.94	8468.06
461.12	8346.35
461.31	8566.36
461.49	8575.72
461.67	8585.08
461.85	8734.88
462.04	8540.61
462.22	9076.60
462.40	8950.21
462.59	8594.45
462.77	8957.23
462.95	8926.80
463.13	8901.06
463.32	9074.26
463.50	8671.68
463.68	8947.87
463.86	9036.81
464.05	8732.54
464.23	8748.92
464.41	9008.72
464.59	8823.82
464.78	8959.57
464.96	9102.34
465.14	9135.11
465.32	9025.11
465.50	9165.54
465.69	9308.31
465.87	9186.60
466.05	9071.92
466.23	9263.84
466.41	9139.79
466.60	9394.91
466.78	9275.54
466.96	9158.52
467.14	9144.47
467.32	9200.65
467.51	9556.41
467.69	9006.38
467.87	9357.46
468.05	9401.93
468.23	9380.87
468.41	9378.53
468.60	9284.91
468.78	9256.82
468.96	9448.74
469.14	9572.79
469.32	9645.35
469.50	9327.03
469.69	9551.73
469.87	9525.98
470.05	9659.39
470.23	9785.78
470.41	9668.75
470.59	9685.14
470.77	9724.93
470.95	9949.62
471.14	10139.20
471.32	9898.13
471.50	10143.88
471.68	10160.27
471.86	10012.81
472.04	10193.03
472.22	10410.70
472.40	10178.99
472.58	10377.94
472.77	10408.36
472.95	10513.69
473.13	10684.55
473.31	10630.71
473.49	10422.41
473.67	10396.66
473.85	10635.39
474.03	10895.19
474.21	10736.04
474.39	10705.61
474.57	11012.22
474.75	11110.52
474.93	11030.94
475.12	10967.75
475.30	11332.87
475.48	11206.48
475.66	11417.13
475.84	11164.36
476.02	11140.95
476.20	11257.98
476.38	11721.40
476.56	11770.55
476.74	11721.40
476.92	11880.56
477.10	11793.96
477.28	11735.45
477.46	11941.41
477.64	12266.75
477.82	12081.85
478.00	12449.31
478.18	12449.31
478.36	12538.25
478.54	12723.15
478.72	12456.33
478.90	12896.35
479.08	12896.35
479.26	13071.89
479.44	12730.17
479.62	13177.22
479.80	13221.69
479.98	13319.99
480.16	13776.39
480.34	13350.42
480.52	13479.15
480.70	13699.16
480.88	13439.36
481.06	13598.51
481.24	14207.05
481.41	13888.74
481.59	14279.61
481.77	14258.54
481.95	14375.57
482.13	14705.59
482.31	14508.98
482.49	14864.74
482.67	14644.73
482.85	14792.19
483.03	14911.55
483.21	15262.63
483.39	15346.89
483.57	15403.07
483.74	15377.32
483.92	15421.79
484.10	15522.43
484.28	15700.31
484.46	16222.25
484.64	16189.49
484.82	15887.56
485.00	16182.46
485.18	16145.02
485.35	16287.79
485.53	16404.81
485.71	15850.11
485.89	16395.45
486.07	16545.25
486.25	16435.24
486.43	16788.66
486.61	16844.84
486.78	17249.75
486.96	17043.78
487.14	17654.66
487.32	17525.93
487.50	17710.83
487.68	18010.42
487.85	18221.07
488.03	18242.14
488.21	18494.91
488.39	18569.81
488.57	18665.77
488.75	18773.44
488.92	19187.71
489.10	19454.53
489.28	19180.69
489.46	19594.96
489.64	19693.27
489.81	19981.15
489.99	19850.08
490.17	19995.20
490.35	20505.43
490.53	20107.54
490.70	20332.23
490.88	20362.66
491.06	20718.42
491.24	20570.97
491.41	20306.49
491.59	20741.83
491.77	20634.16
491.95	21170.15
492.13	20966.52
492.30	21240.36
492.48	21647.61
492.66	21759.96
492.84	21881.67
493.01	22082.95
493.19	21774.00
493.37	22092.32
493.54	22033.80
493.72	22324.03
493.90	22647.02
494.08	22614.26
494.25	23164.28
494.43	23374.93
494.61	23206.41
494.79	23175.98
494.96	23054.28
495.14	23295.35
495.32	23445.15
495.49	23742.39
495.67	23756.44
495.85	24027.94
496.02	23861.76
496.20	24402.43
496.38	24465.62
496.55	24437.53
496.73	24741.80
496.91	24491.37
497.09	24793.29
497.26	25111.61
497.44	25135.01
497.62	25078.84
497.79	25146.72
497.97	25118.63
498.14	25247.36
498.32	25326.94
498.50	25745.89
498.67	25837.17
498.85	25741.21
499.03	26251.45
499.20	26185.91
499.38	25738.87
499.56	26548.70
499.73	26302.94
499.91	26621.25
500.08	26623.59
500.26	26267.83
500.44	26291.24
500.61	26590.83
500.79	26560.40
500.97	26717.22
501.14	27019.14
501.32	27339.80
501.49	27080.00
501.67	27211.07
501.84	27204.05
502.02	27424.06
502.20	27426.40
502.37	27700.24
502.55	27314.05
502.72	28147.28
502.90	28304.10
503.07	27873.44
503.25	28196.43
503.43	28013.87
503.60	28053.66
503.78	28210.48
503.95	28100.47
504.13	28187.07
504.30	28751.14
504.48	28723.05
504.65	28430.49
504.83	28687.95
505.01	29097.54
505.18	28821.36
505.36	29504.79
505.53	29092.86
505.71	29443.94
505.88	29575.01
506.06	29001.58
506.23	29579.69
506.41	29666.29
506.58	29518.84
506.76	29745.87
506.93	30185.89
507.11	29523.52
507.28	29968.22
507.46	29666.29
507.63	30050.14
507.81	30312.28
507.98	30026.73
508.16	30125.04
508.33	30742.94
508.50	30658.68
508.68	31042.53
508.85	31241.47
509.03	30930.18
509.20	31283.60
509.38	31243.81
509.55	31126.78
509.73	30937.20
509.90	31550.42
510.08	30998.06
510.25	31398.29
510.42	31482.55
510.60	31697.88
510.77	31861.71
510.95	31938.95
511.12	31676.81
511.30	31803.20
511.47	32081.72
511.64	32290.03
511.82	31992.78
511.99	32070.02
512.17	32095.77
512.34	32554.51
512.51	32643.45
512.69	32699.62
512.86	32968.79
513.04	32865.80
513.21	32561.53
513.38	32786.22
513.56	32582.60
513.73	32322.80
513.90	32931.34
514.08	33181.77
514.25	33226.24
514.43	33387.74
514.60	32816.65
514.77	33240.29
514.95	33074.11
515.12	33727.12
515.29	33535.20
515.47	33820.74
515.64	33853.51
515.81	33443.91
515.99	33827.76
516.16	33579.67
516.33	33502.43
516.51	33457.96
516.68	33132.62
516.85	33254.33
517.03	33556.26
517.20	33626.48
517.37	34073.52
517.54	34155.44
517.72	34019.69
517.89	34162.46
518.06	33881.60
518.24	34291.19
518.41	34363.75
518.58	34487.79
518.75	34953.56
518.93	34881.00
519.10	34548.65
519.27	35086.97
519.45	34572.05
519.62	35386.56
519.79	35192.30
519.96	35349.11
520.14	35297.62
520.31	35185.27
520.48	35475.50
520.65	35260.17
520.83	35730.62
521.00	35667.42
521.17	35824.24
521.34	36128.51
521.52	35959.99
521.69	36194.04
521.86	35779.77
522.03	36428.10
522.20	36112.13
522.38	36568.53
522.55	36259.58
522.72	36264.26
522.89	36327.45
523.07	36790.88
523.24	36627.04
523.41	36503.00
523.58	36776.84
523.75	37619.43
523.92	37216.86
524.10	37170.05
524.27	37443.89
524.44	37109.19
524.61	37560.92
524.78	37507.08
524.96	37495.38
525.13	37743.48
525.30	37914.34
525.47	37713.05
525.64	37968.17
525.81	37357.29
525.98	37392.40
526.16	37298.78
526.33	37376.01
526.50	37703.69
526.67	36933.65
526.84	37397.08
527.01	37855.82
527.18	37876.89
527.36	38256.06
527.53	38103.92
527.70	38579.05
527.87	38242.01
528.04	38108.60
528.21	38616.50
528.38	38455.00
528.55	38555.64
528.72	38660.97
528.89	38782.68
529.07	38995.67
529.24	38747.57
529.41	38834.17
529.58	38457.34
529.75	39014.39
529.92	38859.91
530.09	38873.96
530.26	38972.26
530.43	39721.23
530.60	38888.00
530.77	39196.95
530.94	39152.48
531.11	38909.07
531.28	39700.17
531.46	39732.93
531.63	39922.52
531.80	39351.43
531.97	39358.45
532.14	39416.96
532.31	38822.47
532.48	39433.35
532.65	39721.23
532.82	39702.51
532.99	40009.12
533.16	39599.52
533.33	39922.52
533.50	40210.40
533.67	40191.68
533.84	39651.02
534.01	40205.72
534.18	40137.85
534.35	40318.07
534.52	40222.11
534.69	40304.02
534.86	40346.15
535.03	40491.27
535.20	40737.02
535.37	41104.49
535.54	40416.37
535.71	40636.38
535.88	40753.41
536.05	40589.57
536.22	41123.21
536.38	41280.03
536.55	40825.96
536.72	40479.57
536.89	40692.55
537.06	40947.67
537.23	41151.30
537.40	41226.20
537.57	41177.04
537.74	41179.39
537.91	41415.78
538.08	41275.35
538.25	41155.98
538.42	41010.87
538.59	41109.17
538.75	40980.44
538.92	41504.72
539.09	41626.43
539.26	41406.42
539.43	41181.73
539.60	41120.87
539.77	41315.14
539.94	41631.11
540.11	41596.00
540.28	41727.07
540.44	41750.48
540.61	41820.69
540.78	41621.75
540.95	41450.89
541.12	41680.26
541.29	41855.80
541.46	41766.86
541.62	42127.30
541.79	42291.14
541.96	41294.07
542.13	41783.24
542.30	42220.92
542.47	42211.56
542.63	41886.23
542.80	42321.57
542.97	42721.80
543.14	42941.81
543.31	42808.40
543.48	42890.32
543.64	43171.18
543.81	42871.59
543.98	42981.60
544.15	42862.23
544.32	43241.40
544.48	43260.12
544.65	42579.03
544.82	43370.13
544.99	43086.92
545.16	43548.01
545.32	42843.51
545.49	43042.45
545.66	43210.97
545.83	43124.37
546.00	43311.61
546.16	43189.91
546.33	42883.30
546.50	43091.60
546.67	43405.23
546.83	43255.44
547.00	43388.85
547.17	43203.95
547.34	42689.03
547.50	43171.18
547.67	43332.68
547.84	43779.72
548.00	43562.05
548.17	44088.67
548.34	43807.81
548.51	43735.25
548.67	43590.14
548.84	43817.17
549.01	43913.13
549.18	43814.83
549.34	43966.96
549.51	43756.32
549.68	43978.67
549.84	44154.21
550.01	44114.42
550.18	44013.77
550.34	43810.15
550.51	43723.55
550.68	43721.21
550.84	43704.82
551.01	44425.71
551.18	44362.51
551.34	44261.87
551.51	44753.38
551.68	44348.47
551.84	44491.24
552.01	44170.59
552.18	44638.70
552.34	43934.20
552.51	44076.97
552.68	44374.22
552.84	44619.97
553.01	44795.51
553.18	44580.18
553.34	44495.92
553.51	44624.65
553.67	44683.17
553.84	45038.93
554.01	44507.63
554.17	45064.67
554.34	44893.82
554.51	44765.09
554.67	45043.61
554.84	44718.28
555.00	45216.81
555.17	45052.97
555.33	44940.63
555.50	45153.62
555.67	45368.94
555.83	45088.08
556.00	44821.26
556.16	45420.44
556.33	44903.18
556.50	44793.17
556.66	45413.41
556.83	44720.62
556.99	45546.82
557.16	45567.89
557.32	45361.92
557.49	45219.15
557.65	45235.53
557.82	44711.25
557.98	45287.03
558.15	45130.21
558.32	45434.48
558.48	45467.25
558.65	45139.57
558.81	45308.09
558.98	45436.82
559.14	45322.13
559.31	45368.94
559.47	45258.94
559.64	45743.43
559.80	45661.51
559.97	45518.74
560.13	45200.43
560.30	45205.11
560.46	45483.63
560.63	45951.74
560.79	45975.14
560.96	45928.33
561.12	45544.48
561.29	45471.93
561.45	45813.65
561.61	45619.38
561.78	45413.41
561.94	45308.09
562.11	45057.65
562.27	45394.69
562.44	45638.11
562.60	45827.69
562.77	46038.34
562.93	46185.79
563.10	45925.99
563.26	45411.07
563.42	45869.82
563.59	45392.35
563.75	45883.86
563.92	46328.56
564.08	45832.37
564.24	46059.40
564.41	45888.54
564.57	45815.99
564.74	46471.34
564.90	45872.16
565.07	45890.88
565.23	45619.38
565.39	45614.70
565.56	46167.07
565.72	45867.48
565.88	46000.89
566.05	45844.07
566.21	46237.28
566.38	46141.32
566.54	45741.09
566.70	46089.83
566.87	46073.45
567.03	46017.27
567.19	46672.62
567.36	46305.16
567.52	45799.60
567.68	45815.99
567.85	45645.13
568.01	46005.57
568.17	45830.03
568.34	46211.54
568.50	46115.58
568.66	46234.94
568.83	45928.33
568.99	46274.73
569.15	46351.97
569.32	45935.35
569.48	45766.84
569.64	46293.46
569.81	45876.84
569.97	45846.41
570.13	45750.45
570.30	45652.15
570.46	45418.10
570.62	45888.54
570.78	46227.92
570.95	45790.24
571.11	46440.91
571.27	46197.49
571.43	45956.42
571.60	46143.66
571.76	45736.41
571.92	45631.08
572.09	45867.48
572.25	46122.60
572.41	45769.18
572.57	46412.82
572.74	46270.05
572.90	46635.17
573.06	46096.85
573.22	46256.01
573.38	46337.93
573.55	46265.37
573.71	46064.08
573.87	46707.73
574.03	45815.99
574.20	46153.02
574.36	45940.04
574.52	46099.19
574.68	46347.29
574.84	46073.45
575.01	46068.76
575.17	46047.70
575.33	46319.20
575.49	46417.50
575.65	45989.19
575.82	46532.19
575.98	46064.08
576.14	46408.14
576.30	46256.01
576.46	46366.01
576.62	46218.56
576.79	46408.14
576.95	46153.02
577.11	46433.89
577.27	46555.60
577.43	46291.12
577.59	46206.86
577.75	46232.60
577.92	46014.93
578.08	46124.94
578.24	46003.23
578.40	45942.38
578.56	46571.98
578.72	46653.90
578.88	46892.63
579.04	46291.12
579.21	46380.06
579.37	45888.54
579.53	46684.33
579.69	46426.87
579.85	46644.54
580.01	46279.41
580.17	46412.82
580.33	46375.37
580.49	46841.14
580.65	46319.20
580.82	46258.35
580.98	46588.36
581.14	46153.02
581.30	46560.28
581.46	46230.26
581.62	46541.55
581.78	46298.14
581.94	46740.50
582.10	46609.43
582.26	46735.82
582.42	46646.88
582.58	46579.00
582.74	46485.38
582.90	46674.96
583.06	46602.41
583.22	46712.41
583.38	46583.68
583.54	46777.95
583.70	46424.53
583.86	46689.01
584.02	46241.96
584.18	46253.67
584.34	46241.96
584.50	46052.38
584.66	46466.66
584.82	46176.43
584.98	46630.49
585.14	46307.50
585.30	46323.88
585.46	46373.03
585.62	46438.57
585.78	46412.82
585.94	46295.80
586.10	46211.54
586.26	46174.09
586.42	46635.17
586.58	46810.71
586.74	46445.59
586.90	46583.68
587.06	46361.33
587.22	46363.67
587.38	46265.37
587.54	46602.41
587.70	46579.00
587.86	46398.78
588.02	46677.30
588.18	46862.21
588.34	46513.47
588.49	46176.43
588.65	45748.11
588.81	45998.55
588.97	46277.07
589.13	46220.90
589.29	46300.48
589.45	46239.62
589.61	47068.17
589.77	46464.32
589.93	46490.06
