SpectraSuite Data File
++++++++++++++++++++++++++++++++++++
Date: Fri Oct 25 10:43:58 EDT 2013
User: price-jones
Dark Spectrum Present: No
Reference Spectrum Present: No
Number of Sampled Component Spectra: 1
Spectrometers: USB2+H05261
Integration Time (usec): 100000 (USB2+H05261)
Spectra Averaged: 1 (USB2+H05261)
Boxcar Smoothing: 0 (USB2+H05261)
Correct for Electrical Dark: No (USB2+H05261)
Strobe/Lamp Enabled: No (USB2+H05261)
Correct for Detector Non-linearity: No (USB2+H05261)
Correct for Stray Light: No (USB2+H05261)
Number of Pixels in Processed Spectrum: 2048
>>>>>Begin Processed Spectral Data<<<<<
365.73	112.35
365.92	112.35
366.12	112.35
366.32	7.02
366.52	51.49
366.72	0.00
366.91	84.26
367.11	23.41
367.31	2.34
367.51	0.00
367.70	0.00
367.90	0.00
368.10	16.38
368.30	0.00
368.49	9.36
368.69	79.58
368.89	46.81
369.09	0.00
369.28	119.37
369.48	0.00
369.68	28.09
369.87	91.28
370.07	102.98
370.27	102.98
370.47	184.90
370.66	409.59
370.86	430.66
371.06	482.15
371.25	402.57
371.45	491.51
371.65	475.13
371.84	444.70
372.04	454.06
372.24	493.85
372.44	482.15
372.63	468.11
372.83	463.43
373.03	458.74
373.22	606.20
373.42	507.90
373.62	514.92
373.81	528.96
374.01	629.60
374.21	608.54
374.40	519.60
374.60	587.47
374.79	543.00
374.99	580.45
375.19	550.03
375.38	540.66
375.58	603.86
375.78	559.39
375.97	629.60
376.17	674.07
376.37	589.82
376.56	606.20
376.76	650.67
376.95	582.79
377.15	620.24
377.35	557.05
377.54	676.41
377.74	653.01
377.93	648.33
378.13	699.82
378.33	594.50
378.52	608.54
378.72	610.88
378.91	674.07
379.11	669.39
379.31	592.16
379.50	617.90
379.70	657.69
379.89	746.63
380.09	671.73
380.28	699.82
380.48	706.84
380.68	716.20
380.87	671.73
381.07	760.67
381.26	770.04
381.46	774.72
381.65	634.29
381.85	734.93
382.04	690.46
382.24	730.25
382.43	634.29
382.63	744.29
382.83	744.29
383.02	638.97
383.22	697.48
383.41	671.73
383.61	739.61
383.80	781.74
384.00	765.36
384.19	835.57
384.39	861.32
384.58	774.72
384.78	830.89
384.97	849.61
385.17	718.54
385.36	788.76
385.56	753.65
385.75	709.18
385.95	791.10
386.14	835.57
386.34	760.67
386.53	795.78
386.72	828.55
386.92	861.32
387.11	926.85
387.31	891.74
387.50	894.08
387.70	866.00
387.89	849.61
388.09	894.08
388.28	889.40
388.48	910.47
388.67	950.26
388.86	968.98
389.06	875.36
389.25	1041.54
389.45	954.94
389.64	905.79
389.84	992.39
390.03	999.41
390.22	1006.43
390.42	990.05
390.61	1062.60
390.81	992.39
391.00	1046.22
391.19	1146.86
391.39	1081.33
391.58	1093.03
391.78	940.90
391.97	1109.41
392.16	929.19
392.36	1025.15
392.55	1067.28
392.75	1076.65
392.94	1050.90
393.13	1043.88
393.33	1013.45
393.52	1025.15
393.71	1057.92
393.91	1165.59
394.10	1135.16
394.29	1114.10
394.49	1135.16
394.68	1172.61
394.88	1207.72
395.07	1252.19
395.26	1324.74
395.46	1196.01
395.65	1186.65
395.84	1191.33
396.04	1263.89
396.23	1191.33
396.42	1165.59
396.62	1238.14
396.81	1270.91
397.00	1174.95
397.19	1336.45
397.39	1322.40
397.58	1460.49
397.77	1430.07
397.97	1390.28
398.16	1430.07
398.35	1434.75
398.55	1486.24
398.74	1561.14
398.93	1418.36
399.12	1488.58
399.32	1460.49
399.51	1476.88
399.70	1612.63
399.90	1629.01
400.09	1575.18
400.28	1624.33
400.47	1636.03
400.67	1671.14
400.86	1755.40
401.05	1671.14
401.24	1692.21
401.44	1706.25
401.63	1703.91
401.82	1666.46
402.01	1629.01
402.21	1713.27
402.40	1846.68
402.59	1762.42
402.78	1797.53
402.97	1769.44
403.17	1837.32
403.36	1827.96
403.55	1799.87
403.74	2001.16
403.93	1891.15
404.13	1952.01
404.32	1907.54
404.51	2003.50
404.70	1921.58
404.89	1959.03
405.09	1963.71
405.28	1942.64
405.47	1935.62
405.66	1874.77
405.85	2064.35
406.05	2115.84
406.24	2022.22
406.43	2054.99
406.62	2066.69
406.81	2172.02
407.00	2054.99
407.20	2062.01
407.39	2115.84
407.58	2186.06
407.77	2246.91
407.96	2399.05
408.15	2267.98
408.34	2352.24
408.54	2380.32
408.73	2267.98
408.92	2331.17
409.11	2349.90
409.30	2347.56
409.49	2298.41
409.68	2249.25
409.87	2317.13
410.07	2431.82
410.26	2345.22
410.45	2429.48
410.64	2326.49
410.83	2443.52
411.02	2471.61
411.21	2546.50
411.40	2506.71
411.59	2619.06
411.78	2602.68
411.98	2665.87
412.17	2605.02
412.36	2719.70
412.55	2736.09
412.74	2684.59
412.93	2794.60
413.12	2612.04
413.31	2899.92
413.50	2965.46
413.69	2766.51
413.88	2899.92
414.07	2937.37
414.26	2972.48
414.45	2981.84
414.64	2953.76
414.83	3005.25
415.02	3131.64
415.22	3119.93
415.41	3197.17
415.60	3225.26
415.79	3173.77
415.98	3171.43
416.17	3309.52
416.36	3384.41
416.55	3332.92
416.74	3323.56
416.93	3225.26
417.12	3309.52
417.31	3236.96
417.50	3251.00
417.69	3342.28
417.88	3501.44
418.07	3428.88
418.26	3445.27
418.45	3468.67
418.64	3583.36
418.83	3679.32
419.02	3667.62
419.21	3644.21
419.39	3660.60
419.58	3611.45
419.77	3548.25
419.96	3728.47
420.15	3906.35
420.34	3674.64
420.53	3824.44
420.72	3896.99
420.91	3836.14
421.10	3808.05
421.29	3913.38
421.48	3719.11
421.67	3939.12
421.86	3943.80
422.05	3920.40
422.24	3815.07
422.43	3885.29
422.61	3906.35
422.80	4011.68
422.99	3868.91
423.18	3950.82
423.37	4091.26
423.56	3969.55
423.75	3932.10
423.94	3866.56
424.13	3655.92
424.32	4007.00
424.50	4016.36
424.69	3957.85
424.88	4091.26
425.07	4030.40
425.26	3957.85
425.45	4051.47
425.64	4114.66
425.83	3974.23
426.01	4152.11
426.20	4063.17
426.39	4042.11
426.58	4051.47
426.77	4051.47
426.96	3992.95
427.15	4051.47
427.33	4257.43
427.52	4058.49
427.71	4051.47
427.90	4203.60
428.09	4311.27
428.28	4142.75
428.46	4219.99
428.65	4271.48
428.84	4196.58
429.03	4252.75
429.22	4032.74
429.40	4189.56
429.59	4187.22
429.78	3934.44
429.97	3997.64
430.16	4093.60
430.34	4161.47
430.53	4142.75
430.72	4105.30
430.91	4280.84
431.10	4346.37
431.28	4578.09
431.47	4676.39
431.66	4779.37
431.85	4634.26
432.03	4765.33
432.22	4737.24
432.41	4784.06
432.60	4734.90
432.79	4737.24
432.97	4807.46
433.16	4861.29
433.35	4723.20
433.54	4734.90
433.72	4833.21
433.91	4777.03
434.10	4880.02
434.28	4739.58
434.47	4940.87
434.66	4954.91
434.85	4959.60
435.03	5046.20
435.22	4973.64
435.41	5245.14
435.59	5097.69
435.78	5135.14
435.97	5221.74
436.16	5158.54
436.34	5247.48
436.53	5130.45
436.72	5352.81
436.90	5174.92
437.09	5137.48
437.28	5366.85
437.46	5298.97
437.65	5118.75
437.84	5221.74
438.02	5214.71
438.21	5322.38
438.40	5200.67
438.58	5336.42
438.77	5404.30
438.96	5518.98
439.14	5640.69
439.33	5841.98
439.52	5692.18
439.70	5699.20
439.89	5825.59
440.08	5736.65
440.26	5849.00
440.45	5844.32
440.63	5743.67
440.82	5933.26
441.01	5921.56
441.19	6069.01
441.38	6115.82
441.57	6080.71
441.75	6211.78
441.94	6169.65
442.12	6387.32
442.31	6399.02
442.50	6544.14
442.68	6291.36
442.87	6441.15
443.05	6427.11
443.24	6593.29
443.43	6312.42
443.61	6518.39
443.80	6635.42
443.98	6406.05
444.17	6258.59
444.35	6574.56
444.54	6792.23
444.73	6726.70
444.91	6722.02
445.10	6724.36
445.28	6609.67
445.47	6265.61
445.65	6321.79
445.84	6691.59
446.02	6815.64
446.21	6644.78
446.39	6558.18
446.58	6860.11
446.77	6803.94
446.95	6799.26
447.14	6780.53
447.32	6911.60
447.51	6780.53
447.69	6679.89
447.88	6782.87
448.06	6916.28
448.25	6782.87
448.43	6817.98
448.62	6752.45
448.80	6899.90
448.99	7028.63
449.17	6974.80
449.36	6803.94
449.54	6942.03
449.73	7227.57
449.91	7176.08
450.10	7155.02
450.28	7169.06
450.46	7190.13
450.65	7314.17
450.83	7426.52
451.02	7265.02
451.20	7349.28
451.39	7403.11
451.57	7260.34
451.76	7227.57
451.94	7318.86
452.13	7517.80
452.31	7330.56
452.49	7220.55
452.68	7412.48
452.86	7286.09
453.05	7360.98
453.23	7494.40
453.42	7307.15
453.60	7363.33
453.78	7492.05
453.97	7618.44
454.15	7461.63
454.34	7358.64
454.52	7571.63
454.70	7648.87
454.89	7646.53
455.07	7581.00
455.26	7810.37
455.44	7786.96
455.62	7768.24
455.81	7805.69
455.99	7936.76
456.17	7911.01
456.36	7721.43
456.54	8004.63
456.73	7939.10
456.91	8301.88
457.09	8234.00
457.28	8271.45
457.46	8095.91
457.64	8299.54
457.83	8315.92
458.01	7983.57
458.19	8299.54
458.38	8208.26
458.56	8383.80
458.74	8255.07
458.93	8273.79
459.11	8292.52
459.29	8486.78
459.48	8521.89
459.66	8285.50
459.84	8765.31
460.03	8704.45
460.21	8645.94
460.39	8769.99
460.57	8648.28
460.76	8774.67
460.94	8699.77
461.12	8772.33
461.31	8732.54
461.49	8765.31
461.67	8634.24
461.85	9069.58
462.04	8910.42
462.22	9039.15
462.40	9043.83
462.59	8975.95
462.77	8802.75
462.95	9055.53
463.13	9020.42
463.32	9210.01
463.50	8994.68
463.68	9046.17
463.86	9123.41
464.05	9111.71
464.23	9004.04
464.41	9142.13
464.59	9153.84
464.78	9254.48
464.96	9385.55
465.14	9116.39
465.32	9451.08
465.50	9474.49
465.69	9369.16
465.87	9525.98
466.05	9362.14
466.23	9383.21
466.41	9242.78
466.60	9179.58
466.78	9156.18
466.96	9500.23
467.14	9231.07
467.32	9561.09
467.51	9666.41
467.69	9348.10
467.87	9362.14
468.05	9614.92
468.23	9575.13
468.41	9591.52
468.60	9685.14
468.78	9687.48
468.96	9717.90
469.14	9963.66
469.32	9809.19
469.50	9551.73
469.69	9942.60
469.87	9902.81
470.05	9806.84
470.23	9858.34
470.41	10064.30
470.59	10066.64
470.77	9811.53
470.95	10183.67
471.14	10115.80
471.32	10090.05
471.50	10366.23
471.68	10223.46
471.86	10476.24
472.04	10548.79
472.22	10738.38
472.40	10335.81
472.58	10506.66
472.77	10429.43
472.95	10654.12
473.13	10944.34
473.31	10518.37
473.49	10602.63
473.67	10663.48
473.85	10803.91
474.03	11030.94
474.21	11255.64
474.39	11208.83
474.57	11241.59
474.75	11323.51
474.93	11260.32
475.12	11239.25
475.30	11232.23
475.48	11330.53
475.66	11585.65
475.84	11470.97
476.02	11494.37
476.20	11733.11
476.38	11777.58
476.56	12135.68
476.74	12138.02
476.92	12109.93
477.10	11857.15
477.28	12161.42
477.46	12173.13
477.64	12198.87
477.82	12503.14
478.00	12669.32
478.18	12709.11
478.36	12776.98
478.54	12929.12
478.72	12982.95
478.90	13036.78
479.08	13371.48
479.26	13301.26
479.44	13130.41
479.62	13273.18
479.80	13607.87
479.98	13586.81
480.16	13912.14
480.34	13764.69
480.52	13926.19
480.70	13921.51
480.88	13724.90
481.06	14068.96
481.24	14279.61
481.41	14523.02
481.59	14492.60
481.77	14527.71
481.95	14773.46
482.13	14759.42
482.31	14532.39
482.49	15234.55
482.67	15154.97
482.85	15393.70
483.03	15288.38
483.21	15590.31
483.39	15562.22
483.57	15613.71
483.74	15564.56
483.92	15730.74
484.10	15599.67
484.28	16060.76
484.46	16255.02
484.64	16620.14
484.82	16065.44
485.00	16269.06
485.18	16535.88
485.35	16493.76
485.53	16205.87
485.71	16397.79
485.89	16727.81
486.07	16554.61
486.25	16819.09
486.43	17106.98
486.61	17399.54
486.78	17624.23
486.96	17542.32
487.14	17900.42
487.32	17921.48
487.50	18092.34
487.68	18520.66
487.85	18515.98
488.03	19016.85
488.21	19080.05
488.39	18757.05
488.57	18829.61
488.75	19145.58
488.92	19143.24
489.10	19648.80
489.28	19719.01
489.46	19894.55
489.64	19669.86
489.81	20374.36
489.99	20496.07
490.17	20599.05
490.35	20243.29
490.53	20659.91
490.70	20812.04
490.88	20762.89
491.06	21259.09
491.24	20840.13
491.41	21158.44
491.59	21025.03
491.77	21041.42
491.95	21287.17
492.13	21511.86
492.30	21771.66
492.48	21757.62
492.66	21900.39
492.84	22097.00
493.01	22326.37
493.19	22349.78
493.37	22499.57
493.54	22394.25
493.72	22476.16
493.90	23192.37
494.08	23117.47
494.25	23293.01
494.43	23426.42
494.61	23639.41
494.79	23648.77
494.96	23742.39
495.14	23683.88
495.32	23786.86
495.49	23943.68
495.67	23864.10
495.85	24463.28
496.02	24713.72
496.20	24659.88
496.38	24650.52
496.55	25013.31
496.73	25219.27
496.91	25151.40
497.09	25366.73
497.26	25448.64
497.44	25270.76
497.62	25256.72
497.79	25654.61
497.97	25352.68
498.14	25802.07
498.32	25748.23
498.50	25860.58
498.67	26471.46
498.85	26377.84
499.03	26389.54
499.20	26710.19
499.38	26735.94
499.56	26911.48
499.73	26834.24
499.91	26988.72
500.08	26553.38
500.26	26902.12
500.44	27012.12
500.61	27250.86
500.79	26925.52
500.97	27119.79
501.14	27552.79
501.32	27496.61
501.49	27419.38
501.67	27587.89
501.84	27742.37
502.02	27477.89
502.20	27997.49
502.37	28290.06
502.55	27971.74
502.72	28446.87
502.90	28273.67
503.07	28423.47
503.25	28369.63
503.43	28070.04
503.60	28067.70
503.78	28472.62
503.95	28381.34
504.13	28774.55
504.30	29146.69
504.48	29160.73
504.65	29347.98
504.83	29418.19
505.01	29474.37
505.18	29413.51
505.36	29649.91
505.53	29888.64
505.71	30082.91
505.88	29926.09
506.06	29628.84
506.23	30338.02
506.41	30176.53
506.58	30251.42
506.76	30382.49
506.93	30267.81
507.11	30656.34
507.28	30356.75
507.46	30015.03
507.63	30382.49
507.81	30740.60
507.98	30469.09
508.16	30869.33
508.33	30831.88
508.50	31161.89
508.68	31152.53
508.85	31199.34
509.03	31421.69
509.20	31299.98
509.38	31503.61
509.55	31782.13
509.73	31770.43
509.90	31945.97
510.08	31601.91
510.25	31761.07
510.42	32018.53
510.60	31976.40
510.77	32165.98
510.95	32180.03
511.12	32142.58
511.30	33053.05
511.47	32978.15
511.64	32758.14
511.82	32631.75
511.99	32603.66
512.17	32573.24
512.34	32772.18
512.51	32746.44
512.69	32741.75
512.86	32697.28
513.04	33406.47
513.21	33523.49
513.38	33387.74
513.56	33301.14
513.73	33223.90
513.90	33612.43
514.08	33502.43
514.25	33748.18
514.43	34066.50
514.60	33736.48
514.77	33474.34
514.95	33886.28
515.12	34073.52
515.29	33748.18
515.47	34506.52
515.64	34216.29
515.81	34052.45
515.99	33996.28
516.16	34436.30
516.33	34036.07
516.51	33919.04
516.68	33495.41
516.85	33294.12
517.03	34302.89
517.20	33991.60
517.37	34670.36
517.54	34630.57
517.72	35054.20
517.89	34150.76
518.06	34366.09
518.24	34316.93
518.41	34937.18
518.58	34862.28
518.75	34920.79
518.93	35042.50
519.10	35447.41
519.27	35491.88
519.45	35599.55
519.62	35438.05
519.79	35695.51
519.96	35487.20
520.14	35711.89
520.31	35704.87
520.48	35854.67
520.65	35761.05
520.83	36013.82
521.00	36175.32
521.17	36500.65
521.34	36355.54
521.52	36484.27
521.69	36437.46
521.86	36549.81
522.03	36598.96
522.20	36580.23
522.38	36510.02
522.55	36669.17
522.72	37137.28
522.89	36870.46
523.07	36889.18
523.24	36964.08
523.41	37544.53
523.58	37041.32
523.75	37755.18
523.92	37399.42
524.10	37804.33
524.27	38010.30
524.44	37680.28
524.61	37762.20
524.78	38096.90
524.96	38092.22
525.13	37708.37
525.30	37933.06
525.47	38370.74
525.64	38143.71
525.81	37715.39
525.98	38085.20
526.16	37633.47
526.33	37794.97
526.50	38192.86
526.67	37425.17
526.84	37640.50
527.01	37776.25
527.18	38183.50
527.36	38677.35
527.53	38555.64
527.70	39047.16
527.87	38653.95
528.04	38176.48
528.21	39201.63
528.38	38632.88
528.55	39278.87
528.72	39283.55
528.89	39555.05
529.07	39192.27
529.24	39145.46
529.41	39229.72
529.58	39337.38
529.75	39138.44
529.92	38995.67
530.09	39243.76
530.26	39555.05
530.43	39725.91
530.60	39536.33
530.77	39662.72
530.94	39941.24
531.11	39461.43
531.28	39674.42
531.46	40210.40
531.63	40226.79
531.80	40013.80
531.97	39796.13
532.14	39676.76
532.31	39402.92
532.48	39894.43
532.65	39962.31
532.82	40144.87
532.99	40236.15
533.16	40023.16
533.33	40240.83
533.50	40456.16
533.67	40147.21
533.84	40336.79
534.01	40140.19
534.18	40446.80
534.35	40610.64
534.52	40528.72
534.69	40624.68
534.86	40898.52
535.03	40629.36
535.20	40725.32
535.37	41045.97
535.54	41460.25
535.71	41425.14
535.88	40872.78
536.05	40669.15
536.22	41521.10
536.38	41193.43
536.55	41263.64
536.72	41329.18
536.89	41027.25
537.06	41020.23
537.23	41741.11
537.40	41387.69
537.57	41326.84
537.74	41373.65
537.91	41778.56
538.08	41202.79
538.25	41661.54
538.42	41605.36
538.59	41352.58
538.75	41434.50
538.92	41467.27
539.09	41951.76
539.26	41617.07
539.43	41673.24
539.60	41769.20
539.77	41394.71
539.94	41780.90
540.11	41724.73
540.28	41881.55
540.44	41752.82
540.61	41993.89
540.78	41710.69
540.95	42068.79
541.12	42162.41
541.29	42564.98
541.46	42389.44
541.62	42307.52
541.79	42663.28
541.96	41902.61
542.13	42241.99
542.30	42298.16
542.47	42600.09
542.63	42284.12
542.80	42693.71
542.97	43000.32
543.14	42899.68
543.31	43154.80
543.48	42801.38
543.64	43407.58
543.81	43180.54
543.98	43124.37
544.15	43178.20
544.32	43075.22
544.48	43281.19
544.65	43540.99
544.82	43320.98
544.99	42857.55
545.16	43416.94
545.32	43257.78
545.49	43758.66
545.66	43997.39
545.83	43636.95
546.00	44072.29
546.16	43650.99
546.33	43522.26
546.50	43503.54
546.67	43271.82
546.83	43377.15
547.00	44004.41
547.17	43306.93
547.34	43449.70
547.50	43845.26
547.67	44074.63
547.84	43763.34
548.00	44301.66
548.17	44074.63
548.34	44329.75
548.51	44083.99
548.67	44172.93
548.84	44264.21
549.01	43789.08
549.18	43725.89
549.34	44353.15
549.51	44741.68
549.68	44605.93
549.84	44346.13
550.01	44411.67
550.18	44650.40
550.34	44231.44
550.51	44020.80
550.68	44507.63
550.84	43763.34
551.01	44725.30
551.18	44376.56
551.34	44615.29
551.51	44524.01
551.68	44861.05
551.84	44779.13
552.01	44666.78
552.18	44711.25
552.34	44591.89
552.51	44928.92
552.68	44762.75
552.84	44921.90
553.01	44718.28
553.18	44924.24
553.34	45151.27
553.51	44619.97
553.67	45193.40
553.84	44989.78
554.01	45104.46
554.17	44837.64
554.34	45439.16
554.51	45074.04
554.67	45291.71
554.84	45036.59
555.00	45443.84
555.17	44903.18
555.33	45382.99
555.50	45076.38
555.67	45022.54
555.83	44809.56
556.00	44884.45
556.16	45689.60
556.33	45085.74
556.50	45240.21
556.66	45214.47
556.83	45195.74
556.99	45649.81
557.16	45907.27
557.32	45518.74
557.49	45635.77
557.65	45244.90
557.82	45434.48
557.98	45619.38
558.15	45401.71
558.32	45663.85
558.48	45151.27
558.65	44949.99
558.81	45392.35
558.98	45284.68
559.14	45450.86
559.31	45296.39
559.47	45359.58
559.64	45490.65
559.80	45748.11
559.97	45750.45
560.13	45490.65
560.30	45631.08
560.46	45518.74
560.63	45869.82
560.79	46043.02
560.96	46082.81
561.12	45734.07
561.29	45741.09
561.45	45677.90
561.61	45703.64
561.78	45965.78
561.94	45371.28
562.11	45603.00
562.27	45830.03
562.44	45846.41
562.60	46274.73
562.77	46185.79
562.93	45958.76
563.10	46316.86
563.26	45771.52
563.42	46110.89
563.59	45525.76
563.75	45710.66
563.92	46199.83
564.08	45883.86
564.24	46122.60
564.41	46148.34
564.57	46021.95
564.74	46017.27
564.90	45848.75
565.07	46464.32
565.23	46017.27
565.39	46167.07
565.56	45961.10
565.72	46195.15
565.88	45799.60
566.05	45792.58
566.21	45741.09
566.38	45703.64
566.54	46068.76
566.70	45925.99
566.87	46469.00
567.03	46241.96
567.19	46686.67
567.36	46382.40
567.52	46337.93
567.68	46532.19
567.85	46043.02
568.01	46298.14
568.17	46148.34
568.34	46454.95
568.50	46199.83
568.66	45944.72
568.83	46270.05
568.99	45605.34
569.15	46197.49
569.32	45991.53
569.48	45698.96
569.64	46286.43
569.81	46560.28
569.97	46113.23
570.13	46230.26
570.30	45741.09
570.46	45921.31
570.62	45591.30
570.78	46000.89
570.95	46031.32
571.11	46368.35
571.27	46075.79
571.43	45801.94
571.60	46363.67
571.76	46616.45
571.92	46281.75
572.09	46075.79
572.25	46749.86
572.41	46569.64
572.57	46396.44
572.74	46632.83
572.90	46403.46
573.06	46438.57
573.22	46197.49
573.38	46309.84
573.55	46663.26
573.71	46618.79
573.87	46368.35
574.03	46197.49
574.20	46590.70
574.36	46464.32
574.52	46391.76
574.68	46408.14
574.84	46557.94
575.01	46342.61
575.17	46272.39
575.33	45951.74
575.49	46438.57
575.65	46454.95
575.82	46431.55
575.98	45947.06
576.14	46277.07
576.30	46026.63
576.46	46190.47
576.62	46426.87
576.79	46415.16
576.95	46117.92
577.11	46450.27
577.27	46476.02
577.43	46820.08
577.59	46284.09
577.75	46387.08
577.92	46089.83
578.08	46021.95
578.24	45923.65
578.40	46267.71
578.56	46244.30
578.72	46330.90
578.88	46579.00
579.04	46986.25
579.21	46347.29
579.37	46146.00
579.53	46686.67
579.69	46483.04
579.85	46127.28
580.01	46284.09
580.17	46763.90
580.33	46461.97
580.49	46653.90
580.65	46483.04
580.82	46361.33
580.98	46539.21
581.14	46466.66
581.30	46380.06
581.46	46696.03
581.62	46588.36
581.78	46333.24
581.94	46625.81
582.10	46487.72
582.26	46405.80
582.42	46777.95
582.58	46803.69
582.74	46555.60
582.90	46717.09
583.06	47014.34
583.22	46169.41
583.38	46541.55
583.54	46459.63
583.70	46897.31
583.86	46398.78
584.02	46567.30
584.18	46944.12
584.34	46939.44
584.50	46632.83
584.66	46461.97
584.82	46480.70
584.98	46527.51
585.14	46487.72
585.30	46136.64
585.46	46178.77
585.62	46209.20
585.78	46251.33
585.94	46487.72
586.10	46443.25
586.26	46426.87
586.42	46761.56
586.58	47107.96
586.74	46794.33
586.90	46263.03
587.06	46368.35
587.22	46464.32
587.38	46614.11
587.54	46319.20
587.70	46546.23
587.86	46780.29
588.02	46258.35
588.18	46761.56
588.34	46307.50
588.49	45933.01
588.65	45558.53
588.81	45890.88
588.97	46309.84
589.13	45886.20
589.29	46134.30
589.45	46504.10
589.61	46096.85
589.77	46770.93
589.93	46571.98
