SpectraSuite Data File
++++++++++++++++++++++++++++++++++++
Date: Fri Oct 25 10:44:37 EDT 2013
User: price-jones
Dark Spectrum Present: No
Reference Spectrum Present: No
Number of Sampled Component Spectra: 1
Spectrometers: USB2+H05261
Integration Time (usec): 100000 (USB2+H05261)
Spectra Averaged: 1 (USB2+H05261)
Boxcar Smoothing: 0 (USB2+H05261)
Correct for Electrical Dark: No (USB2+H05261)
Strobe/Lamp Enabled: No (USB2+H05261)
Correct for Detector Non-linearity: No (USB2+H05261)
Correct for Stray Light: No (USB2+H05261)
Number of Pixels in Processed Spectrum: 2048
>>>>>Begin Processed Spectral Data<<<<<
365.73	135.75
365.92	135.75
366.12	135.75
366.32	72.56
366.52	86.60
366.72	44.47
366.91	28.09
367.11	18.72
367.31	32.77
367.51	39.79
367.70	0.00
367.90	35.11
368.10	49.15
368.30	42.13
368.49	0.00
368.69	77.24
368.89	140.43
369.09	53.83
369.28	70.22
369.48	25.75
369.68	35.11
369.87	152.13
370.07	98.30
370.27	114.69
370.47	203.63
370.66	362.78
370.86	407.25
371.06	425.98
371.25	514.92
371.45	407.25
371.65	477.47
371.84	468.11
372.04	456.40
372.24	411.93
372.44	461.09
372.63	545.34
372.83	475.13
373.03	524.28
373.22	510.24
373.42	533.64
373.62	559.39
373.81	507.90
374.01	538.32
374.21	505.56
374.40	540.66
374.60	573.43
374.79	554.71
374.99	533.64
375.19	594.50
375.38	582.79
375.58	557.05
375.78	589.82
375.97	594.50
376.17	589.82
376.37	526.62
376.56	613.22
376.76	592.16
376.95	470.45
377.15	566.41
377.35	545.34
377.54	601.52
377.74	552.37
377.93	575.77
378.13	587.47
378.33	603.86
378.52	603.86
378.72	631.94
378.91	636.63
379.11	613.22
379.31	503.22
379.50	634.29
379.70	599.18
379.89	713.86
380.09	603.86
380.28	615.56
380.48	664.71
380.68	638.97
380.87	543.00
381.07	650.67
381.26	622.58
381.46	660.03
381.65	667.05
381.85	664.71
382.04	575.77
382.24	622.58
382.43	638.97
382.63	582.79
382.83	655.35
383.02	629.60
383.22	730.25
383.41	723.23
383.61	629.60
383.80	713.86
384.00	788.76
384.19	741.95
384.39	741.95
384.58	702.16
384.78	795.78
384.97	727.91
385.17	856.64
385.36	688.12
385.56	823.87
385.75	748.97
385.95	798.12
386.14	681.10
386.34	716.20
386.53	840.25
386.72	821.53
386.92	800.46
387.11	739.61
387.31	755.99
387.50	828.55
387.70	711.52
387.89	770.04
388.09	821.53
388.28	767.70
388.48	809.83
388.67	840.25
388.86	854.30
389.06	887.06
389.25	926.85
389.45	802.80
389.64	835.57
389.84	858.98
390.03	823.87
390.22	919.83
390.42	856.64
390.61	898.77
390.81	882.38
391.00	908.13
391.19	983.02
391.39	983.02
391.58	1001.75
391.78	959.62
391.97	933.87
392.16	954.94
392.36	987.71
392.55	1011.11
392.75	950.26
392.94	966.64
393.13	987.71
393.33	976.00
393.52	943.24
393.71	938.55
393.91	945.58
394.10	1008.77
394.29	1039.20
394.49	1032.18
394.68	1130.48
394.88	1181.97
395.07	1067.28
395.26	1111.75
395.46	1088.35
395.65	1083.67
395.84	1102.39
396.04	1093.03
396.23	1116.44
396.42	1130.48
396.62	1130.48
396.81	1177.29
397.00	1104.73
397.19	1165.59
397.39	1149.20
397.58	1188.99
397.77	1256.87
397.97	1273.25
398.16	1214.74
398.35	1146.86
398.55	1303.68
398.74	1345.81
398.93	1350.49
399.12	1280.27
399.32	1310.70
399.51	1376.24
399.70	1371.55
399.90	1338.79
400.09	1432.41
400.28	1378.58
400.47	1462.83
400.67	1458.15
400.86	1394.96
401.05	1387.94
401.24	1413.68
401.44	1479.22
401.63	1554.12
401.82	1526.03
402.01	1497.94
402.21	1514.33
402.40	1544.75
402.59	1479.22
402.78	1542.41
402.97	1486.24
403.17	1614.97
403.36	1603.27
403.55	1668.80
403.74	1614.97
403.93	1612.63
404.13	1699.23
404.32	1584.54
404.51	1626.67
404.70	1652.42
404.89	1706.25
405.09	1722.63
405.28	1680.50
405.47	1713.27
405.66	1710.93
405.85	1778.81
406.05	1734.34
406.24	1790.51
406.43	1701.57
406.62	1844.34
406.81	1863.07
407.00	1753.06
407.20	1856.04
407.39	1795.19
407.58	1895.83
407.77	1881.79
407.96	1818.60
408.15	1963.71
408.34	1900.52
408.54	1921.58
408.73	1975.41
408.92	1902.86
409.11	2080.74
409.30	1975.41
409.49	1991.80
409.68	2043.29
409.87	1991.80
410.07	2066.69
410.26	2064.35
410.45	2143.93
410.64	2062.01
410.83	2263.30
411.02	2230.53
411.21	2253.94
411.40	2183.72
411.59	2251.60
411.78	2338.20
411.98	2310.11
412.17	2296.07
412.36	2349.90
412.55	2443.52
412.74	2417.77
412.93	2408.41
413.12	2401.39
413.31	2513.74
413.50	2595.65
413.69	2459.90
413.88	2567.57
414.07	2537.14
414.26	2586.29
414.45	2649.49
414.64	2600.34
414.83	2672.89
415.02	2644.81
415.22	2773.53
415.41	2703.32
415.60	2832.05
415.79	2766.51
415.98	2815.66
416.17	2813.32
416.36	2766.51
416.55	2909.29
416.74	3000.57
416.93	2958.44
417.12	2801.62
417.31	2986.52
417.50	2916.31
417.69	2925.67
417.88	3068.44
418.07	2991.20
418.26	3028.65
418.45	3150.36
418.64	3232.28
418.83	3091.85
419.02	3103.55
419.21	3131.64
419.39	3194.83
419.58	3246.32
419.77	3159.72
419.96	3314.20
420.15	3356.33
420.34	3328.24
420.53	3229.94
420.72	3332.92
420.91	3428.88
421.10	3356.33
421.29	3351.65
421.48	3435.91
421.67	3389.10
421.86	3407.82
422.05	3379.73
422.24	3300.16
422.43	3428.88
422.61	3478.04
422.80	3496.76
422.99	3531.87
423.18	3459.31
423.37	3552.93
423.56	3524.85
423.75	3630.17
423.94	3506.12
424.13	3260.37
424.32	3435.91
424.50	3590.38
424.69	3630.17
424.88	3545.91
425.07	3410.16
425.26	3555.27
425.45	3473.36
425.64	3433.57
425.83	3637.19
426.01	3506.12
426.20	3618.47
426.39	3627.83
426.58	3679.32
426.77	3456.97
426.96	3616.13
427.15	3627.83
427.33	3576.34
427.52	3686.34
427.71	3674.64
427.90	3644.21
428.09	3815.07
428.28	3812.73
428.46	3658.26
428.65	3882.95
428.84	3810.39
429.03	3864.22
429.22	3693.37
429.40	3791.67
429.59	3782.31
429.78	3419.52
429.97	3620.81
430.16	3658.26
430.34	3826.78
430.53	3836.14
430.72	3765.92
430.91	3906.35
431.10	3997.64
431.28	4009.34
431.47	4145.09
431.66	4126.36
431.85	4056.15
432.03	4166.15
432.22	4184.88
432.41	4117.00
432.60	4248.07
432.79	4154.45
432.97	4168.49
433.16	4292.54
433.35	4194.24
433.54	4259.78
433.72	4308.93
433.91	4210.62
434.10	4297.22
434.28	4395.53
434.47	4313.61
434.66	4437.66
434.85	4400.21
435.03	4430.63
435.22	4444.68
435.41	4531.28
435.59	4545.32
435.78	4552.34
435.97	4514.89
436.16	4552.34
436.34	4531.28
436.53	4746.61
436.72	4723.20
436.90	4601.49
437.09	4528.94
437.28	4507.87
437.46	4713.84
437.65	4727.88
437.84	4582.77
438.02	4587.45
438.21	4770.01
438.40	4587.45
438.58	4786.40
438.77	4931.51
438.96	4765.33
439.14	5111.73
439.33	5004.07
439.52	5008.75
439.70	5144.50
439.89	5046.20
440.08	5130.45
440.26	5245.14
440.45	5195.99
440.63	5252.16
440.82	5329.40
441.01	5275.57
441.19	5256.84
441.38	5291.95
441.57	5467.49
441.75	5418.34
441.94	5764.74
442.12	5509.62
442.31	5692.18
442.50	5724.95
442.68	5561.11
442.87	5750.70
443.05	5706.23
443.24	5689.84
443.43	5806.87
443.61	5760.06
443.80	5933.26
443.98	5675.80
444.17	5614.95
444.35	5636.01
444.54	5823.25
444.73	5774.10
444.91	5781.12
445.10	5792.83
445.28	5671.12
445.47	5727.29
445.65	5624.31
445.84	5982.41
446.02	5891.13
446.21	5912.19
446.39	5790.49
446.58	6090.07
446.77	5937.94
446.95	5813.89
447.14	5947.30
447.32	5970.71
447.51	5865.38
447.69	5825.59
447.88	5984.75
448.06	5977.73
448.25	5865.38
448.43	5870.06
448.62	6108.80
448.80	6045.60
448.99	5996.45
449.17	6179.01
449.36	5921.56
449.54	6092.41
449.73	6345.19
449.91	6211.78
450.10	6338.17
450.28	6473.92
450.46	6342.85
450.65	6253.91
450.83	6476.26
451.02	6284.34
451.20	6359.24
451.39	6523.07
451.57	6431.79
451.76	6300.72
451.94	6469.24
452.13	6471.58
452.31	6518.39
452.49	6352.21
452.68	6452.86
452.86	6534.78
453.05	6609.67
453.23	6370.94
453.42	6497.33
453.60	6565.20
453.78	6691.59
453.97	6633.08
454.15	6817.98
454.34	6504.35
454.52	6899.90
454.70	6754.79
454.89	6761.81
455.07	6745.42
455.26	6757.13
455.44	6888.20
455.62	6911.60
455.81	6909.26
455.99	6953.73
456.17	7059.06
456.36	7033.31
456.54	7155.02
456.73	7122.25
456.91	7466.31
457.09	7183.10
457.28	7346.94
457.46	7353.96
457.64	7272.04
457.83	7227.57
458.01	7162.04
458.19	7377.37
458.38	7311.83
458.56	7417.16
458.74	7382.05
458.93	7398.43
459.11	7449.93
459.29	7625.47
459.48	7606.74
459.66	7417.16
459.84	7412.48
460.03	7541.21
460.21	7456.95
460.39	7672.28
460.57	7658.23
460.76	7815.05
460.94	7967.18
461.12	7658.23
461.31	7719.09
461.49	7854.84
461.67	7845.48
461.85	7978.89
462.04	7831.43
462.22	8105.28
462.40	8126.34
462.59	7901.65
462.77	7967.18
462.95	8004.63
463.13	7845.48
463.32	8154.43
463.50	7969.52
463.68	8049.10
463.86	7927.39
464.05	7850.16
464.23	7812.71
464.41	8259.75
464.59	7971.86
464.78	8299.54
464.96	8124.00
465.14	8196.56
465.32	8259.75
465.50	8388.48
465.69	8332.31
465.87	8154.43
466.05	8393.16
466.23	8313.58
466.41	8404.86
466.60	8479.76
466.78	8187.19
466.96	8458.70
467.14	8585.08
467.32	8428.27
467.51	8636.58
467.69	8552.32
467.87	8461.04
468.05	8695.09
468.23	8514.87
468.41	8552.32
468.60	8617.85
468.78	8725.52
468.96	8648.28
469.14	8812.12
469.32	9011.06
469.50	8788.71
469.69	8669.34
469.87	8877.65
470.05	8889.35
470.23	8957.23
470.41	9036.81
470.59	9025.11
470.77	8814.46
470.95	8978.30
471.14	9081.28
471.32	9025.11
471.50	9186.60
471.68	9289.59
471.86	9376.19
472.04	9231.07
472.22	9439.38
472.40	9233.41
472.58	9427.68
472.77	9415.98
472.95	9645.35
473.13	9802.16
473.31	9659.39
473.49	9418.32
473.67	9460.45
473.85	9633.64
474.03	9799.82
474.21	9823.23
474.39	10101.75
474.57	9973.02
474.75	9982.38
474.93	10101.75
475.12	10232.82
475.30	10043.24
475.48	10143.88
475.66	10333.47
475.84	10291.34
476.02	10420.06
476.20	10466.88
476.38	10703.27
476.56	10560.50
476.74	10569.86
476.92	10401.34
477.10	10864.77
477.28	10953.71
477.46	10902.22
477.64	11159.67
477.82	11070.73
478.00	11318.83
478.18	11391.39
478.36	11253.30
478.54	11410.11
478.72	11496.71
478.90	11714.38
479.08	11918.01
479.26	11796.30
479.44	11772.89
479.62	11922.69
479.80	11782.26
479.98	12189.51
480.16	12313.56
480.34	12423.56
480.52	12854.22
480.70	12449.31
480.88	12461.01
481.06	12308.88
481.24	12580.38
481.41	13107.00
481.59	12926.78
481.77	12905.71
481.95	13233.39
482.13	13050.83
482.31	13235.73
482.49	13521.27
482.67	13434.68
482.85	13420.63
483.03	14054.92
483.21	13888.74
483.39	14267.91
483.57	14183.65
483.74	14129.81
483.92	14178.97
484.10	14211.73
484.28	14085.34
484.46	14611.96
484.64	15040.28
484.82	14401.32
485.00	14548.77
485.18	14881.13
485.35	15227.53
485.53	14913.89
485.71	14925.60
485.89	15035.60
486.07	15112.84
486.25	15253.27
486.43	15597.33
486.61	15637.12
486.78	15730.74
486.96	16133.31
487.14	16226.93
487.32	16161.40
487.50	16442.26
487.68	16655.25
487.85	16470.35
488.03	16858.88
488.21	17055.48
488.39	16833.13
488.57	17142.08
488.75	17184.21
488.92	17537.63
489.10	17427.63
489.28	17687.43
489.46	17785.73
489.64	17692.11
489.81	18415.34
489.99	18361.50
490.17	18387.25
490.35	18565.13
490.53	18429.38
490.70	18581.51
490.88	18714.92
491.06	18925.57
491.24	18984.09
491.41	18780.46
491.59	19168.99
491.77	19087.07
491.95	19424.11
492.13	19868.81
492.30	19658.16
492.48	19456.87
492.66	19838.38
492.84	19707.31
493.01	20130.95
493.19	20322.87
493.37	20325.21
493.54	20046.69
493.72	20491.39
493.90	20449.26
494.08	20889.28
494.25	20952.48
494.43	21010.99
494.61	21209.93
494.79	21415.90
494.96	21500.16
495.14	21694.43
495.32	21488.46
495.49	21752.94
495.67	21673.36
495.85	22057.21
496.02	22132.11
496.20	22419.99
496.38	22148.49
496.55	22256.15
496.73	22986.40
496.91	22991.08
497.09	22860.01
497.26	22792.14
497.44	23152.58
497.62	23082.36
497.79	23293.01
497.97	23091.73
498.14	23522.38
498.32	23529.41
498.50	23463.87
498.67	23506.00
498.85	23690.90
499.03	23887.51
499.20	23714.31
499.38	23929.64
499.56	24517.11
499.73	24339.23
499.91	24308.80
500.08	24666.91
500.26	24163.69
500.44	24694.99
500.61	24755.85
500.79	24549.88
500.97	24978.20
501.14	25097.56
501.32	25109.27
501.49	25067.14
501.67	25252.04
501.84	25181.82
502.02	25167.78
502.20	25376.09
502.37	25699.08
502.55	25635.89
502.72	25668.66
502.90	25666.31
503.07	25813.77
503.25	25834.83
503.43	25701.42
503.60	25919.09
503.78	25993.99
503.95	26122.72
504.13	25900.37
504.30	26471.46
504.48	26553.38
504.65	26981.70
504.83	26380.18
505.01	26977.01
505.18	26672.74
505.36	27339.80
505.53	26955.95
505.71	27346.82
505.88	27452.14
506.06	26969.99
506.23	27402.99
506.41	27328.10
506.58	27740.03
506.76	27824.29
506.93	27828.97
507.11	27477.89
507.28	27777.48
507.46	27634.71
507.63	27744.71
507.81	27981.10
507.98	28058.34
508.16	28388.36
508.33	28486.66
508.50	28453.89
508.68	28503.04
508.85	28512.41
509.03	28486.66
509.20	28945.41
509.38	28657.52
509.55	29123.29
509.73	29191.16
509.90	29027.32
510.08	28835.40
510.25	28961.79
510.42	29151.37
510.60	29308.19
510.77	29708.42
510.95	29329.25
511.12	29572.67
511.30	29591.39
511.47	29839.49
511.64	30185.89
511.82	30270.15
511.99	29947.15
512.17	30188.23
512.34	29710.76
512.51	30216.32
512.69	30611.87
512.86	30412.92
513.04	30476.12
513.21	30764.00
513.38	30359.09
513.56	30391.86
513.73	30504.20
513.90	30810.81
514.08	30466.75
514.25	30906.77
514.43	30878.69
514.60	31068.27
514.77	30923.16
514.95	30874.01
515.12	31140.83
515.29	31285.94
515.47	31426.37
515.64	31676.81
515.81	31484.89
515.99	31447.44
516.16	31845.33
516.33	31817.24
516.51	31248.49
516.68	31395.95
516.85	31365.52
517.03	31330.41
517.20	31810.22
517.37	31630.00
517.54	31786.82
517.72	32346.20
517.89	32027.89
518.06	31826.60
518.24	31751.71
518.41	32147.26
518.58	32116.83
518.75	32257.26
518.93	32833.04
519.10	32491.32
519.27	32559.19
519.45	32554.51
519.62	32285.35
519.79	32999.21
519.96	32957.08
520.14	32945.38
520.31	32858.78
520.48	32980.49
520.65	33031.98
520.83	33617.11
521.00	33528.17
521.17	33699.03
521.34	33921.38
521.52	33638.18
521.69	33673.29
521.86	33404.13
522.03	33858.19
522.20	33975.22
522.38	33970.54
522.55	34057.14
522.72	33617.11
522.89	33869.89
523.07	34384.81
523.24	33825.42
523.41	34349.70
523.58	34153.10
523.75	34668.02
523.92	34679.72
524.10	34892.71
524.27	34677.38
524.44	35070.59
524.61	34443.32
524.78	35030.80
524.96	35424.01
525.13	35215.70
525.30	35353.79
525.47	35239.11
525.64	35000.37
525.81	35562.10
525.98	35285.92
526.16	35016.75
526.33	35168.89
526.50	35360.81
526.67	34991.01
526.84	35512.95
527.01	35000.37
527.18	35459.12
527.36	35344.43
527.53	36016.16
527.70	36060.63
527.87	36077.02
528.04	35580.82
528.21	35920.20
528.38	36037.23
528.55	36126.17
528.72	36371.92
528.89	36498.31
529.07	36467.89
529.24	36037.23
529.41	35978.72
529.58	36437.46
529.75	36252.56
529.92	37017.91
530.09	36474.91
530.26	36830.67
530.43	36840.03
530.60	36613.00
530.77	37116.22
530.94	36952.38
531.11	36891.52
531.28	37158.34
531.46	37364.31
531.63	36781.52
531.80	36907.91
531.97	36692.58
532.14	37282.39
532.31	37050.68
532.48	36961.74
532.65	37008.55
532.82	37450.91
532.99	37619.43
533.16	37656.88
533.33	37731.78
533.50	37593.68
533.67	37752.84
533.84	37778.59
534.01	37443.89
534.18	37378.36
534.35	37635.81
534.52	37745.82
534.69	37897.95
534.86	37916.68
535.03	37958.81
535.20	38506.49
535.37	38455.00
535.54	38829.49
535.71	38176.48
535.88	38518.20
536.05	38356.70
536.22	38653.95
536.38	38808.42
536.55	38258.40
536.72	38110.94
536.89	38103.92
537.06	38691.40
537.23	38459.68
537.40	38295.85
537.57	38667.99
537.74	38927.79
537.91	39033.11
538.08	38682.03
538.25	38469.04
538.42	38459.68
538.59	39084.61
538.75	38469.04
538.92	38555.64
539.09	39026.09
539.26	38803.74
539.43	39056.52
539.60	39311.64
539.77	38782.68
539.94	39299.94
540.11	39374.83
540.28	39423.98
540.44	39159.50
540.61	39201.63
540.78	39068.22
540.95	39321.00
541.12	39208.65
541.29	39026.09
541.46	39084.61
541.62	39690.80
541.79	39786.77
541.96	39234.40
542.13	39498.88
542.30	39292.91
542.47	39758.68
542.63	39847.62
542.80	39744.64
542.97	40531.06
543.14	40336.79
543.31	40311.05
543.48	40531.06
543.64	40849.37
543.81	40996.82
543.98	40678.51
544.15	40802.56
544.32	40793.20
544.48	40472.54
544.65	40627.02
544.82	40650.42
544.99	40371.90
545.16	40739.36
545.32	40327.43
545.49	40811.92
545.66	40931.29
545.83	41097.47
546.00	41097.47
546.16	40811.92
546.33	40547.44
546.50	40580.21
546.67	40634.04
546.83	40584.89
547.00	41081.08
547.17	41102.15
547.34	40809.58
547.50	41345.56
547.67	41443.87
547.84	40870.43
548.00	41357.27
548.17	41748.14
548.34	41450.89
548.51	41390.03
548.67	41235.56
548.84	41715.37
549.01	41544.51
549.18	40844.69
549.34	41542.17
549.51	41633.45
549.68	41425.14
549.84	41551.53
550.01	41483.66
550.18	41715.37
550.34	41446.21
550.51	41745.80
550.68	41902.61
550.84	41497.70
551.01	41865.16
551.18	41769.20
551.34	41701.32
551.51	41851.12
551.68	42127.30
551.84	41965.81
552.01	41764.52
552.18	41895.59
552.34	41570.25
552.51	41743.45
552.68	41717.71
552.84	42368.38
553.01	42731.16
553.18	41958.78
553.34	41729.41
553.51	42241.99
553.67	42445.62
553.84	42293.48
554.01	42899.68
554.17	42607.11
554.34	42492.43
554.51	42651.58
554.67	43180.54
554.84	42572.00
555.00	42632.86
555.17	42021.98
555.33	42745.20
555.50	42660.94
555.67	42717.12
555.83	42506.47
556.00	42658.60
556.16	43178.20
556.33	42167.09
556.50	42726.48
556.66	42789.67
556.83	41970.49
556.99	43082.24
557.16	43466.09
557.32	43014.37
557.49	42871.59
557.65	42424.55
557.82	42719.46
557.98	42632.86
558.15	43105.65
558.32	43257.78
558.48	43086.92
558.65	42993.30
558.81	42167.09
558.98	42782.65
559.14	42714.78
559.31	42644.56
559.47	42904.36
559.64	43056.50
559.80	43585.46
559.97	43676.74
560.13	42932.45
560.30	42979.26
560.46	43150.12
560.63	43175.86
560.79	43377.15
560.96	43433.32
561.12	43328.00
561.29	43704.82
561.45	43517.58
561.61	43276.51
561.78	43229.69
561.94	43054.15
562.11	42988.62
562.27	43449.70
562.44	43529.28
562.60	43370.13
562.77	43784.40
562.93	43576.09
563.10	43438.00
563.26	42965.21
563.42	43136.07
563.59	43147.78
563.75	43119.69
563.92	43847.60
564.08	43863.98
564.24	43491.83
564.41	43941.22
564.57	43206.29
564.74	43695.46
564.90	43522.26
565.07	43328.00
565.23	43943.56
565.39	43768.02
565.56	43634.61
565.72	43124.37
565.88	43508.22
566.05	43608.86
566.21	43421.62
566.38	43496.52
566.54	43796.10
566.70	44210.38
566.87	44046.54
567.03	43988.03
567.19	44491.24
567.36	44128.46
567.52	43388.85
567.68	44465.50
567.85	44016.11
568.01	43758.66
568.17	43674.40
568.34	43821.85
568.50	43707.16
568.66	44128.46
568.83	43466.09
568.99	43386.51
569.15	43622.90
569.32	43894.41
569.48	43796.10
569.64	43992.71
569.81	44362.51
569.97	43793.76
570.13	43983.35
570.30	43360.76
570.46	43597.16
570.62	43875.68
570.78	44051.22
570.95	43543.33
571.11	44020.80
571.27	43849.94
571.43	43681.42
571.60	44030.16
571.76	43913.13
571.92	44240.81
572.09	43669.72
572.25	44114.42
572.41	43952.92
572.57	43758.66
572.74	44109.74
572.90	43880.36
573.06	44416.35
573.22	43924.83
573.38	43882.70
573.55	44282.94
573.71	44039.52
573.87	44388.26
574.03	44006.75
574.20	43615.88
574.36	44006.75
574.52	44107.40
574.68	44240.81
574.84	44327.41
575.01	43854.62
575.17	44079.31
575.33	43861.64
575.49	44009.09
575.65	44711.25
575.82	44687.85
575.98	44004.41
576.14	44577.84
576.30	44369.54
576.46	44233.78
576.62	43920.15
576.79	44657.42
576.95	43438.00
577.11	44011.43
577.27	44205.70
577.43	44107.40
577.59	44198.68
577.75	43962.28
577.92	43824.19
578.08	43838.23
578.24	44163.57
578.40	44140.16
578.56	43791.42
578.72	44208.04
578.88	44542.74
579.04	44116.76
579.21	44390.60
579.37	44446.77
579.53	44072.29
579.69	43952.92
579.85	44076.97
580.01	44444.43
580.17	44292.30
580.33	44186.97
580.49	44282.94
580.65	44575.50
580.82	44402.30
580.98	43992.71
581.14	44364.85
581.30	44964.03
581.46	44280.60
581.62	44301.66
581.78	44334.43
581.94	44273.57
582.10	44091.01
582.26	44238.47
582.42	44128.46
582.58	44210.38
582.74	44222.08
582.90	44554.44
583.06	44727.64
583.22	44334.43
583.38	44617.63
583.54	44737.00
583.70	44535.71
583.86	43985.69
584.02	44046.54
584.18	44540.39
584.34	44350.81
584.50	44638.70
584.66	44320.38
584.82	44079.31
584.98	44650.40
585.14	44631.68
585.30	44308.68
585.46	44453.79
585.62	44318.04
585.78	44329.75
585.94	44285.28
586.10	44219.74
586.26	44318.04
586.42	44261.87
586.58	44385.92
586.74	44292.30
586.90	44161.23
587.06	44460.82
587.22	44847.00
587.38	44343.79
587.54	44657.42
587.70	44657.42
587.86	44414.01
588.02	44538.05
588.18	44755.72
588.34	44570.82
588.49	44224.42
588.65	44184.63
588.81	44301.66
588.97	44137.82
589.13	43901.43
589.29	44257.19
589.45	44467.84
589.61	44542.74
589.77	44935.95
589.93	44694.87
590.08	44744.02
590.24	44552.10
