SpectraSuite Data File
++++++++++++++++++++++++++++++++++++
Date: Fri Oct 25 11:25:39 EDT 2013
User: price-jones
Dark Spectrum Present: No
Reference Spectrum Present: No
Number of Sampled Component Spectra: 1
Spectrometers: USB2+H05261
Integration Time (usec): 100000 (USB2+H05261)
Spectra Averaged: 1 (USB2+H05261)
Boxcar Smoothing: 0 (USB2+H05261)
Correct for Electrical Dark: No (USB2+H05261)
Strobe/Lamp Enabled: No (USB2+H05261)
Correct for Detector Non-linearity: No (USB2+H05261)
Correct for Stray Light: No (USB2+H05261)
Number of Pixels in Processed Spectrum: 2048
>>>>>Begin Processed Spectral Data<<<<<
365.73	175.54
365.92	175.54
366.12	175.54
366.32	131.07
366.52	138.09
366.72	135.75
366.91	70.22
367.11	131.07
367.31	128.73
367.51	100.64
367.70	102.98
367.90	147.45
368.10	131.07
368.30	102.98
368.49	142.77
368.69	156.82
368.89	138.09
369.09	168.52
369.28	175.54
369.48	184.90
369.68	166.18
369.87	203.63
370.07	196.60
370.27	203.63
370.47	330.02
370.66	538.32
370.86	638.97
371.06	674.07
371.25	681.10
371.45	760.67
371.65	734.93
371.84	746.63
372.04	655.35
372.24	662.37
372.44	734.93
372.63	772.38
372.83	706.84
373.03	690.46
373.22	814.51
373.42	805.14
373.62	758.33
373.81	807.48
374.01	835.57
374.21	837.91
374.40	793.44
374.60	851.96
374.79	812.17
374.99	875.36
375.19	847.27
375.38	847.27
375.58	819.19
375.78	887.06
375.97	922.17
376.17	950.26
376.37	809.83
376.56	830.89
376.76	884.72
376.95	844.93
377.15	905.79
377.35	971.32
377.54	882.38
377.74	1011.11
377.93	966.64
378.13	861.32
378.33	922.17
378.52	950.26
378.72	889.40
378.91	898.77
379.11	1020.47
379.31	950.26
379.50	866.00
379.70	999.41
379.89	877.70
380.09	985.37
380.28	933.87
380.48	1015.79
380.68	931.53
380.87	1027.50
381.07	987.71
381.26	1076.65
381.46	936.21
381.65	1064.94
381.85	999.41
382.04	1041.54
382.24	980.68
382.43	1034.52
382.63	959.62
382.83	1029.84
383.02	1039.20
383.22	1083.67
383.41	1109.41
383.61	1001.75
383.80	1177.29
384.00	1036.86
384.19	1111.75
384.39	1135.16
384.58	1069.62
384.78	1055.58
384.97	1188.99
385.17	1137.50
385.36	1268.57
385.56	1231.12
385.75	1177.29
385.95	1156.22
386.14	1207.72
386.34	1207.72
386.53	1188.99
386.72	1163.25
386.92	1289.64
387.11	1275.59
387.31	1226.44
387.50	1266.23
387.70	1282.61
387.89	1228.78
388.09	1299.00
388.28	1228.78
388.48	1207.72
388.67	1308.36
388.86	1310.70
389.06	1256.87
389.25	1336.45
389.45	1357.51
389.64	1373.89
389.84	1383.26
390.03	1392.62
390.22	1390.28
390.42	1373.89
390.61	1416.02
390.81	1320.06
391.00	1469.86
391.19	1359.85
391.39	1418.36
391.58	1483.90
391.78	1394.96
391.97	1558.80
392.16	1444.11
392.36	1465.18
392.55	1418.36
392.75	1479.22
392.94	1556.46
393.13	1535.39
393.33	1500.28
393.52	1544.75
393.71	1600.93
393.91	1586.88
394.10	1561.14
394.29	1563.48
394.49	1533.05
394.68	1650.08
394.88	1645.40
395.07	1629.01
395.26	1671.14
395.46	1713.27
395.65	1687.53
395.84	1760.08
396.04	1685.19
396.23	1764.76
396.42	1682.85
396.62	1827.96
396.81	1743.70
397.00	1816.26
397.19	1710.93
397.39	1724.97
397.58	1874.77
397.77	1818.60
397.97	1902.86
398.16	1863.07
398.35	1818.60
398.55	1905.20
398.74	1865.41
398.93	1916.90
399.12	1877.11
399.32	1870.09
399.51	1832.64
399.70	1998.82
399.90	1944.99
400.09	2015.20
400.28	2062.01
400.47	2001.16
400.67	2031.58
400.86	2057.33
401.05	2078.40
401.24	2026.90
401.44	2211.81
401.63	2050.31
401.82	2242.23
402.01	2080.74
402.21	2195.42
402.40	2197.76
402.59	2146.27
402.78	2209.47
402.97	2214.15
403.17	2165.00
403.36	2239.89
403.55	2235.21
403.74	2490.33
403.93	2289.04
404.13	2321.81
404.32	2298.41
404.51	2345.22
404.70	2356.92
404.89	2382.67
405.09	2513.74
405.28	2539.48
405.47	2511.39
405.66	2579.27
405.85	2527.78
406.05	2555.86
406.24	2597.99
406.43	2431.82
406.62	2635.44
406.81	2715.02
407.00	2495.01
407.20	2567.57
407.39	2602.68
407.58	2712.68
407.77	2764.17
407.96	2745.45
408.15	2738.43
408.34	2623.74
408.54	2715.02
408.73	2815.66
408.92	2846.09
409.11	2920.99
409.30	2918.65
409.49	2803.96
409.68	2834.39
409.87	2949.08
410.07	2923.33
410.26	3059.08
410.45	2876.52
410.64	3040.36
410.83	3056.74
411.02	3030.99
411.21	3066.10
411.40	3159.72
411.59	3318.88
411.78	3201.85
411.98	3080.14
412.17	3225.26
412.36	3304.84
412.55	3356.33
412.74	3337.60
412.93	3389.10
413.12	3300.16
413.31	3583.36
413.50	3478.04
413.69	3471.01
413.88	3574.00
414.07	3503.78
414.26	3566.98
414.45	3665.28
414.64	3728.47
414.83	3681.66
415.02	3707.41
415.22	3810.39
415.41	3882.95
415.60	3920.40
415.79	3801.03
415.98	3925.08
416.17	3871.25
416.36	3885.29
416.55	4004.66
416.74	4086.58
416.93	3915.72
417.12	4088.92
417.31	4161.47
417.50	4018.70
417.69	4297.22
417.88	4400.21
418.07	4297.22
418.26	4318.29
418.45	4381.48
418.64	4376.80
418.83	4397.87
419.02	4297.22
419.21	4449.36
419.39	4681.07
419.58	4505.53
419.77	4489.15
419.96	4468.08
420.15	4655.33
420.34	4561.70
420.53	4648.30
420.72	4594.47
420.91	4645.96
421.10	4826.18
421.29	4692.77
421.48	4629.58
421.67	4805.12
421.86	4828.53
422.05	4912.78
422.24	4678.73
422.43	4936.19
422.61	4819.16
422.80	4903.42
422.99	4786.40
423.18	4980.66
423.37	4905.76
423.56	4910.44
423.75	4994.70
423.94	4856.61
424.13	4545.32
424.32	4667.03
424.50	4854.27
424.69	5025.13
424.88	5041.51
425.07	4887.04
425.26	4952.57
425.45	5048.54
425.64	4985.34
425.83	5053.22
426.01	5050.88
426.20	4938.53
426.39	5114.07
426.58	4889.38
426.77	4894.06
426.96	5280.25
427.15	5100.03
427.33	5291.95
427.52	5200.67
427.71	5167.90
427.90	5238.12
428.09	5338.76
428.28	5327.06
428.46	5343.44
428.65	5172.58
428.84	5462.81
429.03	5526.00
429.22	5322.38
429.40	5451.11
429.59	5313.02
429.78	5305.99
429.97	5226.42
430.16	5476.85
430.34	5364.51
430.53	5540.05
430.72	5589.20
430.91	5617.29
431.10	5591.54
431.28	5628.99
431.47	5743.67
431.66	5806.87
431.85	5600.90
432.03	5966.03
432.22	5762.40
432.41	5837.30
432.60	5893.47
432.79	5877.09
432.97	5905.17
433.16	6036.24
433.35	5926.24
433.54	6003.47
433.72	6120.50
433.91	6054.97
434.10	6073.69
434.28	6108.80
434.47	6127.52
434.66	6083.05
434.85	6190.72
435.03	6289.02
435.22	6108.80
435.41	6333.49
435.59	6380.30
435.78	6326.47
435.97	6370.94
436.16	6459.88
436.34	6427.11
436.53	6504.35
436.72	6478.60
436.90	6544.14
437.09	6607.33
437.28	6274.98
437.46	6518.39
437.65	6633.08
437.84	6862.45
438.02	6665.85
438.21	6642.44
438.40	6705.63
438.58	6965.43
438.77	6918.62
438.96	7063.74
439.14	6986.50
439.33	7140.97
439.52	7215.87
439.70	7211.19
439.89	7281.41
440.08	7396.09
440.26	7433.54
440.45	7328.22
440.63	7391.41
440.82	7550.57
441.01	7295.45
441.19	7583.34
441.38	7485.03
441.57	7651.21
441.75	7840.79
441.94	7981.23
442.12	7892.29
442.31	7896.97
442.50	8142.72
442.68	7868.88
442.87	7992.93
443.05	7964.84
443.24	8245.71
443.43	8049.10
443.61	8133.36
443.80	8446.99
443.98	8016.33
444.17	7822.07
444.35	8243.37
444.54	8365.07
444.73	8084.21
444.91	8201.24
445.10	8278.47
445.28	8222.30
445.47	8287.84
445.65	8212.94
445.84	8344.01
446.02	8234.00
446.21	8526.57
446.39	8329.97
446.58	8465.72
446.77	8599.13
446.95	8140.38
447.14	8388.48
447.32	8517.21
447.51	8311.24
447.69	8318.26
447.88	8564.02
448.06	8404.86
448.25	8645.94
448.43	8683.39
448.62	8336.99
448.80	8482.10
448.99	8582.74
449.17	8697.43
449.36	8582.74
449.54	8828.50
449.73	8931.48
449.91	8872.97
450.10	8875.31
450.28	9076.60
450.46	9085.96
450.65	8971.27
450.83	8828.50
451.02	9050.85
451.20	9137.45
451.39	9200.65
451.57	9186.60
451.76	9027.45
451.94	9160.86
452.13	9418.32
452.31	9210.01
452.49	9226.39
452.68	9233.41
452.86	9254.48
453.05	9509.60
453.23	9320.01
453.42	9095.32
453.60	9259.16
453.78	9523.64
453.97	9355.12
454.15	9341.08
454.34	9434.70
454.52	9540.02
454.70	9727.27
454.89	9736.63
455.07	9781.10
455.26	9970.68
455.44	9802.16
455.62	9825.57
455.81	9870.04
455.99	10057.28
456.17	9898.13
456.36	9996.43
456.54	10132.18
456.73	10272.61
456.91	10424.75
457.09	10457.51
457.28	10537.09
457.46	10265.59
457.64	10380.28
457.83	10759.44
458.01	10349.85
458.19	10691.57
458.38	10609.65
458.56	10693.91
458.74	10602.63
458.93	10705.61
459.11	10675.18
459.29	10654.12
459.48	10743.06
459.66	10714.97
459.84	10766.46
460.03	10864.77
460.21	10911.58
460.39	10836.68
460.57	10949.03
460.76	11183.08
460.94	11124.57
461.12	10963.07
461.31	11091.80
461.49	11159.67
461.67	11112.86
461.85	11332.87
462.04	11229.89
462.22	11751.83
462.40	11772.89
462.59	11550.54
462.77	11417.13
462.95	11733.11
463.13	11370.32
463.32	11400.75
463.50	11414.79
463.68	11894.60
463.86	11707.36
464.05	11648.85
464.23	11957.80
464.41	11777.58
464.59	11726.08
464.78	12140.36
464.96	11800.98
465.14	11714.38
465.32	11887.58
465.50	11927.37
465.69	12032.69
465.87	12168.45
466.05	12070.14
466.23	12081.85
466.41	12116.95
466.60	12428.24
466.78	11913.33
466.96	12138.02
467.14	12196.53
467.32	12514.84
467.51	12311.22
467.69	12173.13
467.87	12456.33
468.05	12428.24
468.23	12297.17
468.41	12568.68
468.60	12549.95
468.78	12706.77
468.96	12599.10
469.14	12908.05
469.32	12837.84
469.50	12753.58
469.69	13027.42
469.87	13128.06
470.05	13018.06
470.23	12987.63
470.41	13027.42
470.59	13364.46
470.77	12961.89
470.95	13221.69
471.14	13439.36
471.32	13205.30
471.50	13476.80
471.68	13500.21
471.86	13582.13
472.04	13577.45
472.22	13933.21
472.40	13783.41
472.58	13736.60
472.77	14073.64
472.95	14300.67
473.13	14506.64
473.31	14092.37
473.49	14024.49
473.67	14047.90
473.85	14202.37
474.03	14766.44
474.21	14504.30
474.39	14817.93
474.57	14579.20
474.75	14738.35
474.93	14757.08
475.12	14853.04
475.30	14927.94
475.48	15108.16
475.66	14813.25
475.84	15110.50
476.02	15255.61
476.20	15267.31
476.38	15737.76
476.56	15955.43
476.74	15763.51
476.92	15660.52
477.10	15896.92
477.28	16042.03
477.46	15887.56
477.64	16109.91
477.82	16533.54
478.00	16692.70
478.18	16690.36
478.36	16723.13
478.54	16884.62
478.72	16987.61
478.90	17385.50
479.08	17483.80
479.26	17525.93
479.44	17678.07
479.62	17881.69
479.80	17729.56
479.98	18118.09
480.16	18572.15
480.34	18059.57
480.52	18480.87
480.70	18640.03
480.88	18204.69
481.06	18574.49
481.24	18607.26
481.41	18881.10
481.59	19463.90
481.77	19297.72
481.95	19281.33
482.13	19545.81
482.31	19330.48
482.49	20086.48
482.67	20123.93
482.85	20219.89
483.03	20486.71
483.21	20540.54
483.39	20730.12
483.57	20945.45
483.74	20971.20
483.92	21022.69
484.10	21120.99
484.28	21500.16
484.46	21968.27
484.64	22429.35
484.82	21596.12
485.00	22618.94
485.18	22827.24
485.35	22707.88
485.53	22693.83
485.71	22895.12
485.89	23381.95
486.07	23400.68
486.25	23278.97
486.43	23541.11
486.61	23686.22
486.78	23976.45
486.96	23931.98
487.14	24180.07
487.32	24617.75
487.50	24797.98
487.68	24549.88
487.85	25263.74
488.03	25350.34
488.21	25633.55
488.39	25455.67
488.57	26068.89
488.75	26302.94
488.92	26441.03
489.10	26696.15
489.28	26579.12
489.46	27091.70
489.64	26829.56
489.81	27559.81
489.99	27824.29
490.17	27290.65
490.35	27922.59
490.53	27938.97
490.70	28205.80
490.88	27983.44
491.06	28364.95
491.24	28402.40
491.41	28428.15
491.59	29085.84
491.77	29252.02
491.95	29701.40
492.13	29446.28
492.30	30000.99
492.48	29572.67
492.66	30096.95
492.84	29701.40
493.01	30841.24
493.19	30487.82
493.37	30967.63
493.54	30993.37
493.72	31325.73
493.90	31236.79
494.08	31283.60
494.25	31854.69
494.43	31859.37
494.61	32154.28
494.79	32322.80
494.96	32411.74
495.14	32697.28
495.32	33053.05
495.49	33057.73
495.67	32992.19
495.85	33221.56
496.02	33750.52
496.20	34099.26
496.38	33551.58
496.55	33659.24
496.73	34501.84
496.91	34176.50
497.09	34705.46
497.26	34806.11
497.44	34972.28
497.62	35152.51
497.79	35779.77
497.97	35154.85
498.14	35622.95
498.32	36065.31
498.50	36044.25
498.67	36194.04
498.85	36390.65
499.03	36392.99
499.20	36362.56
499.38	36706.62
499.56	37046.00
499.73	36992.17
499.91	36879.82
500.08	37717.73
500.26	37134.94
500.44	37378.36
500.61	37713.05
500.79	37654.54
500.97	37720.07
501.14	38206.90
501.32	38567.35
501.49	38574.37
501.67	38569.69
501.84	38600.12
502.02	38384.79
502.20	38855.23
502.37	38932.47
502.55	39433.35
502.72	39290.57
502.90	39173.55
503.07	39384.19
503.25	39606.55
503.43	39374.83
503.60	39683.78
503.78	40245.51
503.95	39655.70
504.13	40053.59
504.30	40776.81
504.48	40130.83
504.65	40704.26
504.83	40708.94
505.01	41099.81
505.18	40854.05
505.36	41261.30
505.53	41247.26
505.71	41401.74
505.88	41661.54
506.06	41469.61
506.23	41750.48
506.41	41263.64
506.58	41893.25
506.76	42174.11
506.93	42532.22
507.11	42251.35
507.28	42635.20
507.46	42366.04
507.63	42960.53
507.81	42920.74
507.98	42586.05
508.16	42738.18
508.33	42869.25
508.50	43049.47
508.68	42983.94
508.85	43739.93
509.03	43519.92
509.20	44011.43
509.38	44369.54
509.55	44528.69
509.73	44453.79
509.90	44350.81
510.08	44296.98
510.25	44371.88
510.42	44758.06
510.60	44828.28
510.77	45324.47
510.95	45172.34
511.12	45034.25
511.30	44910.20
511.47	45144.25
511.64	45141.91
511.82	45830.03
511.99	45603.00
512.17	46066.42
512.34	45881.52
512.51	46117.92
512.69	46045.36
512.86	46103.87
513.04	46267.71
513.21	46513.47
513.38	46962.85
513.56	46597.73
513.73	46691.35
513.90	46993.28
514.08	46389.42
514.25	47089.24
514.43	47049.45
514.60	47297.55
514.77	47241.37
514.95	47372.44
515.12	47770.33
515.29	47608.84
515.47	47449.68
515.64	47803.10
515.81	47934.17
515.99	48224.40
516.16	48072.26
516.33	47978.64
516.51	48851.66
516.68	47971.62
516.85	48250.14
517.03	48549.73
517.20	48685.48
517.37	48662.08
517.54	48687.82
517.72	48896.13
517.89	48741.66
518.06	48652.72
518.24	48669.10
518.41	48821.23
518.58	49083.37
518.75	49205.08
518.93	49329.13
519.10	49375.94
519.27	49282.32
519.45	49275.30
519.62	49970.44
519.79	49535.10
519.96	49773.83
520.14	49979.80
520.31	49921.29
520.48	50185.77
520.65	50181.09
520.83	50480.67
521.00	50543.87
521.17	50134.28
521.34	50410.46
521.52	50894.95
521.69	50791.97
521.86	50756.86
522.03	51004.95
522.20	51119.64
522.38	51063.47
522.55	50887.93
522.72	51014.32
522.89	51341.99
523.07	51613.49
523.24	51320.93
523.41	51444.98
523.58	51138.36
523.75	51906.06
523.92	51407.53
524.10	51847.55
524.27	51793.71
524.44	51774.99
524.61	51903.72
524.78	52053.51
524.96	51877.97
525.13	52147.14
525.30	52030.11
525.47	52402.25
525.64	52296.93
525.81	52509.92
525.98	52645.67
526.16	52002.02
526.33	52655.03
526.50	53050.58
526.67	52486.51
526.84	52722.91
527.01	52580.13
527.18	52776.74
527.36	52781.42
527.53	53151.23
527.70	53111.44
527.87	53055.26
528.04	53247.19
528.21	53331.45
528.38	52938.24
528.55	53333.79
528.72	53296.34
528.89	53258.89
529.07	53226.12
529.24	53254.21
529.41	53495.28
529.58	53298.68
529.75	53511.67
529.92	53684.87
530.09	53785.51
530.26	53577.20
530.43	53907.22
530.60	53734.02
530.77	53591.25
530.94	54007.86
531.11	54026.59
531.28	53991.48
531.46	54087.44
531.63	54351.92
531.80	54082.76
531.97	54328.52
532.14	54230.21
532.31	54204.47
532.48	54529.80
532.65	54501.71
532.82	54232.55
532.99	54478.31
533.16	54438.52
533.33	54660.87
533.50	54801.30
533.67	54721.72
533.84	54527.46
534.01	54965.14
534.18	54850.45
534.35	55079.83
534.52	55145.36
534.69	55018.97
534.86	55285.79
535.03	55068.12
535.20	54962.80
535.37	55372.39
535.54	55281.11
535.71	55236.64
535.88	55334.95
536.05	55313.88
536.22	55512.83
536.38	55421.55
536.55	55182.81
536.72	55569.00
536.89	55360.69
537.06	55384.10
537.23	55671.98
537.40	55276.43
537.57	55339.63
537.74	55524.53
537.91	55753.90
538.08	55833.48
538.25	55398.14
538.42	55887.31
538.59	56027.74
538.75	55744.54
538.92	55884.97
539.09	56006.68
539.26	56278.18
539.43	56147.11
539.60	56182.22
539.77	56165.84
539.94	56463.08
540.11	56292.22
540.28	56161.15
540.44	56186.90
540.61	56273.50
540.78	56540.32
540.95	56502.87
541.12	56280.52
541.29	56329.67
541.46	56341.38
541.62	56317.97
541.79	56537.98
541.96	55934.12
542.13	56617.56
542.30	56776.72
542.47	56811.82
542.63	56837.57
542.80	56573.09
542.97	57127.80
543.14	57172.27
543.31	57059.92
543.48	57031.83
543.64	57574.84
543.81	57200.35
543.98	57162.90
544.15	57167.58
544.32	57448.45
544.48	57631.01
544.65	57338.44
544.82	57195.67
544.99	57244.82
545.16	57448.45
545.32	57331.42
545.49	57532.71
545.66	57783.15
545.83	57499.94
546.00	57616.97
546.16	57612.29
546.33	57574.84
546.50	57382.91
546.67	57764.42
546.83	57408.66
547.00	57626.33
547.17	57563.14
547.34	57656.76
547.50	57755.06
547.67	57949.32
547.84	57930.60
548.00	57944.64
548.17	57930.60
548.34	57998.48
548.51	58017.20
548.67	58178.70
548.84	57972.73
549.01	57780.81
549.18	58258.27
549.34	58061.67
549.51	58321.47
549.68	58368.28
549.84	58113.16
550.01	58419.77
550.18	58262.96
550.34	58567.23
550.51	58188.06
550.68	58375.30
550.84	58216.14
551.01	58494.67
551.18	58473.60
551.34	58461.90
551.51	58178.70
551.68	58419.77
551.84	58487.65
552.01	58398.71
552.18	58789.58
552.34	58391.68
552.51	58602.33
552.68	58286.36
552.84	58539.14
553.01	58899.58
553.18	58719.36
553.34	58899.58
553.51	58607.01
553.67	58714.68
553.84	58937.03
554.01	58674.89
554.17	59056.40
554.34	58885.54
554.51	58995.54
554.67	58974.48
554.84	59091.51
555.00	58871.49
555.17	58913.62
555.33	58983.84
555.50	58906.60
555.67	58983.84
555.83	59000.22
556.00	59000.22
556.16	59161.72
556.33	59189.81
556.50	59004.91
556.66	59110.23
556.83	59175.76
556.99	59363.01
557.16	59580.68
557.32	59456.63
557.49	59480.03
557.65	59363.01
557.82	59489.40
557.98	59241.30
558.15	59140.66
558.32	59288.11
558.48	59405.14
558.65	59391.09
558.81	59264.70
558.98	59393.43
559.14	59384.07
559.31	59590.04
559.47	59526.84
559.64	59414.50
559.80	59601.74
559.97	59824.09
560.13	59496.42
560.30	59590.04
560.46	59812.39
560.63	59517.48
560.79	59601.74
560.96	59564.29
561.12	59732.81
561.29	59730.47
561.45	59772.60
561.61	59552.59
561.78	59746.86
561.94	59388.75
562.11	59667.28
562.27	59686.00
562.44	59920.05
562.60	59934.10
562.77	59854.52
562.93	59690.68
563.10	60027.72
563.26	59796.01
563.42	60032.40
563.59	59927.08
563.75	59990.27
563.92	60027.72
564.08	59891.97
564.24	59744.51
564.41	59913.03
564.57	60184.54
564.74	59812.39
564.90	60011.34
565.07	59877.93
565.23	59976.23
565.39	59924.74
565.56	60301.56
565.72	60020.70
565.88	60058.15
566.05	60065.17
566.21	60048.78
566.38	60247.73
566.54	60193.90
566.70	60186.88
566.87	60313.26
567.03	59906.01
567.19	60151.77
567.36	60109.64
567.52	60020.70
567.68	60477.10
567.85	60339.01
568.01	60353.05
568.17	60067.51
568.34	60238.37
568.50	60301.56
568.66	60011.34
568.83	60322.63
568.99	60339.01
569.15	60413.91
569.32	60299.22
569.48	60434.97
569.64	60397.52
569.81	60430.29
569.97	60210.28
570.13	60339.01
570.30	60268.79
570.46	60378.80
570.62	60329.65
570.78	60514.55
570.95	60533.28
571.11	60413.91
571.27	60341.35
571.43	60434.97
571.60	60622.22
571.76	60336.67
571.92	60444.33
572.09	60259.43
572.25	60317.95
572.41	60353.05
572.57	60355.39
572.74	60654.98
572.90	60671.37
573.06	60552.00
573.22	60399.86
573.38	60512.21
573.55	60537.96
573.71	60748.60
573.87	60802.44
574.03	60287.52
574.20	60598.81
574.36	60484.12
574.52	60594.13
574.68	60884.36
574.84	60605.83
575.01	60601.15
575.17	60556.68
575.33	60360.08
575.49	60357.74
575.65	60589.45
575.82	60671.37
575.98	60610.51
576.14	60720.52
576.30	60690.09
576.46	60699.45
576.62	60638.60
576.79	60708.82
576.95	60502.85
577.11	60699.45
577.27	60893.72
577.43	60781.37
577.59	60662.00
577.75	60643.28
577.92	60537.96
578.08	60783.71
578.24	60673.71
578.40	61111.39
578.56	60793.07
578.72	60853.93
578.88	60851.59
579.04	60961.59
579.21	60767.33
579.37	60846.91
579.53	60898.40
579.69	60549.66
579.85	60734.56
580.01	60669.03
580.17	60729.88
580.33	60818.82
580.49	60729.88
580.65	60741.58
580.82	60889.04
580.98	60608.17
581.14	60774.35
581.30	60772.01
581.46	60760.31
581.62	60683.07
581.78	60781.37
581.94	60947.55
582.10	60743.92
582.26	60867.97
582.42	60734.56
582.58	60769.67
582.74	60739.24
582.90	60912.44
583.06	60889.04
583.22	60629.24
583.38	60884.36
583.54	60772.01
583.70	60814.14
583.86	60919.46
584.02	60631.58
584.18	60996.70
584.34	60853.93
584.50	60832.86
584.66	60683.07
584.82	60652.64
584.98	61003.72
585.14	60835.20
585.30	60832.86
585.46	60858.61
585.62	60786.05
585.78	61111.39
585.94	60825.84
586.10	60935.85
586.26	61085.64
586.42	60961.59
586.58	61090.32
586.74	61038.83
586.90	60907.76
587.06	60739.24
587.22	61031.81
587.38	60865.63
587.54	61076.28
587.70	61244.80
587.86	61003.72
588.02	60949.89
588.18	61111.39
588.34	60928.83
588.49	60877.33
