SpectraSuite Data File
++++++++++++++++++++++++++++++++++++
Date: Fri Oct 25 10:47:57 EDT 2013
User: price-jones
Dark Spectrum Present: No
Reference Spectrum Present: No
Number of Sampled Component Spectra: 1
Spectrometers: USB2+H05261
Integration Time (usec): 100000 (USB2+H05261)
Spectra Averaged: 1 (USB2+H05261)
Boxcar Smoothing: 0 (USB2+H05261)
Correct for Electrical Dark: No (USB2+H05261)
Strobe/Lamp Enabled: No (USB2+H05261)
Correct for Detector Non-linearity: No (USB2+H05261)
Correct for Stray Light: No (USB2+H05261)
Number of Pixels in Processed Spectrum: 2048
>>>>>Begin Processed Spectral Data<<<<<
365.73	121.71
365.92	121.71
366.12	121.71
366.32	79.58
366.52	35.11
366.72	49.15
366.91	37.45
367.11	67.88
367.31	11.70
367.51	53.83
367.70	58.51
367.90	9.36
368.10	63.19
368.30	72.56
368.49	2.34
368.69	65.54
368.89	91.28
369.09	32.77
369.28	86.60
369.48	49.15
369.68	145.11
369.87	166.18
370.07	98.30
370.27	98.30
370.47	198.95
370.66	388.53
370.86	437.68
371.06	430.66
371.25	479.81
371.45	425.98
371.65	491.51
371.84	454.06
372.04	444.70
372.24	475.13
372.44	545.34
372.63	376.83
372.83	468.11
373.03	463.43
373.22	512.58
373.42	564.07
373.62	498.53
373.81	507.90
374.01	543.00
374.21	540.66
374.40	603.86
374.60	580.45
374.79	510.24
374.99	500.87
375.19	578.11
375.38	512.58
375.58	571.09
375.78	592.16
375.97	610.88
376.17	678.76
376.37	615.56
376.56	599.18
376.76	624.92
376.95	589.82
377.15	676.41
377.35	585.13
377.54	624.92
377.74	582.79
377.93	636.63
378.13	571.09
378.33	631.94
378.52	622.58
378.72	653.01
378.91	699.82
379.11	545.34
379.31	622.58
379.50	613.22
379.70	645.99
379.89	631.94
380.09	688.12
380.28	643.65
380.48	641.31
380.68	650.67
380.87	695.14
381.07	650.67
381.26	737.27
381.46	681.10
381.65	713.86
381.85	739.61
382.04	683.44
382.24	671.73
382.43	725.57
382.63	706.84
382.83	662.37
383.02	685.78
383.22	786.42
383.41	814.51
383.61	671.73
383.80	730.25
384.00	678.76
384.19	751.31
384.39	688.12
384.58	730.25
384.78	755.99
384.97	727.91
385.17	685.78
385.36	692.80
385.56	814.51
385.75	779.40
385.95	688.12
386.14	784.08
386.34	802.80
386.53	844.93
386.72	753.65
386.92	833.23
387.11	777.06
387.31	814.51
387.50	851.96
387.70	786.42
387.89	821.53
388.09	840.25
388.28	835.57
388.48	809.83
388.67	912.81
388.86	734.93
389.06	854.30
389.25	873.02
389.45	847.27
389.64	866.00
389.84	816.85
390.03	905.79
390.22	849.61
390.42	894.08
390.61	840.25
390.81	947.92
391.00	866.00
391.19	1006.43
391.39	952.60
391.58	964.30
391.78	1048.56
391.97	1022.81
392.16	1004.09
392.36	966.64
392.55	1025.15
392.75	931.53
392.94	1043.88
393.13	994.73
393.33	978.34
393.52	961.96
393.71	983.02
393.91	1064.94
394.10	1076.65
394.29	1111.75
394.49	1020.47
394.68	1118.78
394.88	1130.48
395.07	1174.95
395.26	1184.31
395.46	1259.21
395.65	1181.97
395.84	1156.22
396.04	1203.04
396.23	1137.50
396.42	1046.22
396.62	1139.84
396.81	1217.08
397.00	1167.93
397.19	1207.72
397.39	1142.18
397.58	1259.21
397.77	1268.57
397.97	1261.55
398.16	1313.04
398.35	1289.64
398.55	1273.25
398.74	1371.55
398.93	1423.05
399.12	1249.85
399.32	1280.27
399.51	1334.11
399.70	1352.83
399.90	1317.72
400.09	1392.62
400.28	1451.13
400.47	1432.41
400.67	1369.21
400.86	1427.73
401.05	1446.45
401.24	1460.49
401.44	1448.79
401.63	1465.18
401.82	1533.05
402.01	1366.87
402.21	1584.54
402.40	1455.81
402.59	1537.73
402.78	1511.99
402.97	1577.52
403.17	1509.65
403.36	1507.30
403.55	1596.25
403.74	1621.99
403.93	1659.44
404.13	1629.01
404.32	1664.12
404.51	1699.23
404.70	1675.82
404.89	1692.21
405.09	1757.74
405.28	1710.93
405.47	1713.27
405.66	1675.82
405.85	1776.47
406.05	1724.97
406.24	1776.47
406.43	1778.81
406.62	1781.15
406.81	1844.34
407.00	1888.81
407.20	1764.76
407.39	1865.41
407.58	1837.32
407.77	1996.48
407.96	1905.20
408.15	1895.83
408.34	2017.54
408.54	2033.93
408.73	1970.73
408.92	2076.06
409.11	2012.86
409.30	1984.77
409.49	2022.22
409.68	2045.63
409.87	2003.50
410.07	2019.88
410.26	2029.24
410.45	2150.95
410.64	2239.89
410.83	2167.34
411.02	2221.17
411.21	2244.57
411.40	2160.31
411.59	2282.02
411.78	2251.60
411.98	2286.70
412.17	2335.85
412.36	2239.89
412.55	2408.41
412.74	2366.28
412.93	2480.97
413.12	2338.20
413.31	2527.78
413.50	2509.05
413.69	2490.33
413.88	2635.44
414.07	2487.99
414.26	2588.63
414.45	2656.51
414.64	2569.91
414.83	2640.12
415.02	2726.72
415.22	2708.00
415.41	2658.85
415.60	2794.60
415.79	2874.18
415.98	2862.48
416.17	2768.85
416.36	2722.04
416.55	2820.35
416.74	2899.92
416.93	2904.60
417.12	2892.90
417.31	2993.55
417.50	3035.67
417.69	3110.57
417.88	3155.04
418.07	3030.99
418.26	3110.57
418.45	3028.65
418.64	3253.34
418.83	3204.19
419.02	3229.94
419.21	3243.98
419.39	3269.73
419.58	3040.36
419.77	3208.87
419.96	3218.24
420.15	3204.19
420.34	3192.49
420.53	3239.30
420.72	3417.18
420.91	3243.98
421.10	3459.31
421.29	3475.70
421.48	3421.86
421.67	3492.08
421.86	3363.35
422.05	3396.12
422.24	3363.35
422.43	3389.10
422.61	3372.71
422.80	3510.80
422.99	3508.46
423.18	3552.93
423.37	3424.20
423.56	3358.67
423.75	3419.52
423.94	3428.88
424.13	3204.19
424.32	3353.99
424.50	3548.25
424.69	3531.87
424.88	3548.25
425.07	3604.42
425.26	3543.57
425.45	3461.65
425.64	3557.61
425.83	3527.19
426.01	3592.72
426.20	3588.04
426.39	3613.79
426.58	3438.25
426.77	3438.25
426.96	3653.58
427.15	3522.51
427.33	3660.60
427.52	3634.85
427.71	3655.92
427.90	3847.84
428.09	3873.59
428.28	3653.58
428.46	3691.02
428.65	3702.73
428.84	3779.97
429.03	3920.40
429.22	3688.68
429.40	3768.26
429.59	3864.22
429.78	3632.51
429.97	3669.96
430.16	3644.21
430.34	3899.33
430.53	3904.01
430.72	3875.93
430.91	3925.08
431.10	3918.06
431.28	4056.15
431.47	4196.58
431.66	4203.60
431.85	3962.53
432.03	4177.86
432.22	4189.56
432.41	4205.94
432.60	4351.06
432.79	4138.07
432.97	4208.28
433.16	4217.65
433.35	4243.39
433.54	4215.30
433.72	4325.31
433.91	4327.65
434.10	4372.12
434.28	4395.53
434.47	4346.37
434.66	4276.16
434.85	4418.93
435.03	4447.02
435.22	4348.72
435.41	4374.46
435.59	4432.97
435.78	4526.60
435.97	4561.70
436.16	4531.28
436.34	4580.43
436.53	4582.77
436.72	4561.70
436.90	4386.16
437.09	4638.94
437.28	4571.07
437.46	4629.58
437.65	4594.47
437.84	4774.69
438.02	4762.99
438.21	4660.01
438.40	4547.66
438.58	4727.88
438.77	4882.36
438.96	4868.31
439.14	4947.89
439.33	4929.17
439.52	5039.17
439.70	4994.70
439.89	5083.64
440.08	5050.88
440.26	4997.04
440.45	5036.83
440.63	5275.57
440.82	5434.72
441.01	5221.74
441.19	5383.23
441.38	5561.11
441.57	5490.90
441.75	5399.62
441.94	5687.50
442.12	5661.76
442.31	5713.25
442.50	5647.71
442.68	5647.71
442.87	5561.11
443.05	5610.26
443.24	5610.26
443.43	5891.13
443.61	5699.20
443.80	5872.40
443.98	5685.16
444.17	5483.88
444.35	5668.78
444.54	5907.51
444.73	5731.97
444.91	5746.02
445.10	5778.78
445.28	5856.02
445.47	5640.69
445.65	5708.57
445.84	5717.93
446.02	5909.85
446.21	5743.67
446.39	5893.47
446.58	5795.17
446.77	5966.03
446.95	5858.36
447.14	5998.79
447.32	6085.39
447.51	5853.68
447.69	5959.00
447.88	6005.81
448.06	5951.98
448.25	6052.63
448.43	5907.51
448.62	6085.39
448.80	6132.20
448.99	5975.39
449.17	5987.09
449.36	5893.47
449.54	6244.55
449.73	6197.74
449.91	6260.93
450.10	6160.29
450.28	6319.45
450.46	6408.39
450.65	6394.34
450.83	6375.62
451.02	6356.90
451.20	6384.98
451.39	6340.51
451.57	6429.45
451.76	6359.24
451.94	6705.63
452.13	6623.72
452.31	6497.33
452.49	6284.34
452.68	6581.59
452.86	6478.60
453.05	6363.92
453.23	6534.78
453.42	6567.54
453.60	6450.52
453.78	6700.95
453.97	6541.80
454.15	6579.25
454.34	6583.93
454.52	6700.95
454.70	6562.86
454.89	6555.84
455.07	6640.10
455.26	6712.66
455.44	6689.25
455.62	6789.89
455.81	6836.70
455.99	6960.75
456.17	6883.52
456.36	6958.41
456.54	7070.76
456.73	7136.29
456.91	7215.87
457.09	7393.75
457.28	7363.33
457.46	6974.80
457.64	7272.04
457.83	7309.49
458.01	7267.36
458.19	7459.29
458.38	7152.68
458.56	7363.33
458.74	7349.28
458.93	7267.36
459.11	7398.43
459.29	7487.37
459.48	7346.94
459.66	7265.02
459.84	7475.67
460.03	7854.84
460.21	7772.92
460.39	7691.00
460.57	7637.17
460.76	7634.83
460.94	7655.89
461.12	7604.40
461.31	7634.83
461.49	7688.66
461.67	7618.44
461.85	7737.81
462.04	7695.68
462.22	8348.69
462.40	8021.02
462.59	7990.59
462.77	8187.19
462.95	8065.49
463.13	7939.10
463.32	7936.76
463.50	7990.59
463.68	8131.02
463.86	8074.85
464.05	7903.99
464.23	8147.40
464.41	8257.41
464.59	8142.72
464.78	8072.51
464.96	8135.70
465.14	8049.10
465.32	8306.56
465.50	8367.42
465.69	8428.27
465.87	8329.97
466.05	8276.13
466.23	8208.26
466.41	8238.69
466.60	8381.46
466.78	8198.90
466.96	8510.19
467.14	8299.54
467.32	8404.86
467.51	8521.89
467.69	8224.64
467.87	8341.67
468.05	8613.17
468.23	8589.77
468.41	8362.73
468.60	8404.86
468.78	8753.60
468.96	8519.55
469.14	8734.88
469.32	8840.20
469.50	8629.56
469.69	8819.14
469.87	8854.25
470.05	8760.63
470.23	9142.13
470.41	8662.32
470.59	9097.66
470.77	8973.61
470.95	9195.96
471.14	9022.77
471.32	9102.34
471.50	9415.98
471.68	9235.75
471.86	9275.54
472.04	9589.17
472.22	9446.40
472.40	9186.60
472.58	9310.65
472.77	9399.59
472.95	9612.58
473.13	9937.91
473.31	9525.98
473.49	9638.33
473.67	9635.99
473.85	9631.30
474.03	9664.07
474.21	9893.44
474.39	10183.67
474.57	9912.17
474.75	10155.58
474.93	10146.22
475.12	9923.87
475.30	10143.88
475.48	10026.86
475.66	10176.65
475.84	10235.16
476.02	10319.42
476.20	10258.57
476.38	10574.54
476.56	10710.29
476.74	10595.61
476.92	10633.05
477.10	10719.65
477.28	10927.96
477.46	10984.13
477.64	11052.01
477.82	10988.82
478.00	11098.82
478.18	11332.87
478.36	11152.65
478.54	11426.50
478.72	11639.48
478.90	11672.25
479.08	11761.19
479.26	11833.75
479.44	11784.60
479.62	11957.80
479.80	11784.60
479.98	12016.31
480.16	12496.12
480.34	12320.58
480.52	12711.45
480.70	12332.28
480.88	12524.21
481.06	12657.62
481.24	12615.49
481.41	12641.23
481.59	12987.63
481.77	13193.60
481.95	13149.13
482.13	13146.79
482.31	13200.62
482.49	13708.52
482.67	13366.80
482.85	13348.08
483.03	13792.78
483.21	13813.84
483.39	14113.43
483.57	13748.31
483.74	14033.85
483.92	14368.55
484.10	14265.57
484.28	14455.15
484.46	14532.39
484.64	14733.67
484.82	14654.09
485.00	14670.48
485.18	14876.44
485.35	15225.18
485.53	15143.27
485.71	15150.29
485.89	15391.36
486.07	15091.77
486.25	15344.55
486.43	15154.97
486.61	15730.74
486.78	15726.06
486.96	15964.79
487.14	16152.04
487.32	16264.38
487.50	16313.53
487.68	16339.28
487.85	16634.19
488.03	16854.20
488.21	16929.09
488.39	16833.13
488.57	17109.32
488.75	17200.60
488.92	17249.75
489.10	17788.07
489.28	17394.86
489.46	17713.17
489.64	17671.04
489.81	18565.13
489.99	18429.38
490.17	18434.06
490.35	18855.36
490.53	18513.64
490.70	18743.01
490.88	18728.97
491.06	19051.96
491.24	18937.27
491.41	18785.14
491.59	19084.73
491.77	19257.93
491.95	19433.47
492.13	19791.57
492.30	19552.84
492.48	19711.99
492.66	19922.64
492.84	20046.69
493.01	19913.28
493.19	19971.79
493.37	20442.24
493.54	20753.53
493.72	20692.68
493.90	20400.11
494.08	20882.26
494.25	20732.47
494.43	20973.54
494.61	21371.43
494.79	21338.66
494.96	21153.76
495.14	21436.97
495.32	21633.57
495.49	21556.33
495.67	21921.46
495.85	22530.00
496.02	22202.32
496.20	22258.49
496.38	22518.29
496.55	22522.98
496.73	22768.73
496.91	22841.29
497.09	22963.00
497.26	22932.57
497.44	22888.10
497.62	23084.70
497.79	23281.31
497.97	23482.59
498.14	23199.39
498.32	23559.83
498.50	23758.78
498.67	23611.32
498.85	23459.19
499.03	23941.34
499.20	24191.78
499.38	24053.69
499.56	24414.13
499.73	24453.92
499.91	24446.90
500.08	24732.44
500.26	24493.71
500.44	24608.39
500.61	24559.24
500.79	24606.05
500.97	24985.22
501.14	25291.83
501.32	25228.63
501.49	25069.48
501.67	25055.43
501.84	25282.47
502.02	25263.74
502.20	25542.27
502.37	25556.31
502.55	25455.67
502.72	25706.10
502.90	25933.14
503.07	25893.35
503.25	25909.73
503.43	26118.04
503.60	26206.98
503.78	26251.45
503.95	26295.92
504.13	26403.58
504.30	26508.91
504.48	26771.05
504.65	26679.77
504.83	26726.58
505.01	26867.01
505.18	26815.52
505.36	27297.67
505.53	27070.64
505.71	27424.06
505.88	27161.92
506.06	26789.77
506.23	27367.88
506.41	27264.90
506.58	27417.04
506.76	27597.26
506.93	27789.18
507.11	28027.92
507.28	27875.78
507.46	27871.10
507.63	27559.81
507.81	27854.72
507.98	27821.95
508.16	27924.93
508.33	28570.92
508.50	28659.86
508.68	28350.91
508.85	28650.50
509.03	28400.06
509.20	29226.27
509.38	29067.11
509.55	29118.60
509.73	29088.18
509.90	29057.75
510.08	29071.79
510.25	29329.25
510.42	29284.78
510.60	29535.22
510.77	29649.91
510.95	29890.98
511.12	29282.44
511.30	30099.29
511.47	30157.80
511.64	30003.33
511.82	30274.83
511.99	29682.67
512.17	29858.21
512.34	29813.74
512.51	30321.64
512.69	30574.42
512.86	30642.29
513.04	30642.29
513.21	30593.14
513.38	30574.42
513.56	30426.96
513.73	30459.73
513.90	30869.33
514.08	30817.83
514.25	30820.17
514.43	30590.80
514.60	30991.03
514.77	31180.62
514.95	31143.17
515.12	31468.50
515.29	31466.16
515.47	31597.23
515.64	31608.93
515.81	31250.83
515.99	31456.80
516.16	31377.22
516.33	31662.77
516.51	31885.12
516.68	31625.32
516.85	31367.86
517.03	31693.19
517.20	31611.28
517.37	32144.92
517.54	32390.67
517.72	32137.90
517.89	32261.94
518.06	31978.74
518.24	32140.24
518.41	31995.12
518.58	32210.45
518.75	32783.88
518.93	32821.33
519.10	32622.39
519.27	32755.80
519.45	32620.05
519.62	32999.21
519.79	33158.37
519.96	32987.51
520.14	33408.81
520.31	33331.57
520.48	33200.50
520.65	33434.55
520.83	33446.26
521.00	33504.77
521.17	33958.83
521.34	33493.07
521.52	33610.09
521.69	34178.84
521.86	33888.62
522.03	34050.11
522.20	34307.57
522.38	34494.82
522.55	34272.46
522.72	34239.70
522.89	34174.16
523.07	34117.99
523.24	34075.86
523.41	34249.06
523.58	34265.44
523.75	34782.70
523.92	34588.44
524.10	34803.77
524.27	34785.04
524.44	34939.52
524.61	34916.11
524.78	35119.74
524.96	34948.88
525.13	34981.65
525.30	35498.91
525.47	35402.94
525.64	35477.84
525.81	35585.50
525.98	35438.05
526.16	35449.75
526.33	34735.89
526.50	35562.10
526.67	35552.74
526.84	35754.02
527.01	35257.83
527.18	35644.02
527.36	35938.93
527.53	36203.41
527.70	36240.86
527.87	36381.29
528.04	36053.61
528.21	36070.00
528.38	36308.73
528.55	36493.63
528.72	35901.48
528.89	36442.14
529.07	36697.26
529.24	36360.22
529.41	36367.24
529.58	36400.01
529.75	36514.70
529.92	36849.39
530.09	36685.56
530.26	36971.10
530.43	36781.52
530.60	36521.72
530.77	36966.42
530.94	37170.05
531.11	36844.71
531.28	37132.60
531.46	37137.28
531.63	37055.36
531.80	36835.35
531.97	36835.35
532.14	37074.09
532.31	37214.52
532.48	37170.05
532.65	37722.41
532.82	37516.45
532.99	37373.67
533.16	37345.59
533.33	37628.79
533.50	37806.67
533.67	37378.36
533.84	37787.95
534.01	37867.53
534.18	37649.86
534.35	38433.94
534.52	38139.03
534.69	38087.54
534.86	38309.89
535.03	38094.56
535.20	38405.85
535.37	38579.05
535.54	38567.35
535.71	38213.93
535.88	38410.53
536.05	38572.03
536.22	38665.65
536.38	38550.96
536.55	38462.02
536.72	38302.87
536.89	38345.00
537.06	38614.16
537.23	38918.43
537.40	38604.80
537.57	38794.38
537.74	38794.38
537.91	39229.72
538.08	39461.43
538.25	38487.77
538.42	38885.66
538.59	39126.74
538.75	38976.94
538.92	39122.05
539.09	39318.66
539.26	39274.19
539.43	39651.02
539.60	39157.16
539.77	39063.54
539.94	39431.01
540.11	38864.60
540.28	39445.05
540.44	39409.94
540.61	39236.74
540.78	39290.57
540.95	39285.89
541.12	39400.58
541.29	39414.62
541.46	39772.72
541.62	39828.90
541.79	40039.54
541.96	39246.10
542.13	39807.83
542.30	39906.13
542.47	39817.19
542.63	40034.86
542.80	40004.44
542.97	39981.03
543.14	40732.34
543.31	40863.41
543.48	40540.42
543.64	40917.25
543.81	40407.01
543.98	40130.83
544.15	40095.72
544.32	40910.22
544.48	41193.43
544.65	40807.24
544.82	40786.18
544.99	40620.00
545.16	40891.50
545.32	40678.51
545.49	41500.04
545.66	41081.08
545.83	40690.21
546.00	40828.30
546.16	41076.40
546.33	40795.54
546.50	40952.35
546.67	41109.17
546.83	40339.13
547.00	41174.70
547.17	41654.51
547.34	41258.96
547.50	40783.83
547.67	41596.00
547.84	41401.74
548.00	41390.03
548.17	41790.27
548.34	41804.31
548.51	41518.76
548.67	41743.45
548.84	42064.11
549.01	41488.34
549.18	41469.61
549.34	41844.10
549.51	41757.50
549.68	42199.86
549.84	41801.97
550.01	42047.72
550.18	41717.71
550.34	41947.08
550.51	41748.14
550.68	41778.56
550.84	41888.57
551.01	42096.88
551.18	41785.58
551.34	42003.25
551.51	42007.94
551.68	42068.79
551.84	42419.87
552.01	41874.52
552.18	42136.66
552.34	42064.11
552.51	42429.23
552.68	42007.94
552.84	42440.93
553.01	42363.70
553.18	42841.17
553.34	42696.05
553.51	42003.25
553.67	42607.11
553.84	42906.70
554.01	42583.71
554.17	42822.44
554.34	42682.01
554.51	42719.46
554.67	43288.21
554.84	42829.46
555.00	42375.40
555.17	42394.12
555.33	42759.25
555.50	42630.52
555.67	43086.92
555.83	43035.43
556.00	42979.26
556.16	43442.68
556.33	42834.14
556.50	42808.40
556.66	42731.16
556.83	43002.66
556.99	42904.36
557.16	43175.86
557.32	43377.15
557.49	42955.85
557.65	42806.06
557.82	43171.18
557.98	43091.60
558.15	43807.81
558.32	43112.67
558.48	43164.16
558.65	43524.60
558.81	43299.91
558.98	43526.94
559.14	43056.50
559.31	43475.45
559.47	43337.36
559.64	43526.94
559.80	43681.42
559.97	43845.26
560.13	42974.58
560.30	43171.18
560.46	43491.83
560.63	43498.86
560.79	43814.83
560.96	43559.71
561.12	43936.54
561.29	43531.62
561.45	43789.08
561.61	43629.93
561.78	43445.02
561.94	43643.97
562.11	43477.79
562.27	43480.13
562.44	43688.44
562.60	44109.74
562.77	44219.74
562.93	43791.42
563.10	43973.98
563.26	43468.43
563.42	43552.69
563.59	43737.59
563.75	44095.69
563.92	44051.22
564.08	43997.39
564.24	43796.10
564.41	43770.36
564.57	44053.56
564.74	44257.19
564.90	43793.76
565.07	44327.41
565.23	43966.96
565.39	43716.53
565.56	43924.83
565.72	43580.78
565.88	43922.49
566.05	44182.29
566.21	43924.83
566.38	44055.90
566.54	43978.67
566.70	44194.00
566.87	44718.28
567.03	44191.65
567.19	44470.18
567.36	44268.89
567.52	43812.49
567.68	44182.29
567.85	43597.16
568.01	44135.48
568.17	44140.16
568.34	44395.28
568.50	44163.57
568.66	43840.57
568.83	44671.46
568.99	43772.70
569.15	44219.74
569.32	44479.54
569.48	44367.20
569.64	44797.85
569.81	44601.25
569.97	44453.79
570.13	44411.67
570.30	44325.07
570.46	44261.87
570.62	44083.99
570.78	44189.31
570.95	44107.40
571.11	44392.94
571.27	44350.81
571.43	43896.75
571.60	44753.38
571.76	44392.94
571.92	44500.61
572.09	44175.27
572.25	44477.20
572.41	44194.00
572.57	44945.31
572.74	44952.33
572.90	44165.91
573.06	44231.44
573.22	44196.34
573.38	44797.85
573.55	44474.86
573.71	44971.05
573.87	44222.08
574.03	44165.91
574.20	44720.62
574.36	44320.38
574.52	44514.65
574.68	44378.90
574.84	44516.99
575.01	44488.90
575.17	44570.82
575.33	44425.71
575.49	44622.31
575.65	44933.60
575.82	44905.52
575.98	44828.28
576.14	44538.05
576.30	44580.18
576.46	44285.28
576.62	43899.09
576.79	44577.84
576.95	43985.69
577.11	44191.65
577.27	44271.23
577.43	44645.72
577.59	44460.82
577.75	44481.88
577.92	43988.03
578.08	44161.23
578.24	44013.77
578.40	44519.33
578.56	44542.74
578.72	44479.54
578.88	44722.96
579.04	44659.76
579.21	44727.64
579.37	44346.13
579.53	44236.12
579.69	43756.32
579.85	44067.61
580.01	44914.88
580.17	44676.15
580.33	45343.20
580.49	44711.25
580.65	44568.48
580.82	44643.38
580.98	44835.30
581.14	44275.91
581.30	44516.99
581.46	44390.60
581.62	44823.60
581.78	44100.37
581.94	44863.39
582.10	44130.80
582.26	45078.72
582.42	44980.42
582.58	44439.75
582.74	44615.29
582.90	44779.13
583.06	45050.63
583.22	44994.46
583.38	44715.93
583.54	44456.14
583.70	44346.13
583.86	44814.24
584.02	44439.75
584.18	44542.74
584.34	44580.18
584.50	44772.11
584.66	44470.18
584.82	44580.18
584.98	44701.89
585.14	44882.11
585.30	44465.50
585.46	45013.18
585.62	44156.55
585.78	44912.54
585.94	44385.92
586.10	44715.93
586.26	44680.83
586.42	44877.43
586.58	45052.97
586.74	44364.85
586.90	45001.48
587.06	44634.02
587.22	44680.83
587.38	44905.52
587.54	45095.10
587.70	44563.80
587.86	44624.65
588.02	45202.77
588.18	45052.97
588.34	44573.16
588.49	44430.39
588.65	44739.34
588.81	44465.50
588.97	44456.14
589.13	44549.76
589.29	44254.85
589.45	44701.89
589.61	44589.55
589.77	45146.59
589.93	44978.07
590.08	45006.16
590.24	44973.39
