SpectraSuite Data File
++++++++++++++++++++++++++++++++++++
Date: Fri Oct 25 11:23:07 EDT 2013
User: price-jones
Dark Spectrum Present: No
Reference Spectrum Present: No
Number of Sampled Component Spectra: 1
Spectrometers: USB2+H05261
Integration Time (usec): 100000 (USB2+H05261)
Spectra Averaged: 1 (USB2+H05261)
Boxcar Smoothing: 0 (USB2+H05261)
Correct for Electrical Dark: No (USB2+H05261)
Strobe/Lamp Enabled: No (USB2+H05261)
Correct for Detector Non-linearity: No (USB2+H05261)
Correct for Stray Light: No (USB2+H05261)
Number of Pixels in Processed Spectrum: 2048
>>>>>Begin Processed Spectral Data<<<<<
365.73	191.92
365.92	191.92
366.12	191.92
366.32	86.60
366.52	131.07
366.72	86.60
366.91	140.43
367.11	124.05
367.31	191.92
367.51	117.03
367.70	117.03
367.90	128.73
368.10	14.04
368.30	191.92
368.49	117.03
368.69	177.88
368.89	203.63
369.09	135.75
369.28	117.03
369.48	161.50
369.68	152.13
369.87	166.18
370.07	168.52
370.27	189.58
370.47	330.02
370.66	594.50
370.86	664.71
371.06	610.88
371.25	653.01
371.45	697.48
371.65	676.41
371.84	746.63
372.04	706.84
372.24	690.46
372.44	739.61
372.63	732.59
372.83	636.63
373.03	704.50
373.22	741.95
373.42	755.99
373.62	763.01
373.81	807.48
374.01	772.38
374.21	784.08
374.40	821.53
374.60	868.34
374.79	863.66
374.99	805.14
375.19	849.61
375.38	898.77
375.58	842.59
375.78	856.64
375.97	889.40
376.17	931.53
376.37	929.19
376.56	873.02
376.76	873.02
376.95	833.23
377.15	833.23
377.35	819.19
377.54	849.61
377.74	912.81
377.93	880.04
378.13	954.94
378.33	917.49
378.52	868.34
378.72	959.62
378.91	863.66
379.11	917.49
379.31	992.39
379.50	954.94
379.70	945.58
379.89	990.05
380.09	931.53
380.28	1006.43
380.48	1025.15
380.68	1041.54
380.87	1011.11
381.07	1008.77
381.26	997.07
381.46	1074.31
381.65	1006.43
381.85	1071.97
382.04	994.73
382.24	1081.33
382.43	1132.82
382.63	1050.90
382.83	1081.33
383.02	1200.69
383.22	1165.59
383.41	1034.52
383.61	1158.57
383.80	1111.75
384.00	1125.80
384.19	1081.33
384.39	1158.57
384.58	1149.20
384.78	1139.84
384.97	1158.57
385.17	1118.78
385.36	1165.59
385.56	1149.20
385.75	1181.97
385.95	1214.74
386.14	1186.65
386.34	1186.65
386.53	1245.16
386.72	1167.93
386.92	1287.29
387.11	1296.66
387.31	1240.48
387.50	1205.38
387.70	1315.38
387.89	1352.83
388.09	1362.19
388.28	1214.74
388.48	1210.06
388.67	1334.11
388.86	1329.42
389.06	1306.02
389.25	1324.74
389.45	1373.89
389.64	1338.79
389.84	1366.87
390.03	1390.28
390.22	1500.28
390.42	1383.26
390.61	1315.38
390.81	1411.34
391.00	1441.77
391.19	1317.72
391.39	1366.87
391.58	1441.77
391.78	1507.30
391.97	1444.11
392.16	1406.66
392.36	1640.72
392.55	1451.13
392.75	1535.39
392.94	1493.26
393.13	1514.33
393.33	1437.09
393.52	1554.12
393.71	1699.23
393.91	1629.01
394.10	1650.08
394.29	1577.52
394.49	1591.56
394.68	1659.44
394.88	1664.12
395.07	1678.16
395.26	1629.01
395.46	1643.06
395.65	1799.87
395.84	1732.00
396.04	1799.87
396.23	1804.55
396.42	1736.68
396.62	1687.53
396.81	1816.26
397.00	1764.76
397.19	1823.28
397.39	1858.39
397.58	1905.20
397.77	1774.13
397.97	1694.55
398.16	1839.66
398.35	1856.04
398.55	1970.73
398.74	1902.86
398.93	2001.16
399.12	2010.52
399.32	1966.05
399.51	1914.56
399.70	1952.01
399.90	2024.56
400.09	2108.82
400.28	2071.37
400.47	2148.61
400.67	2186.06
400.86	2062.01
401.05	2022.22
401.24	2036.27
401.44	2143.93
401.63	2258.62
401.82	2129.89
402.01	2155.63
402.21	2251.60
402.40	2223.51
402.59	2389.69
402.78	2317.13
402.97	2275.00
403.17	2211.81
403.36	2363.94
403.55	2282.02
403.74	2345.22
403.93	2356.92
404.13	2380.32
404.32	2354.58
404.51	2380.32
404.70	2410.75
404.89	2401.39
405.09	2487.99
405.28	2619.06
405.47	2567.57
405.66	2567.57
405.85	2595.65
406.05	2387.35
406.24	2623.74
406.43	2560.55
406.62	2490.33
406.81	2672.89
407.00	2513.74
407.20	2464.58
407.39	2684.59
407.58	2745.45
407.77	2717.36
407.96	2822.69
408.15	2841.41
408.34	2665.87
408.54	2925.67
408.73	2719.70
408.92	2867.16
409.11	2911.63
409.30	2942.05
409.49	2860.13
409.68	3007.59
409.87	2878.86
410.07	2963.12
410.26	3124.62
410.45	3021.63
410.64	2972.48
410.83	3215.90
411.02	3047.38
411.21	3246.32
411.40	3145.68
411.59	3225.26
411.78	3297.81
411.98	3192.49
412.17	3251.00
412.36	3370.37
412.55	3323.56
412.74	3449.95
412.93	3419.52
413.12	3496.76
413.31	3510.80
413.50	3485.06
413.69	3426.54
413.88	3581.02
414.07	3564.64
414.26	3667.62
414.45	3726.13
414.64	3808.05
414.83	3719.11
415.02	3911.04
415.22	3768.26
415.41	3880.61
415.60	3894.65
415.79	3791.67
415.98	4081.89
416.17	3913.38
416.36	4072.53
416.55	4002.32
416.74	4269.14
416.93	4131.05
417.12	4203.60
417.31	4196.58
417.50	4355.74
417.69	4322.97
417.88	4372.12
418.07	4308.93
418.26	4358.08
418.45	4348.72
418.64	4369.78
418.83	4479.79
419.02	4589.79
419.21	4606.17
419.39	4428.29
419.58	4507.87
419.77	4594.47
419.96	4660.01
420.15	4758.31
420.34	4688.09
420.53	4638.94
420.72	4718.52
420.91	4664.69
421.10	4744.27
421.29	4863.63
421.48	4741.93
421.67	4975.98
421.86	4957.25
422.05	4994.70
422.24	4884.70
422.43	4945.55
422.61	4987.68
422.80	4882.36
422.99	4950.23
423.18	4959.60
423.37	5100.03
423.56	5177.26
423.75	5067.26
423.94	4973.64
424.13	4660.01
424.32	4844.91
424.50	5008.75
424.69	5303.65
424.88	5104.71
425.07	5139.82
425.26	4901.08
425.45	4943.21
425.64	5018.11
425.83	4957.25
426.01	4985.34
426.20	5132.79
426.39	5088.32
426.58	5034.49
426.77	5135.14
426.96	5179.61
427.15	5301.31
427.33	5338.76
427.52	5163.22
427.71	5343.44
427.90	5315.36
428.09	5390.25
428.28	5336.42
428.46	5364.51
428.65	5301.31
428.84	5598.56
429.03	5504.94
429.22	5233.44
429.40	5511.96
429.59	5568.13
429.78	5315.36
429.97	5303.65
430.16	5715.59
430.34	5631.33
430.53	5809.21
430.72	5621.97
430.91	5678.14
431.10	5736.65
431.28	5902.83
431.47	5734.31
431.66	5804.53
431.85	5879.43
432.03	5940.28
432.22	6204.76
432.41	5837.30
432.60	5898.15
432.79	5930.92
432.97	5970.71
433.16	6134.54
433.35	5884.11
433.54	6003.47
433.72	6188.38
433.91	6090.07
434.10	6270.30
434.28	6303.06
434.47	6293.70
434.66	6265.61
434.85	6267.95
435.03	6537.12
435.22	6399.02
435.41	6567.54
435.59	6480.94
435.78	6368.60
435.97	6597.97
436.16	6441.15
436.34	6429.45
436.53	6473.92
436.72	6813.30
436.90	6644.78
437.09	6691.59
437.28	6464.56
437.46	6745.42
437.65	6682.23
437.84	6904.58
438.02	6909.26
438.21	6724.36
438.40	6822.66
438.58	7145.66
438.77	7220.55
438.96	6939.69
439.14	7234.60
439.33	7178.42
439.52	7456.95
439.70	7246.30
439.89	7253.32
440.08	7618.44
440.26	7571.63
440.45	7386.73
440.63	7569.29
440.82	7728.45
441.01	7676.96
441.19	7578.65
441.38	7871.22
441.57	7644.19
441.75	7948.46
441.94	7995.27
442.12	8018.68
442.31	7995.27
442.50	8119.32
442.68	7978.89
442.87	8074.85
443.05	8119.32
443.24	8344.01
443.43	8044.42
443.61	8234.00
443.80	8456.36
443.98	8067.83
444.17	7964.84
444.35	8318.26
444.54	8287.84
444.73	8259.75
444.91	8475.08
445.10	8348.69
445.28	8468.06
445.47	8229.32
445.65	8432.95
445.84	8496.14
446.02	8425.93
446.21	8507.85
446.39	8542.96
446.58	8561.68
446.77	8720.84
446.95	8280.82
447.14	8624.87
447.32	8540.61
447.51	8561.68
447.69	8510.19
447.88	8615.51
448.06	8540.61
448.25	8526.57
448.43	8732.54
448.62	8638.92
448.80	8615.51
448.99	8954.89
449.17	8753.60
449.36	8823.82
449.54	8968.93
449.73	8908.08
449.91	9137.45
450.10	9069.58
450.28	9132.77
450.46	9247.46
450.65	9034.47
450.83	9071.92
451.02	9198.31
451.20	9308.31
451.39	9130.43
451.57	9060.21
451.76	9165.54
451.94	9268.52
452.13	9472.15
452.31	9413.63
452.49	9240.44
452.68	9366.82
452.86	9528.32
453.05	9626.62
453.23	9692.16
453.42	9369.16
453.60	9458.10
453.78	9778.76
453.97	9607.90
454.15	9614.92
454.34	9413.63
454.52	9816.21
454.70	9848.97
454.89	9909.83
455.07	9963.66
455.26	9942.60
455.44	9731.95
455.62	10153.24
455.81	10026.86
455.99	10289.00
456.17	10169.63
456.36	10054.94
456.54	10274.95
456.73	10232.82
456.91	10480.92
457.09	10480.92
457.28	10562.84
457.46	10420.06
457.64	10651.78
457.83	10593.26
458.01	10389.64
458.19	10796.89
458.38	10640.08
458.56	10923.28
458.74	10754.76
458.93	10778.17
459.11	10822.64
459.29	10846.04
459.48	11066.05
459.66	11035.63
459.84	10860.09
460.03	11199.46
460.21	11033.29
460.39	11044.99
460.57	11056.69
460.76	11103.50
460.94	11372.66
461.12	11346.92
461.31	11309.47
461.49	11463.94
461.67	11372.66
461.85	11454.58
462.04	11311.81
462.22	11639.48
462.40	11604.38
462.59	11421.81
462.77	11850.13
462.95	11604.38
463.13	11637.14
463.32	11838.43
463.50	11786.94
463.68	11859.49
463.86	11798.64
464.05	11880.56
464.23	11953.12
464.41	11971.84
464.59	11606.72
464.78	12311.22
464.96	12042.06
465.14	12025.67
465.32	12184.83
465.50	12187.17
465.69	12346.33
465.87	12004.61
466.05	12393.14
466.23	12280.79
466.41	12533.57
466.60	12655.28
466.78	12327.60
466.96	12416.54
467.14	12360.37
467.32	12531.23
467.51	12884.65
467.69	12259.73
467.87	12442.29
468.05	12844.86
468.23	12718.47
468.41	12592.08
468.60	12655.28
468.78	12755.92
468.96	12730.17
469.14	12952.52
469.32	13107.00
469.50	12776.98
469.69	13088.28
469.87	13212.32
470.05	13217.01
470.23	13074.23
470.41	13338.71
470.59	13488.51
470.77	13486.17
470.95	13394.89
471.14	13547.02
471.32	13488.51
471.50	13661.71
471.68	13703.84
471.86	13998.74
472.04	13734.26
472.22	14195.35
472.40	13851.29
472.58	14068.96
472.77	14281.95
472.95	14232.80
473.13	14623.67
473.31	14113.43
473.49	14300.67
473.67	14288.97
473.85	14567.49
474.03	14916.23
474.21	14579.20
474.39	14993.47
474.57	14684.52
474.75	15070.71
474.93	15428.81
475.12	15197.10
475.30	15344.55
475.48	15353.91
475.66	15396.04
475.84	15234.55
476.02	15737.76
476.20	15391.36
476.38	15805.64
476.56	16538.23
476.74	16107.57
476.92	16002.24
477.10	16074.80
477.28	16383.75
477.46	16411.84
477.64	16535.88
477.82	16807.39
478.00	17305.92
478.18	16819.09
478.36	17006.33
478.54	17212.30
478.72	17514.23
478.90	17612.53
479.08	18101.70
479.26	17886.37
479.44	17893.40
479.62	17792.75
479.80	17935.53
479.98	18363.84
480.16	18745.35
480.34	18434.06
480.52	18682.16
480.70	18640.03
480.88	18436.40
481.06	18934.93
481.24	19112.81
481.41	19543.47
481.59	19421.77
481.77	19653.48
481.95	19824.34
482.13	19721.35
482.31	19850.08
482.49	20423.51
482.67	20283.08
482.85	20641.18
483.03	20744.17
483.21	21247.38
483.39	21233.34
483.57	21116.31
483.74	21336.32
483.92	21439.31
484.10	21207.59
484.28	22162.53
484.46	22347.44
484.64	22604.89
484.82	22019.76
485.00	22490.21
485.18	22654.05
485.35	23147.90
485.53	23190.03
485.71	23166.62
485.89	23861.76
486.07	23742.39
486.25	23700.26
486.43	23885.17
486.61	24159.01
486.78	24280.72
486.96	24622.44
487.14	25025.01
487.32	24971.18
487.50	25022.67
487.68	25333.96
487.85	25345.66
488.03	25472.05
488.21	25937.82
488.39	26066.55
488.57	26391.88
488.75	26834.24
488.92	26792.11
489.10	27033.19
489.28	27145.53
489.46	27454.48
489.64	27454.48
489.81	27903.87
489.99	28226.86
490.17	27814.93
490.35	28369.63
490.53	28484.32
490.70	28727.74
490.88	28648.16
491.06	28884.55
491.24	29235.63
491.41	29434.58
491.59	29701.40
491.77	29493.09
491.95	29680.33
492.13	30031.41
492.30	30572.08
492.48	30464.41
492.66	30316.96
492.84	30848.26
493.01	31098.70
493.19	31257.85
493.37	31407.65
493.54	31527.02
493.72	31814.90
493.90	31943.63
494.08	31761.07
494.25	32477.27
494.43	32210.45
494.61	32816.65
494.79	32760.48
494.96	32687.92
495.14	33191.14
495.32	33397.10
495.49	33507.11
495.67	33596.05
495.85	33837.12
496.02	33907.34
496.20	34438.64
496.38	34300.55
496.55	34689.08
496.73	35255.49
496.91	34958.24
497.09	35166.55
497.26	35800.83
497.44	35075.27
497.62	35587.85
497.79	35992.76
497.97	35908.50
498.14	36172.98
498.32	36500.65
498.50	36615.34
498.67	37069.40
498.85	36933.65
499.03	37455.59
499.20	37186.43
499.38	37249.63
499.56	37443.89
499.73	37816.04
499.91	37598.37
500.08	37904.98
500.26	37628.79
500.44	38211.59
500.61	38356.70
500.79	38408.19
500.97	38656.29
501.14	38913.75
501.32	38934.81
501.49	39140.78
501.67	38494.79
501.84	39243.76
502.02	39552.71
502.20	39463.77
502.37	39725.91
502.55	39449.73
502.72	39821.87
502.90	40062.95
503.07	39796.13
503.25	40456.16
503.43	39686.12
503.60	40407.01
503.78	40502.97
503.95	40458.50
504.13	40889.16
504.30	40959.38
504.48	40840.01
504.65	41064.70
504.83	41488.34
505.01	41635.79
505.18	41542.17
505.36	42295.82
505.53	41715.37
505.71	41984.53
505.88	42251.35
506.06	42136.66
506.23	42511.15
506.41	42588.39
506.58	42471.36
506.76	42885.64
506.93	42366.04
507.11	42794.36
507.28	42918.40
507.46	43019.05
507.63	43393.53
507.81	43805.47
507.98	43173.52
508.16	43250.76
508.33	44236.12
508.50	44353.15
508.68	43641.63
508.85	44339.11
509.03	44051.22
509.20	44254.85
509.38	44601.25
509.55	44945.31
509.73	45174.68
509.90	44912.54
510.08	45165.32
510.25	45170.00
510.42	45237.87
510.60	45212.13
510.77	45961.10
510.95	45645.13
511.12	45588.95
511.30	45776.20
511.47	45865.14
511.64	45893.22
511.82	46581.34
511.99	45965.78
512.17	46333.24
512.34	46344.95
512.51	46625.81
512.69	46508.79
512.86	46740.50
513.04	47021.36
513.21	46838.80
513.38	47178.18
513.56	47285.84
513.73	46946.47
513.90	47917.79
514.08	47213.29
514.25	47650.97
514.43	48030.13
514.60	48172.91
514.77	47899.06
514.95	48098.01
515.12	47889.70
515.29	48126.10
515.47	48413.98
515.64	48385.89
515.81	48395.26
515.99	48477.18
516.16	48858.68
516.33	48956.99
516.51	49027.20
516.68	48854.00
516.85	48861.02
517.03	49282.32
517.20	49366.58
517.37	49212.10
517.54	49279.98
517.72	49038.90
517.89	49364.24
518.06	49691.91
518.24	49481.27
518.41	49635.74
518.58	49785.54
518.75	49715.32
518.93	50581.32
519.10	49895.54
519.27	49848.73
519.45	50003.20
519.62	50483.01
519.79	50136.62
519.96	50398.76
520.14	50588.34
520.31	50630.47
520.48	50625.79
520.65	50916.01
520.83	50974.53
521.00	51042.40
521.17	50894.95
521.34	50930.06
521.52	51271.78
521.69	51538.60
521.86	51131.34
522.03	51569.02
522.20	51683.71
522.38	51941.17
522.55	51683.71
522.72	51892.02
522.89	51473.06
523.07	51966.91
523.24	51489.45
523.41	51835.84
523.58	51461.36
523.75	52495.88
523.92	52301.61
524.10	52282.89
524.27	52334.38
524.44	52690.14
524.61	52418.64
524.78	52418.64
524.96	52727.59
525.13	52725.25
525.30	52821.21
525.47	52849.30
525.64	52725.25
525.81	53151.23
525.98	53006.11
526.16	52903.13
526.33	52999.09
526.50	53570.18
526.67	53155.91
526.84	53352.51
527.01	53073.99
527.18	53183.99
527.36	53399.32
527.53	53350.17
527.70	53673.16
527.87	53584.22
528.04	53708.27
528.21	53970.41
528.38	53801.89
528.55	53935.30
528.72	53829.98
528.89	53780.83
529.07	53972.75
529.24	53654.44
529.41	53996.16
529.58	53851.05
529.75	53914.24
529.92	54078.08
530.09	54225.53
530.26	54504.06
530.43	54314.47
530.60	54033.61
530.77	54307.45
530.94	54607.04
531.11	54262.98
531.28	54677.25
531.46	54625.76
531.63	54190.42
531.80	54567.25
531.97	54913.65
532.14	54504.06
532.31	54635.13
532.48	55267.07
532.65	55133.66
532.82	54841.09
532.99	55119.62
533.16	54885.56
533.33	55047.06
533.50	55182.81
533.67	54979.18
533.84	55004.93
534.01	55161.75
534.18	55133.66
534.35	55590.06
534.52	55393.46
534.69	55587.72
534.86	55501.12
535.03	55334.95
535.20	55412.18
535.37	55749.22
535.54	55519.85
535.71	55599.43
535.88	55620.49
536.05	55880.29
536.22	55929.44
536.38	55910.72
536.55	55730.50
536.72	55959.87
536.89	56032.42
537.06	55980.93
537.23	55999.66
537.40	55852.20
537.57	56243.07
537.74	56030.08
537.91	56083.92
538.08	56116.68
538.25	56121.37
538.42	56214.99
538.59	56341.38
538.75	56165.84
538.92	56420.95
539.09	56545.00
539.26	56402.23
539.43	56535.64
539.60	56657.35
539.77	56486.49
539.94	56762.67
540.11	56601.18
540.28	56732.25
540.44	56797.78
540.61	56626.92
540.78	56617.56
540.95	56879.70
541.12	56685.43
541.29	56624.58
541.46	56809.48
541.62	56989.70
541.79	56919.49
541.96	56774.37
542.13	56851.61
542.30	56966.30
542.47	57134.82
542.63	57069.28
542.80	57111.41
542.97	57256.53
543.14	57464.83
543.31	57478.88
543.48	57371.21
543.64	57750.38
543.81	57558.45
543.98	57703.57
544.15	57556.11
544.32	57626.33
544.48	57659.10
544.65	57645.05
544.82	57556.11
544.99	57359.51
545.16	57778.46
545.32	57567.82
545.49	57918.90
545.66	58110.82
545.83	58045.29
546.00	57970.39
546.16	57907.19
546.33	57846.34
546.50	58035.92
546.67	58188.06
546.83	57675.48
547.00	57909.53
547.17	58204.44
547.34	57874.43
547.50	58185.72
547.67	58225.51
547.84	58277.00
548.00	58471.26
548.17	58328.49
548.34	58450.20
548.51	58447.86
548.67	58447.86
548.84	58417.43
549.01	58328.49
549.18	58288.70
549.34	58351.90
549.51	58534.46
549.68	58827.02
549.84	58695.95
550.01	58672.55
550.18	58548.50
550.34	58747.45
550.51	58766.17
550.68	58695.95
550.84	58398.71
551.01	59084.48
551.18	58712.34
551.34	58777.87
551.51	58852.77
551.68	58904.26
551.84	58733.40
552.01	58665.53
552.18	59018.95
552.34	58822.34
552.51	59018.95
552.68	58808.30
552.84	58782.55
553.01	59175.76
553.18	59105.55
553.34	59143.00
553.51	58969.80
553.67	58969.80
553.84	59217.89
554.01	59210.87
554.17	59395.77
554.34	59234.28
554.51	59044.69
554.67	59295.13
554.84	59203.85
555.00	59231.94
555.17	59192.15
555.33	59454.29
555.50	59168.74
555.67	59341.94
555.83	59253.00
556.00	59360.67
556.16	59648.55
556.33	59421.52
556.50	59456.63
556.66	59845.16
556.83	59442.59
556.99	59793.67
557.16	59896.65
557.32	59831.11
557.49	59814.73
557.65	59440.24
557.82	59468.33
557.98	59538.55
558.15	59728.13
558.32	59641.53
558.48	59566.63
558.65	59676.64
558.81	59643.87
558.98	59833.46
559.14	59824.09
559.31	59957.50
559.47	59931.76
559.64	59781.96
559.80	59994.95
559.97	59924.74
560.13	59730.47
560.30	60044.10
560.46	59959.84
560.63	59964.52
560.79	60114.32
560.96	60004.31
561.12	60306.24
561.29	60257.09
561.45	60053.47
561.61	60212.62
561.78	60090.91
561.94	60023.04
562.11	60053.47
562.27	60210.28
562.44	60189.22
562.60	60214.96
562.77	60238.37
562.93	60074.53
563.10	60294.54
563.26	60025.38
563.42	60544.98
563.59	60257.09
563.75	60357.74
563.92	60336.67
564.08	60123.68
564.24	60299.22
564.41	60484.12
564.57	60430.29
564.74	60383.48
564.90	60367.10
565.07	60343.69
565.23	60289.86
565.39	60467.74
565.56	60629.24
565.72	60537.96
565.88	60350.71
566.05	60388.16
566.21	60561.36
566.38	60369.44
566.54	60523.91
566.70	60437.31
566.87	60547.32
567.03	60418.59
567.19	60673.71
567.36	60556.68
567.52	60636.26
567.68	60741.58
567.85	60647.96
568.01	60608.17
568.17	60449.02
568.34	60774.35
568.50	60460.72
568.66	60549.66
568.83	60687.75
568.99	60617.53
569.15	60692.43
569.32	60566.04
569.48	60645.62
569.64	60844.57
569.81	60528.59
569.97	60537.96
570.13	60683.07
570.30	60816.48
570.46	60619.88
570.62	60917.12
570.78	60893.72
570.95	60793.07
571.11	60708.82
571.27	60757.97
571.43	60795.42
571.60	60992.02
571.76	60652.64
571.92	60952.23
572.09	60750.94
572.25	60802.44
572.41	60701.79
572.57	60963.93
572.74	61041.17
572.90	60891.38
573.06	60896.06
573.22	60760.31
573.38	60823.50
573.55	60650.30
573.71	60903.08
573.87	60999.04
574.03	60690.09
574.20	61013.08
574.36	60940.53
574.52	60879.67
574.68	60921.80
574.84	61057.56
575.01	60940.53
575.17	60985.00
575.33	60886.70
575.49	61001.38
575.65	61038.83
575.82	61165.22
575.98	61097.34
576.14	61289.27
576.30	61104.37
576.46	61001.38
576.62	61034.15
576.79	60954.57
576.95	60825.84
577.11	61111.39
577.27	60963.93
577.43	61057.56
577.59	60985.00
577.75	61008.40
577.92	60823.50
578.08	61073.94
578.24	61195.65
578.40	61202.67
578.56	61125.43
578.72	61176.92
578.88	61010.74
579.04	61293.95
579.21	61015.43
579.37	61324.38
579.53	61293.95
579.69	60896.06
579.85	61104.37
580.01	61249.48
580.17	60884.36
580.33	61043.51
580.49	61235.44
580.65	61104.37
580.82	61153.52
580.98	61209.69
581.14	61212.03
581.30	61233.10
581.46	61169.90
581.62	61240.12
581.78	61080.96
581.94	61017.77
582.10	61338.42
582.26	61165.22
582.42	60933.51
582.58	61268.20
582.74	61013.08
582.90	61247.14
583.06	61272.88
583.22	60954.57
583.38	61188.63
583.54	61275.22
583.70	61207.35
583.86	61193.31
584.02	61055.21
584.18	61303.31
584.34	61228.41
584.50	61282.25
584.66	61120.75
584.82	60970.96
584.98	61279.91
585.14	61041.17
585.30	61095.00
585.46	61286.93
585.62	61293.95
585.78	61450.77
585.94	61146.50
586.10	61202.67
586.26	61181.60
586.42	61345.44
586.58	61268.20
586.74	61291.61
586.90	61247.14
587.06	61118.41
587.22	61450.77
587.38	61120.75
587.54	61460.13
587.70	61661.41
587.86	61350.12
588.02	61172.24
588.18	61418.00
588.34	61286.93
588.49	61261.18
