SpectraSuite Data File
++++++++++++++++++++++++++++++++++++
Date: Fri Oct 25 10:47:51 EDT 2013
User: price-jones
Dark Spectrum Present: No
Reference Spectrum Present: No
Number of Sampled Component Spectra: 1
Spectrometers: USB2+H05261
Integration Time (usec): 100000 (USB2+H05261)
Spectra Averaged: 1 (USB2+H05261)
Boxcar Smoothing: 0 (USB2+H05261)
Correct for Electrical Dark: No (USB2+H05261)
Strobe/Lamp Enabled: No (USB2+H05261)
Correct for Detector Non-linearity: No (USB2+H05261)
Correct for Stray Light: No (USB2+H05261)
Number of Pixels in Processed Spectrum: 2048
>>>>>Begin Processed Spectral Data<<<<<
365.73	182.56
365.92	182.56
366.12	182.56
366.32	119.37
366.52	60.85
366.72	39.79
366.91	0.00
367.11	124.05
367.31	77.24
367.51	72.56
367.70	28.09
367.90	32.77
368.10	0.00
368.30	56.17
368.49	30.43
368.69	112.35
368.89	28.09
369.09	37.45
369.28	7.02
369.48	39.79
369.68	58.51
369.87	42.13
370.07	107.66
370.27	180.22
370.47	156.82
370.66	393.21
370.86	379.17
371.06	454.06
371.25	470.45
371.45	465.77
371.65	484.49
371.84	486.83
372.04	479.81
372.24	514.92
372.44	514.92
372.63	468.11
372.83	493.85
373.03	475.13
373.22	489.17
373.42	550.03
373.62	531.30
373.81	521.94
374.01	517.26
374.21	486.83
374.40	475.13
374.60	566.41
374.79	557.05
374.99	592.16
375.19	561.73
375.38	561.73
375.58	575.77
375.78	557.05
375.97	564.07
376.17	653.01
376.37	538.32
376.56	585.13
376.76	538.32
376.95	489.17
377.15	592.16
377.35	617.90
377.54	573.43
377.74	645.99
377.93	638.97
378.13	624.92
378.33	592.16
378.52	601.52
378.72	561.73
378.91	603.86
379.11	648.33
379.31	564.07
379.50	606.20
379.70	688.12
379.89	702.16
380.09	634.29
380.28	638.97
380.48	603.86
380.68	730.25
380.87	664.71
381.07	636.63
381.26	727.91
381.46	622.58
381.65	688.12
381.85	653.01
382.04	660.03
382.24	678.76
382.43	650.67
382.63	697.48
382.83	674.07
383.02	678.76
383.22	627.26
383.41	655.35
383.61	727.91
383.80	763.01
384.00	777.06
384.19	697.48
384.39	720.88
384.58	678.76
384.78	751.31
384.97	730.25
385.17	697.48
385.36	678.76
385.56	720.88
385.75	730.25
385.95	720.88
386.14	753.65
386.34	856.64
386.53	791.10
386.72	751.31
386.92	936.21
387.11	842.59
387.31	833.23
387.50	730.25
387.70	851.96
387.89	784.08
388.09	863.66
388.28	800.46
388.48	788.76
388.67	905.79
388.86	945.58
389.06	945.58
389.25	985.37
389.45	896.43
389.64	887.06
389.84	854.30
390.03	919.83
390.22	884.72
390.42	903.45
390.61	943.24
390.81	905.79
391.00	983.02
391.19	966.64
391.39	931.53
391.58	1076.65
391.78	978.34
391.97	947.92
392.16	959.62
392.36	1004.09
392.55	961.96
392.75	915.15
392.94	912.81
393.13	926.85
393.33	983.02
393.52	1004.09
393.71	957.28
393.91	980.68
394.10	957.28
394.29	1015.79
394.49	1011.11
394.68	1062.60
394.88	1078.99
395.07	1219.42
395.26	1158.57
395.46	1151.54
395.65	1153.88
395.84	1137.50
396.04	1172.61
396.23	1034.52
396.42	1055.58
396.62	1165.59
396.81	1125.80
397.00	1093.03
397.19	1172.61
397.39	1188.99
397.58	1217.08
397.77	1224.10
397.97	1299.00
398.16	1219.42
398.35	1256.87
398.55	1313.04
398.74	1221.76
398.93	1273.25
399.12	1315.38
399.32	1486.24
399.51	1313.04
399.70	1397.30
399.90	1364.53
400.09	1376.24
400.28	1430.07
400.47	1371.55
400.67	1385.60
400.86	1528.37
401.05	1514.33
401.24	1387.94
401.44	1437.09
401.63	1458.15
401.82	1500.28
402.01	1542.41
402.21	1509.65
402.40	1540.07
402.59	1394.96
402.78	1610.29
402.97	1570.50
403.17	1575.18
403.36	1579.86
403.55	1685.19
403.74	1661.78
403.93	1638.38
404.13	1643.06
404.32	1626.67
404.51	1703.91
404.70	1687.53
404.89	1586.88
405.09	1696.89
405.28	1692.21
405.47	1813.92
405.66	1790.51
405.85	1809.23
406.05	1762.42
406.24	1844.34
406.43	1685.19
406.62	1795.19
406.81	1881.79
407.00	1809.23
407.20	1743.70
407.39	1914.56
407.58	1935.62
407.77	1909.88
407.96	1975.41
408.15	1998.82
408.34	1954.35
408.54	2047.97
408.73	2120.53
408.92	1973.07
409.11	2005.84
409.30	2031.58
409.49	2033.93
409.68	2066.69
409.87	2005.84
410.07	2012.86
410.26	2031.58
410.45	2099.46
410.64	2162.66
410.83	2202.44
411.02	2195.42
411.21	2415.43
411.40	2286.70
411.59	2307.77
411.78	2331.17
411.98	2179.04
412.17	2342.88
412.36	2424.80
412.55	2392.03
412.74	2530.12
412.93	2462.24
413.12	2562.89
413.31	2537.14
413.50	2532.46
413.69	2436.50
413.88	2544.16
414.07	2499.69
414.26	2614.38
414.45	2583.95
414.64	2609.70
414.83	2616.72
415.02	2715.02
415.22	2693.96
415.41	2754.81
415.60	2705.66
415.79	2986.52
415.98	2909.29
416.17	2991.20
416.36	2895.24
416.55	2771.19
416.74	2911.63
416.93	3012.27
417.12	3016.95
417.31	2970.14
417.50	3082.49
417.69	2986.52
417.88	3265.05
418.07	2916.31
418.26	3098.87
418.45	3019.29
418.64	3220.58
418.83	3204.19
419.02	3045.04
419.21	3185.47
419.39	3232.28
419.58	3145.68
419.77	3194.83
419.96	3206.53
420.15	3248.66
420.34	3297.81
420.53	3251.00
420.72	3295.47
420.91	3267.39
421.10	3283.77
421.29	3524.85
421.48	3356.33
421.67	3471.01
421.86	3454.63
422.05	3405.48
422.24	3295.47
422.43	3375.05
422.61	3492.08
422.80	3541.23
422.99	3562.30
423.18	3674.64
423.37	3613.79
423.56	3552.93
423.75	3581.02
423.94	3452.29
424.13	3321.22
424.32	3473.36
424.50	3520.17
424.69	3644.21
424.88	3574.00
425.07	3506.12
425.26	3492.08
425.45	3485.06
425.64	3424.20
425.83	3527.19
426.01	3691.02
426.20	3672.30
426.39	3695.71
426.58	3641.87
426.77	3662.94
426.96	3700.39
427.15	3618.47
427.33	3686.34
427.52	3768.26
427.71	3609.11
427.90	3756.56
428.09	3819.75
428.28	3590.38
428.46	3894.65
428.65	3693.37
428.84	3864.22
429.03	3875.93
429.22	3716.77
429.40	3838.48
429.59	3794.01
429.78	3698.05
429.97	3620.81
430.16	3672.30
430.34	3775.28
430.53	3908.69
430.72	3913.38
430.91	3999.98
431.10	3798.69
431.28	4072.53
431.47	4194.24
431.66	4231.69
431.85	4105.30
432.03	4098.28
432.22	4278.50
432.41	4287.86
432.60	4166.15
432.79	4051.47
432.97	4112.32
433.16	4163.81
433.35	4269.14
433.54	4329.99
433.72	4320.63
433.91	4203.60
434.10	4395.53
434.28	4224.67
434.47	4402.55
434.66	4346.37
434.85	4442.34
435.03	4596.81
435.22	4512.55
435.41	4578.09
435.59	4533.62
435.78	4585.11
435.97	4461.06
436.16	4573.41
436.34	4550.00
436.53	4791.08
436.72	4592.13
436.90	4442.34
437.09	4566.39
437.28	4568.73
437.46	4641.28
437.65	4540.64
437.84	4669.37
438.02	4678.73
438.21	4667.03
438.40	4734.90
438.58	4959.60
438.77	4887.04
438.96	4720.86
439.14	5060.24
439.33	5097.69
439.52	5041.51
439.70	5160.88
439.89	4919.81
440.08	5153.86
440.26	5247.48
440.45	5303.65
440.63	5226.42
440.82	5399.62
441.01	5277.91
441.19	5235.78
441.38	5324.72
441.57	5394.93
441.75	5476.85
441.94	5565.79
442.12	5710.91
442.31	5579.84
442.50	5563.45
442.68	5521.32
442.87	5631.33
443.05	5703.89
443.24	5837.30
443.43	5664.10
443.61	5664.10
443.80	5996.45
443.98	5778.78
444.17	5685.16
444.35	5886.45
444.54	5891.13
444.73	5926.24
444.91	5774.10
445.10	5851.34
445.28	5788.14
445.47	5879.43
445.65	5797.51
445.84	5877.09
446.02	6118.16
446.21	5851.34
446.39	5930.92
446.58	5928.58
446.77	6010.50
446.95	5982.41
447.14	5856.02
447.32	6033.90
447.51	6059.65
447.69	6054.97
447.88	5830.27
448.06	5959.00
448.25	6115.82
448.43	5937.94
448.62	5891.13
448.80	5914.53
448.99	6139.23
449.17	6284.34
449.36	6118.16
449.54	6188.38
449.73	6354.55
449.91	6413.07
450.10	6366.26
450.28	6455.20
450.46	6284.34
450.65	6462.22
450.83	6417.75
451.02	6277.32
451.20	6394.34
451.39	6445.84
451.57	6431.79
451.76	6560.52
451.94	6370.94
452.13	6466.90
452.31	6466.90
452.49	6457.54
452.68	6399.02
452.86	6377.96
453.05	6640.10
453.23	6483.28
453.42	6560.52
453.60	6523.07
453.78	6616.69
453.97	6539.46
454.15	6602.65
454.34	6558.18
454.52	6991.18
454.70	6700.95
454.89	6628.40
455.07	6745.42
455.26	6738.40
455.44	6967.77
455.62	7073.10
455.81	6874.15
455.99	6920.96
456.17	7068.42
456.36	7063.74
456.54	7169.06
456.73	7248.64
456.91	7295.45
457.09	7222.89
457.28	7438.22
457.46	7286.09
457.64	7314.17
457.83	7084.80
458.01	7241.62
458.19	7311.83
458.38	7342.26
458.56	7283.75
458.74	7318.86
458.93	7396.09
459.11	7414.82
459.29	7585.68
459.48	7590.36
459.66	7304.81
459.84	7581.00
460.03	7726.11
460.21	7616.10
460.39	7522.48
460.57	7447.58
460.76	7681.64
460.94	7808.03
461.12	7672.28
461.31	7691.00
461.49	7894.63
461.67	7714.41
461.85	8018.68
462.04	7782.28
462.22	8311.24
462.40	7798.66
462.59	7971.86
462.77	7974.21
462.95	8056.12
463.13	7950.80
463.32	8177.83
463.50	8168.47
463.68	8128.68
463.86	8241.03
464.05	8166.13
464.23	8222.30
464.41	8100.59
464.59	8004.63
464.78	8182.51
464.96	8152.09
465.14	8259.75
465.32	8226.98
465.50	8334.65
465.69	8512.53
465.87	8369.76
466.05	8336.99
466.23	8393.16
466.41	8315.92
466.60	8344.01
466.78	8336.99
466.96	8409.54
467.14	8655.30
467.32	8423.59
467.51	8383.80
467.69	8404.86
467.87	8475.08
468.05	8718.50
468.23	8498.49
468.41	8706.79
468.60	8554.66
468.78	8739.56
468.96	8692.75
469.14	8788.71
469.32	8753.60
469.50	8699.77
469.69	8613.17
469.87	9006.38
470.05	9048.51
470.23	9032.13
470.41	8805.10
470.59	8924.46
470.77	9090.64
470.95	9062.55
471.14	9078.94
471.32	9008.72
471.50	9373.85
471.68	9277.88
471.86	9343.42
472.04	9298.95
472.22	9479.17
472.40	9202.99
472.58	9383.21
472.77	9385.55
472.95	9689.82
473.13	9692.16
473.31	9570.45
473.49	9685.14
473.67	9778.76
473.85	9734.29
474.03	9626.62
474.21	9914.51
474.39	10045.58
474.57	9909.83
474.75	10068.98
474.93	10338.15
475.12	10071.33
475.30	10153.24
475.48	10054.94
475.66	10221.12
475.84	10352.19
476.02	10516.03
476.20	10445.81
476.38	10431.77
476.56	10832.00
476.74	10721.99
476.92	10663.48
477.10	11075.42
477.28	11283.72
477.46	11075.42
477.64	11042.65
477.82	11309.47
478.00	11545.86
478.18	11316.49
478.36	11302.45
478.54	11463.94
478.72	11761.19
478.90	11756.51
479.08	11733.11
479.26	11964.82
479.44	11889.92
479.62	12231.64
479.80	12334.62
479.98	12109.93
480.16	12676.34
480.34	12418.88
480.52	12706.77
480.70	12423.56
480.88	12248.02
481.06	12781.67
481.24	12526.55
481.41	13090.62
481.59	13074.23
481.77	13193.60
481.95	13245.09
482.13	13170.19
482.31	13357.44
482.49	13371.48
482.67	13570.43
482.85	13551.70
483.03	13884.06
483.21	13949.59
483.39	14228.12
483.57	14052.58
483.74	14267.91
483.92	14408.34
484.10	14031.51
484.28	14452.81
484.46	14899.85
484.64	14972.41
484.82	14516.00
485.00	14771.12
485.18	14995.81
485.35	15171.35
485.53	15147.95
485.71	14949.00
485.89	15222.84
486.07	15126.88
486.25	15147.95
486.43	15447.54
486.61	15536.48
486.78	15875.85
486.96	15906.28
487.14	16322.90
487.32	16252.68
487.50	16456.31
487.68	16493.76
487.85	16561.63
488.03	16865.90
488.21	17207.62
488.39	17202.94
488.57	17287.20
488.75	17301.24
488.92	17116.34
489.10	17525.93
489.28	17895.74
489.46	18178.94
489.64	17734.24
489.81	18022.12
489.99	18436.40
490.17	18167.24
490.35	18733.65
490.53	18527.68
490.70	18691.52
490.88	18904.51
491.06	18831.95
491.24	18991.11
491.41	19154.94
491.59	19138.56
491.77	19325.80
491.95	19147.92
492.13	19569.22
492.30	19873.49
492.48	19819.66
492.66	19969.45
492.84	20144.99
493.01	20266.70
493.19	20163.72
493.37	20528.84
493.54	20262.02
493.72	20704.38
493.90	20695.02
494.08	21205.25
494.25	21458.03
494.43	21418.24
494.61	21106.95
494.79	21706.13
494.96	21331.64
495.14	21678.04
495.32	21635.91
495.49	21603.14
495.67	21869.97
495.85	22190.62
496.02	22602.55
496.20	22338.07
496.38	22363.82
496.55	22710.22
496.73	22895.12
496.91	22441.06
497.09	22665.75
497.26	23044.91
497.44	23171.30
497.62	23173.64
497.79	23096.41
497.97	23449.83
498.14	23283.65
498.32	23747.08
498.50	23723.67
498.67	24332.21
498.85	24056.03
499.03	23866.44
499.20	23885.17
499.38	23967.09
499.56	24119.22
499.73	24126.24
499.91	24254.97
500.08	24606.05
500.26	24247.95
500.44	24889.26
500.61	24732.44
500.79	24517.11
500.97	25078.84
501.14	25434.60
501.32	25355.02
501.49	25146.72
501.67	24968.84
501.84	25336.30
502.02	25556.31
502.20	25565.67
502.37	25745.89
502.55	25645.25
502.72	26228.04
502.90	25830.15
503.07	25762.28
503.25	26068.89
503.43	26103.99
503.60	26139.10
503.78	26251.45
503.95	26178.89
504.13	26576.78
504.30	26391.88
504.48	26576.78
504.65	26572.10
504.83	26710.19
505.01	26977.01
505.18	27154.90
505.36	27309.37
505.53	27283.62
505.71	27538.74
505.88	27180.64
506.06	27503.64
506.23	27351.50
506.41	27119.79
506.58	27211.07
506.76	27295.33
506.93	27702.58
507.11	27690.88
507.28	27686.20
507.46	28109.83
507.63	28037.28
507.81	28224.52
507.98	27929.61
508.16	28034.94
508.33	28549.85
508.50	28655.18
508.68	28421.13
508.85	29029.66
509.03	28442.19
509.20	28851.78
509.38	29340.96
509.55	29032.00
509.73	29167.76
509.90	29355.00
510.08	29053.07
510.25	29575.01
510.42	29408.83
510.60	29385.43
510.77	29551.60
510.95	29816.08
511.12	29668.63
511.30	29797.36
511.47	30082.91
511.64	29890.98
511.82	30181.21
511.99	29558.63
512.17	29998.65
512.34	30110.99
512.51	30438.67
512.69	30422.28
512.86	30635.27
513.04	30675.06
513.21	30335.68
513.38	30473.78
513.56	30625.91
513.73	30590.80
513.90	31094.02
514.08	31091.68
514.25	30972.31
514.43	31087.00
514.60	30864.64
514.77	30946.56
514.95	31505.95
515.12	31023.80
515.29	31012.10
515.47	31267.22
515.64	31866.39
515.81	31908.52
515.99	31241.47
516.16	31379.56
516.33	31466.16
516.51	31676.81
516.68	31644.04
516.85	31639.36
517.03	31768.09
517.20	31967.04
517.37	31908.52
517.54	32320.46
517.72	32357.91
517.89	32470.25
518.06	31868.73
518.24	32402.38
518.41	32046.62
518.58	32371.95
518.75	32524.08
518.93	32746.44
519.10	33221.56
519.27	32952.40
519.45	33034.32
519.62	33003.89
519.79	33537.54
519.96	33230.93
520.14	33474.34
520.31	32975.81
520.48	33544.56
520.65	33340.93
520.83	33457.96
521.00	33888.62
521.17	34005.64
521.34	33647.54
521.52	33919.04
521.69	33883.94
521.86	33881.60
522.03	33982.24
522.20	34501.84
522.38	34260.76
522.55	34199.91
522.72	34059.48
522.89	34342.68
523.07	34426.94
523.24	34206.93
523.41	34546.31
523.58	34546.31
523.75	34941.86
523.92	34534.60
524.10	34782.70
524.27	34958.24
524.44	34855.26
524.61	34923.13
524.78	35496.56
524.96	35026.12
525.13	35323.36
525.30	35250.81
525.47	35662.74
525.64	35482.52
525.81	35225.06
525.98	35288.26
526.16	35122.08
526.33	34890.37
526.50	35824.24
526.67	35339.75
526.84	35777.43
527.01	35538.69
527.18	35611.25
527.36	35978.72
527.53	35807.86
527.70	36151.91
527.87	36510.02
528.04	36514.70
528.21	35974.03
528.38	36041.91
528.55	36503.00
528.72	36362.56
528.89	36690.24
529.07	36844.71
529.24	36259.58
529.41	36409.37
529.58	36570.87
529.75	36706.62
529.92	36535.76
530.09	36622.36
530.26	36933.65
530.43	37001.53
530.60	37076.43
530.77	36999.19
530.94	37153.66
531.11	37233.24
531.28	37134.94
531.46	37347.93
531.63	37408.78
531.80	37469.64
531.97	37258.99
532.14	37188.77
532.31	37368.99
532.48	37502.40
532.65	37792.63
532.82	37813.70
532.99	37614.75
533.16	37736.46
533.33	37567.94
533.50	38153.07
533.67	37846.46
533.84	37406.44
534.01	37706.03
534.18	38047.75
534.35	37703.69
534.52	38352.02
534.69	38218.61
534.86	38462.02
535.03	37919.02
535.20	39065.88
535.37	38373.08
535.54	38909.07
535.71	38440.96
535.88	38417.55
536.05	38689.06
536.22	38829.49
536.38	38660.97
536.55	38553.30
536.72	38572.03
536.89	38363.72
537.06	38569.69
537.23	39040.14
537.40	38230.31
537.57	38792.04
537.74	38873.96
537.91	39475.48
538.08	39089.29
538.25	38635.22
538.42	39100.99
538.59	39096.31
538.75	38787.36
538.92	39262.49
539.09	39030.77
539.26	39484.84
539.43	39332.70
539.60	39229.72
539.77	39281.21
539.94	39800.81
540.11	39512.92
540.28	39119.71
540.44	39407.60
540.61	39335.04
540.78	39342.06
540.95	39129.08
541.12	39580.80
541.29	39255.46
541.46	39529.31
541.62	39576.12
541.79	40484.25
541.96	39620.59
542.13	39541.01
542.30	39992.73
542.47	39704.85
542.63	39924.86
542.80	40011.46
542.97	40521.69
543.14	40446.80
543.31	40346.15
543.48	40367.22
543.64	40889.16
543.81	40594.25
543.98	40620.00
544.15	40416.37
544.32	40697.24
544.48	41109.17
544.65	41244.92
544.82	40435.10
544.99	40439.78
545.16	40498.29
545.32	40685.53
545.49	41312.80
545.66	40891.50
545.83	40928.95
546.00	41170.02
546.16	41467.27
546.33	40734.68
546.50	40519.35
546.67	41219.17
546.83	40774.47
547.00	41298.75
547.17	41521.10
547.34	41223.86
547.50	41209.81
547.67	41439.18
547.84	41123.21
548.00	41521.10
548.17	41689.62
548.34	41502.38
548.51	41755.16
548.67	42078.15
548.84	42223.26
549.01	41773.88
549.18	41579.62
549.34	41769.20
549.51	41677.92
549.68	42007.94
549.84	42059.43
550.01	42082.83
550.18	42073.47
550.34	41944.74
550.51	41780.90
550.68	41940.06
550.84	41993.89
551.01	42227.95
551.18	42206.88
551.34	41930.70
551.51	42087.51
551.68	42012.62
551.84	42099.22
552.01	42012.62
552.18	42445.62
552.34	42139.00
552.51	42555.62
552.68	42412.85
552.84	42485.40
553.01	43019.05
553.18	42401.14
553.34	42480.72
553.51	42464.34
553.67	42719.46
553.84	42754.57
554.01	42869.25
554.17	43049.47
554.34	43178.20
554.51	42728.82
554.67	43103.31
554.84	42799.04
555.00	42469.02
555.17	42810.74
555.33	42724.14
555.50	42513.49
555.67	42759.25
555.83	42768.61
556.00	43058.84
556.16	43662.69
556.33	43159.48
556.50	42993.30
556.66	43430.98
556.83	42986.28
556.99	43325.66
557.16	43225.01
557.32	43297.57
557.49	43508.22
557.65	42546.26
557.82	42728.82
557.98	42909.04
558.15	43756.32
558.32	43459.07
558.48	43335.02
558.65	43330.34
558.81	43260.12
558.98	43281.19
559.14	43283.53
559.31	43086.92
559.47	43283.53
559.64	43768.02
559.80	43473.11
559.97	43498.86
560.13	43526.94
560.30	43597.16
560.46	43590.14
560.63	43225.01
560.79	43784.40
560.96	43543.33
561.12	43379.49
561.29	43697.80
561.45	43777.38
561.61	43913.13
561.78	43971.64
561.94	43452.05
562.11	43873.34
562.27	43573.75
562.44	43456.73
562.60	43646.31
562.77	43899.09
562.93	43981.01
563.10	43992.71
563.26	43365.45
563.42	44287.62
563.59	43718.87
563.75	43597.16
563.92	44142.50
564.08	43978.67
564.24	43704.82
564.41	43959.94
564.57	44095.69
564.74	43908.45
564.90	44060.58
565.07	43824.19
565.23	44285.28
565.39	43728.23
565.56	44217.40
565.72	43978.67
565.88	43838.23
566.05	43962.28
566.21	43849.94
566.38	43966.96
566.54	44486.56
566.70	43962.28
566.87	44079.31
567.03	43988.03
567.19	44472.52
567.36	43875.68
567.52	44023.14
567.68	44392.94
567.85	44006.75
568.01	44538.05
568.17	44133.14
568.34	44343.79
568.50	43938.88
568.66	44046.54
568.83	43810.15
568.99	44163.57
569.15	44399.96
569.32	44224.42
569.48	43929.51
569.64	44364.85
569.81	44474.86
569.97	43770.36
570.13	44645.72
570.30	44046.54
570.46	44608.27
570.62	43983.35
570.78	44500.61
570.95	44198.68
571.11	44355.49
571.27	44032.50
571.43	44488.90
571.60	44402.30
571.76	44722.96
571.92	44313.36
572.09	44151.87
572.25	44341.45
572.41	44212.72
572.57	44577.84
572.74	45041.27
572.90	44465.50
573.06	44502.95
573.22	44683.17
573.38	44308.68
573.55	44402.30
573.71	44741.68
573.87	44306.34
574.03	44322.72
574.20	44383.58
574.36	44332.09
574.52	44835.30
574.68	44430.39
574.84	44563.80
575.01	44268.89
575.17	44854.03
575.33	44535.71
575.49	44088.67
575.65	44406.98
575.82	44673.81
575.98	44371.88
576.14	44701.89
576.30	44414.01
576.46	43779.72
576.62	44257.19
576.79	44023.14
576.95	44243.15
577.11	44753.38
577.27	44182.29
577.43	44343.79
577.59	44472.52
577.75	44825.94
577.92	44018.46
578.08	44294.64
578.24	44350.81
578.40	44329.75
578.56	44603.59
578.72	44669.12
578.88	45139.57
579.04	44500.61
579.21	44673.81
579.37	44327.41
579.53	44137.82
579.69	43789.08
579.85	44652.74
580.01	44615.29
580.17	44631.68
580.33	45036.59
580.49	44814.24
580.65	44664.44
580.82	44690.19
580.98	44589.55
581.14	44619.97
581.30	44296.98
581.46	44589.55
581.62	44680.83
581.78	44500.61
581.94	45200.43
582.10	44959.35
582.26	44889.13
582.42	44821.26
582.58	44397.62
582.74	44664.44
582.90	44842.32
583.06	45048.29
583.22	44942.97
583.38	44793.17
583.54	44851.69
583.70	44652.74
583.86	44449.11
584.02	44758.06
584.18	44947.65
584.34	45226.17
584.50	44786.15
584.66	44999.14
584.82	44570.82
584.98	45336.18
585.14	44800.19
585.30	44556.78
585.46	44975.73
585.62	44383.58
585.78	44961.69
585.94	44245.49
586.10	44568.48
586.26	44847.00
586.42	44783.81
586.58	45081.06
586.74	45090.42
586.90	44804.88
587.06	44582.52
587.22	44912.54
587.38	44659.76
587.54	45116.17
587.70	44751.04
587.86	44751.04
588.02	44868.07
588.18	45186.38
588.34	44669.12
588.49	44889.13
588.65	44332.09
588.81	44332.09
588.97	44271.23
589.13	44643.38
589.29	44549.76
589.45	44814.24
589.61	44844.66
589.77	45130.21
589.93	44942.97
590.08	45059.99
590.24	44980.42
