SpectraSuite Data File
++++++++++++++++++++++++++++++++++++
Date: Fri Oct 25 10:44:51 EDT 2013
User: price-jones
Dark Spectrum Present: No
Reference Spectrum Present: No
Number of Sampled Component Spectra: 1
Spectrometers: USB2+H05261
Integration Time (usec): 100000 (USB2+H05261)
Spectra Averaged: 1 (USB2+H05261)
Boxcar Smoothing: 0 (USB2+H05261)
Correct for Electrical Dark: No (USB2+H05261)
Strobe/Lamp Enabled: No (USB2+H05261)
Correct for Detector Non-linearity: No (USB2+H05261)
Correct for Stray Light: No (USB2+H05261)
Number of Pixels in Processed Spectrum: 2048
>>>>>Begin Processed Spectral Data<<<<<
365.73	159.16
365.92	159.16
366.12	159.16
366.32	56.17
366.52	102.98
366.72	81.92
366.91	65.54
367.11	63.19
367.31	42.13
367.51	4.68
367.70	0.00
367.90	51.49
368.10	0.00
368.30	7.02
368.49	0.00
368.69	79.58
368.89	4.68
369.09	114.69
369.28	28.09
369.48	0.00
369.68	81.92
369.87	98.30
370.07	74.90
370.27	189.58
370.47	189.58
370.66	362.78
370.86	337.04
371.06	491.51
371.25	409.59
371.45	393.21
371.65	397.89
371.84	358.10
372.04	468.11
372.24	514.92
372.44	479.81
372.63	503.22
372.83	447.04
373.03	435.34
373.22	505.56
373.42	407.25
373.62	521.94
373.81	503.22
374.01	519.60
374.21	575.77
374.40	524.28
374.60	538.32
374.79	484.49
374.99	622.58
375.19	585.13
375.38	596.84
375.58	575.77
375.78	634.29
375.97	566.41
376.17	617.90
376.37	552.37
376.56	575.77
376.76	566.41
376.95	491.51
377.15	557.05
377.35	645.99
377.54	627.26
377.74	557.05
377.93	545.34
378.13	620.24
378.33	582.79
378.52	589.82
378.72	629.60
378.91	683.44
379.11	660.03
379.31	582.79
379.50	608.54
379.70	638.97
379.89	667.05
380.09	638.97
380.28	613.22
380.48	631.94
380.68	603.86
380.87	629.60
381.07	585.13
381.26	709.18
381.46	636.63
381.65	638.97
381.85	664.71
382.04	704.50
382.24	732.59
382.43	734.93
382.63	627.26
382.83	697.48
383.02	685.78
383.22	737.27
383.41	631.94
383.61	732.59
383.80	788.76
384.00	723.23
384.19	725.57
384.39	716.20
384.58	718.54
384.78	786.42
384.97	671.73
385.17	772.38
385.36	763.01
385.56	741.95
385.75	725.57
385.95	753.65
386.14	753.65
386.34	662.37
386.53	751.31
386.72	882.38
386.92	858.98
387.11	873.02
387.31	858.98
387.50	880.04
387.70	758.33
387.89	807.48
388.09	758.33
388.28	851.96
388.48	931.53
388.67	863.66
388.86	856.64
389.06	870.68
389.25	954.94
389.45	875.36
389.64	781.74
389.84	889.40
390.03	873.02
390.22	940.90
390.42	889.40
390.61	894.08
390.81	894.08
391.00	908.13
391.19	933.87
391.39	926.85
391.58	980.68
391.78	1041.54
391.97	945.58
392.16	940.90
392.36	947.92
392.55	971.32
392.75	950.26
392.94	910.47
393.13	1006.43
393.33	1043.88
393.52	1020.47
393.71	1057.92
393.91	1050.90
394.10	1025.15
394.29	1008.77
394.49	1109.41
394.68	1083.67
394.88	1069.62
395.07	1041.54
395.26	1095.37
395.46	1132.82
395.65	1186.65
395.84	1086.01
396.04	1186.65
396.23	1123.46
396.42	1102.39
396.62	1064.94
396.81	1102.39
397.00	1149.20
397.19	1163.25
397.39	1231.12
397.58	1254.53
397.77	1233.46
397.97	1256.87
398.16	1254.53
398.35	1186.65
398.55	1273.25
398.74	1289.64
398.93	1366.87
399.12	1352.83
399.32	1289.64
399.51	1231.12
399.70	1331.76
399.90	1357.51
400.09	1448.79
400.28	1380.92
400.47	1495.60
400.67	1451.13
400.86	1420.71
401.05	1352.83
401.24	1540.07
401.44	1511.99
401.63	1568.16
401.82	1493.26
402.01	1493.26
402.21	1469.86
402.40	1537.73
402.59	1612.63
402.78	1542.41
402.97	1614.97
403.17	1593.90
403.36	1530.71
403.55	1589.22
403.74	1764.76
403.93	1645.40
404.13	1631.35
404.32	1687.53
404.51	1657.10
404.70	1675.82
404.89	1741.36
405.09	1743.70
405.28	1797.53
405.47	1699.23
405.66	1788.17
405.85	1820.94
406.05	1708.59
406.24	1715.61
406.43	1818.60
406.62	1837.32
406.81	1809.23
407.00	1816.26
407.20	1832.64
407.39	1778.81
407.58	1858.39
407.77	2001.16
407.96	1961.37
408.15	1926.26
408.34	2022.22
408.54	2078.40
408.73	2012.86
408.92	1998.82
409.11	2026.90
409.30	2129.89
409.49	2097.12
409.68	1970.73
409.87	2073.71
410.07	2019.88
410.26	2003.50
410.45	2148.61
410.64	2090.10
410.83	2059.67
411.02	2183.72
411.21	2251.60
411.40	2253.94
411.59	2246.91
411.78	2319.47
411.98	2249.25
412.17	2338.20
412.36	2370.96
412.55	2473.95
412.74	2553.52
412.93	2406.07
413.12	2382.67
413.31	2574.59
413.50	2448.20
413.69	2541.82
413.88	2750.13
414.07	2651.83
414.26	2626.08
414.45	2548.84
414.64	2715.02
414.83	2600.34
415.02	2796.94
415.22	2722.04
415.41	2780.56
415.60	2787.58
415.79	2778.22
415.98	2963.12
416.17	2785.24
416.36	2942.05
416.55	2846.09
416.74	2974.82
416.93	2995.89
417.12	3056.74
417.31	2869.50
417.50	2937.37
417.69	3236.96
417.88	3038.02
418.07	3063.76
418.26	3159.72
418.45	3075.46
418.64	3274.41
418.83	3143.34
419.02	3227.60
419.21	3166.74
419.39	3180.79
419.58	3267.39
419.77	3026.31
419.96	3220.58
420.15	3480.38
420.34	3421.86
420.53	3281.43
420.72	3370.37
420.91	3391.44
421.10	3405.48
421.29	3515.48
421.48	3403.14
421.67	3548.25
421.86	3424.20
422.05	3382.07
422.24	3478.04
422.43	3466.33
422.61	3478.04
422.80	3478.04
422.99	3599.74
423.18	3597.40
423.37	3616.13
423.56	3506.12
423.75	3463.99
423.94	3440.59
424.13	3389.10
424.32	3445.27
424.50	3520.17
424.69	3602.08
424.88	3604.42
425.07	3552.93
425.26	3452.29
425.45	3665.28
425.64	3531.87
425.83	3613.79
426.01	3637.19
426.20	3700.39
426.39	3716.77
426.58	3576.34
426.77	3459.31
426.96	3646.55
427.15	3695.71
427.33	3543.57
427.52	3737.84
427.71	3695.71
427.90	3751.88
428.09	3882.95
428.28	3833.80
428.46	3779.97
428.65	3817.41
428.84	3999.98
429.03	4058.49
429.22	3669.96
429.40	3833.80
429.59	3829.12
429.78	3658.26
429.97	3714.43
430.16	3826.78
430.34	3789.33
430.53	3920.40
430.72	3892.31
430.91	3929.76
431.10	3873.59
431.28	3988.27
431.47	4065.51
431.66	4194.24
431.85	4002.32
432.03	4210.62
432.22	4262.12
432.41	4212.96
432.60	4229.35
432.79	4217.65
432.97	4227.01
433.16	4248.07
433.35	4231.69
433.54	4205.94
433.72	4262.12
433.91	4308.93
434.10	4329.99
434.28	4353.40
434.47	4447.02
434.66	4423.61
434.85	4505.53
435.03	4524.26
435.22	4512.55
435.41	4767.67
435.59	4552.34
435.78	4709.16
435.97	4711.50
436.16	4648.30
436.34	4585.11
436.53	4550.00
436.72	4795.76
436.90	4629.58
437.09	4692.77
437.28	4697.46
437.46	4671.71
437.65	4784.06
437.84	4716.18
438.02	4681.07
438.21	4901.08
438.40	4688.09
438.58	4875.34
438.77	4894.06
438.96	4873.00
439.14	5011.09
439.33	5109.39
439.52	5011.09
439.70	5060.24
439.89	5060.24
440.08	5186.63
440.26	5146.84
440.45	5205.35
440.63	5226.42
440.82	5364.51
441.01	5235.78
441.19	5511.96
441.38	5392.59
441.57	5610.26
441.75	5504.94
441.94	5528.35
442.12	5699.20
442.31	5881.77
442.50	5682.82
442.68	5692.18
442.87	5600.90
443.05	5881.77
443.24	5851.34
443.43	5724.95
443.61	5846.66
443.80	5860.70
443.98	5792.83
444.17	5540.05
444.35	5928.58
444.54	6066.67
444.73	5898.15
444.91	5846.66
445.10	5823.25
445.28	5755.38
445.47	5762.40
445.65	5877.09
445.84	5944.96
446.02	5891.13
446.21	5923.90
446.39	5891.13
446.58	6078.37
446.77	5984.75
446.95	5937.94
447.14	5947.30
447.32	5989.43
447.51	5919.21
447.69	5884.11
447.88	5902.83
448.06	5959.00
448.25	6024.54
448.43	6059.65
448.62	6064.33
448.80	6071.35
448.99	6300.72
449.17	6064.33
449.36	6129.86
449.54	6342.85
449.73	6228.17
449.91	6406.05
450.10	6368.60
450.28	6413.07
450.46	6434.13
450.65	6516.05
450.83	6424.77
451.02	6616.69
451.20	6487.96
451.39	6490.31
451.57	6457.54
451.76	6630.74
451.94	6420.09
452.13	6506.69
452.31	6544.14
452.49	6401.37
452.68	6487.96
452.86	6497.33
453.05	6693.93
453.23	6499.67
453.42	6719.68
453.60	6602.65
453.78	6640.10
453.97	6635.42
454.15	6619.04
454.34	6518.39
454.52	6829.68
454.70	6640.10
454.89	6764.15
455.07	6773.51
455.26	7021.61
455.44	7033.31
455.62	6761.81
455.81	6904.58
455.99	6953.73
456.17	7005.22
456.36	7096.50
456.54	7049.69
456.73	7194.81
456.91	7281.41
457.09	7190.13
457.28	7396.09
457.46	7173.74
457.64	7288.43
457.83	7243.96
458.01	7211.19
458.19	7588.02
458.38	7513.12
458.56	7480.35
458.74	7576.31
458.93	7351.62
459.11	7485.03
459.29	7595.04
459.48	7625.47
459.66	7536.52
459.84	7536.52
460.03	7726.11
460.21	7723.77
460.39	7686.32
460.57	7756.54
460.76	7639.51
460.94	7705.04
461.12	7833.77
461.31	7761.22
461.49	7859.52
461.67	7939.10
461.85	8156.77
462.04	7929.74
462.22	7985.91
462.40	8098.25
462.59	8187.19
462.77	8049.10
462.95	8002.29
463.13	8042.08
463.32	7992.93
463.50	8105.28
463.68	8182.51
463.86	8173.15
464.05	8184.85
464.23	8030.38
464.41	8100.59
464.59	7939.10
464.78	8276.13
464.96	8266.77
465.14	8025.70
465.32	8367.42
465.50	8222.30
465.69	8339.33
465.87	8400.18
466.05	8383.80
466.23	8374.44
466.41	8318.26
466.60	8601.47
466.78	8147.40
466.96	8461.04
467.14	8477.42
467.32	8344.01
467.51	8566.36
467.69	8484.44
467.87	8737.22
468.05	8690.41
468.23	8557.00
468.41	8386.14
468.60	8690.41
468.78	8741.90
468.96	8795.73
469.14	8786.37
469.32	8978.30
469.50	8683.39
469.69	8765.31
469.87	8772.33
470.05	8615.51
470.23	9057.87
470.41	8842.54
470.59	9193.62
470.77	8938.51
470.95	9057.87
471.14	9057.87
471.32	9053.19
471.50	9390.23
471.68	9509.60
471.86	9373.85
472.04	9291.93
472.22	9516.62
472.40	9385.55
472.58	9444.06
472.77	9504.92
472.95	9437.04
473.13	9998.77
473.31	9710.88
473.49	9451.08
473.67	9682.80
473.85	9734.29
474.03	9994.09
474.21	9935.57
474.39	10080.69
474.57	10050.26
474.75	10193.03
474.93	10279.63
475.12	10097.07
475.30	10160.27
475.48	10281.97
475.66	10085.37
475.84	10176.65
476.02	10429.43
476.20	10644.76
476.38	10679.86
476.56	10857.75
476.74	10911.58
476.92	10939.66
477.10	10726.68
477.28	10932.64
477.46	10934.98
477.64	10984.13
477.82	11257.98
478.00	11426.50
478.18	11311.81
478.36	11382.03
478.54	11620.76
478.72	11779.92
478.90	11569.27
479.08	11892.26
479.26	11894.60
479.44	12004.61
479.62	11978.86
479.80	12147.38
479.98	12166.10
480.16	12428.24
480.34	12489.10
480.52	12451.65
480.70	12498.46
480.88	12395.48
481.06	12662.30
481.24	12592.08
481.41	12837.84
481.59	12903.37
481.77	13177.22
481.95	12912.74
482.13	13378.50
482.31	13331.69
482.49	13642.98
482.67	13626.60
482.85	13738.94
483.03	13944.91
483.21	13998.74
483.39	13884.06
483.57	14036.19
483.74	14223.44
483.92	14398.98
484.10	14195.35
484.28	14590.90
484.46	14822.61
484.64	15012.20
484.82	14520.68
485.00	14911.55
485.18	15080.07
485.35	15250.93
485.53	14958.36
485.71	15103.48
485.89	15487.32
486.07	15154.97
486.25	15232.21
486.43	15569.24
486.61	15953.09
486.78	16013.95
486.96	15981.18
487.14	16187.14
487.32	16159.06
487.50	16505.46
487.68	16460.99
487.85	16994.63
488.03	16985.27
488.21	17207.62
488.39	17111.66
488.57	17453.37
488.75	17380.82
488.92	17315.28
489.10	17811.48
489.28	17869.99
489.46	17813.82
489.64	17998.72
489.81	18504.28
489.99	18504.28
490.17	18443.42
490.35	18712.58
490.53	18625.98
490.70	18827.27
490.88	18740.67
491.06	19126.86
491.24	19192.39
491.41	19126.86
491.59	19028.56
491.77	19213.46
491.95	19538.79
492.13	19445.17
492.30	20219.89
492.48	19419.42
492.66	20018.60
492.84	20432.88
493.01	20357.98
493.19	20112.22
493.37	20528.84
493.54	20678.63
493.72	20868.22
493.90	20634.16
494.08	21109.29
494.25	21074.18
494.43	21303.56
494.61	21310.58
494.79	21593.78
494.96	21310.58
495.14	21617.19
495.32	21979.97
495.49	21982.31
495.67	21991.67
495.85	22293.60
496.02	22106.36
496.20	22370.84
496.38	22672.77
496.55	22684.47
496.73	23140.88
496.91	22740.64
497.09	22979.38
497.26	23063.64
497.44	23023.85
497.62	23536.43
497.79	23342.16
497.97	23527.06
498.14	23702.61
498.32	23840.70
498.50	23569.19
498.67	24112.20
498.85	23812.61
499.03	24116.88
499.20	24020.92
499.38	24325.19
499.56	24049.00
499.73	24762.87
499.91	24500.73
500.08	24643.50
500.26	24629.46
500.44	24678.61
500.61	24989.90
500.79	24730.10
500.97	25167.78
501.14	25303.53
501.32	25120.97
501.49	25027.35
501.67	25188.85
501.84	25450.99
502.02	25202.89
502.20	25820.79
502.37	25865.26
502.55	25905.05
502.72	25790.36
502.90	26312.30
503.07	25813.77
503.25	25940.16
503.43	26033.78
503.60	26380.18
503.78	26260.81
503.95	26333.37
504.13	26419.97
504.30	26422.31
504.48	26434.01
504.65	26749.98
504.83	27044.89
505.01	27332.78
505.18	26998.08
505.36	27264.90
505.53	27716.62
505.71	27676.83
505.88	27402.99
506.06	27353.84
506.23	27550.45
506.41	27435.76
506.58	27435.76
506.76	27702.58
506.93	27754.07
507.11	28025.57
507.28	27953.02
507.46	27999.83
507.63	27765.78
507.81	28435.17
507.98	28156.64
508.16	28018.55
508.33	28627.09
508.50	28758.16
508.68	28683.27
508.85	28891.57
509.03	29039.03
509.20	28879.87
509.38	29359.68
509.55	28931.36
509.73	29034.35
509.90	28959.45
510.08	29273.08
510.25	29092.86
510.42	29179.46
510.60	29886.30
510.77	29474.37
510.95	29764.59
511.12	29645.23
511.30	29673.31
511.47	29968.22
511.64	30174.19
511.82	30192.91
511.99	30338.02
512.17	30029.07
512.34	30347.39
512.51	30338.02
512.69	30941.88
512.86	30717.19
513.04	30588.46
513.21	30532.29
513.38	30670.38
513.56	30274.83
513.73	30735.92
513.90	30527.61
514.08	31068.27
514.25	31175.94
514.43	31323.39
514.60	31009.76
514.77	31374.88
514.95	31117.42
515.12	31386.58
515.29	31576.17
515.47	31880.44
515.64	32060.66
515.81	31791.50
515.99	31580.85
516.16	31885.12
516.33	31644.04
516.51	31859.37
516.68	31311.69
516.85	31688.51
517.03	31604.25
517.20	32077.04
517.37	32163.64
517.54	32173.00
517.72	31955.33
517.89	32175.34
518.06	32032.57
518.24	32240.88
518.41	32149.60
518.58	32563.87
518.75	32847.08
518.93	32851.76
519.10	32760.48
519.27	32779.20
519.45	32748.78
519.62	33179.43
519.79	33031.98
519.96	33165.39
520.14	33612.43
520.31	32945.38
520.48	33661.58
520.65	33167.73
520.83	33757.55
521.00	33469.66
521.17	33752.87
521.34	33886.28
521.52	34197.57
521.69	33837.12
521.86	34066.50
522.03	34005.64
522.20	34235.02
522.38	34326.30
522.55	34536.94
522.72	33858.19
522.89	34043.09
523.07	34623.54
523.24	34099.26
523.41	34696.10
523.58	34490.13
523.75	34944.20
523.92	35093.99
524.10	35211.02
524.27	34829.51
524.44	34969.94
524.61	34796.74
524.78	35548.06
524.96	35367.84
525.13	35732.96
525.30	35868.71
525.47	35742.32
525.64	35473.16
525.81	35985.74
525.98	35360.81
526.16	35250.81
526.33	35346.77
526.50	35351.45
526.67	35800.83
526.84	35716.58
527.01	35519.97
527.18	35428.69
527.36	36084.04
527.53	36271.28
527.70	36168.30
527.87	36226.81
528.04	36205.75
528.21	36074.68
528.38	35990.42
528.55	36484.27
528.72	36282.98
528.89	36238.51
529.07	36858.76
529.24	36643.43
529.41	36519.38
529.58	36465.55
529.75	36594.28
529.92	36737.05
530.09	36800.24
530.26	36598.96
530.43	37177.07
530.60	37081.11
530.77	37081.11
530.94	37535.17
531.11	36648.11
531.28	37668.58
531.46	37060.04
531.63	37479.00
531.80	37282.39
531.97	37303.46
532.14	37027.28
532.31	37345.59
532.48	37368.99
532.65	37457.93
532.82	37687.31
532.99	37839.44
533.16	37516.45
533.33	37904.98
533.50	37851.14
533.67	37755.18
533.84	37809.01
534.01	38195.20
534.18	37670.92
534.35	38216.27
534.52	38373.08
534.69	38267.76
534.86	38485.43
535.03	37989.24
535.20	38976.94
535.37	38684.37
535.54	38880.98
535.71	38384.79
535.88	38476.07
536.05	38277.12
536.22	38707.78
536.38	38361.38
536.55	38653.95
536.72	38658.63
536.89	38382.45
537.06	38113.28
537.23	38782.68
537.40	38738.21
537.57	39152.48
537.74	38855.23
537.91	39058.86
538.08	38941.83
538.25	38785.02
538.42	38543.94
538.59	39122.05
538.75	39033.11
538.92	39304.62
539.09	39187.59
539.26	38960.56
539.43	39079.92
539.60	38932.47
539.77	39175.89
539.94	39253.12
540.11	38972.26
540.28	39487.18
540.44	38974.60
540.61	39402.92
540.78	39103.33
540.95	39615.91
541.12	39435.69
541.29	39693.15
541.46	39599.52
541.62	39742.30
541.79	40135.51
541.96	39335.04
542.13	39803.15
542.30	40016.14
542.47	40280.62
542.63	40268.92
542.80	40196.36
542.97	40935.97
543.14	40968.74
543.31	40074.65
543.48	40233.81
543.64	40837.67
543.81	40725.32
543.98	40322.75
544.15	40620.00
544.32	40942.99
544.48	41017.89
544.65	40797.88
544.82	40781.49
544.99	40699.58
545.16	40877.46
545.32	40708.94
545.49	41460.25
545.66	41383.01
545.83	41041.29
546.00	41031.93
546.16	41104.49
546.33	40968.74
546.50	41038.95
546.67	40905.54
546.83	40928.95
547.00	41265.99
547.17	41532.81
547.34	41408.76
547.50	41317.48
547.67	41750.48
547.84	41380.67
548.00	41617.07
548.17	42351.99
548.34	42012.62
548.51	41808.99
548.67	41766.86
548.84	41572.60
549.01	41656.85
549.18	41525.78
549.34	41813.67
549.51	42190.50
549.68	42190.50
549.84	41813.67
550.01	41918.99
550.18	41640.47
550.34	42068.79
550.51	42012.62
550.68	41776.22
550.84	41813.67
551.01	42370.72
551.18	42422.21
551.34	42148.37
551.51	41965.81
551.68	42625.84
551.84	42253.69
552.01	42075.81
552.18	42473.70
552.34	42085.17
552.51	42249.01
552.68	42436.25
552.84	42408.17
553.01	42909.04
553.18	42494.77
553.34	42698.39
553.51	42185.82
553.67	42438.59
553.84	42628.18
554.01	42649.24
554.17	42782.65
554.34	42351.99
554.51	42700.73
554.67	42850.53
554.84	42829.46
555.00	42623.50
555.17	42361.36
555.33	42787.33
555.50	42445.62
555.67	42880.95
555.83	42630.52
556.00	43208.63
556.16	42794.36
556.33	43374.81
556.50	42756.91
556.66	42754.57
556.83	42726.48
556.99	43187.56
557.16	43922.49
557.32	43007.34
557.49	43430.98
557.65	42653.92
557.82	43126.71
557.98	43023.73
558.15	43175.86
558.32	43636.95
558.48	42932.45
558.65	42948.83
558.81	43152.46
558.98	43056.50
559.14	43433.32
559.31	43124.37
559.47	43473.11
559.64	43845.26
559.80	43386.51
559.97	43622.90
560.13	43662.69
560.30	43515.24
560.46	43349.06
560.63	43655.67
560.79	43817.17
560.96	43964.62
561.12	44093.35
561.29	43789.08
561.45	43674.40
561.61	43725.89
561.78	43768.02
561.94	43402.89
562.11	43770.36
562.27	43700.14
562.44	43831.21
562.60	43828.87
562.77	43807.81
562.93	43660.35
563.10	44020.80
563.26	43730.57
563.42	43990.37
563.59	43522.26
563.75	43679.08
563.92	43995.05
564.08	43927.17
564.24	43929.51
564.41	43915.47
564.57	43985.69
564.74	44025.48
564.90	43201.61
565.07	44161.23
565.23	44114.42
565.39	43447.36
565.56	43700.14
565.72	43697.80
565.88	43725.89
566.05	43910.79
566.21	43927.17
566.38	44123.78
566.54	44027.82
566.70	44292.30
566.87	44467.84
567.03	43824.19
567.19	44538.05
567.36	44091.01
567.52	44217.40
567.68	43910.79
567.85	44165.91
568.01	44339.11
568.17	44060.58
568.34	43922.49
568.50	44058.24
568.66	44215.06
568.83	44013.77
568.99	44018.46
569.15	43629.93
569.32	44009.09
569.48	43782.06
569.64	44245.49
569.81	44189.31
569.97	44446.77
570.13	44210.38
570.30	43693.12
570.46	44034.84
570.62	44472.52
570.78	44470.18
570.95	44020.80
571.11	44369.54
571.27	44254.85
571.43	43702.48
571.60	44018.46
571.76	44570.82
571.92	44196.34
572.09	44259.53
572.25	43962.28
572.41	44411.67
572.57	44634.02
572.74	44481.88
572.90	44095.69
573.06	44154.21
573.22	44257.19
573.38	44074.63
573.55	44275.91
573.71	44320.38
573.87	43746.95
574.03	44224.42
574.20	44697.21
574.36	43971.64
574.52	44479.54
574.68	44329.75
574.84	44458.48
575.01	44390.60
575.17	44392.94
575.33	44142.50
575.49	43978.67
575.65	44629.34
575.82	44378.90
575.98	44296.98
576.14	44264.21
576.30	44271.23
576.46	44500.61
576.62	44289.96
576.79	44528.69
576.95	44137.82
577.11	44252.51
577.27	44343.79
577.43	44470.18
577.59	44390.60
577.75	44528.69
577.92	43840.57
578.08	44451.45
578.24	44582.52
578.40	44449.11
578.56	44376.56
578.72	44449.11
578.88	44273.57
579.04	44538.05
579.21	44493.58
579.37	44531.03
579.53	44416.35
579.69	43992.71
579.85	44561.46
580.01	44776.79
580.17	44287.62
580.33	44531.03
580.49	44711.25
580.65	45027.23
580.82	44645.72
580.98	44355.49
581.14	44746.36
581.30	44858.71
581.46	44966.37
581.62	44589.55
581.78	44762.75
581.94	45078.72
582.10	44343.79
582.26	44514.65
582.42	44666.78
582.58	44669.12
582.74	44315.70
582.90	44582.52
583.06	44547.42
583.22	44765.09
583.38	44875.09
583.54	44617.63
583.70	44760.40
583.86	44231.44
584.02	44186.97
584.18	44502.95
584.34	44416.35
584.50	44477.20
584.66	44383.58
584.82	44311.02
584.98	44617.63
585.14	44804.88
585.30	44264.21
585.46	44629.34
585.62	44561.46
585.78	44294.64
585.94	44238.47
586.10	44456.14
586.26	44797.85
586.42	44978.07
586.58	44926.58
586.74	44568.48
586.90	44428.05
587.06	44767.43
587.22	44648.06
587.38	44196.34
587.54	44636.36
587.70	44268.89
587.86	44774.45
588.02	44671.46
588.18	44528.69
588.34	44481.88
588.49	44098.03
588.65	43997.39
588.81	44406.98
588.97	43936.54
589.13	44669.12
589.29	44437.41
589.45	44776.79
589.61	44378.90
589.77	44947.65
589.93	44994.46
590.08	44851.69
590.24	45067.02
