SpectraSuite Data File
++++++++++++++++++++++++++++++++++++
Date: Fri Oct 25 11:22:47 EDT 2013
User: price-jones
Dark Spectrum Present: No
Reference Spectrum Present: No
Number of Sampled Component Spectra: 1
Spectrometers: USB2+H05261
Integration Time (usec): 100000 (USB2+H05261)
Spectra Averaged: 1 (USB2+H05261)
Boxcar Smoothing: 0 (USB2+H05261)
Correct for Electrical Dark: No (USB2+H05261)
Strobe/Lamp Enabled: No (USB2+H05261)
Correct for Detector Non-linearity: No (USB2+H05261)
Correct for Stray Light: No (USB2+H05261)
Number of Pixels in Processed Spectrum: 2048
>>>>>Begin Processed Spectral Data<<<<<
365.73	238.73
365.92	238.73
366.12	238.73
366.32	117.03
366.52	159.16
366.72	56.17
366.91	117.03
367.11	182.56
367.31	107.66
367.51	112.35
367.70	124.05
367.90	124.05
368.10	170.86
368.30	105.32
368.49	227.03
368.69	107.66
368.89	121.71
369.09	138.09
369.28	147.45
369.48	128.73
369.68	133.41
369.87	255.12
370.07	159.16
370.27	227.03
370.47	344.06
370.66	582.79
370.86	669.39
371.06	608.54
371.25	662.37
371.45	613.22
371.65	755.99
371.84	734.93
372.04	688.12
372.24	720.88
372.44	697.48
372.63	718.54
372.83	814.51
373.03	800.46
373.22	814.51
373.42	704.50
373.62	671.73
373.81	821.53
374.01	812.17
374.21	809.83
374.40	814.51
374.60	856.64
374.79	800.46
374.99	744.29
375.19	854.30
375.38	826.21
375.58	870.68
375.78	915.15
375.97	781.74
376.17	840.25
376.37	826.21
376.56	812.17
376.76	842.59
376.95	833.23
377.15	868.34
377.35	798.12
377.54	880.04
377.74	837.91
377.93	854.30
378.13	950.26
378.33	884.72
378.52	894.08
378.72	912.81
378.91	931.53
379.11	835.57
379.31	964.30
379.50	873.02
379.70	983.02
379.89	990.05
380.09	891.74
380.28	950.26
380.48	1067.28
380.68	1034.52
380.87	990.05
381.07	964.30
381.26	992.39
381.46	980.68
381.65	1100.05
381.85	1062.60
382.04	1104.73
382.24	1069.62
382.43	1004.09
382.63	1004.09
382.83	1090.69
383.02	1146.86
383.22	1076.65
383.41	1011.11
383.61	1067.28
383.80	1181.97
384.00	1125.80
384.19	1121.12
384.39	1196.01
384.58	1088.35
384.78	1083.67
384.97	1034.52
385.17	1139.84
385.36	1149.20
385.56	1125.80
385.75	1153.88
385.95	1170.27
386.14	1231.12
386.34	1228.78
386.53	1104.73
386.72	1165.59
386.92	1320.06
387.11	1224.10
387.31	1156.22
387.50	1203.04
387.70	1203.04
387.89	1149.20
388.09	1179.63
388.28	1254.53
388.48	1275.59
388.67	1313.04
388.86	1263.89
389.06	1219.42
389.25	1338.79
389.45	1324.74
389.64	1296.66
389.84	1336.45
390.03	1413.68
390.22	1462.83
390.42	1284.95
390.61	1483.90
390.81	1413.68
391.00	1371.55
391.19	1483.90
391.39	1507.30
391.58	1502.62
391.78	1547.09
391.97	1474.54
392.16	1469.86
392.36	1439.43
392.55	1575.18
392.75	1504.96
392.94	1537.73
393.13	1568.16
393.33	1537.73
393.52	1568.16
393.71	1521.35
393.91	1605.61
394.10	1586.88
394.29	1614.97
394.49	1657.10
394.68	1589.22
394.88	1540.07
395.07	1614.97
395.26	1713.27
395.46	1659.44
395.65	1748.38
395.84	1675.82
396.04	1713.27
396.23	1741.36
396.42	1666.46
396.62	1703.91
396.81	1760.08
397.00	1797.53
397.19	1806.89
397.39	1825.62
397.58	1839.66
397.77	1825.62
397.97	1818.60
398.16	1830.30
398.35	1823.28
398.55	1879.45
398.74	1949.67
398.93	1996.48
399.12	1954.35
399.32	1968.39
399.51	1921.58
399.70	2099.46
399.90	2003.50
400.09	1968.39
400.28	2080.74
400.47	2026.90
400.67	2078.40
400.86	2080.74
401.05	2179.04
401.24	2122.87
401.44	2188.40
401.63	2153.29
401.82	2073.71
402.01	2174.36
402.21	2179.04
402.40	2115.84
402.59	2165.00
402.78	2195.42
402.97	2289.04
403.17	2279.68
403.36	2359.26
403.55	2424.80
403.74	2413.09
403.93	2321.81
404.13	2392.03
404.32	2326.49
404.51	2333.51
404.70	2473.95
404.89	2506.71
405.09	2509.05
405.28	2354.58
405.47	2459.90
405.66	2530.12
405.85	2497.35
406.05	2483.31
406.24	2506.71
406.43	2558.21
406.62	2722.04
406.81	2691.62
407.00	2597.99
407.20	2560.55
407.39	2626.08
407.58	2832.05
407.77	2654.17
407.96	2860.13
408.15	2820.35
408.34	2712.68
408.54	2771.19
408.73	2717.36
408.92	2834.39
409.11	2899.92
409.30	2818.00
409.49	2932.69
409.68	2932.69
409.87	2984.18
410.07	3005.25
410.26	2857.79
410.45	3030.99
410.64	3000.57
410.83	3040.36
411.02	3059.08
411.21	3283.77
411.40	3117.59
411.59	3187.81
411.78	3166.74
411.98	3054.40
412.17	3314.20
412.36	3358.67
412.55	3370.37
412.74	3471.01
412.93	3454.63
413.12	3328.24
413.31	3630.17
413.50	3529.53
413.69	3574.00
413.88	3634.85
414.07	3529.53
414.26	3630.17
414.45	3702.73
414.64	3632.51
414.83	3669.96
415.02	3789.33
415.22	3918.06
415.41	3845.50
415.60	3896.99
415.79	3992.95
415.98	3936.78
416.17	3978.91
416.36	3997.64
416.55	4032.74
416.74	4035.08
416.93	4098.28
417.12	4170.83
417.31	4205.94
417.50	4156.79
417.69	4241.05
417.88	4243.39
418.07	4215.30
418.26	4374.46
418.45	4383.82
418.64	4465.74
418.83	4234.03
419.02	4381.48
419.21	4496.17
419.39	4638.94
419.58	4475.10
419.77	4409.57
419.96	4547.66
420.15	4678.73
420.34	4594.47
420.53	4564.04
420.72	4655.33
420.91	4802.78
421.10	4655.33
421.29	4802.78
421.48	4629.58
421.67	4599.15
421.86	4912.78
422.05	4641.28
422.24	4821.50
422.43	4833.21
422.61	4858.95
422.80	4922.15
422.99	4964.28
423.18	4999.38
423.37	5242.80
423.56	4954.91
423.75	5109.39
423.94	4912.78
424.13	4692.77
424.32	4777.03
424.50	5090.67
424.69	5048.54
424.88	5100.03
425.07	4961.94
425.26	5018.11
425.45	5015.77
425.64	4903.42
425.83	5062.58
426.01	4943.21
426.20	5020.45
426.39	5046.20
426.58	5062.58
426.77	5041.51
426.96	5100.03
427.15	5144.50
427.33	5214.71
427.52	5013.43
427.71	5146.84
427.90	5195.99
428.09	5483.88
428.28	5401.96
428.46	5394.93
428.65	5249.82
428.84	5533.03
429.03	5612.60
429.22	5394.93
429.40	5392.59
429.59	5624.31
429.78	5387.91
429.97	5282.59
430.16	5518.98
430.34	5469.83
430.53	5682.82
430.72	5626.65
430.91	5717.93
431.10	5474.51
431.28	5926.24
431.47	5849.00
431.66	5851.34
431.85	5825.59
432.03	5886.45
432.22	6012.84
432.41	6015.18
432.60	5912.19
432.79	5888.79
432.97	6047.94
433.16	6157.95
433.35	6141.57
433.54	5914.53
433.72	6050.28
433.91	6218.80
434.10	6179.01
434.28	6118.16
434.47	6305.40
434.66	6356.90
434.85	6354.55
435.03	6373.28
435.22	6267.95
435.41	6525.41
435.59	6431.79
435.78	6654.14
435.97	6532.44
436.16	6394.34
436.34	6565.20
436.53	6619.04
436.72	6569.88
436.90	6492.65
437.09	6780.53
437.28	6408.39
437.46	6593.29
437.65	6696.27
437.84	6799.26
438.02	6726.70
438.21	6857.77
438.40	6738.40
438.58	6951.39
438.77	7108.21
438.96	7023.95
439.14	7180.76
439.33	7063.74
439.52	7243.96
439.70	7124.59
439.89	7346.94
440.08	7487.37
440.26	7557.59
440.45	7447.58
440.63	7726.11
440.82	7524.82
441.01	7709.72
441.19	7527.16
441.38	7765.90
441.57	7726.11
441.75	7906.33
441.94	8056.12
442.12	7889.95
442.31	7990.59
442.50	8023.36
442.68	7892.29
442.87	7953.14
443.05	8219.96
443.24	8276.13
443.43	8175.49
443.61	8189.53
443.80	8526.57
443.98	8147.40
444.17	8035.06
444.35	8318.26
444.54	8599.13
444.73	8259.75
444.91	8362.73
445.10	8271.45
445.28	8372.10
445.47	8205.92
445.65	8533.59
445.84	8561.68
446.02	8622.53
446.21	8428.27
446.39	8411.89
446.58	8430.61
446.77	8365.07
446.95	8236.35
447.14	8533.59
447.32	8659.98
447.51	8505.51
447.69	8641.26
447.88	8784.03
448.06	8622.53
448.25	8599.13
448.43	8720.84
448.62	8678.71
448.80	8496.14
448.99	8877.65
449.17	8699.77
449.36	8575.72
449.54	8961.91
449.73	8943.19
449.91	9074.26
450.10	8987.66
450.28	9130.43
450.46	9053.19
450.65	9034.47
450.83	8997.02
451.02	9083.62
451.20	9277.88
451.39	9170.22
451.57	9107.02
451.76	9184.26
451.94	9413.63
452.13	9462.79
452.31	9320.01
452.49	9221.71
452.68	9418.32
452.86	9294.27
453.05	9366.82
453.23	9535.34
453.42	9479.17
453.60	9327.03
453.78	9626.62
453.97	9495.55
454.15	9570.45
454.34	9689.82
454.52	9935.57
454.70	9827.91
454.89	9823.23
455.07	9912.17
455.26	9877.06
455.44	9881.74
455.62	10094.73
455.81	9982.38
455.99	9956.64
456.17	10202.40
456.36	10071.33
456.54	10263.25
456.73	10207.08
456.91	10303.04
457.09	10621.35
457.28	10516.03
457.46	10497.30
457.64	10649.44
457.83	10490.28
458.01	10586.24
458.19	10846.04
458.38	10602.63
458.56	10789.87
458.74	10684.55
458.93	10705.61
459.11	10972.43
459.29	10759.44
459.48	10871.79
459.66	10853.06
459.84	11042.65
460.03	11213.51
460.21	10923.28
460.39	10953.71
460.57	11091.80
460.76	11367.98
460.94	11417.13
461.12	11379.68
461.31	11410.11
461.49	11281.38
461.67	11234.57
461.85	11503.73
462.04	11403.09
462.22	11719.06
462.40	11796.30
462.59	11683.95
462.77	11587.99
462.95	11808.00
463.13	11660.55
463.32	11786.94
463.50	11779.92
463.68	11660.55
463.86	11770.55
464.05	11576.29
464.23	11641.82
464.41	12044.40
464.59	11655.87
464.78	12245.68
464.96	11981.20
465.14	11812.68
465.32	12004.61
465.50	12201.21
465.69	12449.31
465.87	12224.62
466.05	12063.12
466.23	12395.48
466.41	12191.85
466.60	12512.50
466.78	12283.13
466.96	12341.64
467.14	12203.55
467.32	12421.22
467.51	12568.68
467.69	12358.03
467.87	12271.43
468.05	12856.56
468.23	12442.29
468.41	12601.44
468.60	12835.50
468.78	12798.05
468.96	12594.42
469.14	12992.31
469.32	13156.15
469.50	12531.23
469.69	13088.28
469.87	13226.37
470.05	13055.51
470.23	13156.15
470.41	13111.68
470.59	13310.63
470.77	13151.47
470.95	13305.95
471.14	13664.05
471.32	13329.35
471.50	13781.07
471.68	13682.77
471.86	13497.87
472.04	13767.03
472.22	14003.43
472.40	13830.23
472.58	13942.57
472.77	14295.99
472.95	14164.92
473.13	14661.12
473.31	14164.92
473.49	14162.58
473.67	14394.29
473.85	14321.74
474.03	14600.26
474.21	14675.16
474.39	14637.71
474.57	14890.49
474.75	15068.37
474.93	15293.06
475.12	15283.70
475.30	15122.20
475.48	15145.61
475.66	15367.96
475.84	15351.57
476.02	15297.74
476.20	15396.04
476.38	15882.88
476.56	15971.82
476.74	16145.02
476.92	16210.55
477.10	15737.76
477.28	16140.33
477.46	16266.72
477.64	16423.54
477.82	16704.40
478.00	17097.61
478.18	16695.04
478.36	17275.49
478.54	17216.98
478.72	17387.84
478.90	17280.18
479.08	17575.08
479.26	17912.12
479.44	18036.17
479.62	17664.02
479.80	18356.82
479.98	18078.30
480.16	18831.95
480.34	18595.56
480.52	18672.79
480.70	18539.38
480.88	18459.81
481.06	18766.42
481.24	19073.03
481.41	19475.60
481.59	19398.36
481.77	19721.35
481.95	20044.35
482.13	19836.04
482.31	19609.01
482.49	20599.05
482.67	20374.36
482.85	20533.52
483.03	20636.50
483.21	21214.62
483.39	20947.79
483.57	20725.44
483.74	21392.50
483.92	21774.00
484.10	21415.90
484.28	21598.46
484.46	22185.94
484.64	22630.64
484.82	22129.77
485.00	22513.61
485.18	22918.53
485.35	23016.83
485.53	23077.68
485.71	23456.85
485.89	23672.18
486.07	23557.49
486.25	23627.71
486.43	23726.01
486.61	24194.12
486.78	24201.14
486.96	24301.78
487.14	24821.38
487.32	24629.46
487.50	25010.96
487.68	25209.91
487.85	25184.16
488.03	25640.57
488.21	25935.48
488.39	26101.65
488.57	26068.89
488.75	26602.53
488.92	26656.36
489.10	26988.72
489.28	26497.20
489.46	27199.37
489.64	27428.74
489.81	27730.67
489.99	27681.52
490.17	27910.89
490.35	28638.80
490.53	28268.99
490.70	28430.49
490.88	28584.96
491.06	28882.21
491.24	29039.03
491.41	29263.72
491.59	29340.96
491.77	29373.72
491.95	29818.42
492.13	29961.20
492.30	30253.76
492.48	30188.23
492.66	30263.13
492.84	30712.51
493.01	30958.27
493.19	30841.24
493.37	31068.27
493.54	31117.42
493.72	31700.22
493.90	31924.91
494.08	32187.05
494.25	31983.42
494.43	31997.46
494.61	32765.16
494.79	33130.28
494.96	32877.51
495.14	33048.36
495.32	33378.38
495.49	33251.99
495.67	33567.96
495.85	33787.97
496.02	33729.46
496.20	34181.18
496.38	34195.23
496.55	34387.15
496.73	35014.41
496.91	34401.19
497.09	34967.60
497.26	35365.49
497.44	35335.07
497.62	35250.81
497.79	36116.81
497.97	35803.17
498.14	35861.69
498.32	36388.31
498.50	36479.59
498.67	36718.32
498.85	36788.54
499.03	36652.79
499.20	37116.22
499.38	37167.71
499.56	37462.61
499.73	37390.06
499.91	37493.04
500.08	37937.74
500.26	37680.28
500.44	38314.57
500.61	37776.25
500.79	38026.68
500.97	38227.97
501.14	38850.55
501.32	38906.73
501.49	38895.02
501.67	39241.42
501.84	39227.38
502.02	39456.75
502.20	39276.53
502.37	39215.68
502.55	39154.82
502.72	39646.33
502.90	40055.93
503.07	40023.16
503.25	40149.55
503.43	40133.17
503.60	40458.50
503.78	40449.14
503.95	40699.58
504.13	40655.11
504.30	40825.96
504.48	41226.20
504.65	41177.04
504.83	41120.87
505.01	41823.03
505.18	41734.09
505.36	41687.28
505.53	41848.78
505.71	41933.04
505.88	41991.55
506.06	41855.80
506.23	42555.62
506.41	42124.96
506.58	42286.46
506.76	42841.17
506.93	42682.01
507.11	42663.28
507.28	42454.98
507.46	43175.86
507.63	43517.58
507.81	43456.73
507.98	43414.60
508.16	43026.07
508.33	43824.19
508.50	43508.22
508.68	43859.30
508.85	44385.92
509.03	44301.66
509.20	44210.38
509.38	44449.11
509.55	44935.95
509.73	44694.87
509.90	44893.82
510.08	44671.46
510.25	44692.53
510.42	44868.07
510.60	45170.00
510.77	45659.17
510.95	45682.58
511.12	45507.04
511.30	45352.56
511.47	45675.55
511.64	45710.66
511.82	46120.26
511.99	45581.93
512.17	46471.34
512.34	45691.94
512.51	46712.41
512.69	46953.49
512.86	46581.34
513.04	46667.94
513.21	46700.71
513.38	47334.99
513.56	47262.44
513.73	46930.08
513.90	47229.67
514.08	47566.71
514.25	47625.22
514.43	47873.32
514.60	47552.66
514.77	47665.01
514.95	47775.02
515.12	47793.74
515.29	47840.55
515.47	48130.78
515.64	48428.02
515.81	48163.54
515.99	48470.15
516.16	48856.34
516.33	48495.90
516.51	48793.15
516.68	48645.69
516.85	49015.50
517.03	49291.68
517.20	48956.99
517.37	49020.18
517.54	49272.96
517.72	49230.83
517.89	49010.82
518.06	49287.00
518.24	49481.27
518.41	49780.85
518.58	49511.69
518.75	49523.40
518.93	49965.76
519.10	49705.96
519.27	50185.77
519.45	49958.73
519.62	50340.24
519.79	50108.53
519.96	50232.58
520.14	50192.79
520.31	50260.66
520.48	50361.31
520.65	50700.68
520.83	50913.67
521.00	50894.95
521.17	50782.60
521.34	50651.53
521.52	51236.67
521.69	51213.26
521.86	51407.53
522.03	51257.73
522.20	51554.98
522.38	51744.56
522.55	51695.41
522.72	51686.05
522.89	51299.86
523.07	51641.58
523.24	51716.48
523.41	51906.06
523.58	51807.76
523.75	52243.10
523.92	52055.85
524.10	52229.05
524.27	52210.33
524.44	52348.42
524.61	52266.50
524.78	52390.55
524.96	52406.94
525.13	52561.41
525.30	52743.97
525.47	52865.68
525.64	52736.95
525.81	52790.78
525.98	52839.93
526.16	52884.40
526.33	52978.03
526.50	52931.22
526.67	53052.92
526.84	53237.83
527.01	53258.89
527.18	52942.92
527.36	53095.05
527.53	53062.29
527.70	53748.06
527.87	53605.29
528.04	53317.40
528.21	53455.50
528.38	53514.01
528.55	53942.33
528.72	53425.07
528.89	53556.14
529.07	53455.50
529.24	53471.88
529.41	53815.94
529.58	53893.18
529.75	53902.54
529.92	54019.56
530.09	53832.32
530.26	54270.00
530.43	54124.89
530.60	54113.19
530.77	54183.40
530.94	54569.59
531.11	54295.75
531.28	54403.41
531.46	54506.40
531.63	54323.83
531.80	54415.11
531.97	54688.96
532.14	54714.70
532.31	54789.60
532.48	54543.84
532.65	54873.86
532.82	54752.15
532.99	54777.90
533.16	54787.26
533.33	54976.84
533.50	55196.85
533.67	55037.70
533.84	54817.69
534.01	55145.36
534.18	55215.58
534.35	55367.71
534.52	55004.93
534.69	55515.17
534.86	55454.31
535.03	55257.71
535.20	55707.09
535.37	55578.36
535.54	55550.27
535.71	55496.44
535.88	55409.84
536.05	55634.53
536.22	55639.22
536.38	55693.05
536.55	55646.24
536.72	55723.47
536.89	55648.58
537.06	55810.07
537.23	55978.59
537.40	55978.59
537.57	55999.66
537.74	56114.34
537.91	56198.60
538.08	55945.83
538.25	56046.47
538.42	55978.59
538.59	56385.85
538.75	56102.64
538.92	56116.68
539.09	56332.01
539.26	56324.99
539.43	56278.18
539.60	56205.62
539.77	56437.34
539.94	56687.78
540.11	56554.36
540.28	56423.29
540.44	56612.88
540.61	56652.67
540.78	56647.99
540.95	56697.14
541.12	56655.01
541.29	56615.22
541.46	56860.97
541.62	56765.01
541.79	56884.38
541.96	56460.74
542.13	56952.26
542.30	57041.20
542.47	56928.85
542.63	57237.80
542.80	57172.27
542.97	57279.93
543.14	57434.41
543.31	57205.03
543.48	57312.70
543.64	57668.46
543.81	57544.41
543.98	57382.91
544.15	57544.41
544.32	57616.97
544.48	57836.98
544.65	57530.37
544.82	57539.73
544.99	57275.25
545.16	57638.03
545.32	57521.01
545.49	57642.71
545.66	57986.77
545.83	57921.24
546.00	57860.38
546.16	57937.62
546.33	57839.32
546.50	57588.88
546.67	57946.98
546.83	57642.71
547.00	58106.14
547.17	57701.23
547.34	57858.04
547.50	58117.84
547.67	58302.74
547.84	58122.52
548.00	58265.30
548.17	58372.96
548.34	58234.87
548.51	58438.50
548.67	58574.25
548.84	58281.68
549.01	58415.09
549.18	58204.44
549.34	58253.59
549.51	58384.66
549.68	58288.70
549.84	58592.97
550.01	58532.12
550.18	58487.65
550.34	58740.42
550.51	58604.67
550.68	58775.53
550.84	58452.54
551.01	58658.51
551.18	58429.13
551.34	58663.19
551.51	58630.42
551.68	58749.79
551.84	58862.13
552.01	58401.05
552.18	58958.09
552.34	58780.21
552.51	58773.19
552.68	58773.19
552.84	59032.99
553.01	59194.49
553.18	59002.56
553.34	59131.29
553.51	58937.03
553.67	58873.84
553.84	59063.42
554.01	58880.86
554.17	59040.01
554.34	59100.87
554.51	59103.21
554.67	59267.05
554.84	59281.09
555.00	59236.62
555.17	58967.46
555.33	59098.53
555.50	59285.77
555.67	59283.43
555.83	59210.87
556.00	59224.92
556.16	59639.19
556.33	59639.19
556.50	59423.86
556.66	59458.97
556.83	59480.03
556.99	59505.78
557.16	59501.10
557.32	59700.04
557.49	59793.67
557.65	59519.82
557.82	59449.61
557.98	59611.10
558.15	59379.39
558.32	59721.11
558.48	59367.69
558.65	59618.13
558.81	59760.90
558.98	59868.56
559.14	59704.73
559.31	59561.95
559.47	59700.04
559.64	59931.76
559.80	59791.33
559.97	59849.84
560.13	59636.85
560.30	59788.98
560.46	59894.31
560.63	59854.52
560.79	59957.50
560.96	60130.70
561.12	60081.55
561.29	60074.53
561.45	60259.43
561.61	59765.58
561.78	59934.10
561.94	60165.81
562.11	59945.80
562.27	59887.29
562.44	60009.00
562.60	60175.17
562.77	60140.07
562.93	60093.25
563.10	60224.32
563.26	60170.49
563.42	60441.99
563.59	60116.66
563.75	60114.32
563.92	60048.78
564.08	60090.91
564.24	60413.91
564.41	60441.99
564.57	60271.14
564.74	60481.78
564.90	60224.32
565.07	60397.52
565.23	60282.84
565.39	60404.55
565.56	60530.93
565.72	60189.22
565.88	60367.10
566.05	60432.63
566.21	60378.80
566.38	60339.01
566.54	60252.41
566.70	60322.63
566.87	60566.04
567.03	60238.37
567.19	60659.66
567.36	60568.38
567.52	60411.57
567.68	60669.03
567.85	60449.02
568.01	60575.40
568.17	60388.16
568.34	60512.21
568.50	60622.22
568.66	60566.04
568.83	60547.32
568.99	60556.68
569.15	60484.12
569.32	60697.11
569.48	60278.16
569.64	60664.35
569.81	60594.13
569.97	60516.89
570.13	60678.39
570.30	60512.21
570.46	60537.96
570.62	60839.89
570.78	60711.16
570.95	60687.75
571.11	60762.65
571.27	60977.98
571.43	60725.20
571.60	60645.62
571.76	60828.18
571.92	60720.52
572.09	60519.23
572.25	60715.84
572.41	60739.24
572.57	60701.79
572.74	60977.98
572.90	60573.06
573.06	60767.33
573.22	60704.13
573.38	60636.26
573.55	60903.08
573.71	60917.12
573.87	60807.12
574.03	60697.11
574.20	60912.44
574.36	60790.73
574.52	60940.53
574.68	60853.93
574.84	60947.55
575.01	60856.27
575.17	61010.74
575.33	60879.67
575.49	60865.63
575.65	61048.19
575.82	60987.34
575.98	60853.93
576.14	60977.98
576.30	60954.57
576.46	60956.91
576.62	60830.52
576.79	60924.14
576.95	60727.54
577.11	60961.59
577.27	60837.54
577.43	61066.92
577.59	60865.63
577.75	60851.59
577.92	60893.72
578.08	61127.77
578.24	61003.72
578.40	61085.64
578.56	61057.56
578.72	60938.19
578.88	61045.85
579.04	61095.00
579.21	61017.77
579.37	61153.52
579.53	61155.86
579.69	60858.61
579.85	60853.93
580.01	60973.30
580.17	60842.23
580.33	61013.08
580.49	61169.90
580.65	61050.53
580.82	60961.59
580.98	61013.08
581.14	61013.08
581.30	61233.10
581.46	60973.30
581.62	61083.30
581.78	60966.27
581.94	61162.88
582.10	61193.31
582.26	61076.28
582.42	61109.05
582.58	60938.19
582.74	61043.51
582.90	60891.38
583.06	61176.92
583.22	61038.83
583.38	61130.11
583.54	61085.64
583.70	61099.68
583.86	61275.22
584.02	60952.23
584.18	61284.59
584.34	61265.86
584.50	61087.98
584.66	61048.19
584.82	61001.38
584.98	61209.69
585.14	61219.05
585.30	60907.76
585.46	61064.58
585.62	61219.05
585.78	61329.06
585.94	60982.66
586.10	61116.07
586.26	61099.68
586.42	61258.84
586.58	61144.16
586.74	61205.01
586.90	61228.41
587.06	60982.66
587.22	61380.55
587.38	61242.46
587.54	61410.98
587.70	61382.89
587.86	61277.57
588.02	61083.30
588.18	61310.33
588.34	61373.53
588.49	61244.80
