SpectraSuite Data File
++++++++++++++++++++++++++++++++++++
Date: Fri Oct 25 11:23:31 EDT 2013
User: price-jones
Dark Spectrum Present: No
Reference Spectrum Present: No
Number of Sampled Component Spectra: 1
Spectrometers: USB2+H05261
Integration Time (usec): 100000 (USB2+H05261)
Spectra Averaged: 1 (USB2+H05261)
Boxcar Smoothing: 0 (USB2+H05261)
Correct for Electrical Dark: No (USB2+H05261)
Strobe/Lamp Enabled: No (USB2+H05261)
Correct for Detector Non-linearity: No (USB2+H05261)
Correct for Stray Light: No (USB2+H05261)
Number of Pixels in Processed Spectrum: 2048
>>>>>Begin Processed Spectral Data<<<<<
365.73	208.31
365.92	208.31
366.12	208.31
366.32	180.22
366.52	140.43
366.72	131.07
366.91	135.75
367.11	53.83
367.31	72.56
367.51	147.45
367.70	98.30
367.90	168.52
368.10	124.05
368.30	133.41
368.49	121.71
368.69	177.88
368.89	107.66
369.09	110.01
369.28	224.69
369.48	166.18
369.68	182.56
369.87	140.43
370.07	196.60
370.27	227.03
370.47	365.12
370.66	631.94
370.86	594.50
371.06	650.67
371.25	683.44
371.45	723.23
371.65	643.65
371.84	690.46
372.04	636.63
372.24	725.57
372.44	711.52
372.63	718.54
372.83	629.60
373.03	737.27
373.22	704.50
373.42	758.33
373.62	791.10
373.81	770.04
374.01	770.04
374.21	819.19
374.40	807.48
374.60	882.38
374.79	784.08
374.99	866.00
375.19	833.23
375.38	880.04
375.58	933.87
375.78	854.30
375.97	898.77
376.17	866.00
376.37	891.74
376.56	875.36
376.76	854.30
376.95	894.08
377.15	819.19
377.35	854.30
377.54	912.81
377.74	837.91
377.93	901.11
378.13	854.30
378.33	929.19
378.52	966.64
378.72	940.90
378.91	1022.81
379.11	915.15
379.31	992.39
379.50	912.81
379.70	933.87
379.89	1004.09
380.09	922.17
380.28	1006.43
380.48	990.05
380.68	905.79
380.87	964.30
381.07	1020.47
381.26	1006.43
381.46	1067.28
381.65	1076.65
381.85	957.28
382.04	973.66
382.24	1083.67
382.43	1013.45
382.63	1057.92
382.83	1020.47
383.02	1121.12
383.22	1158.57
383.41	990.05
383.61	1050.90
383.80	1203.04
384.00	1043.88
384.19	1060.26
384.39	1081.33
384.58	1100.05
384.78	1151.54
384.97	1083.67
385.17	1167.93
385.36	1132.82
385.56	1130.48
385.75	1135.16
385.95	1167.93
386.14	1224.10
386.34	1259.21
386.53	1259.21
386.72	1170.27
386.92	1256.87
387.11	1188.99
387.31	1221.76
387.50	1245.16
387.70	1238.14
387.89	1226.44
388.09	1277.93
388.28	1205.38
388.48	1172.61
388.67	1296.66
388.86	1317.72
389.06	1282.61
389.25	1289.64
389.45	1352.83
389.64	1315.38
389.84	1357.51
390.03	1413.68
390.22	1404.32
390.42	1282.61
390.61	1385.60
390.81	1455.81
391.00	1490.92
391.19	1439.43
391.39	1397.30
391.58	1495.60
391.78	1486.24
391.97	1465.18
392.16	1453.47
392.36	1542.41
392.55	1378.58
392.75	1493.26
392.94	1507.30
393.13	1577.52
393.33	1614.97
393.52	1659.44
393.71	1570.50
393.91	1596.25
394.10	1521.35
394.29	1598.59
394.49	1626.67
394.68	1713.27
394.88	1530.71
395.07	1675.82
395.26	1636.03
395.46	1568.16
395.65	1680.50
395.84	1673.48
396.04	1757.74
396.23	1724.97
396.42	1839.66
396.62	1795.19
396.81	1778.81
397.00	1706.25
397.19	1734.34
397.39	1781.15
397.58	1811.57
397.77	1778.81
397.97	1870.09
398.16	1818.60
398.35	1804.55
398.55	1907.54
398.74	1891.15
398.93	1923.92
399.12	1919.24
399.32	1942.64
399.51	1923.92
399.70	1998.82
399.90	1952.01
400.09	1987.11
400.28	2015.20
400.47	2038.61
400.67	2150.95
400.86	1952.01
401.05	2036.27
401.24	2169.68
401.44	2125.21
401.63	2066.69
401.82	2125.21
402.01	2150.95
402.21	2160.31
402.40	2181.38
402.59	2092.44
402.78	2181.38
402.97	2146.27
403.17	2125.21
403.36	2232.87
403.55	2263.30
403.74	2321.81
403.93	2345.22
404.13	2349.90
404.32	2380.32
404.51	2317.13
404.70	2532.46
404.89	2415.43
405.09	2490.33
405.28	2441.18
405.47	2396.71
405.66	2574.59
405.85	2574.59
406.05	2586.29
406.24	2513.74
406.43	2530.12
406.62	2675.23
406.81	2759.49
407.00	2495.01
407.20	2527.78
407.39	2614.38
407.58	2754.81
407.77	2644.81
407.96	2780.56
408.15	2787.58
408.34	2754.81
408.54	2825.03
408.73	2710.34
408.92	2782.90
409.11	2881.20
409.30	2902.26
409.49	2949.08
409.68	2960.78
409.87	2911.63
410.07	3016.95
410.26	2960.78
410.45	2892.90
410.64	3155.04
410.83	3068.44
411.02	3236.96
411.21	3211.22
411.40	3192.49
411.59	3276.75
411.78	3304.84
411.98	3213.56
412.17	3215.90
412.36	3332.92
412.55	3344.63
412.74	3442.93
412.93	3433.57
413.12	3405.48
413.31	3625.49
413.50	3606.77
413.69	3520.17
413.88	3688.68
414.07	3592.72
414.26	3662.94
414.45	3684.00
414.64	3702.73
414.83	3875.93
415.02	3742.52
415.22	3854.86
415.41	3962.53
415.60	3765.92
415.79	3985.93
415.98	4023.38
416.17	4117.00
416.36	4042.11
416.55	3985.93
416.74	4018.70
416.93	3990.61
417.12	4121.68
417.31	4128.70
417.50	4119.34
417.69	4430.63
417.88	4301.90
418.07	4224.67
418.26	4372.12
418.45	4273.82
418.64	4594.47
418.83	4348.72
419.02	4414.25
419.21	4388.50
419.39	4601.49
419.58	4561.70
419.77	4440.00
419.96	4638.94
420.15	4568.73
420.34	4575.75
420.53	4657.67
420.72	4606.17
420.91	4545.32
421.10	4725.54
421.29	4873.00
421.48	4702.14
421.67	4676.39
421.86	4739.58
422.05	4943.21
422.24	4681.07
422.43	4992.36
422.61	4826.18
422.80	4973.64
422.99	4966.62
423.18	4938.53
423.37	4985.34
423.56	4896.40
423.75	4880.02
423.94	4919.81
424.13	4582.77
424.32	4767.67
424.50	5053.22
424.69	5088.32
424.88	4961.94
425.07	5011.09
425.26	4933.85
425.45	5060.24
425.64	4999.38
425.83	4905.76
426.01	5076.62
426.20	5090.67
426.39	5048.54
426.58	5076.62
426.77	5020.45
426.96	5170.24
427.15	5088.32
427.33	5284.93
427.52	5142.16
427.71	5224.08
427.90	5245.14
428.09	5418.34
428.28	5380.89
428.46	5287.27
428.65	5322.38
428.84	5769.42
429.03	5521.32
429.22	5371.53
429.40	5621.97
429.59	5392.59
429.78	5383.23
429.97	5427.70
430.16	5547.07
430.34	5586.86
430.53	5603.24
430.72	5678.14
430.91	5643.03
431.10	5755.38
431.28	5668.78
431.47	5633.67
431.66	5837.30
431.85	5856.02
432.03	5921.56
432.22	6066.67
432.41	5959.00
432.60	5956.66
432.79	6047.94
432.97	6125.18
433.16	6012.84
433.35	5909.85
433.54	5919.21
433.72	6122.84
433.91	6125.18
434.10	6221.14
434.28	5996.45
434.47	6333.49
434.66	6380.30
434.85	6160.29
435.03	6296.04
435.22	6380.30
435.41	6436.47
435.59	6497.33
435.78	6399.02
435.97	6537.12
436.16	6417.75
436.34	6263.27
436.53	6597.97
436.72	6771.17
436.90	6424.77
437.09	6649.46
437.28	6282.00
437.46	6719.68
437.65	6621.38
437.84	6682.23
438.02	6829.68
438.21	6668.19
438.40	6670.53
438.58	7173.74
438.77	7019.27
438.96	6897.56
439.14	7056.72
439.33	7281.41
439.52	7173.74
439.70	7087.14
439.89	7393.75
440.08	7297.79
440.26	7494.40
440.45	7337.58
440.63	7541.21
440.82	7456.95
441.01	7487.37
441.19	7712.07
441.38	7728.45
441.57	7861.86
441.75	7939.10
441.94	8058.46
442.12	7929.74
442.31	8013.99
442.50	8100.59
442.68	8264.43
442.87	8037.40
443.05	8229.32
443.24	8372.10
443.43	8133.36
443.61	8196.56
443.80	8421.25
443.98	7843.14
444.17	7847.82
444.35	8243.37
444.54	8486.78
444.73	8276.13
444.91	8222.30
445.10	8418.91
445.28	8245.71
445.47	8152.09
445.65	8196.56
445.84	8498.49
446.02	8362.73
446.21	8344.01
446.39	8519.55
446.58	8629.56
446.77	8512.53
446.95	8512.53
447.14	8557.00
447.32	8465.72
447.51	8346.35
447.69	8402.52
447.88	8648.28
448.06	8667.00
448.25	8507.85
448.43	8510.19
448.62	8528.91
448.80	8564.02
448.99	8779.35
449.17	8926.80
449.36	8652.96
449.54	8723.18
449.73	8908.08
449.91	8982.98
450.10	8936.17
450.28	9233.41
450.46	8943.19
450.65	9067.24
450.83	9104.68
451.02	8898.72
451.20	9362.14
451.39	9242.78
451.57	9252.14
451.76	9060.21
451.94	9214.69
452.13	9261.50
452.31	9228.73
452.49	9207.67
452.68	9240.44
452.86	9486.19
453.05	9540.02
453.23	9446.40
453.42	9366.82
453.60	9397.25
453.78	9671.09
453.97	9287.25
454.15	9502.58
454.34	9467.47
454.52	9734.29
454.70	9626.62
454.89	9799.82
455.07	9947.28
455.26	9942.60
455.44	9921.53
455.62	10087.71
455.81	10012.81
455.99	10190.69
456.17	10045.58
456.36	10038.56
456.54	10122.82
456.73	10277.29
456.91	10485.60
457.09	10464.54
457.28	10562.84
457.46	10504.32
457.64	10539.43
457.83	10483.26
458.01	10389.64
458.19	10768.80
458.38	10452.83
458.56	10721.99
458.74	10656.46
458.93	10597.95
459.11	10567.52
459.29	10850.72
459.48	10988.82
459.66	10663.48
459.84	10829.66
460.03	10970.09
460.21	10942.00
460.39	10824.98
460.57	10897.53
460.76	11098.82
460.94	11091.80
461.12	11211.17
461.31	11274.36
461.49	11187.76
461.67	11213.51
461.85	11613.74
462.04	11222.87
462.22	11777.58
462.40	11501.39
462.59	11566.93
462.77	11786.94
462.95	11501.39
463.13	11707.36
463.32	11641.82
463.50	11913.33
463.68	11810.34
463.86	11955.46
464.05	11627.78
464.23	11630.12
464.41	12081.85
464.59	11705.02
464.78	12322.92
464.96	11962.48
465.14	11805.66
465.32	11875.88
465.50	12112.27
465.69	12245.68
465.87	12044.40
466.05	12191.85
466.23	12264.41
466.41	12035.03
466.60	12496.12
466.78	12196.53
466.96	12236.32
467.14	12437.61
467.32	12554.63
467.51	12578.04
467.69	12233.98
467.87	12526.55
468.05	12676.34
468.23	12479.74
468.41	12624.85
468.60	12732.51
468.78	12636.55
468.96	12566.34
469.14	12666.98
469.32	13074.23
469.50	12697.41
469.69	12978.27
469.87	13137.43
470.05	12844.86
470.23	13048.49
470.41	13317.65
470.59	13404.25
470.77	13074.23
470.95	13355.10
471.14	13596.17
471.32	13181.90
471.50	13568.09
471.68	13614.90
471.86	13657.03
472.04	13783.41
472.22	14150.88
472.40	13483.83
472.58	13792.78
472.77	13820.86
472.95	14054.92
473.13	14532.39
473.31	14019.81
473.49	14188.33
473.67	14214.07
473.85	14237.48
474.03	14726.65
474.21	14452.81
474.39	14672.82
474.57	14618.99
474.75	14731.33
474.93	14979.43
475.12	14839.00
475.30	15164.33
475.48	14993.47
475.66	15119.86
475.84	15346.89
476.02	15456.90
476.20	15454.56
476.38	15822.02
476.56	15896.92
476.74	15957.77
476.92	15899.26
477.10	15569.24
477.28	16060.76
477.46	16332.26
477.64	16503.12
477.82	16535.88
478.00	17055.48
478.18	16842.50
478.36	17111.66
478.54	17160.81
478.72	17088.25
478.90	17458.06
479.08	17598.49
479.26	17799.77
479.44	17991.70
479.62	17743.60
479.80	18092.34
479.98	18366.18
480.16	18782.80
480.34	18242.14
480.52	18434.06
480.70	18771.10
480.88	18164.90
481.06	18890.46
481.24	18806.20
481.41	19194.73
481.59	19461.55
481.77	19316.44
481.95	19672.20
482.13	19831.36
482.31	19499.00
482.49	20180.10
482.67	20182.44
482.85	20336.91
483.03	20732.47
483.21	20863.54
483.39	20952.48
483.57	20999.29
483.74	21132.70
483.92	21495.48
484.10	21319.94
484.28	21809.11
484.46	22160.19
484.64	22387.22
484.82	21790.39
485.00	22504.25
485.18	22602.55
485.35	23063.64
485.53	23147.90
485.71	22862.35
485.89	23831.33
486.07	23257.90
486.25	23957.72
486.43	23400.68
486.61	23859.42
486.78	24065.39
486.96	24271.36
487.14	24573.28
487.32	24830.74
487.50	24868.19
487.68	24905.64
487.85	25319.92
488.03	25680.36
488.21	25862.92
488.39	25914.41
488.57	26127.40
488.75	26024.42
488.92	26595.51
489.10	27002.76
489.28	26403.58
489.46	27576.19
489.64	26906.80
489.81	27344.48
489.99	27564.49
490.17	27679.18
490.35	28114.52
490.53	28407.08
490.70	28636.45
490.88	28505.38
491.06	28823.70
491.24	29076.48
491.41	29029.66
491.59	29179.46
491.77	29553.94
491.95	29682.67
492.13	29788.00
492.30	30272.49
492.48	29769.27
492.66	30410.58
492.84	30462.07
493.01	30892.73
493.19	30902.09
493.37	30958.27
493.54	31180.62
493.72	31484.89
493.90	31281.26
494.08	31725.96
494.25	32233.86
494.43	32212.79
494.61	32428.12
494.79	32587.28
494.96	32723.03
495.14	32847.08
495.32	33275.40
495.49	33116.24
495.67	33289.44
495.85	33624.14
496.02	34054.79
496.20	33921.38
496.38	34375.45
496.55	34487.79
496.73	34410.56
496.91	34263.10
497.09	34953.56
497.26	34817.81
497.44	34871.64
497.62	35119.74
497.79	36187.02
497.97	35440.39
498.14	35814.88
498.32	36081.70
498.50	36018.50
498.67	36802.58
498.85	36556.83
499.03	36943.02
499.20	36985.15
499.38	36851.73
499.56	36935.99
499.73	37067.06
499.91	37574.96
500.08	37659.22
500.26	37724.75
500.44	37872.21
500.61	37914.34
500.79	37525.81
500.97	38499.47
501.14	38759.27
501.32	38925.45
501.49	38890.34
501.67	38993.32
501.84	39019.07
502.02	38782.68
502.20	39037.80
502.37	39496.54
502.55	39456.75
502.72	39442.71
502.90	39489.52
503.07	39665.06
503.25	39864.00
503.43	39494.20
503.60	40053.59
503.78	40563.82
503.95	40105.08
504.13	40531.06
504.30	40549.78
504.48	40367.22
504.65	40942.99
504.83	40982.78
505.01	41315.14
505.18	41359.61
505.36	41902.61
505.53	41441.53
505.71	41455.57
505.88	42543.92
506.06	41806.65
506.23	42197.52
506.41	41792.61
506.58	42195.18
506.76	42108.58
506.93	42735.84
507.11	42195.18
507.28	42820.10
507.46	42623.50
507.63	42630.52
507.81	43730.57
507.98	43164.16
508.16	43559.71
508.33	43398.21
508.50	43311.61
508.68	43969.30
508.85	44002.07
509.03	43894.41
509.20	43763.34
509.38	44465.50
509.55	44350.81
509.73	44657.42
509.90	44947.65
510.08	44725.30
510.25	44608.27
510.42	44737.00
510.60	45081.06
510.77	45319.79
510.95	45713.00
511.12	45614.70
511.30	45338.52
511.47	45579.59
511.64	45617.04
511.82	45689.60
511.99	46057.06
512.17	46270.05
512.34	46141.32
512.51	46518.15
512.69	46632.83
512.86	46398.78
513.04	46983.91
513.21	46960.51
513.38	46869.23
513.56	46836.46
513.73	47131.37
513.90	46852.84
514.08	46855.18
514.25	47040.09
514.43	47526.92
514.60	47767.99
514.77	47320.95
514.95	47831.19
515.12	47749.27
515.29	47700.12
515.47	48076.94
515.64	47966.94
515.81	47709.48
515.99	48320.36
516.16	49055.29
516.33	48577.82
516.51	48629.31
516.68	48509.94
516.85	48910.17
517.03	48758.04
517.20	49109.12
517.37	48879.75
517.54	49090.40
517.72	48849.32
517.89	49050.61
518.06	49394.67
518.24	49720.00
518.41	49315.09
518.58	49600.63
518.75	49146.57
518.93	49345.51
519.10	49518.71
519.27	50230.24
519.45	49729.36
519.62	50136.62
519.79	49996.18
519.96	50028.95
520.14	50277.05
520.31	49867.45
520.48	50326.20
520.65	50564.93
520.83	50913.67
521.00	50962.82
521.17	50703.03
521.34	50614.08
521.52	50576.64
521.69	50857.50
521.86	51274.12
522.03	51004.95
522.20	51133.68
522.38	51566.68
522.55	51318.59
522.72	51377.10
522.89	51306.88
523.07	51849.89
523.24	51627.54
523.41	51814.78
523.58	51444.98
523.75	51892.02
523.92	51756.27
524.10	52339.06
524.27	52332.04
524.44	51943.51
524.61	52320.34
524.78	52416.30
524.96	52528.64
525.13	52301.61
525.30	52360.12
525.47	52655.03
525.64	52598.86
525.81	52603.54
525.98	52823.55
526.16	52568.43
526.33	52666.73
526.50	53146.54
526.67	53038.88
526.84	52931.22
527.01	52999.09
527.18	52989.73
527.36	52884.40
527.53	53118.46
527.70	53347.83
527.87	53439.11
528.04	53165.27
528.21	53352.51
528.38	53207.40
528.55	53439.11
528.72	53696.57
528.89	53169.95
529.07	53415.71
529.24	53352.51
529.41	53750.40
529.58	53418.05
529.75	53631.04
529.92	53579.54
530.09	54038.29
530.26	54045.31
530.43	53977.43
530.60	53787.85
530.77	53853.39
530.94	54057.01
531.11	54578.95
531.28	54335.54
531.46	54234.89
531.63	54185.74
531.80	54211.49
531.97	54822.37
532.14	54623.42
532.31	54728.75
532.48	54864.50
532.65	54770.88
532.82	54604.70
532.99	54756.83
533.16	54761.51
533.33	54897.27
533.50	55021.31
533.67	54918.33
533.84	54649.17
534.01	55124.30
534.18	55063.44
534.35	55489.42
534.52	55037.70
534.69	55461.33
534.86	55444.95
535.03	55159.41
535.20	55304.52
535.37	55477.72
535.54	55393.46
535.71	55180.47
535.88	55316.22
536.05	55494.10
536.22	55269.41
536.38	55863.91
536.55	55688.37
536.72	55365.37
536.89	55423.89
537.06	55749.22
537.23	55966.89
537.40	55594.74
537.57	55812.41
537.74	55927.10
537.91	56135.41
538.08	56184.56
538.25	55721.13
538.42	55952.85
538.59	56332.01
538.75	56081.58
538.92	56161.15
539.09	56371.80
539.26	56226.69
539.43	55969.23
539.60	56402.23
539.77	56179.88
539.94	56591.81
540.11	56626.92
540.28	56563.73
540.44	56636.28
540.61	56500.53
540.78	56545.00
540.95	56722.88
541.12	56474.79
541.29	56781.40
541.46	56526.28
541.62	56619.90
541.79	56917.15
541.96	56598.83
542.13	56802.46
542.30	56769.69
542.47	57059.92
542.63	56961.62
542.80	56666.71
542.97	57183.97
543.14	57244.82
543.31	57052.90
543.48	57352.49
543.64	57626.33
543.81	57415.68
543.98	57310.36
544.15	57523.35
544.32	57322.06
544.48	57766.76
544.65	57619.31
544.82	57560.79
544.99	57403.98
545.16	57509.30
545.32	57329.08
545.49	57921.24
545.66	57860.38
545.83	57640.37
546.00	57790.17
546.16	57766.76
546.33	57415.68
546.50	57581.86
546.67	57904.85
546.83	57467.17
547.00	57705.91
547.17	57998.48
547.34	57586.54
547.50	58080.39
547.67	58298.06
547.84	58174.02
548.00	58164.65
548.17	58387.00
548.34	58178.70
548.51	58464.24
548.67	58159.97
548.84	58035.92
549.01	58129.54
549.18	58293.38
549.34	58405.73
549.51	58473.60
549.68	58497.01
549.84	58370.62
550.01	58471.26
550.18	58340.19
550.34	58489.99
550.51	58618.72
550.68	58447.86
550.84	58415.09
551.01	58651.48
551.18	58604.67
551.34	58763.83
551.51	58801.28
551.68	58815.32
551.84	58494.67
552.01	58342.53
552.18	58714.68
552.34	58782.55
552.51	58887.88
552.68	58728.72
552.84	58646.80
553.01	59014.27
553.18	58674.89
553.34	58922.99
553.51	58637.44
553.67	58871.49
553.84	59178.10
554.01	58988.52
554.17	58976.82
554.34	59157.04
554.51	58958.09
554.67	59192.15
554.84	59222.58
555.00	59002.56
555.17	59030.65
555.33	59180.45
555.50	59070.44
555.67	59100.87
555.83	59042.35
556.00	59152.36
556.16	59693.02
556.33	59367.69
556.50	59285.77
556.66	59496.42
556.83	59077.46
556.99	59480.03
557.16	59482.37
557.32	59597.06
557.49	59718.77
557.65	59428.54
557.82	59430.88
557.98	59482.37
558.15	59442.59
558.32	59414.50
558.48	59419.18
558.65	59344.28
558.81	59498.76
558.98	59767.92
559.14	59707.07
559.31	59611.10
559.47	59817.07
559.64	60048.78
559.80	59894.31
559.97	59952.82
560.13	59737.49
560.30	59732.81
560.46	59695.36
560.63	59814.73
560.79	59798.35
560.96	59957.50
561.12	60032.40
561.29	59929.42
561.45	60027.72
561.61	59901.33
561.78	59985.59
561.94	59863.88
562.11	59948.14
562.27	59957.50
562.44	59849.84
562.60	60168.15
562.77	60104.96
562.93	59922.40
563.10	60205.60
563.26	59847.50
563.42	60336.67
563.59	59863.88
563.75	60126.02
563.92	60065.17
564.08	60142.41
564.24	60331.99
564.41	60079.21
564.57	60102.62
564.74	60165.81
564.90	60264.11
565.07	60247.73
565.23	60296.88
565.39	60289.86
565.56	60303.90
565.72	60229.01
565.88	60266.45
566.05	60240.71
566.21	60144.75
566.38	60177.51
566.54	60362.42
566.70	60334.33
566.87	60434.97
567.03	60252.41
567.19	60577.75
567.36	60416.25
567.52	60285.18
567.68	60505.19
567.85	60427.95
568.01	60411.57
568.17	60327.31
568.34	60540.30
568.50	60388.16
568.66	60477.10
568.83	60559.02
568.99	60453.70
569.15	60444.33
569.32	60306.24
569.48	60254.75
569.64	60479.44
569.81	60437.31
569.97	60315.61
570.13	60587.11
570.30	60411.57
570.46	60556.68
570.62	60697.11
570.78	60601.15
570.95	60533.28
571.11	60512.21
571.27	60640.94
571.43	60647.96
571.60	60830.52
571.76	60601.15
571.92	60612.85
572.09	60739.24
572.25	60692.43
572.41	60334.33
572.57	60704.13
572.74	60917.12
572.90	60729.88
573.06	60846.91
573.22	60755.63
573.38	60638.60
573.55	60739.24
573.71	61062.24
573.87	60662.00
574.03	60734.56
574.20	60706.47
574.36	60772.01
574.52	60926.49
574.68	60736.90
574.84	60865.63
575.01	60882.02
575.17	60725.20
575.33	60790.73
575.49	60818.82
575.65	60912.44
575.82	60809.46
575.98	60795.42
576.14	60898.40
576.30	60919.46
576.46	60779.03
576.62	60942.87
576.79	60788.39
576.95	60914.78
577.11	60954.57
577.27	60938.19
577.43	60954.57
577.59	60938.19
577.75	60725.20
577.92	60814.14
578.08	60893.72
578.24	60931.17
578.40	60907.76
578.56	61160.54
578.72	60856.27
578.88	61029.47
579.04	61186.28
579.21	60912.44
579.37	61017.77
579.53	61038.83
579.69	60849.25
579.85	60987.34
580.01	60996.70
580.17	60896.06
580.33	61024.79
580.49	61116.07
580.65	61137.13
580.82	60860.95
580.98	60865.63
581.14	60750.94
581.30	60882.02
581.46	60750.94
581.62	61027.13
581.78	60856.27
581.94	60996.70
582.10	61036.49
582.26	60966.27
582.42	60975.64
582.58	61127.77
582.74	61050.53
582.90	60837.54
583.06	60928.83
583.22	60797.76
583.38	61190.97
583.54	61036.49
583.70	60776.69
583.86	61087.98
584.02	60842.23
584.18	61029.47
584.34	61209.69
584.50	61041.17
584.66	60999.04
584.82	60814.14
584.98	61123.09
585.14	61062.24
585.30	61052.87
585.46	61013.08
585.62	61029.47
585.78	61099.68
585.94	60860.95
586.10	61022.45
586.26	61062.24
586.42	61265.86
586.58	61001.38
586.74	61169.90
586.90	61036.49
587.06	61109.05
587.22	61230.75
587.38	61144.16
587.54	61167.56
587.70	61352.46
587.86	61020.11
588.02	61289.27
588.18	61303.31
588.34	61015.43
588.49	61106.71
