SpectraSuite Data File
++++++++++++++++++++++++++++++++++++
Date: Fri Oct 25 11:33:46 EDT 2013
User: price-jones
Dark Spectrum Present: No
Reference Spectrum Present: No
Number of Sampled Component Spectra: 1
Spectrometers: USB2+H05261
Integration Time (usec): 100000 (USB2+H05261)
Spectra Averaged: 1 (USB2+H05261)
Boxcar Smoothing: 0 (USB2+H05261)
Correct for Electrical Dark: No (USB2+H05261)
Strobe/Lamp Enabled: No (USB2+H05261)
Correct for Detector Non-linearity: No (USB2+H05261)
Correct for Stray Light: No (USB2+H05261)
Number of Pixels in Processed Spectrum: 2048
>>>>>Begin Processed Spectral Data<<<<<
365.73	348.74
365.92	348.74
366.12	348.74
366.32	224.69
366.52	161.50
366.72	227.03
366.91	98.30
367.11	205.97
367.31	212.99
367.51	212.99
367.70	131.07
367.90	215.33
368.10	205.97
368.30	187.24
368.49	154.48
368.69	154.48
368.89	217.67
369.09	177.88
369.28	180.22
369.48	196.60
369.68	227.03
369.87	212.99
370.07	259.80
370.27	355.76
370.47	362.78
370.66	433.00
370.86	468.11
371.06	545.34
371.25	543.00
371.45	503.22
371.65	557.05
371.84	503.22
372.04	475.13
372.24	634.29
372.44	533.64
372.63	582.79
372.83	610.88
373.03	641.31
373.22	603.86
373.42	631.94
373.62	608.54
373.81	660.03
374.01	627.26
374.21	720.88
374.40	655.35
374.60	648.33
374.79	667.05
374.99	631.94
375.19	688.12
375.38	699.82
375.58	650.67
375.78	669.39
375.97	716.20
376.17	685.78
376.37	655.35
376.56	610.88
376.76	662.37
376.95	617.90
377.15	566.41
377.35	692.80
377.54	660.03
377.74	617.90
377.93	716.20
378.13	755.99
378.33	741.95
378.52	653.01
378.72	734.93
378.91	706.84
379.11	718.54
379.31	753.65
379.50	695.14
379.70	720.88
379.89	741.95
380.09	767.70
380.28	772.38
380.48	751.31
380.68	744.29
380.87	734.93
381.07	741.95
381.26	814.51
381.46	781.74
381.65	800.46
381.85	805.14
382.04	828.55
382.24	767.70
382.43	800.46
382.63	760.67
382.83	744.29
383.02	866.00
383.22	727.91
383.41	793.44
383.61	772.38
383.80	816.85
384.00	751.31
384.19	844.93
384.39	819.19
384.58	844.93
384.78	891.74
384.97	873.02
385.17	763.01
385.36	830.89
385.56	755.99
385.75	821.53
385.95	765.36
386.14	877.70
386.34	889.40
386.53	931.53
386.72	788.76
386.92	877.70
387.11	905.79
387.31	926.85
387.50	863.66
387.70	912.81
387.89	943.24
388.09	912.81
388.28	912.81
388.48	957.28
388.67	950.26
388.86	957.28
389.06	884.72
389.25	917.49
389.45	1067.28
389.64	936.21
389.84	990.05
390.03	987.71
390.22	1071.97
390.42	968.98
390.61	973.66
390.81	973.66
391.00	954.94
391.19	1001.75
391.39	1067.28
391.58	983.02
391.78	1064.94
391.97	1064.94
392.16	1006.43
392.36	1053.24
392.55	1137.50
392.75	999.41
392.94	954.94
393.13	1015.79
393.33	1067.28
393.52	1097.71
393.71	1102.39
393.91	1074.31
394.10	1097.71
394.29	1137.50
394.49	1107.07
394.68	1156.22
394.88	1071.97
395.07	1158.57
395.26	1130.48
395.46	1116.44
395.65	1177.29
395.84	1270.91
396.04	1273.25
396.23	1179.63
396.42	1156.22
396.62	1142.18
396.81	1214.74
397.00	1186.65
397.19	1324.74
397.39	1188.99
397.58	1263.89
397.77	1196.01
397.97	1299.00
398.16	1235.80
398.35	1224.10
398.55	1320.06
398.74	1273.25
398.93	1338.79
399.12	1245.16
399.32	1299.00
399.51	1355.17
399.70	1329.42
399.90	1385.60
400.09	1394.96
400.28	1409.00
400.47	1352.83
400.67	1453.47
400.86	1411.34
401.05	1364.53
401.24	1348.15
401.44	1425.39
401.63	1465.18
401.82	1514.33
402.01	1455.81
402.21	1507.30
402.40	1488.58
402.59	1519.01
402.78	1549.43
402.97	1502.62
403.17	1530.71
403.36	1526.03
403.55	1519.01
403.74	1570.50
403.93	1614.97
404.13	1621.99
404.32	1610.29
404.51	1528.37
404.70	1643.06
404.89	1671.14
405.09	1760.08
405.28	1629.01
405.47	1694.55
405.66	1713.27
405.85	1659.44
406.05	1701.57
406.24	1727.32
406.43	1715.61
406.62	1827.96
406.81	1870.09
407.00	1668.80
407.20	1811.57
407.39	1818.60
407.58	1771.79
407.77	1872.43
407.96	1900.52
408.15	1823.28
408.34	1905.20
408.54	1994.14
408.73	1872.43
408.92	1886.47
409.11	1996.48
409.30	2043.29
409.49	1832.64
409.68	1994.14
409.87	2043.29
410.07	2017.54
410.26	2122.87
410.45	2092.44
410.64	2101.80
410.83	2113.50
411.02	2162.66
411.21	2132.23
411.40	2141.59
411.59	2263.30
411.78	2296.07
411.98	2225.85
412.17	2265.64
412.36	2263.30
412.55	2300.75
412.74	2300.75
412.93	2429.48
413.12	2202.44
413.31	2434.16
413.50	2476.29
413.69	2438.84
413.88	2483.31
414.07	2455.22
414.26	2537.14
414.45	2480.97
414.64	2612.04
414.83	2654.17
415.02	2635.44
415.22	2588.63
415.41	2658.85
415.60	2682.25
415.79	2724.38
415.98	2682.25
416.17	2705.66
416.36	2745.45
416.55	2803.96
416.74	2757.15
416.93	2853.11
417.12	2775.88
417.31	2918.65
417.50	2792.26
417.69	2958.44
417.88	2918.65
418.07	2883.54
418.26	2839.07
418.45	3042.70
418.64	3016.95
418.83	3094.19
419.02	2953.76
419.21	3145.68
419.39	3101.21
419.58	3159.72
419.77	3035.67
419.96	3199.51
420.15	3131.64
420.34	3124.62
420.53	3218.24
420.72	3262.71
420.91	3253.34
421.10	3309.52
421.29	3325.90
421.48	3262.71
421.67	3272.07
421.86	3304.84
422.05	3323.56
422.24	3253.34
422.43	3342.28
422.61	3325.90
422.80	3428.88
422.99	3353.99
423.18	3475.70
423.37	3386.76
423.56	3452.29
423.75	3508.46
423.94	3307.18
424.13	3197.17
424.32	3302.50
424.50	3428.88
424.69	3562.30
424.88	3571.66
425.07	3417.18
425.26	3449.95
425.45	3492.08
425.64	3304.84
425.83	3421.86
426.01	3414.84
426.20	3419.52
426.39	3548.25
426.58	3508.46
426.77	3611.45
426.96	3466.33
427.15	3499.10
427.33	3513.14
427.52	3609.11
427.71	3611.45
427.90	3548.25
428.09	3552.93
428.28	3695.71
428.46	3812.73
428.65	3716.77
428.84	3763.58
429.03	3815.07
429.22	3679.32
429.40	3667.62
429.59	3742.52
429.78	3662.94
429.97	3637.19
430.16	3679.32
430.34	3770.60
430.53	4007.00
430.72	3983.59
430.91	3850.18
431.10	3875.93
431.28	3904.01
431.47	4072.53
431.66	4140.41
431.85	4039.76
432.03	4145.09
432.22	4168.49
432.41	4049.13
432.60	3978.91
432.79	4028.06
432.97	4124.02
433.16	4107.64
433.35	4114.66
433.54	4109.98
433.72	4100.62
433.91	4210.62
434.10	4168.49
434.28	4236.37
434.47	4372.12
434.66	4292.54
434.85	4454.04
435.03	4465.74
435.22	4409.57
435.41	4432.97
435.59	4351.06
435.78	4484.47
435.97	4472.76
436.16	4308.93
436.34	4451.70
436.53	4409.57
436.72	4676.39
436.90	4397.87
437.09	4526.60
437.28	4561.70
437.46	4550.00
437.65	4496.17
437.84	4538.30
438.02	4606.17
438.21	4718.52
438.40	4650.64
438.58	4702.14
438.77	4854.27
438.96	4732.56
439.14	4770.01
439.33	4781.71
439.52	4856.61
439.70	4791.08
439.89	4929.17
440.08	4929.17
440.26	5149.18
440.45	5153.86
440.63	4933.85
440.82	5167.90
441.01	5193.65
441.19	5177.26
441.38	5298.97
441.57	5275.57
441.75	5228.76
441.94	5329.40
442.12	5315.36
442.31	5423.02
442.50	5446.43
442.68	5575.16
442.87	5247.48
443.05	5453.45
443.24	5554.09
443.43	5692.18
443.61	5696.86
443.80	5926.24
443.98	5418.34
444.17	5411.32
444.35	5521.32
444.54	5743.67
444.73	5633.67
444.91	5621.97
445.10	5479.19
445.28	5575.16
445.47	5706.23
445.65	5671.12
445.84	5631.33
446.02	5762.40
446.21	5804.53
446.39	5680.48
446.58	5626.65
446.77	5708.57
446.95	5706.23
447.14	5701.54
447.32	5804.53
447.51	5694.52
447.69	5694.52
447.88	5701.54
448.06	5846.66
448.25	5708.57
448.43	5905.17
448.62	5781.12
448.80	5863.04
448.99	5902.83
449.17	5753.04
449.36	5870.06
449.54	6061.99
449.73	5935.60
449.91	6146.25
450.10	6069.01
450.28	6064.33
450.46	6092.41
450.65	6059.65
450.83	6157.95
451.02	6200.08
451.20	6312.42
451.39	6108.80
451.57	6118.16
451.76	6106.46
451.94	6200.08
452.13	6218.80
452.31	6340.51
452.49	6321.79
452.68	6370.94
452.86	6331.15
453.05	6384.98
453.23	6303.06
453.42	6345.19
453.60	6384.98
453.78	6661.16
453.97	6270.30
454.15	6445.84
454.34	6392.00
454.52	6516.05
454.70	6621.38
454.89	6560.52
455.07	6642.44
455.26	6740.74
455.44	6778.19
455.62	6588.61
455.81	6799.26
455.99	6719.68
456.17	6719.68
456.36	6778.19
456.54	6909.26
456.73	6885.86
456.91	7089.48
457.09	6874.15
457.28	7073.10
457.46	6899.90
457.64	7176.08
457.83	7155.02
458.01	6815.64
458.19	7220.55
458.38	7197.15
458.56	7136.29
458.74	7314.17
458.93	7169.06
459.11	7234.60
459.29	7089.48
459.48	7082.46
459.66	7478.01
459.84	7461.63
460.03	7494.40
460.21	7323.54
460.39	7220.55
460.57	7318.86
460.76	7494.40
460.94	7513.12
461.12	7531.84
461.31	7499.08
461.49	7435.88
461.67	7632.49
461.85	7705.04
462.04	7435.88
462.22	7995.27
462.40	7616.10
462.59	7906.33
462.77	7688.66
462.95	7672.28
463.13	7653.55
463.32	7911.01
463.50	7934.42
463.68	8086.55
463.86	7939.10
464.05	7873.56
464.23	7857.18
464.41	7929.74
464.59	7903.99
464.78	8112.30
464.96	8063.15
465.14	7866.54
465.32	7932.08
465.50	8039.74
465.69	8107.62
465.87	7992.93
466.05	8116.98
466.23	8121.66
466.41	8138.04
466.60	8393.16
466.78	8182.51
466.96	8131.02
467.14	8234.00
467.32	8222.30
467.51	8425.93
467.69	8112.30
467.87	8093.57
468.05	8465.72
468.23	8257.41
468.41	8308.90
468.60	8402.52
468.78	8472.74
468.96	8358.05
469.14	8608.49
469.32	8720.84
469.50	8528.91
469.69	8531.25
469.87	8938.51
470.05	8847.22
470.23	8840.20
470.41	8833.18
470.59	8741.90
470.77	8840.20
470.95	8994.68
471.14	8980.64
471.32	8791.05
471.50	8990.00
471.68	8957.23
471.86	9181.92
472.04	9050.85
472.22	9387.89
472.40	9252.14
472.58	9181.92
472.77	9242.78
472.95	9312.99
473.13	9612.58
473.31	9198.31
473.49	9619.60
473.67	9586.83
473.85	9554.07
474.03	9839.61
474.21	9657.05
474.39	9694.50
474.57	9856.00
474.75	9905.15
474.93	9839.61
475.12	9837.27
475.30	10246.87
475.48	10024.51
475.66	10298.36
475.84	10080.69
476.02	10277.29
476.20	10132.18
476.38	10284.31
476.56	10530.07
476.74	10637.73
476.92	10640.08
477.10	10649.44
477.28	10501.98
477.46	10644.76
477.64	10822.64
477.82	11192.44
478.00	11063.71
478.18	11087.12
478.36	11225.21
478.54	11653.53
478.72	11440.54
478.90	11339.90
479.08	11723.74
479.26	11632.46
479.44	11889.92
479.62	11896.94
479.80	11805.66
479.98	11735.45
480.16	12187.17
480.34	12081.85
480.52	12318.24
480.70	12336.96
480.88	12271.43
481.06	12184.83
481.24	12306.54
481.41	12669.32
481.59	12762.94
481.77	12924.44
481.95	12856.56
482.13	12996.99
482.31	13064.87
482.49	13378.50
482.67	13497.87
482.85	13582.13
483.03	13640.64
483.21	13738.94
483.39	13855.97
483.57	13916.83
483.74	14047.90
483.92	14033.85
484.10	13987.04
484.28	14424.72
484.46	14513.66
484.64	15070.71
484.82	14370.89
485.00	14551.11
485.18	15066.03
485.35	15140.93
485.53	15218.16
485.71	14951.34
485.89	15440.51
486.07	15089.43
486.25	15269.66
486.43	15412.43
486.61	15744.78
486.78	15704.99
486.96	15704.99
487.14	15922.66
487.32	16269.06
487.50	16339.28
487.68	16533.54
487.85	16374.39
488.03	16664.61
488.21	16865.90
488.39	16910.37
488.57	17366.78
488.75	17142.08
488.92	17528.27
489.10	17467.42
489.28	17528.27
489.46	17713.17
489.64	17631.26
489.81	18120.43
489.99	18164.90
490.17	18302.99
490.35	18342.78
490.53	18218.73
490.70	18464.49
490.88	18555.77
491.06	18934.93
491.24	19007.49
491.41	19066.00
491.59	19358.57
491.77	18967.70
491.95	19297.72
492.13	19267.29
492.30	19524.75
492.48	19517.73
492.66	20100.52
492.84	19894.55
493.01	20194.14
493.19	20013.92
493.37	20290.10
493.54	20465.64
493.72	20893.96
493.90	20692.68
494.08	20592.03
494.25	20877.58
494.43	20842.47
494.61	21294.19
494.79	21207.59
494.96	21312.92
495.14	21476.76
495.32	21638.25
495.49	21839.54
495.67	21872.31
495.85	22338.07
496.02	22024.44
496.20	22204.66
496.38	22537.02
496.55	22448.08
496.73	23152.58
496.91	22876.40
497.09	22852.99
497.26	22799.16
497.44	22998.10
497.62	23124.49
497.79	23866.44
497.97	23161.94
498.14	23812.61
498.32	23618.35
498.50	23910.91
498.67	23903.89
498.85	24013.90
499.03	24130.92
499.20	24056.03
499.38	24130.92
499.56	24170.71
499.73	24379.02
499.91	24329.87
500.08	24954.79
500.26	24594.35
500.44	24922.02
500.61	25146.72
500.79	24627.12
500.97	24886.92
501.14	25160.76
501.32	25032.03
501.49	25280.13
501.67	25362.04
501.84	25855.90
502.02	25460.35
502.20	25905.05
502.37	25635.89
502.55	25752.91
502.72	25891.01
502.90	26202.30
503.07	26293.58
503.25	26008.03
503.43	26450.39
503.60	26256.13
503.78	26745.30
503.95	26600.19
504.13	26352.09
504.30	26801.47
504.48	26787.43
504.65	26909.14
504.83	27009.78
505.01	27126.81
505.18	27309.37
505.36	27087.02
505.53	27321.07
505.71	27388.95
505.88	27456.82
506.06	27342.14
506.23	27623.00
506.41	27583.21
506.58	27482.57
506.76	27807.90
506.93	28233.88
507.11	27709.60
507.28	28144.94
507.46	28084.09
507.63	28510.07
507.81	28638.80
507.98	28535.81
508.16	28362.61
508.33	28470.28
508.50	28959.45
508.68	28641.14
508.85	29151.37
509.03	28854.12
509.20	29081.16
509.38	29223.93
509.55	29336.27
509.73	29455.64
509.90	29481.39
510.08	29752.89
510.25	29542.24
510.42	29715.44
510.60	29624.16
510.77	29797.36
510.95	30307.60
511.12	29872.26
511.30	30064.18
511.47	30120.35
511.64	30150.78
511.82	30387.18
511.99	30291.21
512.17	30654.00
512.34	30291.21
512.51	30717.19
512.69	31248.49
512.86	30649.32
513.04	31159.55
513.21	30869.33
513.38	31119.76
513.56	31103.38
513.73	30948.90
513.90	31454.46
514.08	31299.98
514.25	31222.75
514.43	31351.48
514.60	31461.48
514.77	31730.64
514.95	31538.72
515.12	32016.19
515.29	31880.44
515.47	31791.50
515.64	32395.35
515.81	31599.57
515.99	32217.47
516.16	32264.28
516.33	32280.67
516.51	32804.95
516.68	32477.27
516.85	32521.74
517.03	32886.87
517.20	32865.80
517.37	32678.56
517.54	32891.55
517.72	32884.53
517.89	32727.71
518.06	32968.79
518.24	32858.78
518.41	32971.13
518.58	33111.56
518.75	33106.88
518.93	33535.20
519.10	33696.69
519.27	33352.63
519.45	33551.58
519.62	33514.13
519.79	33912.02
519.96	33567.96
520.14	33996.28
520.31	34225.65
520.48	34136.71
520.65	33851.17
520.83	33984.58
521.00	34141.39
521.17	34419.92
521.34	34359.06
521.52	34492.47
521.69	34668.02
521.86	34796.74
522.03	34981.65
522.20	35227.40
522.38	35365.49
522.55	35292.94
522.72	35131.44
522.89	35068.25
523.07	35215.70
523.24	35299.96
523.41	35395.92
523.58	35608.91
523.75	35431.03
523.92	35370.18
524.10	35714.23
524.27	35328.05
524.44	35814.88
524.61	35697.85
524.78	35775.09
524.96	36081.70
525.13	36315.75
525.30	36313.41
525.47	36297.03
525.64	36229.15
525.81	36055.95
525.98	36320.43
526.16	36236.17
526.33	36339.16
526.50	36556.83
526.67	36446.82
526.84	36425.76
527.01	36835.35
527.18	36360.22
527.36	36912.59
527.53	36847.05
527.70	37336.23
527.87	37420.48
528.04	37132.60
528.21	37322.18
528.38	36877.48
528.55	37109.19
528.72	36971.10
528.89	37200.47
529.07	36900.89
529.24	37301.12
529.41	37759.86
529.58	37354.95
529.75	37191.11
529.92	37717.73
530.09	37516.45
530.26	37558.58
530.43	37848.80
530.60	37581.98
530.77	37570.28
530.94	38026.68
531.11	37984.55
531.28	38225.63
531.46	37968.17
531.63	38040.73
531.80	38387.13
531.97	38455.00
532.14	38272.44
532.31	38286.48
532.48	38611.82
532.65	38878.64
532.82	38328.61
532.99	38447.98
533.16	38349.68
533.33	38569.69
533.50	38836.51
533.67	38880.98
533.84	38455.00
534.01	38700.76
534.18	38801.40
534.35	39304.62
534.52	39164.18
534.69	39082.27
534.86	39519.95
535.03	39030.77
535.20	39482.50
535.37	39405.26
535.54	39665.06
535.71	39398.24
535.88	39803.15
536.05	39737.62
536.22	39835.92
536.38	39845.28
536.55	39241.42
536.72	39735.27
536.89	39768.04
537.06	39693.15
537.23	39997.41
537.40	39639.31
537.57	39852.30
537.74	39901.45
537.91	40194.02
538.08	39992.73
538.25	40144.87
538.42	40378.92
538.59	40631.70
538.75	40201.04
538.92	40582.55
539.09	40638.72
539.26	40264.24
539.43	40156.57
539.60	40493.61
539.77	40577.87
539.94	41010.87
540.11	40596.59
540.28	40783.83
540.44	40933.63
540.61	40325.09
540.78	40748.73
540.95	41184.07
541.12	40701.92
541.29	40685.53
541.46	41050.66
541.62	41092.79
541.79	41605.36
541.96	40767.45
542.13	40910.22
542.30	41357.27
542.47	41579.62
542.63	41249.60
542.80	41460.25
542.97	41890.91
543.14	41661.54
543.31	41586.64
543.48	41851.12
543.64	42384.76
543.81	41727.07
543.98	42000.91
544.15	41916.65
544.32	42462.00
544.48	42548.60
544.65	42408.17
544.82	42024.32
544.99	42129.64
545.16	41986.87
545.32	42174.11
545.49	42319.23
545.66	42410.51
545.83	43077.56
546.00	42459.66
546.16	42541.58
546.33	42265.39
546.50	42735.84
546.67	42880.95
546.83	42340.29
547.00	42590.73
547.17	42499.45
547.34	43203.95
547.50	42745.20
547.67	42951.17
547.84	42969.90
548.00	43072.88
548.17	43512.90
548.34	43047.13
548.51	43306.93
548.67	43306.93
548.84	43196.93
549.01	43232.04
549.18	43164.16
549.34	43629.93
549.51	43693.12
549.68	43440.34
549.84	43365.45
550.01	43428.64
550.18	43487.15
550.34	43414.60
550.51	43730.57
550.68	44149.53
550.84	43283.53
551.01	43559.71
551.18	43718.87
551.34	43604.18
551.51	43871.00
551.68	43601.84
551.84	44025.48
552.01	43896.75
552.18	43702.48
552.34	44257.19
552.51	44006.75
552.68	43569.07
552.84	43796.10
553.01	44163.57
553.18	43964.62
553.34	44186.97
553.51	44151.87
553.67	44699.55
553.84	44552.10
554.01	44486.56
554.17	44348.47
554.34	44556.78
554.51	44364.85
554.67	45067.02
554.84	44521.67
555.00	45134.89
555.17	44636.36
555.33	44935.95
555.50	44376.56
555.67	44765.09
555.83	44624.65
556.00	45532.78
556.16	45375.97
556.33	45125.53
556.50	44636.36
556.66	44662.10
556.83	44519.33
556.99	45226.17
557.16	45303.41
557.32	44978.07
557.49	45118.51
557.65	44666.78
557.82	45485.97
557.98	45085.74
558.15	45153.62
558.32	45186.38
558.48	45003.82
558.65	45408.73
558.81	45085.74
558.98	44966.37
559.14	45230.85
559.31	44896.16
559.47	45104.46
559.64	45251.92
559.80	45310.43
559.97	45324.47
560.13	45366.60
560.30	45720.02
560.46	45724.71
560.63	45645.13
560.79	45832.37
560.96	45876.84
561.12	45918.97
561.29	45357.24
561.45	45832.37
561.61	45338.52
561.78	45338.52
561.94	45492.99
562.11	45647.47
562.27	45434.48
562.44	45689.60
562.60	45930.67
562.77	45991.53
562.93	45883.86
563.10	46216.22
563.26	45581.93
563.42	46115.58
563.59	45855.78
563.75	46024.29
563.92	46281.75
564.08	45818.33
564.24	46003.23
564.41	45794.92
564.57	46138.98
564.74	46375.37
564.90	45900.25
565.07	46012.59
565.23	46010.25
565.39	45720.02
565.56	46036.00
565.72	46497.08
565.88	45979.82
566.05	46312.18
566.21	46232.60
566.38	46258.35
566.54	46340.27
566.70	46515.81
566.87	46150.68
567.03	46248.99
567.19	46363.67
567.36	46452.61
567.52	46534.53
567.68	46466.66
567.85	46478.36
568.01	46555.60
568.17	46618.79
568.34	46342.61
568.50	46827.10
568.66	46349.63
568.83	46497.08
568.99	46101.53
569.15	46689.01
569.32	46553.26
569.48	46480.70
569.64	47180.52
569.81	46595.38
569.97	46546.23
570.13	46635.17
570.30	46333.24
570.46	46693.69
570.62	46644.54
570.78	46806.03
570.95	46358.99
571.11	47131.37
571.27	46508.79
571.43	46548.57
571.60	46291.12
571.76	46780.29
571.92	46789.65
572.09	46721.77
572.25	46920.72
572.41	46588.36
572.57	46581.34
572.74	47114.98
572.90	46763.90
573.06	46836.46
573.22	46864.55
573.38	47320.95
573.55	46843.48
573.71	47442.66
573.87	46962.85
574.03	47004.98
574.20	47063.49
574.36	47091.58
574.52	47168.82
574.68	46773.27
574.84	47107.96
575.01	47206.26
575.17	47016.68
575.33	46857.52
575.49	46960.51
575.65	47206.26
575.82	46974.55
575.98	47042.43
576.14	47007.32
576.30	46759.22
576.46	47042.43
576.62	47037.75
576.79	47288.18
576.95	46756.88
577.11	46829.44
577.27	46972.21
577.43	47154.77
577.59	47040.09
577.75	46866.89
577.92	46913.70
578.08	46836.46
578.24	47173.50
578.40	47386.49
578.56	47241.37
578.72	47077.54
578.88	47166.48
579.04	47051.79
579.21	47227.33
579.37	47030.72
579.53	47386.49
579.69	46951.15
579.85	47159.45
580.01	47309.25
580.17	47079.88
580.33	47264.78
580.49	47505.85
580.65	47042.43
580.82	47320.95
580.98	46890.29
581.14	46637.51
581.30	47543.30
581.46	47175.84
581.62	47110.30
581.78	47037.75
581.94	47702.46
582.10	47210.95
582.26	47379.46
582.42	47407.55
582.58	47084.56
582.74	47461.38
582.90	47489.47
583.06	47051.79
583.22	47065.83
583.38	47164.14
583.54	47505.85
583.70	47391.17
583.86	47641.60
584.02	47269.46
584.18	47480.11
584.34	47026.04
584.50	47863.96
584.66	47477.77
584.82	47426.28
584.98	48161.20
585.14	47297.55
585.30	47260.10
585.46	47519.90
585.62	47304.57
585.78	47466.06
585.94	47002.64
586.10	47292.86
586.26	46916.04
586.42	47393.51
586.58	47557.35
586.74	47119.66
586.90	47292.86
587.06	47744.59
587.22	47814.80
587.38	47199.24
587.54	47587.77
587.70	47386.49
587.86	47398.19
588.02	47264.78
588.18	47227.33
588.34	47309.25
588.49	47545.64
588.65	47274.14
588.81	47194.56
588.97	47597.13
589.13	47721.18
589.29	47129.03
589.45	47973.96
589.61	47576.07
589.77	47856.93
589.93	47491.81
590.08	47739.91
