SpectraSuite Data File
++++++++++++++++++++++++++++++++++++
Date: Fri Oct 25 10:48:02 EDT 2013
User: price-jones
Dark Spectrum Present: No
Reference Spectrum Present: No
Number of Sampled Component Spectra: 1
Spectrometers: USB2+H05261
Integration Time (usec): 100000 (USB2+H05261)
Spectra Averaged: 1 (USB2+H05261)
Boxcar Smoothing: 0 (USB2+H05261)
Correct for Electrical Dark: No (USB2+H05261)
Strobe/Lamp Enabled: No (USB2+H05261)
Correct for Detector Non-linearity: No (USB2+H05261)
Correct for Stray Light: No (USB2+H05261)
Number of Pixels in Processed Spectrum: 2048
>>>>>Begin Processed Spectral Data<<<<<
365.73	114.69
365.92	114.69
366.12	114.69
366.32	84.26
366.52	16.38
366.72	23.41
366.91	14.04
367.11	0.00
367.31	23.41
367.51	72.56
367.70	35.11
367.90	67.88
368.10	49.15
368.30	46.81
368.49	35.11
368.69	60.85
368.89	65.54
369.09	81.92
369.28	107.66
369.48	35.11
369.68	81.92
369.87	166.18
370.07	67.88
370.27	159.16
370.47	210.65
370.66	334.70
370.86	414.27
371.06	456.40
371.25	486.83
371.45	491.51
371.65	482.15
371.84	409.59
372.04	465.77
372.24	402.57
372.44	472.79
372.63	416.62
372.83	475.13
373.03	510.24
373.22	514.92
373.42	526.62
373.62	472.79
373.81	458.74
374.01	550.03
374.21	507.90
374.40	517.26
374.60	596.84
374.79	528.96
374.99	528.96
375.19	575.77
375.38	519.60
375.58	617.90
375.78	587.47
375.97	589.82
376.17	622.58
376.37	496.19
376.56	568.75
376.76	606.20
376.95	573.43
377.15	587.47
377.35	650.67
377.54	571.09
377.74	528.96
377.93	526.62
378.13	564.07
378.33	678.76
378.52	575.77
378.72	671.73
378.91	573.43
379.11	662.37
379.31	566.41
379.50	636.63
379.70	631.94
379.89	617.90
380.09	559.39
380.28	543.00
380.48	739.61
380.68	653.01
380.87	650.67
381.07	660.03
381.26	725.57
381.46	711.52
381.65	664.71
381.85	725.57
382.04	758.33
382.24	648.33
382.43	788.76
382.63	706.84
382.83	662.37
383.02	739.61
383.22	704.50
383.41	704.50
383.61	676.41
383.80	706.84
384.00	676.41
384.19	678.76
384.39	748.97
384.58	695.14
384.78	737.27
384.97	720.88
385.17	681.10
385.36	753.65
385.56	746.63
385.75	727.91
385.95	772.38
386.14	809.83
386.34	772.38
386.53	812.17
386.72	763.01
386.92	802.80
387.11	791.10
387.31	877.70
387.50	739.61
387.70	807.48
387.89	858.98
388.09	748.97
388.28	851.96
388.48	847.27
388.67	840.25
388.86	884.72
389.06	847.27
389.25	866.00
389.45	877.70
389.64	889.40
389.84	915.15
390.03	802.80
390.22	889.40
390.42	866.00
390.61	929.19
390.81	873.02
391.00	940.90
391.19	987.71
391.39	924.51
391.58	1001.75
391.78	896.43
391.97	987.71
392.16	968.98
392.36	952.60
392.55	994.73
392.75	926.85
392.94	919.83
393.13	924.51
393.33	983.02
393.52	992.39
393.71	976.00
393.91	1043.88
394.10	1027.50
394.29	1118.78
394.49	1029.84
394.68	1034.52
394.88	1095.37
395.07	1032.18
395.26	1179.63
395.46	1151.54
395.65	1121.12
395.84	1130.48
396.04	1078.99
396.23	1039.20
396.42	1006.43
396.62	1214.74
396.81	1160.91
397.00	1167.93
397.19	1203.04
397.39	1247.51
397.58	1299.00
397.77	1198.35
397.97	1331.76
398.16	1263.89
398.35	1334.11
398.55	1331.76
398.74	1273.25
398.93	1301.34
399.12	1341.13
399.32	1256.87
399.51	1296.66
399.70	1397.30
399.90	1425.39
400.09	1413.68
400.28	1432.41
400.47	1376.24
400.67	1439.43
400.86	1427.73
401.05	1474.54
401.24	1462.83
401.44	1462.83
401.63	1423.05
401.82	1577.52
402.01	1507.30
402.21	1551.78
402.40	1526.03
402.59	1561.14
402.78	1495.60
402.97	1549.43
403.17	1607.95
403.36	1544.75
403.55	1593.90
403.74	1521.35
403.93	1544.75
404.13	1643.06
404.32	1591.56
404.51	1638.38
404.70	1689.87
404.89	1617.31
405.09	1860.73
405.28	1689.87
405.47	1720.29
405.66	1813.92
405.85	1671.14
406.05	1809.23
406.24	1722.63
406.43	1715.61
406.62	1809.23
406.81	1834.98
407.00	1673.48
407.20	1685.19
407.39	1797.53
407.58	1895.83
407.77	1893.49
407.96	1989.46
408.15	1923.92
408.34	1919.24
408.54	1998.82
408.73	1891.15
408.92	1989.46
409.11	1961.37
409.30	2031.58
409.49	2015.20
409.68	2017.54
409.87	2038.61
410.07	2005.84
410.26	2043.29
410.45	2038.61
410.64	2033.93
410.83	2113.50
411.02	2024.56
411.21	2214.15
411.40	2134.57
411.59	2314.79
411.78	2256.28
411.98	2223.51
412.17	2218.83
412.36	2455.22
412.55	2342.88
412.74	2363.94
412.93	2401.39
413.12	2305.43
413.31	2518.42
413.50	2399.05
413.69	2602.68
413.88	2565.23
414.07	2441.18
414.26	2541.82
414.45	2553.52
414.64	2565.23
414.83	2675.23
415.02	2576.93
415.22	2672.89
415.41	2717.36
415.60	2619.06
415.79	2710.34
415.98	2836.73
416.17	2825.03
416.36	2778.22
416.55	2806.30
416.74	2895.24
416.93	2832.05
417.12	2834.39
417.31	2850.77
417.50	2958.44
417.69	2984.18
417.88	2911.63
418.07	2930.35
418.26	3059.08
418.45	2998.23
418.64	3169.09
418.83	3070.78
419.02	3094.19
419.21	3187.81
419.39	3206.53
419.58	3108.23
419.77	3122.27
419.96	3190.15
420.15	3274.41
420.34	3234.62
420.53	3166.74
420.72	3351.65
420.91	3293.13
421.10	3426.54
421.29	3440.59
421.48	3356.33
421.67	3361.01
421.86	3297.81
422.05	3431.23
422.24	3234.62
422.43	3375.05
422.61	3419.52
422.80	3368.03
422.99	3613.79
423.18	3522.51
423.37	3665.28
423.56	3468.67
423.75	3588.04
423.94	3534.21
424.13	3190.15
424.32	3307.18
424.50	3468.67
424.69	3662.94
424.88	3702.73
425.07	3442.93
425.26	3421.86
425.45	3501.44
425.64	3534.21
425.83	3389.10
426.01	3515.48
426.20	3548.25
426.39	3517.83
426.58	3536.55
426.77	3499.10
426.96	3627.83
427.15	3538.89
427.33	3674.64
427.52	3606.77
427.71	3705.07
427.90	3625.49
428.09	3679.32
428.28	3702.73
428.46	3728.47
428.65	3744.86
428.84	3815.07
429.03	3796.35
429.22	3684.00
429.40	3754.22
429.59	3796.35
429.78	3709.75
429.97	3665.28
430.16	3634.85
430.34	3723.79
430.53	3805.71
430.72	3836.14
430.91	3803.37
431.10	3943.80
431.28	3997.64
431.47	4168.49
431.66	3978.91
431.85	3955.51
432.03	4159.13
432.22	4149.77
432.41	4117.00
432.60	4215.30
432.79	4173.18
432.97	4182.54
433.16	4095.94
433.35	4135.73
433.54	4182.54
433.72	4306.59
433.91	4222.33
434.10	4046.79
434.28	4091.26
434.47	4388.50
434.66	4411.91
434.85	4400.21
435.03	4449.36
435.22	4332.33
435.41	4395.53
435.59	4496.17
435.78	4566.39
435.97	4571.07
436.16	4477.44
436.34	4631.92
436.53	4519.57
436.72	4645.96
436.90	4435.32
437.09	4627.24
437.28	4519.57
437.46	4540.64
437.65	4685.75
437.84	4723.20
438.02	4716.18
438.21	4627.24
438.40	4730.22
438.58	4781.71
438.77	4765.33
438.96	4908.10
439.14	4840.23
439.33	4922.15
439.52	5130.45
439.70	4952.57
439.89	4945.55
440.08	5144.50
440.26	5116.41
440.45	5015.77
440.63	5076.62
440.82	5153.86
441.01	5270.89
441.19	5282.59
441.38	5399.62
441.57	5277.91
441.75	5408.98
441.94	5551.75
442.12	5406.64
442.31	5682.82
442.50	5483.88
442.68	5540.05
442.87	5446.43
443.05	5572.82
443.24	5692.18
443.43	5493.24
443.61	5694.52
443.80	5846.66
443.98	5600.90
444.17	5516.64
444.35	5727.29
444.54	5762.40
444.73	5769.42
444.91	5757.72
445.10	5799.85
445.28	5668.78
445.47	5701.54
445.65	5626.65
445.84	5633.67
446.02	5769.42
446.21	5827.93
446.39	5790.49
446.58	5872.40
446.77	5806.87
446.95	5771.76
447.14	5841.98
447.32	5984.75
447.51	5916.87
447.69	5863.04
447.88	5834.96
448.06	5900.49
448.25	5900.49
448.43	5959.00
448.62	5891.13
448.80	5940.28
448.99	5963.68
449.17	6010.50
449.36	5977.73
449.54	6235.19
449.73	6382.64
449.91	6356.90
450.10	6197.74
450.28	6347.53
450.46	6291.36
450.65	6527.75
450.83	6246.89
451.02	6331.15
451.20	6279.66
451.39	6513.71
451.57	6202.42
451.76	6377.96
451.94	6408.39
452.13	6384.98
452.31	6354.55
452.49	6183.70
452.68	6499.67
452.86	6370.94
453.05	6602.65
453.23	6677.55
453.42	6420.09
453.60	6504.35
453.78	6612.01
453.97	6518.39
454.15	6527.75
454.34	6490.31
454.52	6530.09
454.70	6750.10
454.89	6764.15
455.07	6853.09
455.26	6782.87
455.44	6834.36
455.62	6841.39
455.81	6682.23
455.99	6984.16
456.17	6775.85
456.36	6937.35
456.54	6977.14
456.73	6904.58
456.91	7222.89
457.09	7124.59
457.28	7300.13
457.46	7061.40
457.64	7274.38
457.83	7042.67
458.01	7215.87
458.19	7391.41
458.38	7229.91
458.56	7566.95
458.74	7279.07
458.93	7201.83
459.11	7379.71
459.29	7300.13
459.48	7541.21
459.66	7468.65
459.84	7531.84
460.03	7571.63
460.21	7524.82
460.39	7524.82
460.57	7604.40
460.76	7672.28
460.94	7770.58
461.12	7728.45
461.31	7660.57
461.49	7637.17
461.67	7691.00
461.85	7754.19
462.04	7943.78
462.22	8294.86
462.40	7850.16
462.59	7854.84
462.77	7634.83
462.95	8079.53
463.13	7894.63
463.32	7831.43
463.50	7946.12
463.68	7953.14
463.86	8128.68
464.05	7896.97
464.23	7906.33
464.41	8081.87
464.59	7922.71
464.78	8374.44
464.96	8088.89
465.14	7964.84
465.32	8044.42
465.50	8138.04
465.69	8147.40
465.87	8358.05
466.05	8283.16
466.23	8259.75
466.41	8224.64
466.60	8451.67
466.78	8262.09
466.96	8229.32
467.14	8276.13
467.32	8388.48
467.51	8533.59
467.69	8180.17
467.87	8423.59
468.05	8571.04
468.23	8479.76
468.41	8315.92
468.60	8414.23
468.78	8472.74
468.96	8594.45
469.14	8744.24
469.32	8758.28
469.50	8528.91
469.69	8805.10
469.87	8746.58
470.05	8784.03
470.23	8910.42
470.41	8730.20
470.59	8877.65
470.77	8812.12
470.95	8957.23
471.14	9088.30
471.32	8931.48
471.50	9355.12
471.68	9179.58
471.86	9273.20
472.04	9114.05
472.22	9364.48
472.40	9153.84
472.58	9315.33
472.77	9317.67
472.95	9432.36
473.13	9666.41
473.31	9451.08
473.49	9469.81
473.67	9397.25
473.85	9717.90
474.03	9881.74
474.21	9860.68
474.39	9851.31
474.57	9909.83
474.75	10162.61
474.93	9975.36
475.12	10097.07
475.30	10024.51
475.48	9989.41
475.66	10291.34
475.84	10162.61
476.02	10186.01
476.20	10443.47
476.38	10534.75
476.56	10375.59
476.74	10277.29
476.92	10544.11
477.10	10408.36
477.28	10883.49
477.46	10661.14
477.64	10853.06
477.82	10881.15
478.00	11213.51
478.18	11133.93
478.36	11180.74
478.54	11372.66
478.72	11428.84
478.90	11674.59
479.08	11770.55
479.26	11681.61
479.44	11899.28
479.62	11737.79
479.80	11672.25
479.98	11971.84
480.16	12217.60
480.34	12224.62
480.52	12212.92
480.70	12442.29
480.88	12138.02
481.06	12355.69
481.24	12517.18
481.41	12524.21
481.59	12704.43
481.77	12957.21
481.95	12865.92
482.13	12910.40
482.31	13001.68
482.49	13209.98
482.67	13401.91
482.85	13458.08
483.03	13483.83
483.21	13715.54
483.39	13764.69
483.57	13605.53
483.74	13921.51
483.92	14129.81
484.10	13905.12
484.28	14391.95
484.46	14455.15
484.64	14860.06
484.82	14415.36
485.00	14754.74
485.18	14796.87
485.35	15014.54
485.53	14831.97
485.71	14738.35
485.89	15044.96
486.07	14937.30
486.25	15337.53
486.43	15370.30
486.61	15604.35
486.78	15714.36
486.96	15850.11
487.14	16257.36
487.32	16112.25
487.50	16432.90
487.68	16601.42
487.85	16762.92
488.03	16908.03
488.21	17135.06
488.39	17090.59
488.57	16875.26
488.75	17139.74
488.92	17341.03
489.10	17446.35
489.28	17547.00
489.46	17624.23
489.64	17664.02
489.81	18005.74
489.99	18061.91
490.17	17921.48
490.35	18436.40
490.53	18654.07
490.70	18817.91
490.88	18773.44
491.06	18951.32
491.24	18824.93
491.41	18738.33
491.59	18911.53
491.77	19096.43
491.95	19377.30
492.13	19627.73
492.30	19545.81
492.48	19541.13
492.66	19616.03
492.84	19599.65
493.01	20051.37
493.19	19939.02
493.37	20013.92
493.54	20556.93
493.72	20442.24
493.90	20451.60
494.08	20835.45
494.25	20985.24
494.43	20767.57
494.61	21364.41
494.79	21448.67
494.96	21160.78
495.14	21200.57
495.32	21586.76
495.49	21380.79
495.67	21682.72
495.85	22005.72
496.02	21783.37
496.20	22064.23
496.38	22288.92
496.55	22539.36
496.73	22679.79
496.91	22569.79
497.09	22595.53
497.26	22890.44
497.44	22768.73
497.62	23087.04
497.79	23166.62
497.97	23047.26
498.14	23012.15
498.32	23599.62
498.50	23262.58
498.67	23686.22
498.85	23821.97
499.03	23857.08
499.20	23704.95
499.38	24049.00
499.56	24072.41
499.73	24182.42
499.91	23922.62
500.08	24456.26
500.26	24130.92
500.44	24402.43
500.61	24095.82
500.79	24290.08
500.97	24472.64
501.14	25106.93
501.32	24922.02
501.49	24875.21
501.67	25097.56
501.84	25144.38
502.02	25060.12
502.20	25273.10
502.37	25425.24
502.55	25212.25
502.72	25483.75
502.90	25542.27
503.07	25439.28
503.25	25710.78
503.43	25752.91
503.60	25804.41
503.78	25781.00
503.95	26073.57
504.13	26490.18
504.30	26408.26
504.48	26302.94
504.65	26448.05
504.83	26644.66
505.01	26698.49
505.18	26572.10
505.36	26738.28
505.53	26906.80
505.71	27047.23
505.88	27075.32
506.06	26897.44
506.23	27377.25
506.41	27412.35
506.58	27232.13
506.76	27894.50
506.93	27564.49
507.11	27395.97
507.28	27688.54
507.46	28102.81
507.63	27955.36
507.81	27625.34
507.98	27625.34
508.16	28044.30
508.33	27915.57
508.50	28229.20
508.68	28273.67
508.85	28458.57
509.03	28613.05
509.20	28477.30
509.38	28823.70
509.55	28821.36
509.73	29088.18
509.90	28795.61
510.08	28599.01
510.25	29078.82
510.42	28608.37
510.60	29446.28
510.77	29287.12
510.95	29472.03
511.12	29495.43
511.30	29785.66
511.47	29638.20
511.64	29589.05
511.82	29958.86
511.99	29703.74
512.17	30277.17
512.34	29703.74
512.51	30391.86
512.69	29916.73
512.86	30368.45
513.04	30497.18
513.21	30153.12
513.38	30279.51
513.56	30429.30
513.73	30148.44
513.90	30679.74
514.08	30309.94
514.25	30651.66
514.43	30256.11
514.60	30691.44
514.77	30778.04
514.95	31342.11
515.12	31089.34
515.29	31098.70
515.47	31615.96
515.64	31288.28
515.81	31381.90
515.99	31234.45
516.16	31168.91
516.33	31693.19
516.51	31503.61
516.68	31309.35
516.85	31379.56
517.03	31426.37
517.20	31880.44
517.37	31880.44
517.54	31817.24
517.72	32219.81
517.89	31793.84
518.06	31763.41
518.24	31908.52
518.41	31981.08
518.58	32285.35
518.75	32362.59
518.93	32531.11
519.10	32142.58
519.27	32603.66
519.45	32273.65
519.62	32732.39
519.79	32917.29
519.96	33076.45
520.14	33118.58
520.31	33141.99
520.48	32961.76
520.65	32790.91
520.83	33340.93
521.00	33343.27
521.17	33420.51
521.34	33074.11
521.52	33497.75
521.69	33284.76
521.86	33762.23
522.03	33876.91
522.20	33582.01
522.38	33982.24
522.55	33834.78
522.72	33991.60
522.89	33947.13
523.07	34178.84
523.24	34024.37
523.41	34134.37
523.58	34108.63
523.75	34546.31
523.92	34632.91
524.10	34621.20
524.27	34717.17
524.44	34562.69
524.61	34855.26
524.78	34916.11
524.96	34483.11
525.13	35171.23
525.30	35346.77
525.47	35620.61
525.64	35016.75
525.81	35536.35
525.98	35391.24
526.16	34663.33
526.33	35290.60
526.50	35356.13
526.67	35009.73
526.84	35082.29
527.01	35395.92
527.18	35613.59
527.36	35505.93
527.53	35428.69
527.70	35962.33
527.87	36294.69
528.04	35974.03
528.21	36048.93
528.38	35747.00
528.55	36051.27
528.72	36100.42
528.89	36058.29
529.07	36622.36
529.24	36334.48
529.41	36554.49
529.58	35908.50
529.75	36275.96
529.92	36404.69
530.09	36439.80
530.26	36814.29
530.43	36760.45
530.60	35999.78
530.77	37181.75
530.94	37233.24
531.11	36755.77
531.28	36629.38
531.46	36999.19
531.63	37109.19
531.80	36636.41
531.97	36935.99
532.14	37457.93
532.31	36669.17
532.48	37179.41
532.65	37706.03
532.82	37361.97
532.99	37563.26
533.16	37113.87
533.33	37408.78
533.50	38045.41
533.67	37720.07
533.84	37202.82
534.01	37427.51
534.18	37200.47
534.35	37895.61
534.52	37762.20
534.69	37787.95
534.86	38103.92
535.03	37420.48
535.20	37776.25
535.37	38103.92
535.54	38160.09
535.71	38330.95
535.88	38134.35
536.05	38284.14
536.22	38651.61
536.38	38223.29
536.55	38277.12
536.72	38291.16
536.89	38279.46
537.06	38085.20
537.23	38445.64
537.40	38705.44
537.57	37956.47
537.74	38609.48
537.91	38752.25
538.08	38862.26
538.25	38106.26
538.42	38888.00
538.59	39192.27
538.75	38628.20
538.92	39452.07
539.09	38817.78
539.26	38864.60
539.43	38873.96
539.60	39445.05
539.77	39405.26
539.94	38925.45
540.11	38813.10
540.28	38909.07
540.44	39054.18
540.61	39157.16
540.78	39131.42
540.95	39124.40
541.12	39147.80
541.29	39587.82
541.46	39161.84
541.62	39636.97
541.79	39739.96
541.96	38951.20
542.13	39552.71
542.30	39552.71
542.47	39777.40
542.63	39494.20
542.80	40158.91
542.97	40142.53
543.14	40423.39
543.31	40154.23
543.48	40268.92
543.64	40477.22
543.81	40854.05
543.98	40360.20
544.15	40474.88
544.32	40463.18
544.48	41099.81
544.65	40126.14
544.82	40722.98
544.99	39756.34
545.16	40411.69
545.32	40872.78
545.49	40737.02
545.66	41060.02
545.83	40999.16
546.00	41106.83
546.16	40896.18
546.33	40470.20
546.50	40739.36
546.67	40877.46
546.83	40821.28
547.00	40987.46
547.17	40840.01
547.34	40781.49
547.50	41134.92
547.67	41703.67
547.84	41373.65
548.00	41322.16
548.17	41523.44
548.34	41233.22
548.51	41656.85
548.67	41399.40
548.84	41745.80
549.01	41326.84
549.18	41303.43
549.34	41947.08
549.51	41926.02
549.68	41914.31
549.84	41823.03
550.01	41621.75
550.18	41902.61
550.34	41532.81
550.51	41654.51
550.68	41607.70
550.84	41429.82
551.01	41588.98
551.18	41663.88
551.34	41659.20
551.51	41930.70
551.68	42029.00
551.84	42082.83
552.01	42293.48
552.18	41792.61
552.34	41483.66
552.51	42513.49
552.68	41785.58
552.84	42691.37
553.01	42476.04
553.18	41982.19
553.34	42185.82
553.51	42103.90
553.67	42286.46
553.84	42586.05
554.01	42340.29
554.17	42321.57
554.34	42499.45
554.51	42747.54
554.67	42553.28
554.84	42742.86
555.00	42869.25
555.17	42665.63
555.33	42483.06
555.50	42249.01
555.67	42586.05
555.83	42660.94
556.00	43065.86
556.16	43203.95
556.33	43047.13
556.50	43028.41
556.66	43026.07
556.83	42649.24
556.99	43379.49
557.16	42899.68
557.32	43037.77
557.49	42700.73
557.65	42536.90
557.82	42920.74
557.98	42677.33
558.15	42974.58
558.32	43330.34
558.48	43063.52
558.65	43070.54
558.81	42651.58
558.98	42939.47
559.14	42923.08
559.31	43009.68
559.47	43559.71
559.64	43428.64
559.80	43332.68
559.97	43548.01
560.13	43117.35
560.30	43070.54
560.46	43208.63
560.63	43863.98
560.79	43430.98
560.96	43700.14
561.12	43171.18
561.29	43283.53
561.45	43468.43
561.61	43480.13
561.78	43536.30
561.94	43487.15
562.11	43253.10
562.27	43517.58
562.44	43753.97
562.60	43796.10
562.77	43510.56
562.93	43742.27
563.10	43725.89
563.26	43283.53
563.42	43653.33
563.59	43924.83
563.75	43515.24
563.92	43875.68
564.08	43868.66
564.24	43573.75
564.41	43531.62
564.57	43807.81
564.74	43545.67
564.90	43770.36
565.07	43494.18
565.23	43533.96
565.39	43768.02
565.56	43805.47
565.72	44002.07
565.88	43414.60
566.05	43831.21
566.21	43840.57
566.38	43943.56
566.54	43494.18
566.70	44100.37
566.87	44573.16
567.03	43838.23
567.19	44261.87
567.36	44311.02
567.52	43999.73
567.68	44332.09
567.85	43800.79
568.01	43889.73
568.17	43697.80
568.34	44437.41
568.50	44013.77
568.66	43922.49
568.83	43866.32
568.99	43477.79
569.15	44100.37
569.32	43824.19
569.48	43728.23
569.64	44353.15
569.81	44392.94
569.97	43639.29
570.13	43929.51
570.30	43962.28
570.46	43718.87
570.62	44177.61
570.78	43814.83
570.95	43800.79
571.11	44105.06
571.27	44025.48
571.43	44327.41
571.60	44186.97
571.76	43892.07
571.92	43894.41
572.09	44065.27
572.25	44229.10
572.41	44238.47
572.57	44198.68
572.74	44619.97
572.90	44048.88
573.06	44299.32
573.22	44397.62
573.38	44683.17
573.55	43983.35
573.71	44418.69
573.87	44563.80
574.03	44135.48
574.20	44704.23
574.36	43861.64
574.52	44170.59
574.68	44765.09
574.84	44240.81
575.01	44271.23
575.17	44451.45
575.33	44083.99
575.49	44954.67
575.65	44037.18
575.82	45024.89
575.98	44217.40
576.14	44645.72
576.30	44509.97
576.46	44322.72
576.62	44083.99
576.79	43955.26
576.95	44236.12
577.11	44177.61
577.27	44371.88
577.43	44582.52
577.59	44378.90
577.75	43988.03
577.92	44079.31
578.08	44030.16
578.24	44037.18
578.40	44561.46
578.56	44002.07
578.72	44580.18
578.88	44573.16
579.04	44479.54
579.21	44051.22
579.37	44339.11
579.53	44456.14
579.69	44161.23
579.85	44395.28
580.01	44566.14
580.17	44308.68
580.33	44617.63
580.49	44594.23
580.65	44591.89
580.82	44910.20
580.98	44519.33
581.14	44498.26
581.30	44931.26
581.46	44524.01
581.62	44872.75
581.78	44107.40
581.94	44392.94
582.10	44430.39
582.26	45057.65
582.42	44357.83
582.58	44402.30
582.74	44348.47
582.90	44406.98
583.06	44502.95
583.22	44683.17
583.38	45078.72
583.54	44683.17
583.70	44470.18
583.86	44505.29
584.02	44245.49
584.18	44835.30
584.34	44634.02
584.50	44435.07
584.66	44353.15
584.82	44102.71
584.98	44804.88
585.14	44886.79
585.30	44849.35
585.46	44287.62
585.62	44196.34
585.78	44296.98
585.94	44083.99
586.10	44849.35
586.26	44886.79
586.42	44423.37
586.58	45052.97
586.74	44793.17
586.90	44292.30
587.06	44535.71
587.22	44715.93
587.38	44521.67
587.54	44804.88
587.70	44783.81
587.86	44273.57
588.02	44676.15
588.18	44945.31
588.34	44388.26
588.49	44524.01
588.65	44369.54
588.81	44170.59
588.97	44739.34
589.13	44683.17
589.29	44676.15
589.45	44631.68
589.61	44608.27
589.77	45027.23
589.93	44732.32
590.08	44624.65
590.24	44924.24
