SpectraSuite Data File
++++++++++++++++++++++++++++++++++++
Date: Fri Oct 25 11:25:05 EDT 2013
User: price-jones
Dark Spectrum Present: No
Reference Spectrum Present: No
Number of Sampled Component Spectra: 1
Spectrometers: USB2+H05261
Integration Time (usec): 100000 (USB2+H05261)
Spectra Averaged: 1 (USB2+H05261)
Boxcar Smoothing: 0 (USB2+H05261)
Correct for Electrical Dark: No (USB2+H05261)
Strobe/Lamp Enabled: No (USB2+H05261)
Correct for Detector Non-linearity: No (USB2+H05261)
Correct for Stray Light: No (USB2+H05261)
Number of Pixels in Processed Spectrum: 2048
>>>>>Begin Processed Spectral Data<<<<<
365.73	175.54
365.92	175.54
366.12	175.54
366.32	152.13
366.52	140.43
366.72	147.45
366.91	201.29
367.11	124.05
367.31	72.56
367.51	180.22
367.70	114.69
367.90	194.26
368.10	93.62
368.30	112.35
368.49	145.11
368.69	159.16
368.89	147.45
369.09	131.07
369.28	154.48
369.48	149.79
369.68	210.65
369.87	154.48
370.07	180.22
370.27	212.99
370.47	341.72
370.66	592.16
370.86	573.43
371.06	674.07
371.25	704.50
371.45	636.63
371.65	629.60
371.84	678.76
372.04	681.10
372.24	704.50
372.44	697.48
372.63	709.18
372.83	746.63
373.03	777.06
373.22	709.18
373.42	763.01
373.62	741.95
373.81	744.29
374.01	826.21
374.21	777.06
374.40	849.61
374.60	816.85
374.79	805.14
374.99	807.48
375.19	828.55
375.38	809.83
375.58	854.30
375.78	917.49
375.97	819.19
376.17	828.55
376.37	842.59
376.56	840.25
376.76	910.47
376.95	823.87
377.15	936.21
377.35	961.96
377.54	898.77
377.74	896.43
377.93	910.47
378.13	854.30
378.33	877.70
378.52	947.92
378.72	933.87
378.91	952.60
379.11	847.27
379.31	873.02
379.50	917.49
379.70	997.07
379.89	1006.43
380.09	1015.79
380.28	903.45
380.48	952.60
380.68	966.64
380.87	973.66
381.07	1076.65
381.26	1086.01
381.46	1020.47
381.65	1029.84
381.85	1015.79
382.04	1062.60
382.24	1083.67
382.43	1029.84
382.63	992.39
382.83	1022.81
383.02	1067.28
383.22	1151.54
383.41	1100.05
383.61	980.68
383.80	1179.63
384.00	1076.65
384.19	1067.28
384.39	1100.05
384.58	1160.91
384.78	1167.93
384.97	1191.33
385.17	1224.10
385.36	1123.46
385.56	1123.46
385.75	1149.20
385.95	1196.01
386.14	1198.35
386.34	1156.22
386.53	1114.10
386.72	1114.10
386.92	1242.82
387.11	1221.76
387.31	1252.19
387.50	1167.93
387.70	1261.55
387.89	1214.74
388.09	1242.82
388.28	1287.29
388.48	1289.64
388.67	1289.64
388.86	1322.40
389.06	1263.89
389.25	1355.17
389.45	1394.96
389.64	1256.87
389.84	1378.58
390.03	1259.21
390.22	1343.47
390.42	1376.24
390.61	1479.22
390.81	1306.02
391.00	1350.49
391.19	1380.92
391.39	1458.15
391.58	1423.05
391.78	1458.15
391.97	1486.24
392.16	1341.13
392.36	1575.18
392.55	1516.67
392.75	1519.01
392.94	1476.88
393.13	1533.05
393.33	1565.82
393.52	1528.37
393.71	1533.05
393.91	1652.42
394.10	1603.27
394.29	1600.93
394.49	1575.18
394.68	1497.94
394.88	1640.72
395.07	1633.69
395.26	1722.63
395.46	1589.22
395.65	1689.87
395.84	1708.59
396.04	1680.50
396.23	1750.72
396.42	1720.29
396.62	1722.63
396.81	1797.53
397.00	1776.47
397.19	1813.92
397.39	1802.21
397.58	1837.32
397.77	1802.21
397.97	1893.49
398.16	1795.19
398.35	1994.14
398.55	1839.66
398.74	1996.48
398.93	1912.22
399.12	1909.88
399.32	1827.96
399.51	1914.56
399.70	1907.54
399.90	1930.94
400.09	1989.46
400.28	2069.03
400.47	2062.01
400.67	2106.48
400.86	2031.58
401.05	2069.03
401.24	2017.54
401.44	2129.89
401.63	2090.10
401.82	2076.06
402.01	2125.21
402.21	2225.85
402.40	2118.18
402.59	2190.74
402.78	2193.08
402.97	2284.36
403.17	2310.11
403.36	2300.75
403.55	2366.28
403.74	2389.69
403.93	2363.94
404.13	2349.90
404.32	2457.56
404.51	2389.69
404.70	2377.98
404.89	2270.32
405.09	2473.95
405.28	2420.11
405.47	2333.51
405.66	2539.48
405.85	2516.08
406.05	2492.67
406.24	2548.84
406.43	2530.12
406.62	2665.87
406.81	2684.59
407.00	2523.10
407.20	2537.14
407.39	2644.81
407.58	2633.10
407.77	2705.66
407.96	2726.72
408.15	2782.90
408.34	2717.36
408.54	2801.62
408.73	2705.66
408.92	2869.50
409.11	2808.64
409.30	2862.48
409.49	2883.54
409.68	2986.52
409.87	3012.27
410.07	3000.57
410.26	3012.27
410.45	3007.59
410.64	3049.72
410.83	3096.53
411.02	3080.14
411.21	3054.40
411.40	3101.21
411.59	3220.58
411.78	3166.74
411.98	3122.27
412.17	3183.13
412.36	3248.66
412.55	3461.65
412.74	3300.16
412.93	3356.33
413.12	3442.93
413.31	3522.51
413.50	3506.12
413.69	3503.78
413.88	3545.91
414.07	3646.55
414.26	3655.92
414.45	3623.15
414.64	3644.21
414.83	3808.05
415.02	3782.31
415.22	3861.88
415.41	3784.65
415.60	3896.99
415.79	3997.64
415.98	3911.04
416.17	3920.40
416.36	3861.88
416.55	4063.17
416.74	4002.32
416.93	3950.82
417.12	4109.98
417.31	4107.64
417.50	4161.47
417.69	4325.31
417.88	4152.11
418.07	4297.22
418.26	4315.95
418.45	4294.88
418.64	4374.46
418.83	4395.53
419.02	4442.34
419.21	4514.89
419.39	4456.38
419.58	4409.57
419.77	4386.16
419.96	4613.20
420.15	4596.81
420.34	4674.05
420.53	4554.68
420.72	4699.80
420.91	4730.22
421.10	4660.01
421.29	4751.29
421.48	4643.62
421.67	4847.25
421.86	4781.71
422.05	4947.89
422.24	4826.18
422.43	4816.82
422.61	4903.42
422.80	4931.51
422.99	4868.31
423.18	4723.20
423.37	4947.89
423.56	4882.36
423.75	4922.15
423.94	4636.60
424.13	4648.30
424.32	4641.28
424.50	4947.89
424.69	4933.85
424.88	5128.11
425.07	4929.17
425.26	4915.12
425.45	5025.13
425.64	4919.81
425.83	4842.57
426.01	5001.72
426.20	4950.23
426.39	4936.19
426.58	5085.98
426.77	4840.23
426.96	5076.62
427.15	5090.67
427.33	5188.97
427.52	5203.01
427.71	5217.05
427.90	5219.39
428.09	5247.48
428.28	5247.48
428.46	5427.70
428.65	5305.99
428.84	5408.98
429.03	5579.84
429.22	5296.63
429.40	5584.52
429.59	5444.09
429.78	5359.83
429.97	5291.95
430.16	5488.56
430.34	5509.62
430.53	5678.14
430.72	5500.26
430.91	5619.63
431.10	5760.06
431.28	5476.85
431.47	5832.62
431.66	5748.36
431.85	5722.61
432.03	5930.92
432.22	6087.73
432.41	6005.81
432.60	5834.96
432.79	6001.13
432.97	5874.74
433.16	6153.27
433.35	6054.97
433.54	6153.27
433.72	6071.35
433.91	5980.07
434.10	6017.52
434.28	5987.09
434.47	6202.42
434.66	6256.25
434.85	6125.18
435.03	6438.81
435.22	6289.02
435.41	6389.66
435.59	6520.73
435.78	6462.22
435.97	6366.26
436.16	6509.03
436.34	6366.26
436.53	6562.86
436.72	6572.22
436.90	6457.54
437.09	6487.96
437.28	6572.22
437.46	6595.63
437.65	6548.82
437.84	6829.68
438.02	6810.96
438.21	6696.27
438.40	6590.95
438.58	6843.73
438.77	6920.96
438.96	7045.01
439.14	6991.18
439.33	7157.36
439.52	7255.66
439.70	7045.01
439.89	7353.96
440.08	7213.53
440.26	7283.75
440.45	7372.69
440.63	7545.89
440.82	7754.19
441.01	7351.62
441.19	7571.63
441.38	7672.28
441.57	7765.90
441.75	7756.54
441.94	8081.87
442.12	7887.61
442.31	8016.33
442.50	8095.91
442.68	8131.02
442.87	8006.97
443.05	8119.32
443.24	8231.66
443.43	8325.29
443.61	8201.24
443.80	8341.67
443.98	7939.10
444.17	7808.03
444.35	8140.38
444.54	8266.77
444.73	8404.86
444.91	8395.50
445.10	8142.72
445.28	8383.80
445.47	7990.59
445.65	8496.14
445.84	8571.04
446.02	8755.94
446.21	8351.03
446.39	8236.35
446.58	8397.84
446.77	8472.74
446.95	8191.88
447.14	8503.17
447.32	8552.32
447.51	8435.29
447.69	8503.17
447.88	8454.02
448.06	8465.72
448.25	8390.82
448.43	8578.06
448.62	8437.63
448.80	8500.83
448.99	8624.87
449.17	8685.73
449.36	8479.76
449.54	8769.99
449.73	8940.85
449.91	8943.19
450.10	8833.18
450.28	9011.06
450.46	8877.65
450.65	8957.23
450.83	9170.22
451.02	9221.71
451.20	9036.81
451.39	9057.87
451.57	9142.13
451.76	9034.47
451.94	9006.38
452.13	9376.19
452.31	9193.62
452.49	9172.56
452.68	9245.12
452.86	9268.52
453.05	9441.72
453.23	9336.40
453.42	9179.58
453.60	9357.46
453.78	9242.78
453.97	9378.53
454.15	9338.74
454.34	9544.70
454.52	9661.73
454.70	9633.64
454.89	9762.37
455.07	9731.95
455.26	9774.08
455.44	9888.76
455.62	9844.29
455.81	9865.36
455.99	9923.87
456.17	10129.84
456.36	10045.58
456.54	10090.05
456.73	10216.44
456.91	10537.09
457.09	10284.31
457.28	10345.17
457.46	10244.52
457.64	10438.79
457.83	10328.78
458.01	10289.00
458.19	10651.78
458.38	10642.42
458.56	10761.78
458.74	10480.92
458.93	10738.38
459.11	10553.48
459.29	10590.92
459.48	10834.34
459.66	10923.28
459.84	10759.44
460.03	10899.87
460.21	10862.43
460.39	10956.05
460.57	10703.27
460.76	11044.99
460.94	11033.29
461.12	11213.51
461.31	11262.66
461.49	11014.56
461.67	11073.07
461.85	11274.36
462.04	11438.20
462.22	11721.40
462.40	11726.08
462.59	11358.62
462.77	11363.30
462.95	11602.04
463.13	11632.46
463.32	11513.10
463.50	11803.32
463.68	11910.99
463.86	11646.51
464.05	11534.16
464.23	11817.36
464.41	11639.48
464.59	11494.37
464.78	12016.31
464.96	11882.90
465.14	12006.95
465.32	12112.27
465.50	11913.33
465.69	12173.13
465.87	12023.33
466.05	12184.83
466.23	12173.13
466.41	12166.10
466.60	12290.15
466.78	12126.32
466.96	12086.53
467.14	12135.68
467.32	12510.16
467.51	12531.23
467.69	12140.36
467.87	12470.37
468.05	12587.40
468.23	12313.56
468.41	12475.06
468.60	12470.37
468.78	12610.81
468.96	12486.76
469.14	12992.31
469.32	12753.58
469.50	12425.90
469.69	12718.47
469.87	12898.69
470.05	13074.23
470.23	13284.88
470.41	13111.68
470.59	13247.43
470.77	13200.62
470.95	12933.80
471.14	13408.93
471.32	13233.39
471.50	13364.46
471.68	13521.27
471.86	13394.89
472.04	13549.36
472.22	13841.93
472.40	13769.37
472.58	13879.38
472.77	13802.14
472.95	14022.15
473.13	14305.35
473.31	13980.02
473.49	14235.14
473.67	14036.19
473.85	14520.68
474.03	14429.40
474.21	14462.17
474.39	14736.01
474.57	14759.42
474.75	14548.77
474.93	14953.68
475.12	14970.07
475.30	15068.37
475.48	14956.02
475.66	15136.24
475.84	15234.55
476.02	15501.37
476.20	15232.21
476.38	15702.65
476.56	16065.44
476.74	15634.78
476.92	15522.43
477.10	15679.25
477.28	15803.30
477.46	16395.45
477.64	16210.55
477.82	16486.73
478.00	16975.91
478.18	16648.23
478.36	17032.08
478.54	17186.55
478.72	16947.82
478.90	17603.17
479.08	17528.27
479.26	17547.00
479.44	17383.16
479.62	17869.99
479.80	17547.00
479.98	17792.75
480.16	18361.50
480.34	18305.33
480.52	18405.97
480.70	18551.09
480.88	18464.49
481.06	18743.01
481.24	18897.49
481.41	18960.68
481.59	19260.27
481.77	19480.28
481.95	19566.88
482.13	19283.67
482.31	19761.14
482.49	19971.79
482.67	19899.23
482.85	20484.37
483.03	20755.87
483.21	20695.02
483.39	21034.39
483.57	20863.54
483.74	21102.27
483.92	21458.03
484.10	21102.27
484.28	21355.05
484.46	22045.51
484.64	22101.68
484.82	21947.20
485.00	22111.04
485.18	22745.33
485.35	22960.66
485.53	22993.42
485.71	22850.65
485.89	23276.63
486.07	23065.98
486.25	23328.12
486.43	23634.73
486.61	23522.38
486.78	24196.46
486.96	24060.71
487.14	24624.78
487.32	24311.14
487.50	24851.81
487.68	25095.22
487.85	25385.45
488.03	25172.46
488.21	25493.12
488.39	25652.27
488.57	25900.37
488.75	25827.81
488.92	26398.90
489.10	26579.12
489.28	27009.78
489.46	26717.22
489.64	26757.00
489.81	27494.27
489.99	27641.73
490.17	27323.41
490.35	28238.56
490.53	28329.84
490.70	28393.04
490.88	28114.52
491.06	28402.40
491.24	28552.20
491.41	28950.09
491.59	28751.14
491.77	29146.69
491.95	29558.63
492.13	30000.99
492.30	29869.92
492.48	30024.39
492.66	30309.94
492.84	29928.43
493.01	30621.23
493.19	30822.51
493.37	30789.75
493.54	31138.49
493.72	31555.10
493.90	31445.10
494.08	31716.60
494.25	31599.57
494.43	31693.19
494.61	31929.59
494.79	32215.13
494.96	32154.28
495.14	32854.10
495.32	32985.17
495.49	33031.98
495.67	33436.89
495.85	33556.26
496.02	33839.47
496.20	33542.22
496.38	34274.80
496.55	33902.66
496.73	34562.69
496.91	34555.67
497.09	34717.17
497.26	34649.29
497.44	34787.38
497.62	34653.97
497.79	35578.48
497.97	35466.14
498.14	35608.91
498.32	36236.17
498.50	36149.57
498.67	36411.71
498.85	36449.16
499.03	36470.23
499.20	36465.55
499.38	36645.77
499.56	37280.05
499.73	36570.87
499.91	37345.59
500.08	36872.80
500.26	37106.85
500.44	37418.14
500.61	37469.64
500.79	37729.44
500.97	37851.14
501.14	38281.80
501.32	38328.61
501.49	38272.44
501.67	38614.16
501.84	38806.08
502.02	38883.32
502.20	39014.39
502.37	39519.95
502.55	39398.24
502.72	38967.58
502.90	39271.85
503.07	39243.76
503.25	39510.58
503.43	39693.15
503.60	40044.23
503.78	40102.74
503.95	40020.82
504.13	40311.05
504.30	40208.06
504.48	39943.58
504.65	40664.47
504.83	40528.72
505.01	40952.35
505.18	41294.07
505.36	41607.70
505.53	41322.16
505.71	41280.03
505.88	41769.20
506.06	41165.34
506.23	41848.78
506.41	42017.30
506.58	41656.85
506.76	42174.11
506.93	42085.17
507.11	42213.90
507.28	42564.98
507.46	42572.00
507.63	42714.78
507.81	43440.34
507.98	42838.83
508.16	42946.49
508.33	43028.41
508.50	43260.12
508.68	43531.62
508.85	43604.18
509.03	43477.79
509.20	44060.58
509.38	43945.90
509.55	44212.72
509.73	44397.62
509.90	44217.40
510.08	44507.63
510.25	44381.24
510.42	44692.53
510.60	44753.38
510.77	44701.89
510.95	45184.04
511.12	45006.16
511.30	45308.09
511.47	45717.68
511.64	45406.39
511.82	45462.57
511.99	45411.07
512.17	46080.47
512.34	45928.33
512.51	46188.13
512.69	45865.14
512.86	46071.10
513.04	46440.91
513.21	46637.51
513.38	46447.93
513.56	46129.62
513.73	46527.51
513.90	47297.55
514.08	47091.58
514.25	47363.08
514.43	46859.87
514.60	47166.48
514.77	47002.64
514.95	47620.54
515.12	47353.72
515.29	47182.86
515.47	47962.26
515.64	47828.85
515.81	47547.98
515.99	47852.25
516.16	48271.21
516.33	48311.00
516.51	48552.07
516.68	48271.21
516.85	48346.11
517.03	49099.76
517.20	48612.93
517.37	48367.17
517.54	48629.31
517.72	48657.40
517.89	49385.30
518.06	48842.30
518.24	48917.20
518.41	49106.78
518.58	49186.36
518.75	48825.92
518.93	49329.13
519.10	49130.19
519.27	49563.18
519.45	49776.17
519.62	49897.88
519.79	49406.37
519.96	49799.58
520.14	50164.70
520.31	49928.31
520.48	50440.89
520.65	50241.94
520.83	50199.81
521.00	50450.25
521.17	50365.99
521.34	50546.21
521.52	50752.18
521.69	50588.34
521.86	50630.47
522.03	51409.87
522.20	51337.31
522.38	51260.07
522.55	51529.23
522.72	51349.01
522.89	51000.27
523.07	51487.10
523.24	51241.35
523.41	51435.61
523.58	51206.24
523.75	51365.40
523.92	51606.47
524.10	51863.93
524.27	51819.46
524.44	52299.27
524.61	51721.16
524.78	52051.17
524.96	51770.31
525.13	52046.49
525.30	52320.34
525.47	52296.93
525.64	52472.47
525.81	52280.55
525.98	52388.21
526.16	52315.65
526.33	52699.50
526.50	53125.48
526.67	52622.26
526.84	52750.99
527.01	52755.68
527.18	52781.42
527.36	52919.51
527.53	52987.39
527.70	53352.51
527.87	53315.06
528.04	53132.50
528.21	53062.29
528.38	52952.28
528.55	53111.44
528.72	53165.27
528.89	53113.78
529.07	53073.99
529.24	53272.93
529.41	53661.46
529.58	53549.12
529.75	53385.28
529.92	53757.42
530.09	53844.02
530.26	53942.33
530.43	53879.13
530.60	53689.55
530.77	53839.34
530.94	54106.16
531.11	54010.20
531.28	54066.38
531.46	53991.48
531.63	54204.47
531.80	54152.97
531.97	54487.67
532.14	54223.19
532.31	54394.05
532.48	54585.97
532.65	54525.12
532.82	54457.24
532.99	54618.74
533.16	54260.64
533.33	54595.34
533.50	54752.15
533.67	54731.09
533.84	54721.72
534.01	54635.13
534.18	54738.11
534.35	55222.60
534.52	55070.46
534.69	55124.30
534.86	55327.92
535.03	54857.48
535.20	55143.02
535.37	55126.64
535.54	55276.43
535.71	55206.22
535.88	55178.13
536.05	55412.18
536.22	55402.82
536.38	55683.69
536.55	55447.29
536.72	55512.83
536.89	55440.27
537.06	55451.97
537.23	55473.04
537.40	55702.41
537.57	55629.85
537.74	55929.44
537.91	55908.38
538.08	55564.32
538.25	55285.79
538.42	55791.35
538.59	56109.66
538.75	55957.53
538.92	55955.19
539.09	56198.60
539.26	55971.57
539.43	55821.78
539.60	56104.98
539.77	56058.17
539.94	56245.41
540.11	56097.96
540.28	56205.62
540.44	56261.80
540.61	56301.59
540.78	56339.04
540.95	56231.37
541.12	56324.99
541.29	56432.66
541.46	56339.04
541.62	56502.87
541.79	56427.98
541.96	56301.59
542.13	56479.47
542.30	56530.96
542.47	56718.20
542.63	56853.95
542.80	56762.67
542.97	56903.10
543.14	56870.34
543.31	56968.64
543.48	57195.67
543.64	57233.12
543.81	57366.53
543.98	57244.82
544.15	57174.61
544.32	57244.82
544.48	57492.92
544.65	57289.29
544.82	57509.30
544.99	57080.98
545.16	57378.23
545.32	57132.48
545.49	57691.86
545.66	57621.65
545.83	57682.50
546.00	57834.64
546.16	57326.74
546.33	57378.23
546.50	57396.96
546.67	57593.56
546.83	57310.36
547.00	57715.27
547.17	57621.65
547.34	57539.73
547.50	57818.25
547.67	57998.48
547.84	57998.48
548.00	57876.77
548.17	58124.86
548.34	58124.86
548.51	57982.09
548.67	58143.59
548.84	57724.63
549.01	58110.82
549.18	57958.69
549.34	58005.50
549.51	58239.55
549.68	58368.28
549.84	58204.44
550.01	58450.20
550.18	58244.23
550.34	58323.81
550.51	58246.57
550.68	58188.06
550.84	58117.84
551.01	58588.29
551.18	58316.79
551.34	58438.50
551.51	58447.86
551.68	58410.41
551.84	58497.01
552.01	58492.33
552.18	58403.39
552.34	58475.94
552.51	58838.73
552.68	58372.96
552.84	58518.07
553.01	58855.11
553.18	58485.31
553.34	58677.23
553.51	58700.64
553.67	58831.71
553.84	59044.69
554.01	59000.22
554.17	58885.54
554.34	58927.67
554.51	58768.51
554.67	58969.80
554.84	58873.84
555.00	58653.82
555.17	59002.56
555.33	59000.22
555.50	58904.26
555.67	59021.29
555.83	59157.04
556.00	59016.61
556.16	59325.56
556.33	59117.25
556.50	59208.53
556.66	59248.32
556.83	59004.91
556.99	59145.34
557.16	59339.60
557.32	59236.62
557.49	59608.76
557.65	59423.86
557.82	59077.46
557.98	59311.52
558.15	59337.26
558.32	59323.22
558.48	59281.09
558.65	59320.88
558.81	59243.64
558.98	59304.49
559.14	59465.99
559.31	59477.69
559.47	59576.00
559.64	59491.74
559.80	59662.60
559.97	59716.43
560.13	59770.26
560.30	59639.19
560.46	59742.17
560.63	59578.34
560.79	59611.10
560.96	59678.98
561.12	59599.40
561.29	59756.22
561.45	59576.00
561.61	59772.60
561.78	59756.22
561.94	59613.44
562.11	59786.64
562.27	59735.15
562.44	59849.84
562.60	59793.67
562.77	59934.10
562.93	59838.14
563.10	59927.08
563.26	59840.48
563.42	59877.93
563.59	59826.43
563.75	60004.31
563.92	59924.74
564.08	59966.87
564.24	60009.00
564.41	60219.64
564.57	60065.17
564.74	59936.44
564.90	59831.11
565.07	60081.55
565.23	59980.91
565.39	60041.76
565.56	60198.58
565.72	59973.89
565.88	60184.54
566.05	60203.26
566.21	60109.64
566.38	60053.47
566.54	60308.58
566.70	60364.76
566.87	60395.18
567.03	60172.83
567.19	60191.56
567.36	60168.15
567.52	60104.96
567.68	60643.28
567.85	60165.81
568.01	60350.71
568.17	60111.98
568.34	60397.52
568.50	60217.30
568.66	60299.22
568.83	60217.30
568.99	60252.41
569.15	60250.07
569.32	60364.76
569.48	60198.58
569.64	60568.38
569.81	60207.94
569.97	60023.04
570.13	60296.88
570.30	60418.59
570.46	60294.54
570.62	60608.17
570.78	60336.67
570.95	60575.40
571.11	60357.74
571.27	60430.29
571.43	60360.08
571.60	60554.34
571.76	60439.65
571.92	60519.23
572.09	60512.21
572.25	60505.19
572.41	60449.02
572.57	60423.27
572.74	60701.79
572.90	60521.57
573.06	60624.56
573.22	60456.04
573.38	60463.06
573.55	60561.36
573.71	60860.95
573.87	60687.75
574.03	60500.51
574.20	60552.00
574.36	60671.37
574.52	60786.05
574.68	60683.07
574.84	60601.15
575.01	60683.07
575.17	60736.90
575.33	60542.64
575.49	60526.25
575.65	60612.85
575.82	60762.65
575.98	60811.80
576.14	61017.77
576.30	60690.09
576.46	60734.56
576.62	60722.86
576.79	60537.96
576.95	60678.39
577.11	60959.25
577.27	60741.58
577.43	60713.50
577.59	60622.22
577.75	60708.82
577.92	60657.32
578.08	60676.05
578.24	60870.31
578.40	60748.60
578.56	60900.74
578.72	60736.90
578.88	60884.36
579.04	60727.54
579.21	60788.39
579.37	60970.96
579.53	60910.10
579.69	60631.58
579.85	60514.55
580.01	60715.84
580.17	60615.19
580.33	60828.18
580.49	61017.77
580.65	61001.38
580.82	60800.10
580.98	60615.19
581.14	60786.05
581.30	60942.87
581.46	60828.18
581.62	60891.38
581.78	60809.46
581.94	60786.05
582.10	60748.60
582.26	60832.86
582.42	60910.10
582.58	60959.25
582.74	60746.26
582.90	60767.33
583.06	60865.63
583.22	60685.41
583.38	60877.33
583.54	60725.20
583.70	60757.97
583.86	60973.30
584.02	60786.05
584.18	60963.93
584.34	60837.54
584.50	60889.04
584.66	60769.67
584.82	60615.19
584.98	61078.62
585.14	61029.47
585.30	60764.99
585.46	61193.31
585.62	60772.01
585.78	61095.00
585.94	60793.07
586.10	60970.96
586.26	60786.05
586.42	60886.70
586.58	61057.56
586.74	61048.19
586.90	60860.95
587.06	60860.95
587.22	61057.56
587.38	60856.27
587.54	61158.20
587.70	61132.45
587.86	60952.23
588.02	60931.17
588.18	61043.51
588.34	60924.14
588.49	60938.19
