SpectraSuite Data File
++++++++++++++++++++++++++++++++++++
Date: Fri Oct 25 11:24:08 EDT 2013
User: price-jones
Dark Spectrum Present: No
Reference Spectrum Present: No
Number of Sampled Component Spectra: 1
Spectrometers: USB2+H05261
Integration Time (usec): 100000 (USB2+H05261)
Spectra Averaged: 1 (USB2+H05261)
Boxcar Smoothing: 0 (USB2+H05261)
Correct for Electrical Dark: No (USB2+H05261)
Strobe/Lamp Enabled: No (USB2+H05261)
Correct for Detector Non-linearity: No (USB2+H05261)
Correct for Stray Light: No (USB2+H05261)
Number of Pixels in Processed Spectrum: 2048
>>>>>Begin Processed Spectral Data<<<<<
365.73	189.58
365.92	189.58
366.12	189.58
366.32	135.75
366.52	135.75
366.72	131.07
366.91	107.66
367.11	100.64
367.31	117.03
367.51	91.28
367.70	170.86
367.90	161.50
368.10	114.69
368.30	180.22
368.49	114.69
368.69	138.09
368.89	124.05
369.09	28.09
369.28	166.18
369.48	196.60
369.68	133.41
369.87	114.69
370.07	152.13
370.27	283.20
370.47	325.33
370.66	624.92
370.86	603.86
371.06	620.24
371.25	667.05
371.45	617.90
371.65	674.07
371.84	695.14
372.04	648.33
372.24	695.14
372.44	685.78
372.63	727.91
372.83	774.72
373.03	763.01
373.22	716.20
373.42	781.74
373.62	781.74
373.81	777.06
374.01	772.38
374.21	671.73
374.40	753.65
374.60	784.08
374.79	720.88
374.99	718.54
375.19	833.23
375.38	858.98
375.58	800.46
375.78	917.49
375.97	870.68
376.17	887.06
376.37	912.81
376.56	791.10
376.76	786.42
376.95	922.17
377.15	823.87
377.35	863.66
377.54	814.51
377.74	812.17
377.93	858.98
378.13	894.08
378.33	910.47
378.52	866.00
378.72	945.58
378.91	1011.11
379.11	919.83
379.31	961.96
379.50	903.45
379.70	917.49
379.89	997.07
380.09	1050.90
380.28	961.96
380.48	1008.77
380.68	1027.50
380.87	945.58
381.07	992.39
381.26	915.15
381.46	1029.84
381.65	1004.09
381.85	1090.69
382.04	1076.65
382.24	1062.60
382.43	1001.75
382.63	1137.50
382.83	1046.22
383.02	1114.10
383.22	1118.78
383.41	1125.80
383.61	1083.67
383.80	1100.05
384.00	1060.26
384.19	1193.67
384.39	1132.82
384.58	1139.84
384.78	1111.75
384.97	1142.18
385.17	1139.84
385.36	1172.61
385.56	1221.76
385.75	1217.08
385.95	1078.99
386.14	1198.35
386.34	1071.97
386.53	1174.95
386.72	1254.53
386.92	1205.38
387.11	1263.89
387.31	1322.40
387.50	1317.72
387.70	1320.06
387.89	1240.48
388.09	1266.23
388.28	1296.66
388.48	1310.70
388.67	1334.11
388.86	1350.49
389.06	1322.40
389.25	1334.11
389.45	1376.24
389.64	1390.28
389.84	1465.18
390.03	1329.42
390.22	1376.24
390.42	1441.77
390.61	1327.08
390.81	1439.43
391.00	1376.24
391.19	1446.45
391.39	1437.09
391.58	1420.71
391.78	1453.47
391.97	1474.54
392.16	1558.80
392.36	1621.99
392.55	1617.31
392.75	1570.50
392.94	1465.18
393.13	1544.75
393.33	1490.92
393.52	1591.56
393.71	1654.76
393.91	1598.59
394.10	1570.50
394.29	1493.26
394.49	1614.97
394.68	1572.84
394.88	1650.08
395.07	1696.89
395.26	1661.78
395.46	1596.25
395.65	1799.87
395.84	1724.97
396.04	1706.25
396.23	1734.34
396.42	1797.53
396.62	1710.93
396.81	1834.98
397.00	1792.85
397.19	1778.81
397.39	1785.83
397.58	1860.73
397.77	1874.77
397.97	1750.72
398.16	1839.66
398.35	2005.84
398.55	1881.79
398.74	1877.11
398.93	1928.60
399.12	1944.99
399.32	1926.26
399.51	1874.77
399.70	2054.99
399.90	2026.90
400.09	2047.97
400.28	2022.22
400.47	2129.89
400.67	2242.23
400.86	2125.21
401.05	2108.82
401.24	2111.16
401.44	2108.82
401.63	2160.31
401.82	2188.40
402.01	2069.03
402.21	2057.33
402.40	2165.00
402.59	2204.78
402.78	2267.98
402.97	2113.50
403.17	2326.49
403.36	2258.62
403.55	2312.45
403.74	2286.70
403.93	2396.71
404.13	2410.75
404.32	2455.22
404.51	2373.30
404.70	2392.03
404.89	2476.29
405.09	2441.18
405.28	2558.21
405.47	2509.05
405.66	2499.69
405.85	2663.53
406.05	2462.24
406.24	2506.71
406.43	2644.81
406.62	2665.87
406.81	2616.72
407.00	2593.31
407.20	2605.02
407.39	2567.57
407.58	2712.68
407.77	2759.49
407.96	2815.66
408.15	2691.62
408.34	2803.96
408.54	2766.51
408.73	2937.37
408.92	2841.41
409.11	2815.66
409.30	2806.30
409.49	2822.69
409.68	2843.75
409.87	2956.10
410.07	3059.08
410.26	2916.31
410.45	2953.76
410.64	2944.39
410.83	3045.04
411.02	3105.89
411.21	3232.28
411.40	3112.91
411.59	3164.40
411.78	3185.47
411.98	3234.62
412.17	3321.22
412.36	3206.53
412.55	3494.42
412.74	3466.33
412.93	3433.57
413.12	3442.93
413.31	3515.48
413.50	3581.02
413.69	3510.80
413.88	3616.13
414.07	3564.64
414.26	3606.77
414.45	3669.96
414.64	3669.96
414.83	3892.31
415.02	3754.22
415.22	3901.67
415.41	3894.65
415.60	3758.90
415.79	3847.84
415.98	3985.93
416.17	4014.02
416.36	3969.55
416.55	4035.08
416.74	4091.26
416.93	4119.34
417.12	4086.58
417.31	4227.01
417.50	4184.88
417.69	4299.56
417.88	4205.94
418.07	4273.82
418.26	4287.86
418.45	4381.48
418.64	4510.21
418.83	4451.70
419.02	4397.87
419.21	4451.70
419.39	4608.51
419.58	4554.68
419.77	4458.72
419.96	4660.01
420.15	4695.11
420.34	4526.60
420.53	4585.11
420.72	4706.82
420.91	4716.18
421.10	4734.90
421.29	4844.91
421.48	4849.59
421.67	4812.14
421.86	4746.61
422.05	4786.40
422.24	4833.21
422.43	4854.27
422.61	4854.27
422.80	5081.30
422.99	4912.78
423.18	4990.02
423.37	5046.20
423.56	4957.25
423.75	4781.71
423.94	4894.06
424.13	4685.75
424.32	4837.89
424.50	4908.10
424.69	5064.92
424.88	5163.22
425.07	5069.60
425.26	4929.17
425.45	5107.05
425.64	4896.40
425.83	4929.17
426.01	5071.94
426.20	5156.20
426.39	5100.03
426.58	5034.49
426.77	5027.47
426.96	5139.82
427.15	5088.32
427.33	5289.61
427.52	5228.76
427.71	5245.14
427.90	5305.99
428.09	5355.15
428.28	5458.13
428.46	5474.51
428.65	5324.72
428.84	5598.56
429.03	5696.86
429.22	5366.85
429.40	5535.37
429.59	5619.63
429.78	5392.59
429.97	5348.12
430.16	5511.96
430.34	5636.01
430.53	5760.06
430.72	5455.79
430.91	5664.10
431.10	5673.46
431.28	5624.31
431.47	5923.90
431.66	5884.11
431.85	5916.87
432.03	5858.36
432.22	5949.64
432.41	6024.54
432.60	5977.73
432.79	5944.96
432.97	6122.84
433.16	6143.91
433.35	6012.84
433.54	6150.93
433.72	6202.42
433.91	6153.27
434.10	6143.91
434.28	5977.73
434.47	6277.32
434.66	6209.44
434.85	6237.53
435.03	6188.38
435.22	6338.17
435.41	6661.16
435.59	6392.00
435.78	6567.54
435.97	6604.99
436.16	6394.34
436.34	6459.88
436.53	6558.18
436.72	6745.42
436.90	6441.15
437.09	6771.17
437.28	6480.94
437.46	6555.84
437.65	6686.91
437.84	6960.75
438.02	6679.89
438.21	6771.17
438.40	6686.91
438.58	7037.99
438.77	7171.40
438.96	7180.76
439.14	7253.32
439.33	7302.47
439.52	7246.30
439.70	7145.66
439.89	7260.34
440.08	7506.10
440.26	7335.24
440.45	7407.80
440.63	7583.34
440.82	7721.43
441.01	7653.55
441.19	7798.66
441.38	7953.14
441.57	7880.58
441.75	7854.84
441.94	8114.64
442.12	8126.34
442.31	8159.11
442.50	8077.19
442.68	8049.10
442.87	8098.25
443.05	8133.36
443.24	8226.98
443.43	8425.93
443.61	8262.09
443.80	8491.46
443.98	8170.81
444.17	7990.59
444.35	8241.03
444.54	8374.44
444.73	8308.90
444.91	8266.77
445.10	8395.50
445.28	8465.72
445.47	8159.11
445.65	8545.30
445.84	8446.99
446.02	8549.98
446.21	8596.79
446.39	8383.80
446.58	8542.96
446.77	8449.33
446.95	8306.56
447.14	8404.86
447.32	8531.25
447.51	8706.79
447.69	8451.67
447.88	8587.43
448.06	8557.00
448.25	8482.10
448.43	8620.19
448.62	8823.82
448.80	8475.08
448.99	8697.43
449.17	8699.77
449.36	8711.47
449.54	8868.29
449.73	8868.29
449.91	9085.96
450.10	8966.59
450.28	9212.35
450.46	9181.92
450.65	9123.41
450.83	9188.94
451.02	8933.82
451.20	9214.69
451.39	9256.82
451.57	9158.52
451.76	9275.54
451.94	8992.34
452.13	9418.32
452.31	9256.82
452.49	9167.88
452.68	9425.34
452.86	9600.88
453.05	9455.76
453.23	9635.99
453.42	9483.85
453.60	9289.59
453.78	9703.86
453.97	9570.45
454.15	9654.71
454.34	9547.05
454.52	9830.25
454.70	9745.99
454.89	9809.19
455.07	9668.75
455.26	9951.96
455.44	9996.43
455.62	9771.74
455.81	10120.48
455.99	10202.40
456.17	10195.37
456.36	10076.01
456.54	10335.81
456.73	10298.36
456.91	10483.26
457.09	10679.86
457.28	10684.55
457.46	10246.87
457.64	10527.73
457.83	10647.10
458.01	10588.58
458.19	10787.53
458.38	10546.45
458.56	10668.16
458.74	10761.78
458.93	10721.99
459.11	10799.23
459.29	10813.28
459.48	10881.15
459.66	10724.33
459.84	10867.11
460.03	11183.08
460.21	10956.05
460.39	11030.94
460.57	11030.94
460.76	11054.35
460.94	11082.44
461.12	11398.41
461.31	11173.72
461.49	11056.69
461.67	11391.39
461.85	11384.37
462.04	11421.81
462.22	11527.14
462.40	11477.99
462.59	11485.01
462.77	11595.01
462.95	11756.51
463.13	11770.55
463.32	11786.94
463.50	11918.01
463.68	12109.93
463.86	11871.20
464.05	12037.38
464.23	11840.77
464.41	12210.57
464.59	11903.96
464.78	12114.61
464.96	12131.00
465.14	12063.12
465.32	12067.80
465.50	12369.73
465.69	12299.52
465.87	12336.96
466.05	12074.82
466.23	12362.71
466.41	12189.51
466.60	12821.45
466.78	12470.37
466.96	12255.04
467.14	12585.06
467.32	12360.37
467.51	12477.40
467.69	12283.13
467.87	12533.57
468.05	12769.96
468.23	12430.59
468.41	12353.35
468.60	12568.68
468.78	12840.18
468.96	12727.83
469.14	12666.98
469.32	13418.29
469.50	12776.98
469.69	13078.91
469.87	13170.19
470.05	12908.05
470.23	13256.79
470.41	13231.05
470.59	13322.33
470.77	13301.26
470.95	13334.03
471.14	13715.54
471.32	13385.52
471.50	13582.13
471.68	13706.18
471.86	13708.52
472.04	13783.41
472.22	14200.03
472.40	13837.25
472.58	14054.92
472.77	13877.04
472.95	14494.94
473.13	14841.34
473.31	14204.71
473.49	14239.82
473.67	14183.65
473.85	14277.27
474.03	14848.36
474.21	15009.86
474.39	14736.01
474.57	14768.78
474.75	15164.33
474.93	14864.74
475.12	15112.84
475.30	15325.83
475.48	15232.21
475.66	15152.63
475.84	15562.22
476.02	15494.35
476.20	15604.35
476.38	15613.71
476.56	15840.75
476.74	16109.91
476.92	15798.62
477.10	15702.65
477.28	16493.76
477.46	16276.09
477.64	16273.74
477.82	16547.59
478.00	17193.58
478.18	17076.55
478.36	17041.44
478.54	17186.55
478.72	17415.93
478.90	17703.81
479.08	17724.88
479.26	17816.16
479.44	17617.21
479.62	17874.67
479.80	18188.30
479.98	18106.38
480.16	18738.33
480.34	18258.52
480.52	18871.74
480.70	18675.13
480.88	18712.58
481.06	18663.43
481.24	19030.90
481.41	19084.73
481.59	19431.13
481.77	19662.84
481.95	19646.46
482.13	19587.94
482.31	19763.48
482.49	20264.36
482.67	20074.77
482.85	20500.75
483.03	20678.63
483.21	20725.44
483.39	21158.44
483.57	21111.63
483.74	21390.16
483.92	21280.15
484.10	21647.61
484.28	21839.54
484.46	22047.85
484.64	22377.86
484.82	22104.02
485.00	22443.40
485.18	23180.67
485.35	23124.49
485.53	23007.47
485.71	23187.69
485.89	23578.56
486.07	23513.02
486.25	23391.31
486.43	23864.10
486.61	24243.27
486.78	24166.03
486.96	24437.53
487.14	24762.87
487.32	24423.49
487.50	24624.78
487.68	25120.97
487.85	25317.57
488.03	25933.14
488.21	26019.74
488.39	26132.08
488.57	26253.79
488.75	26597.85
488.92	26520.61
489.10	26927.86
489.28	26822.54
489.46	27248.52
489.64	26984.04
489.81	27587.89
489.99	28095.79
490.17	28063.02
490.35	28379.00
490.53	28325.16
490.70	28416.44
490.88	28669.22
491.06	29191.16
491.24	28987.53
491.41	29469.69
491.59	29617.14
491.77	29315.21
491.95	29528.20
492.13	29970.56
492.30	30478.46
492.48	30071.20
492.66	30684.42
492.84	30621.23
493.01	31264.88
493.19	31318.71
493.37	31234.45
493.54	31356.16
493.72	31613.62
493.90	31510.63
494.08	32058.32
494.25	32210.45
494.43	32161.30
494.61	32428.12
494.79	32961.76
494.96	32659.84
495.14	33415.83
495.32	33582.01
495.49	33254.33
495.67	33701.37
495.85	33802.02
496.02	34017.35
496.20	34054.79
496.38	34396.51
496.55	34382.47
496.73	35365.49
496.91	34682.06
497.09	35438.05
497.26	35026.12
497.44	35583.16
497.62	35388.90
497.79	36327.45
497.97	35756.36
498.14	36100.42
498.32	36346.18
498.50	36421.08
498.67	37081.11
498.85	36636.41
499.03	36903.23
499.20	36669.17
499.38	37181.75
499.56	37633.47
499.73	37558.58
499.91	37642.84
500.08	37813.70
500.26	37839.44
500.44	37591.34
500.61	37773.91
500.79	37970.51
500.97	38682.03
501.14	38913.75
501.32	39014.39
501.49	38373.08
501.67	39147.80
501.84	39227.38
502.02	39002.69
502.20	39608.89
502.37	39435.69
502.55	39510.58
502.72	40130.83
502.90	39728.25
503.07	40093.38
503.25	40292.32
503.43	39882.73
503.60	40268.92
503.78	40533.40
503.95	40495.95
504.13	40722.98
504.30	40804.90
504.48	40758.09
504.65	41069.38
504.83	41244.92
505.01	41862.82
505.18	41619.41
505.36	41638.13
505.53	41504.72
505.71	42078.15
505.88	42319.23
506.06	41808.99
506.23	42476.04
506.41	42305.18
506.58	42251.35
506.76	42316.89
506.93	42356.67
507.11	42527.53
507.28	43082.24
507.46	43051.81
507.63	43089.26
507.81	43536.30
507.98	43103.31
508.16	43697.80
508.33	43880.36
508.50	43887.39
508.68	43583.12
508.85	44081.65
509.03	44444.43
509.20	44278.25
509.38	44926.58
509.55	44524.01
509.73	44332.09
509.90	45151.27
510.08	44802.53
510.25	44638.70
510.42	44847.00
510.60	45394.69
510.77	45708.32
510.95	46007.91
511.12	45457.88
511.30	45453.20
511.47	45773.86
511.64	45420.44
511.82	46183.45
511.99	45907.27
512.17	46146.00
512.34	46330.90
512.51	46337.93
512.69	46646.88
512.86	46607.09
513.04	46974.55
513.21	46934.76
513.38	46979.23
513.56	47327.97
513.73	47150.09
513.90	47512.88
514.08	47171.16
514.25	47437.98
514.43	47657.99
514.60	47613.52
514.77	47728.20
514.95	48149.50
515.12	47826.51
515.29	47913.11
515.47	48016.09
515.64	48275.89
515.81	48238.44
515.99	48451.43
516.16	48788.47
516.33	48825.92
516.51	49034.22
516.68	48645.69
516.85	48690.16
517.03	48959.33
517.20	49263.60
517.37	49078.69
517.54	49474.24
517.72	49071.67
517.89	49408.71
518.06	49429.77
518.24	49329.13
518.41	49460.20
518.58	49647.44
518.75	49544.46
518.93	49869.79
519.10	49851.07
519.27	49998.52
519.45	50064.06
519.62	50248.96
519.79	49822.98
519.96	50452.59
520.14	50679.62
520.31	50183.43
520.48	50499.40
520.65	50492.38
520.83	50745.15
521.00	51103.26
521.17	50827.07
521.34	51026.02
521.52	51145.39
521.69	51023.68
521.86	51107.94
522.03	51423.91
522.20	51655.62
522.38	51585.41
522.55	51332.63
522.72	51393.48
522.89	51606.47
523.07	51983.30
523.24	51634.56
523.41	51917.76
523.58	51255.39
523.75	52097.98
523.92	51760.95
524.10	52233.74
524.27	52327.36
524.44	52374.17
524.61	52348.42
524.78	52467.79
524.96	52484.17
525.13	52313.31
525.30	52699.50
525.47	52694.82
525.64	52420.98
525.81	52708.86
525.98	52949.94
526.16	52704.18
526.33	53118.46
526.50	53176.97
526.67	52828.23
526.84	53181.65
527.01	53237.83
527.18	53268.25
527.36	53432.09
527.53	53387.62
527.70	53577.20
527.87	53879.13
528.04	53324.43
528.21	53605.29
528.38	53553.80
528.55	53897.86
528.72	53439.11
528.89	53785.51
529.07	53762.11
529.24	53829.98
529.41	54021.90
529.58	53804.24
529.75	53729.34
529.92	53923.60
530.09	54108.50
530.26	54007.86
530.43	53860.41
530.60	53996.16
530.77	54071.06
530.94	54237.23
531.11	53942.33
531.28	54724.07
531.46	54375.33
531.63	54658.53
531.80	54468.95
531.97	54543.84
532.14	54672.57
532.31	54742.79
532.48	54614.06
532.65	55033.02
532.82	54700.66
532.99	55150.04
533.16	54747.47
533.33	55107.91
533.50	55257.71
533.67	54920.67
533.84	55037.70
534.01	55131.32
534.18	54939.39
534.35	55681.34
534.52	55119.62
534.69	55360.69
534.86	55412.18
535.03	55192.17
535.20	55339.63
535.37	55477.72
535.54	55377.08
535.71	55545.59
535.88	55501.12
536.05	55655.60
536.22	55566.66
536.38	55590.06
536.55	55714.11
536.72	55831.14
536.89	55636.87
537.06	55786.67
537.23	56130.73
537.40	55896.67
537.57	55901.36
537.74	56154.13
537.91	56172.86
538.08	56069.87
538.25	55838.16
538.42	56088.60
538.59	56374.14
538.75	56413.93
538.92	56226.69
539.09	56308.61
539.26	56186.90
539.43	56154.13
539.60	56378.82
539.77	56399.89
539.94	56889.06
540.11	56329.67
540.28	56453.72
540.44	56666.71
540.61	56369.46
540.78	56502.87
540.95	56350.74
541.12	56451.38
541.29	56629.26
541.46	56718.20
541.62	56626.92
541.79	56905.44
541.96	56678.41
542.13	56849.27
542.30	56802.46
542.47	57200.35
542.63	56891.40
542.80	57050.56
542.97	57247.16
543.14	57331.42
543.31	57361.85
543.48	57528.03
543.64	57673.14
543.81	57757.40
543.98	57511.64
544.15	57401.64
544.32	57457.81
544.48	57972.73
544.65	57476.54
544.82	57532.71
544.99	57263.55
545.16	57689.52
545.32	57392.28
545.49	57949.32
545.66	57944.64
545.83	57759.74
546.00	57890.81
546.16	57841.66
546.33	57862.72
546.50	57535.05
546.67	58136.57
546.83	57673.14
547.00	57951.66
547.17	57818.25
547.34	58106.14
547.50	58026.56
547.67	58267.64
547.84	58209.12
548.00	58365.94
548.17	58234.87
548.34	58284.02
548.51	58351.90
548.67	58464.24
548.84	58440.84
549.01	58291.04
549.18	58365.94
549.34	58464.24
549.51	58244.23
549.68	58578.93
549.84	58543.82
550.01	58389.34
550.18	58351.90
550.34	58574.25
550.51	58508.71
550.68	58604.67
550.84	58312.11
551.01	58735.74
551.18	58639.78
551.34	58717.02
551.51	58801.28
551.68	58780.21
551.84	58756.81
552.01	58607.01
552.18	58794.26
552.34	58693.61
552.51	59007.25
552.68	58560.20
552.84	58686.59
553.01	59217.89
553.18	58768.51
553.34	59047.04
553.51	58979.16
553.67	59065.76
553.84	59103.21
554.01	58930.01
554.17	59049.38
554.34	59082.14
554.51	59250.66
554.67	59210.87
554.84	59208.53
555.00	59201.51
555.17	59114.91
555.33	59091.51
555.50	59105.55
555.67	59374.71
555.83	59196.83
556.00	59213.21
556.16	59714.09
556.33	59379.39
556.50	59428.54
556.66	59613.44
556.83	59269.39
556.99	59526.84
557.16	59695.36
557.32	59634.51
557.49	59735.15
557.65	59503.44
557.82	59578.34
557.98	59437.90
558.15	59585.36
558.32	59826.43
558.48	59700.04
558.65	59723.45
558.81	59700.04
558.98	59714.09
559.14	59643.87
559.31	59671.96
559.47	59917.71
559.64	59711.75
559.80	59891.97
559.97	59952.82
560.13	59807.71
560.30	59744.51
560.46	59896.65
560.63	59742.17
560.79	59997.29
560.96	59826.43
561.12	59971.55
561.29	59924.74
561.45	59962.18
561.61	60121.34
561.78	60184.54
561.94	60032.40
562.11	60018.36
562.27	59952.82
562.44	60046.44
562.60	60177.51
562.77	60331.99
562.93	59906.01
563.10	60364.76
563.26	59962.18
563.42	60275.82
563.59	60006.65
563.75	60032.40
563.92	60266.45
564.08	60165.81
564.24	60221.98
564.41	60451.36
564.57	60074.53
564.74	60313.26
564.90	60388.16
565.07	60257.09
565.23	60254.75
565.39	60219.64
565.56	60427.95
565.72	60418.59
565.88	60418.59
566.05	60257.09
566.21	60261.77
566.38	60350.71
566.54	60353.05
566.70	60505.19
566.87	60587.11
567.03	60353.05
567.19	60608.17
567.36	60537.96
567.52	60334.33
567.68	60638.60
567.85	60303.90
568.01	60535.62
568.17	60425.61
568.34	60631.58
568.50	60533.28
568.66	60383.48
568.83	60601.15
568.99	60397.52
569.15	60683.07
569.32	60460.72
569.48	60556.68
569.64	60753.29
569.81	60552.00
569.97	60456.04
570.13	60500.51
570.30	60643.28
570.46	60835.20
570.62	60633.92
570.78	60640.94
570.95	60530.93
571.11	60790.73
571.27	60629.24
571.43	60690.09
571.60	60779.03
571.76	60603.49
571.92	60734.56
572.09	60568.38
572.25	60664.35
572.41	60722.86
572.57	60851.59
572.74	60814.14
572.90	60704.13
573.06	60865.63
573.22	60809.46
573.38	60769.67
573.55	60673.71
573.71	60858.61
573.87	60722.86
574.03	60802.44
574.20	60823.50
574.36	60910.10
574.52	60790.73
574.68	60891.38
574.84	61006.06
575.01	61036.49
575.17	60858.61
575.33	60779.03
575.49	60779.03
575.65	60828.18
575.82	60870.31
575.98	61099.68
576.14	61132.45
576.30	60940.53
576.46	60956.91
576.62	60994.36
576.79	60786.05
576.95	60783.71
577.11	60870.31
577.27	60987.34
577.43	60882.02
577.59	60722.86
577.75	60912.44
577.92	60736.90
578.08	60994.36
578.24	60985.00
578.40	61130.11
578.56	61111.39
578.72	61127.77
578.88	61233.10
579.04	61371.19
579.21	61223.73
579.37	61125.43
579.53	60959.25
579.69	60662.00
579.85	61064.58
580.01	60952.23
580.17	60994.36
580.33	61176.92
580.49	61013.08
580.65	61020.11
580.82	61160.54
580.98	61144.16
581.14	61172.24
581.30	61045.85
581.46	60989.68
581.62	61015.43
581.78	61092.66
581.94	61038.83
582.10	61249.48
582.26	61099.68
582.42	60921.80
582.58	61144.16
582.74	61083.30
582.90	60947.55
583.06	61141.81
583.22	60872.65
583.38	60879.67
583.54	61247.14
583.70	61153.52
583.86	61099.68
584.02	61022.45
584.18	61216.71
584.34	61371.19
584.50	61069.26
584.66	60999.04
584.82	61249.48
584.98	61272.88
585.14	61338.42
585.30	61118.41
585.46	61069.26
585.62	61169.90
585.78	61389.91
585.94	61155.86
586.10	61151.18
586.26	61219.05
586.42	61338.42
586.58	61329.06
586.74	61151.18
586.90	61188.63
587.06	61106.71
587.22	61427.36
587.38	61165.22
587.54	61270.54
587.70	61235.44
587.86	61366.51
588.02	61095.00
588.18	61279.91
588.34	61169.90
588.49	61146.50
