SpectraSuite Data File
++++++++++++++++++++++++++++++++++++
Date: Fri Oct 25 11:23:33 EDT 2013
User: price-jones
Dark Spectrum Present: No
Reference Spectrum Present: No
Number of Sampled Component Spectra: 1
Spectrometers: USB2+H05261
Integration Time (usec): 100000 (USB2+H05261)
Spectra Averaged: 1 (USB2+H05261)
Boxcar Smoothing: 0 (USB2+H05261)
Correct for Electrical Dark: No (USB2+H05261)
Strobe/Lamp Enabled: No (USB2+H05261)
Correct for Detector Non-linearity: No (USB2+H05261)
Correct for Stray Light: No (USB2+H05261)
Number of Pixels in Processed Spectrum: 2048
>>>>>Begin Processed Spectral Data<<<<<
365.73	241.08
365.92	241.08
366.12	241.08
366.32	102.98
366.52	105.32
366.72	175.54
366.91	100.64
367.11	152.13
367.31	124.05
367.51	131.07
367.70	98.30
367.90	161.50
368.10	149.79
368.30	133.41
368.49	140.43
368.69	140.43
368.89	145.11
369.09	182.56
369.28	168.52
369.48	145.11
369.68	93.62
369.87	252.78
370.07	189.58
370.27	234.05
370.47	229.37
370.66	524.28
370.86	592.16
371.06	610.88
371.25	681.10
371.45	615.56
371.65	667.05
371.84	655.35
372.04	741.95
372.24	734.93
372.44	777.06
372.63	753.65
372.83	713.86
373.03	802.80
373.22	765.36
373.42	732.59
373.62	767.70
373.81	819.19
374.01	828.55
374.21	837.91
374.40	748.97
374.60	774.72
374.79	866.00
374.99	849.61
375.19	795.78
375.38	837.91
375.58	802.80
375.78	791.10
375.97	828.55
376.17	905.79
376.37	910.47
376.56	877.70
376.76	826.21
376.95	833.23
377.15	919.83
377.35	959.62
377.54	919.83
377.74	910.47
377.93	917.49
378.13	873.02
378.33	957.28
378.52	866.00
378.72	945.58
378.91	976.00
379.11	898.77
379.31	915.15
379.50	931.53
379.70	952.60
379.89	912.81
380.09	943.24
380.28	990.05
380.48	954.94
380.68	917.49
380.87	968.98
381.07	1020.47
381.26	980.68
381.46	1039.20
381.65	1018.13
381.85	1050.90
382.04	1020.47
382.24	1029.84
382.43	985.37
382.63	1062.60
382.83	1015.79
383.02	1114.10
383.22	1053.24
383.41	1018.13
383.61	1071.97
383.80	1179.63
384.00	1121.12
384.19	1142.18
384.39	1055.58
384.58	1114.10
384.78	1020.47
384.97	1109.41
385.17	1132.82
385.36	1153.88
385.56	1081.33
385.75	1196.01
385.95	1193.67
386.14	1287.29
386.34	1186.65
386.53	1210.06
386.72	1153.88
386.92	1167.93
387.11	1294.32
387.31	1282.61
387.50	1198.35
387.70	1299.00
387.89	1193.67
388.09	1284.95
388.28	1266.23
388.48	1214.74
388.67	1338.79
388.86	1369.21
389.06	1289.64
389.25	1409.00
389.45	1427.73
389.64	1280.27
389.84	1308.36
390.03	1301.34
390.22	1423.05
390.42	1259.21
390.61	1341.13
390.81	1397.30
391.00	1460.49
391.19	1504.96
391.39	1432.41
391.58	1497.94
391.78	1385.60
391.97	1448.79
392.16	1387.94
392.36	1509.65
392.55	1519.01
392.75	1467.52
392.94	1521.35
393.13	1437.09
393.33	1467.52
393.52	1523.69
393.71	1563.48
393.91	1519.01
394.10	1462.83
394.29	1612.63
394.49	1668.80
394.68	1659.44
394.88	1598.59
395.07	1661.78
395.26	1701.57
395.46	1565.82
395.65	1689.87
395.84	1671.14
396.04	1795.19
396.23	1717.95
396.42	1724.97
396.62	1870.09
396.81	1778.81
397.00	1776.47
397.19	1785.83
397.39	1820.94
397.58	1884.13
397.77	1727.32
397.97	1858.39
398.16	1846.68
398.35	1900.52
398.55	1881.79
398.74	1846.68
398.93	1982.43
399.12	1877.11
399.32	1940.30
399.51	1895.83
399.70	2015.20
399.90	2052.65
400.09	2015.20
400.28	1947.33
400.47	2054.99
400.67	2047.97
400.86	1987.11
401.05	2146.27
401.24	2136.91
401.44	2181.38
401.63	2157.97
401.82	2134.57
402.01	2108.82
402.21	2087.76
402.40	2132.23
402.59	2167.34
402.78	2193.08
402.97	2232.87
403.17	2319.47
403.36	2335.85
403.55	2218.83
403.74	2436.50
403.93	2251.60
404.13	2377.98
404.32	2340.54
404.51	2338.20
404.70	2366.28
404.89	2413.09
405.09	2511.39
405.28	2478.63
405.47	2441.18
405.66	2478.63
405.85	2509.05
406.05	2459.90
406.24	2553.52
406.43	2588.63
406.62	2551.18
406.81	2689.28
407.00	2633.10
407.20	2780.56
407.39	2583.95
407.58	2651.83
407.77	2621.40
407.96	2822.69
408.15	2799.28
408.34	2747.79
408.54	2806.30
408.73	2745.45
408.92	2796.94
409.11	2867.16
409.30	2984.18
409.49	2801.62
409.68	2871.84
409.87	2970.14
410.07	3112.91
410.26	3052.06
410.45	3014.61
410.64	2991.20
410.83	3087.17
411.02	3066.10
411.21	3199.51
411.40	3080.14
411.59	3171.43
411.78	3365.69
411.98	3208.87
412.17	3236.96
412.36	3251.00
412.55	3463.99
412.74	3393.78
412.93	3482.72
413.12	3433.57
413.31	3576.34
413.50	3384.41
413.69	3433.57
413.88	3576.34
414.07	3599.74
414.26	3569.32
414.45	3882.95
414.64	3688.68
414.83	3777.62
415.02	3770.60
415.22	3756.56
415.41	3812.73
415.60	3831.46
415.79	3971.89
415.98	3866.56
416.17	4016.36
416.36	3878.27
416.55	3950.82
416.74	4142.75
416.93	4091.26
417.12	4105.30
417.31	4245.73
417.50	4215.30
417.69	4250.41
417.88	4290.20
418.07	4271.48
418.26	4271.48
418.45	4276.16
418.64	4418.93
418.83	4425.95
419.02	4315.95
419.21	4491.49
419.39	4519.57
419.58	4468.08
419.77	4311.27
419.96	4720.86
420.15	4564.04
420.34	4610.86
420.53	4655.33
420.72	4788.74
420.91	4678.73
421.10	4730.22
421.29	4711.50
421.48	4781.71
421.67	4861.29
421.86	4805.12
422.05	4814.48
422.24	4842.57
422.43	4912.78
422.61	4954.91
422.80	4926.83
422.99	4753.63
423.18	4957.25
423.37	4910.44
423.56	4933.85
423.75	4908.10
423.94	4856.61
424.13	4692.77
424.32	4711.50
424.50	4999.38
424.69	5198.33
424.88	5022.79
425.07	5135.14
425.26	4933.85
425.45	5027.47
425.64	4980.66
425.83	4999.38
426.01	5041.51
426.20	5123.43
426.39	5067.26
426.58	5064.92
426.77	5118.75
426.96	5242.80
427.15	4987.68
427.33	5313.02
427.52	5235.78
427.71	5371.53
427.90	5193.65
428.09	5343.44
428.28	5336.42
428.46	5345.78
428.65	5406.64
428.84	5619.63
429.03	5521.32
429.22	5383.23
429.40	5284.93
429.59	5444.09
429.78	5369.19
429.97	5336.42
430.16	5488.56
430.34	5493.24
430.53	5741.33
430.72	5685.16
430.91	5720.27
431.10	5650.05
431.28	5717.93
431.47	5795.17
431.66	5858.36
431.85	5867.72
432.03	6076.03
432.22	5977.73
432.41	5933.26
432.60	5881.77
432.79	6033.90
432.97	6136.88
433.16	6097.10
433.35	5926.24
433.54	6017.52
433.72	6127.52
433.91	6141.57
434.10	6120.50
434.28	6017.52
434.47	6186.04
434.66	6155.61
434.85	6218.80
435.03	6183.70
435.22	6282.00
435.41	6546.48
435.59	6345.19
435.78	6356.90
435.97	6293.70
436.16	6532.44
436.34	6420.09
436.53	6703.29
436.72	6696.27
436.90	6335.83
437.09	6579.25
437.28	6572.22
437.46	6647.12
437.65	6686.91
437.84	6820.32
438.02	6827.34
438.21	6960.75
438.40	6803.94
438.58	7061.40
438.77	7033.31
438.96	6942.03
439.14	7150.34
439.33	7129.27
439.52	7267.36
439.70	7311.83
439.89	7400.77
440.08	7370.35
440.26	7344.60
440.45	7384.39
440.63	7358.64
440.82	7719.09
441.01	7714.41
441.19	7765.90
441.38	7609.08
441.57	7693.34
441.75	7850.16
441.94	8053.78
442.12	7950.80
442.31	7978.89
442.50	8074.85
442.68	7964.84
442.87	8138.04
443.05	8084.21
443.24	8182.51
443.43	8067.83
443.61	8116.98
443.80	8245.71
443.98	8133.36
444.17	7950.80
444.35	8259.75
444.54	8439.97
444.73	8514.87
444.91	8362.73
445.10	8339.33
445.28	8355.71
445.47	8411.89
445.65	8503.17
445.84	8313.58
446.02	8439.97
446.21	8299.54
446.39	8344.01
446.58	8381.46
446.77	8439.97
446.95	8189.53
447.14	8601.47
447.32	8592.11
447.51	8650.62
447.69	8561.68
447.88	8280.82
448.06	8355.71
448.25	8610.83
448.43	8557.00
448.62	8641.26
448.80	8538.27
448.99	8734.88
449.17	8702.11
449.36	8641.26
449.54	8791.05
449.73	9018.08
449.91	8987.66
450.10	8865.95
450.28	9104.68
450.46	9277.88
450.65	8966.59
450.83	9280.22
451.02	9050.85
451.20	9380.87
451.39	9015.74
451.57	9343.42
451.76	9104.68
451.94	9128.09
452.13	9252.14
452.31	9282.56
452.49	9027.45
452.68	9521.30
452.86	9317.67
453.05	9387.89
453.23	9535.34
453.42	9291.93
453.60	9303.63
453.78	9673.43
453.97	9277.88
454.15	9341.08
454.34	9673.43
454.52	9792.80
454.70	9511.94
454.89	9734.29
455.07	9860.68
455.26	9743.65
455.44	9888.76
455.62	9900.47
455.81	9870.04
455.99	9982.38
456.17	10026.86
456.36	10085.37
456.54	10190.69
456.73	10214.10
456.91	10450.49
457.09	10541.77
457.28	10686.89
457.46	10136.86
457.64	10567.52
457.83	10527.73
458.01	10410.70
458.19	10693.91
458.38	10764.12
458.56	10738.38
458.74	10808.59
458.93	10806.25
459.11	10707.95
459.29	10810.93
459.48	10913.92
459.66	10700.93
459.84	10841.36
460.03	10972.43
460.21	11061.37
460.39	10815.62
460.57	11117.54
460.76	11187.76
460.94	11094.14
461.12	11094.14
461.31	11171.38
461.49	11199.46
461.67	11185.42
461.85	11482.67
462.04	11286.06
462.22	11822.05
462.40	11541.18
462.59	11735.45
462.77	11550.54
462.95	11585.65
463.13	11667.57
463.32	11672.25
463.50	11674.59
463.68	11782.26
463.86	12006.95
464.05	11803.32
464.23	11843.11
464.41	11843.11
464.59	12074.82
464.78	12156.74
464.96	11992.90
465.14	11772.89
465.32	12236.32
465.50	12201.21
465.69	12224.62
465.87	11988.22
466.05	12416.54
466.23	12175.47
466.41	12255.04
466.60	12219.94
466.78	12140.36
466.96	12123.98
467.14	12210.57
467.32	12306.54
467.51	12468.03
467.69	11939.07
467.87	12507.82
468.05	12606.13
468.23	12386.12
468.41	12627.19
468.60	12470.37
468.78	12868.27
468.96	12681.02
469.14	12891.67
469.32	12872.95
469.50	12879.97
469.69	13284.88
469.87	13266.16
470.05	13064.87
470.23	13111.68
470.41	13207.64
470.59	13364.46
470.77	13242.75
470.95	13156.15
471.14	13816.18
471.32	13055.51
471.50	13425.31
471.68	13607.87
471.86	13851.29
472.04	13928.53
472.22	13919.17
472.40	13680.43
472.58	13944.91
472.77	13891.08
472.95	14157.90
473.13	14532.39
473.31	14202.37
473.49	14303.01
473.67	14319.40
473.85	14101.73
474.03	14721.97
474.21	14745.38
474.39	14675.16
474.57	14817.93
474.75	15126.88
474.93	14956.02
475.12	15204.12
475.30	14876.44
475.48	15239.23
475.66	15297.74
475.84	15087.09
476.02	15370.30
476.20	15412.43
476.38	15592.65
476.56	16135.65
476.74	16201.19
476.92	15836.06
477.10	16149.70
477.28	16180.12
477.46	16140.33
477.64	16404.81
477.82	16517.16
478.00	16781.64
478.18	16795.68
478.36	17165.49
478.54	17331.67
478.72	17158.47
478.90	17373.80
479.08	17645.30
479.26	17767.01
479.44	17781.05
479.62	17961.27
479.80	17877.01
479.98	18354.48
480.16	18691.52
480.34	18148.51
480.52	18789.82
480.70	18759.39
480.88	18340.44
481.06	18731.31
481.24	18841.31
481.41	18956.00
481.59	19480.28
481.77	19421.77
481.95	19578.58
482.13	20053.71
482.31	19756.46
482.49	20290.10
482.67	20210.53
482.85	20432.88
483.03	20870.56
483.21	20746.51
483.39	21209.93
483.57	21001.63
483.74	21542.29
483.92	21341.00
484.10	21216.96
484.28	21799.75
484.46	22258.49
484.64	22593.19
484.82	22061.89
485.00	22656.39
485.18	22911.50
485.35	22930.23
485.53	22916.19
485.71	23293.01
485.89	23756.44
486.07	23501.32
486.25	23756.44
486.43	23545.79
486.61	23887.51
486.78	23803.25
486.96	24210.50
487.14	24556.90
487.32	24706.70
487.50	25120.97
487.68	25146.72
487.85	25146.72
488.03	25624.18
488.21	25942.50
488.39	26008.03
488.57	26536.99
488.75	26087.61
488.92	26478.48
489.10	26742.96
489.28	26838.92
489.46	26998.08
489.64	27016.80
489.81	27653.43
489.99	27800.88
490.17	27522.36
490.35	28224.52
490.53	28381.34
490.70	28535.81
490.88	28353.25
491.06	28889.23
491.24	28783.91
491.41	29352.66
491.59	29088.18
491.77	29518.84
491.95	29469.69
492.13	29610.12
492.30	30075.88
492.48	30284.19
492.66	30726.55
492.84	30675.06
493.01	30717.19
493.19	30827.20
493.37	31225.09
493.54	31498.93
493.72	31283.60
493.90	31842.99
494.08	31475.52
494.25	32147.26
494.43	32334.50
494.61	32252.58
494.79	32636.43
494.96	32629.41
495.14	32896.23
495.32	33249.65
495.49	33244.97
495.67	33167.73
495.85	33881.60
496.02	34036.07
496.20	33914.36
496.38	33834.78
496.55	34284.17
496.73	35033.14
496.91	34487.79
497.09	34644.61
497.26	34866.96
497.44	35140.80
497.62	35335.07
497.79	35892.12
497.97	35819.56
498.14	35969.35
498.32	36388.31
498.50	36123.83
498.67	36704.28
498.85	36615.34
499.03	36598.96
499.20	36847.05
499.38	37141.96
499.56	37261.33
499.73	37015.57
499.91	37289.42
500.08	37565.60
500.26	37455.59
500.44	38054.77
500.61	37996.26
500.79	37687.31
500.97	37944.76
501.14	38536.92
501.32	38815.44
501.49	38714.80
501.67	38763.95
501.84	39503.56
502.02	38787.36
502.20	39283.55
502.37	39395.90
502.55	39580.80
502.72	39428.66
502.90	39744.64
503.07	39901.45
503.25	39943.58
503.43	39440.37
503.60	40233.81
503.78	40570.85
503.95	40566.16
504.13	40425.73
504.30	41029.59
504.48	40268.92
504.65	41060.02
504.83	41422.80
505.01	41413.44
505.18	41450.89
505.36	41565.57
505.53	41298.75
505.71	41972.83
505.88	41808.99
506.06	41535.15
506.23	42089.85
506.41	42234.97
506.58	42148.37
506.76	42237.31
506.93	42080.49
507.11	42412.85
507.28	42602.43
507.46	42639.88
507.63	43634.61
507.81	43665.03
507.98	42792.01
508.16	43274.16
508.33	43569.07
508.50	43592.48
508.68	43793.76
508.85	43838.23
509.03	44247.83
509.20	44025.48
509.38	44540.39
509.55	44023.14
509.73	44313.36
509.90	44882.11
510.08	44706.57
510.25	44245.49
510.42	45170.00
510.60	45059.99
510.77	45289.37
510.95	45530.44
511.12	45404.05
511.30	45167.66
511.47	45556.19
511.64	45280.00
511.82	45586.61
511.99	45872.16
512.17	46146.00
512.34	45818.33
512.51	46216.22
512.69	46899.65
512.86	46312.18
513.04	46813.05
513.21	46576.66
513.38	47061.15
513.56	46897.31
513.73	46532.19
513.90	47288.18
514.08	46988.60
514.25	46799.01
514.43	47580.75
514.60	47246.05
514.77	47377.12
514.95	48002.05
515.12	47501.17
515.29	48058.22
515.47	48236.10
515.64	48205.67
515.81	48060.56
515.99	48233.76
516.16	48624.63
516.33	48596.54
516.51	48736.98
516.68	48418.66
516.85	48837.62
517.03	49261.26
517.20	49120.82
517.37	48882.09
517.54	49055.29
517.72	48652.72
517.89	48964.01
518.06	49434.45
518.24	49427.43
518.41	49221.47
518.58	49516.37
518.75	49455.52
518.93	49951.71
519.10	49294.02
519.27	49923.63
519.45	50117.89
519.62	49907.24
519.79	50169.38
519.96	50045.33
520.14	50438.54
520.31	50614.08
520.48	50309.82
520.65	50424.50
520.83	50857.50
521.00	50724.09
521.17	50571.96
521.34	50784.94
521.52	51220.28
521.69	50941.76
521.86	51260.07
522.03	51519.87
522.20	51430.93
522.38	51482.42
522.55	51388.80
522.72	51168.79
522.89	51531.57
523.07	51697.75
523.24	51608.81
523.41	52123.73
523.58	51583.07
523.75	52240.76
523.92	51882.66
524.10	52109.69
524.27	52158.84
524.44	51938.83
524.61	51941.17
524.78	52252.46
524.96	52420.98
525.13	52626.95
525.30	52493.54
525.47	52648.01
525.64	52580.13
525.81	52657.37
525.98	52694.82
526.16	52687.80
526.33	52942.92
526.50	53132.50
526.67	52783.76
526.84	52882.06
527.01	52884.40
527.18	52580.13
527.36	53132.50
527.53	53261.23
527.70	53336.13
527.87	53558.48
528.04	53055.26
528.21	53247.19
528.38	53565.50
528.55	53570.18
528.72	53652.10
528.89	53689.55
529.07	53333.79
529.24	53626.35
529.41	53727.00
529.58	53989.14
529.75	53759.76
529.92	53736.36
530.09	53928.28
530.26	53909.56
530.43	54265.32
530.60	53783.17
530.77	53942.33
530.94	54382.35
531.11	54197.44
531.28	54323.83
531.46	54230.21
531.63	54693.64
531.80	54209.15
531.97	54562.57
532.14	54611.72
532.31	54527.46
532.48	55002.59
532.65	54878.54
532.82	54527.46
532.99	54604.70
533.16	54389.37
533.33	54609.38
533.50	55021.31
533.67	54859.82
533.84	54974.50
534.01	55018.97
534.18	54756.83
534.35	55327.92
534.52	55136.00
534.69	55309.20
534.86	55405.16
535.03	55199.19
535.20	55171.11
535.37	55578.36
535.54	55473.04
535.71	55271.75
535.88	55760.92
536.05	55543.25
536.22	55679.00
536.38	55573.68
536.55	55732.84
536.72	55592.40
536.89	55557.30
537.06	55529.21
537.23	55774.97
537.40	55805.39
537.57	55861.57
537.74	55941.14
537.91	56137.75
538.08	55950.51
538.25	55629.85
538.42	56081.58
538.59	56079.24
538.75	56086.26
538.92	56175.20
539.09	56252.44
539.26	56236.05
539.43	56079.24
539.60	56404.57
539.77	56451.38
539.94	56573.09
540.11	56509.89
540.28	56552.02
540.44	56727.56
540.61	56610.54
540.78	56582.45
540.95	56360.10
541.12	56362.44
541.29	56619.90
541.46	56512.23
541.62	56713.52
541.79	56956.94
541.96	56535.64
542.13	56530.96
542.30	56816.50
542.47	56694.80
542.63	57017.79
542.80	57111.41
542.97	57216.74
543.14	57277.59
543.31	57158.22
543.48	57357.17
543.64	57635.69
543.81	57387.60
543.98	57504.62
544.15	57322.06
544.32	57607.61
544.48	57574.84
544.65	57429.72
544.82	57609.95
544.99	57013.11
545.16	57298.65
545.32	57542.07
545.49	57808.89
545.66	57696.55
545.83	57717.61
546.00	57769.10
546.16	57780.81
546.33	57565.48
546.50	57640.37
546.67	57799.53
546.83	57415.68
547.00	57914.22
547.17	57759.74
547.34	57797.19
547.50	58003.16
547.67	58162.31
547.84	58248.91
548.00	58351.90
548.17	58295.72
548.34	58129.54
548.51	58159.97
548.67	58419.77
548.84	58192.74
549.01	58265.30
549.18	58202.10
549.34	58344.87
549.51	58485.31
549.68	58742.77
549.84	58426.79
550.01	58497.01
550.18	58220.83
550.34	58457.22
550.51	58578.93
550.68	58529.78
550.84	58592.97
551.01	58684.25
551.18	58588.29
551.34	58721.70
551.51	58686.59
551.68	58660.85
551.84	58492.33
552.01	58548.50
552.18	58766.17
552.34	58658.51
552.51	58815.32
552.68	58499.35
552.84	58749.79
553.01	58866.81
553.18	59014.27
553.34	59126.61
553.51	58768.51
553.67	58880.86
553.84	58822.34
554.01	58962.78
554.17	59119.59
554.34	59112.57
554.51	59028.31
554.67	59171.08
554.84	59157.04
555.00	59253.00
555.17	59131.29
555.33	59103.21
555.50	59189.81
555.67	58960.44
555.83	59126.61
556.00	59203.85
556.16	59576.00
556.33	59564.29
556.50	59236.62
556.66	59533.87
556.83	59025.97
556.99	59433.22
557.16	59634.51
557.32	59522.16
557.49	59711.75
557.65	59533.87
557.82	59203.85
557.98	59561.95
558.15	59625.15
558.32	59264.70
558.48	59468.33
558.65	59657.91
558.81	59590.04
558.98	59648.55
559.14	59606.42
559.31	59856.86
559.47	59824.09
559.64	59882.61
559.80	59805.37
559.97	59849.84
560.13	59849.84
560.30	59730.47
560.46	59728.13
560.63	60048.78
560.79	59978.57
560.96	59994.95
561.12	59948.14
561.29	59971.55
561.45	59906.01
561.61	59980.91
561.78	59854.52
561.94	59870.90
562.11	59683.66
562.27	59980.91
562.44	59957.50
562.60	60001.97
562.77	59969.21
562.93	59999.63
563.10	60196.24
563.26	59973.89
563.42	60161.13
563.59	60123.68
563.75	60004.31
563.92	60076.87
564.08	60147.09
564.24	60245.39
564.41	60074.53
564.57	60175.17
564.74	60123.68
564.90	60236.03
565.07	60130.70
565.23	60144.75
565.39	60275.82
565.56	60238.37
565.72	60425.61
565.88	60264.11
566.05	60149.43
566.21	60339.01
566.38	60390.50
566.54	60395.18
566.70	60360.08
566.87	60353.05
567.03	60390.50
567.19	60596.47
567.36	60434.97
567.52	60224.32
567.68	60507.53
567.85	60420.93
568.01	60603.49
568.17	60397.52
568.34	60598.81
568.50	60446.68
568.66	60395.18
568.83	60516.89
568.99	60289.86
569.15	60631.58
569.32	60390.50
569.48	60434.97
569.64	60580.09
569.81	60552.00
569.97	60409.23
570.13	60519.23
570.30	60573.06
570.46	60493.49
570.62	60626.90
570.78	60594.13
570.95	60636.26
571.11	60662.00
571.27	60523.91
571.43	60626.90
571.60	60858.61
571.76	60552.00
571.92	60535.62
572.09	60516.89
572.25	60617.53
572.41	60697.11
572.57	60708.82
572.74	60931.17
572.90	60837.54
573.06	60701.79
573.22	60580.09
573.38	60718.18
573.55	60533.28
573.71	60970.96
573.87	60603.49
574.03	60371.78
574.20	60779.03
574.36	60664.35
574.52	60863.29
574.68	60783.71
574.84	60947.55
575.01	60921.80
575.17	60856.27
575.33	60748.60
575.49	60444.33
575.65	60865.63
575.82	60825.84
575.98	60811.80
576.14	61020.11
576.30	60851.59
576.46	60802.44
576.62	60788.39
576.79	60697.11
576.95	60622.22
577.11	60942.87
577.27	61064.58
577.43	60884.36
577.59	60750.94
577.75	60802.44
577.92	60804.78
578.08	60947.55
578.24	61062.24
578.40	61087.98
578.56	60863.29
578.72	60956.91
578.88	61041.17
579.04	61038.83
579.21	61097.34
579.37	61183.94
579.53	61293.95
579.69	60870.31
579.85	60956.91
580.01	60924.14
580.17	60924.14
580.33	60994.36
580.49	61165.22
580.65	60954.57
580.82	60849.25
580.98	60865.63
581.14	60924.14
581.30	61099.68
581.46	60999.04
581.62	61066.92
581.78	61017.77
581.94	60975.64
582.10	60912.44
582.26	60949.89
582.42	61095.00
582.58	60947.55
582.74	60764.99
582.90	61155.86
583.06	60942.87
583.22	61078.62
583.38	61160.54
583.54	60970.96
583.70	61095.00
583.86	61031.81
584.02	60987.34
584.18	61193.31
584.34	61127.77
584.50	61099.68
584.66	61001.38
584.82	60849.25
584.98	61240.12
585.14	61066.92
585.30	61013.08
585.46	61148.84
585.62	61176.92
585.78	61113.73
585.94	60786.05
586.10	60992.02
586.26	61158.20
586.42	61226.07
586.58	61165.22
586.74	61242.46
586.90	60947.55
587.06	61097.34
587.22	61282.25
587.38	61146.50
587.54	61300.97
587.70	61109.05
587.86	61272.88
588.02	61186.28
588.18	61326.72
588.34	61024.79
588.49	60952.23
