SpectraSuite Data File
++++++++++++++++++++++++++++++++++++
Date: Fri Oct 25 11:25:49 EDT 2013
User: price-jones
Dark Spectrum Present: No
Reference Spectrum Present: No
Number of Sampled Component Spectra: 1
Spectrometers: USB2+H05261
Integration Time (usec): 100000 (USB2+H05261)
Spectra Averaged: 1 (USB2+H05261)
Boxcar Smoothing: 0 (USB2+H05261)
Correct for Electrical Dark: No (USB2+H05261)
Strobe/Lamp Enabled: No (USB2+H05261)
Correct for Detector Non-linearity: No (USB2+H05261)
Correct for Stray Light: No (USB2+H05261)
Number of Pixels in Processed Spectrum: 2048
>>>>>Begin Processed Spectral Data<<<<<
365.73	297.25
365.92	297.25
366.12	297.25
366.32	201.29
366.52	177.88
366.72	170.86
366.91	110.01
367.11	112.35
367.31	105.32
367.51	124.05
367.70	140.43
367.90	95.96
368.10	124.05
368.30	114.69
368.49	198.95
368.69	210.65
368.89	126.39
369.09	168.52
369.28	154.48
369.48	145.11
369.68	203.63
369.87	229.37
370.07	170.86
370.27	257.46
370.47	308.95
370.66	517.26
370.86	603.86
371.06	767.70
371.25	645.99
371.45	601.52
371.65	697.48
371.84	645.99
372.04	669.39
372.24	667.05
372.44	711.52
372.63	699.82
372.83	777.06
373.03	784.08
373.22	814.51
373.42	802.80
373.62	798.12
373.81	847.27
374.01	830.89
374.21	833.23
374.40	774.72
374.60	887.06
374.79	908.13
374.99	821.53
375.19	770.04
375.38	828.55
375.58	856.64
375.78	863.66
375.97	849.61
376.17	887.06
376.37	866.00
376.56	896.43
376.76	840.25
376.95	868.34
377.15	863.66
377.35	826.21
377.54	917.49
377.74	924.51
377.93	912.81
378.13	915.15
378.33	987.71
378.52	915.15
378.72	940.90
378.91	926.85
379.11	968.98
379.31	903.45
379.50	866.00
379.70	947.92
379.89	999.41
380.09	903.45
380.28	1011.11
380.48	1039.20
380.68	854.30
380.87	954.94
381.07	1001.75
381.26	1062.60
381.46	938.55
381.65	1015.79
381.85	1116.44
382.04	1050.90
382.24	966.64
382.43	1029.84
382.63	1142.18
382.83	1109.41
383.02	1074.31
383.22	1224.10
383.41	1149.20
383.61	1151.54
383.80	1174.95
384.00	1137.50
384.19	1149.20
384.39	1111.75
384.58	1088.35
384.78	1210.06
384.97	1210.06
385.17	1174.95
385.36	1172.61
385.56	1177.29
385.75	1172.61
385.95	1277.93
386.14	1205.38
386.34	1263.89
386.53	1291.98
386.72	1193.67
386.92	1242.82
387.11	1261.55
387.31	1170.27
387.50	1233.46
387.70	1235.80
387.89	1338.79
388.09	1313.04
388.28	1245.16
388.48	1249.85
388.67	1359.85
388.86	1303.68
389.06	1317.72
389.25	1390.28
389.45	1277.93
389.64	1336.45
389.84	1383.26
390.03	1366.87
390.22	1423.05
390.42	1287.29
390.61	1387.94
390.81	1462.83
391.00	1387.94
391.19	1427.73
391.39	1425.39
391.58	1453.47
391.78	1479.22
391.97	1575.18
392.16	1430.07
392.36	1509.65
392.55	1472.20
392.75	1486.24
392.94	1430.07
393.13	1540.07
393.33	1577.52
393.52	1612.63
393.71	1549.43
393.91	1582.20
394.10	1591.56
394.29	1547.09
394.49	1497.94
394.68	1636.03
394.88	1687.53
395.07	1650.08
395.26	1577.52
395.46	1549.43
395.65	1767.10
395.84	1732.00
396.04	1856.04
396.23	1675.82
396.42	1661.78
396.62	1790.51
396.81	1825.62
397.00	1739.02
397.19	1849.02
397.39	1746.04
397.58	1724.97
397.77	1659.44
397.97	1844.34
398.16	1856.04
398.35	1996.48
398.55	1769.44
398.74	1881.79
398.93	2047.97
399.12	1802.21
399.32	1940.30
399.51	1846.68
399.70	2064.35
399.90	1914.56
400.09	2066.69
400.28	2040.95
400.47	2003.50
400.67	2066.69
400.86	2052.65
401.05	2001.16
401.24	2059.67
401.44	2054.99
401.63	2101.80
401.82	2141.59
402.01	2122.87
402.21	2153.29
402.40	2244.57
402.59	2246.91
402.78	2176.70
402.97	2162.66
403.17	2209.47
403.36	2162.66
403.55	2251.60
403.74	2406.07
403.93	2312.45
404.13	2359.26
404.32	2359.26
404.51	2289.04
404.70	2373.30
404.89	2403.73
405.09	2354.58
405.28	2324.15
405.47	2499.69
405.66	2455.22
405.85	2469.27
406.05	2478.63
406.24	2677.57
406.43	2527.78
406.62	2548.84
406.81	2710.34
407.00	2565.23
407.20	2710.34
407.39	2708.00
407.58	2708.00
407.77	2768.85
407.96	2782.90
408.15	2761.83
408.34	2768.85
408.54	2778.22
408.73	2757.15
408.92	2904.60
409.11	2869.50
409.30	2717.36
409.49	2848.43
409.68	2916.31
409.87	2953.76
410.07	3019.29
410.26	3012.27
410.45	2965.46
410.64	3045.04
410.83	3068.44
411.02	3030.99
411.21	3192.49
411.40	3038.02
411.59	3185.47
411.78	3105.89
411.98	3222.92
412.17	3353.99
412.36	3314.20
412.55	3290.79
412.74	3339.94
412.93	3475.70
413.12	3417.18
413.31	3503.78
413.50	3522.51
413.69	3454.63
413.88	3623.15
414.07	3552.93
414.26	3634.85
414.45	3541.23
414.64	3644.21
414.83	3735.50
415.02	3815.07
415.22	3824.44
415.41	3929.76
415.60	3758.90
415.79	3810.39
415.98	4107.64
416.17	3939.12
416.36	4002.32
416.55	4191.90
416.74	4028.06
416.93	4065.51
417.12	4205.94
417.31	4138.07
417.50	4145.09
417.69	4325.31
417.88	4280.84
418.07	4205.94
418.26	4248.07
418.45	4201.26
418.64	4447.02
418.83	4507.87
419.02	4227.01
419.21	4367.44
419.39	4507.87
419.58	4402.55
419.77	4379.14
419.96	4472.76
420.15	4571.07
420.34	4559.36
420.53	4617.88
420.72	4585.11
420.91	4652.98
421.10	4610.86
421.29	4737.24
421.48	4730.22
421.67	4650.64
421.86	4770.01
422.05	4805.12
422.24	4795.76
422.43	4762.99
422.61	4961.94
422.80	4919.81
422.99	4830.87
423.18	4961.94
423.37	4950.23
423.56	4887.04
423.75	4898.74
423.94	4720.86
424.13	4678.73
424.32	4660.01
424.50	4917.47
424.69	5057.90
424.88	5165.56
425.07	4943.21
425.26	4812.14
425.45	4957.25
425.64	4861.29
425.83	4865.97
426.01	5025.13
426.20	5315.36
426.39	5043.85
426.58	5069.60
426.77	5032.15
426.96	5142.16
427.15	5214.71
427.33	5174.92
427.52	5048.54
427.71	5172.58
427.90	5228.76
428.09	5284.93
428.28	5352.81
428.46	5305.99
428.65	5284.93
428.84	5401.96
429.03	5416.00
429.22	5226.42
429.40	5343.44
429.59	5488.56
429.78	5406.64
429.97	5338.76
430.16	5650.05
430.34	5631.33
430.53	5589.20
430.72	5724.95
430.91	5540.05
431.10	5694.52
431.28	5734.31
431.47	5694.52
431.66	5912.19
431.85	5820.91
432.03	5893.47
432.22	6104.12
432.41	5785.80
432.60	6036.24
432.79	6090.07
432.97	5872.40
433.16	6015.18
433.35	5954.32
433.54	6120.50
433.72	6155.61
433.91	6183.70
434.10	5902.83
434.28	6047.94
434.47	6150.93
434.66	6359.24
434.85	6188.38
435.03	6347.53
435.22	6399.02
435.41	6558.18
435.59	6422.43
435.78	6483.28
435.97	6445.84
436.16	6525.41
436.34	6305.40
436.53	6487.96
436.72	6476.26
436.90	6473.92
437.09	6588.61
437.28	6511.37
437.46	6539.46
437.65	6736.06
437.84	6913.94
438.02	6658.82
438.21	6696.27
438.40	6670.53
438.58	6827.34
438.77	7096.50
438.96	6967.77
439.14	7155.02
439.33	7246.30
439.52	7218.21
439.70	7239.28
439.89	7258.00
440.08	7248.64
440.26	7297.79
440.45	7344.60
440.63	7522.48
440.82	7817.39
441.01	7428.86
441.19	7499.08
441.38	7623.12
441.57	7695.68
441.75	7644.19
441.94	7955.48
442.12	8065.49
442.31	7906.33
442.50	7906.33
442.68	8116.98
442.87	8049.10
443.05	8196.56
443.24	8208.26
443.43	8124.00
443.61	8318.26
443.80	8294.86
443.98	7892.29
444.17	7740.15
444.35	8290.18
444.54	8491.46
444.73	8376.78
444.91	8030.38
445.10	8170.81
445.28	8173.15
445.47	8276.13
445.65	8271.45
445.84	8189.53
446.02	8311.24
446.21	8514.87
446.39	8224.64
446.58	8582.74
446.77	8376.78
446.95	8236.35
447.14	8468.06
447.32	8421.25
447.51	8355.71
447.69	8482.10
447.88	8482.10
448.06	8435.29
448.25	8610.83
448.43	8645.94
448.62	8503.17
448.80	8557.00
448.99	8601.47
449.17	8732.54
449.36	8489.12
449.54	8856.59
449.73	8863.61
449.91	8894.04
450.10	9102.34
450.28	9067.24
450.46	9018.08
450.65	8894.04
450.83	9043.83
451.02	9135.11
451.20	9296.61
451.39	9022.77
451.57	8908.08
451.76	9006.38
451.94	9015.74
452.13	9320.01
452.31	9308.31
452.49	9233.41
452.68	9406.61
452.86	9238.09
453.05	9525.98
453.23	9467.47
453.42	9228.73
453.60	9317.67
453.78	9312.99
453.97	9399.59
454.15	9425.34
454.34	9500.23
454.52	9434.70
454.70	9741.31
454.89	9617.26
455.07	9738.97
455.26	9743.65
455.44	10031.54
455.62	9970.68
455.81	9813.87
455.99	9989.41
456.17	9905.15
456.36	10157.92
456.54	10001.11
456.73	10148.56
456.91	10541.77
457.09	10289.00
457.28	10569.86
457.46	10122.82
457.64	10595.61
457.83	10359.21
458.01	10476.24
458.19	10588.58
458.38	10487.94
458.56	10427.09
458.74	10647.10
458.93	10649.44
459.11	10754.76
459.29	10743.06
459.48	10925.62
459.66	10803.91
459.84	10878.81
460.03	10827.32
460.21	11094.14
460.39	10832.00
460.57	11035.63
460.76	11080.10
460.94	11012.22
461.12	11115.20
461.31	11197.12
461.49	11204.14
461.67	11129.25
461.85	11234.57
462.04	11262.66
462.22	11524.80
462.40	11693.32
462.59	11384.37
462.77	11309.47
462.95	11566.93
463.13	11337.56
463.32	11531.82
463.50	11737.79
463.68	11875.88
463.86	11571.61
464.05	11644.17
464.23	11597.35
464.41	11693.32
464.59	11676.93
464.78	12035.03
464.96	11892.26
465.14	11887.58
465.32	11962.48
465.50	11981.20
465.69	12028.01
465.87	12006.95
466.05	12032.69
466.23	11960.14
466.41	12159.08
466.60	12468.03
466.78	12013.97
466.96	12294.83
467.14	12264.41
467.32	12351.01
467.51	12561.66
467.69	12145.04
467.87	12327.60
468.05	12409.52
468.23	12556.97
468.41	12547.61
468.60	12601.44
468.78	12751.24
468.96	12699.75
469.14	12571.02
469.32	12657.62
469.50	12428.24
469.69	12814.43
469.87	13043.81
470.05	13097.64
470.23	13132.75
470.41	13050.83
470.59	13296.58
470.77	12910.40
470.95	13287.22
471.14	13497.87
471.32	13114.02
471.50	13556.38
471.68	13582.13
471.86	13710.86
472.04	13675.75
472.22	13942.57
472.40	13818.52
472.58	13685.11
472.77	13933.21
472.95	14073.64
473.13	14473.87
473.31	13998.74
473.49	13949.59
473.67	13907.46
473.85	14054.92
474.03	14670.48
474.21	14583.88
474.39	14712.61
474.57	14801.55
474.75	14719.63
474.93	14984.11
475.12	14689.20
475.30	14906.87
475.48	14895.17
475.66	15321.15
475.84	15054.33
476.02	15372.64
476.20	15227.53
476.38	15655.84
476.56	16208.21
476.74	15754.15
476.92	16023.31
477.10	15709.68
477.28	16208.21
477.46	15995.22
477.64	16329.92
477.82	16404.81
478.00	16936.12
478.18	16716.11
478.36	16767.60
478.54	17095.27
478.72	17179.53
478.90	17165.49
479.08	17535.29
479.26	17696.79
479.44	17900.42
479.62	17970.63
479.80	17802.11
479.98	18387.25
480.16	18525.34
480.34	18244.48
480.52	18520.66
480.70	18642.37
480.88	18239.79
481.06	19023.87
481.24	18916.21
481.41	19138.56
481.59	19510.71
481.77	19573.90
481.95	19623.05
482.13	19573.90
482.31	19623.05
482.49	20095.84
482.67	20077.12
482.85	20233.93
483.03	20526.50
483.21	20521.82
483.39	20854.17
483.57	20594.37
483.74	21315.26
483.92	21345.69
484.10	20861.19
484.28	21853.58
484.46	21675.70
484.64	22356.80
484.82	21729.53
485.00	22232.75
485.18	22342.75
485.35	23040.23
485.53	23019.17
485.71	23122.15
485.89	23412.38
486.07	23197.05
486.25	23431.10
486.43	23477.91
486.61	23847.72
486.78	23953.04
486.96	24046.66
487.14	24472.64
487.32	24587.33
487.50	24566.26
487.68	25083.52
487.85	25120.97
488.03	25338.64
488.21	25570.35
488.39	25942.50
488.57	26141.44
488.75	25851.22
488.92	26293.58
489.10	26452.73
489.28	26551.04
489.46	27218.09
489.64	26927.86
489.81	27730.67
489.99	27527.04
490.17	28027.92
490.35	27613.64
490.53	28121.54
490.70	28381.34
490.88	27981.10
491.06	28390.70
491.24	29137.33
491.41	28886.89
491.59	29137.33
491.77	29057.75
491.95	29659.27
492.13	29909.71
492.30	29656.93
492.48	29776.30
492.66	30352.07
492.84	30204.61
493.01	30548.67
493.19	30331.00
493.37	31094.02
493.54	31094.02
493.72	31608.93
493.90	31468.50
494.08	31842.99
494.25	31871.07
494.43	31791.50
494.61	32063.00
494.79	32360.25
494.96	32297.05
495.14	32914.95
495.32	32947.72
495.49	32898.57
495.67	33422.85
495.85	33088.15
496.02	33823.08
496.20	33750.52
496.38	33708.40
496.55	34087.56
496.73	34527.58
496.91	34693.76
497.09	34862.28
497.26	34808.45
497.44	34644.61
497.62	35328.05
497.79	35739.98
497.97	35332.73
498.14	36140.21
498.32	36215.11
498.50	35948.29
498.67	36397.67
498.85	35880.41
499.03	36568.53
499.20	36938.33
499.38	36875.14
499.56	37071.75
499.73	36921.95
499.91	37144.30
500.08	37649.86
500.26	37141.96
500.44	37572.62
500.61	37914.34
500.79	37544.53
500.97	37879.23
501.14	38281.80
501.32	38014.98
501.49	38101.58
501.67	38644.59
501.84	38871.62
502.02	38541.60
502.20	39044.82
502.37	39077.58
502.55	39318.66
502.72	39264.83
502.90	39702.51
503.07	39232.06
503.25	39697.83
503.43	39695.49
503.60	40374.24
503.78	40301.68
503.95	40383.60
504.13	40378.92
504.30	40350.84
504.48	40748.73
504.65	40622.34
504.83	41144.28
505.01	41062.36
505.18	41104.49
505.36	41265.99
505.53	40957.03
505.71	41619.41
505.88	41792.61
506.06	41036.61
506.23	42036.02
506.41	41762.18
506.58	41797.29
506.76	41888.57
506.93	42436.25
507.11	42464.34
507.28	42747.54
507.46	42370.72
507.63	42747.54
507.81	43592.48
507.98	42983.94
508.16	42953.51
508.33	42822.44
508.50	43442.68
508.68	43388.85
508.85	43768.02
509.03	43339.70
509.20	43660.35
509.38	43538.65
509.55	44320.38
509.73	44479.54
509.90	44184.63
510.08	44212.72
510.25	44746.36
510.42	44594.23
510.60	45057.65
510.77	45287.03
510.95	45439.16
511.12	44952.33
511.30	44917.22
511.47	44900.84
511.64	45387.67
511.82	45603.00
511.99	45720.02
512.17	46185.79
512.34	46010.25
512.51	46335.59
512.69	46431.55
512.86	46169.41
513.04	46590.70
513.21	46422.19
513.38	46426.87
513.56	46997.96
513.73	46579.00
513.90	47351.38
514.08	46927.74
514.25	47072.85
514.43	47459.04
514.60	47140.73
514.77	47150.09
514.95	47545.64
515.12	47267.12
515.29	47253.08
515.47	47950.56
515.64	48009.07
515.81	47655.65
515.99	47962.26
516.16	47824.17
516.33	48044.18
516.51	48863.36
516.68	48535.69
516.85	48603.56
517.03	48523.99
517.20	48776.76
517.37	48421.00
517.54	48650.38
517.72	48795.49
517.89	48741.66
518.06	48914.86
518.24	49099.76
518.41	48758.04
518.58	49162.95
518.75	49003.80
518.93	48961.67
519.10	49361.90
519.27	49411.05
519.45	49464.88
519.62	49897.88
519.79	50136.62
519.96	50092.15
520.14	49921.29
520.31	49900.22
520.48	50286.41
520.65	50370.67
520.83	50403.44
521.00	50522.80
521.17	50216.19
521.34	50494.72
521.52	50630.47
521.69	50632.81
521.86	51227.31
522.03	50885.59
522.20	51297.52
522.38	51323.27
522.55	51269.43
522.72	51267.09
522.89	51288.16
523.07	51576.04
523.24	51318.59
523.41	51489.45
523.58	51669.67
523.75	51744.56
523.92	51629.88
524.10	51606.47
524.27	51983.30
524.44	51615.83
524.61	51903.72
524.78	52112.03
524.96	52044.15
525.13	51941.17
525.30	52303.95
525.47	52343.74
525.64	52133.09
525.81	52404.59
525.98	52842.27
526.16	52399.91
526.33	52664.39
526.50	52699.50
526.67	52509.92
526.84	53085.69
527.01	52509.92
527.18	52851.64
527.36	52811.85
527.53	52938.24
527.70	53249.53
527.87	53301.02
528.04	53418.05
528.21	53095.05
528.38	53183.99
528.55	53600.61
528.72	53366.55
528.89	53202.72
529.07	53361.87
529.24	53516.35
529.41	53514.01
529.58	53619.33
529.75	53518.69
529.92	53705.93
530.09	53724.66
530.26	53961.05
530.43	53932.96
530.60	53467.20
530.77	53684.87
530.94	54082.76
531.11	53860.41
531.28	54138.93
531.46	54068.72
531.63	53970.41
531.80	54356.60
531.97	54417.46
532.14	54546.18
532.31	54578.95
532.48	54452.56
532.65	54281.70
532.82	54255.96
532.99	54490.01
533.16	54335.54
533.33	54681.94
533.50	54836.41
533.67	54707.68
533.84	54789.60
534.01	54719.38
534.18	54955.78
534.35	55117.28
534.52	55014.29
534.69	55054.08
534.86	55248.35
535.03	54979.18
535.20	55339.63
535.37	54990.89
535.54	55419.20
535.71	55143.02
535.88	55451.97
536.05	55126.64
536.22	55423.89
536.38	55723.47
536.55	55449.63
536.72	55580.70
536.89	55573.68
537.06	55388.78
537.23	55833.48
537.40	55735.18
537.57	55690.71
537.74	55718.79
537.91	56023.06
538.08	55929.44
538.25	55669.64
538.42	55611.13
538.59	56214.99
538.75	55686.03
538.92	55821.78
539.09	56025.40
539.26	56149.45
539.43	56128.39
539.60	56140.09
539.77	56231.37
539.94	56247.75
540.11	56289.88
540.28	56278.18
540.44	56233.71
540.61	56376.48
540.78	56172.86
540.95	56432.66
541.12	56402.23
541.29	56521.60
541.46	56320.31
541.62	56512.23
541.79	56514.58
541.96	56280.52
542.13	56657.35
542.30	56624.58
542.47	56851.61
542.63	56989.70
542.80	56872.68
542.97	57036.51
543.14	56996.73
543.31	57069.28
543.48	57041.20
543.64	57073.96
543.81	57219.08
543.98	57214.40
544.15	57443.77
544.32	57195.67
544.48	57518.67
544.65	57186.31
544.82	57382.91
544.99	57010.77
545.16	57319.72
545.32	57380.57
545.49	57609.95
545.66	57607.61
545.83	57481.22
546.00	57666.12
546.16	57406.32
546.33	57513.98
546.50	57315.04
546.67	57485.90
546.83	57453.13
547.00	57616.97
547.17	57743.36
547.34	57628.67
547.50	57827.62
547.67	57965.71
547.84	57904.85
548.00	57935.28
548.17	58073.37
548.34	57797.19
548.51	58365.94
548.67	58166.99
548.84	57963.37
549.01	57895.49
549.18	58211.46
549.34	58014.86
549.51	58227.85
549.68	58108.48
549.84	58426.79
550.01	58211.46
550.18	58176.36
550.34	58251.25
550.51	58529.78
550.68	58307.43
550.84	58192.74
551.01	58527.44
551.18	58403.39
551.34	58387.00
551.51	58686.59
551.68	58408.07
551.84	58546.16
552.01	58365.94
552.18	58501.69
552.34	58567.23
552.51	58639.78
552.68	58653.82
552.84	58560.20
553.01	58707.66
553.18	58553.18
553.34	58749.79
553.51	58609.35
553.67	58707.66
553.84	59119.59
554.01	59084.48
554.17	58946.39
554.34	59035.33
554.51	58838.73
554.67	58850.43
554.84	58871.49
555.00	58862.13
555.17	58880.86
555.33	58953.41
555.50	58908.94
555.67	58841.07
555.83	58899.58
556.00	59166.40
556.16	59238.96
556.33	59330.24
556.50	59196.83
556.66	59285.77
556.83	59091.51
556.99	59288.11
557.16	59281.09
557.32	59482.37
557.49	59697.70
557.65	59316.20
557.82	59332.58
557.98	59381.73
558.15	59348.96
558.32	59568.97
558.48	59536.21
558.65	59433.22
558.81	59229.60
558.98	59547.91
559.14	59381.73
559.31	59664.94
559.47	59503.44
559.64	59531.53
559.80	59522.16
559.97	59650.89
560.13	59435.56
560.30	59835.80
560.46	59615.79
560.63	59482.37
560.79	59667.28
560.96	59847.50
561.12	59639.19
561.29	59718.77
561.45	59636.85
561.61	59650.89
561.78	59735.15
561.94	59718.77
562.11	59538.55
562.27	59920.05
562.44	59739.83
562.60	59976.23
562.77	59821.75
562.93	59725.79
563.10	60006.65
563.26	60067.51
563.42	59894.31
563.59	59901.33
563.75	59611.10
563.92	59917.71
564.08	59943.46
564.24	60126.02
564.41	59985.59
564.57	60001.97
564.74	59976.23
564.90	59992.61
565.07	60013.68
565.23	60025.38
565.39	60030.06
565.56	60001.97
565.72	60116.66
565.88	60053.47
566.05	59983.25
566.21	60032.40
566.38	60224.32
566.54	60074.53
566.70	60231.35
566.87	60296.88
567.03	60233.69
567.19	60322.63
567.36	60264.11
567.52	60313.26
567.68	60587.11
567.85	60158.79
568.01	60390.50
568.17	59966.87
568.34	60484.12
568.50	60135.38
568.66	60411.57
568.83	60303.90
568.99	60184.54
569.15	60441.99
569.32	60245.39
569.48	60282.84
569.64	60397.52
569.81	60362.42
569.97	60229.01
570.13	60402.21
570.30	60376.46
570.46	60329.65
570.62	60322.63
570.78	60486.46
570.95	60418.59
571.11	60350.71
571.27	60381.14
571.43	60240.71
571.60	60542.64
571.76	60498.17
571.92	60650.30
572.09	60500.51
572.25	60575.40
572.41	60622.22
572.57	60418.59
572.74	60757.97
572.90	60573.06
573.06	60456.04
573.22	60605.83
573.38	60622.22
573.55	60654.98
573.71	60905.42
573.87	60589.45
574.03	60491.15
574.20	60764.99
574.36	60659.66
574.52	60680.73
574.68	60683.07
574.84	60718.18
575.01	60697.11
575.17	60568.38
575.33	60446.68
575.49	60502.85
575.65	60411.57
575.82	60706.47
575.98	60612.85
576.14	60966.27
576.30	60734.56
576.46	60540.30
576.62	60720.52
576.79	60636.26
576.95	60479.44
577.11	60573.06
577.27	60694.77
577.43	60570.72
577.59	60814.14
577.75	60617.53
577.92	60580.09
578.08	60732.22
578.24	60835.20
578.40	60755.63
578.56	60764.99
578.72	60743.92
578.88	60966.27
579.04	60956.91
579.21	60701.79
579.37	61006.06
579.53	60776.69
579.69	60605.83
579.85	60664.35
580.01	60729.88
580.17	60521.57
580.33	60945.21
580.49	60949.89
580.65	60842.23
580.82	60865.63
580.98	60746.26
581.14	60645.62
581.30	61059.90
581.46	60736.90
581.62	60786.05
581.78	60842.23
581.94	60884.36
582.10	60690.09
582.26	60736.90
582.42	60671.37
582.58	60828.18
582.74	60863.29
582.90	60856.27
583.06	61029.47
583.22	60781.37
583.38	60856.27
583.54	60767.33
583.70	60877.33
583.86	60928.83
584.02	60926.49
584.18	60882.02
584.34	60980.32
584.50	60898.40
584.66	60879.67
584.82	60846.91
584.98	60947.55
585.14	60954.57
585.30	60779.03
585.46	60891.38
585.62	60823.50
585.78	61212.03
585.94	60671.37
586.10	60898.40
586.26	60874.99
586.42	60874.99
586.58	61038.83
586.74	60889.04
586.90	60889.04
587.06	60825.84
587.22	61160.54
587.38	60940.53
587.54	61212.03
587.70	61104.37
587.86	61064.58
588.02	61017.77
588.18	61097.34
588.34	61034.15
588.49	61095.00
