SpectraSuite Data File
++++++++++++++++++++++++++++++++++++
Date: Fri Oct 25 11:23:13 EDT 2013
User: price-jones
Dark Spectrum Present: No
Reference Spectrum Present: No
Number of Sampled Component Spectra: 1
Spectrometers: USB2+H05261
Integration Time (usec): 100000 (USB2+H05261)
Spectra Averaged: 1 (USB2+H05261)
Boxcar Smoothing: 0 (USB2+H05261)
Correct for Electrical Dark: No (USB2+H05261)
Strobe/Lamp Enabled: No (USB2+H05261)
Correct for Detector Non-linearity: No (USB2+H05261)
Correct for Stray Light: No (USB2+H05261)
Number of Pixels in Processed Spectrum: 2048
>>>>>Begin Processed Spectral Data<<<<<
365.73	234.05
365.92	234.05
366.12	234.05
366.32	173.20
366.52	56.17
366.72	138.09
366.91	149.79
367.11	105.32
367.31	166.18
367.51	138.09
367.70	140.43
367.90	173.20
368.10	124.05
368.30	121.71
368.49	79.58
368.69	170.86
368.89	133.41
369.09	112.35
369.28	149.79
369.48	161.50
369.68	196.60
369.87	205.97
370.07	203.63
370.27	255.12
370.47	362.78
370.66	533.64
370.86	580.45
371.06	617.90
371.25	645.99
371.45	645.99
371.65	667.05
371.84	566.41
372.04	634.29
372.24	697.48
372.44	713.86
372.63	748.97
372.83	713.86
373.03	730.25
373.22	758.33
373.42	858.98
373.62	765.36
373.81	814.51
374.01	809.83
374.21	847.27
374.40	823.87
374.60	856.64
374.79	837.91
374.99	821.53
375.19	748.97
375.38	826.21
375.58	774.72
375.78	884.72
375.97	826.21
376.17	812.17
376.37	849.61
376.56	781.74
376.76	828.55
376.95	826.21
377.15	844.93
377.35	868.34
377.54	959.62
377.74	858.98
377.93	901.11
378.13	912.81
378.33	985.37
378.52	898.77
378.72	910.47
378.91	1022.81
379.11	898.77
379.31	919.83
379.50	889.40
379.70	929.19
379.89	1036.86
380.09	997.07
380.28	966.64
380.48	903.45
380.68	997.07
380.87	987.71
381.07	973.66
381.26	1060.26
381.46	1020.47
381.65	1083.67
381.85	999.41
382.04	1064.94
382.24	1153.88
382.43	1076.65
382.63	1013.45
382.83	1142.18
383.02	1137.50
383.22	1088.35
383.41	1139.84
383.61	1156.22
383.80	1139.84
384.00	1144.52
384.19	1163.25
384.39	1142.18
384.58	1170.27
384.78	1076.65
384.97	1116.44
385.17	1137.50
385.36	1158.57
385.56	1170.27
385.75	1111.75
385.95	1107.07
386.14	1172.61
386.34	1188.99
386.53	1188.99
386.72	1151.54
386.92	1203.04
387.11	1242.82
387.31	1245.16
387.50	1315.38
387.70	1287.29
387.89	1291.98
388.09	1214.74
388.28	1296.66
388.48	1299.00
388.67	1331.76
388.86	1266.23
389.06	1345.81
389.25	1416.02
389.45	1331.76
389.64	1324.74
389.84	1308.36
390.03	1385.60
390.22	1362.19
390.42	1366.87
390.61	1425.39
390.81	1423.05
391.00	1390.28
391.19	1486.24
391.39	1488.58
391.58	1418.36
391.78	1451.13
391.97	1465.18
392.16	1481.56
392.36	1533.05
392.55	1561.14
392.75	1540.07
392.94	1591.56
393.13	1521.35
393.33	1542.41
393.52	1563.48
393.71	1565.82
393.91	1591.56
394.10	1516.67
394.29	1661.78
394.49	1657.10
394.68	1551.78
394.88	1673.48
395.07	1629.01
395.26	1673.48
395.46	1671.14
395.65	1769.44
395.84	1710.93
396.04	1776.47
396.23	1820.94
396.42	1732.00
396.62	1767.10
396.81	1769.44
397.00	1820.94
397.19	1809.23
397.39	1867.75
397.58	1755.40
397.77	1703.91
397.97	1900.52
398.16	1799.87
398.35	1853.70
398.55	1858.39
398.74	1891.15
398.93	1893.49
399.12	1933.28
399.32	1851.36
399.51	1916.90
399.70	2038.61
399.90	1966.05
400.09	2005.84
400.28	2069.03
400.47	2122.87
400.67	2183.72
400.86	2052.65
401.05	2106.48
401.24	2047.97
401.44	2160.31
401.63	2225.85
401.82	2146.27
402.01	2111.16
402.21	2108.82
402.40	2076.06
402.59	2209.47
402.78	2223.51
402.97	2246.91
403.17	2207.13
403.36	2174.36
403.55	2272.66
403.74	2284.36
403.93	2473.95
404.13	2422.45
404.32	2389.69
404.51	2338.20
404.70	2457.56
404.89	2382.67
405.09	2539.48
405.28	2469.27
405.47	2434.16
405.66	2520.76
405.85	2478.63
406.05	2712.68
406.24	2555.86
406.43	2462.24
406.62	2602.68
406.81	2761.83
407.00	2684.59
407.20	2485.65
407.39	2757.15
407.58	2766.51
407.77	2729.06
407.96	2820.35
408.15	2949.08
408.34	2764.17
408.54	2846.09
408.73	2993.55
408.92	2766.51
409.11	2991.20
409.30	2967.80
409.49	2799.28
409.68	2986.52
409.87	3028.65
410.07	3112.91
410.26	3059.08
410.45	3021.63
410.64	3080.14
410.83	3075.46
411.02	2942.05
411.21	3138.66
411.40	3091.85
411.59	3239.30
411.78	3213.56
411.98	3309.52
412.17	3288.45
412.36	3318.88
412.55	3391.44
412.74	3410.16
412.93	3272.07
413.12	3372.71
413.31	3655.92
413.50	3461.65
413.69	3496.76
413.88	3611.45
414.07	3515.48
414.26	3707.41
414.45	3686.34
414.64	3534.21
414.83	3735.50
415.02	3698.05
415.22	3857.20
415.41	3939.12
415.60	3892.31
415.79	3882.95
415.98	3957.85
416.17	3908.69
416.36	3995.29
416.55	3981.25
416.74	4105.30
416.93	4121.68
417.12	4210.62
417.31	4039.76
417.50	4236.37
417.69	4437.66
417.88	4339.35
418.07	4414.25
418.26	4318.29
418.45	4339.35
418.64	4428.29
418.83	4463.40
419.02	4369.78
419.21	4503.19
419.39	4489.15
419.58	4447.02
419.77	4524.26
419.96	4685.75
420.15	4645.96
420.34	4697.46
420.53	4671.71
420.72	4755.97
420.91	4662.35
421.10	4699.80
421.29	4734.90
421.48	4594.47
421.67	4959.60
421.86	4683.41
422.05	4865.97
422.24	4865.97
422.43	4894.06
422.61	4835.55
422.80	5041.51
422.99	4975.98
423.18	4947.89
423.37	5085.98
423.56	4978.32
423.75	4999.38
423.94	4887.04
424.13	4739.58
424.32	4805.12
424.50	4830.87
424.69	5172.58
424.88	5055.56
425.07	4990.02
425.26	4975.98
425.45	5078.96
425.64	5088.32
425.83	5081.30
426.01	5179.61
426.20	5064.92
426.39	5118.75
426.58	5139.82
426.77	5076.62
426.96	5240.46
427.15	5207.69
427.33	5235.78
427.52	5320.04
427.71	5331.74
427.90	5275.57
428.09	5329.40
428.28	5474.51
428.46	5523.66
428.65	5324.72
428.84	5551.75
429.03	5526.00
429.22	5341.10
429.40	5380.89
429.59	5640.69
429.78	5404.30
429.97	5387.91
430.16	5617.29
430.34	5748.36
430.53	5636.01
430.72	5631.33
430.91	5593.88
431.10	5533.03
431.28	5696.86
431.47	5724.95
431.66	6040.92
431.85	5837.30
432.03	5956.66
432.22	6146.25
432.41	5753.04
432.60	6069.01
432.79	5916.87
432.97	6083.05
433.16	6097.10
433.35	5879.43
433.54	6071.35
433.72	6253.91
433.91	6076.03
434.10	6338.17
434.28	6282.00
434.47	6122.84
434.66	6305.40
434.85	6349.87
435.03	6408.39
435.22	6328.81
435.41	6518.39
435.59	6647.12
435.78	6427.11
435.97	6431.79
436.16	6335.83
436.34	6567.54
436.53	6707.98
436.72	6686.91
436.90	6502.01
437.09	6691.59
437.28	6523.07
437.46	6656.48
437.65	6691.59
437.84	6792.23
438.02	6722.02
438.21	6841.39
438.40	6637.76
438.58	6874.15
438.77	7056.72
438.96	7030.97
439.14	7211.19
439.33	7166.72
439.52	7321.20
439.70	7150.34
439.89	7407.80
440.08	7377.37
440.26	7433.54
440.45	7466.31
440.63	7583.34
440.82	7782.28
441.01	7606.74
441.19	7412.48
441.38	7590.36
441.57	7702.70
441.75	7763.56
441.94	8051.44
442.12	8145.06
442.31	8205.92
442.50	8077.19
442.68	8095.91
442.87	8109.96
443.05	8166.13
443.24	8379.12
443.43	8243.37
443.61	8353.37
443.80	8423.59
443.98	8243.37
444.17	7796.32
444.35	8170.81
444.54	8559.34
444.73	8528.91
444.91	8519.55
445.10	8402.52
445.28	8425.93
445.47	8353.37
445.65	8428.27
445.84	8533.59
446.02	8503.17
446.21	8418.91
446.39	8339.33
446.58	8636.58
446.77	8435.29
446.95	8285.50
447.14	8439.97
447.32	8655.30
447.51	8535.93
447.69	8360.39
447.88	8648.28
448.06	8592.11
448.25	8468.06
448.43	8777.01
448.62	8727.86
448.80	8456.36
448.99	8659.98
449.17	8922.12
449.36	8624.87
449.54	9057.87
449.73	8926.80
449.91	9102.34
450.10	8994.68
450.28	9118.73
450.46	9064.89
450.65	8833.18
450.83	9139.79
451.02	8966.59
451.20	9107.02
451.39	9149.15
451.57	9067.24
451.76	9153.84
451.94	9195.96
452.13	9535.34
452.31	9352.78
452.49	9221.71
452.68	9439.38
452.86	9476.83
453.05	9390.23
453.23	9472.15
453.42	9476.83
453.60	9387.89
453.78	9682.80
453.97	9647.69
454.15	9577.47
454.34	9582.15
454.52	9858.34
454.70	9865.36
454.89	9841.95
455.07	9755.35
455.26	9813.87
455.44	10022.17
455.62	9916.85
455.81	9956.64
455.99	10143.88
456.17	10115.80
456.36	10183.67
456.54	10366.23
456.73	10525.39
456.91	10501.98
457.09	10401.34
457.28	10619.01
457.46	10485.60
457.64	10532.41
457.83	10604.97
458.01	10567.52
458.19	10682.20
458.38	10684.55
458.56	10803.91
458.74	10878.81
458.93	10801.57
459.11	10750.08
459.29	10661.14
459.48	10759.44
459.66	10892.85
459.84	10778.17
460.03	11281.38
460.21	10993.50
460.39	11089.46
460.57	11162.01
460.76	10993.50
460.94	11234.57
461.12	10892.85
461.31	11215.85
461.49	10993.50
461.67	10974.77
461.85	11527.14
462.04	11283.72
462.22	11651.19
462.40	11681.61
462.59	11548.20
462.77	11585.65
462.95	11985.88
463.13	11660.55
463.32	11831.41
463.50	11908.65
463.68	11747.15
463.86	12042.06
464.05	11634.80
464.23	11857.15
464.41	11850.13
464.59	11623.10
464.78	12236.32
464.96	11997.59
465.14	11967.16
465.32	12313.56
465.50	12135.68
465.69	12161.42
465.87	12372.07
466.05	12142.70
466.23	12269.09
466.41	12273.77
466.60	12526.55
466.78	12255.04
466.96	12329.94
467.14	12472.71
467.32	12444.63
467.51	12746.56
467.69	12215.26
467.87	12512.50
468.05	12746.56
468.23	12372.07
468.41	12439.95
468.60	12762.94
468.78	12655.28
468.96	12573.36
469.14	12870.61
469.32	12992.31
469.50	12699.75
469.69	13160.83
469.87	13111.68
470.05	13359.78
470.23	13270.84
470.41	13268.50
470.59	13341.05
470.77	13392.55
470.95	13511.91
471.14	13926.19
471.32	13385.52
471.50	13514.25
471.68	13614.90
471.86	13795.12
472.04	13647.66
472.22	14183.65
472.40	13797.46
472.58	14164.92
472.77	14108.75
472.95	14024.49
473.13	14602.60
473.31	14068.96
473.49	14174.28
473.67	14305.35
473.85	14237.48
474.03	14661.12
474.21	14780.48
474.39	15037.94
474.57	14813.25
474.75	14885.81
474.93	15124.54
475.12	15279.02
475.30	15218.16
475.48	15145.61
475.66	15206.46
475.84	15176.03
476.02	15604.35
476.20	15557.54
476.38	15852.45
476.56	16315.87
476.74	16121.61
476.92	16210.55
477.10	15983.52
477.28	16318.22
477.46	16315.87
477.64	16070.12
477.82	16985.27
478.00	16929.09
478.18	17069.53
478.36	17312.94
478.54	17479.12
478.72	17298.90
478.90	17570.40
479.08	17661.68
479.26	17860.63
479.44	17696.79
479.62	17933.18
479.80	18169.58
479.98	18263.20
480.16	18834.29
480.34	18471.51
480.52	18640.03
480.70	18937.27
480.88	18487.89
481.06	18782.80
481.24	19005.15
481.41	19094.09
481.59	19571.56
481.77	19819.66
481.95	19487.30
482.13	19639.44
482.31	19939.02
482.49	20240.95
482.67	20233.93
482.85	20821.41
483.03	20858.85
483.21	20704.38
483.39	20924.39
483.57	20992.26
483.74	21179.51
483.92	21570.38
484.10	21130.36
484.28	21944.86
484.46	22024.44
484.64	22827.24
484.82	22068.91
485.00	22682.13
485.18	22829.59
485.35	23250.88
485.53	23206.41
485.71	23157.26
485.89	23623.03
486.07	23524.72
486.25	23716.65
486.43	23936.66
486.61	24072.41
486.78	24154.33
486.96	24554.56
487.14	25160.76
487.32	24741.80
487.50	25163.10
487.68	25090.54
487.85	25722.49
488.03	25673.34
488.21	25579.71
488.39	25989.31
488.57	26146.12
488.75	26651.68
488.92	26637.64
489.10	26911.48
489.28	26974.67
489.46	27159.58
489.64	27098.72
489.81	27782.16
489.99	27861.74
490.17	28175.37
490.35	28608.37
490.53	28219.84
490.70	28786.25
490.88	28811.99
491.06	28884.55
491.24	28870.51
491.41	29462.66
491.59	29448.62
491.77	29355.00
491.95	29879.28
492.13	29968.22
492.30	29954.18
492.48	29876.94
492.66	30391.86
492.84	30265.47
493.01	30869.33
493.19	30712.51
493.37	31314.03
493.54	31051.89
493.72	31915.54
493.90	31674.47
494.08	32086.40
494.25	32226.84
494.43	31798.52
494.61	32699.62
494.79	32606.00
494.96	32973.47
495.14	32910.27
495.32	33200.50
495.49	33371.36
495.67	33158.37
495.85	33965.85
496.02	34356.72
496.20	34225.65
496.38	34150.76
496.55	34424.60
496.73	35098.67
496.91	34555.67
497.09	34993.35
497.26	35454.44
497.44	35098.67
497.62	35704.87
497.79	35847.64
497.97	35665.08
498.14	36081.70
498.32	36327.45
498.50	36879.82
498.67	36655.13
498.85	36662.15
499.03	37003.87
499.20	36863.44
499.38	37273.03
499.56	36856.42
499.73	37631.13
499.91	37258.99
500.08	38162.43
500.26	37368.99
500.44	38443.30
500.61	38356.70
500.79	37785.61
500.97	38534.58
501.14	38735.87
501.32	38857.57
501.49	39119.71
501.67	38473.73
501.84	39622.93
502.02	39267.17
502.20	39548.03
502.37	39559.73
502.55	39679.10
502.72	40060.61
502.90	39859.32
503.07	40109.76
503.25	39941.24
503.43	39611.23
503.60	40790.86
503.78	40643.40
503.95	40634.04
504.13	40968.74
504.30	41048.32
504.48	40624.68
504.65	41207.47
504.83	41249.60
505.01	41727.07
505.18	41387.69
505.36	41876.86
505.53	41642.81
505.71	41757.50
505.88	42237.31
506.06	41741.11
506.23	42508.81
506.41	41851.12
506.58	42370.72
506.76	42799.04
506.93	42794.36
507.11	42632.86
507.28	43068.20
507.46	42859.89
507.63	43318.64
507.81	43522.26
507.98	43276.51
508.16	43203.95
508.33	43498.86
508.50	44201.02
508.68	43707.16
508.85	44444.43
509.03	43973.98
509.20	44556.78
509.38	44631.68
509.55	44353.15
509.73	45207.45
509.90	44928.92
510.08	45162.98
510.25	45366.60
510.42	45120.85
510.60	45322.13
510.77	45382.99
510.95	45947.06
511.12	45078.72
511.30	45481.29
511.47	46059.40
511.64	45855.78
511.82	46068.76
511.99	45986.85
512.17	46478.36
512.34	46176.43
512.51	46300.48
512.69	46710.07
512.86	46419.84
513.04	46855.18
513.21	46948.81
513.38	46850.50
513.56	47014.34
513.73	46742.84
513.90	47091.58
514.08	47065.83
514.25	47430.96
514.43	47702.46
514.60	47629.90
514.77	47889.70
514.95	48182.27
515.12	47887.36
515.29	47852.25
515.47	48516.96
515.64	48350.79
515.81	48240.78
515.99	48619.95
516.16	48985.07
516.33	48671.44
516.51	49127.84
516.68	48973.37
516.85	48692.50
517.03	49371.26
517.20	49303.38
517.37	48949.96
517.54	49308.07
517.72	49523.40
517.89	49141.89
518.06	49874.48
518.24	49617.02
518.41	49551.48
518.58	49752.77
518.75	49343.17
518.93	49703.62
519.10	49797.24
519.27	50005.55
519.45	49928.31
519.62	49923.63
519.79	50370.67
519.96	50354.29
520.14	50295.77
520.31	50426.84
520.48	50536.85
520.65	50419.82
520.83	50890.27
521.00	50986.23
521.17	50548.55
521.34	50719.41
521.52	51147.73
521.69	51208.58
521.86	51213.26
522.03	51622.86
522.20	51849.89
522.38	51356.03
522.55	51657.96
522.72	51571.36
522.89	51765.63
523.07	51728.18
523.24	51885.00
523.41	51969.26
523.58	51632.22
523.75	52238.42
523.92	51964.57
524.10	51948.19
524.27	52229.05
524.44	52498.22
524.61	52252.46
524.78	52093.30
524.96	52465.45
525.13	52575.45
525.30	52725.25
525.47	52870.36
525.64	52577.79
525.81	53031.86
525.98	53022.50
526.16	52662.05
526.33	53006.11
526.50	53146.54
526.67	53081.01
526.84	53235.48
527.01	53368.90
527.18	53221.44
527.36	53219.10
527.53	53439.11
527.70	53422.73
527.87	53530.39
528.04	53382.94
528.21	53450.81
528.38	53244.85
528.55	53963.39
528.72	53521.03
528.89	53605.29
529.07	53748.06
529.24	53841.68
529.41	53998.50
529.58	53790.19
529.75	53930.62
529.92	54007.86
530.09	54031.27
530.26	54192.76
530.43	54103.82
530.60	53942.33
530.77	54078.08
530.94	54630.44
531.11	54150.63
531.28	54300.43
531.46	54293.41
531.63	54506.40
531.80	54363.62
531.97	54611.72
532.14	54681.94
532.31	54660.87
532.48	54532.14
532.65	55000.25
532.82	54651.51
532.99	54789.60
533.16	54901.95
533.33	55231.96
533.50	54756.83
533.67	54955.78
533.84	54794.28
534.01	54883.22
534.18	55180.47
534.35	55414.52
534.52	55468.36
534.69	55538.57
534.86	55491.76
535.03	55199.19
535.20	55370.05
535.37	55770.28
535.54	55599.43
535.71	55583.04
535.88	55590.06
536.05	55875.61
536.22	55877.95
536.38	55936.46
536.55	55758.58
536.72	55702.41
536.89	55564.32
537.06	55770.28
537.23	55786.67
537.40	55852.20
537.57	55952.85
537.74	56046.47
537.91	56154.13
538.08	56168.18
538.25	55868.59
538.42	55952.85
538.59	56413.93
538.75	56095.62
538.92	56254.78
539.09	56299.25
539.26	55931.78
539.43	56427.98
539.60	56444.36
539.77	56521.60
539.94	56678.41
540.11	56486.49
540.28	56601.18
540.44	56694.80
540.61	56573.09
540.78	56694.80
540.95	56704.16
541.12	56659.69
541.29	56720.54
541.46	56615.22
541.62	56671.39
541.79	56746.29
541.96	56332.01
542.13	56860.97
542.30	56875.02
542.47	57167.58
542.63	56999.07
542.80	57132.48
542.97	57406.32
543.14	57228.44
543.31	57165.24
543.48	57516.32
543.64	57392.28
543.81	57530.37
543.98	57537.39
544.15	57542.07
544.32	57666.12
544.48	57621.65
544.65	57530.37
544.82	57780.81
544.99	57457.81
545.16	57745.70
545.32	57771.44
545.49	57794.85
545.66	57958.69
545.83	57752.72
546.00	58075.71
546.16	57902.51
546.33	57836.98
546.50	57785.49
546.67	58117.84
546.83	57937.62
547.00	57989.11
547.17	58094.44
547.34	57925.92
547.50	58059.33
547.67	58255.93
547.84	58131.89
548.00	58319.13
548.17	58358.92
548.34	58480.63
548.51	58255.93
548.67	58410.41
548.84	58274.66
549.01	58279.34
549.18	58356.58
549.34	58300.40
549.51	58511.05
549.68	58670.21
549.84	58461.90
550.01	58677.23
550.18	58506.37
550.34	58712.34
550.51	58557.86
550.68	58717.02
550.84	58571.91
551.01	58756.81
551.18	58820.00
551.34	58702.98
551.51	58798.94
551.68	58761.49
551.84	58693.61
552.01	58686.59
552.18	58843.41
552.34	58822.34
552.51	58857.45
552.68	58890.22
552.84	58773.19
553.01	59035.33
553.18	59042.35
553.34	59086.82
553.51	58969.80
553.67	59157.04
553.84	59089.16
554.01	59217.89
554.17	59299.81
554.34	59236.62
554.51	59150.02
554.67	59255.34
554.84	59077.46
555.00	59084.48
555.17	59047.04
555.33	59297.47
555.50	59128.95
555.67	59068.10
555.83	59152.36
556.00	59470.67
556.16	59442.59
556.33	59327.90
556.50	59360.67
556.66	59543.23
556.83	59292.79
556.99	59561.95
557.16	59578.34
557.32	59686.00
557.49	59641.53
557.65	59475.35
557.82	59414.50
557.98	59531.53
558.15	59573.66
558.32	59700.04
558.48	59508.12
558.65	59634.51
558.81	59702.38
558.98	59945.80
559.14	60016.02
559.31	59810.05
559.47	59994.95
559.64	59887.29
559.80	59831.11
559.97	59756.22
560.13	59700.04
560.30	59770.26
560.46	59866.22
560.63	59999.63
560.79	59922.40
560.96	60196.24
561.12	60030.06
561.29	59831.11
561.45	59929.42
561.61	60025.38
561.78	59962.18
561.94	60065.17
562.11	59997.29
562.27	60053.47
562.44	60259.43
562.60	60261.77
562.77	60346.03
562.93	59906.01
563.10	60334.33
563.26	59971.55
563.42	60257.09
563.59	60179.85
563.75	60013.68
563.92	60128.36
564.08	60090.91
564.24	60317.95
564.41	60205.60
564.57	60348.37
564.74	60207.94
564.90	60264.11
565.07	60343.69
565.23	60189.22
565.39	60362.42
565.56	60378.80
565.72	60135.38
565.88	60294.54
566.05	60336.67
566.21	60341.35
566.38	60582.43
566.54	60601.15
566.70	60626.90
566.87	60514.55
567.03	60336.67
567.19	60624.56
567.36	60512.21
567.52	60544.98
567.68	60685.41
567.85	60629.24
568.01	60746.26
568.17	60465.40
568.34	60636.26
568.50	60467.74
568.66	60317.95
568.83	60666.69
568.99	60357.74
569.15	60530.93
569.32	60533.28
569.48	60528.59
569.64	60596.47
569.81	60591.79
569.97	60474.76
570.13	60664.35
570.30	60619.88
570.46	60818.82
570.62	60704.13
570.78	60779.03
570.95	60769.67
571.11	60832.86
571.27	60638.60
571.43	60591.79
571.60	61078.62
571.76	60760.31
571.92	60987.34
572.09	60849.25
572.25	60900.74
572.41	60743.92
572.57	60760.31
572.74	60874.99
572.90	60781.37
573.06	60900.74
573.22	60633.92
573.38	60788.39
573.55	60498.17
573.71	60912.44
573.87	60942.87
574.03	60748.60
574.20	60865.63
574.36	60804.78
574.52	61092.66
574.68	60942.87
574.84	61073.94
575.01	60849.25
575.17	60790.73
575.33	60966.27
575.49	60764.99
575.65	60949.89
575.82	60966.27
575.98	60989.68
576.14	61162.88
576.30	61172.24
576.46	60818.82
576.62	60774.35
576.79	60839.89
576.95	60662.00
577.11	61029.47
577.27	61130.11
577.43	61080.96
577.59	60858.61
577.75	60900.74
577.92	60814.14
578.08	61066.92
578.24	60985.00
578.40	61155.86
578.56	61076.28
578.72	60886.70
578.88	61226.07
579.04	61226.07
579.21	60956.91
579.37	61104.37
579.53	61069.26
579.69	61013.08
579.85	60877.33
580.01	61048.19
580.17	60884.36
580.33	61179.26
580.49	61307.99
580.65	61029.47
580.82	60720.52
580.98	60769.67
581.14	61020.11
581.30	61132.45
581.46	61085.64
581.62	61148.84
581.78	61111.39
581.94	61130.11
582.10	60975.64
582.26	61099.68
582.42	61006.06
582.58	61085.64
582.74	61034.15
582.90	61059.90
583.06	61120.75
583.22	60999.04
583.38	61080.96
583.54	61095.00
583.70	61015.43
583.86	60992.02
584.02	61106.71
584.18	61284.59
584.34	61127.77
584.50	61357.14
584.66	61158.20
584.82	60940.53
584.98	61315.01
585.14	61109.05
585.30	61242.46
585.46	61167.56
585.62	61279.91
585.78	61303.31
585.94	60900.74
586.10	61205.01
586.26	61207.35
586.42	61048.19
586.58	61057.56
586.74	61106.71
586.90	61261.18
587.06	61092.66
587.22	61380.55
587.38	61261.18
587.54	61499.92
587.70	61460.13
587.86	61190.97
588.02	61160.54
588.18	61420.34
588.34	61020.11
588.49	61338.42
