SpectraSuite Data File
++++++++++++++++++++++++++++++++++++
Date: Fri Oct 25 10:43:42 EDT 2013
User: price-jones
Dark Spectrum Present: No
Reference Spectrum Present: No
Number of Sampled Component Spectra: 1
Spectrometers: USB2+H05261
Integration Time (usec): 100000 (USB2+H05261)
Spectra Averaged: 1 (USB2+H05261)
Boxcar Smoothing: 0 (USB2+H05261)
Correct for Electrical Dark: No (USB2+H05261)
Strobe/Lamp Enabled: No (USB2+H05261)
Correct for Detector Non-linearity: No (USB2+H05261)
Correct for Stray Light: No (USB2+H05261)
Number of Pixels in Processed Spectrum: 2048
>>>>>Begin Processed Spectral Data<<<<<
365.73	124.05
365.92	124.05
366.12	124.05
366.32	42.13
366.52	42.13
366.72	81.92
366.91	112.35
367.11	58.51
367.31	9.36
367.51	32.77
367.70	37.45
367.90	7.02
368.10	9.36
368.30	23.41
368.49	7.02
368.69	0.00
368.89	0.00
369.09	9.36
369.28	67.88
369.48	30.43
369.68	63.19
369.87	28.09
370.07	81.92
370.27	131.07
370.47	198.95
370.66	517.26
370.86	402.57
371.06	472.79
371.25	503.22
371.45	433.00
371.65	493.85
371.84	463.43
372.04	456.40
372.24	440.02
372.44	400.23
372.63	573.43
372.83	477.47
373.03	500.87
373.22	447.04
373.42	568.75
373.62	500.87
373.81	482.15
374.01	554.71
374.21	603.86
374.40	638.97
374.60	477.47
374.79	557.05
374.99	615.56
375.19	571.09
375.38	564.07
375.58	561.73
375.78	594.50
375.97	634.29
376.17	692.80
376.37	664.71
376.56	664.71
376.76	585.13
376.95	650.67
377.15	660.03
377.35	587.47
377.54	741.95
377.74	648.33
377.93	706.84
378.13	664.71
378.33	580.45
378.52	716.20
378.72	699.82
378.91	650.67
379.11	685.78
379.31	643.65
379.50	685.78
379.70	641.31
379.89	732.59
380.09	657.69
380.28	624.92
380.48	669.39
380.68	610.88
380.87	674.07
381.07	720.88
381.26	648.33
381.46	777.06
381.65	650.67
381.85	678.76
382.04	653.01
382.24	725.57
382.43	667.05
382.63	681.10
382.83	737.27
383.02	786.42
383.22	784.08
383.41	713.86
383.61	697.48
383.80	868.34
384.00	763.01
384.19	746.63
384.39	727.91
384.58	753.65
384.78	863.66
384.97	802.80
385.17	763.01
385.36	798.12
385.56	800.46
385.75	821.53
385.95	849.61
386.14	894.08
386.34	856.64
386.53	819.19
386.72	777.06
386.92	828.55
387.11	823.87
387.31	905.79
387.50	805.14
387.70	891.74
387.89	812.17
388.09	905.79
388.28	844.93
388.48	971.32
388.67	985.37
388.86	959.62
389.06	961.96
389.25	880.04
389.45	999.41
389.64	987.71
389.84	990.05
390.03	1020.47
390.22	1041.54
390.42	954.94
390.61	985.37
390.81	1053.24
391.00	1114.10
391.19	1186.65
391.39	1046.22
391.58	1146.86
391.78	1043.88
391.97	1043.88
392.16	1027.50
392.36	1095.37
392.55	1034.52
392.75	1095.37
392.94	957.28
393.13	994.73
393.33	891.74
393.52	1071.97
393.71	1060.26
393.91	1088.35
394.10	1125.80
394.29	1172.61
394.49	1261.55
394.68	1191.33
394.88	1282.61
395.07	1259.21
395.26	1280.27
395.46	1196.01
395.65	1331.76
395.84	1259.21
396.04	1275.59
396.23	1231.12
396.42	1210.06
396.62	1228.78
396.81	1219.42
397.00	1287.29
397.19	1320.06
397.39	1411.34
397.58	1313.04
397.77	1350.49
397.97	1416.02
398.16	1488.58
398.35	1448.79
398.55	1509.65
398.74	1511.99
398.93	1556.46
399.12	1514.33
399.32	1502.62
399.51	1605.61
399.70	1619.65
399.90	1593.90
400.09	1591.56
400.28	1607.95
400.47	1652.42
400.67	1540.07
400.86	1600.93
401.05	1659.44
401.24	1778.81
401.44	1626.67
401.63	1736.68
401.82	1706.25
402.01	1682.85
402.21	1689.87
402.40	1732.00
402.59	1764.76
402.78	1811.57
402.97	1720.29
403.17	1764.76
403.36	1795.19
403.55	1830.30
403.74	1923.92
403.93	1797.53
404.13	1961.37
404.32	1900.52
404.51	1902.86
404.70	1900.52
404.89	1839.66
405.09	1926.26
405.28	1982.43
405.47	1998.82
405.66	1940.30
405.85	1874.77
406.05	2047.97
406.24	2073.71
406.43	1970.73
406.62	2087.76
406.81	2101.80
407.00	2073.71
407.20	2141.59
407.39	2174.36
407.58	2150.95
407.77	2090.10
407.96	2132.23
408.15	2172.02
408.34	2326.49
408.54	2193.08
408.73	2242.23
408.92	2321.81
409.11	2464.58
409.30	2263.30
409.49	2284.36
409.68	2349.90
409.87	2289.04
410.07	2345.22
410.26	2492.67
410.45	2403.73
410.64	2307.77
410.83	2495.01
411.02	2506.71
411.21	2579.27
411.40	2583.95
411.59	2576.93
411.78	2560.55
411.98	2656.51
412.17	2710.34
412.36	2757.15
412.55	2708.00
412.74	2759.49
412.93	2843.75
413.12	2855.45
413.31	2832.05
413.50	2768.85
413.69	2843.75
413.88	2928.01
414.07	3019.29
414.26	2979.50
414.45	2981.84
414.64	3073.12
414.83	3033.33
415.02	3087.17
415.22	3122.27
415.41	3241.64
415.60	3124.62
415.79	3222.92
415.98	3302.50
416.17	3248.66
416.36	3281.43
416.55	3344.63
416.74	3208.87
416.93	3201.85
417.12	3274.41
417.31	3353.99
417.50	3389.10
417.69	3496.76
417.88	3407.82
418.07	3431.23
418.26	3435.91
418.45	3520.17
418.64	3707.41
418.83	3646.55
419.02	3527.19
419.21	3576.34
419.39	3503.78
419.58	3611.45
419.77	3569.32
419.96	3588.04
420.15	3721.45
420.34	3716.77
420.53	3798.69
420.72	3726.13
420.91	3875.93
421.10	3852.52
421.29	3904.01
421.48	3763.58
421.67	4072.53
421.86	3833.80
422.05	3812.73
422.24	3833.80
422.43	3822.09
422.61	3824.44
422.80	3953.16
422.99	3957.85
423.18	3812.73
423.37	3995.29
423.56	3932.10
423.75	3906.35
423.94	3791.67
424.13	3721.45
424.32	3920.40
424.50	3878.27
424.69	4016.36
424.88	4093.60
425.07	4011.68
425.26	4044.45
425.45	3957.85
425.64	3911.04
425.83	3873.59
426.01	4100.62
426.20	3962.53
426.39	4077.21
426.58	4018.70
426.77	3985.93
426.96	3964.87
427.15	3915.72
427.33	4070.19
427.52	4042.11
427.71	4231.69
427.90	4266.80
428.09	4032.74
428.28	4060.83
428.46	4402.55
428.65	4044.45
428.84	4301.90
429.03	4397.87
429.22	4056.15
429.40	4315.95
429.59	4243.39
429.78	4081.89
429.97	3974.23
430.16	4072.53
430.34	4184.88
430.53	4121.68
430.72	4173.18
430.91	4241.05
431.10	4432.97
431.28	4472.76
431.47	4624.90
431.66	4662.35
431.85	4503.19
432.03	4704.48
432.22	4683.41
432.41	4784.06
432.60	4681.07
432.79	4812.14
432.97	4861.29
433.16	4704.48
433.35	4765.33
433.54	4819.16
433.72	4725.54
433.91	4695.11
434.10	4762.99
434.28	4765.33
434.47	4961.94
434.66	4875.34
434.85	4847.25
435.03	5067.26
435.22	5064.92
435.41	5125.77
435.59	5294.29
435.78	5219.39
435.97	5167.90
436.16	5177.26
436.34	5139.82
436.53	5289.61
436.72	5341.10
436.90	5048.54
437.09	5348.12
437.28	5104.71
437.46	5205.35
437.65	5205.35
437.84	5289.61
438.02	5228.76
438.21	5135.14
438.40	5240.46
438.58	5425.36
438.77	5355.15
438.96	5242.80
439.14	5678.14
439.33	5591.54
439.52	5650.05
439.70	5563.45
439.89	5827.93
440.08	5619.63
440.26	5760.06
440.45	5659.42
440.63	5799.85
440.82	6106.46
441.01	5942.62
441.19	5998.79
441.38	6155.61
441.57	6176.67
441.75	6239.87
441.94	6366.26
442.12	6382.64
442.31	6466.90
442.50	6338.17
442.68	6230.51
442.87	6342.85
443.05	6480.94
443.24	6649.46
443.43	6480.94
443.61	6473.92
443.80	6567.54
443.98	6366.26
444.17	6321.79
444.35	6558.18
444.54	6696.27
444.73	6731.38
444.91	6487.96
445.10	6637.76
445.28	6539.46
445.47	6490.31
445.65	6609.67
445.84	6551.16
446.02	6731.38
446.21	6567.54
446.39	6628.40
446.58	6733.72
446.77	6796.92
446.95	6562.86
447.14	6677.55
447.32	6658.82
447.51	6862.45
447.69	6752.45
447.88	6670.53
448.06	6827.34
448.25	6806.28
448.43	6700.95
448.62	6848.41
448.80	6672.87
448.99	6754.79
449.17	6860.11
449.36	6892.88
449.54	7021.61
449.73	7304.81
449.91	7206.51
450.10	7194.81
450.28	7311.83
450.46	7122.25
450.65	7398.43
450.83	7314.17
451.02	7403.11
451.20	7356.30
451.39	7328.22
451.57	7243.96
451.76	7243.96
451.94	7199.49
452.13	7227.57
452.31	7269.70
452.49	7117.57
452.68	7265.02
452.86	7248.64
453.05	7159.70
453.23	7672.28
453.42	7236.94
453.60	7487.37
453.78	7660.57
453.97	7447.58
454.15	7588.02
454.34	7400.77
454.52	7609.08
454.70	7524.82
454.89	7499.08
455.07	7646.53
455.26	7705.04
455.44	7723.77
455.62	7819.73
455.81	7805.69
455.99	7918.03
456.17	8006.97
456.36	7953.14
456.54	8074.85
456.73	7939.10
456.91	8037.40
457.09	8236.35
457.28	8397.84
457.46	8133.36
457.64	8149.75
457.83	8248.05
458.01	8184.85
458.19	8437.63
458.38	8084.21
458.56	8493.80
458.74	8315.92
458.93	8290.18
459.11	8416.57
459.29	8243.37
459.48	8439.97
459.66	8425.93
459.84	8336.99
460.03	8615.51
460.21	8505.51
460.39	8589.77
460.57	8606.15
460.76	8592.11
460.94	8788.71
461.12	8720.84
461.31	8643.60
461.49	8786.37
461.67	8641.26
461.85	8737.22
462.04	8929.14
462.22	9266.18
462.40	8938.51
462.59	8992.34
462.77	9018.08
462.95	8828.50
463.13	9083.62
463.32	9032.13
463.50	8884.67
463.68	9153.84
463.86	9193.62
464.05	8980.64
464.23	8975.95
464.41	9231.07
464.59	8919.78
464.78	9362.14
464.96	9165.54
465.14	9046.17
465.32	9022.77
465.50	9455.76
465.69	9334.06
465.87	9275.54
466.05	9392.57
466.23	9139.79
466.41	9214.69
466.60	9401.93
466.78	9174.90
466.96	9221.71
467.14	9432.36
467.32	9514.28
467.51	9565.77
467.69	9188.94
467.87	9706.20
468.05	9570.45
468.23	9460.45
468.41	9570.45
468.60	9535.34
468.78	9671.09
468.96	9540.02
469.14	9731.95
469.32	9685.14
469.50	9528.32
469.69	9692.16
469.87	9872.38
470.05	9902.81
470.23	9563.43
470.41	9603.22
470.59	9867.70
470.77	10036.22
470.95	10022.17
471.14	10225.80
471.32	9973.02
471.50	10494.96
471.68	10399.00
471.86	10253.89
472.04	10597.95
472.22	10668.16
472.40	10328.78
472.58	10483.26
472.77	10602.63
472.95	10558.16
473.13	11243.93
473.31	10663.48
473.49	10668.16
473.67	10927.96
473.85	10923.28
474.03	10918.60
474.21	10949.03
474.39	10988.82
474.57	11059.03
474.75	11187.76
474.93	11180.74
475.12	11225.21
475.30	11288.40
475.48	11293.08
475.66	11262.66
475.84	11365.64
476.02	11517.78
476.20	11307.13
476.38	11585.65
476.56	11936.73
476.74	11786.94
476.92	11784.60
477.10	11988.22
477.28	11927.37
477.46	12369.73
477.64	12311.22
477.82	12336.96
478.00	12704.43
478.18	12241.00
478.36	12676.34
478.54	12802.73
478.72	12666.98
478.90	12870.61
479.08	13011.04
479.26	13252.11
479.44	13188.92
479.62	13404.25
479.80	13324.67
479.98	13547.02
480.16	13858.31
480.34	13809.16
480.52	13886.40
480.70	13743.63
480.88	13542.34
481.06	13872.36
481.24	14218.75
481.41	14506.64
481.59	14831.97
481.77	14349.82
481.95	14441.11
482.13	14714.95
482.31	14616.65
482.49	15161.99
482.67	15159.65
482.85	15007.52
483.03	15246.25
483.21	15384.34
483.39	15337.53
483.57	15382.00
483.74	15419.45
483.92	15709.68
484.10	15571.58
484.28	16126.29
484.46	16315.87
484.64	16573.33
484.82	16327.58
485.00	16294.81
485.18	16559.29
485.35	16505.46
485.53	16535.88
485.71	16198.85
485.89	16568.65
486.07	16606.10
486.25	16512.48
486.43	16905.69
486.61	17261.45
486.78	17343.37
486.96	17579.76
487.14	17774.03
487.32	17853.61
487.50	18150.85
487.68	18443.42
487.85	18396.61
488.03	18417.68
488.21	18541.72
488.39	18909.19
488.57	18721.95
488.75	18785.14
488.92	19442.83
489.10	19314.10
489.28	19527.09
489.46	19590.28
489.64	19751.78
489.81	20240.95
489.99	20013.92
490.17	20217.55
490.35	20496.07
490.53	20472.67
490.70	20505.43
490.88	20528.84
491.06	21010.99
491.24	21186.53
491.41	20702.04
491.59	20755.87
491.77	20505.43
491.95	21376.11
492.13	21383.13
492.30	21694.43
492.48	21935.50
492.66	21858.26
492.84	21970.61
493.01	22265.52
493.19	22368.50
493.37	22560.42
493.54	22675.11
493.72	22541.70
493.90	22424.67
494.08	23077.68
494.25	23260.24
494.43	23559.83
494.61	23721.33
494.79	23765.80
494.96	23398.34
495.14	23695.58
495.32	23885.17
495.49	23847.72
495.67	23779.84
495.85	24503.07
496.02	24404.77
496.20	24479.66
496.38	24580.31
496.55	24840.11
496.73	25345.66
496.91	24882.24
497.09	24655.20
497.26	25465.03
497.44	24884.58
497.62	25179.48
497.79	25598.44
497.97	25273.10
498.14	25633.55
498.32	25722.49
498.50	25678.02
498.67	26059.52
498.85	26553.38
499.03	26609.55
499.20	26326.35
499.38	26579.12
499.56	26567.42
499.73	26731.26
499.91	26845.94
500.08	27009.78
500.26	26476.14
500.44	26670.40
500.61	27285.97
500.79	26967.65
500.97	27367.88
501.14	27346.82
501.32	27431.08
501.49	27225.11
501.67	27555.13
501.84	27311.71
502.02	27676.83
502.20	27847.69
502.37	27873.44
502.55	27922.59
502.72	28018.55
502.90	28531.13
503.07	28313.46
503.25	28058.34
503.43	28414.10
503.60	28343.89
503.78	28070.04
503.95	28418.78
504.13	28545.17
504.30	28907.96
504.48	28631.77
504.65	29369.04
504.83	28912.64
505.01	29259.04
505.18	29284.78
505.36	29539.90
505.53	29708.42
505.71	29853.53
505.88	29853.53
506.06	29619.48
506.23	29816.08
506.41	29879.28
506.58	30239.72
506.76	29776.30
506.93	30483.14
507.11	30029.07
507.28	30054.82
507.46	30288.87
507.63	30408.24
507.81	30611.87
507.98	30323.98
508.16	30431.65
508.33	30806.13
508.50	31077.63
508.68	31103.38
508.85	31260.20
509.03	31133.81
509.20	31548.08
509.38	31424.03
509.55	31473.18
509.73	31826.60
509.90	31779.79
510.08	31398.29
510.25	31442.76
510.42	32079.38
510.60	32233.86
510.77	32039.59
510.95	32245.56
511.12	31950.65
511.30	32374.29
511.47	32210.45
511.64	32987.51
511.82	32907.93
511.99	32311.10
512.17	32767.50
512.34	32507.70
512.51	32744.09
512.69	32802.61
512.86	32613.02
513.04	32950.06
513.21	32994.53
513.38	32767.50
513.56	32966.45
513.73	32985.17
513.90	33022.62
514.08	33235.61
514.25	33158.37
514.43	32954.74
514.60	33413.49
514.77	33064.75
514.95	33727.12
515.12	33795.00
515.29	33624.14
515.47	34450.35
515.64	33841.81
515.81	34003.30
515.99	33720.10
516.16	34029.05
516.33	33738.82
516.51	33574.98
516.68	33338.59
516.85	33809.04
517.03	34017.35
517.20	33844.15
517.37	34330.98
517.54	34457.37
517.72	34588.44
517.89	34139.05
518.06	33865.21
518.24	34485.45
518.41	34490.13
518.58	34883.34
518.75	34813.13
518.93	35180.59
519.10	34852.92
519.27	35400.60
519.45	35213.36
519.62	35957.65
519.79	35548.06
519.96	35807.86
520.14	35761.05
520.31	35428.69
520.48	35611.25
520.65	35847.64
520.83	35892.12
521.00	35938.93
521.17	36493.63
521.34	36510.02
521.52	36121.49
521.69	36329.80
521.86	36510.02
522.03	36521.72
522.20	36584.91
522.38	36678.54
522.55	36786.20
522.72	36648.11
522.89	36769.82
523.07	36830.67
523.24	36322.77
523.41	37043.66
523.58	37130.26
523.75	37497.72
523.92	37500.06
524.10	37319.84
524.27	37558.58
524.44	37336.23
524.61	37359.63
524.78	37209.84
524.96	37867.53
525.13	37895.61
525.30	37909.66
525.47	38202.22
525.64	37820.72
525.81	37830.08
525.98	37724.75
526.16	37560.92
526.33	37120.90
526.50	37993.92
526.67	37483.68
526.84	37743.48
527.01	37647.52
527.18	37757.52
527.36	38611.82
527.53	38394.15
527.70	38969.92
527.87	38363.72
528.04	38663.31
528.21	38848.21
528.38	38843.53
528.55	39168.87
528.72	39005.03
528.89	39187.59
529.07	38962.90
529.24	38885.66
529.41	39152.48
529.58	38796.72
529.75	39026.09
529.92	38841.19
530.09	39222.70
530.26	39658.04
530.43	39442.71
530.60	39304.62
530.77	39440.37
530.94	39812.51
531.11	39271.85
531.28	39438.03
531.46	39929.54
531.63	40112.10
531.80	39662.72
531.97	39826.56
532.14	39496.54
532.31	39529.31
532.48	39777.40
532.65	39597.18
532.82	39585.48
532.99	39978.69
533.16	39824.22
533.33	40175.30
533.50	40065.29
533.67	40289.98
533.84	40091.04
534.01	40378.92
534.18	40142.53
534.35	40409.35
534.52	40465.52
534.69	40601.27
534.86	40809.58
535.03	40432.75
535.20	41041.29
535.37	40807.24
535.54	41134.92
535.71	41074.06
535.88	41001.50
536.05	40875.12
536.22	41127.89
536.38	40996.82
536.55	40905.54
536.72	40914.90
536.89	41062.36
537.06	40797.88
537.23	41375.99
537.40	41170.02
537.57	41350.24
537.74	41394.71
537.91	41785.58
538.08	41820.69
538.25	41074.06
538.42	41584.30
538.59	41439.18
538.75	41303.43
538.92	41722.39
539.09	41923.68
539.26	41429.82
539.43	41635.79
539.60	41907.29
539.77	41542.17
539.94	41244.92
540.11	41560.89
540.28	41965.81
540.44	42103.90
540.61	41343.22
540.78	41708.35
540.95	41610.04
541.12	41628.77
541.29	41689.62
541.46	41722.39
541.62	42490.09
541.79	42164.75
541.96	41823.03
542.13	42061.77
542.30	41797.29
542.47	42490.09
542.63	41895.59
542.80	42106.24
542.97	42660.94
543.14	42796.70
543.31	43077.56
543.48	42581.37
543.64	42958.19
543.81	43051.81
543.98	42930.11
544.15	42667.97
544.32	43112.67
544.48	43304.59
544.65	43138.41
544.82	43358.42
544.99	42880.95
545.16	43021.39
545.32	42859.89
545.49	43634.61
545.66	44018.46
545.83	43145.44
546.00	43592.48
546.16	43283.53
546.33	42993.30
546.50	43269.48
546.67	43311.61
546.83	42834.14
547.00	43267.14
547.17	43571.41
547.34	43536.30
547.50	43772.70
547.67	43782.06
547.84	43606.52
548.00	43892.07
548.17	44172.93
548.34	44025.48
548.51	44116.76
548.67	43995.05
548.84	44147.18
549.01	44018.46
549.18	44067.61
549.34	43988.03
549.51	43988.03
549.68	44437.41
549.84	43753.97
550.01	44364.85
550.18	44140.16
550.34	43988.03
550.51	44060.58
550.68	44119.10
550.84	44074.63
551.01	44048.88
551.18	44383.58
551.34	44114.42
551.51	44516.99
551.68	44559.12
551.84	44580.18
552.01	44421.03
552.18	44292.30
552.34	43964.62
552.51	44332.09
552.68	44381.24
552.84	44491.24
553.01	44582.52
553.18	44863.39
553.34	44399.96
553.51	44236.12
553.67	44694.87
553.84	44928.92
554.01	45198.09
554.17	44830.62
554.34	44949.99
554.51	44814.24
554.67	45375.97
554.84	45319.79
555.00	44767.43
555.17	44779.13
555.33	44737.00
555.50	44982.76
555.67	45130.21
555.83	44928.92
556.00	44760.40
556.16	45434.48
556.33	45120.85
556.50	45537.46
556.66	45106.80
556.83	44690.19
556.99	45308.09
557.16	45375.97
557.32	45141.91
557.49	44947.65
557.65	45109.14
557.82	45165.32
557.98	45357.24
558.15	45624.06
558.32	45343.20
558.48	45137.23
558.65	45305.75
558.81	45333.84
558.98	44910.20
559.14	45504.70
559.31	45338.52
559.47	45343.20
559.64	45525.76
559.80	45741.09
559.97	44910.20
560.13	44959.35
560.30	45130.21
560.46	45734.07
560.63	45308.09
560.79	45497.67
560.96	46185.79
561.12	45476.61
561.29	45191.06
561.45	45516.40
561.61	45523.42
561.78	45127.87
561.94	45029.57
562.11	45415.76
562.27	45581.93
562.44	45839.39
562.60	45925.99
562.77	45720.02
562.93	45518.74
563.10	46117.92
563.26	45696.62
563.42	45956.42
563.59	45380.65
563.75	45853.44
563.92	46033.66
564.08	45942.38
564.24	46012.59
564.41	45804.28
564.57	45649.81
564.74	45937.69
564.90	45731.73
565.07	46127.28
565.23	45851.09
565.39	45638.11
565.56	45862.80
565.72	45429.80
565.88	45844.07
566.05	45944.72
566.21	46248.99
566.38	45787.90
566.54	45762.15
566.70	46129.62
566.87	46286.43
567.03	45893.22
567.19	46382.40
567.36	46164.73
567.52	45607.68
567.68	46326.22
567.85	45867.48
568.01	46061.74
568.17	45986.85
568.34	45858.12
568.50	46024.29
568.66	45830.03
568.83	45851.09
568.99	45516.40
569.15	45963.44
569.32	45731.73
569.48	45862.80
569.64	46038.34
569.81	45979.82
569.97	46005.57
570.13	45942.38
570.30	45460.23
570.46	45577.25
570.62	45940.04
570.78	45469.59
570.95	45612.36
571.11	46223.24
571.27	45687.26
571.43	45713.00
571.60	45972.80
571.76	46094.51
571.92	45881.52
572.09	45930.67
572.25	46167.07
572.41	46277.07
572.57	46361.33
572.74	46663.26
572.90	46546.23
573.06	46539.21
573.22	46440.91
573.38	46010.25
573.55	46080.47
573.71	46171.75
573.87	46543.89
574.03	46274.73
574.20	46164.73
574.36	46206.86
574.52	46251.33
574.68	46005.57
574.84	46588.36
575.01	46312.18
575.17	46134.30
575.33	46417.50
575.49	45757.47
575.65	46071.10
575.82	46234.94
575.98	46171.75
576.14	46422.19
576.30	46270.05
576.46	46529.85
576.62	46050.04
576.79	45918.97
576.95	46087.49
577.11	46340.27
577.27	46490.06
577.43	46153.02
577.59	46014.93
577.75	45673.21
577.92	45827.69
578.08	46028.98
578.24	45769.18
578.40	46082.81
578.56	46571.98
578.72	45933.01
578.88	46738.16
579.04	46539.21
579.21	46026.63
579.37	46017.27
579.53	46253.67
579.69	45954.08
579.85	46178.77
580.01	46241.96
580.17	46024.29
580.33	46178.77
580.49	46513.47
580.65	45954.08
580.82	46590.70
580.98	46052.38
581.14	45935.35
581.30	46637.51
581.46	45911.95
581.62	46436.23
581.78	46153.02
581.94	46735.82
582.10	46351.97
582.26	46337.93
582.42	46185.79
582.58	46494.74
582.74	46246.65
582.90	46108.55
583.06	46536.87
583.22	46293.46
583.38	46511.13
583.54	46260.69
583.70	46817.74
583.86	46745.18
584.02	46253.67
584.18	46410.48
584.34	46038.34
584.50	45993.87
584.66	46017.27
584.82	46511.13
584.98	46272.39
585.14	46394.10
585.30	46195.15
585.46	45935.35
585.62	46153.02
585.78	46354.31
585.94	45794.92
586.10	46356.65
586.26	45895.56
586.42	46925.40
586.58	46347.29
586.74	46344.95
586.90	46047.70
587.06	46351.97
587.22	46307.50
587.38	46698.37
587.54	46569.64
587.70	46300.48
587.86	46595.38
588.02	46375.37
588.18	46679.64
588.34	46244.30
588.49	45907.27
588.65	46033.66
588.81	46061.74
588.97	45558.53
589.13	45853.44
589.29	46019.61
589.45	45731.73
589.61	46164.73
589.77	46422.19
589.93	46096.85
590.08	46412.82
