SpectraSuite Data File
++++++++++++++++++++++++++++++++++++
Date: Fri Oct 25 11:26:30 EDT 2013
User: price-jones
Dark Spectrum Present: No
Reference Spectrum Present: No
Number of Sampled Component Spectra: 1
Spectrometers: USB2+H05261
Integration Time (usec): 100000 (USB2+H05261)
Spectra Averaged: 1 (USB2+H05261)
Boxcar Smoothing: 0 (USB2+H05261)
Correct for Electrical Dark: No (USB2+H05261)
Strobe/Lamp Enabled: No (USB2+H05261)
Correct for Detector Non-linearity: No (USB2+H05261)
Correct for Stray Light: No (USB2+H05261)
Number of Pixels in Processed Spectrum: 2048
>>>>>Begin Processed Spectral Data<<<<<
365.73	264.48
365.92	264.48
366.12	264.48
366.32	159.16
366.52	91.28
366.72	145.11
366.91	152.13
367.11	117.03
367.31	95.96
367.51	156.82
367.70	159.16
367.90	79.58
368.10	124.05
368.30	168.52
368.49	140.43
368.69	86.60
368.89	114.69
369.09	184.90
369.28	159.16
369.48	229.37
369.68	191.92
369.87	184.90
370.07	184.90
370.27	283.20
370.47	341.72
370.66	667.05
370.86	599.18
371.06	697.48
371.25	718.54
371.45	690.46
371.65	732.59
371.84	678.76
372.04	606.20
372.24	805.14
372.44	681.10
372.63	683.44
372.83	802.80
373.03	751.31
373.22	716.20
373.42	777.06
373.62	795.78
373.81	777.06
374.01	795.78
374.21	713.86
374.40	828.55
374.60	798.12
374.79	741.95
374.99	823.87
375.19	868.34
375.38	849.61
375.58	805.14
375.78	847.27
375.97	800.46
376.17	851.96
376.37	788.76
376.56	809.83
376.76	884.72
376.95	823.87
377.15	959.62
377.35	891.74
377.54	856.64
377.74	917.49
377.93	933.87
378.13	954.94
378.33	910.47
378.52	898.77
378.72	866.00
378.91	959.62
379.11	980.68
379.31	985.37
379.50	971.32
379.70	950.26
379.89	943.24
380.09	910.47
380.28	924.51
380.48	957.28
380.68	1027.50
380.87	976.00
381.07	1039.20
381.26	1006.43
381.46	1048.56
381.65	1095.37
381.85	1046.22
382.04	1013.45
382.24	1006.43
382.43	1081.33
382.63	1067.28
382.83	1109.41
383.02	1060.26
383.22	1118.78
383.41	1078.99
383.61	1088.35
383.80	1137.50
384.00	1146.86
384.19	1156.22
384.39	1093.03
384.58	1137.50
384.78	1095.37
384.97	1165.59
385.17	1153.88
385.36	1217.08
385.56	1125.80
385.75	1193.67
385.95	1198.35
386.14	1226.44
386.34	1172.61
386.53	1256.87
386.72	1170.27
386.92	1252.19
387.11	1214.74
387.31	1170.27
387.50	1198.35
387.70	1242.82
387.89	1191.33
388.09	1200.69
388.28	1200.69
388.48	1294.32
388.67	1270.91
388.86	1256.87
389.06	1301.34
389.25	1364.53
389.45	1296.66
389.64	1284.95
389.84	1364.53
390.03	1320.06
390.22	1343.47
390.42	1416.02
390.61	1380.92
390.81	1359.85
391.00	1385.60
391.19	1432.41
391.39	1343.47
391.58	1467.52
391.78	1394.96
391.97	1439.43
392.16	1451.13
392.36	1619.65
392.55	1432.41
392.75	1495.60
392.94	1629.01
393.13	1542.41
393.33	1586.88
393.52	1528.37
393.71	1537.73
393.91	1565.82
394.10	1558.80
394.29	1523.69
394.49	1556.46
394.68	1626.67
394.88	1647.74
395.07	1729.66
395.26	1795.19
395.46	1696.89
395.65	1673.48
395.84	1687.53
396.04	1706.25
396.23	1680.50
396.42	1816.26
396.62	1755.40
396.81	1792.85
397.00	1776.47
397.19	1792.85
397.39	1799.87
397.58	1820.94
397.77	1717.95
397.97	1879.45
398.16	1783.49
398.35	1750.72
398.55	1900.52
398.74	1914.56
398.93	1984.77
399.12	2012.86
399.32	1923.92
399.51	1905.20
399.70	2012.86
399.90	1994.14
400.09	1987.11
400.28	2099.46
400.47	1987.11
400.67	2141.59
400.86	2062.01
401.05	2076.06
401.24	2078.40
401.44	2029.24
401.63	2097.12
401.82	2118.18
402.01	2155.63
402.21	2181.38
402.40	2134.57
402.59	2216.49
402.78	2230.53
402.97	2167.34
403.17	2237.55
403.36	2349.90
403.55	2296.07
403.74	2452.88
403.93	2277.34
404.13	2392.03
404.32	2487.99
404.51	2406.07
404.70	2385.01
404.89	2324.15
405.09	2448.20
405.28	2480.97
405.47	2478.63
405.66	2490.33
405.85	2586.29
406.05	2513.74
406.24	2539.48
406.43	2590.97
406.62	2616.72
406.81	2574.59
407.00	2677.57
407.20	2534.80
407.39	2640.12
407.58	2668.21
407.77	2691.62
407.96	2883.54
408.15	2684.59
408.34	2738.43
408.54	2764.17
408.73	2808.64
408.92	2848.43
409.11	2808.64
409.30	2834.39
409.49	2771.19
409.68	2874.18
409.87	2960.78
410.07	3089.51
410.26	3087.17
410.45	2967.80
410.64	3040.36
410.83	3129.30
411.02	3117.59
411.21	3166.74
411.40	3112.91
411.59	3241.64
411.78	3187.81
411.98	3213.56
412.17	3321.22
412.36	3337.60
412.55	3353.99
412.74	3426.54
412.93	3246.32
413.12	3358.67
413.31	3581.02
413.50	3487.40
413.69	3386.76
413.88	3522.51
414.07	3365.69
414.26	3679.32
414.45	3662.94
414.64	3695.71
414.83	3733.15
415.02	3714.43
415.22	3702.73
415.41	3885.29
415.60	3936.78
415.79	3946.14
415.98	3918.06
416.17	3941.46
416.36	3845.50
416.55	3904.01
416.74	4058.49
416.93	4044.45
417.12	4084.23
417.31	4159.13
417.50	4166.15
417.69	4374.46
417.88	4327.65
418.07	4236.37
418.26	4243.39
418.45	4283.18
418.64	4542.98
418.83	4447.02
419.02	4393.19
419.21	4299.56
419.39	4416.59
419.58	4299.56
419.77	4404.89
419.96	4533.62
420.15	4442.34
420.34	4510.21
420.53	4664.69
420.72	4629.58
420.91	4676.39
421.10	4784.06
421.29	4858.95
421.48	4718.52
421.67	4699.80
421.86	4854.27
422.05	4819.16
422.24	4854.27
422.43	4929.17
422.61	4793.42
422.80	4840.23
422.99	4842.57
423.18	4912.78
423.37	4905.76
423.56	4917.47
423.75	4882.36
423.94	4880.02
424.13	4615.54
424.32	4739.58
424.50	4917.47
424.69	5032.15
424.88	5036.83
425.07	4929.17
425.26	4889.38
425.45	4865.97
425.64	5036.83
425.83	4933.85
426.01	4952.57
426.20	5116.41
426.39	4961.94
426.58	5097.69
426.77	5043.85
426.96	5277.91
427.15	5085.98
427.33	5100.03
427.52	5181.95
427.71	5287.27
427.90	5317.70
428.09	5408.98
428.28	5266.21
428.46	5397.28
428.65	5317.70
428.84	5444.09
429.03	5418.34
429.22	5315.36
429.40	5432.38
429.59	5460.47
429.78	5348.12
429.97	5210.03
430.16	5446.43
430.34	5418.34
430.53	5643.03
430.72	5664.10
430.91	5696.86
431.10	5577.50
431.28	5900.49
431.47	5813.89
431.66	5734.31
431.85	5706.23
432.03	5951.98
432.22	5996.45
432.41	5879.43
432.60	5949.64
432.79	5940.28
432.97	5872.40
433.16	5872.40
433.35	6061.99
433.54	6017.52
433.72	6003.47
433.91	6127.52
434.10	6146.25
434.28	5973.05
434.47	6382.64
434.66	6267.95
434.85	6211.78
435.03	6333.49
435.22	6300.72
435.41	6520.73
435.59	6263.27
435.78	6551.16
435.97	6375.62
436.16	6399.02
436.34	6274.98
436.53	6394.34
436.72	6768.83
436.90	6338.17
437.09	6640.10
437.28	6342.85
437.46	6422.43
437.65	6504.35
437.84	6614.35
438.02	6717.34
438.21	6707.98
438.40	6492.65
438.58	6846.07
438.77	6911.60
438.96	6827.34
439.14	6977.14
439.33	7253.32
439.52	7176.08
439.70	7433.54
439.89	7148.00
440.08	7304.81
440.26	7419.50
440.45	7396.09
440.63	7592.70
440.82	7634.83
441.01	7339.92
441.19	7506.10
441.38	7695.68
441.57	7630.15
441.75	7911.01
441.94	7831.43
442.12	8002.29
442.31	8051.44
442.50	7826.75
442.68	7772.92
442.87	7927.39
443.05	8093.57
443.24	8145.06
443.43	8166.13
443.61	8152.09
443.80	8304.22
443.98	7918.03
444.17	7826.75
444.35	8205.92
444.54	8353.37
444.73	8161.45
444.91	8416.57
445.10	8355.71
445.28	8355.71
445.47	8271.45
445.65	8355.71
445.84	8652.96
446.02	8336.99
446.21	8306.56
446.39	8444.65
446.58	8643.60
446.77	8231.66
446.95	8196.56
447.14	8496.14
447.32	8599.13
447.51	8423.59
447.69	8662.32
447.88	8678.71
448.06	8667.00
448.25	8332.31
448.43	8475.08
448.62	8706.79
448.80	8704.45
448.99	8617.85
449.17	8610.83
449.36	8580.40
449.54	8840.20
449.73	8922.12
449.91	9053.19
450.10	8901.06
450.28	8954.89
450.46	8978.30
450.65	8964.25
450.83	9008.72
451.02	8844.88
451.20	9139.79
451.39	9158.52
451.57	9118.73
451.76	9109.36
451.94	9032.13
452.13	9315.33
452.31	9132.77
452.49	8940.85
452.68	9366.82
452.86	9338.74
453.05	9411.29
453.23	9528.32
453.42	9451.08
453.60	9261.50
453.78	9294.27
453.97	9298.95
454.15	9525.98
454.34	9575.13
454.52	9753.01
454.70	9650.03
454.89	9722.59
455.07	9701.52
455.26	9661.73
455.44	9884.08
455.62	9954.30
455.81	9781.10
455.99	9870.04
456.17	9975.36
456.36	9989.41
456.54	10090.05
456.73	10094.73
456.91	10640.08
457.09	10569.86
457.28	10469.22
457.46	10235.16
457.64	10581.56
457.83	10396.66
458.01	10443.47
458.19	10576.88
458.38	10384.96
458.56	10541.77
458.74	10679.86
458.93	10576.88
459.11	10817.96
459.29	10338.15
459.48	11077.76
459.66	10607.31
459.84	10778.17
460.03	11215.85
460.21	10850.72
460.39	10719.65
460.57	10949.03
460.76	11206.48
460.94	11098.82
461.12	10867.11
461.31	10965.41
461.49	11234.57
461.67	11194.78
461.85	11468.62
462.04	11211.17
462.22	11503.73
462.40	11541.18
462.59	11492.03
462.77	11363.30
462.95	11503.73
463.13	11573.95
463.32	11513.10
463.50	11761.19
463.68	11721.40
463.86	11667.57
464.05	11424.15
464.23	11878.22
464.41	12098.23
464.59	11609.06
464.78	11875.88
464.96	11932.05
465.14	11882.90
465.32	11887.58
465.50	11864.18
465.69	12086.53
465.87	11946.09
466.05	12051.42
466.23	12180.15
466.41	12065.46
466.60	12332.28
466.78	12131.00
466.96	11960.14
467.14	12311.22
467.32	12250.36
467.51	12355.69
467.69	12290.15
467.87	12634.21
468.05	12512.50
468.23	12318.24
468.41	12393.14
468.60	12643.57
468.78	12814.43
468.96	12386.12
469.14	12776.98
469.32	12842.52
469.50	12767.62
469.69	12727.83
469.87	13085.94
470.05	13034.44
470.23	12926.78
470.41	13125.72
470.59	13437.02
470.77	13268.50
470.95	13235.73
471.14	13518.93
471.32	12903.37
471.50	13226.37
471.68	13535.32
471.86	13502.55
472.04	13572.77
472.22	13965.98
472.40	13664.05
472.58	13902.78
472.77	13870.01
472.95	14090.02
473.13	14792.19
473.31	13973.00
473.49	14195.35
473.67	14244.50
473.85	14012.79
474.03	14483.24
474.21	14686.86
474.39	14609.62
474.57	14824.95
474.75	14843.68
474.93	14895.17
475.12	15007.52
475.30	15084.75
475.48	14946.66
475.66	15122.20
475.84	15157.31
476.02	15293.06
476.20	15323.49
476.38	15513.07
476.56	15934.37
476.74	16133.31
476.92	15948.41
477.10	15805.64
477.28	15995.22
477.46	15826.70
477.64	16456.31
477.82	16339.28
478.00	16819.09
478.18	16783.98
478.36	16561.63
478.54	17228.68
478.72	17013.35
478.90	17186.55
479.08	17551.68
479.26	17451.03
479.44	17736.58
479.62	17848.93
479.80	18050.21
479.98	17858.29
480.16	18532.36
480.34	18302.99
480.52	18424.70
480.70	18263.20
480.88	18523.00
481.06	18380.23
481.24	18628.32
481.41	18960.68
481.59	19344.53
481.77	19232.18
481.95	19538.79
482.13	19740.08
482.31	19545.81
482.49	20060.73
482.67	19625.39
482.85	20308.83
483.03	20484.37
483.21	20657.57
483.39	20823.75
483.57	20709.06
483.74	21109.29
483.92	21149.08
484.10	21174.83
484.28	21839.54
484.46	22087.64
484.64	22075.93
484.82	21935.50
485.00	22473.82
485.18	22504.25
485.35	22967.68
485.53	22600.21
485.71	22995.76
485.89	23477.91
486.07	23431.10
486.25	23260.24
486.43	23740.05
486.61	23709.63
486.78	24166.03
486.96	24023.26
487.14	24439.87
487.32	24332.21
487.50	24638.82
487.68	24999.26
487.85	25172.46
488.03	25600.78
488.21	25851.22
488.39	25656.95
488.57	26036.12
488.75	26197.62
488.92	26256.13
489.10	26457.42
489.28	26305.28
489.46	26785.09
489.64	26862.33
489.81	27311.71
489.99	27594.92
490.17	27489.59
490.35	28039.62
490.53	28102.81
490.70	28039.62
490.88	28261.97
491.06	28914.98
491.24	28819.02
491.41	29046.05
491.59	29109.24
491.77	29050.73
491.95	29413.51
492.13	29811.40
492.30	29692.04
492.48	29802.04
492.66	30209.29
492.84	29986.94
493.01	30281.85
493.19	30827.20
493.37	30876.35
493.54	31255.51
493.72	31276.58
493.90	31147.85
494.08	31519.99
494.25	31934.27
494.43	32304.07
494.61	32170.66
494.79	32388.33
494.96	32535.79
495.14	32610.68
495.32	32687.92
495.49	33167.73
495.67	33125.60
495.85	33219.22
496.02	33560.94
496.20	34150.76
496.38	33677.97
496.55	34405.88
496.73	34567.37
496.91	34485.45
497.09	34244.38
497.26	34576.73
497.44	34604.82
497.62	35353.79
497.79	35718.92
497.97	35356.13
498.14	35700.19
498.32	35948.29
498.50	36168.30
498.67	36400.01
498.85	36297.03
499.03	36687.90
499.20	36655.13
499.38	36905.57
499.56	36432.78
499.73	37104.51
499.91	37041.32
500.08	37310.48
500.26	37095.15
500.44	37289.42
500.61	37642.84
500.79	37427.51
500.97	37741.14
501.14	38829.49
501.32	38637.56
501.49	38749.91
501.67	38185.84
501.84	38913.75
502.02	38494.79
502.20	38586.07
502.37	39070.56
502.55	39000.35
502.72	39412.28
502.90	39335.04
503.07	39147.80
503.25	39459.09
503.43	39367.81
503.60	39789.11
503.78	40060.61
503.95	39716.55
504.13	40329.77
504.30	40079.33
504.48	40308.71
504.65	40280.62
504.83	40891.50
505.01	40907.88
505.18	41244.92
505.36	41310.46
505.53	40870.43
505.71	41160.66
505.88	41542.17
506.06	41083.42
506.23	42073.47
506.41	41514.08
506.58	41792.61
506.76	41649.83
506.93	42146.03
507.11	42351.99
507.28	42377.74
507.46	42501.79
507.63	42808.40
507.81	42878.61
507.98	43138.41
508.16	43009.68
508.33	43152.46
508.50	43079.90
508.68	43171.18
508.85	43498.86
509.03	43222.67
509.20	44023.14
509.38	44149.53
509.55	44151.87
509.73	44098.03
509.90	44142.50
510.08	44236.12
510.25	44107.40
510.42	44423.37
510.60	44657.42
510.77	45247.24
510.95	45003.82
511.12	45137.23
511.30	44788.49
511.47	45509.38
511.64	45057.65
511.82	45137.23
511.99	45120.85
512.17	45614.70
512.34	45986.85
512.51	46115.58
512.69	46485.38
512.86	46422.19
513.04	46501.76
513.21	46096.85
513.38	46415.16
513.56	46918.38
513.73	46532.19
513.90	46614.11
514.08	46941.78
514.25	46974.55
514.43	47377.12
514.60	47164.14
514.77	47114.98
514.95	47182.86
515.12	47260.10
515.29	47363.08
515.47	47941.19
515.64	47763.31
515.81	47777.36
515.99	47875.66
516.16	48421.00
516.33	48215.04
516.51	48650.38
516.68	48348.45
516.85	48282.91
517.03	48612.93
517.20	48484.20
517.37	48924.22
517.54	48498.24
517.72	48811.87
517.89	48498.24
518.06	48875.07
518.24	49193.38
518.41	49319.77
518.58	48905.49
518.75	48910.17
518.93	49287.00
519.10	49373.60
519.27	49357.22
519.45	49177.00
519.62	49921.29
519.79	49572.55
519.96	49797.24
520.14	50122.57
520.31	49769.15
520.48	50234.92
520.65	50225.56
520.83	50284.07
521.00	50361.31
521.17	50349.60
521.34	50588.34
521.52	50688.98
521.69	50595.36
521.86	50679.62
522.03	51033.04
522.20	50880.91
522.38	51096.24
522.55	50965.17
522.72	51341.99
522.89	51072.83
523.07	51351.35
523.24	51040.06
523.41	51742.22
523.58	51365.40
523.75	51690.73
523.92	51660.30
524.10	51716.48
524.27	51625.20
524.44	51805.42
524.61	51760.95
524.78	52109.69
524.96	52027.77
525.13	51887.34
525.30	52259.48
525.47	52481.83
525.64	52196.29
525.81	52502.90
525.98	52224.37
526.16	52509.92
526.33	52875.04
526.50	52912.49
526.67	52460.77
526.84	52615.24
527.01	52566.09
527.18	52818.87
527.36	52748.65
527.53	52949.94
527.70	53329.11
527.87	53247.19
528.04	53062.29
528.21	53368.90
528.38	53301.02
528.55	53565.50
528.72	53289.32
528.89	53558.48
529.07	53228.46
529.24	52996.75
529.41	53373.58
529.58	53202.72
529.75	53701.25
529.92	53422.73
530.09	53659.12
530.26	53963.39
530.43	53773.81
530.60	53535.07
530.77	53673.16
530.94	53867.43
531.11	53794.87
531.28	53780.83
531.46	54223.19
531.63	54305.11
531.80	54035.95
531.97	54192.76
532.14	54396.39
532.31	54316.81
532.48	54482.99
532.65	54230.21
532.82	54583.63
532.99	54693.64
533.16	54230.21
533.33	54791.94
533.50	54593.00
533.67	54876.20
533.84	54459.58
534.01	54618.74
534.18	54901.95
534.35	55309.20
534.52	55086.85
534.69	54887.90
534.86	55168.77
535.03	55121.96
535.20	55056.42
535.37	55253.03
535.54	55192.17
535.71	54990.89
535.88	55138.34
536.05	55220.26
536.22	55290.48
536.38	55288.13
536.55	55243.66
536.72	55470.70
536.89	55372.39
537.06	55285.79
537.23	55374.73
537.40	55203.88
537.57	55786.67
537.74	55538.57
537.91	55812.41
538.08	55496.44
538.25	55402.82
538.42	55716.45
538.59	56002.00
538.75	55636.87
538.92	55725.81
539.09	56135.41
539.26	55796.03
539.43	55742.20
539.60	56079.24
539.77	56116.68
539.94	56299.25
540.11	55955.19
540.28	56196.26
540.44	56030.08
540.61	56362.44
540.78	56020.72
540.95	56369.46
541.12	56303.93
541.29	56233.71
541.46	56479.47
541.62	56378.82
541.79	56512.23
541.96	56296.91
542.13	56383.51
542.30	56509.89
542.47	56505.21
542.63	56530.96
542.80	56877.36
542.97	56910.13
543.14	57188.65
543.31	56889.06
543.48	56865.66
543.64	57563.14
543.81	57249.50
543.98	57340.78
544.15	57104.39
544.32	57235.46
544.48	57471.85
544.65	57202.69
544.82	57308.02
544.99	57057.58
545.16	57382.91
545.32	57387.60
545.49	57539.73
545.66	57600.58
545.83	57495.26
546.00	57748.04
546.16	57616.97
546.33	57471.85
546.50	57130.14
546.67	57422.70
546.83	57448.45
547.00	57691.86
547.17	57572.50
547.34	57574.84
547.50	57916.56
547.67	57893.15
547.84	57773.78
548.00	57968.05
548.17	58171.67
548.34	58199.76
548.51	58061.67
548.67	58000.82
548.84	57911.88
549.01	57935.28
549.18	58134.23
549.34	58209.12
549.51	58085.07
549.68	58274.66
549.84	58148.27
550.01	58319.13
550.18	58171.67
550.34	58316.79
550.51	58328.49
550.68	58262.96
550.84	58068.69
551.01	58211.46
551.18	58272.32
551.34	58419.77
551.51	58550.84
551.68	58728.72
551.84	58265.30
552.01	58485.31
552.18	58492.33
552.34	58277.00
552.51	58513.39
552.68	58354.24
552.84	58403.39
553.01	58642.12
553.18	58728.72
553.34	58831.71
553.51	58611.70
553.67	58843.41
553.84	58759.15
554.01	58775.53
554.17	59032.99
554.34	59014.27
554.51	58972.14
554.67	58885.54
554.84	58838.73
555.00	58848.09
555.17	58904.26
555.33	58834.05
555.50	58731.06
555.67	58862.13
555.83	59042.35
556.00	59168.74
556.16	59124.27
556.33	58995.54
556.50	59140.66
556.66	59086.82
556.83	59068.10
556.99	59278.75
557.16	59559.61
557.32	59236.62
557.49	59363.01
557.65	59206.19
557.82	59426.20
557.98	59267.05
558.15	59367.69
558.32	59384.07
558.48	59288.11
558.65	59253.00
558.81	59398.12
558.98	59285.77
559.14	59554.93
559.31	59533.87
559.47	59674.30
559.64	59613.44
559.80	59536.21
559.97	59784.30
560.13	59461.31
560.30	59473.01
560.46	59573.66
560.63	59552.59
560.79	59683.66
560.96	59765.58
561.12	59681.32
561.29	59718.77
561.45	59756.22
561.61	59625.15
561.78	59611.10
561.94	59618.13
562.11	59646.21
562.27	59856.86
562.44	59927.08
562.60	59770.26
562.77	59807.71
562.93	59847.50
563.10	60025.38
563.26	59597.06
563.42	59976.23
563.59	59718.77
563.75	59868.56
563.92	59938.78
564.08	59622.81
564.24	59910.69
564.41	59884.95
564.57	59910.69
564.74	59877.93
564.90	60032.40
565.07	60046.44
565.23	60177.51
565.39	59894.31
565.56	60207.94
565.72	60086.23
565.88	60149.43
566.05	59910.69
566.21	60154.11
566.38	60100.28
566.54	60257.09
566.70	60219.64
566.87	60023.04
567.03	60079.21
567.19	60238.37
567.36	60247.73
567.52	60133.04
567.68	60268.79
567.85	60055.81
568.01	60322.63
568.17	60172.83
568.34	60399.86
568.50	60154.11
568.66	60226.66
568.83	60460.72
568.99	60247.73
569.15	60266.45
569.32	60140.07
569.48	60210.28
569.64	60439.65
569.81	60444.33
569.97	60088.57
570.13	60402.21
570.30	60186.88
570.46	60299.22
570.62	60458.38
570.78	60322.63
570.95	60294.54
571.11	60200.92
571.27	60324.97
571.43	60130.70
571.60	60516.89
571.76	60458.38
571.92	60577.75
572.09	60477.10
572.25	60477.10
572.41	60339.01
572.57	60481.78
572.74	60523.91
572.90	60378.80
573.06	60678.39
573.22	60580.09
573.38	60769.67
573.55	60556.68
573.71	60795.42
573.87	60533.28
574.03	60481.78
574.20	60568.38
574.36	60486.46
574.52	60559.02
574.68	60610.51
574.84	60582.43
575.01	60830.52
575.17	60381.14
575.33	60381.14
575.49	60477.10
575.65	60491.15
575.82	60619.88
575.98	60636.26
576.14	60907.76
576.30	60678.39
576.46	60664.35
576.62	60718.18
576.79	60669.03
576.95	60523.91
577.11	60694.77
577.27	60760.31
577.43	60755.63
577.59	60741.58
577.75	60795.42
577.92	60676.05
578.08	60659.66
578.24	60669.03
578.40	60757.97
578.56	60734.56
578.72	60699.45
578.88	60786.05
579.04	60882.02
579.21	60715.84
579.37	60933.51
579.53	60495.83
579.69	60563.70
579.85	60563.70
580.01	60741.58
580.17	60755.63
580.33	60664.35
580.49	60886.70
580.65	60835.20
580.82	60603.49
580.98	60807.12
581.14	60624.56
581.30	60664.35
581.46	60781.37
581.62	60659.66
581.78	60610.51
581.94	60940.53
582.10	60701.79
582.26	60807.12
582.42	60757.97
582.58	60896.06
582.74	60816.48
582.90	60839.89
583.06	60882.02
583.22	60615.19
583.38	60713.50
583.54	60790.73
583.70	60659.66
583.86	60870.31
584.02	60687.75
584.18	61013.08
584.34	60903.08
584.50	60882.02
584.66	60741.58
584.82	60650.30
584.98	60914.78
585.14	61092.66
585.30	60804.78
585.46	61006.06
585.62	61022.45
585.78	60949.89
585.94	60795.42
586.10	60800.10
586.26	61080.96
586.42	61038.83
586.58	60912.44
586.74	60931.17
586.90	60907.76
587.06	60762.65
587.22	60924.14
587.38	60982.66
587.54	61118.41
587.70	60921.80
587.86	61071.60
588.02	60947.55
588.18	61043.51
588.34	60938.19
588.49	60816.48
