SpectraSuite Data File
++++++++++++++++++++++++++++++++++++
Date: Fri Oct 25 11:33:58 EDT 2013
User: price-jones
Dark Spectrum Present: No
Reference Spectrum Present: No
Number of Sampled Component Spectra: 1
Spectrometers: USB2+H05261
Integration Time (usec): 100000 (USB2+H05261)
Spectra Averaged: 1 (USB2+H05261)
Boxcar Smoothing: 0 (USB2+H05261)
Correct for Electrical Dark: No (USB2+H05261)
Strobe/Lamp Enabled: No (USB2+H05261)
Correct for Detector Non-linearity: No (USB2+H05261)
Correct for Stray Light: No (USB2+H05261)
Number of Pixels in Processed Spectrum: 2048
>>>>>Begin Processed Spectral Data<<<<<
365.73	238.73
365.92	238.73
366.12	238.73
366.32	194.26
366.52	149.79
366.72	184.90
366.91	205.97
367.11	250.44
367.31	224.69
367.51	180.22
367.70	175.54
367.90	182.56
368.10	152.13
368.30	149.79
368.49	161.50
368.69	170.86
368.89	145.11
369.09	189.58
369.28	159.16
369.48	135.75
369.68	294.91
369.87	287.89
370.07	280.86
370.27	313.63
370.47	287.89
370.66	528.96
370.86	505.56
371.06	498.53
371.25	550.03
371.45	505.56
371.65	535.98
371.84	559.39
372.04	629.60
372.24	592.16
372.44	613.22
372.63	636.63
372.83	641.31
373.03	624.92
373.22	571.09
373.42	643.65
373.62	599.18
373.81	660.03
374.01	606.20
374.21	564.07
374.40	580.45
374.60	622.58
374.79	676.41
374.99	660.03
375.19	622.58
375.38	683.44
375.58	617.90
375.78	706.84
375.97	692.80
376.17	676.41
376.37	624.92
376.56	587.47
376.76	688.12
376.95	624.92
377.15	624.92
377.35	669.39
377.54	690.46
377.74	617.90
377.93	594.50
378.13	767.70
378.33	711.52
378.52	720.88
378.72	655.35
378.91	758.33
379.11	681.10
379.31	732.59
379.50	734.93
379.70	727.91
379.89	737.27
380.09	676.41
380.28	734.93
380.48	744.29
380.68	772.38
380.87	669.39
381.07	697.48
381.26	816.85
381.46	828.55
381.65	774.72
381.85	744.29
382.04	751.31
382.24	791.10
382.43	734.93
382.63	720.88
382.83	763.01
383.02	748.97
383.22	837.91
383.41	823.87
383.61	770.04
383.80	849.61
384.00	828.55
384.19	802.80
384.39	854.30
384.58	840.25
384.78	854.30
384.97	891.74
385.17	760.67
385.36	866.00
385.56	880.04
385.75	800.46
385.95	877.70
386.14	854.30
386.34	863.66
386.53	823.87
386.72	763.01
386.92	882.38
387.11	884.72
387.31	940.90
387.50	877.70
387.70	851.96
387.89	830.89
388.09	964.30
388.28	873.02
388.48	887.06
388.67	983.02
388.86	950.26
389.06	945.58
389.25	971.32
389.45	866.00
389.64	976.00
389.84	968.98
390.03	1006.43
390.22	987.71
390.42	1046.22
390.61	978.34
390.81	961.96
391.00	966.64
391.19	1041.54
391.39	945.58
391.58	961.96
391.78	1041.54
391.97	1060.26
392.16	1050.90
392.36	1109.41
392.55	1100.05
392.75	1062.60
392.94	1036.86
393.13	1032.18
393.33	1013.45
393.52	1032.18
393.71	1111.75
393.91	1013.45
394.10	1029.84
394.29	1032.18
394.49	1083.67
394.68	1149.20
394.88	1078.99
395.07	1238.14
395.26	1186.65
395.46	1165.59
395.65	1177.29
395.84	1130.48
396.04	1268.57
396.23	1221.76
396.42	1256.87
396.62	1221.76
396.81	1224.10
397.00	1238.14
397.19	1240.48
397.39	1235.80
397.58	1177.29
397.77	1254.53
397.97	1245.16
398.16	1249.85
398.35	1287.29
398.55	1247.51
398.74	1261.55
398.93	1245.16
399.12	1320.06
399.32	1270.91
399.51	1299.00
399.70	1413.68
399.90	1299.00
400.09	1469.86
400.28	1315.38
400.47	1383.26
400.67	1439.43
400.86	1373.89
401.05	1364.53
401.24	1420.71
401.44	1416.02
401.63	1540.07
401.82	1533.05
402.01	1425.39
402.21	1507.30
402.40	1493.26
402.59	1481.56
402.78	1591.56
402.97	1563.48
403.17	1614.97
403.36	1530.71
403.55	1617.31
403.74	1640.72
403.93	1575.18
404.13	1584.54
404.32	1537.73
404.51	1652.42
404.70	1680.50
404.89	1664.12
405.09	1631.35
405.28	1703.91
405.47	1680.50
405.66	1734.34
405.85	1736.68
406.05	1633.69
406.24	1741.36
406.43	1746.04
406.62	1729.66
406.81	1884.13
407.00	1736.68
407.20	1778.81
407.39	1724.97
407.58	1895.83
407.77	1839.66
407.96	1944.99
408.15	2017.54
408.34	1935.62
408.54	1954.35
408.73	1881.79
408.92	1884.13
409.11	1863.07
409.30	2099.46
409.49	1937.96
409.68	1975.41
409.87	1996.48
410.07	2005.84
410.26	2022.22
410.45	2071.37
410.64	2054.99
410.83	2183.72
411.02	2153.29
411.21	2129.89
411.40	2165.00
411.59	2195.42
411.78	2176.70
411.98	2115.84
412.17	2251.60
412.36	2232.87
412.55	2209.47
412.74	2328.83
412.93	2305.43
413.12	2420.11
413.31	2314.79
413.50	2352.24
413.69	2389.69
413.88	2525.44
414.07	2466.92
414.26	2487.99
414.45	2483.31
414.64	2462.24
414.83	2476.29
415.02	2558.21
415.22	2548.84
415.41	2696.30
415.60	2682.25
415.79	2637.78
415.98	2719.70
416.17	2775.88
416.36	2729.06
416.55	2733.75
416.74	2855.45
416.93	2787.58
417.12	2806.30
417.31	2808.64
417.50	2867.16
417.69	2960.78
417.88	2909.29
418.07	2956.10
418.26	2974.82
418.45	3049.72
418.64	3152.70
418.83	3096.53
419.02	2970.14
419.21	3054.40
419.39	3084.83
419.58	3066.10
419.77	3021.63
419.96	3049.72
420.15	3173.77
420.34	3141.00
420.53	3375.05
420.72	3351.65
420.91	3215.90
421.10	3295.47
421.29	3199.51
421.48	3185.47
421.67	3368.03
421.86	3269.73
422.05	3227.60
422.24	3363.35
422.43	3346.97
422.61	3372.71
422.80	3389.10
422.99	3316.54
423.18	3361.01
423.37	3466.33
423.56	3379.73
423.75	3365.69
423.94	3332.92
424.13	3269.73
424.32	3274.41
424.50	3384.41
424.69	3569.32
424.88	3440.59
425.07	3368.03
425.26	3297.81
425.45	3403.14
425.64	3393.78
425.83	3482.72
426.01	3501.44
426.20	3456.97
426.39	3442.93
426.58	3391.44
426.77	3478.04
426.96	3531.87
427.15	3445.27
427.33	3566.98
427.52	3508.46
427.71	3473.36
427.90	3524.85
428.09	3595.06
428.28	3698.05
428.46	3772.94
428.65	3496.76
428.84	3803.37
429.03	3679.32
429.22	3613.79
429.40	3719.11
429.59	3878.27
429.78	3471.01
429.97	3627.83
430.16	3700.39
430.34	3817.41
430.53	3838.48
430.72	3698.05
430.91	3796.35
431.10	3803.37
431.28	3906.35
431.47	3868.91
431.66	4044.45
431.85	3899.33
432.03	3918.06
432.22	4145.09
432.41	3978.91
432.60	4063.17
432.79	4009.34
432.97	4126.36
433.16	4049.13
433.35	4201.26
433.54	4189.56
433.72	4189.56
433.91	4100.62
434.10	4128.70
434.28	4187.22
434.47	4266.80
434.66	4278.50
434.85	4184.88
435.03	4238.71
435.22	4337.01
435.41	4411.91
435.59	4482.13
435.78	4372.12
435.97	4432.97
436.16	4404.89
436.34	4339.35
436.53	4402.55
436.72	4617.88
436.90	4365.10
437.09	4463.40
437.28	4285.52
437.46	4430.63
437.65	4559.36
437.84	4599.15
438.02	4676.39
438.21	4678.73
438.40	4676.39
438.58	4720.86
438.77	4772.35
438.96	4695.11
439.14	4741.93
439.33	4795.76
439.52	4954.91
439.70	4957.25
439.89	4978.32
440.08	5011.09
440.26	4926.83
440.45	4931.51
440.63	5125.77
440.82	5128.11
441.01	5041.51
441.19	5095.35
441.38	5291.95
441.57	5200.67
441.75	5214.71
441.94	5273.23
442.12	5254.50
442.31	5317.70
442.50	5357.49
442.68	5373.87
442.87	5235.78
443.05	5624.31
443.24	5607.92
443.43	5408.98
443.61	5577.50
443.80	5640.69
443.98	5439.40
444.17	5242.80
444.35	5542.39
444.54	5593.88
444.73	5738.99
444.91	5736.65
445.10	5633.67
445.28	5500.26
445.47	5495.58
445.65	5636.01
445.84	5586.86
446.02	5727.29
446.21	5638.35
446.39	5521.32
446.58	5694.52
446.77	5650.05
446.95	5575.16
447.14	5703.89
447.32	5746.02
447.51	5668.78
447.69	5783.46
447.88	5696.86
448.06	5694.52
448.25	5809.21
448.43	5813.89
448.62	5781.12
448.80	5804.53
448.99	5633.67
449.17	5849.00
449.36	5710.91
449.54	5879.43
449.73	6076.03
449.91	6230.51
450.10	6190.72
450.28	6160.29
450.46	6064.33
450.65	6132.20
450.83	6050.28
451.02	6031.56
451.20	6204.76
451.39	6118.16
451.57	6071.35
451.76	5980.07
451.94	5973.05
452.13	6221.14
452.31	6368.60
452.49	6225.82
452.68	6274.98
452.86	6349.87
453.05	6335.83
453.23	6424.77
453.42	6324.13
453.60	6312.42
453.78	6267.95
453.97	6218.80
454.15	6513.71
454.34	6370.94
454.52	6438.81
454.70	6417.75
454.89	6663.51
455.07	6703.29
455.26	6513.71
455.44	6682.23
455.62	6750.10
455.81	6595.63
455.99	6626.06
456.17	6663.51
456.36	6843.73
456.54	6778.19
456.73	7007.56
456.91	7059.06
457.09	7019.27
457.28	6965.43
457.46	6843.73
457.64	6965.43
457.83	6937.35
458.01	7129.27
458.19	7049.69
458.38	7059.06
458.56	7098.84
458.74	6960.75
458.93	7206.51
459.11	7103.53
459.29	7171.40
459.48	7035.65
459.66	7258.00
459.84	7290.77
460.03	7508.44
460.21	7232.26
460.39	7279.07
460.57	7281.41
460.76	7449.93
460.94	7517.80
461.12	7353.96
461.31	7501.42
461.49	7293.11
461.67	7389.07
461.85	7658.23
462.04	7609.08
462.22	7955.48
462.40	7712.07
462.59	7829.09
462.77	7903.99
462.95	7651.21
463.13	7735.47
463.32	7775.26
463.50	7655.89
463.68	7969.52
463.86	7962.50
464.05	7864.20
464.23	7826.75
464.41	7803.35
464.59	7672.28
464.78	8084.21
464.96	8021.02
465.14	7808.03
465.32	7981.23
465.50	8016.33
465.69	8119.32
465.87	7955.48
466.05	8121.66
466.23	8224.64
466.41	8210.60
466.60	8191.88
466.78	8065.49
466.96	8154.43
467.14	8119.32
467.32	8105.28
467.51	8341.67
467.69	8102.93
467.87	8231.66
468.05	8358.05
468.23	8168.47
468.41	8269.11
468.60	8437.63
468.78	8454.02
468.96	8320.60
469.14	8575.72
469.32	8578.06
469.50	8421.25
469.69	8571.04
469.87	8716.16
470.05	8549.98
470.23	8617.85
470.41	8793.39
470.59	8751.26
470.77	8671.68
470.95	8720.84
471.14	8915.10
471.32	8643.60
471.50	8938.51
471.68	9001.70
471.86	8826.16
472.04	9214.69
472.22	9240.44
472.40	9097.66
472.58	8835.52
472.77	8971.27
472.95	9116.39
473.13	9804.50
473.31	9156.18
473.49	9289.59
473.67	9280.22
473.85	9446.40
474.03	9708.54
474.21	9547.05
474.39	9474.49
474.57	9738.97
474.75	9956.64
474.93	9898.13
475.12	9867.70
475.30	10008.13
475.48	9907.49
475.66	10122.82
475.84	10129.84
476.02	10153.24
476.20	10188.35
476.38	10274.95
476.56	10494.96
476.74	10462.19
476.92	10476.24
477.10	10471.56
477.28	10679.86
477.46	10520.71
477.64	10764.12
477.82	10843.70
478.00	11164.36
478.18	10911.58
478.36	11208.83
478.54	11225.21
478.72	11197.12
478.90	11248.61
479.08	11222.87
479.26	11714.38
479.44	11475.65
479.62	11489.69
479.80	11779.92
479.98	11929.71
480.16	12266.75
480.34	11932.05
480.52	12004.61
480.70	12226.96
480.88	11934.39
481.06	12112.27
481.24	12449.31
481.41	12671.66
481.59	12699.75
481.77	12798.05
481.95	12762.94
482.13	13036.78
482.31	12903.37
482.49	13172.54
482.67	13193.60
482.85	13369.14
483.03	13467.44
483.21	13451.06
483.39	13853.63
483.57	13734.26
483.74	13762.35
483.92	13720.22
484.10	13607.87
484.28	14073.64
484.46	14373.23
484.64	14618.99
484.82	14317.06
485.00	14717.29
485.18	14642.39
485.35	15112.84
485.53	15171.35
485.71	15054.33
485.89	15089.43
486.07	15426.47
486.25	15328.17
486.43	15351.57
486.61	15461.58
486.78	15365.62
486.96	15700.31
487.14	16023.31
487.32	16240.98
487.50	16222.25
487.68	16301.83
487.85	16318.22
488.03	16540.57
488.21	17011.01
488.39	16889.31
488.57	16769.94
488.75	16933.78
488.92	17055.48
489.10	17387.84
489.28	17310.60
489.46	17425.29
489.64	17647.64
489.81	17762.33
489.99	18073.62
490.17	18057.23
490.35	18338.10
490.53	18288.95
490.70	18396.61
490.88	18204.69
491.06	18455.12
491.24	18899.83
491.41	18785.14
491.59	18719.60
491.77	18916.21
491.95	19056.64
492.13	19110.47
492.30	19271.97
492.48	19878.17
492.66	19442.83
492.84	19934.34
493.01	20105.20
493.19	20144.99
493.37	20266.70
493.54	20327.55
493.72	20283.08
493.90	20425.86
494.08	20519.48
494.25	21076.52
494.43	20769.91
494.61	20858.85
494.79	21083.55
494.96	21177.17
495.14	21345.69
495.32	21305.90
495.49	21514.20
495.67	21472.07
495.85	21921.46
496.02	22244.45
496.20	22188.28
496.38	22281.90
496.55	22309.99
496.73	22537.02
496.91	22614.26
497.09	22792.14
497.26	22649.36
497.44	22771.07
497.62	22892.78
497.79	23604.30
497.97	23021.51
498.14	23337.48
498.32	23520.04
498.50	23548.13
498.67	23571.54
498.85	23676.86
499.03	24245.61
499.20	23716.65
499.38	23985.81
499.56	23885.17
499.73	23934.32
499.91	24294.76
500.08	24386.04
500.26	24205.82
500.44	24271.36
500.61	24568.60
500.79	24753.51
500.97	24793.29
501.14	24959.47
501.32	24716.06
501.49	25010.96
501.67	24973.52
501.84	25268.42
502.02	25537.59
502.20	25322.26
502.37	25544.61
502.55	25603.12
502.72	25507.16
502.90	25741.21
503.07	25720.15
503.25	26319.32
503.43	25834.83
503.60	25778.66
503.78	26178.89
503.95	26008.03
504.13	26387.20
504.30	26724.24
504.48	26466.78
504.65	26197.62
504.83	26710.19
505.01	26614.23
505.18	26515.93
505.36	27241.50
505.53	26738.28
505.71	27030.85
505.88	27136.17
506.06	27405.33
506.23	27377.25
506.41	27442.78
506.58	27332.78
506.76	27482.57
506.93	27730.67
507.11	27812.59
507.28	27967.06
507.46	27985.79
507.63	28343.89
507.81	28437.51
507.98	28135.58
508.16	28102.81
508.33	28135.58
508.50	28322.82
508.68	28374.31
508.85	28741.78
509.03	28582.62
509.20	29223.93
509.38	29095.20
509.55	29207.55
509.73	29078.82
509.90	29240.31
510.08	28835.40
510.25	29146.69
510.42	29385.43
510.60	29324.57
510.77	29392.45
510.95	30087.59
511.12	29837.15
511.30	29780.98
511.47	29694.38
511.64	29715.44
511.82	30167.16
511.99	29834.81
512.17	30244.40
512.34	30195.25
512.51	30541.65
512.69	30766.34
512.86	30494.84
513.04	30560.37
513.21	30579.10
513.38	30665.70
513.56	30609.53
513.73	30721.87
513.90	31136.15
514.08	30831.88
514.25	31225.09
514.43	30995.71
514.60	31138.49
514.77	31414.67
514.95	31686.17
515.12	32084.06
515.29	31482.55
515.47	31534.04
515.64	32142.58
515.81	32004.49
515.99	31651.06
516.16	32552.17
516.33	32002.14
516.51	32449.19
516.68	32210.45
516.85	31906.18
517.03	32161.30
517.20	32512.38
517.37	32271.31
517.54	32821.33
517.72	32388.33
517.89	33036.66
518.06	32521.74
518.24	32772.18
518.41	32933.68
518.58	32753.46
518.75	32762.82
518.93	33490.73
519.10	32891.55
519.27	32985.17
519.45	33085.81
519.62	33474.34
519.79	33582.01
519.96	33397.10
520.14	33495.41
520.31	33153.69
520.48	33621.80
520.65	33703.71
520.83	34101.61
521.00	34305.23
521.17	33799.68
521.34	34438.64
521.52	34148.42
521.69	34171.82
521.86	34616.52
522.03	34302.89
522.20	34717.17
522.38	34909.09
522.55	34785.04
522.72	34663.33
522.89	34621.20
523.07	35374.86
523.24	34911.43
523.41	35536.35
523.58	34520.56
523.75	35323.36
523.92	35306.98
524.10	35428.69
524.27	34967.60
524.44	35349.11
524.61	35372.52
524.78	35363.15
524.96	36016.16
525.13	35594.87
525.30	35768.07
525.47	35573.80
525.64	36072.34
525.81	36077.02
525.98	35908.50
526.16	35955.31
526.33	35990.42
526.50	36758.11
526.67	35653.38
526.84	36156.60
527.01	35889.77
527.18	36582.57
527.36	36383.63
527.53	36795.56
527.70	36893.86
527.87	36840.03
528.04	36453.84
528.21	36952.38
528.38	36753.43
528.55	36814.29
528.72	36701.94
528.89	37181.75
529.07	37099.83
529.24	37172.39
529.41	37277.71
529.58	37233.24
529.75	37031.96
529.92	37347.93
530.09	36966.42
530.26	37689.65
530.43	37254.31
530.60	37345.59
530.77	37497.72
530.94	37773.91
531.11	37177.07
531.28	37703.69
531.46	37500.06
531.63	37919.02
531.80	37553.90
531.97	38003.28
532.14	38012.64
532.31	38157.75
532.48	38066.47
532.65	38417.55
532.82	37626.45
532.99	38305.21
533.16	38277.12
533.33	38763.95
533.50	38471.39
533.67	38403.51
533.84	38403.51
534.01	38653.95
534.18	38557.99
534.35	38829.49
534.52	38845.87
534.69	39086.95
534.86	39138.44
535.03	38864.60
535.20	38995.67
535.37	38967.58
535.54	39316.32
535.71	39257.81
535.88	39086.95
536.05	39269.51
536.22	39379.51
536.38	39498.88
536.55	39468.45
536.72	39281.21
536.89	39276.53
537.06	39737.62
537.23	39433.35
537.40	39330.36
537.57	39606.55
537.74	39433.35
537.91	39803.15
538.08	39742.30
538.25	39489.52
538.42	40329.77
538.59	40297.00
538.75	39828.90
538.92	40460.84
539.09	40194.02
539.26	40215.08
539.43	40048.91
539.60	40187.00
539.77	40123.80
539.94	40465.52
540.11	40477.22
540.28	40886.82
540.44	40437.44
540.61	40308.71
540.78	40369.56
540.95	40559.14
541.12	40123.80
541.29	40547.44
541.46	40526.38
541.62	40832.99
541.79	40884.48
541.96	40411.69
542.13	40840.01
542.30	40849.37
542.47	40528.72
542.63	41244.92
542.80	41118.53
542.97	41642.81
543.14	41443.87
543.31	40919.59
543.48	41911.97
543.64	41921.34
543.81	41661.54
543.98	41757.50
544.15	41504.72
544.32	42139.00
544.48	42237.31
544.65	41895.59
544.82	42293.48
544.99	41441.53
545.16	41654.51
545.32	41748.14
545.49	42799.04
545.66	42541.58
545.83	42440.93
546.00	42213.90
546.16	42377.74
546.33	42424.55
546.50	42115.60
546.67	42717.12
546.83	42014.96
547.00	42117.94
547.17	42211.56
547.34	42761.59
547.50	42527.53
547.67	42759.25
547.84	42464.34
548.00	42674.99
548.17	43077.56
548.34	42857.55
548.51	43086.92
548.67	43070.54
548.84	42993.30
549.01	42899.68
549.18	42682.01
549.34	43068.20
549.51	43058.84
549.68	43213.31
549.84	42759.25
550.01	43615.88
550.18	43304.59
550.34	43302.25
550.51	43470.77
550.68	43550.35
550.84	42679.67
551.01	43370.13
551.18	42930.11
551.34	43501.20
551.51	43723.55
551.68	43391.19
551.84	43658.01
552.01	43107.99
552.18	43309.27
552.34	43063.52
552.51	43573.75
552.68	43388.85
552.84	43585.46
553.01	43700.14
553.18	43772.70
553.34	44088.67
553.51	43100.97
553.67	44421.03
553.84	43894.41
554.01	43615.88
554.17	44126.12
554.34	44233.78
554.51	44238.47
554.67	44421.03
554.84	43920.15
555.00	44231.44
555.17	44161.23
555.33	44027.82
555.50	43995.05
555.67	44402.30
555.83	44268.89
556.00	44545.08
556.16	45113.83
556.33	44177.61
556.50	44542.74
556.66	44580.18
556.83	44577.84
556.99	45034.25
557.16	44619.97
557.32	44247.83
557.49	44596.57
557.65	44294.64
557.82	44690.19
557.98	44720.62
558.15	44788.49
558.32	44697.21
558.48	44832.96
558.65	45006.16
558.81	44952.33
558.98	45191.06
559.14	44903.18
559.31	45085.74
559.47	44713.59
559.64	44634.02
559.80	44933.60
559.97	45476.61
560.13	45020.20
560.30	45172.34
560.46	45308.09
560.63	45310.43
560.79	45537.46
560.96	45209.79
561.12	45263.62
561.29	45729.39
561.45	45474.27
561.61	45127.87
561.78	45385.33
561.94	45317.45
562.11	45528.10
562.27	45626.40
562.44	45258.94
562.60	45511.72
562.77	45371.28
562.93	45446.18
563.10	45441.50
563.26	45137.23
563.42	45954.08
563.59	45263.62
563.75	45294.05
563.92	45516.40
564.08	45485.97
564.24	45642.79
564.41	45558.53
564.57	45687.26
564.74	45464.91
564.90	45593.64
565.07	45570.23
565.23	46036.00
565.39	45844.07
565.56	46305.16
565.72	45724.71
565.88	46188.13
566.05	45918.97
566.21	45914.29
566.38	46288.77
566.54	46291.12
566.70	46375.37
566.87	45986.85
567.03	45975.14
567.19	45904.93
567.36	45509.38
567.52	45970.46
567.68	46101.53
567.85	46057.06
568.01	45928.33
568.17	46024.29
568.34	45989.19
568.50	46174.09
568.66	45984.51
568.83	45958.76
568.99	46129.62
569.15	46007.91
569.32	46148.34
569.48	46234.94
569.64	46539.21
569.81	46124.94
569.97	46050.04
570.13	46384.74
570.30	46010.25
570.46	46227.92
570.62	46515.81
570.78	46129.62
570.95	46082.81
571.11	46522.83
571.27	46124.94
571.43	46251.33
571.60	46422.19
571.76	46068.76
571.92	46471.34
572.09	45937.69
572.25	46328.56
572.41	46160.05
572.57	46010.25
572.74	46588.36
572.90	46387.08
573.06	46356.65
573.22	46541.55
573.38	46679.64
573.55	46506.44
573.71	47007.32
573.87	46356.65
574.03	46714.75
574.20	46890.29
574.36	46628.15
574.52	46684.33
574.68	46707.73
574.84	47009.66
575.01	46532.19
575.17	46539.21
575.33	46684.33
575.49	46838.80
575.65	46588.36
575.82	46733.48
575.98	46368.35
576.14	46831.78
576.30	47122.01
576.46	46623.47
576.62	46384.74
576.79	46597.73
576.95	46705.39
577.11	46672.62
577.27	46604.75
577.43	46335.59
577.59	46469.00
577.75	46279.41
577.92	46174.09
578.08	46871.57
578.24	46906.68
578.40	46721.77
578.56	46990.94
578.72	46611.77
578.88	46969.87
579.04	46696.03
579.21	46787.31
579.37	46990.94
579.53	46834.12
579.69	46904.34
579.85	46508.79
580.01	46689.01
580.17	46857.52
580.33	46756.88
580.49	46576.66
580.65	47260.10
580.82	46660.92
580.98	46358.99
581.14	46267.71
581.30	46969.87
581.46	46799.01
581.62	46597.73
581.78	46330.90
581.94	46841.14
582.10	46492.40
582.26	47133.71
582.42	46827.10
582.58	46862.21
582.74	46911.36
582.90	46948.81
583.06	46920.72
583.22	46394.10
583.38	46934.76
583.54	46822.42
583.70	46902.00
583.86	46864.55
584.02	46672.62
584.18	47161.79
584.34	46958.17
584.50	47288.18
584.66	47154.77
584.82	47145.41
584.98	47381.80
585.14	46869.23
585.30	46831.78
585.46	47182.86
585.62	46733.48
585.78	47213.29
585.94	46546.23
586.10	47459.04
586.26	46665.60
586.42	46735.82
586.58	47126.69
586.74	46927.74
586.90	46534.53
587.06	47199.24
587.22	47391.17
587.38	46677.30
587.54	47093.92
587.70	47236.69
587.86	46815.40
588.02	47000.30
588.18	47075.19
588.34	47019.02
588.49	47189.88
588.65	46841.14
588.81	47393.51
588.97	47042.43
589.13	47091.58
589.29	47325.63
589.45	47082.22
589.61	47189.88
589.77	47524.58
589.93	46937.10
590.08	47571.39
