SpectraSuite Data File
++++++++++++++++++++++++++++++++++++
Date: Fri Oct 25 11:23:42 EDT 2013
User: price-jones
Dark Spectrum Present: No
Reference Spectrum Present: No
Number of Sampled Component Spectra: 1
Spectrometers: USB2+H05261
Integration Time (usec): 100000 (USB2+H05261)
Spectra Averaged: 1 (USB2+H05261)
Boxcar Smoothing: 0 (USB2+H05261)
Correct for Electrical Dark: No (USB2+H05261)
Strobe/Lamp Enabled: No (USB2+H05261)
Correct for Detector Non-linearity: No (USB2+H05261)
Correct for Stray Light: No (USB2+H05261)
Number of Pixels in Processed Spectrum: 2048
>>>>>Begin Processed Spectral Data<<<<<
365.73	154.48
365.92	154.48
366.12	154.48
366.32	140.43
366.52	114.69
366.72	194.26
366.91	135.75
367.11	84.26
367.31	138.09
367.51	149.79
367.70	152.13
367.90	187.24
368.10	77.24
368.30	105.32
368.49	105.32
368.69	124.05
368.89	121.71
369.09	177.88
369.28	124.05
369.48	147.45
369.68	212.99
369.87	191.92
370.07	126.39
370.27	196.60
370.47	287.89
370.66	564.07
370.86	580.45
371.06	716.20
371.25	702.16
371.45	660.03
371.65	704.50
371.84	667.05
372.04	664.71
372.24	692.80
372.44	767.70
372.63	662.37
372.83	793.44
373.03	681.10
373.22	692.80
373.42	755.99
373.62	734.93
373.81	706.84
374.01	702.16
374.21	795.78
374.40	875.36
374.60	901.11
374.79	770.04
374.99	765.36
375.19	847.27
375.38	854.30
375.58	798.12
375.78	947.92
375.97	976.00
376.17	936.21
376.37	844.93
376.56	917.49
376.76	884.72
376.95	823.87
377.15	922.17
377.35	938.55
377.54	933.87
377.74	915.15
377.93	873.02
378.13	901.11
378.33	961.96
378.52	985.37
378.72	966.64
378.91	961.96
379.11	1036.86
379.31	983.02
379.50	903.45
379.70	1013.45
379.89	933.87
380.09	954.94
380.28	994.73
380.48	950.26
380.68	887.06
380.87	938.55
381.07	987.71
381.26	1008.77
381.46	943.24
381.65	936.21
381.85	1069.62
382.04	1034.52
382.24	1104.73
382.43	1116.44
382.63	1064.94
382.83	1041.54
383.02	1116.44
383.22	1114.10
383.41	1025.15
383.61	1083.67
383.80	1107.07
384.00	1043.88
384.19	1132.82
384.39	1146.86
384.58	1067.28
384.78	1055.58
384.97	1163.25
385.17	1193.67
385.36	1146.86
385.56	1221.76
385.75	1165.59
385.95	1149.20
386.14	1200.69
386.34	1184.31
386.53	1214.74
386.72	1125.80
386.92	1186.65
387.11	1259.21
387.31	1299.00
387.50	1252.19
387.70	1221.76
387.89	1198.35
388.09	1301.34
388.28	1294.32
388.48	1287.29
388.67	1310.70
388.86	1317.72
389.06	1287.29
389.25	1320.06
389.45	1345.81
389.64	1247.51
389.84	1334.11
390.03	1387.94
390.22	1387.94
390.42	1324.74
390.61	1406.66
390.81	1430.07
391.00	1427.73
391.19	1465.18
391.39	1451.13
391.58	1481.56
391.78	1502.62
391.97	1490.92
392.16	1451.13
392.36	1495.60
392.55	1481.56
392.75	1598.59
392.94	1462.83
393.13	1493.26
393.33	1509.65
393.52	1514.33
393.71	1657.10
393.91	1638.38
394.10	1537.73
394.29	1572.84
394.49	1633.69
394.68	1600.93
394.88	1636.03
395.07	1757.74
395.26	1813.92
395.46	1661.78
395.65	1783.49
395.84	1706.25
396.04	1802.21
396.23	1757.74
396.42	1659.44
396.62	1694.55
396.81	1795.19
397.00	1856.04
397.19	1741.36
397.39	1785.83
397.58	1743.70
397.77	1863.07
397.97	1753.06
398.16	1928.60
398.35	1977.75
398.55	1832.64
398.74	1865.41
398.93	1902.86
399.12	1923.92
399.32	1860.73
399.51	1954.35
399.70	1980.09
399.90	1898.17
400.09	1956.69
400.28	2087.76
400.47	2017.54
400.67	2054.99
400.86	2118.18
401.05	2064.35
401.24	2050.31
401.44	2183.72
401.63	2188.40
401.82	2282.02
402.01	2099.46
402.21	2307.77
402.40	2139.25
402.59	2153.29
402.78	2211.81
402.97	2260.96
403.17	2251.60
403.36	2230.53
403.55	2291.38
403.74	2361.60
403.93	2354.58
404.13	2335.85
404.32	2361.60
404.51	2293.72
404.70	2436.50
404.89	2457.56
405.09	2527.78
405.28	2511.39
405.47	2438.84
405.66	2534.80
405.85	2609.70
406.05	2506.71
406.24	2590.97
406.43	2502.03
406.62	2654.17
406.81	2656.51
407.00	2553.52
407.20	2642.46
407.39	2581.61
407.58	2609.70
407.77	2752.47
407.96	2764.17
408.15	2944.39
408.34	2726.72
408.54	2871.84
408.73	2829.71
408.92	2834.39
409.11	2843.75
409.30	2855.45
409.49	3016.95
409.68	2986.52
409.87	2874.18
410.07	2965.46
410.26	2974.82
410.45	3028.65
410.64	3000.57
410.83	3152.70
411.02	3143.34
411.21	3204.19
411.40	3190.15
411.59	3262.71
411.78	3136.32
411.98	3180.79
412.17	3342.28
412.36	3351.65
412.55	3309.52
412.74	3328.24
412.93	3442.93
413.12	3335.26
413.31	3494.42
413.50	3419.52
413.69	3503.78
413.88	3651.24
414.07	3536.55
414.26	3723.79
414.45	3693.37
414.64	3684.00
414.83	3859.54
415.02	3747.20
415.22	3850.18
415.41	3824.44
415.60	3904.01
415.79	3896.99
415.98	3999.98
416.17	4100.62
416.36	3927.42
416.55	4035.08
416.74	4070.19
416.93	4084.23
417.12	4140.41
417.31	4109.98
417.50	4243.39
417.69	4306.59
417.88	4262.12
418.07	4217.65
418.26	4304.25
418.45	4297.22
418.64	4447.02
418.83	4400.21
419.02	4425.95
419.21	4538.30
419.39	4512.55
419.58	4454.04
419.77	4498.51
419.96	4704.48
420.15	4638.94
420.34	4622.56
420.53	4702.14
420.72	4669.37
420.91	4702.14
421.10	4617.88
421.29	4734.90
421.48	4781.71
421.67	4748.95
421.86	4896.40
422.05	4800.44
422.24	4891.72
422.43	4861.29
422.61	4711.50
422.80	4898.74
422.99	5078.96
423.18	4952.57
423.37	5055.56
423.56	4936.19
423.75	4891.72
423.94	5001.72
424.13	4676.39
424.32	4821.50
424.50	4968.96
424.69	5207.69
424.88	5067.26
425.07	4973.64
425.26	4903.42
425.45	4957.25
425.64	5020.45
425.83	5039.17
426.01	5090.67
426.20	5071.94
426.39	5118.75
426.58	4889.38
426.77	4987.68
426.96	5029.81
427.15	5043.85
427.33	5111.73
427.52	5156.20
427.71	5132.79
427.90	5294.29
428.09	5551.75
428.28	5364.51
428.46	5451.11
428.65	5324.72
428.84	5469.83
429.03	5533.03
429.22	5509.62
429.40	5530.69
429.59	5675.80
429.78	5228.76
429.97	5261.52
430.16	5500.26
430.34	5516.64
430.53	5764.74
430.72	5645.37
430.91	5689.84
431.10	5661.76
431.28	5762.40
431.47	5933.26
431.66	5902.83
431.85	5703.89
432.03	5916.87
432.22	5933.26
432.41	5928.58
432.60	6047.94
432.79	5827.93
432.97	5902.83
433.16	5973.05
433.35	5970.71
433.54	6090.07
433.72	6115.82
433.91	6106.46
434.10	6033.90
434.28	5987.09
434.47	6256.25
434.66	6361.58
434.85	6324.13
435.03	6293.70
435.22	6310.08
435.41	6347.53
435.59	6274.98
435.78	6424.77
435.97	6530.09
436.16	6532.44
436.34	6478.60
436.53	6328.81
436.72	6450.52
436.90	6331.15
437.09	6567.54
437.28	6504.35
437.46	6509.03
437.65	6684.57
437.84	6682.23
438.02	6682.23
438.21	6736.06
438.40	6565.20
438.58	6899.90
438.77	7009.90
438.96	7047.35
439.14	7218.21
439.33	7262.68
439.52	7030.97
439.70	7222.89
439.89	7382.05
440.08	7346.94
440.26	7463.97
440.45	7531.84
440.63	7485.03
440.82	7627.81
441.01	7534.18
441.19	7592.70
441.38	7620.78
441.57	7808.03
441.75	7747.17
441.94	7824.41
442.12	8086.55
442.31	7950.80
442.50	8028.04
442.68	7983.57
442.87	8102.93
443.05	8081.87
443.24	8222.30
443.43	8388.48
443.61	8290.18
443.80	8454.02
443.98	8161.45
444.17	7953.14
444.35	8250.39
444.54	8519.55
444.73	8479.76
444.91	8203.58
445.10	8336.99
445.28	8442.31
445.47	8163.79
445.65	8273.79
445.84	8538.27
446.02	8477.42
446.21	8446.99
446.39	8475.08
446.58	8400.18
446.77	8662.32
446.95	8439.97
447.14	8400.18
447.32	8898.72
447.51	8559.34
447.69	8514.87
447.88	8510.19
448.06	8531.25
448.25	8568.70
448.43	8559.34
448.62	8552.32
448.80	8542.96
448.99	8489.12
449.17	8994.68
449.36	8575.72
449.54	8809.78
449.73	8940.85
449.91	9041.49
450.10	9102.34
450.28	9074.26
450.46	9305.97
450.65	9174.90
450.83	9109.36
451.02	8968.93
451.20	9048.51
451.39	9202.99
451.57	9310.65
451.76	9071.92
451.94	9032.13
452.13	9329.38
452.31	9390.23
452.49	9219.37
452.68	9195.96
452.86	9287.25
453.05	9488.53
453.23	9282.56
453.42	9434.70
453.60	9518.96
453.78	9689.82
453.97	9357.46
454.15	9451.08
454.34	9359.80
454.52	9657.05
454.70	9893.44
454.89	9905.15
455.07	9937.91
455.26	9912.17
455.44	9954.30
455.62	9942.60
455.81	9947.28
455.99	9851.31
456.17	9905.15
456.36	9968.34
456.54	10136.86
456.73	10209.42
456.91	10562.84
457.09	10394.32
457.28	10626.03
457.46	10525.39
457.64	10661.14
457.83	10417.72
458.01	10483.26
458.19	10633.05
458.38	10518.37
458.56	10787.53
458.74	10794.55
458.93	10740.72
459.11	10651.78
459.29	10654.12
459.48	10885.83
459.66	10787.53
459.84	11030.94
460.03	11002.86
460.21	10881.15
460.39	10839.02
460.57	11066.05
460.76	11215.85
460.94	11396.07
461.12	11190.10
461.31	11267.34
461.49	11314.15
461.67	11047.33
461.85	11454.58
462.04	11265.00
462.22	11580.97
462.40	11618.42
462.59	11337.56
462.77	11681.61
462.95	11592.67
463.13	11740.13
463.32	11763.53
463.50	11889.92
463.68	11665.23
463.86	11915.67
464.05	11763.53
464.23	11836.09
464.41	11934.39
464.59	11763.53
464.78	12102.91
464.96	12229.30
465.14	11793.96
465.32	12084.19
465.50	12292.49
465.69	12273.77
465.87	12255.04
466.05	12184.83
466.23	12217.60
466.41	12409.52
466.60	12461.01
466.78	12446.97
466.96	12140.36
467.14	12470.37
467.32	12308.88
467.51	12592.08
467.69	12081.85
467.87	12699.75
468.05	12528.89
468.23	12428.24
468.41	12376.75
468.60	12627.19
468.78	12547.61
468.96	12596.76
469.14	12751.24
469.32	13170.19
469.50	12837.84
469.69	13074.23
469.87	13029.76
470.05	12898.69
470.23	13088.28
470.41	13118.70
470.59	13334.03
470.77	13336.37
470.95	13261.48
471.14	13720.22
471.32	13055.51
471.50	13790.44
471.68	13525.96
471.86	13671.07
472.04	13671.07
472.22	13965.98
472.40	13561.06
472.58	13813.84
472.77	14071.30
472.95	14207.05
473.13	14436.42
473.31	14083.00
473.49	14223.44
473.67	14298.33
473.85	14415.36
474.03	14707.93
474.21	14504.30
474.39	14693.88
474.57	14600.26
474.75	14979.43
474.93	15164.33
475.12	14965.39
475.30	15129.22
475.48	14960.70
475.66	15262.63
475.84	15157.31
476.02	15330.51
476.20	15335.19
476.38	15768.19
476.56	15971.82
476.74	16180.12
476.92	15817.34
477.10	15845.43
477.28	16313.53
477.46	16112.25
477.64	16603.76
477.82	16713.77
478.00	17146.76
478.18	16828.45
478.36	16856.54
478.54	17160.81
478.72	17125.70
478.90	17500.19
479.08	17465.08
479.26	17722.54
479.44	17706.15
479.62	17785.73
479.80	17891.06
479.98	18136.81
480.16	18506.62
480.34	18518.32
480.52	18593.22
480.70	18443.42
480.88	18384.91
481.06	19037.92
481.24	18766.42
481.41	19220.48
481.59	19428.79
481.77	19173.67
481.95	19583.26
482.13	20032.65
482.31	19779.87
482.49	20477.35
482.67	20287.76
482.85	20685.65
483.03	20720.76
483.21	20631.82
483.39	21130.36
483.57	20922.05
483.74	21123.33
483.92	21535.27
484.10	21341.00
484.28	21961.25
484.46	22148.49
484.64	22286.58
484.82	21989.33
485.00	22441.06
485.18	22885.76
485.35	22981.72
485.53	23035.55
485.71	23012.15
485.89	23843.04
486.07	23410.04
486.25	23339.82
486.43	23784.52
486.61	23843.04
486.78	24084.11
486.96	24287.74
487.14	24423.49
487.32	24601.37
487.50	25003.94
487.68	25411.20
487.85	25340.98
488.03	25539.93
488.21	26162.51
488.39	25919.09
488.57	26448.05
488.75	26211.66
488.92	26546.36
489.10	26682.11
489.28	26995.74
489.46	27335.12
489.64	26974.67
489.81	27751.73
489.99	27824.29
490.17	27866.42
490.35	27967.06
490.53	28039.62
490.70	28641.14
490.88	28250.27
491.06	28943.06
491.24	28599.01
491.41	28950.09
491.59	29123.29
491.77	29647.57
491.95	29827.79
492.13	30043.12
492.30	30101.63
492.48	30251.42
492.66	30251.42
492.84	30115.67
493.01	30614.21
493.19	30932.52
493.37	30995.71
493.54	30995.71
493.72	31388.92
493.90	31475.52
494.08	32292.37
494.25	32290.03
494.43	31990.44
494.61	32383.65
494.79	32804.95
494.96	32388.33
495.14	32751.12
495.32	33055.39
495.49	33228.59
495.67	33322.21
495.85	33366.68
496.02	34307.57
496.20	34089.90
496.38	34581.42
496.55	34127.35
496.73	35192.30
496.91	34941.86
497.09	34881.00
497.26	35138.46
497.44	34962.92
497.62	35405.28
497.79	35913.18
497.97	35810.20
498.14	36128.51
498.32	36371.92
498.50	36079.36
498.67	36830.67
498.85	36926.63
499.03	37127.92
499.20	37071.75
499.38	36957.06
499.56	37050.68
499.73	37310.48
499.91	37361.97
500.08	38061.79
500.26	37542.19
500.44	37923.70
500.61	38143.71
500.79	37949.45
500.97	38061.79
501.14	38883.32
501.32	38735.87
501.49	38625.86
501.67	38672.67
501.84	38953.54
502.02	38787.36
502.20	39679.10
502.37	39557.39
502.55	39761.02
502.72	39601.86
502.90	39423.98
503.07	40140.19
503.25	39917.84
503.43	40191.68
503.60	40261.90
503.78	40318.07
503.95	40304.02
504.13	40666.81
504.30	40875.12
504.48	40751.07
504.65	40680.85
504.83	41188.75
505.01	41361.95
505.18	41373.65
505.36	41607.70
505.53	41368.97
505.71	41935.38
505.88	42014.96
506.06	41982.19
506.23	42265.39
506.41	42087.51
506.58	42490.09
506.76	42424.55
506.93	42253.69
507.11	42480.72
507.28	42604.77
507.46	42969.90
507.63	43377.15
507.81	42899.68
507.98	42792.01
508.16	43299.91
508.33	43456.73
508.50	43735.25
508.68	43981.01
508.85	44027.82
509.03	44116.76
509.20	44172.93
509.38	44315.70
509.55	45062.33
509.73	44612.95
509.90	44781.47
510.08	44765.09
510.25	44832.96
510.42	44783.81
510.60	44802.53
510.77	45191.06
510.95	45720.02
511.12	45567.89
511.30	45399.37
511.47	45832.37
511.64	45984.51
511.82	46272.39
511.99	46143.66
512.17	45977.48
512.34	45717.68
512.51	46494.74
512.69	46784.97
512.86	46555.60
513.04	46740.50
513.21	46330.90
513.38	46679.64
513.56	46864.55
513.73	46806.03
513.90	47047.11
514.08	47023.70
514.25	47147.75
514.43	48051.20
514.60	47449.68
514.77	47157.11
514.95	47777.36
515.12	47828.85
515.29	47512.88
515.47	48460.79
515.64	48465.47
515.81	47753.95
515.99	48196.31
516.16	48729.95
516.33	48294.61
516.51	49088.06
516.68	48636.33
516.85	48472.49
517.03	48758.04
517.20	48935.92
517.37	49434.45
517.54	48938.26
517.72	49240.19
517.89	49191.04
518.06	49251.89
518.24	49406.37
518.41	49481.27
518.58	49450.84
518.75	49038.90
518.93	50007.89
519.10	49495.31
519.27	49937.67
519.45	49872.14
519.62	50192.79
519.79	50436.20
519.96	50279.39
520.14	49937.67
520.31	50433.86
520.48	50454.93
520.65	50490.04
520.83	50852.82
521.00	50813.03
521.17	50838.78
521.34	51011.98
521.52	50710.05
521.69	51243.69
521.86	51107.94
522.03	50890.27
522.20	51564.34
522.38	51810.10
522.55	51400.50
522.72	51695.41
522.89	51253.05
523.07	51934.15
523.24	51767.97
523.41	51875.63
523.58	51421.57
523.75	52102.67
523.92	51931.81
524.10	52226.71
524.27	51969.26
524.44	52287.57
524.61	52336.72
524.78	52301.61
524.96	52350.76
525.13	52645.67
525.30	52353.10
525.47	52809.51
525.64	52500.56
525.81	52973.34
525.98	52882.06
526.16	52802.49
526.33	52685.46
526.50	53076.33
526.67	52774.40
526.84	53286.98
527.01	52987.39
527.18	53015.47
527.36	53064.63
527.53	53195.70
527.70	53378.26
527.87	53530.39
528.04	53167.61
528.21	53404.00
528.38	53436.77
528.55	53476.56
528.72	53340.81
528.89	53535.07
529.07	53422.73
529.24	53593.59
529.41	53867.43
529.58	53689.55
529.75	53799.55
529.92	53984.46
530.09	54012.54
530.26	54106.16
530.43	53951.69
530.60	53991.48
530.77	53602.95
530.94	53944.67
531.11	54021.90
531.28	54071.06
531.46	54511.08
531.63	54403.41
531.80	54700.66
531.97	54700.66
532.14	54686.62
532.31	54597.68
532.48	54562.57
532.65	54681.94
532.82	54443.20
532.99	54600.02
533.16	54791.94
533.33	54756.83
533.50	55042.38
533.67	54941.74
533.84	54691.30
534.01	55054.08
534.18	55119.62
534.35	55458.99
534.52	55201.53
534.69	55437.93
534.86	55388.78
535.03	55278.77
535.20	55271.75
535.37	55323.24
535.54	55571.34
535.71	55278.77
535.88	55435.59
536.05	55374.73
536.22	55489.42
536.38	55484.74
536.55	55531.55
536.72	55803.05
536.89	55547.93
537.06	55842.84
537.23	55814.76
537.40	55810.07
537.57	55695.39
537.74	55810.07
537.91	56170.52
538.08	55978.59
538.25	55924.76
538.42	56177.54
538.59	56292.22
538.75	55976.25
538.92	56282.86
539.09	56451.38
539.26	56261.80
539.43	56114.34
539.60	56259.46
539.77	56273.50
539.94	56294.56
540.11	56367.12
540.28	56509.89
540.44	56355.42
540.61	56332.01
540.78	56397.55
540.95	56610.54
541.12	56332.01
541.29	56540.32
541.46	56610.54
541.62	56505.21
541.79	56743.95
541.96	56404.57
542.13	56727.56
542.30	56678.41
542.47	56900.76
542.63	56790.76
542.80	57088.01
542.97	57275.25
543.14	57228.44
543.31	57298.65
543.48	57462.49
543.64	57521.01
543.81	57462.49
543.98	57415.68
544.15	57446.11
544.32	57696.55
544.48	57708.25
544.65	57443.77
544.82	57560.79
544.99	57614.63
545.16	57460.15
545.32	57682.50
545.49	57787.83
545.66	57804.21
545.83	57619.31
546.00	57918.90
546.16	57717.61
546.33	57584.20
546.50	57584.20
546.67	57677.82
546.83	57481.22
547.00	57921.24
547.17	57893.15
547.34	57759.74
547.50	57975.07
547.67	58164.65
547.84	57998.48
548.00	58316.79
548.17	58190.40
548.34	58216.14
548.51	58239.55
548.67	58328.49
548.84	58410.41
549.01	58234.87
549.18	58152.95
549.34	58450.20
549.51	58375.30
549.68	58541.48
549.84	58281.68
550.01	58471.26
550.18	58548.50
550.34	58546.16
550.51	58705.32
550.68	58426.79
550.84	58394.03
551.01	58499.35
551.18	58625.74
551.34	58728.72
551.51	58728.72
551.68	58667.87
551.84	58705.32
552.01	58665.53
552.18	58770.85
552.34	58497.01
552.51	59004.91
552.68	58773.19
552.84	58775.53
553.01	59098.53
553.18	58946.39
553.34	58880.86
553.51	58955.75
553.67	59040.01
553.84	59068.10
554.01	59044.69
554.17	58880.86
554.34	59135.98
554.51	59084.48
554.67	59143.00
554.84	59058.74
555.00	59178.10
555.17	59257.68
555.33	59253.00
555.50	59157.04
555.67	59208.53
555.83	59021.29
556.00	59297.47
556.16	59657.91
556.33	59372.37
556.50	59285.77
556.66	59461.31
556.83	59110.23
556.99	59561.95
557.16	59494.08
557.32	59629.83
557.49	59758.56
557.65	59522.16
557.82	59568.97
557.98	59405.14
558.15	59657.91
558.32	59657.91
558.48	59585.36
558.65	59545.57
558.81	59686.00
558.98	59578.34
559.14	59650.89
559.31	59763.24
559.47	59681.32
559.64	59976.23
559.80	59845.16
559.97	59840.48
560.13	59674.30
560.30	59756.22
560.46	59927.08
560.63	59962.18
560.79	59938.78
560.96	59985.59
561.12	59744.51
561.29	59983.25
561.45	59821.75
561.61	60055.81
561.78	59983.25
561.94	59643.87
562.11	60065.17
562.27	60023.04
562.44	60062.83
562.60	60037.08
562.77	60023.04
562.93	59805.37
563.10	60058.15
563.26	60079.21
563.42	60212.62
563.59	60072.19
563.75	60109.64
563.92	60135.38
564.08	60037.08
564.24	60247.73
564.41	60128.36
564.57	60067.51
564.74	60254.75
564.90	60168.15
565.07	60060.49
565.23	60116.66
565.39	60196.24
565.56	60186.88
565.72	60210.28
565.88	60287.52
566.05	60261.77
566.21	60165.81
566.38	60355.39
566.54	60580.09
566.70	60472.42
566.87	60645.62
567.03	60247.73
567.19	60409.23
567.36	60481.78
567.52	60353.05
567.68	60622.22
567.85	60514.55
568.01	60626.90
568.17	60331.99
568.34	60622.22
568.50	60399.86
568.66	60154.11
568.83	60397.52
568.99	60460.72
569.15	60446.68
569.32	60612.85
569.48	60399.86
569.64	60694.77
569.81	60697.11
569.97	60341.35
570.13	60355.39
570.30	60348.37
570.46	60573.06
570.62	60741.58
570.78	60699.45
570.95	60636.26
571.11	60779.03
571.27	60617.53
571.43	60626.90
571.60	60619.88
571.76	60622.22
571.92	60727.54
572.09	60720.52
572.25	60554.34
572.41	60467.74
572.57	60624.56
572.74	60882.02
572.90	60610.51
573.06	60645.62
573.22	60631.58
573.38	60917.12
573.55	60685.41
573.71	61062.24
573.87	60666.69
574.03	60406.89
574.20	60832.86
574.36	60739.24
574.52	60832.86
574.68	60769.67
574.84	60900.74
575.01	60692.43
575.17	60977.98
575.33	60797.76
575.49	60788.39
575.65	60697.11
575.82	60856.27
575.98	60669.03
576.14	60882.02
576.30	60896.06
576.46	60811.80
576.62	60650.30
576.79	60970.96
576.95	60554.34
577.11	60856.27
577.27	60980.32
577.43	60821.16
577.59	60615.19
577.75	60832.86
577.92	60912.44
578.08	60720.52
578.24	60797.76
578.40	61188.63
578.56	61097.34
578.72	60994.36
578.88	61097.34
579.04	61186.28
579.21	60867.97
579.37	61095.00
579.53	61073.94
579.69	60928.83
579.85	60961.59
580.01	60884.36
580.17	60865.63
580.33	61092.66
580.49	61097.34
580.65	61113.73
580.82	60851.59
580.98	60800.10
581.14	60966.27
581.30	61006.06
581.46	60914.78
581.62	61130.11
581.78	60905.42
581.94	61043.51
582.10	60947.55
582.26	61151.18
582.42	61038.83
582.58	60910.10
582.74	61052.87
582.90	61010.74
583.06	61031.81
583.22	60676.05
583.38	60928.83
583.54	60860.95
583.70	61134.79
583.86	61027.13
584.02	60893.72
584.18	61029.47
584.34	61134.79
584.50	61062.24
584.66	61249.48
584.82	60905.42
584.98	61052.87
585.14	61221.39
585.30	60928.83
585.46	61144.16
585.62	61153.52
585.78	61104.37
585.94	61036.49
586.10	61013.08
586.26	61034.15
586.42	61022.45
586.58	61223.73
586.74	61186.28
586.90	61013.08
587.06	61050.53
587.22	61361.82
587.38	61270.54
587.54	61134.79
587.70	61167.56
587.86	61249.48
588.02	61263.52
588.18	61394.59
588.34	61066.92
588.49	61200.33
