SpectraSuite Data File
++++++++++++++++++++++++++++++++++++
Date: Fri Oct 25 11:23:20 EDT 2013
User: price-jones
Dark Spectrum Present: No
Reference Spectrum Present: No
Number of Sampled Component Spectra: 1
Spectrometers: USB2+H05261
Integration Time (usec): 100000 (USB2+H05261)
Spectra Averaged: 1 (USB2+H05261)
Boxcar Smoothing: 0 (USB2+H05261)
Correct for Electrical Dark: No (USB2+H05261)
Strobe/Lamp Enabled: No (USB2+H05261)
Correct for Detector Non-linearity: No (USB2+H05261)
Correct for Stray Light: No (USB2+H05261)
Number of Pixels in Processed Spectrum: 2048
>>>>>Begin Processed Spectral Data<<<<<
365.73	187.24
365.92	187.24
366.12	187.24
366.32	126.39
366.52	140.43
366.72	145.11
366.91	135.75
367.11	159.16
367.31	189.58
367.51	81.92
367.70	70.22
367.90	198.95
368.10	131.07
368.30	124.05
368.49	156.82
368.69	142.77
368.89	159.16
369.09	140.43
369.28	145.11
369.48	133.41
369.68	210.65
369.87	159.16
370.07	107.66
370.27	238.73
370.47	255.12
370.66	601.52
370.86	690.46
371.06	629.60
371.25	648.33
371.45	622.58
371.65	734.93
371.84	685.78
372.04	582.79
372.24	720.88
372.44	683.44
372.63	732.59
372.83	807.48
373.03	795.78
373.22	737.27
373.42	748.97
373.62	791.10
373.81	809.83
374.01	786.42
374.21	875.36
374.40	805.14
374.60	793.44
374.79	755.99
374.99	870.68
375.19	760.67
375.38	842.59
375.58	987.71
375.78	866.00
375.97	744.29
376.17	961.96
376.37	802.80
376.56	877.70
376.76	889.40
376.95	784.08
377.15	924.51
377.35	863.66
377.54	950.26
377.74	938.55
377.93	1039.20
378.13	903.45
378.33	994.73
378.52	950.26
378.72	898.77
378.91	908.13
379.11	992.39
379.31	936.21
379.50	987.71
379.70	1074.31
379.89	992.39
380.09	985.37
380.28	978.34
380.48	924.51
380.68	924.51
380.87	1018.13
381.07	931.53
381.26	1029.84
381.46	1043.88
381.65	1111.75
381.85	1102.39
382.04	1090.69
382.24	1095.37
382.43	1011.11
382.63	1032.18
382.83	961.96
383.02	1081.33
383.22	1036.86
383.41	1011.11
383.61	1196.01
383.80	1137.50
384.00	1170.27
384.19	1114.10
384.39	1067.28
384.58	1090.69
384.78	1093.03
384.97	1177.29
385.17	1128.14
385.36	1165.59
385.56	1207.72
385.75	1203.04
385.95	1163.25
386.14	1121.12
386.34	1212.40
386.53	1217.08
386.72	1179.63
386.92	1282.61
387.11	1210.06
387.31	1266.23
387.50	1270.91
387.70	1254.53
387.89	1296.66
388.09	1284.95
388.28	1282.61
388.48	1254.53
388.67	1320.06
388.86	1294.32
389.06	1313.04
389.25	1385.60
389.45	1378.58
389.64	1413.68
389.84	1434.75
390.03	1289.64
390.22	1380.92
390.42	1488.58
390.61	1355.17
390.81	1441.77
391.00	1376.24
391.19	1469.86
391.39	1497.94
391.58	1549.43
391.78	1507.30
391.97	1490.92
392.16	1483.90
392.36	1549.43
392.55	1444.11
392.75	1547.09
392.94	1561.14
393.13	1570.50
393.33	1526.03
393.52	1706.25
393.71	1509.65
393.91	1593.90
394.10	1535.39
394.29	1621.99
394.49	1514.33
394.68	1687.53
394.88	1565.82
395.07	1694.55
395.26	1673.48
395.46	1717.95
395.65	1760.08
395.84	1736.68
396.04	1830.30
396.23	1694.55
396.42	1778.81
396.62	1832.64
396.81	1762.42
397.00	1818.60
397.19	1832.64
397.39	1842.00
397.58	1877.11
397.77	1874.77
397.97	1809.23
398.16	1778.81
398.35	1877.11
398.55	1842.00
398.74	1984.77
398.93	1996.48
399.12	1886.47
399.32	1877.11
399.51	1914.56
399.70	1975.41
399.90	2003.50
400.09	2038.61
400.28	2062.01
400.47	2003.50
400.67	2160.31
400.86	2087.76
401.05	2078.40
401.24	2071.37
401.44	2071.37
401.63	2160.31
401.82	2200.10
402.01	2064.35
402.21	2256.28
402.40	2270.32
402.59	2303.09
402.78	2179.04
402.97	2211.81
403.17	2389.69
403.36	2354.58
403.55	2242.23
403.74	2368.62
403.93	2392.03
404.13	2469.27
404.32	2387.35
404.51	2363.94
404.70	2436.50
404.89	2340.54
405.09	2473.95
405.28	2436.50
405.47	2530.12
405.66	2504.37
405.85	2429.48
406.05	2609.70
406.24	2553.52
406.43	2523.10
406.62	2684.59
406.81	2757.15
407.00	2593.31
407.20	2541.82
407.39	2743.11
407.58	2818.00
407.77	2698.64
407.96	2822.69
408.15	2780.56
408.34	2782.90
408.54	2813.32
408.73	2815.66
408.92	2834.39
409.11	2853.11
409.30	3028.65
409.49	2928.01
409.68	3007.59
409.87	3042.70
410.07	2993.55
410.26	3047.38
410.45	3054.40
410.64	3110.57
410.83	3213.56
411.02	3159.72
411.21	3082.49
411.40	3187.81
411.59	3279.09
411.78	3208.87
411.98	3265.05
412.17	3426.54
412.36	3309.52
412.55	3377.39
412.74	3330.58
412.93	3365.69
413.12	3400.80
413.31	3454.63
413.50	3578.68
413.69	3574.00
413.88	3684.00
414.07	3496.76
414.26	3623.15
414.45	3707.41
414.64	3681.66
414.83	3798.69
415.02	3758.90
415.22	3861.88
415.41	3864.22
415.60	4018.70
415.79	4035.08
415.98	3976.57
416.17	3967.21
416.36	4065.51
416.55	4016.36
416.74	4105.30
416.93	4095.94
417.12	4149.77
417.31	4294.88
417.50	4236.37
417.69	4402.55
417.88	4269.14
418.07	4184.88
418.26	4299.56
418.45	4348.72
418.64	4379.14
418.83	4517.23
419.02	4510.21
419.21	4510.21
419.39	4447.02
419.58	4566.39
419.77	4484.47
419.96	4521.92
420.15	4664.69
420.34	4688.09
420.53	4636.60
420.72	4744.27
420.91	4788.74
421.10	4699.80
421.29	4856.61
421.48	4699.80
421.67	4873.00
421.86	4865.97
422.05	4873.00
422.24	4905.76
422.43	4917.47
422.61	4985.34
422.80	4971.30
422.99	5025.13
423.18	5055.56
423.37	5146.84
423.56	5048.54
423.75	4798.10
423.94	4910.44
424.13	4547.66
424.32	4873.00
424.50	4971.30
424.69	5280.25
424.88	5135.14
425.07	4950.23
425.26	5062.58
425.45	5102.37
425.64	5144.50
425.83	5088.32
426.01	5270.89
426.20	4954.91
426.39	5153.86
426.58	5362.17
426.77	5238.12
426.96	5210.03
427.15	5118.75
427.33	5404.30
427.52	5193.65
427.71	5380.89
427.90	5345.78
428.09	5359.83
428.28	5439.40
428.46	5533.03
428.65	5439.40
428.84	5521.32
429.03	5533.03
429.22	5399.62
429.40	5518.98
429.59	5694.52
429.78	5310.68
429.97	5359.83
430.16	5724.95
430.34	5561.11
430.53	5703.89
430.72	5668.78
430.91	5682.82
431.10	5708.57
431.28	5799.85
431.47	5989.43
431.66	5989.43
431.85	5774.10
432.03	5877.09
432.22	6113.48
432.41	6031.56
432.60	6017.52
432.79	6087.73
432.97	5991.77
433.16	6118.16
433.35	6214.12
433.54	6150.93
433.72	6263.27
433.91	6244.55
434.10	6389.66
434.28	6169.65
434.47	6200.08
434.66	6242.21
434.85	6307.74
435.03	6331.15
435.22	6487.96
435.41	6504.35
435.59	6434.13
435.78	6373.28
435.97	6499.67
436.16	6387.32
436.34	6429.45
436.53	6565.20
436.72	6796.92
436.90	6424.77
437.09	6607.33
437.28	6628.40
437.46	6626.06
437.65	6719.68
437.84	6878.83
438.02	6750.10
438.21	6834.36
438.40	6736.06
438.58	7119.91
438.77	7222.89
438.96	7059.06
439.14	7255.66
439.33	7215.87
439.52	7176.08
439.70	7183.10
439.89	7651.21
440.08	7494.40
440.26	7487.37
440.45	7520.14
440.63	7583.34
440.82	7667.60
441.01	7648.87
441.19	7543.55
441.38	7941.44
441.57	7854.84
441.75	8067.83
441.94	8226.98
442.12	8002.29
442.31	8306.56
442.50	8070.17
442.68	7962.50
442.87	8060.80
443.05	8177.83
443.24	8336.99
443.43	8170.81
443.61	8163.79
443.80	8301.88
443.98	8166.13
444.17	7964.84
444.35	8269.11
444.54	8594.45
444.73	8241.03
444.91	8325.29
445.10	8430.61
445.28	8589.77
445.47	8325.29
445.65	8416.57
445.84	8491.46
446.02	8711.47
446.21	8393.16
446.39	8404.86
446.58	8615.51
446.77	8542.96
446.95	8381.46
447.14	8521.89
447.32	8531.25
447.51	8657.64
447.69	8606.15
447.88	8652.96
448.06	8662.32
448.25	8517.21
448.43	8671.68
448.62	8662.32
448.80	8812.12
448.99	8624.87
449.17	8659.98
449.36	8774.67
449.54	8968.93
449.73	9114.05
449.91	9046.17
450.10	9032.13
450.28	9109.36
450.46	9205.33
450.65	9130.43
450.83	9111.71
451.02	8980.64
451.20	9387.89
451.39	9373.85
451.57	9184.26
451.76	9114.05
451.94	9268.52
452.13	9462.79
452.31	9413.63
452.49	9462.79
452.68	9500.23
452.86	9479.17
453.05	9387.89
453.23	9699.18
453.42	9483.85
453.60	9577.47
453.78	9652.37
453.97	9502.58
454.15	9680.46
454.34	9521.30
454.52	9778.76
454.70	9851.31
454.89	9797.48
455.07	9846.63
455.26	9799.82
455.44	9912.17
455.62	10101.75
455.81	10064.30
455.99	10183.67
456.17	10106.43
456.36	10228.14
456.54	10286.65
456.73	10272.61
456.91	10459.85
457.09	10434.11
457.28	10511.35
457.46	10251.55
457.64	10712.63
457.83	10736.04
458.01	10464.54
458.19	10848.38
458.38	10824.98
458.56	10902.22
458.74	11115.20
458.93	11016.90
459.11	10949.03
459.29	10911.58
459.48	11136.27
459.66	10803.91
459.84	11108.18
460.03	11075.42
460.21	11091.80
460.39	11159.67
460.57	11147.97
460.76	11087.12
460.94	11477.99
461.12	11272.02
461.31	11246.27
461.49	11220.53
461.67	11346.92
461.85	11674.59
462.04	11367.98
462.22	11396.07
462.40	11686.29
462.59	11613.74
462.77	11679.27
462.95	11845.45
463.13	11749.49
463.32	11805.66
463.50	11889.92
463.68	12051.42
463.86	12065.46
464.05	11733.11
464.23	11737.79
464.41	11850.13
464.59	11721.40
464.78	12343.99
464.96	12011.63
465.14	11932.05
465.32	12252.70
465.50	12325.26
465.69	12493.78
465.87	12514.84
466.05	12191.85
466.23	12414.20
466.41	12444.63
466.60	12786.35
466.78	12135.68
466.96	12271.43
467.14	12542.93
467.32	12601.44
467.51	12800.39
467.69	12285.47
467.87	12685.70
468.05	12638.89
468.23	12465.69
468.41	12688.04
468.60	12678.68
468.78	13004.02
468.96	12671.66
469.14	13062.53
469.32	13083.59
469.50	12589.74
469.69	13095.30
469.87	13287.22
470.05	13156.15
470.23	13273.18
470.41	13303.60
470.59	13476.80
470.77	13170.19
470.95	13598.51
471.14	13647.66
471.32	13277.86
471.50	13685.11
471.68	13624.26
471.86	13862.99
472.04	13977.68
472.22	13947.25
472.40	13916.83
472.58	13912.14
472.77	14178.97
472.95	14160.24
473.13	14508.98
473.31	14398.98
473.49	14200.03
473.67	14335.78
473.85	14574.52
474.03	14839.00
474.21	14831.97
474.39	14843.68
474.57	14998.15
474.75	15110.50
474.93	15007.52
475.12	15218.16
475.30	15307.10
475.48	15407.75
475.66	15428.81
475.84	15281.36
476.02	15541.16
476.20	15768.19
476.38	15885.22
476.56	16070.12
476.74	16402.47
476.92	16264.38
477.10	16086.50
477.28	16563.97
477.46	16657.59
477.64	16652.91
477.82	16512.48
478.00	17334.01
478.18	17062.51
478.36	17090.59
478.54	17200.60
478.72	17350.39
478.90	17371.46
479.08	17848.93
479.26	18019.78
479.44	17823.18
479.62	18066.60
479.80	18373.21
479.98	18560.45
480.16	18485.55
480.34	18527.68
480.52	18761.73
480.70	18925.57
480.88	18539.38
481.06	18916.21
481.24	19002.81
481.41	19164.31
481.59	19630.07
481.77	19555.18
481.95	19646.46
482.13	20149.67
482.31	20060.73
482.49	20121.59
482.67	20285.42
482.85	20381.38
483.03	20699.70
483.21	20877.58
483.39	21294.19
483.57	21074.18
483.74	21319.94
483.92	21682.72
484.10	21479.10
484.28	21914.44
484.46	22232.75
484.64	22588.51
484.82	22101.68
485.00	22494.89
485.18	23014.49
485.35	23143.22
485.53	23073.00
485.71	23594.94
485.89	23475.57
486.07	23552.81
486.25	23810.27
486.43	23868.78
486.61	24116.88
486.78	24477.32
486.96	24311.14
487.14	24730.10
487.32	25153.74
487.50	24975.86
487.68	25233.32
487.85	25954.20
488.03	25921.43
488.21	26417.63
488.39	26127.40
488.57	26377.84
488.75	26625.93
488.92	26874.03
489.10	27101.06
489.28	26869.35
489.46	27590.24
489.64	27449.80
489.81	27971.74
489.99	28191.75
490.17	27721.30
490.35	28528.79
490.53	28687.95
490.70	28734.76
490.88	28687.95
491.06	29156.05
491.24	29352.66
491.41	29422.87
491.59	29851.19
491.77	29860.55
491.95	30115.67
492.13	30118.01
492.30	30251.42
492.48	30696.13
492.66	30291.21
492.84	30754.64
493.01	31253.17
493.19	30532.29
493.37	31512.97
493.54	31637.02
493.72	31817.24
493.90	31786.82
494.08	31941.29
494.25	32561.53
494.43	32793.25
494.61	32507.70
494.79	32994.53
494.96	32776.86
495.14	33191.14
495.32	33940.11
495.49	33589.03
495.67	33443.91
495.85	33883.94
496.02	34148.42
496.20	34335.66
496.38	34108.63
496.55	34216.29
496.73	35105.70
496.91	34487.79
497.09	35105.70
497.26	35377.20
497.44	35505.93
497.62	35379.54
497.79	36493.63
497.97	36065.31
498.14	36577.89
498.32	36362.56
498.50	36737.05
498.67	37050.68
498.85	36559.17
499.03	36861.10
499.20	37586.66
499.38	37441.55
499.56	37404.10
499.73	37640.50
499.91	38396.49
500.08	38064.13
500.26	37682.62
500.44	38141.37
500.61	38132.01
500.79	38115.62
500.97	38670.33
501.14	39566.76
501.32	39019.07
501.49	38990.98
501.67	39536.33
501.84	39676.76
502.02	38569.69
502.20	39337.38
502.37	39573.78
502.55	40011.46
502.72	39866.34
502.90	40210.40
503.07	39824.22
503.25	40437.44
503.43	40135.51
503.60	40659.79
503.78	41111.51
503.95	40882.14
504.13	41429.82
504.30	41123.21
504.48	40732.34
504.65	41069.38
504.83	41439.18
505.01	41560.89
505.18	41940.06
505.36	42043.04
505.53	41577.28
505.71	42351.99
505.88	42239.65
506.06	41907.29
506.23	42171.77
506.41	42410.51
506.58	42244.33
506.76	42445.62
506.93	42997.98
507.11	43182.88
507.28	43021.39
507.46	43089.26
507.63	43597.16
507.81	43545.67
507.98	43587.80
508.16	43533.96
508.33	43845.26
508.50	43821.85
508.68	43838.23
508.85	44594.23
509.03	44020.80
509.20	44575.50
509.38	44945.31
509.55	45055.31
509.73	44814.24
509.90	45008.50
510.08	44945.31
510.25	44957.01
510.42	45382.99
510.60	45457.88
510.77	45937.69
510.95	45977.48
511.12	45724.71
511.30	45387.67
511.47	45933.01
511.64	46031.32
511.82	46344.95
511.99	45858.12
512.17	46335.59
512.34	46253.67
512.51	46742.84
512.69	46927.74
512.86	46822.42
513.04	46677.30
513.21	47416.91
513.38	47035.41
513.56	47728.20
513.73	47161.79
513.90	47569.05
514.08	47206.26
514.25	47693.10
514.43	47936.51
514.60	47814.80
514.77	47297.55
514.95	48069.92
515.12	47667.35
515.29	47845.23
515.47	48512.28
515.64	48495.90
515.81	48303.98
515.99	48863.36
516.16	49066.99
516.33	48844.64
516.51	49130.19
516.68	49041.24
516.85	48856.34
517.03	49111.46
517.20	49572.55
517.37	49195.72
517.54	49399.35
517.72	49553.82
517.89	49848.73
518.06	49439.14
518.24	49736.38
518.41	49712.98
518.58	49757.45
518.75	49469.56
518.93	49916.61
519.10	50143.64
519.27	49886.18
519.45	50452.59
519.62	50595.36
519.79	50335.56
519.96	50246.62
520.14	50504.08
520.31	50225.56
520.48	50862.18
520.65	50688.98
520.83	50930.06
521.00	51456.68
521.17	50731.11
521.34	51051.76
521.52	51030.70
521.69	51419.23
521.86	51215.60
522.03	51227.31
522.20	51550.30
522.38	51746.90
522.55	51817.12
522.72	51957.55
522.89	51753.93
523.07	52062.88
523.24	52093.30
523.41	51957.55
523.58	51817.12
523.75	52439.70
523.92	52350.76
524.10	52512.26
524.27	52303.95
524.44	52535.66
524.61	52547.37
524.78	52383.53
524.96	52774.40
525.13	52678.44
525.30	52659.71
525.47	53085.69
525.64	52828.23
525.81	52830.57
525.98	52978.03
526.16	53116.12
526.33	53038.88
526.50	53132.50
526.67	52837.59
526.84	53305.70
527.01	52996.75
527.18	53294.00
527.36	53195.70
527.53	53429.75
527.70	53638.06
527.87	53708.27
528.04	53364.21
528.21	53808.92
528.38	53518.69
528.55	53729.34
528.72	53757.42
528.89	53759.76
529.07	53822.96
529.24	53539.75
529.41	54005.52
529.58	53897.86
529.75	54000.84
529.92	54115.53
530.09	54335.54
530.26	54181.06
530.43	54174.04
530.60	53881.47
530.77	54340.22
530.94	54438.52
531.11	54382.35
531.28	54695.98
531.46	54707.68
531.63	54941.74
531.80	54759.17
531.97	54798.96
532.14	54845.77
532.31	54763.85
532.48	54827.05
532.65	54862.16
532.82	54742.79
532.99	54946.42
533.16	54915.99
533.33	55215.58
533.50	55154.72
533.67	55295.16
533.84	55152.38
534.01	55152.38
534.18	55075.15
534.35	55505.80
534.52	55391.12
534.69	55592.40
534.86	55320.90
535.03	55463.67
535.20	55812.41
535.37	55817.10
535.54	55985.61
535.71	55561.98
535.88	55978.59
536.05	56051.15
536.22	55999.66
536.38	55817.10
536.55	55667.30
536.72	55728.16
536.89	56135.41
537.06	55997.32
537.23	56552.02
537.40	55934.12
537.57	55943.48
537.74	55997.32
537.91	56163.50
538.08	56207.97
538.25	56058.17
538.42	56226.69
538.59	56465.42
538.75	56254.78
538.92	56245.41
539.09	56390.53
539.26	56619.90
539.43	56432.66
539.60	56587.13
539.77	56357.76
539.94	56647.99
540.11	56647.99
540.28	56486.49
540.44	56587.13
540.61	56779.06
540.78	56622.24
540.95	56842.25
541.12	56664.37
541.29	56662.03
541.46	56666.71
541.62	56844.59
541.79	56982.68
541.96	56645.65
542.13	56917.15
542.30	56982.68
542.47	57357.17
542.63	57130.14
542.80	57460.15
542.97	57509.30
543.14	57502.28
543.31	57462.49
543.48	57579.52
543.64	57914.22
543.81	57668.46
543.98	57521.01
544.15	57567.82
544.32	57827.62
544.48	57907.19
544.65	57752.72
544.82	57680.16
544.99	57375.89
545.16	57567.82
545.32	57621.65
545.49	57825.28
545.66	57897.83
545.83	57977.41
546.00	58017.20
546.16	58061.67
546.33	57834.64
546.50	57736.34
546.67	57806.55
546.83	57471.85
547.00	58171.67
547.17	57972.73
547.34	58164.65
547.50	58316.79
547.67	58417.43
547.84	58248.91
548.00	58361.26
548.17	58328.49
548.34	58314.45
548.51	58424.45
548.67	58410.41
548.84	58190.40
549.01	58485.31
549.18	58330.83
549.34	58351.90
549.51	58497.01
549.68	58681.91
549.84	58625.74
550.01	58801.28
550.18	58637.44
550.34	58588.29
550.51	58834.05
550.68	58782.55
550.84	58450.20
551.01	58965.12
551.18	58721.70
551.34	58808.30
551.51	58899.58
551.68	58927.67
551.84	58614.04
552.01	58756.81
552.18	58904.26
552.34	58852.77
552.51	58866.81
552.68	59089.16
552.84	58976.82
553.01	59290.45
553.18	59065.76
553.34	59133.63
553.51	58780.21
553.67	59110.23
553.84	59018.95
554.01	59250.66
554.17	59423.86
554.34	59147.68
554.51	59306.83
554.67	59304.49
554.84	59238.96
555.00	59351.30
555.17	59276.41
555.33	59306.83
555.50	59292.79
555.67	59365.35
555.83	59332.58
556.00	59114.91
556.16	59681.32
556.33	59803.03
556.50	59454.29
556.66	59714.09
556.83	59388.75
556.99	59646.21
557.16	59756.22
557.32	59676.64
557.49	59835.80
557.65	59419.18
557.82	59737.49
557.98	59746.86
558.15	59585.36
558.32	59686.00
558.48	59753.88
558.65	59758.56
558.81	59915.37
558.98	59632.17
559.14	59920.05
559.31	59868.56
559.47	59889.63
559.64	60069.85
559.80	59828.77
559.97	60016.02
560.13	59987.93
560.30	59828.77
560.46	60116.66
560.63	60004.31
560.79	59955.16
560.96	60055.81
561.12	60034.74
561.29	60004.31
561.45	60081.55
561.61	60041.76
561.78	60109.64
561.94	60186.88
562.11	60154.11
562.27	60172.83
562.44	60081.55
562.60	60425.61
562.77	60231.35
562.93	59938.78
563.10	60308.58
563.26	60315.61
563.42	60406.89
563.59	60060.49
563.75	60327.31
563.92	60275.82
564.08	60133.04
564.24	60493.49
564.41	60313.26
564.57	60360.08
564.74	60514.55
564.90	60507.53
565.07	60395.18
565.23	60360.08
565.39	60488.80
565.56	60554.34
565.72	60465.40
565.88	60416.25
566.05	60350.71
566.21	60463.06
566.38	60584.77
566.54	60580.09
566.70	60664.35
566.87	60589.45
567.03	60418.59
567.19	60530.93
567.36	60596.47
567.52	60493.49
567.68	60851.59
567.85	60540.30
568.01	60692.43
568.17	60306.24
568.34	60706.47
568.50	60633.92
568.66	60596.47
568.83	60701.79
568.99	60561.36
569.15	60596.47
569.32	60519.23
569.48	60825.84
569.64	60856.27
569.81	60779.03
569.97	60645.62
570.13	60666.69
570.30	60676.05
570.46	60589.45
570.62	60727.54
570.78	60956.91
570.95	60739.24
571.11	60966.27
571.27	60788.39
571.43	60612.85
571.60	61038.83
571.76	60750.94
571.92	60882.02
572.09	60711.16
572.25	61022.45
572.41	60889.04
572.57	60956.91
572.74	61043.51
572.90	60907.76
573.06	60898.40
573.22	60804.78
573.38	61022.45
573.55	60867.97
573.71	61193.31
573.87	60746.26
574.03	60795.42
574.20	60910.10
574.36	60903.08
574.52	61069.26
574.68	61078.62
574.84	61085.64
575.01	60764.99
575.17	60898.40
575.33	60924.14
575.49	61020.11
575.65	61038.83
575.82	61155.86
575.98	60963.93
576.14	61226.07
576.30	61240.12
576.46	61123.09
576.62	60835.20
576.79	60900.74
576.95	60891.38
577.11	61099.68
577.27	61099.68
577.43	61132.45
577.59	60828.18
577.75	61097.34
577.92	61034.15
578.08	60853.93
578.24	61038.83
578.40	61183.94
578.56	61165.22
578.72	61221.39
578.88	61347.78
579.04	61307.99
579.21	61216.71
579.37	61137.13
579.53	61183.94
579.69	60870.31
579.85	61153.52
580.01	61090.32
580.17	60961.59
580.33	61027.13
580.49	61315.01
580.65	60996.70
580.82	60947.55
580.98	61298.63
581.14	61057.56
581.30	61371.19
581.46	61148.84
581.62	61268.20
581.78	61230.75
581.94	61183.94
582.10	61230.75
582.26	61221.39
582.42	61219.05
582.58	61263.52
582.74	61207.35
582.90	61190.97
583.06	61237.78
583.22	61130.11
583.38	61242.46
583.54	61315.01
583.70	61212.03
583.86	61174.58
584.02	61109.05
584.18	61312.67
584.34	61305.65
584.50	61296.29
584.66	61083.30
584.82	61062.24
584.98	61141.81
585.14	61284.59
585.30	61212.03
585.46	61366.51
585.62	61331.40
585.78	61336.08
585.94	61247.14
586.10	61095.00
586.26	61221.39
586.42	61516.30
586.58	61329.06
586.74	61200.33
586.90	61265.86
587.06	61212.03
587.22	61162.88
587.38	61359.48
587.54	61535.02
587.70	61525.66
587.86	61272.88
588.02	61233.10
588.18	61551.41
588.34	61427.36
588.49	61333.74
