SpectraSuite Data File
++++++++++++++++++++++++++++++++++++
Date: Fri Oct 25 11:23:42 EDT 2013
User: price-jones
Dark Spectrum Present: No
Reference Spectrum Present: No
Number of Sampled Component Spectra: 1
Spectrometers: USB2+H05261
Integration Time (usec): 100000 (USB2+H05261)
Spectra Averaged: 1 (USB2+H05261)
Boxcar Smoothing: 0 (USB2+H05261)
Correct for Electrical Dark: No (USB2+H05261)
Strobe/Lamp Enabled: No (USB2+H05261)
Correct for Detector Non-linearity: No (USB2+H05261)
Correct for Stray Light: No (USB2+H05261)
Number of Pixels in Processed Spectrum: 2048
>>>>>Begin Processed Spectral Data<<<<<
365.73	208.31
365.92	208.31
366.12	208.31
366.32	121.71
366.52	56.17
366.72	138.09
366.91	100.64
367.11	60.85
367.31	152.13
367.51	133.41
367.70	112.35
367.90	168.52
368.10	147.45
368.30	110.01
368.49	161.50
368.69	117.03
368.89	133.41
369.09	145.11
369.28	138.09
369.48	191.92
369.68	201.29
369.87	131.07
370.07	159.16
370.27	250.44
370.47	262.14
370.66	545.34
370.86	653.01
371.06	711.52
371.25	732.59
371.45	638.97
371.65	732.59
371.84	608.54
372.04	655.35
372.24	727.91
372.44	767.70
372.63	751.31
372.83	718.54
373.03	739.61
373.22	781.74
373.42	777.06
373.62	711.52
373.81	807.48
374.01	873.02
374.21	784.08
374.40	779.40
374.60	798.12
374.79	777.06
374.99	809.83
375.19	788.76
375.38	830.89
375.58	854.30
375.78	786.42
375.97	835.57
376.17	966.64
376.37	854.30
376.56	905.79
376.76	912.81
376.95	819.19
377.15	919.83
377.35	915.15
377.54	959.62
377.74	917.49
377.93	940.90
378.13	866.00
378.33	898.77
378.52	929.19
378.72	947.92
378.91	952.60
379.11	954.94
379.31	985.37
379.50	884.72
379.70	987.71
379.89	1027.50
380.09	901.11
380.28	966.64
380.48	997.07
380.68	973.66
380.87	912.81
381.07	1057.92
381.26	1025.15
381.46	1001.75
381.65	1032.18
381.85	992.39
382.04	1069.62
382.24	1006.43
382.43	1097.71
382.63	1006.43
382.83	1088.35
383.02	1057.92
383.22	1121.12
383.41	1100.05
383.61	1081.33
383.80	1046.22
384.00	1046.22
384.19	1109.41
384.39	1102.39
384.58	1083.67
384.78	1125.80
384.97	1053.24
385.17	1114.10
385.36	1160.91
385.56	1121.12
385.75	1181.97
385.95	1226.44
386.14	1137.50
386.34	1130.48
386.53	1181.97
386.72	1181.97
386.92	1224.10
387.11	1160.91
387.31	1242.82
387.50	1291.98
387.70	1256.87
387.89	1254.53
388.09	1359.85
388.28	1184.31
388.48	1291.98
388.67	1306.02
388.86	1341.13
389.06	1362.19
389.25	1327.08
389.45	1376.24
389.64	1399.64
389.84	1427.73
390.03	1334.11
390.22	1413.68
390.42	1324.74
390.61	1385.60
390.81	1441.77
391.00	1427.73
391.19	1511.99
391.39	1465.18
391.58	1413.68
391.78	1418.36
391.97	1369.21
392.16	1343.47
392.36	1451.13
392.55	1575.18
392.75	1488.58
392.94	1458.15
393.13	1549.43
393.33	1458.15
393.52	1519.01
393.71	1577.52
393.91	1558.80
394.10	1626.67
394.29	1493.26
394.49	1638.38
394.68	1526.03
394.88	1619.65
395.07	1724.97
395.26	1629.01
395.46	1692.21
395.65	1722.63
395.84	1696.89
396.04	1753.06
396.23	1673.48
396.42	1741.36
396.62	1834.98
396.81	1825.62
397.00	1799.87
397.19	1797.53
397.39	1746.04
397.58	1783.49
397.77	1739.02
397.97	1926.26
398.16	1884.13
398.35	1865.41
398.55	1769.44
398.74	1909.88
398.93	1923.92
399.12	1872.43
399.32	1778.81
399.51	1919.24
399.70	2008.18
399.90	1952.01
400.09	2040.95
400.28	1963.71
400.47	1994.14
400.67	2052.65
400.86	2059.67
401.05	2050.31
401.24	2120.53
401.44	2153.29
401.63	2153.29
401.82	2165.00
402.01	2146.27
402.21	2078.40
402.40	2162.66
402.59	2085.42
402.78	2172.02
402.97	2275.00
403.17	2310.11
403.36	2146.27
403.55	2267.98
403.74	2272.66
403.93	2441.18
404.13	2363.94
404.32	2321.81
404.51	2394.37
404.70	2450.54
404.89	2478.63
405.09	2466.92
405.28	2532.46
405.47	2441.18
405.66	2471.61
405.85	2588.63
406.05	2476.29
406.24	2541.82
406.43	2506.71
406.62	2609.70
406.81	2626.08
407.00	2677.57
407.20	2513.74
407.39	2579.27
407.58	2693.96
407.77	2668.21
407.96	2757.15
408.15	2600.34
408.34	2663.53
408.54	2785.24
408.73	2834.39
408.92	2789.92
409.11	2813.32
409.30	2967.80
409.49	2925.67
409.68	2946.73
409.87	2974.82
410.07	2981.84
410.26	3087.17
410.45	3016.95
410.64	3045.04
410.83	3016.95
411.02	3066.10
411.21	3227.60
411.40	3183.13
411.59	3318.88
411.78	3169.09
411.98	3227.60
412.17	3403.14
412.36	3318.88
412.55	3218.24
412.74	3508.46
412.93	3503.78
413.12	3463.99
413.31	3403.14
413.50	3489.74
413.69	3494.42
413.88	3606.77
414.07	3562.30
414.26	3576.34
414.45	3716.77
414.64	3604.42
414.83	3672.30
415.02	3817.41
415.22	3801.03
415.41	3885.29
415.60	3808.05
415.79	3763.58
415.98	4023.38
416.17	3990.61
416.36	3929.76
416.55	3962.53
416.74	4021.04
416.93	4028.06
417.12	4044.45
417.31	4191.90
417.50	4194.24
417.69	4386.16
417.88	4301.90
418.07	4346.37
418.26	4283.18
418.45	4320.63
418.64	4507.87
418.83	4301.90
419.02	4320.63
419.21	4521.92
419.39	4491.49
419.58	4496.17
419.77	4402.55
419.96	4573.41
420.15	4573.41
420.34	4603.83
420.53	4617.88
420.72	4774.69
420.91	4772.35
421.10	4875.34
421.29	4809.80
421.48	4720.86
421.67	4880.02
421.86	4767.67
422.05	4798.10
422.24	4748.95
422.43	4922.15
422.61	4868.31
422.80	4957.25
422.99	5027.47
423.18	4922.15
423.37	4891.72
423.56	5020.45
423.75	4847.25
423.94	4826.18
424.13	4610.86
424.32	4863.63
424.50	4971.30
424.69	5032.15
424.88	5107.05
425.07	5020.45
425.26	5050.88
425.45	4884.70
425.64	4957.25
425.83	5008.75
426.01	5118.75
426.20	5060.24
426.39	5081.30
426.58	5008.75
426.77	4940.87
426.96	5186.63
427.15	5142.16
427.33	5156.20
427.52	5123.43
427.71	5224.08
427.90	5111.73
428.09	5392.59
428.28	5282.59
428.46	5455.79
428.65	5366.85
428.84	5603.24
429.03	5591.54
429.22	5348.12
429.40	5563.45
429.59	5638.35
429.78	5261.52
429.97	5324.72
430.16	5516.64
430.34	5563.45
430.53	5621.97
430.72	5671.12
430.91	5572.82
431.10	5523.66
431.28	5856.02
431.47	5832.62
431.66	5895.81
431.85	5643.03
432.03	5926.24
432.22	6029.22
432.41	5891.13
432.60	6019.86
432.79	5923.90
432.97	5980.07
433.16	6057.31
433.35	5991.77
433.54	6115.82
433.72	6153.27
433.91	6097.10
434.10	6040.92
434.28	6310.08
434.47	6164.97
434.66	6176.67
434.85	6246.89
435.03	6424.77
435.22	6422.43
435.41	6595.63
435.59	6485.62
435.78	6368.60
435.97	6588.61
436.16	6518.39
436.34	6506.69
436.53	6354.55
436.72	6729.04
436.90	6600.31
437.09	6677.55
437.28	6406.05
437.46	6597.97
437.65	6651.80
437.84	6850.75
438.02	6768.83
438.21	6817.98
438.40	6803.94
438.58	6942.03
438.77	7162.04
438.96	6895.22
439.14	7117.57
439.33	7255.66
439.52	7152.68
439.70	7356.30
439.89	7382.05
440.08	7288.43
440.26	7323.54
440.45	7424.18
440.63	7588.02
440.82	7744.83
441.01	7618.44
441.19	7616.10
441.38	7733.13
441.57	7744.83
441.75	7723.77
441.94	8021.02
442.12	7903.99
442.31	8196.56
442.50	8060.80
442.68	8114.64
442.87	8013.99
443.05	7974.21
443.24	8187.19
443.43	8329.97
443.61	8358.05
443.80	8397.84
443.98	8198.90
444.17	8009.31
444.35	8081.87
444.54	8351.03
444.73	8224.64
444.91	8475.08
445.10	8437.63
445.28	8348.69
445.47	8411.89
445.65	8346.35
445.84	8329.97
446.02	8388.48
446.21	8386.14
446.39	8341.67
446.58	8449.33
446.77	8421.25
446.95	8231.66
447.14	8421.25
447.32	8748.92
447.51	8657.64
447.69	8594.45
447.88	8585.08
448.06	8540.61
448.25	8510.19
448.43	8784.03
448.62	8610.83
448.80	8636.58
448.99	8723.18
449.17	8643.60
449.36	8690.41
449.54	8809.78
449.73	8889.35
449.91	9034.47
450.10	9167.88
450.28	9064.89
450.46	9071.92
450.65	9195.96
450.83	9261.50
451.02	9050.85
451.20	9205.33
451.39	8975.95
451.57	9109.36
451.76	9118.73
451.94	9282.56
452.13	9322.35
452.31	9322.35
452.49	9095.32
452.68	9287.25
452.86	9310.65
453.05	9451.08
453.23	9502.58
453.42	9137.45
453.60	9373.85
453.78	9528.32
453.97	9458.10
454.15	9617.26
454.34	9380.87
454.52	9706.20
454.70	9774.08
454.89	9785.78
455.07	9937.91
455.26	9926.21
455.44	9858.34
455.62	9823.23
455.81	9949.62
455.99	9973.02
456.17	10256.23
456.36	9966.00
456.54	9902.81
456.73	10375.59
456.91	10539.43
457.09	10305.38
457.28	10764.12
457.46	10197.71
457.64	10427.09
457.83	10597.95
458.01	10410.70
458.19	10719.65
458.38	10700.93
458.56	10726.68
458.74	10630.71
458.93	10668.16
459.11	10794.55
459.29	10785.19
459.48	10754.76
459.66	10934.98
459.84	11066.05
460.03	11052.01
460.21	11023.92
460.39	11297.77
460.57	11052.01
460.76	10883.49
460.94	11218.19
461.12	11035.63
461.31	11220.53
461.49	11101.16
461.67	11147.97
461.85	11468.62
462.04	11332.87
462.22	11590.33
462.40	11524.80
462.59	11445.22
462.77	11602.04
462.95	11726.08
463.13	11520.12
463.32	11688.64
463.50	11768.21
463.68	11712.04
463.86	11831.41
464.05	11662.89
464.23	11606.72
464.41	12049.08
464.59	11578.63
464.78	12060.78
464.96	12212.92
465.14	12109.93
465.32	12121.63
465.50	12131.00
465.69	12278.45
465.87	12119.29
466.05	12123.98
466.23	12266.75
466.41	12381.43
466.60	12709.11
466.78	12236.32
466.96	12126.32
467.14	12271.43
467.32	12526.55
467.51	12688.04
467.69	12128.66
467.87	12461.01
468.05	12641.23
468.23	12629.53
468.41	12596.76
468.60	12587.40
468.78	12840.18
468.96	12718.47
469.14	12898.69
469.32	12975.93
469.50	12704.43
469.69	13249.77
469.87	13121.04
470.05	13160.83
470.23	13132.75
470.41	13163.17
470.59	13444.04
470.77	13179.56
470.95	13542.34
471.14	13518.93
471.32	13343.39
471.50	13717.88
471.68	13448.72
471.86	13762.35
472.04	13818.52
472.22	14017.47
472.40	13762.35
472.58	14010.45
472.77	14024.49
472.95	14258.54
473.13	14441.11
473.31	14228.12
473.49	14345.14
473.67	14338.12
473.85	14366.21
474.03	14712.61
474.21	14532.39
474.39	14712.61
474.57	14794.53
474.75	15091.77
474.93	15300.08
475.12	15037.94
475.30	15456.90
475.48	15056.67
475.66	15304.76
475.84	15253.27
476.02	15391.36
476.20	15524.77
476.38	15737.76
476.56	16004.58
476.74	16156.72
476.92	15763.51
477.10	15683.93
477.28	16126.29
477.46	16102.89
477.64	16482.05
477.82	16582.70
478.00	17032.08
478.18	16816.75
478.36	16744.19
478.54	17151.45
478.72	17348.05
478.90	17282.52
479.08	17692.11
479.26	17467.42
479.44	17481.46
479.62	17776.37
479.80	18127.45
479.98	18216.39
480.16	18523.00
480.34	18415.34
480.52	18431.72
480.70	18731.31
480.88	18302.99
481.06	18923.23
481.24	18834.29
481.41	19122.18
481.59	19697.95
481.77	19700.29
481.95	19754.12
482.13	19864.13
482.31	19601.99
482.49	20154.35
482.67	19978.81
482.85	20514.80
483.03	20842.47
483.21	20751.19
483.39	21113.97
483.57	20945.45
483.74	21352.71
483.92	21553.99
484.10	21081.21
484.28	21544.63
484.46	22101.68
484.64	22445.74
484.82	21998.70
485.00	22553.40
485.18	22752.35
485.35	22991.08
485.53	22895.12
485.71	23197.05
485.89	23384.29
486.07	23473.23
486.25	23372.59
486.43	23644.09
486.61	23953.04
486.78	24334.55
486.96	24273.70
487.14	24802.66
487.32	24821.38
487.50	24952.45
487.68	25315.23
487.85	25277.79
488.03	25752.91
488.21	26054.84
488.39	25827.81
488.57	26132.08
488.75	26082.93
488.92	26597.85
489.10	26738.28
489.28	26766.37
489.46	27159.58
489.64	27290.65
489.81	27814.93
489.99	27665.13
490.17	27964.72
490.35	28067.70
490.53	28390.70
490.70	28273.67
490.88	28533.47
491.06	28690.29
491.24	28966.47
491.41	29474.37
491.59	29598.41
491.77	29413.51
491.95	30206.95
492.13	29560.97
492.30	30071.20
492.48	30040.78
492.66	30391.86
492.84	30733.57
493.01	30719.53
493.19	30976.99
493.37	31129.12
493.54	31206.36
493.72	31519.99
493.90	31637.02
494.08	31690.85
494.25	32240.88
494.43	32341.52
494.61	32201.09
494.79	32449.19
494.96	32786.22
495.14	32985.17
495.32	33647.54
495.49	33317.53
495.67	33560.94
495.85	33844.15
496.02	33729.46
496.20	34019.69
496.38	34202.25
496.55	34246.72
496.73	34873.98
496.91	34543.97
497.09	34979.31
497.26	35026.12
497.44	35096.33
497.62	35494.22
497.79	36018.50
497.97	35475.50
498.14	36142.55
498.32	36100.42
498.50	36638.75
498.67	36727.69
498.85	36062.97
499.03	36282.98
499.20	37127.92
499.38	37291.76
499.56	37081.11
499.73	36985.15
499.91	37560.92
500.08	38014.98
500.26	37198.13
500.44	37720.07
500.61	37787.95
500.79	37661.56
500.97	38148.39
501.14	38911.41
501.32	39061.20
501.49	38642.24
501.67	38897.36
501.84	39365.47
502.02	38993.32
502.20	39192.27
502.37	39365.47
502.55	39576.12
502.72	39421.64
502.90	39093.97
503.07	39435.69
503.25	39934.22
503.43	39763.36
503.60	40217.43
503.78	40465.52
503.95	40392.97
504.13	40528.72
504.30	40655.11
504.48	40385.94
504.65	41038.95
504.83	41214.49
505.01	41937.72
505.18	41303.43
505.36	41911.97
505.53	41427.48
505.71	42019.64
505.88	41888.57
506.06	41422.80
506.23	42103.90
506.41	42153.05
506.58	41914.31
506.76	42342.63
506.93	42520.51
507.11	42417.53
507.28	42754.57
507.46	42862.23
507.63	42855.21
507.81	43370.13
507.98	42913.72
508.16	43318.64
508.33	43576.09
508.50	43810.15
508.68	44144.84
508.85	44217.40
509.03	43866.32
509.20	44453.79
509.38	44425.71
509.55	44641.04
509.73	44624.65
509.90	44643.38
510.08	44776.79
510.25	44669.12
510.42	44959.35
510.60	45031.91
510.77	45521.08
510.95	45343.20
511.12	44875.09
511.30	45134.89
511.47	45897.91
511.64	45698.96
511.82	45694.28
511.99	45862.80
512.17	45993.87
512.34	45837.05
512.51	46897.31
512.69	46377.72
512.86	46665.60
513.04	46911.36
513.21	47161.79
513.38	46876.25
513.56	47070.51
513.73	46955.83
513.90	47079.88
514.08	46925.40
514.25	47161.79
514.43	47618.20
514.60	47484.79
514.77	47459.04
514.95	47927.15
515.12	47915.45
515.29	47760.97
515.47	47786.72
515.64	48088.65
515.81	47882.68
515.99	48645.69
516.16	48495.90
516.33	48470.15
516.51	49001.46
516.68	48678.46
516.85	48964.01
517.03	49062.31
517.20	48942.94
517.37	48842.30
517.54	48828.26
517.72	48858.68
517.89	49066.99
518.06	49530.42
518.24	49422.75
518.41	49535.10
518.58	49549.14
518.75	49399.35
518.93	49750.43
519.10	49406.37
519.27	49916.61
519.45	49813.62
519.62	49872.14
519.79	50284.07
519.96	49935.33
520.14	50344.92
520.31	50349.60
520.48	50742.81
520.65	50286.41
520.83	51140.71
521.00	50941.76
521.17	50560.25
521.34	50789.62
521.52	50754.52
521.69	51133.68
521.86	50770.90
522.03	51040.06
522.20	51554.98
522.38	52020.75
522.55	51398.16
522.72	51161.77
522.89	51679.03
523.07	51826.48
523.24	51564.34
523.41	52135.43
523.58	51597.11
523.75	51964.57
523.92	52109.69
524.10	52090.96
524.27	52130.75
524.44	52130.75
524.61	52353.10
524.78	52343.74
524.96	52470.13
525.13	52495.88
525.30	52619.92
525.47	52694.82
525.64	52540.35
525.81	52811.85
525.98	52692.48
526.16	52905.47
526.33	52444.38
526.50	53031.86
526.67	52680.78
526.84	53249.53
527.01	53158.25
527.18	53071.65
527.36	52985.05
527.53	53392.30
527.70	53572.52
527.87	53518.69
528.04	53303.36
528.21	53602.95
528.38	53408.68
528.55	53984.46
528.72	53516.35
528.89	53705.93
529.07	53619.33
529.24	53558.48
529.41	53893.18
529.58	53670.82
529.75	53820.62
529.92	53914.24
530.09	54003.18
530.26	53925.94
530.43	54101.48
530.60	53975.09
530.77	53989.14
530.94	54035.95
531.11	54281.70
531.28	54281.70
531.46	54452.56
531.63	54197.44
531.80	54520.44
531.97	54548.53
532.14	54529.80
532.31	54553.21
532.48	54728.75
532.65	54908.97
532.82	54766.20
532.99	54777.90
533.16	54740.45
533.33	54969.82
533.50	55098.55
533.67	55075.15
533.84	54658.53
534.01	54932.37
534.18	55058.76
534.35	55288.13
534.52	55201.53
534.69	55550.27
534.86	55379.42
535.03	55025.99
535.20	55377.08
535.37	55405.16
535.54	55789.01
535.71	55557.30
535.88	55482.40
536.05	55716.45
536.22	55501.12
536.38	55744.54
536.55	55627.51
536.72	55667.30
536.89	55690.71
537.06	55674.32
537.23	56088.60
537.40	55781.99
537.57	55657.94
537.74	56119.02
537.91	55962.21
538.08	56147.11
538.25	55587.72
538.42	55805.39
538.59	56278.18
538.75	55847.52
538.92	56076.90
539.09	56339.04
539.26	56444.36
539.43	56353.08
539.60	56322.65
539.77	56303.93
539.94	56308.61
540.11	56390.53
540.28	56598.83
540.44	56088.60
540.61	56690.12
540.78	56423.29
540.95	56802.46
541.12	56507.55
541.29	56678.41
541.46	56601.18
541.62	56811.82
541.79	56802.46
541.96	56381.16
542.13	56676.07
542.30	56566.07
542.47	56924.17
542.63	56896.08
542.80	57104.39
542.97	57247.16
543.14	57338.44
543.31	56940.55
543.48	57343.12
543.64	57539.73
543.81	57401.64
543.98	57418.02
544.15	57481.22
544.32	57605.26
544.48	57556.11
544.65	57298.65
544.82	57364.19
544.99	57190.99
545.16	57567.82
545.32	57394.62
545.49	57911.88
545.66	57773.78
545.83	57750.38
546.00	57867.40
546.16	57759.74
546.33	57773.78
546.50	57528.03
546.67	57755.06
546.83	57544.41
547.00	57886.13
547.17	57811.23
547.34	58054.65
547.50	58204.44
547.67	58239.55
547.84	58220.83
548.00	58288.70
548.17	58262.96
548.34	58253.59
548.51	58431.47
548.67	58155.29
548.84	58089.76
549.01	58218.49
549.18	58082.73
549.34	58253.59
549.51	58337.85
549.68	58607.01
549.84	58529.78
550.01	58602.33
550.18	58494.67
550.34	58529.78
550.51	58621.06
550.68	58628.08
550.84	58504.03
551.01	58763.83
551.18	58560.20
551.34	58897.24
551.51	58527.44
551.68	58679.57
551.84	58504.03
552.01	58379.98
552.18	58981.50
552.34	58665.53
552.51	58794.26
552.68	58688.93
552.84	58925.33
553.01	58974.48
553.18	59065.76
553.34	58852.77
553.51	58749.79
553.67	58960.44
553.84	59009.59
554.01	59096.19
554.17	58930.01
554.34	59257.68
554.51	59044.69
554.67	59222.58
554.84	59171.08
555.00	59082.14
555.17	58955.75
555.33	59117.25
555.50	58857.45
555.67	59061.08
555.83	59075.12
556.00	59274.07
556.16	59374.71
556.33	59442.59
556.50	59281.09
556.66	59561.95
556.83	59433.22
556.99	59206.19
557.16	59781.96
557.32	59622.81
557.49	59707.07
557.65	59278.75
557.82	59391.09
557.98	59498.76
558.15	59793.67
558.32	59709.41
558.48	59447.27
558.65	59454.29
558.81	59597.06
558.98	59669.62
559.14	59737.49
559.31	59803.03
559.47	59770.26
559.64	59793.67
559.80	59877.93
559.97	59788.98
560.13	59444.93
560.30	59721.11
560.46	59934.10
560.63	59695.36
560.79	59908.35
560.96	60006.65
561.12	59880.27
561.29	60048.78
561.45	59915.37
561.61	59845.16
561.78	59697.70
561.94	59877.93
562.11	59957.50
562.27	59936.44
562.44	59999.63
562.60	60179.85
562.77	60165.81
562.93	59950.48
563.10	60156.45
563.26	59833.46
563.42	60306.24
563.59	59896.65
563.75	60196.24
563.92	60177.51
564.08	60299.22
564.24	60346.03
564.41	60142.41
564.57	60301.56
564.74	60013.68
564.90	60198.58
565.07	60151.77
565.23	60397.52
565.39	60041.76
565.56	60137.72
565.72	60301.56
565.88	60310.92
566.05	60027.72
566.21	60062.83
566.38	60339.01
566.54	60261.77
566.70	60327.31
566.87	60320.29
567.03	60357.74
567.19	60486.46
567.36	60402.21
567.52	60549.66
567.68	60706.47
567.85	60624.56
568.01	60631.58
568.17	60247.73
568.34	60477.10
568.50	60472.42
568.66	60296.88
568.83	60484.12
568.99	60434.97
569.15	60631.58
569.32	60383.48
569.48	60460.72
569.64	60725.20
569.81	60552.00
569.97	60626.90
570.13	60507.53
570.30	60523.91
570.46	60441.99
570.62	60629.24
570.78	60577.75
570.95	60556.68
571.11	60692.43
571.27	60491.15
571.43	60669.03
571.60	60952.23
571.76	60610.51
571.92	60594.13
572.09	60678.39
572.25	60552.00
572.41	60631.58
572.57	60652.64
572.74	60910.10
572.90	60753.29
573.06	60739.24
573.22	60776.69
573.38	60715.84
573.55	60743.92
573.71	60802.44
573.87	60882.02
574.03	60741.58
574.20	60793.07
574.36	60722.86
574.52	60762.65
574.68	60685.41
574.84	60886.70
575.01	60783.71
575.17	60556.68
575.33	60856.27
575.49	60680.73
575.65	60970.96
575.82	60882.02
575.98	60947.55
576.14	61125.43
576.30	61024.79
576.46	60608.17
576.62	60837.54
576.79	60931.17
576.95	60692.43
577.11	60914.78
577.27	61020.11
577.43	61001.38
577.59	60685.41
577.75	60989.68
577.92	60786.05
578.08	60870.31
578.24	60893.72
578.40	61055.21
578.56	61116.07
578.72	60886.70
578.88	61076.28
579.04	61172.24
579.21	61008.40
579.37	61190.97
579.53	60982.66
579.69	60856.27
579.85	60917.12
580.01	60912.44
580.17	60863.29
580.33	60999.04
580.49	60931.17
580.65	60877.33
580.82	60954.57
580.98	60889.04
581.14	61071.60
581.30	61057.56
581.46	61057.56
581.62	61052.87
581.78	60933.51
581.94	61029.47
582.10	60968.61
582.26	60987.34
582.42	61029.47
582.58	60989.68
582.74	61071.60
582.90	60896.06
583.06	60987.34
583.22	60949.89
583.38	61226.07
583.54	60973.30
583.70	60966.27
583.86	61272.88
584.02	60989.68
584.18	61202.67
584.34	61017.77
584.50	60905.42
584.66	61013.08
584.82	60977.98
584.98	61102.03
585.14	61038.83
585.30	61010.74
585.46	60863.29
585.62	61326.72
585.78	61347.78
585.94	61024.79
586.10	61188.63
586.26	61071.60
586.42	61167.56
586.58	61120.75
586.74	61095.00
586.90	61289.27
587.06	61153.52
587.22	61368.85
587.38	61071.60
587.54	61141.81
587.70	61331.40
587.86	61144.16
588.02	61186.28
588.18	61230.75
588.34	61237.78
588.49	61008.40
