SpectraSuite Data File
++++++++++++++++++++++++++++++++++++
Date: Fri Oct 25 11:34:22 EDT 2013
User: price-jones
Dark Spectrum Present: No
Reference Spectrum Present: No
Number of Sampled Component Spectra: 1
Spectrometers: USB2+H05261
Integration Time (usec): 100000 (USB2+H05261)
Spectra Averaged: 1 (USB2+H05261)
Boxcar Smoothing: 0 (USB2+H05261)
Correct for Electrical Dark: No (USB2+H05261)
Strobe/Lamp Enabled: No (USB2+H05261)
Correct for Detector Non-linearity: No (USB2+H05261)
Correct for Stray Light: No (USB2+H05261)
Number of Pixels in Processed Spectrum: 2048
>>>>>Begin Processed Spectral Data<<<<<
365.73	264.48
365.92	264.48
366.12	264.48
366.32	201.29
366.52	187.24
366.72	152.13
366.91	180.22
367.11	198.95
367.31	135.75
367.51	110.01
367.70	163.84
367.90	203.63
368.10	180.22
368.30	198.95
368.49	170.86
368.69	95.96
368.89	145.11
369.09	159.16
369.28	184.90
369.48	175.54
369.68	234.05
369.87	250.44
370.07	191.92
370.27	236.39
370.47	280.86
370.66	395.55
370.86	528.96
371.06	545.34
371.25	592.16
371.45	557.05
371.65	608.54
371.84	500.87
372.04	564.07
372.24	526.62
372.44	610.88
372.63	596.84
372.83	615.56
373.03	566.41
373.22	653.01
373.42	641.31
373.62	638.97
373.81	678.76
374.01	657.69
374.21	655.35
374.40	603.86
374.60	720.88
374.79	664.71
374.99	648.33
375.19	622.58
375.38	596.84
375.58	688.12
375.78	695.14
375.97	681.10
376.17	645.99
376.37	653.01
376.56	739.61
376.76	606.20
376.95	622.58
377.15	697.48
377.35	638.97
377.54	648.33
377.74	692.80
377.93	648.33
378.13	688.12
378.33	730.25
378.52	631.94
378.72	732.59
378.91	702.16
379.11	702.16
379.31	732.59
379.50	643.65
379.70	683.44
379.89	734.93
380.09	713.86
380.28	709.18
380.48	730.25
380.68	713.86
380.87	748.97
381.07	739.61
381.26	774.72
381.46	718.54
381.65	723.23
381.85	674.07
382.04	718.54
382.24	755.99
382.43	777.06
382.63	734.93
382.83	751.31
383.02	795.78
383.22	751.31
383.41	786.42
383.61	732.59
383.80	723.23
384.00	830.89
384.19	809.83
384.39	784.08
384.58	833.23
384.78	816.85
384.97	772.38
385.17	849.61
385.36	748.97
385.56	837.91
385.75	816.85
385.95	851.96
386.14	910.47
386.34	931.53
386.53	758.33
386.72	854.30
386.92	887.06
387.11	856.64
387.31	894.08
387.50	868.34
387.70	873.02
387.89	915.15
388.09	919.83
388.28	908.13
388.48	802.80
388.67	875.36
388.86	903.45
389.06	936.21
389.25	875.36
389.45	910.47
389.64	994.73
389.84	1008.77
390.03	971.32
390.22	1020.47
390.42	952.60
390.61	936.21
390.81	968.98
391.00	945.58
391.19	1086.01
391.39	1043.88
391.58	961.96
391.78	1022.81
391.97	1039.20
392.16	990.05
392.36	1055.58
392.55	1039.20
392.75	1057.92
392.94	1027.50
393.13	1060.26
393.33	997.07
393.52	1043.88
393.71	1057.92
393.91	1081.33
394.10	1093.03
394.29	1121.12
394.49	1011.11
394.68	1144.52
394.88	1109.41
395.07	1118.78
395.26	1174.95
395.46	1139.84
395.65	1238.14
395.84	1179.63
396.04	1289.64
396.23	1139.84
396.42	1170.27
396.62	1177.29
396.81	1210.06
397.00	1226.44
397.19	1179.63
397.39	1151.54
397.58	1231.12
397.77	1210.06
397.97	1268.57
398.16	1193.67
398.35	1247.51
398.55	1289.64
398.74	1226.44
398.93	1256.87
399.12	1343.47
399.32	1320.06
399.51	1263.89
399.70	1273.25
399.90	1245.16
400.09	1299.00
400.28	1357.51
400.47	1338.79
400.67	1362.19
400.86	1343.47
401.05	1455.81
401.24	1460.49
401.44	1362.19
401.63	1343.47
401.82	1373.89
402.01	1345.81
402.21	1385.60
402.40	1406.66
402.59	1439.43
402.78	1411.34
402.97	1437.09
403.17	1474.54
403.36	1437.09
403.55	1451.13
403.74	1502.62
403.93	1533.05
404.13	1572.84
404.32	1514.33
404.51	1568.16
404.70	1657.10
404.89	1514.33
405.09	1687.53
405.28	1631.35
405.47	1554.12
405.66	1652.42
405.85	1734.34
406.05	1657.10
406.24	1671.14
406.43	1696.89
406.62	1664.12
406.81	1687.53
407.00	1739.02
407.20	1666.46
407.39	1687.53
407.58	1755.40
407.77	1764.76
407.96	1877.11
408.15	1806.89
408.34	1788.17
408.54	1849.02
408.73	1900.52
408.92	1778.81
409.11	1820.94
409.30	1837.32
409.49	2017.54
409.68	1947.33
409.87	1961.37
410.07	1867.75
410.26	1916.90
410.45	1984.77
410.64	2015.20
410.83	2069.03
411.02	2050.31
411.21	2132.23
411.40	2017.54
411.59	2181.38
411.78	1996.48
411.98	2134.57
412.17	2106.48
412.36	2083.08
412.55	2190.74
412.74	2263.30
412.93	2370.96
413.12	2373.30
413.31	2291.38
413.50	2349.90
413.69	2354.58
413.88	2413.09
414.07	2345.22
414.26	2438.84
414.45	2303.09
414.64	2504.37
414.83	2483.31
415.02	2452.88
415.22	2569.91
415.41	2490.33
415.60	2600.34
415.79	2499.69
415.98	2722.04
416.17	2691.62
416.36	2527.78
416.55	2668.21
416.74	2672.89
416.93	2656.51
417.12	2698.64
417.31	2717.36
417.50	2860.13
417.69	2911.63
417.88	2843.75
418.07	2808.64
418.26	2899.92
418.45	2930.35
418.64	3005.25
418.83	2794.60
419.02	2960.78
419.21	3002.91
419.39	3133.98
419.58	3056.74
419.77	2967.80
419.96	3045.04
420.15	2988.86
420.34	3002.91
420.53	3176.11
420.72	3117.59
420.91	3098.87
421.10	3251.00
421.29	3131.64
421.48	3225.26
421.67	3199.51
421.86	3246.32
422.05	3260.37
422.24	3208.87
422.43	3225.26
422.61	3361.01
422.80	3361.01
422.99	3421.86
423.18	3318.88
423.37	3370.37
423.56	3412.50
423.75	3379.73
423.94	3248.66
424.13	3129.30
424.32	3126.96
424.50	3398.46
424.69	3463.99
424.88	3370.37
425.07	3208.87
425.26	3253.34
425.45	3410.16
425.64	3323.56
425.83	3433.57
426.01	3424.20
426.20	3396.12
426.39	3396.12
426.58	3492.08
426.77	3372.71
426.96	3412.50
427.15	3431.23
427.33	3478.04
427.52	3473.36
427.71	3419.52
427.90	3480.38
428.09	3559.95
428.28	3534.21
428.46	3515.48
428.65	3672.30
428.84	3742.52
429.03	3763.58
429.22	3550.59
429.40	3676.98
429.59	3595.06
429.78	3501.44
429.97	3431.23
430.16	3592.72
430.34	3747.20
430.53	3913.38
430.72	3648.90
430.91	3770.60
431.10	3833.80
431.28	3882.95
431.47	3882.95
431.66	3831.46
431.85	3803.37
432.03	3918.06
432.22	3964.87
432.41	3932.10
432.60	3772.94
432.79	3990.61
432.97	4117.00
433.16	3875.93
433.35	3950.82
433.54	3929.76
433.72	4070.19
433.91	4138.07
434.10	4035.08
434.28	4147.43
434.47	3995.29
434.66	4049.13
434.85	4086.58
435.03	4163.81
435.22	4093.60
435.41	4259.78
435.59	4217.65
435.78	4262.12
435.97	4269.14
436.16	4170.83
436.34	4285.52
436.53	4290.20
436.72	4400.21
436.90	4280.84
437.09	4346.37
437.28	4306.59
437.46	4423.61
437.65	4280.84
437.84	4252.75
438.02	4503.19
438.21	4472.76
438.40	4411.91
438.58	4554.68
438.77	4631.92
438.96	4699.80
439.14	4624.90
439.33	4758.31
439.52	4702.14
439.70	4858.95
439.89	4791.08
440.08	4973.64
440.26	4772.35
440.45	4739.58
440.63	4964.28
440.82	4997.04
441.01	4868.31
441.19	4994.70
441.38	4863.63
441.57	4978.32
441.75	5195.99
441.94	5282.59
442.12	5289.61
442.31	5123.43
442.50	5411.32
442.68	5275.57
442.87	5184.29
443.05	5224.08
443.24	5338.76
443.43	5434.72
443.61	5476.85
443.80	5582.18
443.98	5219.39
444.17	5144.50
444.35	5427.70
444.54	5455.79
444.73	5301.31
444.91	5404.30
445.10	5537.71
445.28	5544.73
445.47	5256.84
445.65	5404.30
445.84	5621.97
446.02	5561.11
446.21	5460.47
446.39	5434.72
446.58	5556.43
446.77	5549.41
446.95	5350.46
447.14	5453.45
447.32	5680.48
447.51	5643.03
447.69	5530.69
447.88	5526.00
448.06	5591.54
448.25	5565.79
448.43	5755.38
448.62	5533.03
448.80	5528.35
448.99	5661.76
449.17	5666.44
449.36	5603.24
449.54	5734.31
449.73	5846.66
449.91	5921.56
450.10	5909.85
450.28	5963.68
450.46	5970.71
450.65	5902.83
450.83	5928.58
451.02	5907.51
451.20	5991.77
451.39	5966.03
451.57	5935.60
451.76	5870.06
451.94	6059.65
452.13	6047.94
452.31	6061.99
452.49	5902.83
452.68	6033.90
452.86	6157.95
453.05	6200.08
453.23	6076.03
453.42	6242.21
453.60	5996.45
453.78	6183.70
453.97	6092.41
454.15	6216.46
454.34	6223.48
454.52	6263.27
454.70	6394.34
454.89	6525.41
455.07	6406.05
455.26	6396.68
455.44	6476.26
455.62	6354.55
455.81	6417.75
455.99	6562.86
456.17	6551.16
456.36	6384.98
456.54	6518.39
456.73	6637.76
456.91	6717.34
457.09	6717.34
457.28	6789.89
457.46	6768.83
457.64	6684.57
457.83	6850.75
458.01	6698.61
458.19	7171.40
458.38	6909.26
458.56	7049.69
458.74	6920.96
458.93	6846.07
459.11	7073.10
459.29	6923.30
459.48	7087.14
459.66	7108.21
459.84	7171.40
460.03	7232.26
460.21	7087.14
460.39	6984.16
460.57	7274.38
460.76	7243.96
460.94	7227.57
461.12	7234.60
461.31	7070.76
461.49	7269.70
461.67	7197.15
461.85	7318.86
462.04	7368.01
462.22	7698.02
462.40	7253.32
462.59	7365.67
462.77	7337.58
462.95	7529.50
463.13	7611.42
463.32	7658.23
463.50	7571.63
463.68	7810.37
463.86	7646.53
464.05	7590.36
464.23	7487.37
464.41	7513.12
464.59	7517.80
464.78	7679.30
464.96	7864.20
465.14	7686.32
465.32	7861.86
465.50	7779.94
465.69	7793.98
465.87	7962.50
466.05	7796.32
466.23	8046.76
466.41	7887.61
466.60	7974.21
466.78	8018.68
466.96	7761.22
467.14	7934.42
467.32	8042.08
467.51	8081.87
467.69	7775.26
467.87	8037.40
468.05	8145.06
468.23	8116.98
468.41	7943.78
468.60	8173.15
468.78	8299.54
468.96	8077.19
469.14	8053.78
469.32	8280.82
469.50	8152.09
469.69	8432.95
469.87	8407.20
470.05	8393.16
470.23	8416.57
470.41	8503.17
470.59	8435.29
470.77	8449.33
470.95	8510.19
471.14	8676.37
471.32	8540.61
471.50	8840.20
471.68	8732.54
471.86	8613.17
472.04	8872.97
472.22	8863.61
472.40	8784.03
472.58	8786.37
472.77	8882.33
472.95	8975.95
473.13	9373.85
473.31	8987.66
473.49	9081.28
473.67	8933.82
473.85	9071.92
474.03	9490.87
474.21	9245.12
474.39	9345.76
474.57	9303.63
474.75	9462.79
474.93	9589.17
475.12	9430.02
475.30	9696.84
475.48	9795.14
475.66	9694.50
475.84	9619.60
476.02	9795.14
476.20	9863.02
476.38	10038.56
476.56	10445.81
476.74	10347.51
476.92	10249.21
477.10	10054.94
477.28	10345.17
477.46	10406.02
477.64	10359.21
477.82	10565.18
478.00	10817.96
478.18	10684.55
478.36	10635.39
478.54	11087.12
478.72	10995.84
478.90	11197.12
479.08	11391.39
479.26	11173.72
479.44	11192.44
479.62	11403.09
479.80	11510.75
479.98	11323.51
480.16	11918.01
480.34	11648.85
480.52	11627.78
480.70	11929.71
480.88	11803.32
481.06	12006.95
481.24	12079.50
481.41	12308.88
481.59	12257.39
481.77	12299.52
481.95	12528.89
482.13	12727.83
482.31	12498.46
482.49	12819.11
482.67	12882.31
482.85	12896.35
483.03	12891.67
483.21	13247.43
483.39	13156.15
483.57	13312.97
483.74	13153.81
483.92	13462.76
484.10	13479.15
484.28	13724.90
484.46	14141.52
484.64	13926.19
484.82	13755.33
485.00	14176.62
485.18	14178.97
485.35	14736.01
485.53	14401.32
485.71	14448.13
485.89	14911.55
486.07	14792.19
486.25	14597.92
486.43	15037.94
486.61	15190.08
486.78	15433.49
486.96	15005.17
487.14	15417.11
487.32	15477.96
487.50	15723.72
487.68	15716.70
487.85	16109.91
488.03	16217.57
488.21	16269.06
488.39	16404.81
488.57	16601.42
488.75	16428.22
488.92	16423.54
489.10	16802.71
489.28	17252.09
489.46	17156.13
489.64	17219.32
489.81	17249.75
489.99	17362.09
490.17	17352.73
490.35	17652.32
490.53	17797.43
490.70	18270.22
490.88	17898.08
491.06	18242.14
491.24	18274.90
491.41	18382.57
491.59	18487.89
491.77	18513.64
491.95	18658.75
492.13	18911.53
492.30	18984.09
492.48	18904.51
492.66	18991.11
492.84	18986.43
493.01	19506.02
493.19	19426.45
493.37	19346.87
493.54	19749.44
493.72	19880.51
493.90	20006.90
494.08	19955.41
494.25	20063.07
494.43	19983.49
494.61	20496.07
494.79	20570.97
494.96	20503.09
495.14	20554.58
495.32	20922.05
495.49	20809.70
495.67	20875.24
495.85	21252.06
496.02	21415.90
496.20	21600.80
496.38	21701.45
496.55	21654.64
496.73	21956.57
496.91	21734.21
497.09	21724.85
497.26	22080.61
497.44	21912.10
497.62	22455.10
497.79	22487.87
497.97	22494.89
498.14	22597.87
498.32	22939.59
498.50	22785.12
498.67	23098.75
498.85	22817.88
499.03	23129.17
499.20	23171.30
499.38	23337.48
499.56	23201.73
499.73	23365.57
499.91	23424.08
500.08	23503.66
500.26	23587.92
500.44	23903.89
500.61	23688.56
500.79	23943.68
500.97	24266.67
501.14	24135.60
501.32	24343.91
501.49	24306.46
501.67	24287.74
501.84	24554.56
502.02	24545.20
502.20	24421.15
502.37	24926.71
502.55	24563.92
502.72	24898.62
502.90	25076.50
503.07	24823.72
503.25	24985.22
503.43	25013.31
503.60	25383.11
503.78	25568.01
503.95	25481.41
504.13	25268.42
504.30	25717.81
504.48	25689.72
504.65	25783.34
504.83	25961.22
505.01	26043.14
505.18	26001.01
505.36	26272.51
505.53	26096.97
505.71	26288.90
505.88	26258.47
506.06	26478.48
506.23	26288.90
506.41	26408.26
506.58	26778.07
506.76	26747.64
506.93	27197.02
507.11	26801.47
507.28	26941.91
507.46	26911.48
507.63	26874.03
507.81	27690.88
507.98	27126.81
508.16	27379.59
508.33	27461.51
508.50	28034.94
508.68	27679.18
508.85	28041.96
509.03	28219.84
509.20	28266.65
509.38	28144.94
509.55	27847.69
509.73	28063.02
509.90	28409.42
510.08	28364.95
510.25	28470.28
510.42	28610.71
510.60	28606.03
510.77	28879.87
510.95	29071.79
511.12	28760.50
511.30	28767.52
511.47	28706.67
511.64	28940.72
511.82	29244.99
511.99	29322.23
512.17	29462.66
512.34	29149.03
512.51	29418.19
512.69	30073.54
512.86	29867.58
513.04	29804.38
513.21	29804.38
513.38	29876.94
513.56	29928.43
513.73	30061.84
513.90	30141.42
514.08	30008.01
514.25	30223.34
514.43	30469.09
514.60	30284.19
514.77	30740.60
514.95	30658.68
515.12	30302.92
515.29	30962.95
515.47	30520.59
515.64	31161.89
515.81	30466.75
515.99	30888.05
516.16	31208.70
516.33	31122.10
516.51	31388.92
516.68	31068.27
516.85	31372.54
517.03	31131.47
517.20	31367.86
517.37	31255.51
517.54	31826.60
517.72	31447.44
517.89	31344.45
518.06	31559.78
518.24	31527.02
518.41	31604.25
518.58	31732.98
518.75	31555.10
518.93	31857.03
519.10	31742.35
519.27	32187.05
519.45	32198.75
519.62	32320.46
519.79	32294.71
519.96	32376.63
520.14	32409.40
520.31	32243.22
520.48	32886.87
520.65	32517.06
520.83	33174.75
521.00	33099.86
521.17	32971.13
521.34	33324.55
521.52	33160.71
521.69	33476.68
521.86	33195.82
522.03	33642.86
522.20	33146.67
522.38	34045.43
522.55	33553.92
522.72	33593.71
522.89	33764.57
523.07	34312.25
523.24	34171.82
523.41	34288.85
523.58	33926.07
523.75	34391.83
523.92	34050.11
524.10	34527.58
524.27	34206.93
524.44	34141.39
524.61	34487.79
524.78	34558.01
524.96	34604.82
525.13	34426.94
525.30	34429.28
525.47	34927.81
525.64	34918.45
525.81	34632.91
525.98	34499.50
526.16	35014.41
526.33	35143.14
526.50	35089.31
526.67	34733.55
526.84	35292.94
527.01	34969.94
527.18	35288.26
527.36	35789.13
527.53	35306.98
527.70	35845.30
527.87	35765.73
528.04	35342.09
528.21	35524.65
528.38	35201.66
528.55	36081.70
528.72	35810.20
528.89	36034.89
529.07	35941.27
529.24	35906.16
529.41	35838.28
529.58	35627.63
529.75	36100.42
529.92	35995.10
530.09	35828.92
530.26	35974.03
530.43	36196.38
530.60	36081.70
530.77	35920.20
530.94	36268.94
531.11	36601.30
531.28	36779.18
531.46	36287.67
531.63	36671.51
531.80	36629.38
531.97	37338.57
532.14	36524.06
532.31	36751.09
532.48	36905.57
532.65	37317.50
532.82	36868.12
532.99	37193.45
533.16	37462.61
533.33	36989.83
533.50	37577.30
533.67	37469.64
533.84	36919.61
534.01	37439.21
534.18	37549.21
534.35	37801.99
534.52	37560.92
534.69	37787.95
534.86	37958.81
535.03	37589.00
535.20	37727.10
535.37	38003.28
535.54	38014.98
535.71	37785.61
535.88	37811.35
536.05	37518.79
536.22	37984.55
536.38	38129.67
536.55	37942.42
536.72	38394.15
536.89	37858.17
537.06	38394.15
537.23	38366.06
537.40	37888.59
537.57	38424.57
537.74	38218.61
537.91	38644.59
538.08	38778.00
538.25	38302.87
538.42	38794.38
538.59	38962.90
538.75	38986.30
538.92	39042.48
539.09	38958.22
539.26	39115.03
539.43	39147.80
539.60	38728.84
539.77	39210.99
539.94	38890.34
540.11	39353.77
540.28	38873.96
540.44	39068.22
540.61	39150.14
540.78	39241.42
540.95	39285.89
541.12	39349.09
541.29	39122.05
541.46	39349.09
541.62	39386.54
541.79	39821.87
541.96	39243.76
542.13	39688.46
542.30	39548.03
542.47	39714.21
542.63	39995.07
542.80	39828.90
542.97	40493.61
543.14	39903.79
543.31	39959.97
543.48	40161.25
543.64	40715.96
543.81	40535.74
543.98	40250.19
544.15	40268.92
544.32	40341.47
544.48	40692.55
544.65	40294.66
544.82	40858.73
544.99	40418.71
545.16	40718.30
545.32	40680.85
545.49	40786.18
545.66	41020.23
545.83	40942.99
546.00	40870.43
546.16	40816.60
546.33	41076.40
546.50	40442.12
546.67	41338.54
546.83	40531.06
547.00	41006.19
547.17	40765.11
547.34	41153.64
547.50	41177.04
547.67	41621.75
547.84	41113.85
548.00	41490.68
548.17	41542.17
548.34	41570.25
548.51	41390.03
548.67	41989.21
548.84	41244.92
549.01	41617.07
549.18	41387.69
549.34	41769.20
549.51	42082.83
549.68	42249.01
549.84	41963.46
550.01	41961.12
550.18	41986.87
550.34	42384.76
550.51	41874.52
550.68	42047.72
550.84	41893.25
551.01	42178.79
551.18	41853.46
551.34	42148.37
551.51	41956.44
551.68	41984.53
551.84	42057.09
552.01	42127.30
552.18	42508.81
552.34	41956.44
552.51	42649.24
552.68	42185.82
552.84	42611.79
553.01	42579.03
553.18	42520.51
553.34	42499.45
553.51	42466.68
553.67	42513.49
553.84	42609.45
554.01	42644.56
554.17	42597.75
554.34	43290.55
554.51	42934.79
554.67	43328.00
554.84	43138.41
555.00	42883.30
555.17	42710.10
555.33	43290.55
555.50	42923.08
555.67	42990.96
555.83	43206.29
556.00	43131.39
556.16	43196.93
556.33	43564.39
556.50	43225.01
556.66	43335.02
556.83	42836.48
556.99	43386.51
557.16	43798.44
557.32	43475.45
557.49	43686.10
557.65	43337.36
557.82	43456.73
557.98	43742.27
558.15	43779.72
558.32	43400.55
558.48	43690.78
558.65	43573.75
558.81	43770.36
558.98	43620.56
559.14	43995.05
559.31	43257.78
559.47	43470.77
559.64	43716.53
559.80	43578.43
559.97	43955.26
560.13	43793.76
560.30	43344.38
560.46	43931.86
560.63	43871.00
560.79	44224.42
560.96	44177.61
561.12	43978.67
561.29	44055.90
561.45	43964.62
561.61	44041.86
561.78	43957.60
561.94	44067.61
562.11	43880.36
562.27	43892.07
562.44	44229.10
562.60	44615.29
562.77	44116.76
562.93	44446.77
563.10	44170.59
563.26	44421.03
563.42	44566.14
563.59	43955.26
563.75	44547.42
563.92	44275.91
564.08	44706.57
564.24	44458.48
564.41	43973.98
564.57	44184.63
564.74	44046.54
564.90	44182.29
565.07	44154.21
565.23	44105.06
565.39	44657.42
565.56	44463.16
565.72	44336.77
565.88	44758.06
566.05	44720.62
566.21	44334.43
566.38	44708.91
566.54	44744.02
566.70	44521.67
566.87	44762.75
567.03	44210.38
567.19	45062.33
567.36	44547.42
567.52	44318.04
567.68	44800.19
567.85	44460.82
568.01	44835.30
568.17	45027.23
568.34	44701.89
568.50	44835.30
568.66	44505.29
568.83	44751.04
568.99	44842.32
569.15	44957.01
569.32	44814.24
569.48	44851.69
569.64	45088.08
569.81	45116.17
569.97	44928.92
570.13	45102.12
570.30	44793.17
570.46	44975.73
570.62	45244.90
570.78	44821.26
570.95	44989.78
571.11	45174.68
571.27	44671.46
571.43	44739.34
571.60	44832.96
571.76	45202.77
571.92	45076.38
572.09	45324.47
572.25	45181.70
572.41	45059.99
572.57	44924.24
572.74	45457.88
572.90	44678.49
573.06	45359.58
573.22	45008.50
573.38	45256.60
573.55	45338.52
573.71	45619.38
573.87	45162.98
574.03	45198.09
574.20	45387.67
574.36	45507.04
574.52	45439.16
574.68	45425.12
574.84	45258.94
575.01	45425.12
575.17	45883.86
575.33	45476.61
575.49	45574.91
575.65	45275.32
575.82	45460.23
575.98	45298.73
576.14	45624.06
576.30	45839.39
576.46	45294.05
576.62	45170.00
576.79	45745.77
576.95	44746.36
577.11	45233.19
577.27	45354.90
577.43	45301.07
577.59	45488.31
577.75	45041.27
577.92	44875.09
578.08	45413.41
578.24	45399.37
578.40	45689.60
578.56	45640.45
578.72	45371.28
578.88	45581.93
579.04	45359.58
579.21	45359.58
579.37	45724.71
579.53	45708.32
579.69	45375.97
579.85	45528.10
580.01	45354.90
580.17	45476.61
580.33	45514.06
580.49	45247.24
580.65	45815.99
580.82	45572.57
580.98	45179.36
581.14	45385.33
581.30	45991.53
581.46	45408.73
581.62	45357.24
581.78	45544.48
581.94	45956.42
582.10	45415.76
582.26	45865.14
582.42	45624.06
582.58	45570.23
582.74	45542.14
582.90	45780.88
583.06	45715.34
583.22	45467.25
583.38	45865.14
583.54	45823.01
583.70	45368.94
583.86	45713.00
584.02	45359.58
584.18	46078.13
584.34	45694.28
584.50	45872.16
584.66	45567.89
584.82	45598.32
584.98	46136.64
585.14	45998.55
585.30	45579.59
585.46	45378.31
585.62	45610.02
585.78	45635.77
585.94	45401.71
586.10	46003.23
586.26	45521.08
586.42	45574.91
586.58	45694.28
586.74	45404.05
586.90	45532.78
587.06	45612.36
587.22	45923.65
587.38	45834.71
587.54	46005.57
587.70	46021.95
587.86	46075.79
588.02	45727.05
588.18	45553.85
588.34	45666.19
588.49	46010.25
588.65	45666.19
588.81	46014.93
588.97	45792.58
589.13	45595.98
589.29	45563.21
589.45	46387.08
589.61	46038.34
589.77	46375.37
589.93	46213.88
590.08	46026.63
