SpectraSuite Data File
++++++++++++++++++++++++++++++++++++
Date: Fri Oct 25 10:47:28 EDT 2013
User: price-jones
Dark Spectrum Present: No
Reference Spectrum Present: No
Number of Sampled Component Spectra: 1
Spectrometers: USB2+H05261
Integration Time (usec): 100000 (USB2+H05261)
Spectra Averaged: 1 (USB2+H05261)
Boxcar Smoothing: 0 (USB2+H05261)
Correct for Electrical Dark: No (USB2+H05261)
Strobe/Lamp Enabled: No (USB2+H05261)
Correct for Detector Non-linearity: No (USB2+H05261)
Correct for Stray Light: No (USB2+H05261)
Number of Pixels in Processed Spectrum: 2048
>>>>>Begin Processed Spectral Data<<<<<
365.73	152.13
365.92	152.13
366.12	152.13
366.32	58.51
366.52	37.45
366.72	32.77
366.91	98.30
367.11	39.79
367.31	0.00
367.51	25.75
367.70	70.22
367.90	14.04
368.10	65.54
368.30	0.00
368.49	60.85
368.69	42.13
368.89	37.45
369.09	65.54
369.28	65.54
369.48	46.81
369.68	25.75
369.87	100.64
370.07	124.05
370.27	138.09
370.47	210.65
370.66	372.15
370.86	395.55
371.06	414.27
371.25	486.83
371.45	430.66
371.65	400.23
371.84	402.57
372.04	447.04
372.24	533.64
372.44	514.92
372.63	519.60
372.83	468.11
373.03	521.94
373.22	547.69
373.42	477.47
373.62	561.73
373.81	552.37
374.01	524.28
374.21	470.45
374.40	554.71
374.60	538.32
374.79	505.56
374.99	505.56
375.19	538.32
375.38	610.88
375.58	533.64
375.78	631.94
375.97	561.73
376.17	617.90
376.37	587.47
376.56	589.82
376.76	575.77
376.95	561.73
377.15	645.99
377.35	559.39
377.54	580.45
377.74	585.13
377.93	594.50
378.13	599.18
378.33	613.22
378.52	627.26
378.72	578.11
378.91	617.90
379.11	653.01
379.31	578.11
379.50	578.11
379.70	601.52
379.89	613.22
380.09	634.29
380.28	660.03
380.48	622.58
380.68	634.29
380.87	587.47
381.07	660.03
381.26	641.31
381.46	676.41
381.65	662.37
381.85	678.76
382.04	603.86
382.24	568.75
382.43	692.80
382.63	648.33
382.83	627.26
383.02	599.18
383.22	706.84
383.41	711.52
383.61	760.67
383.80	690.46
384.00	744.29
384.19	718.54
384.39	716.20
384.58	758.33
384.78	723.23
384.97	718.54
385.17	699.82
385.36	760.67
385.56	786.42
385.75	746.63
385.95	767.70
386.14	720.88
386.34	718.54
386.53	821.53
386.72	821.53
386.92	772.38
387.11	739.61
387.31	781.74
387.50	814.51
387.70	795.78
387.89	816.85
388.09	755.99
388.28	837.91
388.48	912.81
388.67	847.27
388.86	844.93
389.06	798.12
389.25	905.79
389.45	828.55
389.64	779.40
389.84	971.32
390.03	889.40
390.22	917.49
390.42	929.19
390.61	880.04
390.81	947.92
391.00	936.21
391.19	851.96
391.39	926.85
391.58	912.81
391.78	961.96
391.97	1027.50
392.16	924.51
392.36	903.45
392.55	1018.13
392.75	992.39
392.94	966.64
393.13	957.28
393.33	945.58
393.52	990.05
393.71	952.60
393.91	926.85
394.10	950.26
394.29	1055.58
394.49	1088.35
394.68	1088.35
394.88	1036.86
395.07	1013.45
395.26	1013.45
395.46	1214.74
395.65	1057.92
395.84	1130.48
396.04	1142.18
396.23	1093.03
396.42	1041.54
396.62	1193.67
396.81	1083.67
397.00	1107.07
397.19	1163.25
397.39	1151.54
397.58	1174.95
397.77	1179.63
397.97	1268.57
398.16	1261.55
398.35	1240.48
398.55	1306.02
398.74	1205.38
398.93	1277.93
399.12	1313.04
399.32	1352.83
399.51	1224.10
399.70	1366.87
399.90	1369.21
400.09	1404.32
400.28	1404.32
400.47	1357.51
400.67	1434.75
400.86	1383.26
401.05	1385.60
401.24	1385.60
401.44	1483.90
401.63	1359.85
401.82	1432.41
402.01	1458.15
402.21	1483.90
402.40	1406.66
402.59	1418.36
402.78	1418.36
402.97	1561.14
403.17	1528.37
403.36	1605.61
403.55	1593.90
403.74	1500.28
403.93	1556.46
404.13	1549.43
404.32	1605.61
404.51	1547.09
404.70	1659.44
404.89	1643.06
405.09	1659.44
405.28	1619.65
405.47	1717.95
405.66	1687.53
405.85	1727.32
406.05	1715.61
406.24	1701.57
406.43	1792.85
406.62	1757.74
406.81	1830.30
407.00	1736.68
407.20	1687.53
407.39	1724.97
407.58	1900.52
407.77	1865.41
407.96	1886.47
408.15	1937.96
408.34	1888.81
408.54	1963.71
408.73	2012.86
408.92	1980.09
409.11	2087.76
409.30	2033.93
409.49	2026.90
409.68	1982.43
409.87	2017.54
410.07	1966.05
410.26	2076.06
410.45	2012.86
410.64	2148.61
410.83	2132.23
411.02	2204.78
411.21	2195.42
411.40	2162.66
411.59	2237.55
411.78	2195.42
411.98	2249.25
412.17	2429.48
412.36	2361.60
412.55	2291.38
412.74	2300.75
412.93	2331.17
413.12	2296.07
413.31	2434.16
413.50	2485.65
413.69	2417.77
413.88	2511.39
414.07	2532.46
414.26	2616.72
414.45	2499.69
414.64	2473.95
414.83	2558.21
415.02	2520.76
415.22	2661.19
415.41	2738.43
415.60	2710.34
415.79	2750.13
415.98	2810.98
416.17	2696.30
416.36	2717.36
416.55	2729.06
416.74	2825.03
416.93	2815.66
417.12	2937.37
417.31	2977.16
417.50	2925.67
417.69	2942.05
417.88	2953.76
418.07	2960.78
418.26	2958.44
418.45	3016.95
418.64	3155.04
418.83	3176.11
419.02	3094.19
419.21	3082.49
419.39	3204.19
419.58	3056.74
419.77	3124.62
419.96	3220.58
420.15	3166.74
420.34	3272.07
420.53	3269.73
420.72	3400.80
420.91	3288.45
421.10	3283.77
421.29	3293.13
421.48	3325.90
421.67	3276.75
421.86	3199.51
422.05	3276.75
422.24	3314.20
422.43	3213.56
422.61	3407.82
422.80	3435.91
422.99	3515.48
423.18	3412.50
423.37	3407.82
423.56	3494.42
423.75	3410.16
423.94	3293.13
424.13	3229.94
424.32	3323.56
424.50	3475.70
424.69	3468.67
424.88	3658.26
425.07	3456.97
425.26	3478.04
425.45	3393.78
425.64	3403.14
425.83	3501.44
426.01	3447.61
426.20	3482.72
426.39	3536.55
426.58	3461.65
426.77	3543.57
426.96	3543.57
427.15	3506.12
427.33	3627.83
427.52	3630.17
427.71	3562.30
427.90	3702.73
428.09	3623.15
428.28	3686.34
428.46	3662.94
428.65	3662.94
428.84	3740.18
429.03	3719.11
429.22	3590.38
429.40	3749.54
429.59	3681.66
429.78	3590.38
429.97	3641.87
430.16	3578.68
430.34	3730.81
430.53	3728.47
430.72	3810.39
430.91	3777.62
431.10	3866.56
431.28	3992.95
431.47	4067.85
431.66	3995.29
431.85	3948.48
432.03	4018.70
432.22	4147.43
432.41	3971.89
432.60	4032.74
432.79	4184.88
432.97	3932.10
433.16	4081.89
433.35	4011.68
433.54	4159.13
433.72	4177.86
433.91	4098.28
434.10	4271.48
434.28	4327.65
434.47	4142.75
434.66	4395.53
434.85	4318.29
435.03	4374.46
435.22	4449.36
435.41	4376.80
435.59	4351.06
435.78	4404.89
435.97	4451.70
436.16	4545.32
436.34	4596.81
436.53	4451.70
436.72	4638.94
436.90	4559.36
437.09	4561.70
437.28	4463.40
437.46	4531.28
437.65	4578.09
437.84	4725.54
438.02	4667.03
438.21	4664.69
438.40	4496.17
438.58	4667.03
438.77	4802.78
438.96	4873.00
439.14	4966.62
439.33	5029.81
439.52	4889.38
439.70	5013.43
439.89	4901.08
440.08	4950.23
440.26	4952.57
440.45	4917.47
440.63	4924.49
440.82	5153.86
441.01	5130.45
441.19	5172.58
441.38	5535.37
441.57	5217.05
441.75	5455.79
441.94	5526.00
442.12	5446.43
442.31	5556.43
442.50	5509.62
442.68	5514.30
442.87	5434.72
443.05	5467.49
443.24	5561.11
443.43	5472.17
443.61	5753.04
443.80	5769.42
443.98	5497.92
444.17	5526.00
444.35	5650.05
444.54	5612.60
444.73	5689.84
444.91	5600.90
445.10	5661.76
445.28	5570.48
445.47	5767.08
445.65	5825.59
445.84	5720.27
446.02	5757.72
446.21	5844.32
446.39	5671.12
446.58	5816.23
446.77	5872.40
446.95	5734.31
447.14	5724.95
447.32	5949.64
447.51	5802.19
447.69	5668.78
447.88	5701.54
448.06	5827.93
448.25	5834.96
448.43	6040.92
448.62	5954.32
448.80	5996.45
448.99	5860.70
449.17	6047.94
449.36	5884.11
449.54	5961.34
449.73	5994.11
449.91	6085.39
450.10	6113.48
450.28	6483.28
450.46	6499.67
450.65	6115.82
450.83	6354.55
451.02	6216.46
451.20	6303.06
451.39	6225.82
451.57	6270.30
451.76	6132.20
451.94	6223.48
452.13	6274.98
452.31	6352.21
452.49	6190.72
452.68	6338.17
452.86	6478.60
453.05	6377.96
453.23	6497.33
453.42	6331.15
453.60	6562.86
453.78	6445.84
453.97	6600.31
454.15	6565.20
454.34	6532.44
454.52	6436.47
454.70	6504.35
454.89	6562.86
455.07	6502.01
455.26	6628.40
455.44	6822.66
455.62	6773.51
455.81	6696.27
455.99	6991.18
456.17	6874.15
456.36	6689.25
456.54	6874.15
456.73	7033.31
456.91	7009.90
457.09	7206.51
457.28	7236.94
457.46	7096.50
457.64	7232.26
457.83	7077.78
458.01	7171.40
458.19	7225.23
458.38	7066.08
458.56	7204.17
458.74	7236.94
458.93	7396.09
459.11	7377.37
459.29	7351.62
459.48	7199.49
459.66	7342.26
459.84	7370.35
460.03	7527.16
460.21	7564.61
460.39	7328.22
460.57	7564.61
460.76	7463.97
460.94	7452.27
461.12	7583.34
461.31	7520.14
461.49	7597.38
461.67	7578.65
461.85	7775.26
462.04	7803.35
462.22	8180.17
462.40	7878.24
462.59	7889.95
462.77	7744.83
462.95	7866.54
463.13	7896.97
463.32	7929.74
463.50	7765.90
463.68	7983.57
463.86	8021.02
464.05	7775.26
464.23	7779.94
464.41	8030.38
464.59	7847.82
464.78	8154.43
464.96	8212.94
465.14	7852.50
465.32	8018.68
465.50	8037.40
465.69	8140.38
465.87	8205.92
466.05	8212.94
466.23	8025.70
466.41	8056.12
466.60	8461.04
466.78	8147.40
466.96	8315.92
467.14	8388.48
467.32	8327.63
467.51	8336.99
467.69	8163.79
467.87	8311.24
468.05	8360.39
468.23	8472.74
468.41	8297.20
468.60	8224.64
468.78	8575.72
468.96	8297.20
469.14	8535.93
469.32	8608.49
469.50	8531.25
469.69	8795.73
469.87	8648.28
470.05	8594.45
470.23	8507.85
470.41	8828.50
470.59	8807.44
470.77	8826.16
470.95	8751.26
471.14	8926.80
471.32	8781.69
471.50	9158.52
471.68	9081.28
471.86	9167.88
472.04	9151.49
472.22	9284.91
472.40	9107.02
472.58	9312.99
472.77	9128.09
472.95	9413.63
473.13	9774.08
473.31	9291.93
473.49	9392.57
473.67	9355.12
473.85	9364.48
474.03	9624.28
474.21	9607.90
474.39	9914.51
474.57	9589.17
474.75	9729.61
474.93	9706.20
475.12	9736.63
475.30	9970.68
475.48	9811.53
475.66	10106.43
475.84	9788.12
476.02	9926.21
476.20	10181.33
476.38	10441.13
476.56	10628.37
476.74	10567.52
476.92	10415.38
477.10	10319.42
477.28	10796.89
477.46	10714.97
477.64	10750.08
477.82	11054.35
478.00	11253.30
478.18	10958.39
478.36	11199.46
478.54	11084.78
478.72	11110.52
478.90	11314.15
479.08	11583.31
479.26	11398.41
479.44	11552.88
479.62	11775.24
479.80	11726.08
479.98	11910.99
480.16	12093.55
480.34	11892.26
480.52	12138.02
480.70	12229.30
480.88	12358.03
481.06	12304.20
481.24	12561.66
481.41	12493.78
481.59	12706.77
481.77	12795.71
481.95	12585.06
482.13	12989.97
482.31	12769.96
482.49	12973.59
482.67	13160.83
482.85	13362.12
483.03	13451.06
483.21	13642.98
483.39	13626.60
483.57	13752.99
483.74	13884.06
483.92	13937.89
484.10	13813.84
484.28	13942.57
484.46	14298.33
484.64	14448.13
484.82	14279.61
485.00	14420.04
485.18	14743.03
485.35	14834.32
485.53	14939.64
485.71	14672.82
485.89	15059.01
486.07	14817.93
486.25	15016.88
486.43	15035.60
486.61	15435.83
486.78	15477.96
486.96	15826.70
487.14	15772.87
487.32	15929.69
487.50	16133.31
487.68	16372.05
487.85	16524.18
488.03	16716.11
488.21	16664.61
488.39	16393.11
488.57	17137.40
488.75	16823.77
488.92	17343.37
489.10	17554.02
489.28	17619.55
489.46	17575.08
489.64	17633.60
489.81	18012.76
489.99	17972.97
490.17	18246.82
490.35	18200.01
490.53	18097.02
490.70	18298.31
490.88	18284.26
491.06	18551.09
491.24	18934.93
491.41	18850.67
491.59	19023.87
491.77	18862.38
491.95	19091.75
492.13	19243.88
492.30	19365.59
492.48	19456.87
492.66	19639.44
492.84	19707.31
493.01	19805.61
493.19	19800.93
493.37	20198.82
493.54	20357.98
493.72	20077.12
493.90	20219.89
494.08	20863.54
494.25	20767.57
494.43	20526.50
494.61	20900.98
494.79	21172.49
494.96	21046.10
495.14	21106.95
495.32	21090.57
495.49	21411.22
495.67	21317.60
495.85	21778.68
496.02	21996.35
496.20	21923.80
496.38	22003.38
496.55	21781.03
496.73	22913.84
496.91	22424.67
497.09	22286.58
497.26	22611.92
497.44	22878.74
497.62	22806.18
497.79	22693.83
497.97	22991.08
498.14	23054.28
498.32	23077.68
498.50	23190.03
498.67	23419.40
498.85	23597.28
499.03	23702.61
499.20	23578.56
499.38	23573.88
499.56	23889.85
499.73	23775.16
499.91	24072.41
500.08	23929.64
500.26	24077.09
500.44	24467.96
500.61	23978.79
500.79	24123.90
500.97	24720.74
501.14	24694.99
501.32	24814.36
501.49	24823.72
501.67	25071.82
501.84	25338.64
502.02	25226.29
502.20	25029.69
502.37	25558.65
502.55	25399.49
502.72	25469.71
502.90	25472.05
503.07	25797.38
503.25	25518.86
503.43	25453.33
503.60	26015.05
503.78	25621.84
503.95	26019.74
504.13	25965.90
504.30	25893.35
504.48	26012.71
504.65	26167.19
504.83	26410.60
505.01	26483.16
505.18	26539.33
505.36	26845.94
505.53	26546.36
505.71	26857.65
505.88	27395.97
506.06	26794.45
506.23	27208.73
506.41	27047.23
506.58	27091.70
506.76	27405.33
506.93	27218.09
507.11	27517.68
507.28	27466.19
507.46	27690.88
507.63	27681.52
507.81	27831.31
507.98	27627.68
508.16	27786.84
508.33	28133.24
508.50	28093.45
508.68	28067.70
508.85	28236.22
509.03	28435.17
509.20	28538.15
509.38	28091.11
509.55	28437.51
509.73	28584.96
509.90	29036.69
510.08	28861.15
510.25	28725.39
510.42	28823.70
510.60	28882.21
510.77	28982.85
510.95	29266.06
511.12	29345.64
511.30	29350.32
511.47	29495.43
511.64	29610.12
511.82	29685.01
511.99	29413.51
512.17	29715.44
512.34	29472.03
512.51	29902.68
512.69	29825.45
512.86	30146.10
513.04	30326.32
513.21	29769.27
513.38	30181.21
513.56	30387.18
513.73	30078.22
513.90	30555.69
514.08	30646.97
514.25	30258.45
514.43	30448.03
514.60	30415.26
514.77	30525.27
514.95	30836.56
515.12	30628.25
515.29	31012.10
515.47	30827.20
515.64	30799.11
515.81	31091.68
515.99	31087.00
516.16	30993.37
516.33	31489.57
516.51	31667.45
516.68	31187.64
516.85	30939.54
517.03	31938.95
517.20	31346.79
517.37	31557.44
517.54	31978.74
517.72	32126.19
517.89	31475.52
518.06	31999.80
518.24	31782.13
518.41	32011.51
518.58	31648.72
518.75	31988.10
518.93	32219.81
519.10	31995.12
519.27	32203.43
519.45	32514.72
519.62	32680.90
519.79	32849.42
519.96	32727.71
520.14	32900.91
520.31	32893.89
520.48	32336.84
520.65	32655.15
520.83	33158.37
521.00	33542.22
521.17	33226.24
521.34	33202.84
521.52	33333.91
521.69	33209.86
521.86	33352.63
522.03	33537.54
522.20	33752.87
522.38	33649.88
522.55	33933.09
522.72	33820.74
522.89	33769.25
523.07	34026.71
523.24	33631.16
523.41	33890.96
523.58	33656.90
523.75	34455.03
523.92	34281.83
524.10	34417.58
524.27	34178.84
524.44	34618.86
524.61	34660.99
524.78	34579.07
524.96	34822.49
525.13	34979.31
525.30	35079.95
525.47	34892.71
525.64	34923.13
525.81	35063.57
525.98	34946.54
526.16	34934.84
526.33	34780.36
526.50	35171.23
526.67	34733.55
526.84	35161.87
527.01	34944.20
527.18	35189.95
527.36	35218.04
527.53	35412.31
527.70	35805.52
527.87	35545.72
528.04	35761.05
528.21	35505.93
528.38	35658.06
528.55	35606.57
528.72	36247.88
528.89	36215.11
529.07	35833.60
529.24	35716.58
529.41	35903.82
529.58	35690.83
529.75	35758.70
529.92	36102.76
530.09	36081.70
530.26	36369.58
530.43	36086.38
530.60	36306.39
530.77	36388.31
530.94	36854.08
531.11	36425.76
531.28	36938.33
531.46	36830.67
531.63	36781.52
531.80	36627.04
531.97	36591.94
532.14	36856.42
532.31	37015.57
532.48	37125.58
532.65	36720.66
532.82	37315.16
532.99	37125.58
533.16	36877.48
533.33	36779.18
533.50	37158.34
533.67	37696.67
533.84	36973.44
534.01	37652.20
534.18	37354.95
534.35	37956.47
534.52	37298.78
534.69	37251.97
534.86	37563.26
535.03	37574.96
535.20	37823.06
535.37	37968.17
535.54	38061.79
535.71	38047.75
535.88	37914.34
536.05	38267.76
536.22	37963.49
536.38	37930.72
536.55	38120.31
536.72	38096.90
536.89	37961.15
537.06	38007.96
537.23	37912.00
537.40	37940.08
537.57	38499.47
537.74	38464.36
537.91	38675.01
538.08	38211.59
538.25	38546.28
538.42	38256.06
538.59	39012.05
538.75	38164.78
538.92	38707.78
539.09	38689.06
539.26	38803.74
539.43	38944.17
539.60	38820.13
539.77	39023.75
539.94	39103.33
540.11	38738.21
540.28	38876.30
540.44	39543.35
540.61	38913.75
540.78	39110.35
540.95	39047.16
541.12	39292.91
541.29	39131.42
541.46	38972.26
541.62	39681.44
541.79	39899.11
541.96	38848.21
542.13	39592.50
542.30	39356.11
542.47	39374.83
542.63	39566.76
542.80	39681.44
542.97	40334.45
543.14	40563.82
543.31	39988.05
543.48	40016.14
543.64	40491.27
543.81	40135.51
543.98	40081.67
544.15	40196.36
544.32	40128.48
544.48	40278.28
544.65	40278.28
544.82	40460.84
544.99	39772.72
545.16	40154.23
545.32	39674.42
545.49	40418.71
545.66	40659.79
545.83	40402.33
546.00	40877.46
546.16	40418.71
546.33	40360.20
546.50	40187.00
546.67	41141.94
546.83	40306.37
547.00	40687.87
547.17	40912.56
547.34	40893.84
547.50	41078.74
547.67	40802.56
547.84	40706.60
548.00	41125.55
548.17	40755.75
548.34	41284.71
548.51	41460.25
548.67	41221.52
548.84	41619.41
549.01	41366.63
549.18	41336.20
549.34	41069.38
549.51	41579.62
549.68	41462.59
549.84	41406.42
550.01	41677.92
550.18	41043.63
550.34	41390.03
550.51	41523.44
550.68	41174.70
550.84	41228.54
551.01	41542.17
551.18	41249.60
551.34	41525.78
551.51	41787.92
551.68	41380.67
551.84	41736.43
552.01	41698.98
552.18	41677.92
552.34	41418.12
552.51	42014.96
552.68	42099.22
552.84	42136.66
553.01	42560.30
553.18	41830.05
553.34	42211.56
553.51	41736.43
553.67	42148.37
553.84	42110.92
554.01	42330.93
554.17	42632.86
554.34	42588.39
554.51	42499.45
554.67	42700.73
554.84	42328.59
555.00	42445.62
555.17	42515.83
555.33	42527.53
555.50	42031.34
555.67	42183.48
555.83	42454.98
556.00	42703.07
556.16	42862.23
556.33	42513.49
556.50	42366.04
556.66	43061.18
556.83	42724.14
556.99	43012.02
557.16	43049.47
557.32	42850.53
557.49	42848.19
557.65	42239.65
557.82	42497.11
557.98	43033.09
558.15	42946.49
558.32	42979.26
558.48	43037.77
558.65	43222.67
558.81	42902.02
558.98	43000.32
559.14	42806.06
559.31	42745.20
559.47	43096.28
559.64	43047.13
559.80	43512.90
559.97	43302.25
560.13	43079.90
560.30	42969.90
560.46	42993.30
560.63	43180.54
560.79	43344.38
560.96	43175.86
561.12	43005.00
561.29	43086.92
561.45	42958.19
561.61	43438.00
561.78	43241.40
561.94	42876.27
562.11	43161.82
562.27	43154.80
562.44	42948.83
562.60	43407.58
562.77	43592.48
562.93	43248.42
563.10	43339.70
563.26	43257.78
563.42	43281.19
563.59	43590.14
563.75	43620.56
563.92	43742.27
564.08	43435.66
564.24	43826.53
564.41	43533.96
564.57	43681.42
564.74	43430.98
564.90	43412.26
565.07	43702.48
565.23	43662.69
565.39	43246.08
565.56	43744.61
565.72	43154.80
565.88	43423.96
566.05	43171.18
566.21	43838.23
566.38	43899.09
566.54	43171.18
566.70	44194.00
566.87	43990.37
567.03	43515.24
567.19	43894.41
567.36	44177.61
567.52	43863.98
567.68	43868.66
567.85	43550.35
568.01	44093.35
568.17	43751.63
568.34	43737.59
568.50	43538.65
568.66	43508.22
568.83	43597.16
568.99	43587.80
569.15	43999.73
569.32	44107.40
569.48	43805.47
569.64	44194.00
569.81	43988.03
569.97	43915.47
570.13	44051.22
570.30	43814.83
570.46	43908.45
570.62	43601.84
570.78	43498.86
570.95	43906.11
571.11	44261.87
571.27	43913.13
571.43	44023.14
571.60	44507.63
571.76	43702.48
571.92	44046.54
572.09	44048.88
572.25	43789.08
572.41	43856.96
572.57	44259.53
572.74	44692.53
572.90	44196.34
573.06	44261.87
573.22	44088.67
573.38	43938.88
573.55	43793.76
573.71	43957.60
573.87	44346.13
574.03	43807.81
574.20	44179.95
574.36	43606.52
574.52	44479.54
574.68	44140.16
574.84	44189.31
575.01	44320.38
575.17	43943.56
575.33	44210.38
575.49	44114.42
575.65	44495.92
575.82	44470.18
575.98	43665.03
576.14	44872.75
576.30	44273.57
576.46	44289.96
576.62	43920.15
576.79	44058.24
576.95	44023.14
577.11	44149.53
577.27	44388.26
577.43	44589.55
577.59	44278.25
577.75	44353.15
577.92	44177.61
578.08	44086.33
578.24	44109.74
578.40	44350.81
578.56	44179.95
578.72	44325.07
578.88	44226.76
579.04	44348.47
579.21	44163.57
579.37	44079.31
579.53	44191.65
579.69	43599.50
579.85	44259.53
580.01	44222.08
580.17	44327.41
580.33	44203.36
580.49	44367.20
580.65	44673.81
580.82	44392.94
580.98	44172.93
581.14	44203.36
581.30	44423.37
581.46	44589.55
581.62	44697.21
581.78	44320.38
581.94	44652.74
582.10	44481.88
582.26	44528.69
582.42	44158.89
582.58	44350.81
582.74	44301.66
582.90	44378.90
583.06	44680.83
583.22	44552.10
583.38	44505.29
583.54	44390.60
583.70	44210.38
583.86	44343.79
584.02	44058.24
584.18	44528.69
584.34	44582.52
584.50	44870.41
584.66	44385.92
584.82	43948.24
584.98	44357.83
585.14	44612.95
585.30	44318.04
585.46	44404.64
585.62	44091.01
585.78	44685.51
585.94	43667.37
586.10	44098.03
586.26	44402.30
586.42	44233.78
586.58	44416.35
586.74	44093.35
586.90	44404.64
587.06	43739.93
587.22	44755.72
587.38	44177.61
587.54	44666.78
587.70	44907.86
587.86	44582.52
588.02	44528.69
588.18	44561.46
588.34	44451.45
588.49	44203.36
588.65	44399.96
588.81	44608.27
588.97	44105.06
589.13	44168.25
589.29	44603.59
589.45	44453.79
589.61	44390.60
589.77	44884.45
589.93	44486.56
590.08	44699.55
590.24	44765.09
590.40	44439.75
