SpectraSuite Data File
++++++++++++++++++++++++++++++++++++
Date: Fri Oct 25 10:43:44 EDT 2013
User: price-jones
Dark Spectrum Present: No
Reference Spectrum Present: No
Number of Sampled Component Spectra: 1
Spectrometers: USB2+H05261
Integration Time (usec): 100000 (USB2+H05261)
Spectra Averaged: 1 (USB2+H05261)
Boxcar Smoothing: 0 (USB2+H05261)
Correct for Electrical Dark: No (USB2+H05261)
Strobe/Lamp Enabled: No (USB2+H05261)
Correct for Detector Non-linearity: No (USB2+H05261)
Correct for Stray Light: No (USB2+H05261)
Number of Pixels in Processed Spectrum: 2048
>>>>>Begin Processed Spectral Data<<<<<
365.73	72.56
365.92	72.56
366.12	72.56
366.32	35.11
366.52	0.00
366.72	0.00
366.91	0.00
367.11	77.24
367.31	60.85
367.51	0.00
367.70	14.04
367.90	0.00
368.10	0.00
368.30	0.00
368.49	0.00
368.69	14.04
368.89	70.22
369.09	53.83
369.28	70.22
369.48	39.79
369.68	131.07
369.87	63.19
370.07	46.81
370.27	224.69
370.47	191.92
370.66	397.89
370.86	379.17
371.06	517.26
371.25	500.87
371.45	491.51
371.65	505.56
371.84	376.83
372.04	526.62
372.24	458.74
372.44	381.51
372.63	425.98
372.83	510.24
373.03	498.53
373.22	468.11
373.42	571.09
373.62	566.41
373.81	550.03
374.01	531.30
374.21	510.24
374.40	603.86
374.60	620.24
374.79	631.94
374.99	636.63
375.19	615.56
375.38	543.00
375.58	566.41
375.78	606.20
375.97	533.64
376.17	627.26
376.37	606.20
376.56	695.14
376.76	643.65
376.95	606.20
377.15	681.10
377.35	610.88
377.54	669.39
377.74	641.31
377.93	613.22
378.13	657.69
378.33	690.46
378.52	631.94
378.72	683.44
378.91	678.76
379.11	599.18
379.31	634.29
379.50	631.94
379.70	674.07
379.89	620.24
380.09	718.54
380.28	685.78
380.48	744.29
380.68	624.92
380.87	695.14
381.07	561.73
381.26	777.06
381.46	695.14
381.65	662.37
381.85	667.05
382.04	709.18
382.24	706.84
382.43	727.91
382.63	678.76
382.83	627.26
383.02	744.29
383.22	755.99
383.41	751.31
383.61	697.48
383.80	772.38
384.00	779.40
384.19	732.59
384.39	784.08
384.58	788.76
384.78	732.59
384.97	823.87
385.17	713.86
385.36	781.74
385.56	723.23
385.75	777.06
385.95	779.40
386.14	828.55
386.34	830.89
386.53	809.83
386.72	795.78
386.92	875.36
387.11	940.90
387.31	830.89
387.50	844.93
387.70	844.93
387.89	873.02
388.09	891.74
388.28	903.45
388.48	828.55
388.67	915.15
388.86	926.85
389.06	1015.79
389.25	954.94
389.45	933.87
389.64	936.21
389.84	922.17
390.03	954.94
390.22	1032.18
390.42	931.53
390.61	910.47
390.81	1015.79
391.00	997.07
391.19	985.37
391.39	1006.43
391.58	1001.75
391.78	1015.79
391.97	1013.45
392.16	966.64
392.36	1043.88
392.55	985.37
392.75	1074.31
392.94	924.51
393.13	997.07
393.33	1008.77
393.52	1006.43
393.71	1097.71
393.91	1048.56
394.10	1135.16
394.29	1100.05
394.49	1118.78
394.68	1238.14
394.88	1181.97
395.07	1249.85
395.26	1263.89
395.46	1240.48
395.65	1179.63
395.84	1245.16
396.04	1240.48
396.23	1139.84
396.42	1118.78
396.62	1125.80
396.81	1146.86
397.00	1210.06
397.19	1245.16
397.39	1322.40
397.58	1324.74
397.77	1359.85
397.97	1380.92
398.16	1397.30
398.35	1495.60
398.55	1406.66
398.74	1472.20
398.93	1432.41
399.12	1493.26
399.32	1507.30
399.51	1476.88
399.70	1502.62
399.90	1511.99
400.09	1502.62
400.28	1490.92
400.47	1617.31
400.67	1661.78
400.86	1614.97
401.05	1607.95
401.24	1598.59
401.44	1624.33
401.63	1710.93
401.82	1699.23
402.01	1781.15
402.21	1696.89
402.40	1661.78
402.59	1727.32
402.78	1802.21
402.97	1696.89
403.17	1785.83
403.36	1771.79
403.55	1827.96
403.74	1788.17
403.93	1886.47
404.13	1947.33
404.32	1755.40
404.51	1732.00
404.70	1905.20
404.89	1919.24
405.09	2015.20
405.28	1893.49
405.47	1886.47
405.66	1893.49
405.85	2026.90
406.05	1973.07
406.24	2010.52
406.43	1975.41
406.62	2024.56
406.81	2155.63
407.00	1959.03
407.20	1998.82
407.39	1984.77
407.58	2186.06
407.77	2083.08
407.96	2150.95
408.15	2249.25
408.34	2174.36
408.54	2289.04
408.73	2232.87
408.92	2207.13
409.11	2279.68
409.30	2328.83
409.49	2221.17
409.68	2352.24
409.87	2193.08
410.07	2270.32
410.26	2310.11
410.45	2356.92
410.64	2424.80
410.83	2335.85
411.02	2459.90
411.21	2399.05
411.40	2541.82
411.59	2555.86
411.78	2597.99
411.98	2579.27
412.17	2607.36
412.36	2586.29
412.55	2733.75
412.74	2719.70
412.93	2752.47
413.12	2754.81
413.31	2792.26
413.50	2684.59
413.69	2944.39
413.88	2881.20
414.07	2878.86
414.26	2806.30
414.45	2841.41
414.64	2913.97
414.83	2883.54
415.02	2923.33
415.22	2942.05
415.41	2970.14
415.60	3126.96
415.79	3138.66
415.98	3155.04
416.17	3243.98
416.36	3241.64
416.55	3288.45
416.74	3243.98
416.93	3157.38
417.12	3316.54
417.31	3208.87
417.50	3192.49
417.69	3424.20
417.88	3379.73
418.07	3431.23
418.26	3515.48
418.45	3410.16
418.64	3564.64
418.83	3712.09
419.02	3407.82
419.21	3606.77
419.39	3482.72
419.58	3543.57
419.77	3524.85
419.96	3555.27
420.15	3653.58
420.34	3651.24
420.53	3705.07
420.72	3719.11
420.91	3691.02
421.10	3726.13
421.29	3836.14
421.48	3808.05
421.67	3803.37
421.86	3681.66
422.05	3691.02
422.24	3733.15
422.43	3786.99
422.61	3782.31
422.80	3819.75
422.99	4028.06
423.18	3833.80
423.37	3840.82
423.56	4007.00
423.75	3805.71
423.94	3817.41
424.13	3751.88
424.32	3681.66
424.50	4009.34
424.69	4037.42
424.88	3969.55
425.07	3845.50
425.26	3772.94
425.45	3819.75
425.64	3845.50
425.83	3850.18
426.01	3992.95
426.20	4044.45
426.39	4100.62
426.58	3967.21
426.77	3906.35
426.96	4065.51
427.15	3969.55
427.33	3990.61
427.52	3950.82
427.71	3999.98
427.90	4084.23
428.09	4056.15
428.28	4102.96
428.46	4257.43
428.65	3995.29
428.84	4203.60
429.03	4191.90
429.22	4109.98
429.40	3995.29
429.59	4072.53
429.78	3882.95
429.97	3857.20
430.16	3974.23
430.34	4187.22
430.53	4173.18
430.72	4074.87
430.91	4315.95
431.10	4224.67
431.28	4521.92
431.47	4599.15
431.66	4636.60
431.85	4404.89
432.03	4505.53
432.22	4587.45
432.41	4585.11
432.60	4706.82
432.79	4678.73
432.97	4554.68
433.16	4762.99
433.35	4493.83
433.54	4690.43
433.72	4510.21
433.91	4540.64
434.10	4652.98
434.28	4755.97
434.47	4762.99
434.66	4945.55
434.85	4812.14
435.03	4835.55
435.22	4940.87
435.41	5198.33
435.59	5001.72
435.78	5160.88
435.97	5085.98
436.16	5062.58
436.34	4964.28
436.53	4987.68
436.72	5167.90
436.90	5060.24
437.09	5214.71
437.28	5109.39
437.46	5083.64
437.65	5167.90
437.84	5163.22
438.02	5060.24
438.21	5020.45
438.40	5107.05
438.58	5350.46
438.77	5390.25
438.96	5275.57
439.14	5521.32
439.33	5401.96
439.52	5481.53
439.70	5741.33
439.89	5689.84
440.08	5722.61
440.26	5626.65
440.45	5675.80
440.63	5858.36
440.82	5832.62
441.01	5919.21
441.19	5879.43
441.38	6052.63
441.57	6115.82
441.75	6050.28
441.94	6106.46
442.12	6319.45
442.31	6284.34
442.50	6230.51
442.68	6061.99
442.87	6195.40
443.05	6349.87
443.24	6438.81
443.43	6228.17
443.61	6328.81
443.80	6448.18
443.98	6307.74
444.17	6115.82
444.35	6347.53
444.54	6478.60
444.73	6640.10
444.91	6441.15
445.10	6401.37
445.28	6490.31
445.47	6340.51
445.65	6345.19
445.84	6464.56
446.02	6504.35
446.21	6459.88
446.39	6375.62
446.58	6499.67
446.77	6569.88
446.95	6459.88
447.14	6597.97
447.32	6733.72
447.51	6473.92
447.69	6443.49
447.88	6523.07
448.06	6635.42
448.25	6614.35
448.43	6658.82
448.62	6448.18
448.80	6843.73
448.99	6668.19
449.17	6810.96
449.36	6628.40
449.54	6876.49
449.73	6925.65
449.91	6967.77
450.10	6958.41
450.28	7201.83
450.46	7157.36
450.65	6904.58
450.83	7040.33
451.02	6984.16
451.20	7148.00
451.39	7215.87
451.57	7171.40
451.76	6960.75
451.94	7063.74
452.13	7098.84
452.31	7143.32
452.49	6850.75
452.68	7108.21
452.86	7176.08
453.05	7283.75
453.23	7213.53
453.42	7140.97
453.60	7136.29
453.78	7330.56
453.97	7311.83
454.15	7344.60
454.34	7255.66
454.52	7370.35
454.70	7485.03
454.89	7501.42
455.07	7412.48
455.26	7332.90
455.44	7688.66
455.62	7573.97
455.81	7836.11
455.99	7936.76
456.17	7831.43
456.36	7875.90
456.54	7782.28
456.73	7756.54
456.91	7822.07
457.09	8100.59
457.28	8095.91
457.46	7999.95
457.64	8009.31
457.83	8053.78
458.01	7978.89
458.19	8145.06
458.38	7983.57
458.56	8376.78
458.74	7939.10
458.93	8004.63
459.11	8023.36
459.29	8269.11
459.48	8201.24
459.66	8311.24
459.84	8379.12
460.03	8400.18
460.21	8472.74
460.39	8409.54
460.57	8580.40
460.76	8503.17
460.94	8428.27
461.12	8475.08
461.31	8542.96
461.49	8648.28
461.67	8767.65
461.85	8681.05
462.04	8617.85
462.22	9146.81
462.40	8767.65
462.59	8828.50
462.77	8931.48
462.95	8769.99
463.13	8746.58
463.32	8711.47
463.50	8889.35
463.68	9043.83
463.86	8945.53
464.05	8697.43
464.23	8805.10
464.41	9062.55
464.59	8795.73
464.78	9004.04
464.96	9067.24
465.14	8898.72
465.32	9111.71
465.50	9188.94
465.69	9165.54
465.87	9268.52
466.05	9193.62
466.23	9053.19
466.41	9074.26
466.60	9324.69
466.78	8973.61
466.96	9186.60
467.14	9172.56
467.32	9207.67
467.51	9415.98
467.69	9057.87
467.87	9390.23
468.05	9490.87
468.23	9359.80
468.41	9193.62
468.60	9460.45
468.78	9575.13
468.96	9540.02
469.14	9554.07
469.32	9495.55
469.50	9427.68
469.69	9638.33
469.87	9584.49
470.05	9806.84
470.23	9806.84
470.41	9612.58
470.59	9982.38
470.77	9944.94
470.95	9984.73
471.14	10083.03
471.32	9886.42
471.50	10303.04
471.68	10235.16
471.86	10272.61
472.04	10162.61
472.22	10546.45
472.40	10022.17
472.58	10186.01
472.77	10216.44
472.95	10431.77
473.13	10745.40
473.31	10593.26
473.49	10387.30
473.67	10525.39
473.85	10572.20
474.03	10944.34
474.21	11042.65
474.39	10885.83
474.57	11002.86
474.75	11023.92
474.93	10885.83
475.12	11166.70
475.30	11307.13
475.48	11199.46
475.66	11243.93
475.84	11239.25
476.02	11442.88
476.20	11300.11
476.38	11283.72
476.56	11833.75
476.74	11730.76
476.92	11426.50
477.10	11765.87
477.28	11925.03
477.46	12182.49
477.64	12170.79
477.82	12142.70
478.00	12301.86
478.18	12674.00
478.36	12205.89
478.54	12585.06
478.72	12489.10
478.90	12470.37
479.08	12945.50
479.26	12973.59
479.44	12924.44
479.62	13116.36
479.80	13179.56
479.98	13245.09
480.16	13568.09
480.34	13497.87
480.52	13642.98
480.70	13575.11
480.88	13568.09
481.06	13727.24
481.24	13893.42
481.41	13923.85
481.59	14253.86
481.77	14265.57
481.95	14272.59
482.13	14361.53
482.31	14033.85
482.49	14679.84
482.67	14579.20
482.85	14822.61
483.03	15173.69
483.21	15084.75
483.39	15391.36
483.57	15147.95
483.74	15248.59
483.92	15609.03
484.10	15183.06
484.28	15978.84
484.46	15915.64
484.64	16226.93
484.82	15988.20
485.00	16018.63
485.18	16168.42
485.35	16264.38
485.53	16053.73
485.71	16027.99
485.89	16266.72
486.07	16140.33
486.25	16362.69
486.43	16493.76
486.61	17034.42
486.78	17322.30
486.96	17172.51
487.14	17537.63
487.32	17469.76
487.50	17895.74
487.68	18073.62
487.85	18317.03
488.03	18286.61
488.21	18464.49
488.39	18288.95
488.57	18518.32
488.75	18443.42
488.92	18735.99
489.10	19176.01
489.28	19089.41
489.46	19679.22
489.64	19733.06
489.81	19894.55
489.99	19843.06
490.17	19983.49
490.35	20313.51
490.53	20231.59
490.70	20229.25
490.88	20306.49
491.06	20617.78
491.24	20475.01
491.41	20477.35
491.59	20561.61
491.77	20332.23
491.95	21088.23
492.13	20716.08
492.30	21380.79
492.48	21507.18
492.66	21570.38
492.84	21811.45
493.01	21886.35
493.19	22043.17
493.37	21935.50
493.54	22099.34
493.72	21994.01
493.90	22490.21
494.08	22649.36
494.25	22827.24
494.43	23002.78
494.61	22988.74
494.79	22916.19
494.96	23168.96
495.14	23030.87
495.32	23730.69
495.49	23459.19
495.67	23695.58
495.85	23765.80
496.02	23475.57
496.20	24016.24
496.38	23880.49
496.55	24079.43
496.73	24694.99
496.91	24634.14
497.09	24781.59
497.26	24744.14
497.44	24898.62
497.62	24734.78
497.79	25324.60
497.97	24790.95
498.14	25270.76
498.32	25238.00
498.50	25336.30
498.67	25825.47
498.85	25682.70
499.03	25783.34
499.20	25654.61
499.38	25638.23
499.56	26113.36
499.73	26382.52
499.91	26155.49
500.08	26057.18
500.26	26033.78
500.44	26356.77
500.61	26335.71
500.79	26199.96
500.97	26462.10
501.14	26471.46
501.32	26930.20
501.49	26663.38
501.67	27026.17
501.84	27414.69
502.02	27110.43
502.20	27292.99
502.37	27688.54
502.55	27803.22
502.72	27718.96
502.90	28060.68
503.07	27630.02
503.25	27655.77
503.43	27562.15
503.60	27634.71
503.78	27985.79
503.95	28240.90
504.13	28350.91
504.30	28203.46
504.48	28514.75
504.65	28552.20
504.83	29120.95
505.01	28914.98
505.18	28961.79
505.36	29102.22
505.53	29193.50
505.71	29062.43
505.88	29565.65
506.06	29364.36
506.23	29362.02
506.41	29493.09
506.58	29710.76
506.76	29558.63
506.93	29886.30
507.11	30003.33
507.28	29579.69
507.46	29677.99
507.63	29406.49
507.81	30099.29
507.98	29954.18
508.16	30047.80
508.33	30331.00
508.50	30480.80
508.68	30534.63
508.85	30916.14
509.03	30749.96
509.20	31115.08
509.38	30738.26
509.55	31101.04
509.73	31077.63
509.90	31030.82
510.08	31541.06
510.25	31257.85
510.42	30967.63
510.60	31576.17
510.77	31164.23
510.95	31716.60
511.12	31697.88
511.30	31880.44
511.47	32294.71
511.64	31864.05
511.82	32177.68
511.99	31908.52
512.17	32149.60
512.34	31974.06
512.51	32161.30
512.69	32287.69
512.86	32430.46
513.04	32917.29
513.21	32786.22
513.38	32130.87
513.56	32027.89
513.73	32613.02
513.90	33017.94
514.08	32355.57
514.25	32620.05
514.43	32964.10
514.60	32994.53
514.77	33031.98
514.95	33188.80
515.12	32978.15
515.29	33186.46
515.47	33474.34
515.64	33677.97
515.81	33570.30
515.99	33362.00
516.16	33907.34
516.33	33296.46
516.51	33624.14
516.68	33340.93
516.85	32996.87
517.03	33537.54
517.20	33759.89
517.37	33975.22
517.54	34356.72
517.72	34202.25
517.89	33682.65
518.06	33464.98
518.24	33881.60
518.41	33762.23
518.58	34553.33
518.75	34342.68
518.93	34368.43
519.10	34265.44
519.27	34815.47
519.45	34513.54
519.62	34675.04
519.79	35222.72
519.96	34726.53
520.14	35211.02
520.31	34981.65
520.48	35304.64
520.65	35117.40
520.83	35264.85
521.00	35878.07
521.17	35859.35
521.34	35803.17
521.52	35318.68
521.69	36180.00
521.86	36114.47
522.03	36229.15
522.20	35702.53
522.38	36182.34
522.55	36479.59
522.72	36268.94
522.89	36247.88
523.07	36285.33
523.24	36435.12
523.41	36671.51
523.58	36577.89
523.75	37291.76
523.92	36683.22
524.10	36903.23
524.27	36830.67
524.44	36849.39
524.61	37303.46
524.78	37376.01
524.96	37165.37
525.13	37441.55
525.30	37413.46
525.47	37249.63
525.64	37397.08
525.81	37507.08
525.98	37258.99
526.16	37064.72
526.33	36945.36
526.50	37399.42
526.67	36992.17
526.84	37289.42
527.01	36992.17
527.18	37418.14
527.36	37766.88
527.53	38307.55
527.70	38213.93
527.87	38047.75
528.04	37984.55
528.21	38136.69
528.38	38515.86
528.55	38478.41
528.72	38164.78
528.89	38880.98
529.07	38895.02
529.24	38663.31
529.41	38841.19
529.58	38649.27
529.75	38412.87
529.92	38810.76
530.09	38700.76
530.26	38574.37
530.43	38766.29
530.60	38574.37
530.77	38946.51
530.94	39192.27
531.11	39496.54
531.28	39005.03
531.46	39737.62
531.63	39388.88
531.80	38913.75
531.97	39124.40
532.14	38909.07
532.31	38553.30
532.48	38967.58
532.65	39447.39
532.82	38941.83
532.99	39503.56
533.16	39281.21
533.33	39604.20
533.50	40130.83
533.67	39480.16
533.84	39969.33
534.01	39952.94
534.18	39784.43
534.35	40315.73
534.52	39995.07
534.69	40266.58
534.86	40020.82
535.03	40278.28
535.20	40545.10
535.37	40659.79
535.54	40554.46
535.71	39941.24
535.88	40538.08
536.05	40285.30
536.22	40924.27
536.38	40456.16
536.55	40399.99
536.72	40769.79
536.89	39899.11
537.06	40348.50
537.23	41193.43
537.40	41188.75
537.57	40790.86
537.74	40760.43
537.91	41155.98
538.08	40891.50
538.25	40711.28
538.42	40783.83
538.59	41219.17
538.75	41003.85
538.92	40961.72
539.09	41577.28
539.26	41139.60
539.43	40903.20
539.60	41202.79
539.77	41090.44
539.94	41338.54
540.11	40919.59
540.28	40957.03
540.44	41481.31
540.61	41429.82
540.78	41310.46
540.95	40807.24
541.12	41067.04
541.29	41642.81
541.46	41551.53
541.62	41254.28
541.79	41577.28
541.96	41722.39
542.13	41502.38
542.30	41715.37
542.47	41631.11
542.63	41897.93
542.80	42094.53
542.97	41918.99
543.14	42574.34
543.31	42190.50
543.48	42220.92
543.64	42745.20
543.81	42424.55
543.98	42375.40
544.15	42169.43
544.32	42962.87
544.48	42815.42
544.65	42937.13
544.82	42586.05
544.99	42745.20
545.16	42684.35
545.32	42335.61
545.49	42862.23
545.66	43386.51
545.83	42883.30
546.00	42909.04
546.16	43077.56
546.33	43014.37
546.50	42412.85
546.67	42923.08
546.83	42822.44
547.00	42909.04
547.17	42600.09
547.34	43098.62
547.50	43236.72
547.67	43246.08
547.84	43051.81
548.00	43115.01
548.17	43487.15
548.34	43494.18
548.51	43753.97
548.67	43328.00
548.84	43658.01
549.01	43402.89
549.18	43255.44
549.34	43615.88
549.51	43943.56
549.68	43470.77
549.84	43716.53
550.01	43557.37
550.18	43416.94
550.34	43859.30
550.51	43330.34
550.68	43920.15
550.84	43225.01
551.01	44175.27
551.18	43725.89
551.34	43526.94
551.51	44196.34
551.68	44231.44
551.84	43941.22
552.01	43725.89
552.18	43929.51
552.34	44086.33
552.51	43906.11
552.68	43922.49
552.84	43805.47
553.01	44376.56
553.18	44119.10
553.34	44320.38
553.51	43938.88
553.67	44013.77
553.84	44898.50
554.01	44336.77
554.17	44238.47
554.34	44828.28
554.51	44287.62
554.67	44289.96
554.84	44531.03
555.00	44205.70
555.17	44502.95
555.33	44706.57
555.50	44903.18
555.67	44516.99
555.83	44919.56
556.00	44648.06
556.16	45200.43
556.33	44673.81
556.50	44484.22
556.66	44982.76
556.83	44128.46
556.99	44875.09
557.16	44619.97
557.32	44617.63
557.49	44847.00
557.65	44435.07
557.82	44795.51
557.98	45074.04
558.15	44982.76
558.32	44889.13
558.48	44278.25
558.65	44575.50
558.81	45062.33
558.98	44664.44
559.14	44502.95
559.31	44680.83
559.47	44701.89
559.64	45048.29
559.80	44947.65
559.97	44760.40
560.13	44868.07
560.30	45088.08
560.46	44975.73
560.63	45581.93
560.79	45308.09
560.96	45502.35
561.12	44715.93
561.29	44978.07
561.45	45226.17
561.61	45354.90
561.78	44463.16
561.94	45059.99
562.11	45284.68
562.27	45244.90
562.44	45315.11
562.60	45425.12
562.77	45495.33
562.93	45130.21
563.10	45603.00
563.26	45015.52
563.42	45574.91
563.59	45111.49
563.75	45184.04
563.92	45844.07
564.08	45284.68
564.24	46014.93
564.41	45382.99
564.57	44928.92
564.74	45492.99
564.90	45317.45
565.07	45516.40
565.23	45244.90
565.39	45256.60
565.56	45621.72
565.72	45235.53
565.88	45240.21
566.05	45141.91
566.21	45375.97
566.38	45490.65
566.54	45153.62
566.70	45771.52
566.87	45649.81
567.03	45464.91
567.19	45989.19
567.36	45343.20
567.52	45511.72
567.68	45483.63
567.85	45282.34
568.01	45593.64
568.17	45525.76
568.34	45478.95
568.50	45514.06
568.66	45408.73
568.83	45635.77
568.99	45570.23
569.15	45368.94
569.32	45680.24
569.48	45429.80
569.64	46167.07
569.81	45649.81
569.97	45811.31
570.13	45790.24
570.30	45315.11
570.46	45455.54
570.62	45024.89
570.78	45394.69
570.95	45525.76
571.11	45691.94
571.27	45696.62
571.43	45762.15
571.60	45879.18
571.76	46028.98
571.92	45507.04
572.09	45844.07
572.25	45532.78
572.41	46103.87
572.57	45883.86
572.74	46192.81
572.90	45331.50
573.06	45841.73
573.22	46160.05
573.38	45617.04
573.55	45897.91
573.71	46443.25
573.87	46047.70
574.03	45600.66
574.20	45701.30
574.36	45820.67
574.52	45808.96
574.68	45366.60
574.84	45656.83
575.01	45572.57
575.17	45881.52
575.33	45710.66
575.49	45794.92
575.65	46031.32
575.82	45921.31
575.98	45930.67
576.14	45881.52
576.30	45949.40
576.46	45867.48
576.62	45933.01
576.79	45982.16
576.95	45757.47
577.11	45581.93
577.27	45621.72
577.43	45940.04
577.59	45357.24
577.75	45633.42
577.92	45160.64
578.08	45427.46
578.24	45801.94
578.40	45504.70
578.56	46085.15
578.72	45764.49
578.88	46087.49
579.04	45923.65
579.21	45565.55
579.37	45921.31
579.53	45680.24
579.69	45474.27
579.85	45862.80
580.01	45652.15
580.17	45883.86
580.33	45918.97
580.49	46138.98
580.65	45998.55
580.82	45944.72
580.98	46000.89
581.14	45911.95
581.30	46438.57
581.46	45801.94
581.62	46471.34
581.78	45895.56
581.94	45947.06
582.10	45832.37
582.26	45900.25
582.42	46122.60
582.58	46277.07
582.74	46213.88
582.90	46295.80
583.06	46326.22
583.22	46195.15
583.38	46522.83
583.54	45951.74
583.70	46021.95
583.86	45593.64
584.02	46010.25
584.18	46171.75
584.34	45633.42
584.50	45750.45
584.66	45858.12
584.82	45762.15
584.98	45764.49
585.14	45673.21
585.30	45668.53
585.46	45811.31
585.62	45563.21
585.78	45869.82
585.94	45556.19
586.10	45642.79
586.26	45659.17
586.42	46024.29
586.58	46244.30
586.74	45928.33
586.90	45773.86
587.06	46129.62
587.22	46494.74
587.38	45603.00
587.54	46199.83
587.70	45909.61
587.86	46078.13
588.02	45925.99
588.18	46068.76
588.34	46204.52
588.49	45364.26
588.65	45425.12
588.81	45544.48
588.97	45970.46
589.13	45612.36
589.29	45612.36
589.45	46000.89
589.61	45848.75
589.77	46089.83
589.93	46213.88
590.08	46209.20
