SpectraSuite Data File
++++++++++++++++++++++++++++++++++++
Date: Fri Oct 25 11:22:33 EDT 2013
User: price-jones
Dark Spectrum Present: No
Reference Spectrum Present: No
Number of Sampled Component Spectra: 1
Spectrometers: USB2+H05261
Integration Time (usec): 100000 (USB2+H05261)
Spectra Averaged: 1 (USB2+H05261)
Boxcar Smoothing: 0 (USB2+H05261)
Correct for Electrical Dark: No (USB2+H05261)
Strobe/Lamp Enabled: No (USB2+H05261)
Correct for Detector Non-linearity: No (USB2+H05261)
Correct for Stray Light: No (USB2+H05261)
Number of Pixels in Processed Spectrum: 2048
>>>>>Begin Processed Spectral Data<<<<<
365.73	210.65
365.92	210.65
366.12	210.65
366.32	117.03
366.52	128.73
366.72	105.32
366.91	53.83
367.11	166.18
367.31	175.54
367.51	86.60
367.70	88.94
367.90	140.43
368.10	135.75
368.30	147.45
368.49	161.50
368.69	145.11
368.89	107.66
369.09	100.64
369.28	149.79
369.48	203.63
369.68	145.11
369.87	189.58
370.07	212.99
370.27	243.42
370.47	322.99
370.66	617.90
370.86	559.39
371.06	634.29
371.25	650.67
371.45	653.01
371.65	681.10
371.84	601.52
372.04	627.26
372.24	753.65
372.44	702.16
372.63	662.37
372.83	748.97
373.03	732.59
373.22	772.38
373.42	695.14
373.62	837.91
373.81	828.55
374.01	779.40
374.21	844.93
374.40	802.80
374.60	851.96
374.79	826.21
374.99	868.34
375.19	802.80
375.38	837.91
375.58	842.59
375.78	802.80
375.97	889.40
376.17	938.55
376.37	887.06
376.56	833.23
376.76	809.83
376.95	896.43
377.15	868.34
377.35	903.45
377.54	912.81
377.74	912.81
377.93	912.81
378.13	961.96
378.33	917.49
378.52	903.45
378.72	964.30
378.91	1006.43
379.11	905.79
379.31	919.83
379.50	912.81
379.70	929.19
379.89	966.64
380.09	954.94
380.28	1039.20
380.48	919.83
380.68	894.08
380.87	980.68
381.07	968.98
381.26	1071.97
381.46	968.98
381.65	992.39
381.85	1025.15
382.04	1029.84
382.24	959.62
382.43	1156.22
382.63	968.98
382.83	1039.20
383.02	1074.31
383.22	1167.93
383.41	1067.28
383.61	1177.29
383.80	1179.63
384.00	1057.92
384.19	1142.18
384.39	1135.16
384.58	1167.93
384.78	1093.03
384.97	1280.27
385.17	1107.07
385.36	1151.54
385.56	1179.63
385.75	1240.48
385.95	1174.95
386.14	1247.51
386.34	1207.72
386.53	1114.10
386.72	1191.33
386.92	1231.12
387.11	1282.61
387.31	1238.14
387.50	1238.14
387.70	1226.44
387.89	1320.06
388.09	1273.25
388.28	1282.61
388.48	1399.64
388.67	1329.42
388.86	1320.06
389.06	1324.74
389.25	1282.61
389.45	1376.24
389.64	1399.64
389.84	1308.36
390.03	1401.98
390.22	1455.81
390.42	1469.86
390.61	1350.49
390.81	1437.09
391.00	1465.18
391.19	1448.79
391.39	1460.49
391.58	1474.54
391.78	1572.84
391.97	1448.79
392.16	1521.35
392.36	1540.07
392.55	1472.20
392.75	1540.07
392.94	1523.69
393.13	1614.97
393.33	1493.26
393.52	1551.78
393.71	1664.12
393.91	1540.07
394.10	1516.67
394.29	1593.90
394.49	1621.99
394.68	1582.20
394.88	1675.82
395.07	1685.19
395.26	1675.82
395.46	1605.61
395.65	1729.66
395.84	1710.93
396.04	1827.96
396.23	1771.79
396.42	1736.68
396.62	1736.68
396.81	1682.85
397.00	1781.15
397.19	1734.34
397.39	1769.44
397.58	1799.87
397.77	1909.88
397.97	1825.62
398.16	1811.57
398.35	1898.17
398.55	1823.28
398.74	1982.43
398.93	1975.41
399.12	1933.28
399.32	1954.35
399.51	1961.37
399.70	2115.84
399.90	1909.88
400.09	1987.11
400.28	2029.24
400.47	2054.99
400.67	2062.01
400.86	2040.95
401.05	2076.06
401.24	2221.17
401.44	2118.18
401.63	2214.15
401.82	2232.87
402.01	2134.57
402.21	2319.47
402.40	2253.94
402.59	2209.47
402.78	2216.49
402.97	2235.21
403.17	2319.47
403.36	2314.79
403.55	2347.56
403.74	2282.02
403.93	2359.26
404.13	2462.24
404.32	2354.58
404.51	2429.48
404.70	2450.54
404.89	2401.39
405.09	2495.01
405.28	2541.82
405.47	2431.82
405.66	2415.43
405.85	2595.65
406.05	2630.76
406.24	2609.70
406.43	2588.63
406.62	2740.77
406.81	2771.19
407.00	2658.85
407.20	2590.97
407.39	2661.19
407.58	2761.83
407.77	2710.34
407.96	2829.71
408.15	2724.38
408.34	2637.78
408.54	2923.33
408.73	2778.22
408.92	2818.00
409.11	2911.63
409.30	3016.95
409.49	3023.97
409.68	3023.97
409.87	2855.45
410.07	3082.49
410.26	3005.25
410.45	2925.67
410.64	2991.20
410.83	3199.51
411.02	3192.49
411.21	3126.96
411.40	3124.62
411.59	3260.37
411.78	3199.51
411.98	3225.26
412.17	3260.37
412.36	3323.56
412.55	3255.69
412.74	3407.82
412.93	3482.72
413.12	3332.92
413.31	3581.02
413.50	3492.08
413.69	3623.15
413.88	3637.19
414.07	3611.45
414.26	3784.65
414.45	3681.66
414.64	3728.47
414.83	3810.39
415.02	3808.05
415.22	3779.97
415.41	3854.86
415.60	3934.44
415.79	4018.70
415.98	3997.64
416.17	4025.72
416.36	3967.21
416.55	4117.00
416.74	4112.32
416.93	4117.00
417.12	4245.73
417.31	4236.37
417.50	4339.35
417.69	4315.95
417.88	4194.24
418.07	4339.35
418.26	4386.16
418.45	4425.95
418.64	4531.28
418.83	4482.13
419.02	4374.46
419.21	4449.36
419.39	4564.04
419.58	4517.23
419.77	4456.38
419.96	4479.79
420.15	4498.51
420.34	4676.39
420.53	4713.84
420.72	4779.37
420.91	4770.01
421.10	4791.08
421.29	4910.44
421.48	4660.01
421.67	4798.10
421.86	4842.57
422.05	4840.23
422.24	4674.05
422.43	4772.35
422.61	4968.96
422.80	5144.50
422.99	4898.74
423.18	4746.61
423.37	5011.09
423.56	5046.20
423.75	5015.77
423.94	4938.53
424.13	4744.27
424.32	4798.10
424.50	5076.62
424.69	5144.50
424.88	5177.26
425.07	5029.81
425.26	5123.43
425.45	5060.24
425.64	5172.58
425.83	5142.16
426.01	5085.98
426.20	5177.26
426.39	5163.22
426.58	5212.37
426.77	4903.42
426.96	5156.20
427.15	5095.35
427.33	5277.91
427.52	5198.33
427.71	5228.76
427.90	5217.05
428.09	5296.63
428.28	5425.36
428.46	5472.17
428.65	5481.53
428.84	5659.42
429.03	5533.03
429.22	5446.43
429.40	5453.45
429.59	5514.30
429.78	5313.02
429.97	5291.95
430.16	5476.85
430.34	5600.90
430.53	5645.37
430.72	5748.36
430.91	5621.97
431.10	5696.86
431.28	5849.00
431.47	5837.30
431.66	5863.04
431.85	5860.70
432.03	5935.60
432.22	6085.39
432.41	5912.19
432.60	6200.08
432.79	5907.51
432.97	5951.98
433.16	6169.65
433.35	5989.43
433.54	6139.23
433.72	6164.97
433.91	6183.70
434.10	6317.11
434.28	6171.99
434.47	6284.34
434.66	6441.15
434.85	6352.21
435.03	6380.30
435.22	6525.41
435.41	6366.26
435.59	6504.35
435.78	6544.14
435.97	6581.59
436.16	6609.67
436.34	6581.59
436.53	6520.73
436.72	6665.85
436.90	6406.05
437.09	6623.72
437.28	6504.35
437.46	6689.25
437.65	6789.89
437.84	6649.46
438.02	6850.75
438.21	6801.60
438.40	6663.51
438.58	7005.22
438.77	7211.19
438.96	7131.61
439.14	7269.70
439.33	7110.55
439.52	7059.06
439.70	7229.91
439.89	7318.86
440.08	7431.20
440.26	7414.82
440.45	7300.13
440.63	7433.54
440.82	7730.79
441.01	7475.67
441.19	7770.58
441.38	7709.72
441.57	7941.44
441.75	7950.80
441.94	8081.87
442.12	8084.21
442.31	8205.92
442.50	8327.63
442.68	8159.11
442.87	8198.90
443.05	8280.82
443.24	8369.76
443.43	8198.90
443.61	8276.13
443.80	8648.28
443.98	8198.90
444.17	7946.12
444.35	8135.70
444.54	8383.80
444.73	8486.78
444.91	8369.76
445.10	8367.42
445.28	8360.39
445.47	8273.79
445.65	8475.08
445.84	8613.17
446.02	8517.21
446.21	8533.59
446.39	8439.97
446.58	8762.97
446.77	8414.23
446.95	8334.65
447.14	8571.04
447.32	8685.73
447.51	8638.92
447.69	8479.76
447.88	8610.83
448.06	8718.50
448.25	8585.08
448.43	8589.77
448.62	8720.84
448.80	8678.71
448.99	8823.82
449.17	8908.08
449.36	8723.18
449.54	9034.47
449.73	9043.83
449.91	8950.21
450.10	8933.82
450.28	9121.07
450.46	9186.60
450.65	9125.75
450.83	9102.34
451.02	9315.33
451.20	9177.24
451.39	9210.01
451.57	9329.38
451.76	9125.75
451.94	9423.00
452.13	9614.92
452.31	9397.25
452.49	9392.57
452.68	9364.48
452.86	9460.45
453.05	9518.96
453.23	9652.37
453.42	9528.32
453.60	9607.90
453.78	9724.93
453.97	9563.43
454.15	9699.18
454.34	9437.04
454.52	9776.42
454.70	9921.53
454.89	9816.21
455.07	9811.53
455.26	9998.77
455.44	10115.80
455.62	9956.64
455.81	10090.05
455.99	10232.82
456.17	10258.57
456.36	10352.19
456.54	10267.93
456.73	10403.68
456.91	10621.35
457.09	10403.68
457.28	10736.04
457.46	10459.85
457.64	10668.16
457.83	10677.52
458.01	10326.44
458.19	10815.62
458.38	10719.65
458.56	10803.91
458.74	10712.63
458.93	10834.34
459.11	10803.91
459.29	10881.15
459.48	10810.93
459.66	10979.45
459.84	10970.09
460.03	11358.62
460.21	11070.73
460.39	11070.73
460.57	11239.25
460.76	11077.76
460.94	11396.07
461.12	11449.90
461.31	11262.66
461.49	11367.98
461.67	11257.98
461.85	11524.80
462.04	11461.60
462.22	11805.66
462.40	11730.76
462.59	11653.53
462.77	11590.33
462.95	11901.62
463.13	11826.73
463.32	11754.17
463.50	12072.48
463.68	11768.21
463.86	11798.64
464.05	11992.90
464.23	11866.52
464.41	12006.95
464.59	11754.17
464.78	12273.77
464.96	12133.34
465.14	12252.70
465.32	12123.98
465.50	12123.98
465.69	12313.56
465.87	12390.80
466.05	12423.56
466.23	12142.70
466.41	12510.16
466.60	12510.16
466.78	12245.68
466.96	12393.14
467.14	12498.46
467.32	12659.96
467.51	12599.10
467.69	12070.14
467.87	12290.15
468.05	12905.71
468.23	12446.97
468.41	12608.47
468.60	13048.49
468.78	12821.45
468.96	12617.83
469.14	12884.65
469.32	12961.89
469.50	12844.86
469.69	13064.87
469.87	13415.95
470.05	13399.57
470.23	13142.11
470.41	13493.19
470.59	13467.44
470.77	13301.26
470.95	13476.80
471.14	13717.88
471.32	13315.31
471.50	13619.58
471.68	13870.01
471.86	13851.29
472.04	13970.66
472.22	14136.84
472.40	13809.16
472.58	14031.51
472.77	14045.55
472.95	14324.08
473.13	14885.81
473.31	14274.93
473.49	14333.44
473.67	14373.23
473.85	14459.83
474.03	14705.59
474.21	14656.43
474.39	14829.63
474.57	14799.21
474.75	15021.56
474.93	15061.35
475.12	14937.30
475.30	15374.98
475.48	15286.04
475.66	15396.04
475.84	15325.83
476.02	15651.16
476.20	15669.89
476.38	15946.07
476.56	16297.15
476.74	16170.76
476.92	15936.71
477.10	16105.23
477.28	16409.50
477.46	16463.33
477.64	16556.95
477.82	16959.52
478.00	17240.39
478.18	16999.31
478.36	17055.48
478.54	17502.53
478.72	17444.01
478.90	17380.82
479.08	17624.23
479.26	17659.34
479.44	17881.69
479.62	17853.61
479.80	18160.22
479.98	18244.48
480.16	18789.82
480.34	18630.66
480.52	19068.34
480.70	19136.22
480.88	18515.98
481.06	19264.95
481.24	19091.75
481.41	19154.94
481.59	19520.07
481.77	19737.74
481.95	19836.04
482.13	19871.15
482.31	19988.18
482.49	20643.52
482.67	20287.76
482.85	20709.06
483.03	21062.48
483.21	21053.12
483.39	21043.76
483.57	21090.57
483.74	21312.92
483.92	21656.98
484.10	21420.58
484.28	21834.86
484.46	21853.58
484.64	22686.81
484.82	22080.61
485.00	22445.74
485.18	22895.12
485.35	23433.44
485.53	23424.08
485.71	23248.54
485.89	24180.07
486.07	23939.00
486.25	23618.35
486.43	23723.67
486.61	24151.99
486.78	24154.33
486.96	24748.82
487.14	24821.38
487.32	24786.27
487.50	25392.47
487.68	25624.18
487.85	25778.66
488.03	25951.86
488.21	26082.93
488.39	26171.87
488.57	26623.59
488.75	26457.42
488.92	26871.69
489.10	27243.84
489.28	27105.74
489.46	27419.38
489.64	27300.01
489.81	28093.45
489.99	28229.20
490.17	28140.26
490.35	28549.85
490.53	28641.14
490.70	28854.12
490.88	28498.36
491.06	29266.06
491.24	29305.85
491.41	29881.62
491.59	29778.64
491.77	29626.50
491.95	29869.92
492.13	30160.14
492.30	30457.39
492.48	30066.52
492.66	30225.68
492.84	30815.49
493.01	31384.24
493.19	31089.34
493.37	31323.39
493.54	31768.09
493.72	32161.30
493.90	31817.24
494.08	32336.84
494.25	32465.57
494.43	32481.95
494.61	32725.37
494.79	33055.39
494.96	33280.08
495.14	32987.51
495.32	33378.38
495.49	33696.69
495.67	33764.57
495.85	33982.24
496.02	34169.48
496.20	33921.38
496.38	34651.63
496.55	34572.05
496.73	35131.44
496.91	35208.68
497.09	35276.55
497.26	35398.26
497.44	35615.93
497.62	35915.52
497.79	36238.51
497.97	35789.13
498.14	36512.36
498.32	36842.37
498.50	36975.78
498.67	36870.46
498.85	36940.68
499.03	36992.17
499.20	37813.70
499.38	36858.76
499.56	37703.69
499.73	37617.09
499.91	37528.15
500.08	37937.74
500.26	38014.98
500.44	38178.82
500.61	38352.02
500.79	38298.19
500.97	38632.88
501.14	38878.64
501.32	39140.78
501.49	38726.50
501.67	39161.84
501.84	39496.54
502.02	39117.37
502.20	39423.98
502.37	39807.83
502.55	39833.58
502.72	40243.17
502.90	39873.37
503.07	40116.78
503.25	40495.95
503.43	40563.82
503.60	40692.55
503.78	40975.76
503.95	41099.81
504.13	40961.72
504.30	41223.86
504.48	40910.22
504.65	41134.92
504.83	41514.08
505.01	41792.61
505.18	41656.85
505.36	42351.99
505.53	41975.17
505.71	42085.17
505.88	42246.67
506.06	42422.21
506.23	42808.40
506.41	42515.83
506.58	42574.34
506.76	42614.13
506.93	43285.87
507.11	42803.72
507.28	42810.74
507.46	43552.69
507.63	43569.07
507.81	43508.22
507.98	43838.23
508.16	43971.64
508.33	43620.56
508.50	43831.21
508.68	44048.88
508.85	44243.15
509.03	44179.95
509.20	44343.79
509.38	44875.09
509.55	44968.71
509.73	44612.95
509.90	45024.89
510.08	45092.76
510.25	45193.40
510.42	45399.37
510.60	45432.14
510.77	45705.98
510.95	45694.28
511.12	45698.96
511.30	45888.54
511.47	45851.09
511.64	45797.26
511.82	46354.31
511.99	46326.22
512.17	46515.81
512.34	46824.76
512.51	46651.56
512.69	46894.97
512.86	46810.71
513.04	47136.05
513.21	46869.23
513.38	47168.82
513.56	47690.76
513.73	47079.88
513.90	47618.20
514.08	48013.75
514.25	47943.53
514.43	48149.50
514.60	47735.23
514.77	48144.82
514.95	48505.26
515.12	48320.36
515.29	48048.86
515.47	48641.01
515.64	48193.97
515.81	48495.90
515.99	49013.16
516.16	48577.82
516.33	48926.56
516.51	49116.14
516.68	48765.06
516.85	49034.22
517.03	49619.36
517.20	49514.03
517.37	49514.03
517.54	49380.62
517.72	49322.11
517.89	49514.03
518.06	49757.45
518.24	49694.25
518.41	49958.73
518.58	49659.15
518.75	49635.74
518.93	50012.57
519.10	49797.24
519.27	50248.96
519.45	50326.20
519.62	50293.43
519.79	50948.78
519.96	50464.29
520.14	50586.00
520.31	50710.05
520.48	50770.90
520.65	50880.91
520.83	51136.02
521.00	51093.89
521.17	51042.40
521.34	51063.47
521.52	51058.79
521.69	51304.54
521.86	51393.48
522.03	51653.28
522.20	51796.06
522.38	51604.13
522.55	51765.63
522.72	51749.24
522.89	51870.95
523.07	52044.15
523.24	52023.09
523.41	52278.21
523.58	51777.33
523.75	52381.19
523.92	52081.60
524.10	52556.73
524.27	52390.55
524.44	52561.41
524.61	52629.29
524.78	52310.97
524.96	52643.33
525.13	52900.79
525.30	53055.26
525.47	53085.69
525.64	52631.63
525.81	53076.33
525.98	52919.51
526.16	53083.35
526.33	52973.34
526.50	53272.93
526.67	53324.43
526.84	53371.24
527.01	53509.33
527.18	53380.60
527.36	53666.14
527.53	53282.30
527.70	53535.07
527.87	53947.01
528.04	53616.99
528.21	53820.62
528.38	53827.64
528.55	54017.22
528.72	53542.10
528.89	53741.04
529.07	54052.33
529.24	54143.61
529.41	54293.41
529.58	53911.90
529.75	53993.82
529.92	54295.75
530.09	54391.71
530.26	54431.50
530.43	54370.64
530.60	53975.09
530.77	54440.86
530.94	54281.70
531.11	54267.66
531.28	54408.09
531.46	54438.52
531.63	54731.09
531.80	54703.00
531.97	54752.15
532.14	54918.33
532.31	55093.87
532.48	55210.90
532.65	54955.78
532.82	54791.94
532.99	55168.77
533.16	54906.63
533.33	55178.13
533.50	55269.41
533.67	55311.54
533.84	55276.43
534.01	55323.24
534.18	55161.75
534.35	55980.93
534.52	55842.84
534.69	55531.55
534.86	55510.49
535.03	55470.70
535.20	55606.45
535.37	55569.00
535.54	55899.01
535.71	55934.12
535.88	55999.66
536.05	55690.71
536.22	55845.18
536.38	55927.10
536.55	55931.78
536.72	55826.46
536.89	55899.01
537.06	55969.23
537.23	56247.75
537.40	55948.17
537.57	56128.39
537.74	56184.56
537.91	56411.59
538.08	56367.12
538.25	56114.34
538.42	56179.88
538.59	56545.00
538.75	56427.98
538.92	56126.05
539.09	56603.52
539.26	56317.97
539.43	56250.09
539.60	56683.09
539.77	56587.13
539.94	56790.76
540.11	56488.83
540.28	56589.47
540.44	56697.14
540.61	56500.53
540.78	56783.74
540.95	56736.93
541.12	56669.05
541.29	56678.41
541.46	56783.74
541.62	57008.43
541.79	57052.90
541.96	56970.98
542.13	56718.20
542.30	56821.19
542.47	57165.24
542.63	57041.20
542.80	57193.33
542.97	57298.65
543.14	57242.48
543.31	57623.99
543.48	57635.69
543.64	57659.10
543.81	57848.68
543.98	57722.29
544.15	57682.50
544.32	57989.11
544.48	57853.36
544.65	57715.27
544.82	57879.11
544.99	57581.86
545.16	57815.91
545.32	57521.01
545.49	57949.32
545.66	58181.04
545.83	57750.38
546.00	57769.10
546.16	57982.09
546.33	57860.38
546.50	57937.62
546.67	58092.10
546.83	57726.97
547.00	58159.97
547.17	57996.13
547.34	57916.56
547.50	58330.83
547.67	58351.90
547.84	58169.33
548.00	58267.64
548.17	58553.18
548.34	58454.88
548.51	58513.39
548.67	58461.90
548.84	58548.50
549.01	58511.05
549.18	58431.47
549.34	58541.48
549.51	58588.29
549.68	58602.33
549.84	58604.67
550.01	58890.22
550.18	58695.95
550.34	58763.83
550.51	58637.44
550.68	58707.66
550.84	58602.33
551.01	58922.99
551.18	58768.51
551.34	58997.88
551.51	58838.73
551.68	59140.66
551.84	58667.87
552.01	58801.28
552.18	59100.87
552.34	58733.40
552.51	59175.76
552.68	58918.31
552.84	59171.08
553.01	59346.62
553.18	59143.00
553.34	59096.19
553.51	58873.84
553.67	59292.79
553.84	59208.53
554.01	59110.23
554.17	59271.73
554.34	59379.39
554.51	59461.31
554.67	59348.96
554.84	59409.82
555.00	59229.60
555.17	59222.58
555.33	59187.47
555.50	59407.48
555.67	59327.90
555.83	59231.94
556.00	59442.59
556.16	59735.15
556.33	59725.79
556.50	59491.74
556.66	59845.16
556.83	59566.63
556.99	59807.71
557.16	59819.41
557.32	59817.07
557.49	59796.01
557.65	59487.06
557.82	59723.45
557.98	59650.89
558.15	59625.15
558.32	59959.84
558.48	59608.76
558.65	59849.84
558.81	59662.60
558.98	59924.74
559.14	59924.74
559.31	59875.58
559.47	59882.61
559.64	59859.20
559.80	60083.89
559.97	60104.96
560.13	59924.74
560.30	60001.97
560.46	60102.62
560.63	60104.96
560.79	60109.64
560.96	60313.26
561.12	60313.26
561.29	60039.42
561.45	60186.88
561.61	59884.95
561.78	59969.21
561.94	60217.30
562.11	60128.36
562.27	60161.13
562.44	60236.03
562.60	60186.88
562.77	60119.00
562.93	60060.49
563.10	60264.11
563.26	60203.26
563.42	60535.62
563.59	60308.58
563.75	60252.41
563.92	60327.31
564.08	60339.01
564.24	60472.42
564.41	60453.70
564.57	60467.74
564.74	60411.57
564.90	60420.93
565.07	60388.16
565.23	60441.99
565.39	60252.41
565.56	60556.68
565.72	60364.76
565.88	60301.56
566.05	60453.70
566.21	60472.42
566.38	60559.02
566.54	60519.23
566.70	60523.91
566.87	60835.20
567.03	60547.32
567.19	60556.68
567.36	60566.04
567.52	60650.30
567.68	60774.35
567.85	60692.43
568.01	60764.99
568.17	60622.22
568.34	60772.01
568.50	60708.82
568.66	60790.73
568.83	60638.60
568.99	60584.77
569.15	60645.62
569.32	60669.03
569.48	60629.24
569.64	60877.33
569.81	60566.04
569.97	60795.42
570.13	60640.94
570.30	60657.32
570.46	60963.93
570.62	60736.90
570.78	60870.31
570.95	60954.57
571.11	60917.12
571.27	60980.32
571.43	60867.97
571.60	61006.06
571.76	60921.80
571.92	61038.83
572.09	60830.52
572.25	60893.72
572.41	60851.59
572.57	60872.65
572.74	61034.15
572.90	60928.83
573.06	60947.55
573.22	60774.35
573.38	61073.94
573.55	60849.25
573.71	61174.58
573.87	60891.38
574.03	60912.44
574.20	60886.70
574.36	60816.48
574.52	60956.91
574.68	61020.11
574.84	61029.47
575.01	60919.46
575.17	60982.66
575.33	60900.74
575.49	60889.04
575.65	60975.64
575.82	61160.54
575.98	61183.94
576.14	61113.73
576.30	61141.81
576.46	60977.98
576.62	61095.00
576.79	61076.28
576.95	61090.32
577.11	61394.59
577.27	61333.74
577.43	61216.71
577.59	60980.32
577.75	61008.40
577.92	60917.12
578.08	60949.89
578.24	61034.15
578.40	61197.99
578.56	61258.84
578.72	61017.77
578.88	61148.84
579.04	61315.01
579.21	61160.54
579.37	61237.78
579.53	61315.01
579.69	61085.64
579.85	61099.68
580.01	61092.66
580.17	61197.99
580.33	61296.29
580.49	61193.31
580.65	61247.14
580.82	61017.77
580.98	61092.66
581.14	60970.96
581.30	61272.88
581.46	61162.88
581.62	61158.20
581.78	61237.78
581.94	61256.50
582.10	61095.00
582.26	61214.37
582.42	61214.37
582.58	61066.92
582.74	61106.71
582.90	61195.65
583.06	61223.73
583.22	61127.77
583.38	61048.19
583.54	61488.21
583.70	61312.67
583.86	61345.44
584.02	61256.50
584.18	61415.66
584.34	61410.98
584.50	61368.85
584.66	61186.28
584.82	61120.75
584.98	61408.64
585.14	61263.52
585.30	61315.01
585.46	61258.84
585.62	61396.93
585.78	61307.99
585.94	61263.52
586.10	61174.58
586.26	61352.46
586.42	61410.98
586.58	61453.11
586.74	61333.74
586.90	61111.39
587.06	61235.44
587.22	61338.42
587.38	61392.25
587.54	61371.19
587.70	61441.40
587.86	61413.32
588.02	61181.60
588.18	61478.85
588.34	61446.08
588.49	61322.04
