SpectraSuite Data File
++++++++++++++++++++++++++++++++++++
Date: Fri Oct 25 11:23:03 EDT 2013
User: price-jones
Dark Spectrum Present: No
Reference Spectrum Present: No
Number of Sampled Component Spectra: 1
Spectrometers: USB2+H05261
Integration Time (usec): 100000 (USB2+H05261)
Spectra Averaged: 1 (USB2+H05261)
Boxcar Smoothing: 0 (USB2+H05261)
Correct for Electrical Dark: No (USB2+H05261)
Strobe/Lamp Enabled: No (USB2+H05261)
Correct for Detector Non-linearity: No (USB2+H05261)
Correct for Stray Light: No (USB2+H05261)
Number of Pixels in Processed Spectrum: 2048
>>>>>Begin Processed Spectral Data<<<<<
365.73	189.58
365.92	189.58
366.12	189.58
366.32	222.35
366.52	173.20
366.72	131.07
366.91	119.37
367.11	135.75
367.31	102.98
367.51	156.82
367.70	110.01
367.90	175.54
368.10	142.77
368.30	124.05
368.49	91.28
368.69	126.39
368.89	201.29
369.09	149.79
369.28	189.58
369.48	198.95
369.68	159.16
369.87	212.99
370.07	196.60
370.27	180.22
370.47	390.87
370.66	575.77
370.86	643.65
371.06	695.14
371.25	746.63
371.45	676.41
371.65	774.72
371.84	699.82
372.04	692.80
372.24	727.91
372.44	734.93
372.63	671.73
372.83	737.27
373.03	737.27
373.22	671.73
373.42	751.31
373.62	755.99
373.81	795.78
374.01	816.85
374.21	748.97
374.40	868.34
374.60	842.59
374.79	748.97
374.99	880.04
375.19	856.64
375.38	777.06
375.58	866.00
375.78	788.76
375.97	821.53
376.17	912.81
376.37	910.47
376.56	828.55
376.76	908.13
376.95	851.96
377.15	891.74
377.35	912.81
377.54	945.58
377.74	891.74
377.93	856.64
378.13	863.66
378.33	929.19
378.52	873.02
378.72	896.43
378.91	976.00
379.11	964.30
379.31	915.15
379.50	863.66
379.70	992.39
379.89	1034.52
380.09	990.05
380.28	908.13
380.48	1025.15
380.68	905.79
380.87	985.37
381.07	1001.75
381.26	1083.67
381.46	1036.86
381.65	966.64
381.85	1036.86
382.04	987.71
382.24	1053.24
382.43	1041.54
382.63	1027.50
382.83	1076.65
383.02	1160.91
383.22	1109.41
383.41	1128.14
383.61	1224.10
383.80	1142.18
384.00	1086.01
384.19	1266.23
384.39	1149.20
384.58	1198.35
384.78	1151.54
384.97	1270.91
385.17	1125.80
385.36	1203.04
385.56	1196.01
385.75	1177.29
385.95	1177.29
386.14	1177.29
386.34	1212.40
386.53	1196.01
386.72	1160.91
386.92	1275.59
387.11	1163.25
387.31	1273.25
387.50	1247.51
387.70	1256.87
387.89	1277.93
388.09	1231.12
388.28	1359.85
388.48	1322.40
388.67	1329.42
388.86	1387.94
389.06	1352.83
389.25	1355.17
389.45	1404.32
389.64	1343.47
389.84	1413.68
390.03	1453.47
390.22	1413.68
390.42	1390.28
390.61	1352.83
390.81	1397.30
391.00	1373.89
391.19	1483.90
391.39	1474.54
391.58	1453.47
391.78	1444.11
391.97	1425.39
392.16	1521.35
392.36	1519.01
392.55	1544.75
392.75	1467.52
392.94	1423.05
393.13	1528.37
393.33	1486.24
393.52	1554.12
393.71	1584.54
393.91	1600.93
394.10	1537.73
394.29	1624.33
394.49	1554.12
394.68	1659.44
394.88	1708.59
395.07	1640.72
395.26	1678.16
395.46	1607.95
395.65	1647.74
395.84	1715.61
396.04	1811.57
396.23	1776.47
396.42	1699.23
396.62	1781.15
396.81	1785.83
397.00	1844.34
397.19	1834.98
397.39	1762.42
397.58	1830.30
397.77	1926.26
397.97	1825.62
398.16	1881.79
398.35	1884.13
398.55	1865.41
398.74	1954.35
398.93	1961.37
399.12	1905.20
399.32	1930.94
399.51	1973.07
399.70	2073.71
399.90	1933.28
400.09	2001.16
400.28	2118.18
400.47	2022.22
400.67	2120.53
400.86	2146.27
401.05	1987.11
401.24	2157.97
401.44	2188.40
401.63	2090.10
401.82	2125.21
402.01	2207.13
402.21	2141.59
402.40	2172.02
402.59	2146.27
402.78	2190.74
402.97	2260.96
403.17	2176.70
403.36	2202.44
403.55	2277.34
403.74	2345.22
403.93	2342.88
404.13	2464.58
404.32	2354.58
404.51	2417.77
404.70	2455.22
404.89	2310.11
405.09	2495.01
405.28	2434.16
405.47	2541.82
405.66	2546.50
405.85	2473.95
406.05	2605.02
406.24	2614.38
406.43	2572.25
406.62	2607.36
406.81	2675.23
407.00	2675.23
407.20	2541.82
407.39	2630.76
407.58	2935.03
407.77	2869.50
407.96	2782.90
408.15	2855.45
408.34	2691.62
408.54	2829.71
408.73	2839.07
408.92	2862.48
409.11	2953.76
409.30	2953.76
409.49	2904.60
409.68	2906.95
409.87	2984.18
410.07	3129.30
410.26	2998.23
410.45	3016.95
410.64	3094.19
410.83	3204.19
411.02	3005.25
411.21	3155.04
411.40	3145.68
411.59	3201.85
411.78	3290.79
411.98	3262.71
412.17	3215.90
412.36	3300.16
412.55	3473.36
412.74	3494.42
412.93	3592.72
413.12	3473.36
413.31	3700.39
413.50	3515.48
413.69	3625.49
413.88	3721.45
414.07	3562.30
414.26	3684.00
414.45	3737.84
414.64	3737.84
414.83	3875.93
415.02	3819.75
415.22	3789.33
415.41	3946.14
415.60	3904.01
415.79	4032.74
415.98	4109.98
416.17	4004.66
416.36	3983.59
416.55	3941.46
416.74	4072.53
416.93	4007.00
417.12	4131.05
417.31	4292.54
417.50	4259.78
417.69	4381.48
417.88	4358.08
418.07	4231.69
418.26	4243.39
418.45	4374.46
418.64	4660.01
418.83	4472.76
419.02	4542.98
419.21	4557.02
419.39	4524.26
419.58	4641.28
419.77	4475.10
419.96	4545.32
420.15	4641.28
420.34	4573.41
420.53	4657.67
420.72	4837.89
420.91	4795.76
421.10	4795.76
421.29	4835.55
421.48	4697.46
421.67	4732.56
421.86	4854.27
422.05	4737.24
422.24	5004.07
422.43	4873.00
422.61	5064.92
422.80	5032.15
422.99	5078.96
423.18	5060.24
423.37	5125.77
423.56	4943.21
423.75	4931.51
423.94	5022.79
424.13	4786.40
424.32	4784.06
424.50	5027.47
424.69	5020.45
424.88	5029.81
425.07	5043.85
425.26	4985.34
425.45	4964.28
425.64	5081.30
425.83	5043.85
426.01	5013.43
426.20	5093.01
426.39	5032.15
426.58	5210.03
426.77	5093.01
426.96	5247.48
427.15	5261.52
427.33	5376.21
427.52	5282.59
427.71	5317.70
427.90	5343.44
428.09	5315.36
428.28	5432.38
428.46	5408.98
428.65	5455.79
428.84	5617.29
429.03	5582.18
429.22	5329.40
429.40	5680.48
429.59	5706.23
429.78	5254.50
429.97	5242.80
430.16	5727.29
430.34	5783.46
430.53	5631.33
430.72	5628.99
430.91	5685.16
431.10	5795.17
431.28	5816.23
431.47	5783.46
431.66	5973.05
431.85	5856.02
432.03	5930.92
432.22	6136.88
432.41	6024.54
432.60	5991.77
432.79	5872.40
432.97	6017.52
433.16	6160.29
433.35	6076.03
433.54	6179.01
433.72	6202.42
433.91	6024.54
434.10	6094.76
434.28	6335.83
434.47	6230.51
434.66	6342.85
434.85	6232.85
435.03	6483.28
435.22	6291.36
435.41	6518.39
435.59	6473.92
435.78	6450.52
435.97	6593.29
436.16	6710.32
436.34	6452.86
436.53	6642.44
436.72	6574.56
436.90	6562.86
437.09	6719.68
437.28	6506.69
437.46	6677.55
437.65	6689.25
437.84	6864.79
438.02	6738.40
438.21	6925.65
438.40	6862.45
438.58	6974.80
438.77	7030.97
438.96	7066.08
439.14	7269.70
439.33	7129.27
439.52	7225.23
439.70	7321.20
439.89	7438.22
440.08	7384.39
440.26	7368.01
440.45	7218.21
440.63	7461.63
440.82	7683.98
441.01	7604.40
441.19	7726.11
441.38	8060.80
441.57	7770.58
441.75	7903.99
441.94	8049.10
442.12	8081.87
442.31	7990.59
442.50	8074.85
442.68	8252.73
442.87	8109.96
443.05	8184.85
443.24	8329.97
443.43	8145.06
443.61	8393.16
443.80	8360.39
443.98	8121.66
444.17	7936.76
444.35	8325.29
444.54	8437.63
444.73	8299.54
444.91	8271.45
445.10	8430.61
445.28	8327.63
445.47	8421.25
445.65	8388.48
445.84	8439.97
446.02	8585.08
446.21	8416.57
446.39	8360.39
446.58	8592.11
446.77	8683.39
446.95	8411.89
447.14	8580.40
447.32	8533.59
447.51	8538.27
447.69	8439.97
447.88	8388.48
448.06	8496.14
448.25	8746.58
448.43	8599.13
448.62	8699.77
448.80	8449.33
448.99	8812.12
449.17	8772.33
449.36	8690.41
449.54	8849.57
449.73	9013.40
449.91	8959.57
450.10	9104.68
450.28	9289.59
450.46	9125.75
450.65	9053.19
450.83	9090.64
451.02	9207.67
451.20	9062.55
451.39	9341.08
451.57	9296.61
451.76	9088.30
451.94	9273.20
452.13	9380.87
452.31	9432.36
452.49	9317.67
452.68	9540.02
452.86	9312.99
453.05	9703.86
453.23	9624.28
453.42	9687.48
453.60	9423.00
453.78	9537.68
453.97	9476.83
454.15	9664.07
454.34	9540.02
454.52	9755.35
454.70	9736.63
454.89	9860.68
455.07	9877.06
455.26	9916.85
455.44	9853.66
455.62	9905.15
455.81	10083.03
455.99	10153.24
456.17	10160.27
456.36	10256.23
456.54	10078.35
456.73	10289.00
456.91	10340.49
457.09	10539.43
457.28	10796.89
457.46	10499.64
457.64	10642.42
457.83	10520.71
458.01	10621.35
458.19	10696.25
458.38	10738.38
458.56	10923.28
458.74	10656.46
458.93	10633.05
459.11	10714.97
459.29	10881.15
459.48	10958.39
459.66	10787.53
459.84	11143.29
460.03	11269.68
460.21	11030.94
460.39	11232.23
460.57	11112.86
460.76	11356.28
460.94	11473.31
461.12	11447.56
461.31	11215.85
461.49	11295.43
461.67	11379.68
461.85	11454.58
462.04	11356.28
462.22	11548.20
462.40	11712.04
462.59	11590.33
462.77	11634.80
462.95	11861.84
463.13	11709.70
463.32	11829.07
463.50	11929.71
463.68	11971.84
463.86	11845.45
464.05	11775.24
464.23	11840.77
464.41	11997.59
464.59	11992.90
464.78	12339.30
464.96	12215.26
465.14	11791.62
465.32	12215.26
465.50	12339.30
465.69	12278.45
465.87	12128.66
466.05	12304.20
466.23	12430.59
466.41	12353.35
466.60	12533.57
466.78	12376.75
466.96	12556.97
467.14	12276.11
467.32	12386.12
467.51	12690.38
467.69	12521.87
467.87	12704.43
468.05	12734.85
468.23	12559.31
468.41	12657.62
468.60	12681.02
468.78	12685.70
468.96	12720.81
469.14	12924.44
469.32	12964.23
469.50	12608.47
469.69	12947.84
469.87	13071.89
470.05	13137.43
470.23	13263.82
470.41	13209.98
470.59	13570.43
470.77	13338.71
470.95	13521.27
471.14	13752.99
471.32	13399.57
471.50	13654.69
471.68	13509.57
471.86	13806.82
472.04	13888.74
472.22	14164.92
472.40	13729.58
472.58	13996.40
472.77	14129.81
472.95	14438.76
473.13	14707.93
473.31	14211.73
473.49	14209.39
473.67	14415.36
473.85	14431.74
474.03	14651.75
474.21	14963.04
474.39	14923.26
474.57	14789.85
474.75	15257.95
474.93	15269.66
475.12	15396.04
475.30	15384.34
475.48	15152.63
475.66	15531.80
475.84	15293.06
476.02	15482.64
476.20	15382.00
476.38	15906.28
476.56	16042.03
476.74	16409.50
476.92	16065.44
477.10	15929.69
477.28	16500.78
477.46	16128.63
477.64	16533.54
477.82	16695.04
478.00	17003.99
478.18	17050.80
478.36	17043.78
478.54	17310.60
478.72	17408.90
478.90	17818.50
479.08	17816.16
479.26	17954.25
479.44	17825.52
479.62	18094.68
479.80	18043.19
479.98	18452.78
480.16	18721.95
480.34	18508.96
480.52	18963.02
480.70	18635.35
480.88	18623.64
481.06	18857.70
481.24	18991.11
481.41	19360.91
481.59	19407.72
481.77	19978.81
481.95	19765.82
482.13	19906.26
482.31	20004.56
482.49	20599.05
482.67	20121.59
482.85	20580.33
483.03	20812.04
483.21	21001.63
483.39	21233.34
483.57	21231.00
483.74	21518.89
483.92	21886.35
484.10	21488.46
484.28	21874.65
484.46	22104.02
484.64	22899.80
484.82	22199.98
485.00	22291.26
485.18	22977.04
485.35	23491.96
485.53	23063.64
485.71	23377.27
485.89	23772.82
486.07	23627.71
486.25	23786.86
486.43	23992.83
486.61	24229.23
486.78	24435.19
486.96	24460.94
487.14	24833.08
487.32	24655.20
487.50	24865.85
487.68	25282.47
487.85	25617.16
488.03	25762.28
488.21	26223.36
488.39	26080.59
488.57	26419.97
488.75	26778.07
488.92	26724.24
489.10	27028.51
489.28	27009.78
489.46	27765.78
489.64	27227.45
489.81	27702.58
489.99	28098.13
490.17	27950.68
490.35	28540.49
490.53	28451.55
490.70	28472.62
490.88	28547.51
491.06	29214.57
491.24	29448.62
491.41	29556.28
491.59	29521.18
491.77	29507.13
491.95	29663.95
492.13	30174.19
492.30	30064.18
492.48	30312.28
492.66	30792.09
492.84	30506.54
493.01	31035.50
493.19	30955.93
493.37	31129.12
493.54	31489.57
493.72	31709.58
493.90	32060.66
494.08	31894.48
494.25	32456.21
494.43	32521.74
494.61	32638.77
494.79	33317.53
494.96	32706.65
495.14	33137.30
495.32	33970.54
495.49	33249.65
495.67	33401.79
495.85	34022.03
496.02	34422.26
496.20	34347.36
496.38	34391.83
496.55	34117.99
496.73	35136.12
496.91	34913.77
497.09	35133.78
497.26	35161.87
497.44	35456.78
497.62	35716.58
497.79	36161.28
497.97	35723.60
498.14	36648.11
498.32	36769.82
498.50	36395.33
498.67	36943.02
498.85	37219.20
499.03	37013.23
499.20	37212.18
499.38	37074.09
499.56	37612.41
499.73	37570.28
499.91	37886.25
500.08	38031.36
500.26	38007.96
500.44	37982.21
500.61	38249.03
500.79	38270.10
500.97	38770.97
501.14	39271.85
501.32	38719.48
501.49	38815.44
501.67	39063.54
501.84	39145.46
502.02	39653.36
502.20	39723.57
502.37	39667.40
502.55	39634.63
502.72	39735.27
502.90	40402.33
503.07	40343.81
503.25	40245.51
503.43	40470.20
503.60	40615.32
503.78	40961.72
503.95	40502.97
504.13	41380.67
504.30	40863.41
504.48	40886.82
504.65	41378.33
504.83	41528.13
505.01	41544.51
505.18	41930.70
505.36	41858.14
505.53	41834.74
505.71	42316.89
505.88	42270.08
506.06	42288.80
506.23	41996.23
506.41	42485.40
506.58	42653.92
506.76	42813.08
506.93	43189.91
507.11	42359.02
507.28	43452.05
507.46	43292.89
507.63	43604.18
507.81	43819.51
507.98	43306.93
508.16	43374.81
508.33	43936.54
508.50	44325.07
508.68	44163.57
508.85	44629.34
509.03	44294.64
509.20	44514.65
509.38	44938.29
509.55	44987.44
509.73	45205.11
509.90	45057.65
510.08	44652.74
510.25	45067.02
510.42	45394.69
510.60	45207.45
510.77	45305.75
510.95	46358.99
511.12	45570.23
511.30	45446.18
511.47	45823.01
511.64	46103.87
511.82	46188.13
511.99	46150.68
512.17	46581.34
512.34	46471.34
512.51	46721.77
512.69	46873.91
512.86	46890.29
513.04	46993.28
513.21	47119.66
513.38	47236.69
513.56	47351.38
513.73	47117.32
513.90	47360.74
514.08	47154.77
514.25	47643.94
514.43	47906.08
514.60	47756.29
514.77	47739.91
514.95	48329.72
515.12	48081.63
515.29	47863.96
515.47	48353.13
515.64	48566.12
515.81	48472.49
515.99	48839.96
516.16	48704.21
516.33	48938.26
516.51	49036.56
516.68	49111.46
516.85	48839.96
517.03	49485.95
517.20	49432.11
517.37	49155.93
517.54	49167.63
517.72	49226.15
517.89	49078.69
518.06	49631.06
518.24	49830.01
518.41	49818.30
518.58	49935.33
518.75	49837.03
518.93	50050.02
519.10	49743.41
519.27	50171.72
519.45	49930.65
519.62	50101.51
519.79	50260.66
519.96	50447.91
520.14	50468.97
520.31	50583.66
520.48	51110.28
520.65	50787.28
520.83	51121.98
521.00	51150.07
521.17	51250.71
521.34	51042.40
521.52	51051.76
521.69	51016.66
521.86	51519.87
522.03	51662.64
522.20	51709.46
522.38	51742.22
522.55	51800.74
522.72	51632.22
522.89	51510.51
523.07	52105.01
523.24	51945.85
523.41	52128.41
523.58	51896.70
523.75	52287.57
523.92	52060.54
524.10	52484.17
524.27	52306.29
524.44	52411.62
524.61	52451.41
524.78	52652.69
524.96	52650.35
525.13	52795.46
525.30	52804.83
525.47	52865.68
525.64	53216.76
525.81	52973.34
525.98	53062.29
526.16	52900.79
526.33	53146.54
526.50	53506.99
526.67	53055.26
526.84	53076.33
527.01	53272.93
527.18	53165.27
527.36	53413.37
527.53	53380.60
527.70	53734.02
527.87	53530.39
528.04	53844.02
528.21	53675.51
528.38	53577.20
528.55	54066.38
528.72	53654.44
528.89	53734.02
529.07	53963.39
529.24	53769.13
529.41	54192.76
529.58	54057.01
529.75	53932.96
529.92	54227.87
530.09	54028.93
530.26	54101.48
530.43	54443.20
530.60	54150.63
530.77	54312.13
530.94	54358.94
531.11	54333.20
531.28	54597.68
531.46	54557.89
531.63	54658.53
531.80	54632.78
531.97	54497.03
532.14	55040.04
532.31	54794.28
532.48	54707.68
532.65	55248.35
532.82	55004.93
532.99	55047.06
533.16	54724.07
533.33	55332.60
533.50	55302.18
533.67	55182.81
533.84	55117.28
534.01	55236.64
534.18	55121.96
534.35	55557.30
534.52	55526.87
534.69	55693.05
534.86	55697.73
535.03	55461.33
535.20	55538.57
535.37	55620.49
535.54	55454.31
535.71	55505.80
535.88	55805.39
536.05	55702.41
536.22	55569.00
536.38	55920.08
536.55	55817.10
536.72	56083.92
536.89	55868.59
537.06	56177.54
537.23	55901.36
537.40	55950.51
537.57	56076.90
537.74	56264.14
537.91	56390.53
538.08	56240.73
538.25	56074.55
538.42	56327.33
538.59	56495.85
538.75	56275.84
538.92	56161.15
539.09	56643.30
539.26	56374.14
539.43	56437.34
539.60	56449.04
539.77	56446.70
539.94	56790.76
540.11	56636.28
540.28	56666.71
540.44	56875.02
540.61	56853.95
540.78	56619.90
540.95	56743.95
541.12	56692.46
541.29	56853.95
541.46	56811.82
541.62	57027.15
541.79	56970.98
541.96	56917.15
542.13	56746.29
542.30	57020.13
542.47	56935.87
542.63	57106.73
542.80	57176.95
542.97	57076.30
543.14	57659.10
543.31	57446.11
543.48	57464.83
543.64	57930.60
543.81	57340.78
543.98	57600.58
544.15	57663.78
544.32	57659.10
544.48	57939.96
544.65	57666.12
544.82	57666.12
544.99	57399.30
545.16	57743.36
545.32	57474.20
545.49	57984.43
545.66	58005.50
545.83	57876.77
546.00	58260.62
546.16	57881.45
546.33	57897.83
546.50	57808.89
546.67	57883.79
546.83	57750.38
547.00	58110.82
547.17	57956.35
547.34	58066.35
547.50	58162.31
547.67	58248.91
547.84	58255.93
548.00	58457.22
548.17	58478.28
548.34	58471.26
548.51	58539.14
548.67	58518.07
548.84	58377.64
549.01	58468.92
549.18	58401.05
549.34	58522.76
549.51	58681.91
549.68	58511.05
549.84	58838.73
550.01	58827.02
550.18	58494.67
550.34	58976.82
550.51	58632.76
550.68	58710.00
550.84	58604.67
551.01	58932.35
551.18	58878.52
551.34	58944.05
551.51	58974.48
551.68	58801.28
551.84	58754.47
552.01	58883.20
552.18	58983.84
552.34	58937.03
552.51	59103.21
552.68	58864.47
552.84	58770.85
553.01	59274.07
553.18	59250.66
553.34	59065.76
553.51	58981.50
553.67	59077.46
553.84	59224.92
554.01	59285.77
554.17	59337.26
554.34	59482.37
554.51	59536.21
554.67	59463.65
554.84	59224.92
555.00	59299.81
555.17	59119.59
555.33	59339.60
555.50	59391.09
555.67	59442.59
555.83	59128.95
556.00	59377.05
556.16	59573.66
556.33	59475.35
556.50	59550.25
556.66	59838.14
556.83	59561.95
556.99	59941.12
557.16	59770.26
557.32	59760.90
557.49	60037.08
557.65	59760.90
557.82	59686.00
557.98	59812.39
558.15	59639.19
558.32	59863.88
558.48	59517.48
558.65	59674.30
558.81	59920.05
558.98	59814.73
559.14	60149.43
559.31	60121.34
559.47	59966.87
559.64	60079.21
559.80	59810.05
559.97	59934.10
560.13	59866.22
560.30	59924.74
560.46	59955.16
560.63	60046.44
560.79	60179.85
560.96	60079.21
561.12	60240.71
561.29	60240.71
561.45	60205.60
561.61	60023.04
561.78	59990.27
561.94	60072.19
562.11	60090.91
562.27	60285.18
562.44	60310.92
562.60	60189.22
562.77	60182.19
562.93	60081.55
563.10	60306.24
563.26	60275.82
563.42	60406.89
563.59	60404.55
563.75	60252.41
563.92	60271.14
564.08	60247.73
564.24	60427.95
564.41	60278.16
564.57	60479.44
564.74	60463.06
564.90	60320.29
565.07	60317.95
565.23	60313.26
565.39	60423.27
565.56	60654.98
565.72	60540.30
565.88	60472.42
566.05	60331.99
566.21	60320.29
566.38	60472.42
566.54	60388.16
566.70	60767.33
566.87	60863.29
567.03	60299.22
567.19	60835.20
567.36	60692.43
567.52	60608.17
567.68	60781.37
567.85	60587.11
568.01	60568.38
568.17	60704.13
568.34	60615.19
568.50	60704.13
568.66	60486.46
568.83	60732.22
568.99	60374.12
569.15	60736.90
569.32	60830.52
569.48	60594.13
569.64	60783.71
569.81	60669.03
569.97	60580.09
570.13	60715.84
570.30	60535.62
570.46	60753.29
570.62	60828.18
570.78	60818.82
570.95	60865.63
571.11	61006.06
571.27	60772.01
571.43	60853.93
571.60	60921.80
571.76	61010.74
571.92	61102.03
572.09	60999.04
572.25	60882.02
572.41	60874.99
572.57	60739.24
572.74	61003.72
572.90	61027.13
573.06	60809.46
573.22	60720.52
573.38	60804.78
573.55	61017.77
573.71	61123.09
573.87	60952.23
574.03	60851.59
574.20	61090.32
574.36	60973.30
574.52	60879.67
574.68	60959.25
574.84	60968.61
575.01	60853.93
575.17	60980.32
575.33	60954.57
575.49	61097.34
575.65	60970.96
575.82	61078.62
575.98	61216.71
576.14	61233.10
576.30	61223.73
576.46	60954.57
576.62	60994.36
576.79	61092.66
576.95	60989.68
577.11	61172.24
577.27	61116.07
577.43	61062.24
577.59	61024.79
577.75	61024.79
577.92	61006.06
578.08	61300.97
578.24	61080.96
578.40	61207.35
578.56	61254.16
578.72	60977.98
578.88	61378.21
579.04	61329.06
579.21	61263.52
579.37	61228.41
579.53	61254.16
579.69	61078.62
579.85	60973.30
580.01	61183.94
580.17	61048.19
580.33	61279.91
580.49	61235.44
580.65	61106.71
580.82	61200.33
580.98	60917.12
581.14	61008.40
581.30	61207.35
581.46	61050.53
581.62	61216.71
581.78	61212.03
581.94	61029.47
582.10	61179.26
582.26	61022.45
582.42	61296.29
582.58	61034.15
582.74	61153.52
582.90	61148.84
583.06	61022.45
583.22	61043.51
583.38	61244.80
583.54	61347.78
583.70	61448.42
583.86	61394.59
584.02	61057.56
584.18	61380.55
584.34	61214.37
584.50	60994.36
584.66	61172.24
584.82	60999.04
584.98	61373.53
585.14	61307.99
585.30	61144.16
585.46	61406.30
585.62	61289.27
585.78	61289.27
585.94	61141.81
586.10	61263.52
586.26	61270.54
586.42	61233.10
586.58	61254.16
586.74	61197.99
586.90	61233.10
587.06	61258.84
587.22	61513.96
587.38	61460.13
587.54	61556.09
587.70	61485.87
587.86	61333.74
588.02	61315.01
588.18	61425.02
588.34	61275.22
588.49	61312.67
