SpectraSuite Data File
++++++++++++++++++++++++++++++++++++
Date: Fri Oct 25 10:43:57 EDT 2013
User: price-jones
Dark Spectrum Present: No
Reference Spectrum Present: No
Number of Sampled Component Spectra: 1
Spectrometers: USB2+H05261
Integration Time (usec): 100000 (USB2+H05261)
Spectra Averaged: 1 (USB2+H05261)
Boxcar Smoothing: 0 (USB2+H05261)
Correct for Electrical Dark: No (USB2+H05261)
Strobe/Lamp Enabled: No (USB2+H05261)
Correct for Detector Non-linearity: No (USB2+H05261)
Correct for Stray Light: No (USB2+H05261)
Number of Pixels in Processed Spectrum: 2048
>>>>>Begin Processed Spectral Data<<<<<
365.73	117.03
365.92	117.03
366.12	117.03
366.32	9.36
366.52	65.54
366.72	91.28
366.91	23.41
367.11	11.70
367.31	44.47
367.51	21.06
367.70	51.49
367.90	107.66
368.10	9.36
368.30	63.19
368.49	4.68
368.69	9.36
368.89	0.00
369.09	0.00
369.28	67.88
369.48	23.41
369.68	72.56
369.87	65.54
370.07	53.83
370.27	140.43
370.47	215.33
370.66	362.78
370.86	418.96
371.06	374.49
371.25	451.72
371.45	355.76
371.65	484.49
371.84	461.09
372.04	470.45
372.24	479.81
372.44	463.43
372.63	528.96
372.83	503.22
373.03	475.13
373.22	486.83
373.42	538.32
373.62	543.00
373.81	503.22
374.01	610.88
374.21	578.11
374.40	580.45
374.60	641.31
374.79	535.98
374.99	531.30
375.19	613.22
375.38	557.05
375.58	617.90
375.78	622.58
375.97	669.39
376.17	601.52
376.37	603.86
376.56	568.75
376.76	681.10
376.95	648.33
377.15	676.41
377.35	660.03
377.54	643.65
377.74	547.69
377.93	664.71
378.13	615.56
378.33	727.91
378.52	603.86
378.72	674.07
378.91	709.18
379.11	613.22
379.31	678.76
379.50	660.03
379.70	627.26
379.89	688.12
380.09	716.20
380.28	683.44
380.48	737.27
380.68	674.07
380.87	655.35
381.07	758.33
381.26	702.16
381.46	667.05
381.65	671.73
381.85	610.88
382.04	697.48
382.24	741.95
382.43	667.05
382.63	657.69
382.83	702.16
383.02	725.57
383.22	828.55
383.41	650.67
383.61	767.70
383.80	793.44
384.00	830.89
384.19	725.57
384.39	821.53
384.58	763.01
384.78	875.36
384.97	805.14
385.17	805.14
385.36	732.59
385.56	758.33
385.75	844.93
385.95	882.38
386.14	894.08
386.34	856.64
386.53	807.48
386.72	816.85
386.92	966.64
387.11	940.90
387.31	961.96
387.50	858.98
387.70	842.59
387.89	884.72
388.09	880.04
388.28	978.34
388.48	903.45
388.67	978.34
388.86	961.96
389.06	931.53
389.25	894.08
389.45	978.34
389.64	1018.13
389.84	1001.75
390.03	1029.84
390.22	1046.22
390.42	1041.54
390.61	1025.15
390.81	1064.94
391.00	1107.07
391.19	1111.75
391.39	1088.35
391.58	1015.79
391.78	1055.58
391.97	1153.88
392.16	1144.52
392.36	1083.67
392.55	1015.79
392.75	1006.43
392.94	1071.97
393.13	1095.37
393.33	1071.97
393.52	1095.37
393.71	1165.59
393.91	1163.25
394.10	1228.78
394.29	1151.54
394.49	1179.63
394.68	1212.40
394.88	1228.78
395.07	1313.04
395.26	1249.85
395.46	1245.16
395.65	1341.13
395.84	1231.12
396.04	1299.00
396.23	1217.08
396.42	1146.86
396.62	1142.18
396.81	1142.18
397.00	1188.99
397.19	1301.34
397.39	1291.98
397.58	1390.28
397.77	1430.07
397.97	1451.13
398.16	1495.60
398.35	1462.83
398.55	1540.07
398.74	1544.75
398.93	1561.14
399.12	1540.07
399.32	1582.20
399.51	1579.86
399.70	1633.69
399.90	1544.75
400.09	1619.65
400.28	1687.53
400.47	1706.25
400.67	1643.06
400.86	1685.19
401.05	1734.34
401.24	1739.02
401.44	1788.17
401.63	1827.96
401.82	1837.32
402.01	1741.36
402.21	1799.87
402.40	1813.92
402.59	1930.94
402.78	1750.72
402.97	1769.44
403.17	1811.57
403.36	1816.26
403.55	1823.28
403.74	1895.83
403.93	1888.81
404.13	1963.71
404.32	1912.22
404.51	1888.81
404.70	2001.16
404.89	2073.71
405.09	2069.03
405.28	2003.50
405.47	1944.99
405.66	2108.82
405.85	2078.40
406.05	2073.71
406.24	2169.68
406.43	2113.50
406.62	2190.74
406.81	2286.70
407.00	2155.63
407.20	2200.10
407.39	2120.53
407.58	2286.70
407.77	2223.51
407.96	2303.09
408.15	2270.32
408.34	2326.49
408.54	2333.51
408.73	2394.37
408.92	2296.07
409.11	2326.49
409.30	2298.41
409.49	2354.58
409.68	2394.37
409.87	2324.15
410.07	2487.99
410.26	2392.03
410.45	2499.69
410.64	2600.34
410.83	2511.39
411.02	2602.68
411.21	2642.46
411.40	2539.48
411.59	2717.36
411.78	2672.89
411.98	2656.51
412.17	2689.28
412.36	2768.85
412.55	2787.58
412.74	2909.29
412.93	2911.63
413.12	2839.07
413.31	3101.21
413.50	2925.67
413.69	2892.90
413.88	2965.46
414.07	3009.93
414.26	3089.51
414.45	2988.86
414.64	3108.23
414.83	3059.08
415.02	3112.91
415.22	3080.14
415.41	3129.30
415.60	3274.41
415.79	3190.15
415.98	3358.67
416.17	3293.13
416.36	3353.99
416.55	3349.31
416.74	3358.67
416.93	3363.35
417.12	3447.61
417.31	3377.39
417.50	3279.09
417.69	3555.27
417.88	3499.10
418.07	3442.93
418.26	3492.08
418.45	3604.42
418.64	3693.37
418.83	3627.83
419.02	3578.68
419.21	3751.88
419.39	3798.69
419.58	3712.09
419.77	3618.47
419.96	3721.45
420.15	3812.73
420.34	3728.47
420.53	4032.74
420.72	3768.26
420.91	3932.10
421.10	3861.88
421.29	4114.66
421.48	3758.90
421.67	4021.04
421.86	4039.76
422.05	3992.95
422.24	3822.09
422.43	3875.93
422.61	4007.00
422.80	4147.43
422.99	4159.13
423.18	4149.77
423.37	4126.36
423.56	4114.66
423.75	4095.94
423.94	3840.82
424.13	3997.64
424.32	3882.95
424.50	4102.96
424.69	4241.05
424.88	4135.73
425.07	4056.15
425.26	4009.34
425.45	4098.28
425.64	4121.68
425.83	4018.70
426.01	4100.62
426.20	4257.43
426.39	4177.86
426.58	4051.47
426.77	4011.68
426.96	4072.53
427.15	4114.66
427.33	4095.94
427.52	4217.65
427.71	4250.41
427.90	4184.88
428.09	4276.16
428.28	4124.02
428.46	4222.33
428.65	4248.07
428.84	4519.57
429.03	4341.69
429.22	4100.62
429.40	4166.15
429.59	4191.90
429.78	3948.48
429.97	3915.72
430.16	4161.47
430.34	4152.11
430.53	4236.37
430.72	4376.80
430.91	4386.16
431.10	4550.00
431.28	4664.69
431.47	4727.88
431.66	4915.12
431.85	4442.34
432.03	4737.24
432.22	4798.10
432.41	4617.88
432.60	4629.58
432.79	4903.42
432.97	5057.90
433.16	4868.31
433.35	4840.23
433.54	4819.16
433.72	4727.88
433.91	4739.58
434.10	4931.51
434.28	4805.12
434.47	5078.96
434.66	4961.94
434.85	4968.96
435.03	5018.11
435.22	5071.94
435.41	5254.50
435.59	5174.92
435.78	5186.63
435.97	5294.29
436.16	5266.21
436.34	5231.10
436.53	5502.60
436.72	5394.93
436.90	5205.35
437.09	5268.55
437.28	5270.89
437.46	5430.04
437.65	5399.62
437.84	5401.96
438.02	5118.75
438.21	5158.54
438.40	5331.74
438.58	5511.96
438.77	5486.22
438.96	5514.30
439.14	5533.03
439.33	5731.97
439.52	5729.63
439.70	5774.10
439.89	5846.66
440.08	5907.51
440.26	5781.12
440.45	5872.40
440.63	6118.16
440.82	6171.99
441.01	6099.44
441.19	6174.33
441.38	6338.17
441.57	6251.57
441.75	6520.73
441.94	6382.64
442.12	6551.16
442.31	6462.22
442.50	6597.97
442.68	6438.81
442.87	6530.09
443.05	6359.24
443.24	6640.10
443.43	6553.50
443.61	6656.48
443.80	6766.49
443.98	6410.73
444.17	6417.75
444.35	6785.21
444.54	6825.00
444.73	6576.91
444.91	6740.74
445.10	6597.97
445.28	6487.96
445.47	6464.56
445.65	6530.09
445.84	6649.46
446.02	6754.79
446.21	6661.16
446.39	6782.87
446.58	6794.58
446.77	6773.51
446.95	6747.76
447.14	6862.45
447.32	7066.08
447.51	6857.77
447.69	6705.63
447.88	6895.22
448.06	6789.89
448.25	6890.54
448.43	7084.80
448.62	7143.32
448.80	7028.63
448.99	7033.31
449.17	6944.37
449.36	7084.80
449.54	7101.19
449.73	7412.48
449.91	7356.30
450.10	7225.23
450.28	7435.88
450.46	7360.98
450.65	7538.87
450.83	7534.18
451.02	7452.27
451.20	7705.04
451.39	7531.84
451.57	7468.65
451.76	7426.52
451.94	7442.90
452.13	7494.40
452.31	7351.62
452.49	7126.93
452.68	7276.73
452.86	7295.45
453.05	7332.90
453.23	7543.55
453.42	7478.01
453.60	7576.31
453.78	7735.47
453.97	7590.36
454.15	7665.25
454.34	7555.25
454.52	7826.75
454.70	7756.54
454.89	7691.00
455.07	7859.52
455.26	7847.82
455.44	7997.61
455.62	7967.18
455.81	7985.91
455.99	8140.38
456.17	8142.72
456.36	8088.89
456.54	8259.75
456.73	8184.85
456.91	8475.08
457.09	8404.86
457.28	8699.77
457.46	8318.26
457.64	8437.63
457.83	8346.35
458.01	8379.12
458.19	8493.80
458.38	8379.12
458.56	8645.94
458.74	8414.23
458.93	8685.73
459.11	8510.19
459.29	8528.91
459.48	8552.32
459.66	8641.26
459.84	8669.34
460.03	8833.18
460.21	8753.60
460.39	8807.44
460.57	8688.07
460.76	8739.56
460.94	8978.30
461.12	9046.17
461.31	8896.38
461.49	8877.65
461.67	8798.07
461.85	9095.32
462.04	8865.95
462.22	9174.90
462.40	9076.60
462.59	9053.19
462.77	9249.80
462.95	9315.33
463.13	9219.37
463.32	9240.44
463.50	9214.69
463.68	9219.37
463.86	9247.46
464.05	9167.88
464.23	9102.34
464.41	9453.42
464.59	9298.95
464.78	9458.10
464.96	9331.72
465.14	9289.59
465.32	9540.02
465.50	9324.69
465.69	9593.86
465.87	9530.66
466.05	9614.92
466.23	9537.68
466.41	9380.87
466.60	9596.20
466.78	9341.08
466.96	9551.73
467.14	9584.49
467.32	9643.01
467.51	9523.64
467.69	9516.62
467.87	9671.09
468.05	10003.45
468.23	9722.59
468.41	9926.21
468.60	9577.47
468.78	9907.49
468.96	9816.21
469.14	9966.00
469.32	9963.66
469.50	9858.34
469.69	10066.64
469.87	10015.15
470.05	10148.56
470.23	10031.54
470.41	10143.88
470.59	10291.34
470.77	9998.77
470.95	10181.33
471.14	10499.64
471.32	10193.03
471.50	10516.03
471.68	10452.83
471.86	10590.92
472.04	10775.83
472.22	11026.26
472.40	10572.20
472.58	10824.98
472.77	10738.38
472.95	10719.65
473.13	11126.91
473.31	11056.69
473.49	10827.32
473.67	10729.02
473.85	11066.05
474.03	11424.15
474.21	11386.71
474.39	11190.10
474.57	11288.40
474.75	11456.92
474.93	11445.22
475.12	11335.21
475.30	11318.83
475.48	11777.58
475.66	11805.66
475.84	11700.34
476.02	11726.08
476.20	11618.42
476.38	11983.54
476.56	12271.43
476.74	12030.35
476.92	12283.13
477.10	12060.78
477.28	12451.65
477.46	12432.93
477.64	12622.51
477.82	12898.69
478.00	13060.19
478.18	12849.54
478.36	12919.76
478.54	13081.25
478.72	13312.97
478.90	13254.45
479.08	13205.30
479.26	13418.29
479.44	13570.43
479.62	13359.78
479.80	13715.54
479.98	13820.86
480.16	14012.79
480.34	13825.54
480.52	14211.73
480.70	14115.77
480.88	14150.88
481.06	14043.21
481.24	14640.05
481.41	14654.09
481.59	14750.06
481.77	14738.35
481.95	14930.28
482.13	15012.20
482.31	15192.42
482.49	15314.13
482.67	15211.14
482.85	15351.57
483.03	15461.58
483.21	15843.09
483.39	15822.02
483.57	15693.29
483.74	15779.89
483.92	15953.09
484.10	16032.67
484.28	16315.87
484.46	16376.73
484.64	16477.37
484.82	16519.50
485.00	16596.74
485.18	17062.51
485.35	17074.21
485.53	16673.98
485.71	16760.58
485.89	16999.31
486.07	16711.42
486.25	16999.31
486.43	17142.08
486.61	17497.84
486.78	17790.41
486.96	17914.46
487.14	18097.02
487.32	18328.74
487.50	18712.58
487.68	18778.12
487.85	18820.25
488.03	18747.69
488.21	19054.30
488.39	19150.26
488.57	18998.13
488.75	19330.48
488.92	19241.54
489.10	19658.16
489.28	20065.41
489.46	20142.65
489.64	19990.52
489.81	20552.24
489.99	20577.99
490.17	21034.39
490.35	20964.18
490.53	20657.57
490.70	20851.83
490.88	20987.58
491.06	21462.71
491.24	21261.43
491.41	21364.41
491.59	21245.04
491.77	20996.95
491.95	21738.90
492.13	21809.11
492.30	22157.85
492.48	22190.62
492.66	22298.28
492.84	22522.98
493.01	22977.04
493.19	22675.11
493.37	22602.55
493.54	22902.14
493.72	23194.71
493.90	23365.57
494.08	23461.53
494.25	23747.08
494.43	23754.10
494.61	24027.94
494.79	23817.29
494.96	23847.72
495.14	24025.60
495.32	24119.22
495.49	24460.94
495.67	24435.19
495.85	24711.38
496.02	25146.72
496.20	24676.27
496.38	25174.80
496.55	25216.93
496.73	25420.56
496.91	25322.26
497.09	25333.96
497.26	25584.40
497.44	25745.89
497.62	25989.31
497.79	25919.09
497.97	25764.62
498.14	26190.59
498.32	26031.44
498.50	26242.09
498.67	26492.52
498.85	26892.76
499.03	27021.48
499.20	26859.99
499.38	27292.99
499.56	26941.91
499.73	27276.60
499.91	27005.10
500.08	27124.47
500.26	26845.94
500.44	27143.19
500.61	27103.40
500.79	27267.24
500.97	27623.00
501.14	27793.86
501.32	27531.72
501.49	27569.17
501.67	27941.32
501.84	28046.64
502.02	28491.34
502.20	28018.55
502.37	28414.10
502.55	28313.46
502.72	28552.20
502.90	28877.53
503.07	28418.78
503.25	28760.50
503.43	28549.85
503.60	29034.35
503.78	28554.54
503.95	29322.23
504.13	29123.29
504.30	29266.06
504.48	29474.37
504.65	29186.48
504.83	29551.60
505.01	29713.10
505.18	29682.67
505.36	30670.38
505.53	30110.99
505.71	30661.02
505.88	30490.16
506.06	30286.53
506.23	30361.43
506.41	30529.95
506.58	30511.22
506.76	30878.69
506.93	30768.68
507.11	30569.74
507.28	30307.60
507.46	30628.25
507.63	30684.42
507.81	31016.78
507.98	30600.16
508.16	31037.84
508.33	31548.08
508.50	31482.55
508.68	31637.02
508.85	31934.27
509.03	31793.84
509.20	31627.66
509.38	31910.86
509.55	31723.62
509.73	32280.67
509.90	32016.19
510.08	32039.59
510.25	32102.79
510.42	32484.30
510.60	32456.21
510.77	32362.59
510.95	32334.50
511.12	32510.04
511.30	32739.41
511.47	32954.74
511.64	33387.74
511.82	33308.16
511.99	33095.18
512.17	33172.41
512.34	33347.95
512.51	33511.79
512.69	33366.68
512.86	33574.98
513.04	33474.34
513.21	33825.42
513.38	33514.13
513.56	33446.26
513.73	33455.62
513.90	33518.81
514.08	33785.63
514.25	33750.52
514.43	34075.86
514.60	33834.78
514.77	34057.14
514.95	34515.88
515.12	34686.74
515.29	34249.06
515.47	34668.02
515.64	34962.92
515.81	34375.45
515.99	34735.89
516.16	34752.27
516.33	34525.24
516.51	34469.07
516.68	33937.77
516.85	34078.20
517.03	33890.96
517.20	34522.90
517.37	34597.80
517.54	35332.73
517.72	35168.89
517.89	34803.77
518.06	34827.17
518.24	34946.54
518.41	34988.67
518.58	35222.72
518.75	35325.71
518.93	35681.47
519.10	35749.34
519.27	35594.87
519.45	35658.06
519.62	36048.93
519.79	36002.12
519.96	36048.93
520.14	35807.86
520.31	35882.75
520.48	36369.58
520.65	36121.49
520.83	36877.48
521.00	36407.03
521.17	36472.57
521.34	36678.54
521.52	36765.14
521.69	36795.56
521.86	37284.73
522.03	37071.75
522.20	36879.82
522.38	37312.82
522.55	37242.60
522.72	37282.39
522.89	37092.81
523.07	37846.46
523.24	37038.98
523.41	37638.15
523.58	37457.93
523.75	38181.16
523.92	38066.47
524.10	37724.75
524.27	37834.76
524.44	37745.82
524.61	38277.12
524.78	38263.08
524.96	38249.03
525.13	38167.12
525.30	38726.50
525.47	38646.93
525.64	38724.16
525.81	37991.58
525.98	38368.40
526.16	37958.81
526.33	37776.25
526.50	38506.49
526.67	37888.59
526.84	38389.47
527.01	38520.54
527.18	38443.30
527.36	39206.31
527.53	38979.28
527.70	39192.27
527.87	39269.51
528.04	39093.97
528.21	39737.62
528.38	39592.50
528.55	39550.37
528.72	39503.56
528.89	39648.68
529.07	39763.36
529.24	39388.88
529.41	39807.83
529.58	39517.60
529.75	39800.81
529.92	39861.66
530.09	40100.40
530.26	40189.34
530.43	39999.76
530.60	39887.41
530.77	39803.15
530.94	40575.53
531.11	40165.93
531.28	40428.07
531.46	40818.94
531.63	40233.81
531.80	40126.14
531.97	40051.25
532.14	39952.94
532.31	40020.82
532.48	40332.11
532.65	40402.33
532.82	40521.69
532.99	40484.25
533.16	40463.18
533.33	41127.89
533.50	40725.32
533.67	41404.08
533.84	40744.05
534.01	40638.72
534.18	41057.68
534.35	41528.13
534.52	41422.80
534.69	41102.15
534.86	41221.52
535.03	41366.63
535.20	41682.60
535.37	41642.81
535.54	41801.97
535.71	41270.67
535.88	41855.80
536.05	41476.63
536.22	41610.04
536.38	41460.25
536.55	41434.50
536.72	41357.27
536.89	41336.20
537.06	41523.44
537.23	42010.28
537.40	42103.90
537.57	42085.17
537.74	42040.70
537.91	42045.38
538.08	42302.84
538.25	41762.18
538.42	41762.18
538.59	42204.54
538.75	42047.72
538.92	42443.27
539.09	41855.80
539.26	42410.51
539.43	42024.32
539.60	41874.52
539.77	41855.80
539.94	42143.69
540.11	42068.79
540.28	42094.53
540.44	42127.30
540.61	42031.34
540.78	42211.56
540.95	42424.55
541.12	42284.12
541.29	42148.37
541.46	42670.31
541.62	43129.05
541.79	42848.19
541.96	42279.44
542.13	42803.72
542.30	42614.13
542.47	42740.52
542.63	42857.55
542.80	42742.86
542.97	43150.12
543.14	43473.11
543.31	43313.95
543.48	43414.60
543.64	43805.47
543.81	43674.40
543.98	43629.93
544.15	43182.88
544.32	43674.40
544.48	44053.56
544.65	43775.04
544.82	43988.03
544.99	43400.55
545.16	43711.84
545.32	43367.79
545.49	44123.78
545.66	43758.66
545.83	44229.10
546.00	44191.65
546.16	44074.63
546.33	43728.23
546.50	43328.00
546.67	43679.08
546.83	43775.04
547.00	44002.07
547.17	44128.46
547.34	43732.91
547.50	44257.19
547.67	44065.27
547.84	44285.28
548.00	44383.58
548.17	44514.65
548.34	45001.48
548.51	44729.98
548.67	44816.58
548.84	44624.65
549.01	44339.11
549.18	44540.39
549.34	44556.78
549.51	44830.62
549.68	45036.59
549.84	44760.40
550.01	44865.73
550.18	44325.07
550.34	44793.17
550.51	44519.33
550.68	44788.49
550.84	44645.72
551.01	44858.71
551.18	44795.51
551.34	45249.58
551.51	45326.81
551.68	45120.85
551.84	45315.11
552.01	44884.45
552.18	44760.40
552.34	44744.02
552.51	44783.81
552.68	44968.71
552.84	45443.84
553.01	45158.30
553.18	45249.58
553.34	45059.99
553.51	45155.96
553.67	45394.69
553.84	45207.45
554.01	45336.18
554.17	45336.18
554.34	45567.89
554.51	45738.75
554.67	45565.55
554.84	45799.60
555.00	45600.66
555.17	45277.66
555.33	45251.92
555.50	45378.31
555.67	45631.08
555.83	45270.64
556.00	45324.47
556.16	45914.29
556.33	45439.16
556.50	45319.79
556.66	45773.86
556.83	45478.95
556.99	45542.14
557.16	45940.04
557.32	45827.69
557.49	45965.78
557.65	45516.40
557.82	46028.98
557.98	45698.96
558.15	45970.46
558.32	45743.43
558.48	45586.61
558.65	45614.70
558.81	45701.30
558.98	45666.19
559.14	45549.17
559.31	45851.09
559.47	46146.00
559.64	46040.68
559.80	45991.53
559.97	46031.32
560.13	45787.90
560.30	46202.18
560.46	46038.34
560.63	46096.85
560.79	46298.14
560.96	46571.98
561.12	46101.53
561.29	46110.89
561.45	45937.69
561.61	45972.80
561.78	45944.72
561.94	45773.86
562.11	46216.22
562.27	45359.58
562.44	46089.83
562.60	46328.56
562.77	46487.72
562.93	46174.09
563.10	46511.13
563.26	46131.96
563.42	46443.25
563.59	46300.48
563.75	46347.29
563.92	46567.30
564.08	46330.90
564.24	46094.51
564.41	46040.68
564.57	46312.18
564.74	46183.45
564.90	46930.08
565.07	46342.61
565.23	46454.95
565.39	46478.36
565.56	46522.83
565.72	46017.27
565.88	45832.37
566.05	46288.77
566.21	46209.20
566.38	46225.58
566.54	46277.07
566.70	46658.58
566.87	46466.66
567.03	46773.27
567.19	46817.74
567.36	46710.07
567.52	46087.49
567.68	46560.28
567.85	46167.07
568.01	46829.44
568.17	46358.99
568.34	46733.48
568.50	46256.01
568.66	46358.99
568.83	46590.70
568.99	46354.31
569.15	46281.75
569.32	46263.03
569.48	46593.04
569.64	47030.72
569.81	46773.27
569.97	46464.32
570.13	46787.31
570.30	46314.52
570.46	46000.89
570.62	46202.18
570.78	46260.69
570.95	46157.70
571.11	46761.56
571.27	46539.21
571.43	46288.77
571.60	46782.63
571.76	46440.91
571.92	46712.41
572.09	46646.88
572.25	46843.48
572.41	46815.40
572.57	46595.38
572.74	47129.03
572.90	47056.47
573.06	46934.76
573.22	46520.49
573.38	46813.05
573.55	46342.61
573.71	46937.10
573.87	46967.53
574.03	46553.26
574.20	46951.15
574.36	46710.07
574.52	46806.03
574.68	46443.25
574.84	46642.20
575.01	46829.44
575.17	46438.57
575.33	46375.37
575.49	46335.59
575.65	46990.94
575.82	46787.31
575.98	46344.95
576.14	46735.82
576.30	46983.91
576.46	46876.25
576.62	46461.97
576.79	46700.71
576.95	46464.32
577.11	46810.71
577.27	46480.70
577.43	46981.57
577.59	46693.69
577.75	46412.82
577.92	46576.66
578.08	46656.24
578.24	46347.29
578.40	46373.03
578.56	46564.96
578.72	46663.26
578.88	46876.25
579.04	46562.62
579.21	46471.34
579.37	46696.03
579.53	47091.58
579.69	46614.11
579.85	46546.23
580.01	46557.94
580.17	46560.28
580.33	46536.87
580.49	47028.38
580.65	46789.65
580.82	46822.42
580.98	46829.44
581.14	46071.10
581.30	47136.05
581.46	46862.21
581.62	46445.59
581.78	46288.77
581.94	47288.18
582.10	46443.25
582.26	46763.90
582.42	47093.92
582.58	46681.98
582.74	46712.41
582.90	47019.02
583.06	47173.50
583.22	46988.60
583.38	47075.19
583.54	46916.04
583.70	46925.40
583.86	47145.41
584.02	46424.53
584.18	46920.72
584.34	46649.22
584.50	46845.82
584.66	46892.63
584.82	47016.68
584.98	46527.51
585.14	47063.49
585.30	46721.77
585.46	46749.86
585.62	46223.24
585.78	46782.63
585.94	46518.15
586.10	46548.57
586.26	46621.13
586.42	47054.13
586.58	47201.58
586.74	46763.90
586.90	46969.87
587.06	46574.32
587.22	46628.15
587.38	46169.41
587.54	46887.95
587.70	47199.24
587.86	46651.56
588.02	46670.28
588.18	46925.40
588.34	46803.69
588.49	46457.29
588.65	45954.08
588.81	46609.43
588.97	45993.87
589.13	46452.61
589.29	46630.49
589.45	46660.92
589.61	46670.28
589.77	46979.23
589.93	46567.30
