SpectraSuite Data File
++++++++++++++++++++++++++++++++++++
Date: Fri Oct 25 11:25:55 EDT 2013
User: price-jones
Dark Spectrum Present: No
Reference Spectrum Present: No
Number of Sampled Component Spectra: 1
Spectrometers: USB2+H05261
Integration Time (usec): 100000 (USB2+H05261)
Spectra Averaged: 1 (USB2+H05261)
Boxcar Smoothing: 0 (USB2+H05261)
Correct for Electrical Dark: No (USB2+H05261)
Strobe/Lamp Enabled: No (USB2+H05261)
Correct for Detector Non-linearity: No (USB2+H05261)
Correct for Stray Light: No (USB2+H05261)
Number of Pixels in Processed Spectrum: 2048
>>>>>Begin Processed Spectral Data<<<<<
365.73	290.23
365.92	290.23
366.12	290.23
366.32	194.26
366.52	173.20
366.72	142.77
366.91	156.82
367.11	88.94
367.31	126.39
367.51	161.50
367.70	126.39
367.90	187.24
368.10	138.09
368.30	184.90
368.49	184.90
368.69	184.90
368.89	184.90
369.09	131.07
369.28	191.92
369.48	163.84
369.68	245.76
369.87	215.33
370.07	205.97
370.27	294.91
370.47	358.10
370.66	610.88
370.86	617.90
371.06	657.69
371.25	786.42
371.45	683.44
371.65	685.78
371.84	697.48
372.04	751.31
372.24	648.33
372.44	629.60
372.63	788.76
372.83	720.88
373.03	842.59
373.22	713.86
373.42	711.52
373.62	772.38
373.81	793.44
374.01	826.21
374.21	758.33
374.40	812.17
374.60	858.98
374.79	823.87
374.99	835.57
375.19	837.91
375.38	887.06
375.58	849.61
375.78	898.77
375.97	931.53
376.17	922.17
376.37	898.77
376.56	961.96
376.76	901.11
376.95	868.34
377.15	866.00
377.35	828.55
377.54	898.77
377.74	894.08
377.93	816.85
378.13	889.40
378.33	943.24
378.52	891.74
378.72	933.87
378.91	950.26
379.11	1046.22
379.31	976.00
379.50	936.21
379.70	966.64
379.89	983.02
380.09	952.60
380.28	1071.97
380.48	908.13
380.68	971.32
380.87	1018.13
381.07	1046.22
381.26	976.00
381.46	985.37
381.65	1015.79
381.85	999.41
382.04	1062.60
382.24	1090.69
382.43	1022.81
382.63	1067.28
382.83	1074.31
383.02	1116.44
383.22	1142.18
383.41	1144.52
383.61	1149.20
383.80	1125.80
384.00	1217.08
384.19	1095.37
384.39	1146.86
384.58	1156.22
384.78	1116.44
384.97	1203.04
385.17	1158.57
385.36	1151.54
385.56	1139.84
385.75	1125.80
385.95	1177.29
386.14	1090.69
386.34	1137.50
386.53	1188.99
386.72	1203.04
386.92	1238.14
387.11	1191.33
387.31	1284.95
387.50	1320.06
387.70	1289.64
387.89	1266.23
388.09	1254.53
388.28	1322.40
388.48	1296.66
388.67	1301.34
388.86	1383.26
389.06	1287.29
389.25	1338.79
389.45	1341.13
389.64	1263.89
389.84	1390.28
390.03	1364.53
390.22	1315.38
390.42	1336.45
390.61	1392.62
390.81	1397.30
391.00	1334.11
391.19	1479.22
391.39	1465.18
391.58	1437.09
391.78	1406.66
391.97	1469.86
392.16	1390.28
392.36	1568.16
392.55	1500.28
392.75	1490.92
392.94	1411.34
393.13	1483.90
393.33	1537.73
393.52	1614.97
393.71	1694.55
393.91	1614.97
394.10	1486.24
394.29	1640.72
394.49	1554.12
394.68	1664.12
394.88	1577.52
395.07	1689.87
395.26	1680.50
395.46	1748.38
395.65	1687.53
395.84	1631.35
396.04	1813.92
396.23	1797.53
396.42	1722.63
396.62	1703.91
396.81	1746.04
397.00	1706.25
397.19	1776.47
397.39	1741.36
397.58	1692.21
397.77	1799.87
397.97	1856.04
398.16	1795.19
398.35	1977.75
398.55	1877.11
398.74	1921.58
398.93	1973.07
399.12	1865.41
399.32	1947.33
399.51	1998.82
399.70	2043.29
399.90	1954.35
400.09	2087.76
400.28	2076.06
400.47	1977.75
400.67	2188.40
400.86	2012.86
401.05	2043.29
401.24	2015.20
401.44	2115.84
401.63	2094.78
401.82	2169.68
402.01	2202.44
402.21	2148.61
402.40	2314.79
402.59	2277.34
402.78	2214.15
402.97	2181.38
403.17	2263.30
403.36	2195.42
403.55	2258.62
403.74	2326.49
403.93	2317.13
404.13	2436.50
404.32	2359.26
404.51	2406.07
404.70	2328.83
404.89	2377.98
405.09	2579.27
405.28	2422.45
405.47	2457.56
405.66	2647.15
405.85	2523.10
406.05	2354.58
406.24	2574.59
406.43	2562.89
406.62	2576.93
406.81	2658.85
407.00	2478.63
407.20	2686.94
407.39	2665.87
407.58	2766.51
407.77	2733.75
407.96	2656.51
408.15	2654.17
408.34	2654.17
408.54	2724.38
408.73	2829.71
408.92	2738.43
409.11	2867.16
409.30	2832.05
409.49	2855.45
409.68	2925.67
409.87	2757.15
410.07	3009.93
410.26	3005.25
410.45	2998.23
410.64	3087.17
410.83	3073.12
411.02	3068.44
411.21	3180.79
411.40	3164.40
411.59	3159.72
411.78	3194.83
411.98	3211.22
412.17	3171.43
412.36	3253.34
412.55	3382.07
412.74	3471.01
412.93	3302.50
413.12	3304.84
413.31	3482.72
413.50	3475.70
413.69	3414.84
413.88	3529.53
414.07	3595.06
414.26	3581.02
414.45	3693.37
414.64	3627.83
414.83	3726.13
415.02	3758.90
415.22	3754.22
415.41	3992.95
415.60	3819.75
415.79	3889.97
415.98	3908.69
416.17	3960.19
416.36	3908.69
416.55	4063.17
416.74	4039.76
416.93	3885.29
417.12	4049.13
417.31	4175.52
417.50	4166.15
417.69	4217.65
417.88	4273.82
418.07	4182.54
418.26	4175.52
418.45	4283.18
418.64	4573.41
418.83	4472.76
419.02	4339.35
419.21	4498.51
419.39	4430.63
419.58	4451.70
419.77	4458.72
419.96	4681.07
420.15	4681.07
420.34	4620.22
420.53	4662.35
420.72	4732.56
420.91	4800.44
421.10	4695.11
421.29	4858.95
421.48	4648.30
421.67	4800.44
421.86	4688.09
422.05	4667.03
422.24	4821.50
422.43	4828.53
422.61	4929.17
422.80	4875.34
422.99	4919.81
423.18	5018.11
423.37	4978.32
423.56	4737.24
423.75	4924.49
423.94	4823.84
424.13	4638.94
424.32	4746.61
424.50	5055.56
424.69	5181.95
424.88	5041.51
425.07	4908.10
425.26	4922.15
425.45	4945.55
425.64	5050.88
425.83	4917.47
426.01	5050.88
426.20	5006.41
426.39	5027.47
426.58	5029.81
426.77	5008.75
426.96	5205.35
427.15	4947.89
427.33	5123.43
427.52	5193.65
427.71	5373.87
427.90	5067.26
428.09	5221.74
428.28	5437.06
428.46	5352.81
428.65	5188.97
428.84	5458.13
429.03	5472.17
429.22	5320.04
429.40	5460.47
429.59	5341.10
429.78	5256.84
429.97	5284.93
430.16	5373.87
430.34	5603.24
430.53	5720.27
430.72	5537.71
430.91	5600.90
431.10	5645.37
431.28	5652.39
431.47	5664.10
431.66	5851.34
431.85	5898.15
432.03	5867.72
432.22	5827.93
432.41	5870.06
432.60	5944.96
432.79	5937.94
432.97	5874.74
433.16	6033.90
433.35	6029.22
433.54	6108.80
433.72	6136.88
433.91	6092.41
434.10	6197.74
434.28	5989.43
434.47	6164.97
434.66	6132.20
434.85	6342.85
435.03	6340.51
435.22	6249.23
435.41	6356.90
435.59	6244.55
435.78	6403.71
435.97	6567.54
436.16	6555.84
436.34	6434.13
436.53	6396.68
436.72	6700.95
436.90	6345.19
437.09	6628.40
437.28	6441.15
437.46	6509.03
437.65	6579.25
437.84	6787.55
438.02	6834.36
438.21	6752.45
438.40	6764.15
438.58	6925.65
438.77	7000.54
438.96	6918.62
439.14	7148.00
439.33	7265.02
439.52	7169.06
439.70	7265.02
439.89	7496.74
440.08	7232.26
440.26	7215.87
440.45	7229.91
440.63	7391.41
440.82	7506.10
441.01	7602.06
441.19	7695.68
441.38	7740.15
441.57	7672.28
441.75	7962.50
441.94	7817.39
442.12	7810.37
442.31	7831.43
442.50	8149.75
442.68	7810.37
442.87	8060.80
443.05	8009.31
443.24	8205.92
443.43	8318.26
443.61	8133.36
443.80	8236.35
443.98	7880.58
444.17	7812.71
444.35	8147.40
444.54	8304.22
444.73	8271.45
444.91	8250.39
445.10	8379.12
445.28	8175.49
445.47	8112.30
445.65	8287.84
445.84	8463.38
446.02	8365.07
446.21	8512.53
446.39	8311.24
446.58	8439.97
446.77	8652.96
446.95	8374.44
447.14	8234.00
447.32	8402.52
447.51	8475.08
447.69	8292.52
447.88	8421.25
448.06	8475.08
448.25	8531.25
448.43	8526.57
448.62	8734.88
448.80	8461.04
448.99	8489.12
449.17	8561.68
449.36	8634.24
449.54	8844.88
449.73	9128.09
449.91	9055.53
450.10	9064.89
450.28	9015.74
450.46	9036.81
450.65	9039.15
450.83	9090.64
451.02	8894.04
451.20	9263.84
451.39	9296.61
451.57	9200.65
451.76	9032.13
451.94	8908.08
452.13	9329.38
452.31	9095.32
452.49	9029.79
452.68	9308.31
452.86	9261.50
453.05	9193.62
453.23	9575.13
453.42	9474.49
453.60	9312.99
453.78	9465.13
453.97	9554.07
454.15	9514.28
454.34	9310.65
454.52	9804.50
454.70	9432.36
454.89	9900.47
455.07	9462.79
455.26	9661.73
455.44	9968.34
455.62	9745.99
455.81	9984.73
455.99	10001.11
456.17	10031.54
456.36	10059.62
456.54	10141.54
456.73	10256.23
456.91	10544.11
457.09	10459.85
457.28	10628.37
457.46	10368.57
457.64	10555.82
457.83	10469.22
458.01	10396.66
458.19	10775.83
458.38	10567.52
458.56	10565.18
458.74	10766.46
458.93	10705.61
459.11	10672.84
459.29	10789.87
459.48	10827.32
459.66	10750.08
459.84	10672.84
460.03	11096.48
460.21	11033.29
460.39	11021.58
460.57	10810.93
460.76	11255.64
460.94	11063.71
461.12	11257.98
461.31	11091.80
461.49	10979.45
461.67	11131.59
461.85	11585.65
462.04	11398.41
462.22	11817.36
462.40	11424.15
462.59	11400.75
462.77	11475.65
462.95	11522.46
463.13	11421.81
463.32	11646.51
463.50	11793.96
463.68	11658.21
463.86	11709.70
464.05	11548.20
464.23	11683.95
464.41	12002.27
464.59	11506.07
464.78	12264.41
464.96	11955.46
465.14	11690.98
465.32	11962.48
465.50	12098.23
465.69	12037.38
465.87	12107.59
466.05	12032.69
466.23	11971.84
466.41	12292.49
466.60	12322.92
466.78	12056.10
466.96	12093.55
467.14	12255.04
467.32	12383.77
467.51	12472.71
467.69	12266.75
467.87	12524.21
468.05	12585.06
468.23	12336.96
468.41	12248.02
468.60	12568.68
468.78	12559.31
468.96	12627.19
469.14	12622.51
469.32	13076.57
469.50	12674.00
469.69	12999.34
469.87	13078.91
470.05	12901.03
470.23	13053.17
470.41	13135.09
470.59	13149.13
470.77	13137.43
470.95	13018.06
471.14	13322.33
471.32	12994.65
471.50	13289.56
471.68	13352.76
471.86	13589.15
472.04	13750.65
472.22	13825.54
472.40	13554.04
472.58	13921.51
472.77	13949.59
472.95	14071.30
473.13	14710.27
473.31	14136.84
473.49	14218.75
473.67	14001.08
473.85	14389.61
474.03	14665.80
474.21	14483.24
474.39	14750.06
474.57	14743.03
474.75	14843.68
474.93	14890.49
475.12	14719.63
475.30	15077.73
475.48	14871.76
475.66	15124.54
475.84	15075.39
476.02	15576.27
476.20	15468.60
476.38	15613.71
476.56	15887.56
476.74	15882.88
476.92	15861.81
477.10	15634.78
477.28	16208.21
477.46	16112.25
477.64	16161.40
477.82	16451.63
478.00	16917.39
478.18	16636.53
478.36	16601.42
478.54	17008.67
478.72	16905.69
478.90	17336.35
479.08	17654.66
479.26	17446.35
479.44	17659.34
479.62	17942.55
479.80	17680.41
479.98	18295.97
480.16	18532.36
480.34	18148.51
480.52	18562.79
480.70	18572.15
480.88	18005.74
481.06	19108.13
481.24	18551.09
481.41	19316.44
481.59	19271.97
481.77	19356.23
481.95	19665.18
482.13	19716.67
482.31	19470.92
482.49	19962.43
482.67	20027.96
482.85	20334.57
483.03	20496.07
483.21	20526.50
483.39	20912.69
483.57	20620.12
483.74	20908.01
483.92	21247.38
484.10	20938.43
484.28	21596.12
484.46	21853.58
484.64	22375.52
484.82	21862.94
485.00	22244.45
485.18	22635.32
485.35	22972.36
485.53	22815.54
485.71	23077.68
485.89	23323.44
486.07	23171.30
486.25	23339.82
486.43	23548.13
486.61	23838.36
486.78	24091.13
486.96	23857.08
487.14	24634.14
487.32	24430.51
487.50	24865.85
487.68	24884.58
487.85	25181.82
488.03	25193.53
488.21	26022.08
488.39	25156.08
488.57	25916.75
488.75	26307.62
488.92	26265.49
489.10	26679.77
489.28	26654.02
489.46	27180.64
489.64	26735.94
489.81	27288.31
489.99	27363.20
490.17	27498.95
490.35	28058.34
490.53	27908.55
490.70	28526.45
490.88	28437.51
491.06	28938.38
491.24	28535.81
491.41	28819.02
491.59	29088.18
491.77	29226.27
491.95	29310.53
492.13	29724.80
492.30	29909.71
492.48	29806.72
492.66	30005.67
492.84	30506.54
493.01	30410.58
493.19	30558.03
493.37	30572.08
493.54	30892.73
493.72	31534.04
493.90	31161.89
494.08	31700.22
494.25	31459.14
494.43	31850.01
494.61	32034.91
494.79	32250.24
494.96	32196.41
495.14	32708.99
495.32	32776.86
495.49	32833.04
495.67	33415.83
495.85	33446.26
496.02	33776.27
496.20	33603.07
496.38	33954.15
496.55	34136.71
496.73	34724.19
496.91	34576.73
497.09	35105.70
497.26	34986.33
497.44	34588.44
497.62	34951.22
497.79	35997.44
497.97	35414.65
498.14	35604.23
498.32	35807.86
498.50	35679.13
498.67	36486.61
498.85	36610.66
499.03	36556.83
499.20	36617.68
499.38	36561.51
499.56	37029.62
499.73	37120.90
499.91	37446.23
500.08	37652.20
500.26	37684.97
500.44	37530.49
500.61	37769.22
500.79	37453.25
500.97	37890.93
501.14	38623.52
501.32	38471.39
501.49	38396.49
501.67	38298.19
501.84	38682.03
502.02	38597.77
502.20	39023.75
502.37	39133.76
502.55	39070.56
502.72	39526.97
502.90	39468.45
503.07	39370.15
503.25	39400.58
503.43	39894.43
503.60	39751.66
503.78	39896.77
503.95	40023.16
504.13	40254.87
504.30	40549.78
504.48	40172.96
504.65	40465.52
504.83	40790.86
505.01	41247.26
505.18	41235.56
505.36	41776.22
505.53	40919.59
505.71	41617.07
505.88	41586.64
506.06	41401.74
506.23	41921.34
506.41	41790.27
506.58	41577.28
506.76	42281.78
506.93	42457.32
507.11	42424.55
507.28	42382.42
507.46	42766.27
507.63	42855.21
507.81	42784.99
507.98	42665.63
508.16	43124.37
508.33	43014.37
508.50	43393.53
508.68	43440.34
508.85	43732.91
509.03	42953.51
509.20	43753.97
509.38	43992.71
509.55	43775.04
509.73	44739.34
509.90	44240.81
510.08	44463.16
510.25	44790.83
510.42	44938.29
510.60	44624.65
510.77	45165.32
510.95	45312.77
511.12	44954.67
511.30	44985.10
511.47	45263.62
511.64	45003.82
511.82	45918.97
511.99	45694.28
512.17	45731.73
512.34	46239.62
512.51	46129.62
512.69	45972.80
512.86	46394.10
513.04	46834.12
513.21	46326.22
513.38	46796.67
513.56	46733.48
513.73	46366.01
513.90	46960.51
514.08	46752.20
514.25	46934.76
514.43	47096.26
514.60	47302.23
514.77	47292.86
514.95	47653.31
515.12	47491.81
515.29	47346.70
515.47	47613.52
515.64	48285.25
515.81	47639.26
515.99	47952.90
516.16	48292.27
516.33	48465.47
516.51	48664.42
516.68	48252.48
516.85	48580.16
517.03	49050.61
517.20	48846.98
517.37	48346.11
517.54	48467.81
517.72	48900.81
517.89	48996.77
518.06	48926.56
518.24	49062.31
518.41	48893.79
518.58	49120.82
518.75	48804.85
518.93	49144.23
519.10	49076.35
519.27	49462.54
519.45	49322.11
519.62	49830.01
519.79	49708.30
519.96	50167.04
520.14	50110.87
520.31	50000.86
520.48	50307.47
520.65	50419.82
520.83	50553.23
521.00	50410.46
521.17	50340.24
521.34	50623.45
521.52	50859.84
521.69	50738.13
521.86	50782.60
522.03	50728.77
522.20	51114.96
522.38	51079.85
522.55	51299.86
522.72	51187.52
522.89	51274.12
523.07	51395.82
523.24	51381.78
523.41	51482.42
523.58	51241.35
523.75	51704.77
523.92	51896.70
524.10	51842.87
524.27	51718.82
524.44	51805.42
524.61	52147.14
524.78	51906.06
524.96	52065.22
525.13	52261.82
525.30	52488.85
525.47	52257.14
525.64	52119.05
525.81	52392.89
525.98	52573.11
526.16	52231.40
526.33	52378.85
526.50	53015.47
526.67	52622.26
526.84	52879.72
527.01	52643.33
527.18	52596.52
527.36	52767.38
527.53	52839.93
527.70	53286.98
527.87	53198.04
528.04	53013.13
528.21	53230.80
528.38	53331.45
528.55	53462.52
528.72	53279.96
528.89	53031.86
529.07	53237.83
529.24	53478.90
529.41	53724.66
529.58	53448.47
529.75	53338.47
529.92	53748.06
530.09	53659.12
530.26	53872.11
530.43	53860.41
530.60	53553.80
530.77	53757.42
530.94	54183.40
531.11	53797.21
531.28	53923.60
531.46	54136.59
531.63	54033.61
531.80	54103.82
531.97	54162.34
532.14	54525.12
532.31	54447.88
532.48	54302.77
532.65	54712.36
532.82	54497.03
532.99	54614.06
533.16	54410.43
533.33	54494.69
533.50	54700.66
533.67	54639.81
533.84	54553.21
534.01	54693.64
534.18	54897.27
534.35	54915.99
534.52	54759.17
534.69	55107.91
534.86	55061.10
535.03	54784.92
535.20	55049.40
535.37	55498.78
535.54	55264.73
535.71	55241.32
535.88	55306.86
536.05	55334.95
536.22	55491.76
536.38	55503.46
536.55	55442.61
536.72	55440.27
536.89	55597.09
537.06	55316.22
537.23	55468.36
537.40	55522.19
537.57	55470.70
537.74	55714.11
537.91	56172.86
538.08	55828.80
538.25	55543.25
538.42	55695.39
538.59	55948.17
538.75	55674.32
538.92	55906.04
539.09	56177.54
539.26	56245.41
539.43	56126.05
539.60	56392.87
539.77	56233.71
539.94	56509.89
540.11	56217.33
540.28	56233.71
540.44	56353.08
540.61	56367.12
540.78	56484.15
540.95	56144.77
541.12	56306.27
541.29	56329.67
541.46	56348.40
541.62	56327.33
541.79	56690.12
541.96	56193.92
542.13	56280.52
542.30	56685.43
542.47	56680.75
542.63	56781.40
542.80	56800.12
542.97	57066.94
543.14	57120.77
543.31	57160.56
543.48	57265.89
543.64	57420.36
543.81	57223.76
543.98	57263.55
544.15	56987.36
544.32	57270.57
544.48	57446.11
544.65	57254.18
544.82	57228.44
544.99	57118.43
545.16	57268.23
545.32	57345.47
545.49	57623.99
545.66	57558.45
545.83	57602.92
546.00	57726.97
546.16	57436.75
546.33	57513.98
546.50	57389.94
546.67	57654.42
546.83	57368.87
547.00	57591.22
547.17	57595.90
547.34	57733.99
547.50	57666.12
547.67	58049.97
547.84	57769.10
548.00	58080.39
548.17	58085.07
548.34	58138.91
548.51	58071.03
548.67	58148.27
548.84	58178.70
549.01	57998.48
549.18	57996.13
549.34	58223.17
549.51	58080.39
549.68	58188.06
549.84	58237.21
550.01	58246.57
550.18	58155.29
550.34	58452.54
550.51	58087.42
550.68	58424.45
550.84	58197.42
551.01	58321.47
551.18	58363.60
551.34	58576.59
551.51	58511.05
551.68	58342.53
551.84	58405.73
552.01	58410.41
552.18	58396.37
552.34	58459.56
552.51	58529.78
552.68	58602.33
552.84	58478.28
553.01	58845.75
553.18	58934.69
553.34	58756.81
553.51	58735.74
553.67	58707.66
553.84	59049.38
554.01	58735.74
554.17	58852.77
554.34	58850.43
554.51	58625.74
554.67	58894.90
554.84	58967.46
555.00	58848.09
555.17	58862.13
555.33	58808.30
555.50	58796.60
555.67	58848.09
555.83	58827.02
556.00	58897.24
556.16	59283.43
556.33	59391.09
556.50	59054.06
556.66	59082.14
556.83	58976.82
556.99	59227.26
557.16	59440.24
557.32	59196.83
557.49	59566.63
557.65	59173.42
557.82	59150.02
557.98	59267.05
558.15	59178.10
558.32	59442.59
558.48	59290.45
558.65	59285.77
558.81	59262.36
558.98	59564.29
559.14	59470.67
559.31	59765.58
559.47	59601.74
559.64	59540.89
559.80	59498.76
559.97	59693.02
560.13	59494.08
560.30	59620.47
560.46	59725.79
560.63	59763.24
560.79	59657.91
560.96	59870.90
561.12	59693.02
561.29	59564.29
561.45	59718.77
561.61	59767.92
561.78	59854.52
561.94	59800.69
562.11	59920.05
562.27	59807.71
562.44	60001.97
562.60	59931.76
562.77	59767.92
562.93	59791.33
563.10	60177.51
563.26	59826.43
563.42	60009.00
563.59	59882.61
563.75	59943.46
563.92	59828.77
564.08	59957.50
564.24	60109.64
564.41	59889.63
564.57	59898.99
564.74	60140.07
564.90	60123.68
565.07	60116.66
565.23	60126.02
565.39	60009.00
565.56	60193.90
565.72	59983.25
565.88	60104.96
566.05	60224.32
566.21	60083.89
566.38	60144.75
566.54	60121.34
566.70	60212.62
566.87	60245.39
567.03	60027.72
567.19	60427.95
567.36	60009.00
567.52	60453.70
567.68	60505.19
567.85	60179.85
568.01	60441.99
568.17	60219.64
568.34	60467.74
568.50	60156.45
568.66	60514.55
568.83	60458.38
568.99	60074.53
569.15	60177.51
569.32	60264.11
569.48	60147.09
569.64	60348.37
569.81	60294.54
569.97	60193.90
570.13	60346.03
570.30	60374.12
570.46	60474.76
570.62	60432.63
570.78	60374.12
570.95	60530.93
571.11	60479.44
571.27	60289.86
571.43	60254.75
571.60	60456.04
571.76	60437.31
571.92	60390.50
572.09	60275.82
572.25	60505.19
572.41	60563.70
572.57	60563.70
572.74	60566.04
572.90	60479.44
573.06	60498.17
573.22	60669.03
573.38	60580.09
573.55	60640.94
573.71	60804.78
573.87	60624.56
574.03	60439.65
574.20	60554.34
574.36	60528.59
574.52	60643.28
574.68	60678.39
574.84	60617.53
575.01	60584.77
575.17	60673.71
575.33	60502.85
575.49	60481.78
575.65	60823.50
575.82	60725.20
575.98	60657.32
576.14	60680.73
576.30	60732.22
576.46	60561.36
576.62	60449.02
576.79	60816.48
576.95	60512.21
577.11	60746.26
577.27	60608.17
577.43	60563.70
577.59	60561.36
577.75	60591.79
577.92	60690.09
578.08	60526.25
578.24	60570.72
578.40	60975.64
578.56	60729.88
578.72	60879.67
578.88	60963.93
579.04	60893.72
579.21	60811.80
579.37	60985.00
579.53	60877.33
579.69	60699.45
579.85	60589.45
580.01	60633.92
580.17	60762.65
580.33	60760.31
580.49	60907.76
580.65	60748.60
580.82	60882.02
580.98	60748.60
581.14	60657.32
581.30	60924.14
581.46	60870.31
581.62	60764.99
581.78	60678.39
581.94	60842.23
582.10	60718.18
582.26	60736.90
582.42	60856.27
582.58	60874.99
582.74	60722.86
582.90	60849.25
583.06	60800.10
583.22	60891.38
583.38	60776.69
583.54	60874.99
583.70	61020.11
583.86	60860.95
584.02	60769.67
584.18	61015.43
584.34	60949.89
584.50	60891.38
584.66	60935.85
584.82	60662.00
584.98	61102.03
585.14	60933.51
585.30	61024.79
585.46	61090.32
585.62	60886.70
585.78	61057.56
585.94	60718.18
586.10	60905.42
586.26	60772.01
586.42	61085.64
586.58	60966.27
586.74	60933.51
586.90	60842.23
587.06	61062.24
587.22	61130.11
587.38	60907.76
587.54	61013.08
587.70	61120.75
587.86	61059.90
588.02	61010.74
588.18	60900.74
588.34	61048.19
588.49	60877.33
