SpectraSuite Data File
++++++++++++++++++++++++++++++++++++
Date: Fri Oct 25 11:26:29 EDT 2013
User: price-jones
Dark Spectrum Present: No
Reference Spectrum Present: No
Number of Sampled Component Spectra: 1
Spectrometers: USB2+H05261
Integration Time (usec): 100000 (USB2+H05261)
Spectra Averaged: 1 (USB2+H05261)
Boxcar Smoothing: 0 (USB2+H05261)
Correct for Electrical Dark: No (USB2+H05261)
Strobe/Lamp Enabled: No (USB2+H05261)
Correct for Detector Non-linearity: No (USB2+H05261)
Correct for Stray Light: No (USB2+H05261)
Number of Pixels in Processed Spectrum: 2048
>>>>>Begin Processed Spectral Data<<<<<
365.73	227.03
365.92	227.03
366.12	227.03
366.32	170.86
366.52	131.07
366.72	154.48
366.91	117.03
367.11	119.37
367.31	81.92
367.51	121.71
367.70	187.24
367.90	133.41
368.10	187.24
368.30	166.18
368.49	180.22
368.69	215.33
368.89	117.03
369.09	184.90
369.28	215.33
369.48	210.65
369.68	138.09
369.87	201.29
370.07	238.73
370.27	271.50
370.47	257.46
370.66	575.77
370.86	629.60
371.06	702.16
371.25	610.88
371.45	748.97
371.65	725.57
371.84	660.03
372.04	713.86
372.24	800.46
372.44	671.73
372.63	798.12
372.83	699.82
373.03	755.99
373.22	695.14
373.42	774.72
373.62	798.12
373.81	807.48
374.01	732.59
374.21	777.06
374.40	765.36
374.60	866.00
374.79	816.85
374.99	858.98
375.19	875.36
375.38	936.21
375.58	777.06
375.78	866.00
375.97	898.77
376.17	922.17
376.37	844.93
376.56	903.45
376.76	849.61
376.95	849.61
377.15	887.06
377.35	873.02
377.54	919.83
377.74	926.85
377.93	863.66
378.13	873.02
378.33	912.81
378.52	943.24
378.72	985.37
378.91	959.62
379.11	922.17
379.31	976.00
379.50	1011.11
379.70	908.13
379.89	987.71
380.09	856.64
380.28	933.87
380.48	922.17
380.68	1011.11
380.87	1011.11
381.07	1039.20
381.26	1104.73
381.46	1074.31
381.65	1048.56
381.85	1069.62
382.04	1062.60
382.24	961.96
382.43	1123.46
382.63	1095.37
382.83	1111.75
383.02	1071.97
383.22	1090.69
383.41	1114.10
383.61	1069.62
383.80	1111.75
384.00	1163.25
384.19	1146.86
384.39	1179.63
384.58	1144.52
384.78	1078.99
384.97	1137.50
385.17	1114.10
385.36	1139.84
385.56	1174.95
385.75	1165.59
385.95	1196.01
386.14	1165.59
386.34	1174.95
386.53	1249.85
386.72	1226.44
386.92	1284.95
387.11	1252.19
387.31	1308.36
387.50	1240.48
387.70	1172.61
387.89	1191.33
388.09	1245.16
388.28	1224.10
388.48	1261.55
388.67	1327.08
388.86	1345.81
389.06	1324.74
389.25	1331.76
389.45	1296.66
389.64	1469.86
389.84	1277.93
390.03	1315.38
390.22	1488.58
390.42	1352.83
390.61	1401.98
390.81	1357.51
391.00	1460.49
391.19	1516.67
391.39	1467.52
391.58	1444.11
391.78	1383.26
391.97	1451.13
392.16	1446.45
392.36	1383.26
392.55	1448.79
392.75	1516.67
392.94	1472.20
393.13	1535.39
393.33	1537.73
393.52	1519.01
393.71	1502.62
393.91	1540.07
394.10	1558.80
394.29	1575.18
394.49	1483.90
394.68	1568.16
394.88	1626.67
395.07	1732.00
395.26	1680.50
395.46	1685.19
395.65	1682.85
395.84	1643.06
396.04	1710.93
396.23	1748.38
396.42	1757.74
396.62	1809.23
396.81	1785.83
397.00	1781.15
397.19	1750.72
397.39	1795.19
397.58	1874.77
397.77	1724.97
397.97	1914.56
398.16	1856.04
398.35	1914.56
398.55	1881.79
398.74	1954.35
398.93	1947.33
399.12	1912.22
399.32	1863.07
399.51	1891.15
399.70	1947.33
399.90	1942.64
400.09	1949.67
400.28	1991.80
400.47	2001.16
400.67	2029.24
400.86	2129.89
401.05	2069.03
401.24	2183.72
401.44	2157.97
401.63	2092.44
401.82	2115.84
402.01	2153.29
402.21	2157.97
402.40	2211.81
402.59	2190.74
402.78	2317.13
402.97	2239.89
403.17	2143.93
403.36	2237.55
403.55	2275.00
403.74	2441.18
403.93	2399.05
404.13	2389.69
404.32	2363.94
404.51	2270.32
404.70	2438.84
404.89	2466.92
405.09	2509.05
405.28	2511.39
405.47	2504.37
405.66	2490.33
405.85	2511.39
406.05	2574.59
406.24	2527.78
406.43	2576.93
406.62	2593.31
406.81	2665.87
407.00	2637.78
407.20	2553.52
407.39	2672.89
407.58	2719.70
407.77	2757.15
407.96	2708.00
408.15	2736.09
408.34	2590.97
408.54	2815.66
408.73	2799.28
408.92	2839.07
409.11	2883.54
409.30	2726.72
409.49	2867.16
409.68	2946.73
409.87	2885.88
410.07	2902.26
410.26	2892.90
410.45	3021.63
410.64	2946.73
410.83	3173.77
411.02	3136.32
411.21	3026.31
411.40	3040.36
411.59	3286.11
411.78	3171.43
411.98	3157.38
412.17	3213.56
412.36	3241.64
412.55	3258.03
412.74	3358.67
412.93	3382.07
413.12	3417.18
413.31	3471.01
413.50	3473.36
413.69	3618.47
413.88	3618.47
414.07	3574.00
414.26	3653.58
414.45	3625.49
414.64	3672.30
414.83	3871.25
415.02	3721.45
415.22	3688.68
415.41	3822.09
415.60	3847.84
415.79	3798.69
415.98	3868.91
416.17	3911.04
416.36	3791.67
416.55	3950.82
416.74	4093.60
416.93	4030.40
417.12	3995.29
417.31	4109.98
417.50	4117.00
417.69	4299.56
417.88	4245.73
418.07	4290.20
418.26	4358.08
418.45	4386.16
418.64	4430.63
418.83	4388.50
419.02	4500.85
419.21	4491.49
419.39	4526.60
419.58	4346.37
419.77	4414.25
419.96	4531.28
420.15	4585.11
420.34	4421.27
420.53	4594.47
420.72	4723.20
420.91	4748.95
421.10	4737.24
421.29	4767.67
421.48	4652.98
421.67	4718.52
421.86	4737.24
422.05	4830.87
422.24	4760.65
422.43	4856.61
422.61	4830.87
422.80	4847.25
422.99	4828.53
423.18	4891.72
423.37	4915.12
423.56	4896.40
423.75	4882.36
423.94	4791.08
424.13	4540.64
424.32	4798.10
424.50	5025.13
424.69	5018.11
424.88	5076.62
425.07	4943.21
425.26	5015.77
425.45	4940.87
425.64	4889.38
425.83	5064.92
426.01	4910.44
426.20	5158.54
426.39	5069.60
426.58	4968.96
426.77	5046.20
426.96	5107.05
427.15	5093.01
427.33	5233.44
427.52	5195.99
427.71	5198.33
427.90	5109.39
428.09	5350.46
428.28	5350.46
428.46	5252.16
428.65	5284.93
428.84	5565.79
429.03	5345.78
429.22	5434.72
429.40	5416.00
429.59	5476.85
429.78	5373.87
429.97	5210.03
430.16	5313.02
430.34	5671.12
430.53	5650.05
430.72	5610.26
430.91	5509.62
431.10	5472.17
431.28	5685.16
431.47	5586.86
431.66	5778.78
431.85	5708.57
432.03	5921.56
432.22	5879.43
432.41	5856.02
432.60	5860.70
432.79	5870.06
432.97	5921.56
433.16	5933.26
433.35	5813.89
433.54	6122.84
433.72	6064.33
433.91	6092.41
434.10	6249.23
434.28	5975.39
434.47	6197.74
434.66	6207.10
434.85	6143.91
435.03	6232.85
435.22	6277.32
435.41	6373.28
435.59	6380.30
435.78	6516.05
435.97	6403.71
436.16	6413.07
436.34	6413.07
436.53	6511.37
436.72	6581.59
436.90	6335.83
437.09	6621.38
437.28	6384.98
437.46	6729.04
437.65	6600.31
437.84	6860.11
438.02	6689.25
438.21	6750.10
438.40	6715.00
438.58	6951.39
438.77	7037.99
438.96	7021.61
439.14	6963.09
439.33	7002.88
439.52	7136.29
439.70	7241.62
439.89	7417.16
440.08	7384.39
440.26	7396.09
440.45	7316.51
440.63	7442.90
440.82	7492.05
441.01	7613.76
441.19	7662.91
441.38	7550.57
441.57	7707.38
441.75	7824.41
441.94	7864.20
442.12	7840.79
442.31	7754.19
442.50	8088.89
442.68	7864.20
442.87	7997.61
443.05	8107.62
443.24	8283.16
443.43	8159.11
443.61	8191.88
443.80	8425.93
443.98	7981.23
444.17	7744.83
444.35	8306.56
444.54	8166.13
444.73	8332.31
444.91	8222.30
445.10	8311.24
445.28	8161.45
445.47	8297.20
445.65	8320.60
445.84	8353.37
446.02	8613.17
446.21	8425.93
446.39	8355.71
446.58	8531.25
446.77	8313.58
446.95	8365.07
447.14	8336.99
447.32	8582.74
447.51	8294.86
447.69	8344.01
447.88	8400.18
448.06	8425.93
448.25	8381.46
448.43	8557.00
448.62	8521.89
448.80	8355.71
448.99	8823.82
449.17	8681.05
449.36	8477.42
449.54	8870.63
449.73	8891.70
449.91	8945.53
450.10	9013.40
450.28	9116.39
450.46	8784.03
450.65	8802.75
450.83	9081.28
451.02	9130.43
451.20	9308.31
451.39	9139.79
451.57	8990.00
451.76	9032.13
451.94	9170.22
452.13	9289.59
452.31	9170.22
452.49	9050.85
452.68	9064.89
452.86	9277.88
453.05	9502.58
453.23	9277.88
453.42	9404.27
453.60	9434.70
453.78	9621.94
453.97	9366.82
454.15	9518.96
454.34	9469.81
454.52	9614.92
454.70	9582.15
454.89	9497.89
455.07	9743.65
455.26	9818.55
455.44	9879.40
455.62	9954.30
455.81	9820.89
455.99	9806.84
456.17	9888.76
456.36	9933.23
456.54	10225.80
456.73	10305.38
456.91	10441.13
457.09	10307.72
457.28	10408.36
457.46	10263.25
457.64	10466.88
457.83	10525.39
458.01	10471.56
458.19	10600.29
458.38	10410.70
458.56	10817.96
458.74	10714.97
458.93	10700.93
459.11	10635.39
459.29	10775.83
459.48	10743.06
459.66	10628.37
459.84	10710.29
460.03	10729.02
460.21	10963.07
460.39	10890.51
460.57	10775.83
460.76	11265.00
460.94	11049.67
461.12	11122.23
461.31	11169.04
461.49	11178.40
461.67	11005.20
461.85	11162.01
462.04	11162.01
462.22	11616.08
462.40	11573.95
462.59	11372.66
462.77	11644.17
462.95	11433.52
463.13	11405.43
463.32	11377.34
463.50	11719.06
463.68	11712.04
463.86	11686.29
464.05	11470.97
464.23	11798.64
464.41	11927.37
464.59	11545.86
464.78	12081.85
464.96	12112.27
465.14	11850.13
465.32	11927.37
465.50	12166.10
465.69	12053.76
465.87	12086.53
466.05	12297.17
466.23	12145.04
466.41	12208.23
466.60	12468.03
466.78	12233.98
466.96	12077.16
467.14	12131.00
467.32	12231.64
467.51	12367.39
467.69	12294.83
467.87	12540.59
468.05	12510.16
468.23	12390.80
468.41	12135.68
468.60	12620.17
468.78	12592.08
468.96	12362.71
469.14	12552.29
469.32	12896.35
469.50	12547.61
469.69	12828.48
469.87	13146.79
470.05	13132.75
470.23	12947.84
470.41	13015.72
470.59	13294.24
470.77	13165.51
470.95	13341.05
471.14	13369.14
471.32	13099.98
471.50	13577.45
471.68	13617.24
471.86	13652.34
472.04	13715.54
472.22	13902.78
472.40	13549.36
472.58	13745.97
472.77	14167.26
472.95	14024.49
473.13	14609.62
473.31	14244.50
473.49	14274.93
473.67	14068.96
473.85	14246.84
474.03	14436.42
474.21	14663.46
474.39	14534.73
474.57	14633.03
474.75	14890.49
474.93	14583.88
475.12	14803.89
475.30	14937.30
475.48	14972.41
475.66	15105.82
475.84	15215.82
476.02	15585.63
476.20	15152.63
476.38	15627.76
476.56	15906.28
476.74	15871.17
476.92	15499.03
477.10	15623.08
477.28	15929.69
477.46	15943.73
477.64	16259.70
477.82	16744.19
478.00	16681.00
478.18	16500.78
478.36	17001.65
478.54	17343.37
478.72	17156.13
478.90	17109.32
479.08	17394.86
479.26	17586.79
479.44	17727.22
479.62	17715.51
479.80	18291.29
479.98	17972.97
480.16	18422.36
480.34	17980.00
480.52	18412.99
480.70	18434.06
480.88	18080.64
481.06	18799.18
481.24	18370.86
481.41	19005.15
481.59	19389.00
481.77	19274.31
481.95	19197.07
482.13	19489.64
482.31	19349.21
482.49	20318.19
482.67	20049.03
482.85	20203.50
483.03	20395.43
483.21	20463.30
483.39	20744.17
483.57	21041.42
483.74	20999.29
483.92	21048.44
484.10	21137.38
484.28	21553.99
484.46	21975.29
484.64	22155.51
484.82	21673.36
485.00	22185.94
485.18	22794.48
485.35	22621.28
485.53	23019.17
485.71	23016.83
485.89	23323.44
486.07	22878.74
486.25	23407.70
486.43	23138.54
486.61	23768.14
486.78	23765.80
486.96	24041.98
487.14	24470.30
487.32	24533.50
487.50	24610.73
487.68	24725.42
487.85	25046.07
488.03	25221.61
488.21	25497.80
488.39	25635.89
488.57	25558.65
488.75	25825.47
488.92	26094.63
489.10	26555.72
489.28	26789.77
489.46	27023.83
489.64	27056.59
489.81	27402.99
489.99	27309.37
490.17	27292.99
490.35	28163.67
490.53	27702.58
490.70	28465.60
490.88	28177.71
491.06	28772.21
491.24	28947.75
491.41	28521.77
491.59	29118.60
491.77	29186.48
491.95	29340.96
492.13	29558.63
492.30	29860.55
492.48	29689.70
492.66	30274.83
492.84	30015.03
493.01	30345.05
493.19	30469.09
493.37	30925.50
493.54	30953.58
493.72	31140.83
493.90	30993.37
494.08	31524.68
494.25	31868.73
494.43	31709.58
494.61	32203.43
494.79	32137.90
494.96	32355.57
495.14	32467.91
495.32	32652.81
495.49	33186.46
495.67	33221.56
495.85	33692.01
496.02	33256.67
496.20	33811.38
496.38	33979.90
496.55	33923.72
496.73	35108.04
496.91	34087.56
497.09	34429.28
497.26	34448.00
497.44	35063.57
497.62	34871.64
497.79	35555.08
497.97	35075.27
498.14	35555.08
498.32	35615.93
498.50	36032.55
498.67	36376.61
498.85	36364.90
499.03	36367.24
499.20	36495.97
499.38	36849.39
499.56	36762.79
499.73	36863.44
499.91	36914.93
500.08	37226.22
500.26	37106.85
500.44	37446.23
500.61	37745.82
500.79	37357.29
500.97	38251.38
501.14	38312.23
501.32	38340.32
501.49	38541.60
501.67	38464.36
501.84	39084.61
502.02	38412.87
502.20	39005.03
502.37	39126.74
502.55	38981.62
502.72	39449.73
502.90	39578.46
503.07	39353.77
503.25	39395.90
503.43	39178.23
503.60	39718.89
503.78	39856.98
503.95	40030.18
504.13	40793.20
504.30	40472.54
504.48	40226.79
504.65	40299.34
504.83	40624.68
505.01	40996.82
505.18	40858.73
505.36	41467.27
505.53	41172.36
505.71	41268.33
505.88	41464.93
506.06	41581.96
506.23	41867.50
506.41	41525.78
506.58	41713.03
506.76	42106.24
506.93	42564.98
507.11	41813.67
507.28	42253.69
507.46	42660.94
507.63	42497.11
507.81	42656.26
507.98	42541.58
508.16	42492.43
508.33	43161.82
508.50	43349.06
508.68	43328.00
508.85	43938.88
509.03	43428.64
509.20	43510.56
509.38	44076.97
509.55	43985.69
509.73	44175.27
509.90	44107.40
510.08	43676.74
510.25	44662.10
510.42	44535.71
510.60	44729.98
510.77	44737.00
510.95	45177.02
511.12	44751.04
511.30	45015.52
511.47	45422.78
511.64	45174.68
511.82	45792.58
511.99	44825.94
512.17	45928.33
512.34	45797.26
512.51	46246.65
512.69	45933.01
512.86	46230.26
513.04	46298.14
513.21	46354.31
513.38	46415.16
513.56	46384.74
513.73	46822.42
513.90	46696.03
514.08	46740.50
514.25	47349.04
514.43	46960.51
514.60	47063.49
514.77	47306.91
514.95	47407.55
515.12	47210.95
515.29	47323.29
515.47	47814.80
515.64	47564.37
515.81	47253.08
515.99	47873.32
516.16	48030.13
516.33	48285.25
516.51	48556.75
516.68	47978.64
516.85	48088.65
517.03	48348.45
517.20	48685.48
517.37	48559.09
517.54	48446.75
517.72	48821.23
517.89	48633.99
518.06	48662.08
518.24	48954.64
518.41	49146.57
518.58	49233.17
518.75	48966.35
518.93	49193.38
519.10	49425.09
519.27	49457.86
519.45	49490.63
519.62	49757.45
519.79	49565.52
519.96	49851.07
520.14	49956.39
520.31	49591.27
520.48	49944.69
520.65	49996.18
520.83	50188.11
521.00	50436.20
521.17	50145.98
521.34	50499.40
521.52	50511.10
521.69	50529.83
521.86	50707.71
522.03	50770.90
522.20	50979.21
522.38	51140.71
522.55	51051.76
522.72	51002.61
522.89	51014.32
523.07	51274.12
523.24	51009.64
523.41	51393.48
523.58	51402.85
523.75	51636.90
523.92	51398.16
524.10	51594.77
524.27	51774.99
524.44	52065.22
524.61	51789.03
524.78	51847.55
524.96	52116.71
525.13	52107.35
525.30	51889.68
525.47	52030.11
525.64	51943.51
525.81	52315.65
525.98	52662.05
526.16	52156.50
526.33	52629.29
526.50	52512.26
526.67	52458.43
526.84	52917.17
527.01	52633.97
527.18	52821.21
527.36	52863.34
527.53	52933.56
527.70	53169.95
527.87	53375.92
528.04	53312.72
528.21	53291.66
528.38	53017.82
528.55	53361.87
528.72	53230.80
528.89	53261.23
529.07	53081.01
529.24	53270.59
529.41	53666.14
529.58	53404.00
529.75	53506.99
529.92	53535.07
530.09	53734.02
530.26	53717.64
530.43	53729.34
530.60	53446.13
530.77	53977.43
530.94	53925.94
531.11	53935.30
531.28	53996.16
531.46	54003.18
531.63	54377.67
531.80	54099.14
531.97	54199.79
532.14	54085.10
532.31	54096.80
532.48	54223.19
532.65	54658.53
532.82	54064.03
532.99	54581.29
533.16	54157.66
533.33	54644.49
533.50	54422.14
533.67	54401.07
533.84	54447.88
534.01	54866.84
534.18	54876.20
534.35	55040.04
534.52	54777.90
534.69	55009.61
534.86	55065.78
535.03	54674.91
535.20	55217.92
535.37	55414.52
535.54	55384.10
535.71	54983.86
535.88	55351.33
536.05	55229.62
536.22	55552.62
536.38	55597.09
536.55	55428.57
536.72	55433.25
536.89	55253.03
537.06	55395.80
537.23	55491.76
537.40	55358.35
537.57	55688.37
537.74	55517.51
537.91	55735.18
538.08	55693.05
538.25	55632.19
538.42	55969.23
538.59	56002.00
538.75	55798.37
538.92	55824.12
539.09	55929.44
539.26	55695.39
539.43	55999.66
539.60	55941.14
539.77	56217.33
539.94	56236.05
540.11	56037.11
540.28	56275.84
540.44	56170.52
540.61	56357.76
540.78	56264.14
540.95	56062.85
541.12	56397.55
541.29	56088.60
541.46	56437.34
541.62	56594.15
541.79	56629.26
541.96	56502.87
542.13	56650.33
542.30	56547.34
542.47	56741.61
542.63	56584.79
542.80	56594.15
542.97	56814.16
543.14	57268.23
543.31	57207.37
543.48	57139.50
543.64	57226.10
543.81	57265.89
543.98	57308.02
544.15	57326.74
544.32	57310.36
544.48	57432.07
544.65	57216.74
544.82	57371.21
544.99	57027.15
545.16	57420.36
545.32	57308.02
545.49	57478.88
545.66	57567.82
545.83	57565.48
546.00	57497.60
546.16	57434.41
546.33	57535.05
546.50	57357.17
546.67	57736.34
546.83	57373.55
547.00	57553.77
547.17	57813.57
547.34	57525.69
547.50	57762.08
547.67	57982.09
547.84	57968.05
548.00	57890.81
548.17	58038.26
548.34	57986.77
548.51	58035.92
548.67	58216.14
548.84	58152.95
549.01	57504.62
549.18	57869.75
549.34	58068.69
549.51	58225.51
549.68	58159.97
549.84	58136.57
550.01	58454.88
550.18	57930.60
550.34	58291.04
550.51	58232.53
550.68	58178.70
550.84	57890.81
551.01	58279.34
551.18	58539.14
551.34	58251.25
551.51	58574.25
551.68	58599.99
551.84	58258.27
552.01	58412.75
552.18	58497.01
552.34	58394.03
552.51	58571.91
552.68	58447.86
552.84	58515.73
553.01	58782.55
553.18	58660.85
553.34	58915.96
553.51	58658.51
553.67	58796.60
553.84	58841.07
554.01	58656.17
554.17	58922.99
554.34	58901.92
554.51	58801.28
554.67	59018.95
554.84	58848.09
555.00	58740.42
555.17	58990.86
555.33	58820.00
555.50	58698.30
555.67	58836.39
555.83	58941.71
556.00	58885.54
556.16	59412.16
556.33	59262.36
556.50	59114.91
556.66	59250.66
556.83	58918.31
556.99	59248.32
557.16	59222.58
557.32	59531.53
557.49	59475.35
557.65	59047.04
557.82	59386.41
557.98	59426.20
558.15	59159.38
558.32	59482.37
558.48	59241.30
558.65	59407.48
558.81	59419.18
558.98	59465.99
559.14	59241.30
559.31	59501.10
559.47	59639.19
559.64	59625.15
559.80	59739.83
559.97	59531.53
560.13	59515.14
560.30	59489.40
560.46	59552.59
560.63	59622.81
560.79	59683.66
560.96	59648.55
561.12	59618.13
561.29	59484.72
561.45	59798.35
561.61	59760.90
561.78	59695.36
561.94	59718.77
562.11	59884.95
562.27	59608.76
562.44	59753.88
562.60	59898.99
562.77	59821.75
562.93	59884.95
563.10	60041.76
563.26	59798.35
563.42	59990.27
563.59	60023.04
563.75	59753.88
563.92	59788.98
564.08	59861.54
564.24	59957.50
564.41	60053.47
564.57	60111.98
564.74	59980.91
564.90	59987.93
565.07	60123.68
565.23	59910.69
565.39	59849.84
565.56	60154.11
565.72	60074.53
565.88	60072.19
566.05	59959.84
566.21	59994.95
566.38	60121.34
566.54	60083.89
566.70	60257.09
566.87	60170.49
567.03	60037.08
567.19	60261.77
567.36	60322.63
567.52	60067.51
567.68	60547.32
567.85	60266.45
568.01	60308.58
568.17	60191.56
568.34	60390.50
568.50	60418.59
568.66	60182.19
568.83	60261.77
568.99	60254.75
569.15	60254.75
569.32	60336.67
569.48	60294.54
569.64	60329.65
569.81	60348.37
569.97	60165.81
570.13	60236.03
570.30	60128.36
570.46	60374.12
570.62	60512.21
570.78	60381.14
570.95	60294.54
571.11	60182.19
571.27	60240.71
571.43	60383.48
571.60	60434.97
571.76	60451.36
571.92	60467.74
572.09	60273.48
572.25	60395.18
572.41	60376.46
572.57	60486.46
572.74	60650.30
572.90	60523.91
573.06	60516.89
573.22	60334.33
573.38	60449.02
573.55	60245.39
573.71	60584.77
573.87	60350.71
574.03	60392.84
574.20	60533.28
574.36	60598.81
574.52	60676.05
574.68	60734.56
574.84	60570.72
575.01	60542.64
575.17	60573.06
575.33	60350.71
575.49	60437.31
575.65	60559.02
575.82	60835.20
575.98	60720.52
576.14	60715.84
576.30	60757.97
576.46	60451.36
576.62	60680.73
576.79	60680.73
576.95	60495.83
577.11	60683.07
577.27	60680.73
577.43	60701.79
577.59	60647.96
577.75	60486.46
577.92	60552.00
578.08	60631.58
578.24	60505.19
578.40	60786.05
578.56	60748.60
578.72	60764.99
578.88	60891.38
579.04	60814.14
579.21	60748.60
579.37	60767.33
579.53	60711.16
579.69	60566.04
579.85	60427.95
580.01	60671.37
580.17	60589.45
580.33	60666.69
580.49	60837.54
580.65	60781.37
580.82	60608.17
580.98	60654.98
581.14	60779.03
581.30	60741.58
581.46	60757.97
581.62	60870.31
581.78	60741.58
581.94	60835.20
582.10	60673.71
582.26	60624.56
582.42	60645.62
582.58	60896.06
582.74	60762.65
582.90	60795.42
583.06	60891.38
583.22	60622.22
583.38	60807.12
583.54	60809.46
583.70	60786.05
583.86	60891.38
584.02	60757.97
584.18	60912.44
584.34	60872.65
584.50	60823.50
584.66	60662.00
584.82	60659.66
584.98	61085.64
585.14	60933.51
585.30	60809.46
585.46	60928.83
585.62	60863.29
585.78	60863.29
585.94	60671.37
586.10	60764.99
586.26	60755.63
586.42	60853.93
586.58	60821.16
586.74	60977.98
586.90	61006.06
587.06	60772.01
587.22	61027.13
587.38	60825.84
587.54	60905.42
587.70	61008.40
587.86	60858.61
588.02	60977.98
588.18	61095.00
588.34	60823.50
588.49	60839.89
