SpectraSuite Data File
++++++++++++++++++++++++++++++++++++
Date: Fri Oct 25 11:34:13 EDT 2013
User: price-jones
Dark Spectrum Present: No
Reference Spectrum Present: No
Number of Sampled Component Spectra: 1
Spectrometers: USB2+H05261
Integration Time (usec): 100000 (USB2+H05261)
Spectra Averaged: 1 (USB2+H05261)
Boxcar Smoothing: 0 (USB2+H05261)
Correct for Electrical Dark: No (USB2+H05261)
Strobe/Lamp Enabled: No (USB2+H05261)
Correct for Detector Non-linearity: No (USB2+H05261)
Correct for Stray Light: No (USB2+H05261)
Number of Pixels in Processed Spectrum: 2048
>>>>>Begin Processed Spectral Data<<<<<
365.73	285.55
365.92	285.55
366.12	285.55
366.32	194.26
366.52	217.67
366.72	170.86
366.91	154.48
367.11	222.35
367.31	161.50
367.51	102.98
367.70	149.79
367.90	238.73
368.10	138.09
368.30	135.75
368.49	138.09
368.69	121.71
368.89	203.63
369.09	208.31
369.28	248.10
369.48	215.33
369.68	229.37
369.87	278.52
370.07	234.05
370.27	255.12
370.47	313.63
370.66	491.51
370.86	437.68
371.06	519.60
371.25	554.71
371.45	566.41
371.65	655.35
371.84	540.66
372.04	587.47
372.24	550.03
372.44	559.39
372.63	538.32
372.83	538.32
373.03	608.54
373.22	599.18
373.42	620.24
373.62	585.13
373.81	662.37
374.01	594.50
374.21	615.56
374.40	538.32
374.60	641.31
374.79	711.52
374.99	648.33
375.19	615.56
375.38	678.76
375.58	613.22
375.78	650.67
375.97	643.65
376.17	711.52
376.37	650.67
376.56	702.16
376.76	667.05
376.95	620.24
377.15	697.48
377.35	744.29
377.54	617.90
377.74	699.82
377.93	613.22
378.13	723.23
378.33	636.63
378.52	676.41
378.72	704.50
378.91	725.57
379.11	727.91
379.31	713.86
379.50	718.54
379.70	753.65
379.89	709.18
380.09	723.23
380.28	763.01
380.48	770.04
380.68	720.88
380.87	730.25
381.07	739.61
381.26	786.42
381.46	765.36
381.65	711.52
381.85	748.97
382.04	734.93
382.24	727.91
382.43	751.31
382.63	781.74
382.83	814.51
383.02	753.65
383.22	837.91
383.41	753.65
383.61	847.27
383.80	830.89
384.00	737.27
384.19	828.55
384.39	889.40
384.58	863.66
384.78	812.17
384.97	807.48
385.17	779.40
385.36	751.31
385.56	805.14
385.75	837.91
385.95	835.57
386.14	889.40
386.34	901.11
386.53	828.55
386.72	788.76
386.92	894.08
387.11	908.13
387.31	931.53
387.50	910.47
387.70	837.91
387.89	812.17
388.09	863.66
388.28	875.36
388.48	896.43
388.67	882.38
388.86	887.06
389.06	952.60
389.25	966.64
389.45	908.13
389.64	952.60
389.84	952.60
390.03	968.98
390.22	999.41
390.42	959.62
390.61	912.81
390.81	866.00
391.00	903.45
391.19	980.68
391.39	1022.81
391.58	931.53
391.78	912.81
391.97	978.34
392.16	968.98
392.36	1062.60
392.55	1116.44
392.75	1039.20
392.94	1050.90
393.13	1100.05
393.33	992.39
393.52	990.05
393.71	1055.58
393.91	1100.05
394.10	1053.24
394.29	1074.31
394.49	1090.69
394.68	1114.10
394.88	1205.38
395.07	1102.39
395.26	1149.20
395.46	1149.20
395.65	1186.65
395.84	1177.29
396.04	1198.35
396.23	1196.01
396.42	1200.69
396.62	1282.61
396.81	1224.10
397.00	1212.40
397.19	1203.04
397.39	1153.88
397.58	1193.67
397.77	1163.25
397.97	1245.16
398.16	1181.97
398.35	1343.47
398.55	1259.21
398.74	1205.38
398.93	1306.02
399.12	1240.48
399.32	1306.02
399.51	1174.95
399.70	1193.67
399.90	1308.36
400.09	1308.36
400.28	1476.88
400.47	1355.17
400.67	1366.87
400.86	1343.47
401.05	1416.02
401.24	1441.77
401.44	1441.77
401.63	1348.15
401.82	1446.45
402.01	1343.47
402.21	1425.39
402.40	1514.33
402.59	1493.26
402.78	1460.49
402.97	1488.58
403.17	1556.46
403.36	1394.96
403.55	1497.94
403.74	1481.56
403.93	1570.50
404.13	1568.16
404.32	1563.48
404.51	1598.59
404.70	1650.08
404.89	1636.03
405.09	1694.55
405.28	1596.25
405.47	1626.67
405.66	1638.38
405.85	1696.89
406.05	1755.40
406.24	1788.17
406.43	1717.95
406.62	1713.27
406.81	1729.66
407.00	1739.02
407.20	1781.15
407.39	1792.85
407.58	1832.64
407.77	1727.32
407.96	1895.83
408.15	1851.36
408.34	1750.72
408.54	1881.79
408.73	1832.64
408.92	1935.62
409.11	2040.95
409.30	1867.75
409.49	1898.17
409.68	1933.28
409.87	1905.20
410.07	2045.63
410.26	2080.74
410.45	2008.18
410.64	1947.33
410.83	2111.16
411.02	2078.40
411.21	2148.61
411.40	2136.91
411.59	2200.10
411.78	2218.83
411.98	2090.10
412.17	2127.55
412.36	2146.27
412.55	2214.15
412.74	2347.56
412.93	2239.89
413.12	2237.55
413.31	2347.56
413.50	2370.96
413.69	2275.00
413.88	2373.30
414.07	2408.41
414.26	2424.80
414.45	2555.86
414.64	2424.80
414.83	2525.44
415.02	2504.37
415.22	2469.27
415.41	2663.53
415.60	2511.39
415.79	2595.65
415.98	2633.10
416.17	2539.48
416.36	2619.06
416.55	2658.85
416.74	2696.30
416.93	2736.09
417.12	2581.61
417.31	2810.98
417.50	2796.94
417.69	2810.98
417.88	2939.71
418.07	2906.95
418.26	2862.48
418.45	2888.22
418.64	2951.42
418.83	2974.82
419.02	3016.95
419.21	3005.25
419.39	3143.34
419.58	2925.67
419.77	3026.31
419.96	3117.59
420.15	3059.08
420.34	3204.19
420.53	3117.59
420.72	3094.19
420.91	3122.27
421.10	3089.51
421.29	3197.17
421.48	3180.79
421.67	3187.81
421.86	3218.24
422.05	3183.13
422.24	3269.73
422.43	3211.22
422.61	3236.96
422.80	3405.48
422.99	3316.54
423.18	3234.62
423.37	3262.71
423.56	3361.01
423.75	3339.94
423.94	3225.26
424.13	3157.38
424.32	3227.60
424.50	3372.71
424.69	3405.48
424.88	3466.33
425.07	3342.28
425.26	3197.17
425.45	3274.41
425.64	3358.67
425.83	3382.07
426.01	3335.26
426.20	3353.99
426.39	3400.80
426.58	3431.23
426.77	3417.18
426.96	3562.30
427.15	3517.83
427.33	3501.44
427.52	3295.47
427.71	3550.59
427.90	3557.61
428.09	3634.85
428.28	3550.59
428.46	3627.83
428.65	3681.66
428.84	3737.84
429.03	3714.43
429.22	3623.15
429.40	3660.60
429.59	3695.71
429.78	3606.77
429.97	3555.27
430.16	3737.84
430.34	3831.46
430.53	3735.50
430.72	3826.78
430.91	3829.12
431.10	3794.01
431.28	3838.48
431.47	3845.50
431.66	3925.08
431.85	3901.67
432.03	3964.87
432.22	3927.42
432.41	3880.61
432.60	3913.38
432.79	3999.98
432.97	4023.38
433.16	4044.45
433.35	4131.05
433.54	4056.15
433.72	4140.41
433.91	4070.19
434.10	4095.94
434.28	4112.32
434.47	4262.12
434.66	4053.81
434.85	4119.34
435.03	4105.30
435.22	4219.99
435.41	4271.48
435.59	4348.72
435.78	4241.05
435.97	4271.48
436.16	4264.46
436.34	4294.88
436.53	4547.66
436.72	4372.12
436.90	4273.82
437.09	4397.87
437.28	4320.63
437.46	4322.97
437.65	4400.21
437.84	4566.39
438.02	4407.23
438.21	4454.04
438.40	4423.61
438.58	4554.68
438.77	4819.16
438.96	4519.57
439.14	4699.80
439.33	4744.27
439.52	4791.08
439.70	4910.44
439.89	4821.50
440.08	4814.48
440.26	4903.42
440.45	4814.48
440.63	5151.52
440.82	5151.52
441.01	4926.83
441.19	5095.35
441.38	5193.65
441.57	5114.07
441.75	5083.64
441.94	5210.03
442.12	5217.05
442.31	5394.93
442.50	5404.30
442.68	5298.97
442.87	5203.01
443.05	5453.45
443.24	5404.30
443.43	5352.81
443.61	5537.71
443.80	5535.37
443.98	5385.57
444.17	5146.84
444.35	5467.49
444.54	5437.06
444.73	5526.00
444.91	5554.09
445.10	5530.69
445.28	5509.62
445.47	5554.09
445.65	5652.39
445.84	5657.07
446.02	5500.26
446.21	5547.07
446.39	5493.24
446.58	5378.55
446.77	5488.56
446.95	5483.88
447.14	5551.75
447.32	5530.69
447.51	5598.56
447.69	5600.90
447.88	5685.16
448.06	5593.88
448.25	5556.43
448.43	5699.20
448.62	5633.67
448.80	5612.60
448.99	5795.17
449.17	5727.29
449.36	5645.37
449.54	5881.77
449.73	5877.09
449.91	5989.43
450.10	5886.45
450.28	5975.39
450.46	5937.94
450.65	5898.15
450.83	5961.34
451.02	5933.26
451.20	6204.76
451.39	5942.62
451.57	6104.12
451.76	5973.05
451.94	5982.41
452.13	6052.63
452.31	6193.06
452.49	6024.54
452.68	6106.46
452.86	6120.50
453.05	6377.96
453.23	6263.27
453.42	5891.13
453.60	6026.88
453.78	6375.62
453.97	6153.27
454.15	6115.82
454.34	6253.91
454.52	6197.74
454.70	6239.87
454.89	6406.05
455.07	6565.20
455.26	6532.44
455.44	6588.61
455.62	6331.15
455.81	6604.99
455.99	6586.27
456.17	6569.88
456.36	6499.67
456.54	6595.63
456.73	6743.08
456.91	6825.00
457.09	6937.35
457.28	6754.79
457.46	6579.25
457.64	7000.54
457.83	6836.70
458.01	6796.92
458.19	7136.29
458.38	6876.49
458.56	6939.69
458.74	6963.09
458.93	7140.97
459.11	7049.69
459.29	7272.04
459.48	7005.22
459.66	7124.59
459.84	7070.76
460.03	7227.57
460.21	7105.87
460.39	7166.72
460.57	7372.69
460.76	7227.57
460.94	7180.76
461.12	7414.82
461.31	7307.15
461.49	7332.90
461.67	7431.20
461.85	7351.62
462.04	7440.56
462.22	7875.90
462.40	7480.35
462.59	7578.65
462.77	7571.63
462.95	7295.45
463.13	7604.40
463.32	7665.25
463.50	7674.62
463.68	7667.60
463.86	7714.41
464.05	7676.96
464.23	7660.57
464.41	7934.42
464.59	7557.59
464.78	7932.08
464.96	7822.07
465.14	7861.86
465.32	7679.30
465.50	7953.14
465.69	7981.23
465.87	7911.01
466.05	7749.51
466.23	7901.65
466.41	7960.16
466.60	8205.92
466.78	8067.83
466.96	8121.66
467.14	7934.42
467.32	7901.65
467.51	7873.56
467.69	7786.96
467.87	8011.65
468.05	8208.26
468.23	8203.58
468.41	8126.34
468.60	8084.21
468.78	8128.68
468.96	8219.96
469.14	8402.52
469.32	8514.87
469.50	8184.85
469.69	8353.37
469.87	8266.77
470.05	8533.59
470.23	8678.71
470.41	8365.07
470.59	8472.74
470.77	8465.72
470.95	8706.79
471.14	8809.78
471.32	8491.46
471.50	8674.03
471.68	8879.99
471.86	8940.85
472.04	8816.80
472.22	9109.36
472.40	8762.97
472.58	9020.42
472.77	8999.36
472.95	9296.61
473.13	9448.74
473.31	9050.85
473.49	9067.24
473.67	9214.69
473.85	9245.12
474.03	9593.86
474.21	9509.60
474.39	9497.89
474.57	9533.00
474.75	9729.61
474.93	9724.93
475.12	9437.04
475.30	9802.16
475.48	9806.84
475.66	9863.02
475.84	9724.93
476.02	9919.19
476.20	9741.31
476.38	10047.92
476.56	10120.48
476.74	10326.44
476.92	10356.87
477.10	10148.56
477.28	10406.02
477.46	10754.76
477.64	10747.74
477.82	10569.86
478.00	10846.04
478.18	10801.57
478.36	10965.41
478.54	11002.86
478.72	11136.27
478.90	11098.82
479.08	11290.74
479.26	11318.83
479.44	11470.97
479.62	11412.45
479.80	11520.12
479.98	11564.59
480.16	11843.11
480.34	11648.85
480.52	11854.81
480.70	12152.06
480.88	11810.34
481.06	12102.91
481.24	11962.48
481.41	12196.53
481.59	12517.18
481.77	12512.50
481.95	12365.05
482.13	12444.63
482.31	12753.58
482.49	12870.61
482.67	12929.12
482.85	12996.99
483.03	13214.66
483.21	13254.45
483.39	13687.45
483.57	13188.92
483.74	13455.74
483.92	13764.69
484.10	13617.24
484.28	13551.70
484.46	14310.04
484.64	14604.94
484.82	14150.88
485.00	14150.88
485.18	14565.15
485.35	14740.69
485.53	14527.71
485.71	14738.35
485.89	14941.98
486.07	14785.16
486.25	15178.37
486.43	15264.97
486.61	15112.84
486.78	15585.63
486.96	15440.51
487.14	15735.42
487.32	15543.50
487.50	15978.84
487.68	15960.11
487.85	16240.98
488.03	16161.40
488.21	16451.63
488.39	16470.35
488.57	16788.66
488.75	16727.81
488.92	16812.07
489.10	16961.86
489.28	17170.17
489.46	17291.88
489.64	17184.21
489.81	17362.09
489.99	17619.55
490.17	17972.97
490.35	17891.06
490.53	17984.68
490.70	18288.95
490.88	18223.41
491.06	18129.79
491.24	18279.58
491.41	18401.29
491.59	18593.22
491.77	18480.87
491.95	18941.96
492.13	18780.46
492.30	19255.59
492.48	19040.26
492.66	19007.49
492.84	19126.86
493.01	19344.53
493.19	19435.81
493.37	19637.09
493.54	19648.80
493.72	20194.14
493.90	20084.14
494.08	20018.60
494.25	20404.79
494.43	20463.30
494.61	20641.18
494.79	20613.10
494.96	20774.60
495.14	21041.42
495.32	21142.06
495.49	21132.70
495.67	20896.30
495.85	21488.46
496.02	21329.30
496.20	21359.73
496.38	21387.82
496.55	21537.61
496.73	22232.75
496.91	21881.67
497.09	22260.84
497.26	22349.78
497.44	22288.92
497.62	22265.52
497.79	22785.12
497.97	22710.22
498.14	22780.43
498.32	22843.63
498.50	23037.89
498.67	23098.75
498.85	23452.17
499.03	23594.94
499.20	23374.93
499.38	23517.70
499.56	23592.60
499.73	23498.98
499.91	23864.10
500.08	24016.24
500.26	24098.16
500.44	24343.91
500.61	24243.27
500.79	23955.38
500.97	23906.23
501.14	24657.54
501.32	24372.00
501.49	24484.34
501.67	24725.42
501.84	24816.70
502.02	25057.78
502.20	24917.34
502.37	24952.45
502.55	24875.21
502.72	25156.08
502.90	25408.86
503.07	25179.48
503.25	25427.58
503.43	25479.07
503.60	25781.00
503.78	25521.20
503.95	25539.93
504.13	25916.75
504.30	26040.80
504.48	26211.66
504.65	25806.75
504.83	26216.34
505.01	26480.82
505.18	26075.91
505.36	26445.71
505.53	26150.81
505.71	26408.26
505.88	26803.82
506.06	26508.91
506.23	26801.47
506.41	26794.45
506.58	27047.23
506.76	27164.26
506.93	27288.31
507.11	27543.42
507.28	27150.21
507.46	27484.91
507.63	27225.11
507.81	27695.56
507.98	27747.05
508.16	27548.11
508.33	28067.70
508.50	27601.94
508.68	28189.41
508.85	28432.83
509.03	27985.79
509.20	28379.00
509.38	28383.68
509.55	28531.13
509.73	28664.54
509.90	28713.69
510.08	28444.53
510.25	28460.91
510.42	28603.69
510.60	29146.69
510.77	28847.10
510.95	29261.38
511.12	28823.70
511.30	28891.57
511.47	29102.22
511.64	29434.58
511.82	29191.16
511.99	29134.99
512.17	29376.06
512.34	29640.54
512.51	30319.30
512.69	29949.50
512.86	30253.76
513.04	30232.70
513.21	29816.08
513.38	30228.02
513.56	30232.70
513.73	30167.16
513.90	30106.31
514.08	30558.03
514.25	30448.03
514.43	30543.99
514.60	31028.48
514.77	30665.70
514.95	31171.25
515.12	30817.83
515.29	30689.10
515.47	30944.22
515.64	31229.77
515.81	31040.18
515.99	31606.59
516.16	31744.69
516.33	31304.67
516.51	31391.26
516.68	31405.31
516.85	31700.22
517.03	31840.65
517.20	31927.25
517.37	31335.09
517.54	31683.83
517.72	32135.56
517.89	32243.22
518.06	32095.77
518.24	32163.64
518.41	32173.00
518.58	32016.19
518.75	32254.92
518.93	32673.88
519.10	32659.84
519.27	32208.11
519.45	32905.59
519.62	32613.02
519.79	32638.77
519.96	32311.10
520.14	32889.21
520.31	32734.73
520.48	32847.08
520.65	32500.68
520.83	33479.02
521.00	32774.52
521.17	33556.26
521.34	33495.41
521.52	33350.29
521.69	33443.91
521.86	33778.61
522.03	33553.92
522.20	33738.82
522.38	33886.28
522.55	34017.35
522.72	33890.96
522.89	34043.09
523.07	34504.18
523.24	34302.89
523.41	34363.75
523.58	34684.40
523.75	34330.98
523.92	34347.36
524.10	34677.38
524.27	34548.65
524.44	34754.61
524.61	34796.74
524.78	34745.25
524.96	34562.69
525.13	35365.49
525.30	34965.26
525.47	34749.93
525.64	34871.64
525.81	35189.95
525.98	34946.54
526.16	35147.82
526.33	35138.46
526.50	35461.46
526.67	35360.81
526.84	35564.44
527.01	35613.59
527.18	35599.55
527.36	36018.50
527.53	35978.72
527.70	36114.47
527.87	36332.14
528.04	36016.16
528.21	35871.05
528.38	35931.90
528.55	35981.06
528.72	35758.70
528.89	36318.09
529.07	36009.14
529.24	35992.76
529.41	36486.61
529.58	36540.44
529.75	35957.65
529.92	36472.57
530.09	36659.81
530.26	36554.49
530.43	36748.75
530.60	36631.72
530.77	36266.60
530.94	36730.03
531.11	36837.69
531.28	36858.76
531.46	36765.14
531.63	37376.01
531.80	37106.85
531.97	37724.75
532.14	37123.24
532.31	37043.66
532.48	37471.98
532.65	37752.84
532.82	37450.91
532.99	37785.61
533.16	37467.30
533.33	37537.51
533.50	37762.20
533.67	37645.18
533.84	37371.33
534.01	38012.64
534.18	38169.46
534.35	37956.47
534.52	38410.53
534.69	38036.05
534.86	38178.82
535.03	37904.98
535.20	38424.57
535.37	38520.54
535.54	38494.79
535.71	38403.51
535.88	38354.36
536.05	38403.51
536.22	38656.29
536.38	38391.81
536.55	38337.98
536.72	38785.02
536.89	38621.18
537.06	38572.03
537.23	38820.13
537.40	38581.39
537.57	38827.15
537.74	38738.21
537.91	39096.31
538.08	39145.46
538.25	38574.37
538.42	38747.57
538.59	39723.57
538.75	38712.46
538.92	39470.79
539.09	39491.86
539.26	39517.60
539.43	39517.60
539.60	39538.67
539.77	39477.82
539.94	39866.34
540.11	39339.72
540.28	39414.62
540.44	39859.32
540.61	39445.05
540.78	39856.98
540.95	39711.87
541.12	39658.04
541.29	39721.23
541.46	39962.31
541.62	39990.39
541.79	40477.22
541.96	39880.39
542.13	39873.37
542.30	40053.59
542.47	40442.12
542.63	40385.94
542.80	40084.01
542.97	40725.32
543.14	40542.76
543.31	40313.39
543.48	40683.19
543.64	40917.25
543.81	40748.73
543.98	41088.10
544.15	40634.04
544.32	41071.72
544.48	41469.61
544.65	40865.75
544.82	40935.97
544.99	41179.39
545.16	40914.90
545.32	40968.74
545.49	41401.74
545.66	41584.30
545.83	41586.64
546.00	41277.69
546.16	40945.33
546.33	41031.93
546.50	41301.09
546.67	41570.25
546.83	41043.63
547.00	41390.03
547.17	41205.13
547.34	41460.25
547.50	41743.45
547.67	42073.47
547.84	41825.37
548.00	41865.16
548.17	41848.78
548.34	42171.77
548.51	42211.56
548.67	41881.55
548.84	41628.77
549.01	41808.99
549.18	41883.89
549.34	42373.06
549.51	42515.83
549.68	41773.88
549.84	42199.86
550.01	42499.45
550.18	41846.44
550.34	42473.70
550.51	42710.10
550.68	42476.04
550.84	42150.71
551.01	42274.76
551.18	42295.82
551.34	42824.78
551.51	42869.25
551.68	42272.42
551.84	42616.47
552.01	42597.75
552.18	42955.85
552.34	42543.92
552.51	42770.95
552.68	42656.26
552.84	42770.95
553.01	42852.87
553.18	42761.59
553.34	43028.41
553.51	42607.11
553.67	43295.23
553.84	43040.11
554.01	43110.33
554.17	43330.34
554.34	43035.43
554.51	43154.80
554.67	43536.30
554.84	43650.99
555.00	43325.66
555.17	42990.96
555.33	43438.00
555.50	43484.81
555.67	43875.68
555.83	43466.09
556.00	43311.61
556.16	43716.53
556.33	43863.98
556.50	43562.05
556.66	43566.73
556.83	43580.78
556.99	43789.08
557.16	44072.29
557.32	43828.87
557.49	43913.13
557.65	43899.09
557.82	43768.02
557.98	44002.07
558.15	44091.01
558.32	43826.53
558.48	43702.48
558.65	44116.76
558.81	43798.44
558.98	43791.42
559.14	43917.81
559.31	43950.58
559.47	44041.86
559.64	43838.23
559.80	44126.12
559.97	44360.17
560.13	43749.29
560.30	43805.47
560.46	44357.83
560.63	44172.93
560.79	44477.20
560.96	44760.40
561.12	44655.08
561.29	44210.38
561.45	44673.81
561.61	44322.72
561.78	44332.09
561.94	44304.00
562.11	44282.94
562.27	44516.99
562.44	44444.43
562.60	44896.16
562.77	44708.91
562.93	44463.16
563.10	44774.45
563.26	44531.03
563.42	44973.39
563.59	44673.81
563.75	44804.88
563.92	45076.38
564.08	44598.91
564.24	44524.01
564.41	44828.28
564.57	44947.65
564.74	44856.37
564.90	44577.84
565.07	44430.39
565.23	44734.66
565.39	44872.75
565.56	45338.52
565.72	45071.70
565.88	44971.05
566.05	44797.85
566.21	44795.51
566.38	45249.58
566.54	45059.99
566.70	44996.80
566.87	44519.33
567.03	45254.26
567.19	44912.54
567.36	45338.52
567.52	44807.22
567.68	45411.07
567.85	45752.79
568.01	45516.40
568.17	44917.22
568.34	45361.92
568.50	45038.93
568.66	45006.16
568.83	45240.21
568.99	44844.66
569.15	45137.23
569.32	45177.02
569.48	45113.83
569.64	45762.15
569.81	45228.51
569.97	45752.79
570.13	45893.22
570.30	45031.91
570.46	45223.83
570.62	45406.39
570.78	45469.59
570.95	45490.65
571.11	45411.07
571.27	45474.27
571.43	45298.73
571.60	45469.59
571.76	45181.70
571.92	45773.86
572.09	45673.21
572.25	45406.39
572.41	45375.97
572.57	45680.24
572.74	45544.48
572.90	45710.66
573.06	45579.59
573.22	45867.48
573.38	45207.45
573.55	45993.87
573.71	46017.27
573.87	46012.59
574.03	45708.32
574.20	45900.25
574.36	45677.90
574.52	45876.84
574.68	45518.74
574.84	46012.59
575.01	46087.49
575.17	45968.12
575.33	45815.99
575.49	45390.01
575.65	45996.21
575.82	45808.96
575.98	45645.13
576.14	46323.88
576.30	46279.41
576.46	46003.23
576.62	45820.67
576.79	45993.87
576.95	45584.27
577.11	45869.82
577.27	46003.23
577.43	45757.47
577.59	45977.48
577.75	45907.27
577.92	45507.04
578.08	45851.09
578.24	46064.08
578.40	46295.80
578.56	45855.78
578.72	45769.18
578.88	45668.53
579.04	45989.19
579.21	45738.75
579.37	46134.30
579.53	46225.58
579.69	45972.80
579.85	45923.65
580.01	45694.28
580.17	46181.11
580.33	45703.64
580.49	45975.14
580.65	45628.74
580.82	45799.60
580.98	45642.79
581.14	45418.10
581.30	45776.20
581.46	46021.95
581.62	45970.46
581.78	45485.97
581.94	45904.93
582.10	46211.54
582.26	46319.20
582.42	45780.88
582.58	46075.79
582.74	46349.63
582.90	46146.00
583.06	46131.96
583.22	45869.82
583.38	45741.09
583.54	46010.25
583.70	46061.74
583.86	45951.74
584.02	46071.10
584.18	46354.31
584.34	46408.14
584.50	46199.83
584.66	46560.28
584.82	46052.38
584.98	46066.42
585.14	46543.89
585.30	45722.37
585.46	46366.01
585.62	46129.62
585.78	46265.37
585.94	45855.78
586.10	45879.18
586.26	46319.20
586.42	46333.24
586.58	46223.24
586.74	46138.98
586.90	46040.68
587.06	46113.23
587.22	46349.63
587.38	46005.57
587.54	46305.16
587.70	46796.67
587.86	46073.45
588.02	46043.02
588.18	46237.28
588.34	46127.28
588.49	46686.67
588.65	45970.46
588.81	46408.14
588.97	46471.34
589.13	46440.91
589.29	46340.27
589.45	46293.46
589.61	46181.11
589.77	46651.56
589.93	46639.86
590.08	46588.36
