SpectraSuite Data File
++++++++++++++++++++++++++++++++++++
Date: Fri Oct 25 10:44:16 EDT 2013
User: price-jones
Dark Spectrum Present: No
Reference Spectrum Present: No
Number of Sampled Component Spectra: 1
Spectrometers: USB2+H05261
Integration Time (usec): 100000 (USB2+H05261)
Spectra Averaged: 1 (USB2+H05261)
Boxcar Smoothing: 0 (USB2+H05261)
Correct for Electrical Dark: No (USB2+H05261)
Strobe/Lamp Enabled: No (USB2+H05261)
Correct for Detector Non-linearity: No (USB2+H05261)
Correct for Stray Light: No (USB2+H05261)
Number of Pixels in Processed Spectrum: 2048
>>>>>Begin Processed Spectral Data<<<<<
365.73	135.75
365.92	135.75
366.12	135.75
366.32	0.00
366.52	0.00
366.72	21.06
366.91	72.56
367.11	60.85
367.31	63.19
367.51	0.00
367.70	0.00
367.90	7.02
368.10	0.00
368.30	18.72
368.49	53.83
368.69	74.90
368.89	77.24
369.09	126.39
369.28	18.72
369.48	51.49
369.68	37.45
369.87	135.75
370.07	65.54
370.27	102.98
370.47	133.41
370.66	367.46
370.86	411.93
371.06	421.30
371.25	507.90
371.45	456.40
371.65	409.59
371.84	447.04
372.04	519.60
372.24	465.77
372.44	538.32
372.63	437.68
372.83	505.56
373.03	561.73
373.22	496.19
373.42	606.20
373.62	603.86
373.81	491.51
374.01	564.07
374.21	575.77
374.40	617.90
374.60	547.69
374.79	603.86
374.99	564.07
375.19	624.92
375.38	603.86
375.58	594.50
375.78	606.20
375.97	564.07
376.17	648.33
376.37	620.24
376.56	660.03
376.76	538.32
376.95	620.24
377.15	615.56
377.35	718.54
377.54	594.50
377.74	657.69
377.93	608.54
378.13	667.05
378.33	664.71
378.52	699.82
378.72	767.70
378.91	697.48
379.11	648.33
379.31	657.69
379.50	638.97
379.70	741.95
379.89	746.63
380.09	730.25
380.28	716.20
380.48	732.59
380.68	704.50
380.87	650.67
381.07	641.31
381.26	744.29
381.46	791.10
381.65	662.37
381.85	716.20
382.04	690.46
382.24	737.27
382.43	681.10
382.63	681.10
382.83	667.05
383.02	702.16
383.22	793.44
383.41	716.20
383.61	751.31
383.80	833.23
384.00	760.67
384.19	805.14
384.39	779.40
384.58	833.23
384.78	774.72
384.97	760.67
385.17	741.95
385.36	737.27
385.56	807.48
385.75	828.55
385.95	823.87
386.14	870.68
386.34	882.38
386.53	835.57
386.72	823.87
386.92	889.40
387.11	903.45
387.31	898.77
387.50	837.91
387.70	788.76
387.89	856.64
388.09	835.57
388.28	866.00
388.48	877.70
388.67	887.06
388.86	873.02
389.06	903.45
389.25	987.71
389.45	999.41
389.64	891.74
389.84	1046.22
390.03	964.30
390.22	1036.86
390.42	1039.20
390.61	994.73
390.81	1081.33
391.00	1011.11
391.19	1039.20
391.39	1027.50
391.58	1025.15
391.78	1011.11
391.97	1048.56
392.16	947.92
392.36	1123.46
392.55	1025.15
392.75	990.05
392.94	957.28
393.13	1022.81
393.33	1029.84
393.52	1032.18
393.71	1046.22
393.91	1086.01
394.10	1137.50
394.29	1097.71
394.49	1149.20
394.68	1277.93
394.88	1214.74
395.07	1219.42
395.26	1188.99
395.46	1268.57
395.65	1191.33
395.84	1156.22
396.04	1280.27
396.23	1146.86
396.42	1116.44
396.62	1174.95
396.81	1261.55
397.00	1214.74
397.19	1231.12
397.39	1270.91
397.58	1334.11
397.77	1432.41
397.97	1411.34
398.16	1399.64
398.35	1488.58
398.55	1474.54
398.74	1507.30
398.93	1519.01
399.12	1476.88
399.32	1493.26
399.51	1519.01
399.70	1619.65
399.90	1514.33
400.09	1540.07
400.28	1647.74
400.47	1556.46
400.67	1636.03
400.86	1753.06
401.05	1661.78
401.24	1614.97
401.44	1713.27
401.63	1717.95
401.82	1687.53
402.01	1694.55
402.21	1729.66
402.40	1727.32
402.59	1720.29
402.78	1741.36
402.97	1823.28
403.17	1856.04
403.36	1771.79
403.55	1818.60
403.74	1900.52
403.93	1799.87
404.13	1783.49
404.32	1865.41
404.51	1949.67
404.70	1928.60
404.89	1858.39
405.09	1930.94
405.28	1928.60
405.47	1858.39
405.66	1909.88
405.85	1973.07
406.05	2106.48
406.24	1998.82
406.43	2078.40
406.62	2113.50
406.81	2176.70
407.00	2054.99
407.20	2038.61
407.39	2052.65
407.58	2090.10
407.77	2106.48
407.96	2134.57
408.15	2125.21
408.34	2279.68
408.54	2228.19
408.73	2160.31
408.92	2279.68
409.11	2165.00
409.30	2195.42
409.49	2242.23
409.68	2242.23
409.87	2249.25
410.07	2298.41
410.26	2359.26
410.45	2380.32
410.64	2443.52
410.83	2553.52
411.02	2595.65
411.21	2590.97
411.40	2588.63
411.59	2691.62
411.78	2595.65
411.98	2600.34
412.17	2520.76
412.36	2773.53
412.55	2705.66
412.74	2661.19
412.93	2726.72
413.12	2677.57
413.31	2850.77
413.50	2810.98
413.69	2796.94
413.88	2888.22
414.07	2792.26
414.26	2981.84
414.45	2974.82
414.64	2920.99
414.83	2972.48
415.02	2953.76
415.22	2995.89
415.41	3122.27
415.60	3124.62
415.79	3070.78
415.98	3218.24
416.17	3155.04
416.36	3178.45
416.55	3208.87
416.74	3159.72
416.93	3192.49
417.12	3262.71
417.31	3304.84
417.50	3391.44
417.69	3321.22
417.88	3461.65
418.07	3370.37
418.26	3431.23
418.45	3506.12
418.64	3513.14
418.83	3562.30
419.02	3590.38
419.21	3569.32
419.39	3562.30
419.58	3566.98
419.77	3550.59
419.96	3698.05
420.15	3672.30
420.34	3590.38
420.53	3719.11
420.72	3721.45
420.91	3840.82
421.10	3822.09
421.29	3810.39
421.48	3896.99
421.67	3789.33
421.86	3691.02
422.05	3824.44
422.24	3756.56
422.43	3854.86
422.61	3857.20
422.80	3868.91
422.99	3866.56
423.18	3925.08
423.37	3817.41
423.56	3899.33
423.75	4011.68
423.94	3878.27
424.13	3852.52
424.32	3908.69
424.50	3969.55
424.69	3983.59
424.88	3918.06
425.07	3864.22
425.26	4014.02
425.45	3850.18
425.64	3896.99
425.83	3925.08
426.01	4154.45
426.20	4011.68
426.39	4046.79
426.58	4105.30
426.77	3915.72
426.96	3929.76
427.15	3976.57
427.33	4159.13
427.52	4091.26
427.71	4065.51
427.90	4252.75
428.09	4149.77
428.28	3946.14
428.46	4163.81
428.65	4194.24
428.84	4112.32
429.03	4241.05
429.22	4081.89
429.40	4140.41
429.59	4208.28
429.78	3850.18
429.97	4042.11
430.16	3999.98
430.34	4004.66
430.53	4229.35
430.72	4243.39
430.91	4180.20
431.10	4222.33
431.28	4568.73
431.47	4500.85
431.66	4624.90
431.85	4465.74
432.03	4660.01
432.22	4582.77
432.41	4503.19
432.60	4741.93
432.79	4744.27
432.97	4830.87
433.16	4678.73
433.35	4634.26
433.54	4524.26
433.72	4678.73
433.91	4589.79
434.10	4620.22
434.28	4697.46
434.47	4795.76
434.66	4968.96
434.85	4823.84
435.03	4912.78
435.22	4966.62
435.41	5011.09
435.59	4968.96
435.78	5095.35
435.97	5210.03
436.16	5158.54
436.34	5039.17
436.53	5085.98
436.72	5235.78
436.90	5069.60
437.09	5240.46
437.28	5034.49
437.46	5203.01
437.65	5163.22
437.84	5125.77
438.02	5177.26
438.21	5191.31
438.40	5172.58
438.58	5121.09
438.77	5593.88
438.96	5423.02
439.14	5413.66
439.33	5483.88
439.52	5549.41
439.70	5619.63
439.89	5631.33
440.08	5603.24
440.26	5568.13
440.45	5488.56
440.63	5940.28
440.82	6003.47
441.01	5928.58
441.19	5877.09
441.38	6171.99
441.57	6085.39
441.75	6078.37
441.94	6153.27
442.12	6099.44
442.31	6377.96
442.50	6399.02
442.68	6310.08
442.87	6417.75
443.05	6408.39
443.24	6431.79
443.43	6492.65
443.61	6352.21
443.80	6642.44
443.98	6399.02
444.17	6246.89
444.35	6527.75
444.54	6525.41
444.73	6340.51
444.91	6420.09
445.10	6431.79
445.28	6513.71
445.47	6506.69
445.65	6305.40
445.84	6523.07
446.02	6635.42
446.21	6462.22
446.39	6558.18
446.58	6644.78
446.77	6534.78
446.95	6628.40
447.14	6686.91
447.32	6808.62
447.51	6551.16
447.69	6471.58
447.88	6803.94
448.06	6761.81
448.25	6747.76
448.43	6693.93
448.62	6733.72
448.80	6682.23
448.99	6780.53
449.17	6743.08
449.36	6902.24
449.54	6916.28
449.73	7138.63
449.91	6937.35
450.10	7138.63
450.28	7258.00
450.46	7187.79
450.65	7185.44
450.83	7344.60
451.02	7103.53
451.20	7194.81
451.39	7283.75
451.57	6960.75
451.76	7218.21
451.94	7178.42
452.13	7169.06
452.31	7204.17
452.49	7164.38
452.68	7255.66
452.86	7227.57
453.05	7321.20
453.23	7480.35
453.42	7372.69
453.60	7325.88
453.78	7461.63
453.97	7379.71
454.15	7440.56
454.34	7382.05
454.52	7534.18
454.70	7445.24
454.89	7311.83
455.07	7573.97
455.26	7651.21
455.44	7854.84
455.62	7611.42
455.81	7754.19
455.99	7918.03
456.17	8128.68
456.36	7737.81
456.54	8028.04
456.73	7805.69
456.91	8116.98
457.09	8138.04
457.28	8280.82
457.46	7971.86
457.64	8098.25
457.83	8175.49
458.01	8077.19
458.19	8423.59
458.38	8210.60
458.56	8245.71
458.74	8294.86
458.93	8229.32
459.11	8177.83
459.29	8231.66
459.48	8482.10
459.66	8430.61
459.84	8379.12
460.03	8659.98
460.21	8554.66
460.39	8702.11
460.57	8526.57
460.76	8643.60
460.94	8564.02
461.12	8683.39
461.31	8659.98
461.49	8772.33
461.67	8844.88
461.85	8819.14
462.04	8903.40
462.22	8990.00
462.40	8737.22
462.59	8847.22
462.77	8915.10
462.95	8954.89
463.13	8912.76
463.32	8837.86
463.50	9046.17
463.68	9088.30
463.86	9224.05
464.05	8903.40
464.23	8877.65
464.41	9039.15
464.59	8765.31
464.78	9053.19
464.96	9069.58
465.14	9156.18
465.32	9146.81
465.50	9252.14
465.69	9502.58
465.87	9240.44
466.05	9078.94
466.23	9111.71
466.41	9102.34
466.60	9308.31
466.78	8950.21
466.96	9226.39
467.14	9177.24
467.32	9488.53
467.51	9654.71
467.69	9385.55
467.87	9551.73
468.05	9331.72
468.23	9184.26
468.41	9345.76
468.60	9411.29
468.78	9308.31
468.96	9661.73
469.14	9905.15
469.32	9563.43
469.50	9462.79
469.69	9760.03
469.87	9678.12
470.05	9741.31
470.23	9909.83
470.41	9741.31
470.59	9944.94
470.77	9729.61
470.95	9701.52
471.14	10417.72
471.32	10040.90
471.50	10340.49
471.68	10139.20
471.86	10431.77
472.04	10256.23
472.22	10560.50
472.40	10136.86
472.58	10363.89
472.77	10530.07
472.95	10604.97
473.13	10864.77
473.31	10434.11
473.49	10532.41
473.67	10731.36
473.85	10771.15
474.03	10960.73
474.21	10942.00
474.39	11250.96
474.57	11194.78
474.75	11087.12
474.93	11325.85
475.12	11136.27
475.30	11192.44
475.48	11246.27
475.66	11026.26
475.84	11335.21
476.02	11421.81
476.20	11433.52
476.38	11613.74
476.56	12049.08
476.74	11812.68
476.92	11763.53
477.10	11845.45
477.28	12035.03
477.46	11892.26
477.64	12395.48
477.82	12386.12
478.00	12608.47
478.18	12446.97
478.36	12400.16
478.54	12758.26
478.72	12353.35
478.90	12931.46
479.08	13004.02
479.26	13231.05
479.44	13144.45
479.62	13116.36
479.80	13366.80
479.98	13479.15
480.16	13689.79
480.34	13745.97
480.52	13837.25
480.70	13750.65
480.88	13776.39
481.06	13956.61
481.24	13862.99
481.41	14202.37
481.59	14401.32
481.77	14417.70
481.95	14356.85
482.13	14445.79
482.31	14551.11
482.49	14862.40
482.67	14956.02
482.85	14850.70
483.03	15309.44
483.21	15508.39
483.39	15501.37
483.57	15164.33
483.74	15169.01
483.92	15770.53
484.10	15367.96
484.28	15618.39
484.46	16053.73
484.64	16264.38
484.82	16182.46
485.00	16070.12
485.18	16360.34
485.35	16350.98
485.53	16201.19
485.71	16348.64
485.89	16528.86
486.07	16540.57
486.25	16559.29
486.43	16856.54
486.61	16919.73
486.78	17137.40
486.96	17177.19
487.14	17912.12
487.32	17481.46
487.50	17879.35
487.68	17877.01
487.85	18443.42
488.03	18541.72
488.21	18771.10
488.39	18649.39
488.57	18728.97
488.75	18677.48
488.92	19159.63
489.10	19463.90
489.28	19552.84
489.46	19473.26
489.64	19529.43
489.81	19896.89
489.99	20231.59
490.17	19695.61
490.35	20390.75
490.53	20357.98
490.70	20182.44
490.88	20573.31
491.06	21231.00
491.24	20517.14
491.41	20542.88
491.59	20868.22
491.77	20872.90
491.95	20966.52
492.13	21296.53
492.30	21329.30
492.48	21514.20
492.66	21624.21
492.84	22057.21
493.01	22019.76
493.19	21926.14
493.37	22094.66
493.54	22038.48
493.72	22628.30
493.90	22647.02
494.08	22719.58
494.25	23129.17
494.43	23091.73
494.61	23370.25
494.79	23585.58
494.96	23571.54
495.14	23459.19
495.32	23676.86
495.49	23768.14
495.67	23875.80
495.85	23927.30
496.02	24128.58
496.20	24088.79
496.38	24435.19
496.55	24428.17
496.73	24910.32
496.91	24662.22
497.09	24842.45
497.26	25301.19
497.44	24877.55
497.62	25165.44
497.79	25348.00
497.97	25085.86
498.14	25675.68
498.32	25975.27
498.50	25441.62
498.67	26094.63
498.85	26270.17
499.03	26366.13
499.20	26162.51
499.38	26127.40
499.56	26335.71
499.73	26520.61
499.91	26647.00
500.08	26700.83
500.26	26192.94
500.44	26733.60
500.61	26541.68
500.79	26700.83
500.97	26960.63
501.14	27185.32
501.32	26771.05
501.49	27213.41
501.67	27075.32
501.84	27459.16
502.02	27454.48
502.20	27690.88
502.37	27777.48
502.55	27796.20
502.72	27866.42
502.90	28121.54
503.07	28114.52
503.25	28444.53
503.43	27868.76
503.60	28100.47
503.78	28222.18
503.95	28297.08
504.13	28463.25
504.30	28381.34
504.48	28479.64
504.65	29109.24
504.83	29116.26
505.01	29120.95
505.18	28620.07
505.36	29303.51
505.53	29406.49
505.71	29415.85
505.88	29825.45
506.06	29099.88
506.23	29961.20
506.41	29888.64
506.58	29741.19
506.76	29750.55
506.93	30036.09
507.11	29935.45
507.28	29883.96
507.46	29919.07
507.63	29867.58
507.81	30099.29
507.98	29888.64
508.16	29862.90
508.33	30497.18
508.50	30604.84
508.68	31056.57
508.85	31304.67
509.03	30862.30
509.20	31215.72
509.38	31232.11
509.55	31152.53
509.73	31332.75
509.90	31707.24
510.08	31133.81
510.25	31501.27
510.42	31267.22
510.60	31840.65
510.77	32224.50
510.95	31510.63
511.12	31800.86
511.30	32053.64
511.47	32903.25
511.64	32542.81
511.82	32503.02
511.99	31798.52
512.17	32231.52
512.34	32023.21
512.51	32547.49
512.69	32774.52
512.86	32596.64
513.04	32601.32
513.21	33013.26
513.38	32767.50
513.56	32692.60
513.73	32730.05
513.90	33230.93
514.08	32833.04
514.25	32849.42
514.43	33294.12
514.60	33165.39
514.77	33584.35
514.95	33565.62
515.12	33373.70
515.29	33942.45
515.47	34050.11
515.64	34068.84
515.81	33919.04
515.99	34026.71
516.16	33717.76
516.33	33755.21
516.51	33720.10
516.68	33383.06
516.85	33268.37
517.03	33715.42
517.20	33965.85
517.37	34443.32
517.54	34115.65
517.72	34284.17
517.89	34195.23
518.06	33715.42
518.24	34230.33
518.41	34389.49
518.58	34565.03
518.75	34590.78
518.93	34979.31
519.10	34497.16
519.27	34518.22
519.45	34881.00
519.62	34946.54
519.79	35173.57
519.96	35187.61
520.14	35739.98
520.31	35587.85
520.48	35667.42
520.65	35061.22
520.83	35770.41
521.00	35590.19
521.17	35974.03
521.34	35674.45
521.52	35983.40
521.69	36378.95
521.86	36397.67
522.03	36285.33
522.20	36264.26
522.38	36669.17
522.55	36882.16
522.72	36540.44
522.89	36561.51
523.07	36533.42
523.24	36779.18
523.41	36978.12
523.58	36793.22
523.75	37368.99
523.92	37762.20
524.10	37450.91
524.27	37390.06
524.44	37397.08
524.61	37251.97
524.78	37488.36
524.96	37420.48
525.13	37844.12
525.30	37914.34
525.47	37998.60
525.64	37572.62
525.81	37858.17
525.98	37755.18
526.16	37294.10
526.33	37392.40
526.50	38110.94
526.67	37191.11
526.84	37275.37
527.01	37610.07
527.18	37883.91
527.36	38405.85
527.53	38134.35
527.70	38246.69
527.87	38539.26
528.04	37986.89
528.21	38459.68
528.38	38752.25
528.55	38387.13
528.72	38637.56
528.89	39234.40
529.07	38988.64
529.24	38660.97
529.41	38785.02
529.58	38579.05
529.75	38916.09
529.92	39100.99
530.09	39103.33
530.26	39103.33
530.43	39569.10
530.60	39409.94
530.77	39353.77
530.94	39632.29
531.11	39164.18
531.28	39426.32
531.46	39707.19
531.63	40203.38
531.80	39278.87
531.97	39295.25
532.14	39508.24
532.31	39208.65
532.48	39524.63
532.65	39974.01
532.82	39864.00
532.99	39688.46
533.16	40046.57
533.33	40084.01
533.50	40215.08
533.67	40060.61
533.84	39887.41
534.01	40128.48
534.18	39828.90
534.35	40329.77
534.52	40589.57
534.69	40430.41
534.86	40189.34
535.03	40715.96
535.20	40978.10
535.37	41116.19
535.54	41261.30
535.71	40952.35
535.88	40432.75
536.05	40907.88
536.22	40746.39
536.38	40804.90
536.55	40463.18
536.72	40629.36
536.89	40573.19
537.06	40725.32
537.23	40914.90
537.40	40926.61
537.57	41249.60
537.74	41287.05
537.91	41495.36
538.08	41198.11
538.25	40964.06
538.42	41574.94
538.59	41308.11
538.75	40950.01
538.92	41296.41
539.09	41198.11
539.26	41338.54
539.43	41507.06
539.60	41287.05
539.77	41076.40
539.94	41656.85
540.11	41511.74
540.28	41687.28
540.44	41713.03
540.61	41560.89
540.78	41251.94
540.95	41532.81
541.12	41528.13
541.29	41610.04
541.46	41970.49
541.62	42363.70
541.79	42162.41
541.96	41834.74
542.13	41883.89
542.30	41588.98
542.47	41963.46
542.63	42012.62
542.80	42139.00
542.97	42625.84
543.14	42691.37
543.31	42740.52
543.48	42412.85
543.64	42918.40
543.81	43154.80
543.98	42990.96
544.15	42829.46
544.32	43051.81
544.48	43180.54
544.65	43124.37
544.82	43232.04
544.99	42827.12
545.16	42890.32
545.32	42550.94
545.49	43536.30
545.66	43239.06
545.83	43241.40
546.00	43246.08
546.16	43267.14
546.33	43145.44
546.50	42595.41
546.67	43201.61
546.83	43290.55
547.00	43379.49
547.17	43374.81
547.34	43227.35
547.50	43381.83
547.67	43744.61
547.84	43611.20
548.00	43707.16
548.17	43625.25
548.34	43658.01
548.51	43524.60
548.67	43522.26
548.84	44091.01
549.01	43353.74
549.18	43536.30
549.34	43550.35
549.51	44034.84
549.68	44205.70
549.84	43681.42
550.01	44182.29
550.18	43824.19
550.34	44170.59
550.51	43746.95
550.68	44034.84
550.84	43693.12
551.01	44140.16
551.18	44179.95
551.34	44048.88
551.51	44016.11
551.68	44081.65
551.84	44458.48
552.01	44072.29
552.18	44205.70
552.34	44252.51
552.51	44236.12
552.68	44123.78
552.84	44528.69
553.01	44638.70
553.18	44325.07
553.34	44327.41
553.51	44151.87
553.67	44535.71
553.84	44847.00
554.01	44596.57
554.17	45036.59
554.34	44631.68
554.51	44655.08
554.67	45139.57
554.84	44570.82
555.00	44617.63
555.17	44231.44
555.33	44584.86
555.50	44582.52
555.67	44624.65
555.83	45001.48
556.00	44954.67
556.16	44940.63
556.33	44781.47
556.50	44549.76
556.66	45155.96
556.83	44666.78
556.99	45050.63
557.16	45181.70
557.32	45013.18
557.49	45605.34
557.65	45160.64
557.82	45469.59
557.98	45106.80
558.15	45095.10
558.32	44999.14
558.48	44921.90
558.65	45048.29
558.81	45539.80
558.98	45083.40
559.14	45345.54
559.31	45102.12
559.47	45371.28
559.64	45509.38
559.80	45375.97
559.97	45284.68
560.13	45404.05
560.30	45551.51
560.46	45521.08
560.63	45457.88
560.79	45612.36
560.96	45787.90
561.12	45577.25
561.29	45762.15
561.45	45415.76
561.61	45408.73
561.78	45071.70
561.94	45329.16
562.11	45127.87
562.27	45490.65
562.44	45598.32
562.60	45886.20
562.77	45464.91
562.93	45595.98
563.10	45773.86
563.26	45153.62
563.42	45626.40
563.59	45469.59
563.75	45703.64
563.92	45745.77
564.08	45935.35
564.24	46288.77
564.41	45881.52
564.57	45925.99
564.74	45357.24
564.90	45642.79
565.07	45567.89
565.23	45612.36
565.39	45469.59
565.56	45897.91
565.72	45492.99
565.88	46073.45
566.05	45460.23
566.21	45619.38
566.38	45551.51
566.54	45635.77
566.70	46014.93
566.87	46230.26
567.03	46143.66
567.19	46267.71
567.36	46010.25
567.52	46094.51
567.68	45897.91
567.85	46026.63
568.01	46227.92
568.17	45841.73
568.34	45874.50
568.50	45965.78
568.66	45916.63
568.83	46021.95
568.99	45834.71
569.15	46075.79
569.32	45804.28
569.48	45551.51
569.64	46176.43
569.81	46110.89
569.97	45951.74
570.13	45925.99
570.30	45729.39
570.46	45507.04
570.62	45549.17
570.78	45509.38
570.95	45336.18
571.11	45844.07
571.27	45673.21
571.43	45883.86
571.60	45923.65
571.76	45923.65
571.92	45752.79
572.09	46057.06
572.25	45645.13
572.41	45844.07
572.57	46504.10
572.74	46141.32
572.90	46307.50
573.06	45792.58
573.22	46415.16
573.38	46337.93
573.55	45991.53
573.71	46263.03
573.87	46131.96
574.03	46108.55
574.20	46010.25
574.36	46024.29
574.52	46129.62
574.68	46506.44
574.84	46136.64
575.01	46234.94
575.17	45888.54
575.33	45883.86
575.49	45680.24
575.65	46351.97
575.82	46298.14
575.98	45963.44
576.14	46403.46
576.30	46094.51
576.46	46305.16
576.62	46213.88
576.79	46323.88
576.95	46237.28
577.11	46007.91
577.27	46110.89
577.43	46103.87
577.59	46160.05
577.75	46143.66
577.92	45944.72
578.08	45680.24
578.24	45968.12
578.40	45762.15
578.56	46061.74
578.72	46300.48
578.88	46436.23
579.04	46094.51
579.21	46216.22
579.37	45930.67
579.53	46181.11
579.69	46286.43
579.85	46167.07
580.01	46387.08
580.17	46239.62
580.33	46424.53
580.49	46506.44
580.65	46143.66
580.82	46075.79
580.98	46216.22
581.14	46171.75
581.30	46529.85
581.46	46302.82
581.62	46857.52
581.78	46398.78
581.94	46733.48
582.10	46103.87
582.26	46429.21
582.42	46014.93
582.58	46258.35
582.74	46129.62
582.90	45813.65
583.06	46274.73
583.22	46256.01
583.38	46944.12
583.54	46525.17
583.70	46225.58
583.86	46358.99
584.02	45991.53
584.18	46176.43
584.34	46679.64
584.50	46436.23
584.66	46431.55
584.82	46157.70
584.98	46513.47
585.14	46520.49
585.30	46134.30
585.46	46382.40
585.62	46195.15
585.78	46492.40
585.94	45940.04
586.10	46153.02
586.26	46066.42
586.42	46279.41
586.58	46801.35
586.74	46366.01
586.90	45968.12
587.06	46160.05
587.22	46244.30
587.38	46291.12
587.54	46663.26
587.70	45982.16
587.86	46178.77
588.02	46553.26
588.18	46450.27
588.34	46190.47
588.49	45823.01
588.65	45366.60
588.81	45460.23
588.97	45930.67
589.13	45373.63
589.29	46052.38
589.45	46340.27
589.61	46153.02
589.77	46335.59
589.93	46522.83
