SpectraSuite Data File
++++++++++++++++++++++++++++++++++++
Date: Fri Oct 25 11:33:58 EDT 2013
User: price-jones
Dark Spectrum Present: No
Reference Spectrum Present: No
Number of Sampled Component Spectra: 1
Spectrometers: USB2+H05261
Integration Time (usec): 100000 (USB2+H05261)
Spectra Averaged: 1 (USB2+H05261)
Boxcar Smoothing: 0 (USB2+H05261)
Correct for Electrical Dark: No (USB2+H05261)
Strobe/Lamp Enabled: No (USB2+H05261)
Correct for Detector Non-linearity: No (USB2+H05261)
Correct for Stray Light: No (USB2+H05261)
Number of Pixels in Processed Spectrum: 2048
>>>>>Begin Processed Spectral Data<<<<<
365.73	266.82
365.92	266.82
366.12	266.82
366.32	248.10
366.52	184.90
366.72	208.31
366.91	138.09
367.11	154.48
367.31	149.79
367.51	173.20
367.70	201.29
367.90	215.33
368.10	154.48
368.30	234.05
368.49	105.32
368.69	222.35
368.89	212.99
369.09	203.63
369.28	257.46
369.48	222.35
369.68	238.73
369.87	210.65
370.07	290.23
370.27	327.68
370.47	320.65
370.66	367.46
370.86	517.26
371.06	561.73
371.25	561.73
371.45	512.58
371.65	578.11
371.84	510.24
372.04	594.50
372.24	601.52
372.44	566.41
372.63	582.79
372.83	624.92
373.03	620.24
373.22	615.56
373.42	599.18
373.62	648.33
373.81	641.31
374.01	648.33
374.21	660.03
374.40	641.31
374.60	695.14
374.79	667.05
374.99	674.07
375.19	589.82
375.38	620.24
375.58	603.86
375.78	758.33
375.97	699.82
376.17	690.46
376.37	685.78
376.56	634.29
376.76	716.20
376.95	692.80
377.15	669.39
377.35	645.99
377.54	692.80
377.74	681.10
377.93	711.52
378.13	720.88
378.33	760.67
378.52	657.69
378.72	725.57
378.91	770.04
379.11	692.80
379.31	688.12
379.50	744.29
379.70	711.52
379.89	725.57
380.09	713.86
380.28	734.93
380.48	781.74
380.68	657.69
380.87	770.04
381.07	774.72
381.26	779.40
381.46	746.63
381.65	755.99
381.85	777.06
382.04	723.23
382.24	791.10
382.43	823.87
382.63	755.99
382.83	760.67
383.02	763.01
383.22	814.51
383.41	758.33
383.61	821.53
383.80	779.40
384.00	793.44
384.19	851.96
384.39	861.32
384.58	868.34
384.78	828.55
384.97	823.87
385.17	809.83
385.36	826.21
385.56	725.57
385.75	819.19
385.95	814.51
386.14	786.42
386.34	812.17
386.53	788.76
386.72	891.74
386.92	910.47
387.11	915.15
387.31	866.00
387.50	954.94
387.70	896.43
387.89	952.60
388.09	875.36
388.28	856.64
388.48	901.11
388.67	950.26
388.86	985.37
389.06	980.68
389.25	1008.77
389.45	922.17
389.64	940.90
389.84	940.90
390.03	978.34
390.22	961.96
390.42	947.92
390.61	980.68
390.81	917.49
391.00	1013.45
391.19	936.21
391.39	994.73
391.58	1090.69
391.78	973.66
391.97	992.39
392.16	1027.50
392.36	1093.03
392.55	1064.94
392.75	985.37
392.94	1011.11
393.13	1020.47
393.33	971.32
393.52	1055.58
393.71	1086.01
393.91	1018.13
394.10	1039.20
394.29	1057.92
394.49	1090.69
394.68	1137.50
394.88	1174.95
395.07	1111.75
395.26	1191.33
395.46	1149.20
395.65	1128.14
395.84	1186.65
396.04	1245.16
396.23	1170.27
396.42	1198.35
396.62	1102.39
396.81	1146.86
397.00	1179.63
397.19	1299.00
397.39	1231.12
397.58	1163.25
397.77	1256.87
397.97	1308.36
398.16	1153.88
398.35	1301.34
398.55	1224.10
398.74	1291.98
398.93	1306.02
399.12	1383.26
399.32	1350.49
399.51	1273.25
399.70	1401.98
399.90	1254.53
400.09	1284.95
400.28	1378.58
400.47	1437.09
400.67	1378.58
400.86	1399.64
401.05	1373.89
401.24	1324.74
401.44	1376.24
401.63	1357.51
401.82	1476.88
402.01	1423.05
402.21	1479.22
402.40	1483.90
402.59	1458.15
402.78	1462.83
402.97	1439.43
403.17	1554.12
403.36	1474.54
403.55	1565.82
403.74	1521.35
403.93	1568.16
404.13	1544.75
404.32	1614.97
404.51	1647.74
404.70	1671.14
404.89	1652.42
405.09	1659.44
405.28	1661.78
405.47	1577.52
405.66	1722.63
405.85	1746.04
406.05	1717.95
406.24	1713.27
406.43	1732.00
406.62	1713.27
406.81	1825.62
407.00	1832.64
407.20	1809.23
407.39	1708.59
407.58	1806.89
407.77	1853.70
407.96	1895.83
408.15	1830.30
408.34	1984.77
408.54	1863.07
408.73	1834.98
408.92	1863.07
409.11	1926.26
409.30	2017.54
409.49	1921.58
409.68	1989.46
409.87	1909.88
410.07	2017.54
410.26	2076.06
410.45	1961.37
410.64	2045.63
410.83	1994.14
411.02	2172.02
411.21	2188.40
411.40	2132.23
411.59	2305.43
411.78	2246.91
411.98	2111.16
412.17	2188.40
412.36	2258.62
412.55	2237.55
412.74	2267.98
412.93	2385.01
413.12	2403.73
413.31	2413.09
413.50	2466.92
413.69	2389.69
413.88	2267.98
414.07	2403.73
414.26	2499.69
414.45	2473.95
414.64	2602.68
414.83	2504.37
415.02	2647.15
415.22	2581.61
415.41	2684.59
415.60	2663.53
415.79	2635.44
415.98	2710.34
416.17	2757.15
416.36	2686.94
416.55	2768.85
416.74	2818.00
416.93	2689.28
417.12	2773.53
417.31	2869.50
417.50	2839.07
417.69	2902.26
417.88	2860.13
418.07	2913.97
418.26	3009.93
418.45	2963.12
418.64	3253.34
418.83	2960.78
419.02	3077.80
419.21	3197.17
419.39	3141.00
419.58	3103.55
419.77	3089.51
419.96	3155.04
420.15	3117.59
420.34	3225.26
420.53	3042.70
420.72	3255.69
420.91	3194.83
421.10	3248.66
421.29	3171.43
421.48	3248.66
421.67	3377.39
421.86	3293.13
422.05	3258.03
422.24	3358.67
422.43	3410.16
422.61	3290.79
422.80	3279.09
422.99	3421.86
423.18	3407.82
423.37	3405.48
423.56	3421.86
423.75	3375.05
423.94	3276.75
424.13	3187.81
424.32	3384.41
424.50	3403.14
424.69	3471.01
424.88	3419.52
425.07	3382.07
425.26	3447.61
425.45	3534.21
425.64	3433.57
425.83	3372.71
426.01	3428.88
426.20	3377.39
426.39	3592.72
426.58	3344.63
426.77	3405.48
426.96	3515.48
427.15	3417.18
427.33	3496.76
427.52	3480.38
427.71	3581.02
427.90	3482.72
428.09	3812.73
428.28	3639.53
428.46	3639.53
428.65	3578.68
428.84	3742.52
429.03	3829.12
429.22	3653.58
429.40	3695.71
429.59	3777.62
429.78	3613.79
429.97	3566.98
430.16	3730.81
430.34	3798.69
430.53	3906.35
430.72	3850.18
430.91	3840.82
431.10	3854.86
431.28	3934.44
431.47	4009.34
431.66	4058.49
431.85	4093.60
432.03	3962.53
432.22	4060.83
432.41	3943.80
432.60	4145.09
432.79	4014.02
432.97	4161.47
433.16	4053.81
433.35	4145.09
433.54	4234.03
433.72	4147.43
433.91	4217.65
434.10	4191.90
434.28	4133.39
434.47	4269.14
434.66	4053.81
434.85	4135.73
435.03	4229.35
435.22	4255.09
435.41	4257.43
435.59	4407.23
435.78	4369.78
435.97	4381.48
436.16	4299.56
436.34	4369.78
436.53	4348.72
436.72	4407.23
436.90	4484.47
437.09	4517.23
437.28	4484.47
437.46	4423.61
437.65	4554.68
437.84	4620.22
438.02	4627.24
438.21	4432.97
438.40	4517.23
438.58	4788.74
438.77	4809.80
438.96	4610.86
439.14	4854.27
439.33	4858.95
439.52	4812.14
439.70	4875.34
439.89	4957.25
440.08	4975.98
440.26	5043.85
440.45	5057.90
440.63	4945.55
440.82	5205.35
441.01	4870.65
441.19	5224.08
441.38	5041.51
441.57	5224.08
441.75	5383.23
441.94	5432.38
442.12	5252.16
442.31	5467.49
442.50	5289.61
442.68	5284.93
442.87	5352.81
443.05	5324.72
443.24	5701.54
443.43	5406.64
443.61	5504.94
443.80	5645.37
443.98	5469.83
444.17	5308.34
444.35	5467.49
444.54	5626.65
444.73	5624.31
444.91	5479.19
445.10	5628.99
445.28	5586.86
445.47	5692.18
445.65	5607.92
445.84	5799.85
446.02	5781.12
446.21	5610.26
446.39	5621.97
446.58	5598.56
446.77	5701.54
446.95	5465.15
447.14	5905.17
447.32	5678.14
447.51	5621.97
447.69	5511.96
447.88	5783.46
448.06	5675.80
448.25	5703.89
448.43	5884.11
448.62	5851.34
448.80	5865.38
448.99	5827.93
449.17	5923.90
449.36	5762.40
449.54	5947.30
449.73	5954.32
449.91	6195.40
450.10	5907.51
450.28	6040.92
450.46	6134.54
450.65	6143.91
450.83	6078.37
451.02	6204.76
451.20	6207.10
451.39	6071.35
451.57	6085.39
451.76	6059.65
451.94	6031.56
452.13	6345.19
452.31	6218.80
452.49	6265.61
452.68	6321.79
452.86	6176.67
453.05	6389.66
453.23	6417.75
453.42	6324.13
453.60	6118.16
453.78	6331.15
453.97	6303.06
454.15	6324.13
454.34	6331.15
454.52	6333.49
454.70	6485.62
454.89	6434.13
455.07	6469.24
455.26	6612.01
455.44	6661.16
455.62	6595.63
455.81	6703.29
455.99	6696.27
456.17	6722.02
456.36	6602.65
456.54	6855.43
456.73	6799.26
456.91	6871.81
457.09	6991.18
457.28	7002.88
457.46	6850.75
457.64	7063.74
457.83	7089.48
458.01	6864.79
458.19	7176.08
458.38	7002.88
458.56	7185.44
458.74	7208.85
458.93	7108.21
459.11	7283.75
459.29	6998.20
459.48	7311.83
459.66	7068.42
459.84	7368.01
460.03	7480.35
460.21	7272.04
460.39	7562.27
460.57	7368.01
460.76	7337.58
460.94	7447.58
461.12	7447.58
461.31	7279.07
461.49	7356.30
461.67	7480.35
461.85	7660.57
462.04	7384.39
462.22	7922.71
462.40	7854.84
462.59	7691.00
462.77	7641.85
462.95	7829.09
463.13	7599.72
463.32	7749.51
463.50	7791.64
463.68	7908.67
463.86	7840.79
464.05	7805.69
464.23	7854.84
464.41	7817.39
464.59	7751.85
464.78	7857.18
464.96	7981.23
465.14	7901.65
465.32	8191.88
465.50	8070.17
465.69	8067.83
465.87	8074.85
466.05	7953.14
466.23	8095.91
466.41	8161.45
466.60	8374.44
466.78	8124.00
466.96	8191.88
467.14	8105.28
467.32	8271.45
467.51	8292.52
467.69	8189.53
467.87	8395.50
468.05	8552.32
468.23	8238.69
468.41	8369.76
468.60	8278.47
468.78	8280.82
468.96	8318.26
469.14	8369.76
469.32	8458.70
469.50	8280.82
469.69	8589.77
469.87	8844.88
470.05	8514.87
470.23	8748.92
470.41	8638.92
470.59	8781.69
470.77	8786.37
470.95	8901.06
471.14	8929.14
471.32	8746.58
471.50	8975.95
471.68	8840.20
471.86	9088.30
472.04	9156.18
472.22	9240.44
472.40	9118.73
472.58	9160.86
472.77	9085.96
472.95	9289.59
473.13	9537.68
473.31	9507.26
473.49	9418.32
473.67	9366.82
473.85	9415.98
474.03	9586.83
474.21	9631.30
474.39	9764.72
474.57	9792.80
474.75	9671.09
474.93	9865.36
475.12	9687.48
475.30	10111.11
475.48	9874.72
475.66	9998.77
475.84	10087.71
476.02	10113.45
476.20	10160.27
476.38	10265.59
476.56	10555.82
476.74	10399.00
476.92	10448.15
477.10	10403.68
477.28	10670.50
477.46	10635.39
477.64	10773.49
477.82	10850.72
478.00	10979.45
478.18	11152.65
478.36	10986.47
478.54	11302.45
478.72	11255.64
478.90	11421.81
479.08	11414.79
479.26	11592.67
479.44	11386.71
479.62	11854.81
479.80	11836.09
479.98	11843.11
480.16	12156.74
480.34	11964.82
480.52	12283.13
480.70	12241.00
480.88	12133.34
481.06	12531.23
481.24	12456.33
481.41	12458.67
481.59	12589.74
481.77	12734.85
481.95	12723.15
482.13	12802.73
482.31	13078.91
482.49	13036.78
482.67	13327.01
482.85	13591.49
483.03	13242.75
483.21	13631.28
483.39	13584.47
483.57	13694.47
483.74	13965.98
483.92	14045.55
484.10	13741.29
484.28	13991.72
484.46	14523.02
484.64	14567.49
484.82	14429.40
485.00	14377.91
485.18	14768.78
485.35	15091.77
485.53	14885.81
485.71	14972.41
485.89	15075.39
486.07	15119.86
486.25	15304.76
486.43	15496.69
486.61	15602.01
486.78	15669.89
486.96	16056.08
487.14	15838.41
487.32	15995.22
487.50	16376.73
487.68	16140.33
487.85	16369.71
488.03	16547.59
488.21	16891.65
488.39	16610.78
488.57	17228.68
488.75	16882.28
488.92	17216.98
489.10	17708.49
489.28	17291.88
489.46	17490.82
489.64	17649.98
489.81	17921.48
489.99	18015.10
490.17	18090.00
490.35	18448.10
490.53	18045.53
490.70	18541.72
490.88	18314.69
491.06	18918.55
491.24	18782.80
491.41	18787.48
491.59	18881.10
491.77	19014.51
491.95	19101.11
492.13	19721.35
492.30	19534.11
492.48	19459.21
492.66	19653.48
492.84	19548.15
493.01	19819.66
493.19	19988.18
493.37	20105.20
493.54	20144.99
493.72	20479.69
493.90	20439.90
494.08	20622.46
494.25	20772.25
494.43	20758.21
494.61	20985.24
494.79	21174.83
494.96	21146.74
495.14	21050.78
495.32	21631.23
495.49	21436.97
495.67	21603.14
495.85	21568.04
496.02	21998.70
496.20	22122.74
496.38	21933.16
496.55	22197.64
496.73	22679.79
496.91	22574.47
497.09	22686.81
497.26	22871.72
497.44	22703.20
497.62	23192.37
497.79	23318.76
497.97	23115.13
498.14	23421.74
498.32	23271.95
498.50	23510.68
498.67	23810.27
498.85	23627.71
499.03	23667.50
499.20	23868.78
499.38	23878.15
499.56	24264.33
499.73	24224.54
499.91	24395.40
500.08	24400.08
500.26	24173.05
500.44	24496.05
500.61	24620.10
500.79	24339.23
500.97	24875.21
501.14	25362.04
501.32	25015.65
501.49	25422.90
501.67	25322.26
501.84	25518.86
502.02	25401.83
502.20	25184.16
502.37	25387.79
502.55	25724.83
502.72	25537.59
502.90	25713.13
503.07	25778.66
503.25	25776.32
503.43	26012.71
503.60	26061.87
503.78	26146.12
503.95	26047.82
504.13	26469.12
504.30	26679.77
504.48	26754.66
504.65	26263.15
504.83	26721.90
505.01	26642.32
505.18	26937.23
505.36	27246.18
505.53	26733.60
505.71	27349.16
505.88	27335.12
506.06	26864.67
506.23	27461.51
506.41	27323.41
506.58	27300.01
506.76	27887.48
506.93	27831.31
507.11	27571.51
507.28	28339.21
507.46	28009.19
507.63	28194.09
507.81	28072.39
507.98	27978.76
508.16	28386.02
508.33	28102.81
508.50	28081.75
508.68	28580.28
508.85	28713.69
509.03	28680.92
509.20	28959.45
509.38	29259.04
509.55	28996.90
509.73	28826.04
509.90	29029.66
510.08	28744.12
510.25	29003.92
510.42	29628.84
510.60	29727.14
510.77	29652.25
510.95	30033.75
511.12	29701.40
511.30	29544.58
511.47	29785.66
511.64	29888.64
511.82	30136.74
511.99	29626.50
512.17	30082.91
512.34	29986.94
512.51	30543.99
512.69	30597.82
512.86	30494.84
513.04	30661.02
513.21	30934.86
513.38	30998.06
513.56	31002.74
513.73	30754.64
513.90	31274.24
514.08	31124.44
514.25	31264.88
514.43	31459.14
514.60	31594.89
514.77	31154.87
514.95	31749.37
515.12	31363.18
515.29	31442.76
515.47	31716.60
515.64	31927.25
515.81	31615.96
515.99	32098.11
516.16	32378.97
516.33	31791.50
516.51	32236.20
516.68	32182.37
516.85	31817.24
517.03	32587.28
517.20	32582.60
517.37	32854.10
517.54	32245.56
517.72	32793.25
517.89	32673.88
518.06	32762.82
518.24	32966.45
518.41	32554.51
518.58	32732.39
518.75	32868.14
518.93	32849.42
519.10	33191.14
519.27	33158.37
519.45	33443.91
519.62	33467.32
519.79	33493.07
519.96	33500.09
520.14	33301.14
520.31	33464.98
520.48	33572.64
520.65	33970.54
520.83	34204.59
521.00	34005.64
521.17	33745.84
521.34	34249.06
521.52	34377.79
521.69	34532.26
521.86	34377.79
522.03	34705.46
522.20	34705.46
522.38	34560.35
522.55	35131.44
522.72	34813.13
522.89	35133.78
523.07	34983.99
523.24	35084.63
523.41	34991.01
523.58	34829.51
523.75	35412.31
523.92	34888.03
524.10	35166.55
524.27	35384.22
524.44	35175.91
524.61	35269.53
524.78	35241.45
524.96	35992.76
525.13	35735.30
525.30	36030.21
525.47	35941.27
525.64	35339.75
525.81	36238.51
525.98	36259.58
526.16	35772.75
526.33	36144.89
526.50	36074.68
526.67	35985.74
526.84	36479.59
527.01	36416.40
527.18	36517.04
527.36	36257.24
527.53	36554.49
527.70	36905.57
527.87	36762.79
528.04	36545.12
528.21	36439.80
528.38	36912.59
528.55	37177.07
528.72	36924.29
528.89	36620.02
529.07	36966.42
529.24	36914.93
529.41	37235.58
529.58	36811.95
529.75	36966.42
529.92	37160.69
530.09	37390.06
530.26	37368.99
530.43	37830.08
530.60	37200.47
530.77	37450.91
530.94	37156.00
531.11	37347.93
531.28	37188.77
531.46	37673.26
531.63	38043.07
531.80	37535.17
531.97	38199.88
532.14	38377.76
532.31	38022.00
532.48	38333.29
532.65	38370.74
532.82	38178.82
532.99	38232.65
533.16	38291.16
533.33	38522.88
533.50	38644.59
533.67	38686.71
533.84	37926.04
534.01	38447.98
534.18	38836.51
534.35	38948.85
534.52	38738.21
534.69	39150.14
534.86	39150.14
535.03	38635.22
535.20	39033.11
535.37	39089.29
535.54	39166.52
535.71	38684.37
535.88	39222.70
536.05	38920.77
536.22	39562.08
536.38	39234.40
536.55	39220.36
536.72	39489.52
536.89	39470.79
537.06	39386.54
537.23	39800.81
537.40	39445.05
537.57	39075.24
537.74	39400.58
537.91	40175.30
538.08	39498.88
538.25	39826.56
538.42	39566.76
538.59	40208.06
538.75	39852.30
538.92	39966.99
539.09	40442.12
539.26	39915.50
539.43	40147.21
539.60	40512.33
539.77	40179.98
539.94	40598.93
540.11	40187.00
540.28	40659.79
540.44	40119.12
540.61	40657.45
540.78	40346.15
540.95	40533.40
541.12	40568.51
541.29	40568.51
541.46	40690.21
541.62	40680.85
541.79	40940.65
541.96	40254.87
542.13	41085.76
542.30	40825.96
542.47	40762.77
542.63	41338.54
542.80	41067.04
542.97	41670.90
543.14	41148.96
543.31	41621.75
543.48	41088.10
543.64	41446.21
543.81	41909.63
543.98	41481.31
544.15	41670.90
544.32	42089.85
544.48	42043.04
544.65	41937.72
544.82	41970.49
544.99	41558.55
545.16	41455.57
545.32	42335.61
545.49	42525.19
545.66	42508.81
545.83	42408.17
546.00	42576.69
546.16	42246.67
546.33	42209.22
546.50	41914.31
546.67	42555.62
546.83	42073.47
547.00	42190.50
547.17	42106.24
547.34	42328.59
547.50	42295.82
547.67	43096.28
547.84	42403.49
548.00	42597.75
548.17	42600.09
548.34	42665.63
548.51	43105.65
548.67	43016.71
548.84	43009.68
549.01	42911.38
549.18	42995.64
549.34	42873.93
549.51	43023.73
549.68	42972.24
549.84	42555.62
550.01	42768.61
550.18	42663.28
550.34	42810.74
550.51	43416.94
550.68	43583.12
550.84	43077.56
551.01	43241.40
551.18	43044.79
551.34	43552.69
551.51	42869.25
551.68	43377.15
551.84	43402.89
552.01	43512.90
552.18	43276.51
552.34	42955.85
552.51	43648.65
552.68	43571.41
552.84	43580.78
553.01	43922.49
553.18	43445.02
553.34	43643.97
553.51	43309.27
553.67	44170.59
553.84	43943.56
554.01	44151.87
554.17	44294.64
554.34	44205.70
554.51	44397.62
554.67	44364.85
554.84	44261.87
555.00	44210.38
555.17	44268.89
555.33	44261.87
555.50	43959.94
555.67	44425.71
555.83	44306.34
556.00	44229.10
556.16	44765.09
556.33	44765.09
556.50	44811.90
556.66	44250.17
556.83	44259.53
556.99	44809.56
557.16	44774.45
557.32	44605.93
557.49	44577.84
557.65	44507.63
557.82	44416.35
557.98	44030.16
558.15	44711.25
558.32	45153.62
558.48	44275.91
558.65	45008.50
558.81	44832.96
558.98	44779.13
559.14	44521.67
559.31	44952.33
559.47	45193.40
559.64	44830.62
559.80	44781.47
559.97	45207.45
560.13	44734.66
560.30	45385.33
560.46	45422.78
560.63	45698.96
560.79	45464.91
560.96	45059.99
561.12	45354.90
561.29	45303.41
561.45	45401.71
561.61	45146.59
561.78	45338.52
561.94	45624.06
562.11	45455.54
562.27	45322.13
562.44	45127.87
562.60	45375.97
562.77	45790.24
562.93	45043.61
563.10	45710.66
563.26	45570.23
563.42	46153.02
563.59	45345.54
563.75	45233.19
563.92	45483.63
564.08	45797.26
564.24	45734.07
564.41	45619.38
564.57	45361.92
564.74	45647.47
564.90	45860.46
565.07	45483.63
565.23	45874.50
565.39	45584.27
565.56	45780.88
565.72	45801.94
565.88	45509.38
566.05	45551.51
566.21	45935.35
566.38	45820.67
566.54	46204.52
566.70	45940.04
566.87	45949.40
567.03	45720.02
567.19	45722.37
567.36	45961.10
567.52	45673.21
567.68	46351.97
567.85	45937.69
568.01	46216.22
568.17	45893.22
568.34	46291.12
568.50	46237.28
568.66	45806.62
568.83	46005.57
568.99	46007.91
569.15	46384.74
569.32	46164.73
569.48	46354.31
569.64	46391.76
569.81	46024.29
569.97	46038.34
570.13	45986.85
570.30	46232.60
570.46	46321.54
570.62	46527.51
570.78	46263.03
570.95	46436.23
571.11	46377.72
571.27	46398.78
571.43	46059.40
571.60	46340.27
571.76	46415.16
571.92	46312.18
572.09	46389.42
572.25	46539.21
572.41	46003.23
572.57	46330.90
572.74	46602.41
572.90	46471.34
573.06	46710.07
573.22	46131.96
573.38	46726.46
573.55	46541.55
573.71	46946.47
573.87	46284.09
574.03	46146.00
574.20	46894.97
574.36	46494.74
574.52	46834.12
574.68	46600.07
574.84	46773.27
575.01	46717.09
575.17	46752.20
575.33	46892.63
575.49	46733.48
575.65	46461.97
575.82	46824.76
575.98	46293.46
576.14	46632.83
576.30	46770.93
576.46	46560.28
576.62	46326.22
576.79	46363.67
576.95	46190.47
577.11	46511.13
577.27	46611.77
577.43	46791.99
577.59	46670.28
577.75	46522.83
577.92	46576.66
578.08	46162.39
578.24	46485.38
578.40	46796.67
578.56	46864.55
578.72	46815.40
578.88	46827.10
579.04	46642.20
579.21	46939.44
579.37	46710.07
579.53	46754.54
579.69	46969.87
579.85	46862.21
580.01	46546.23
580.17	46511.13
580.33	46820.08
580.49	47037.75
580.65	46735.82
580.82	47058.81
580.98	46728.80
581.14	46323.88
581.30	47257.76
581.46	46979.23
581.62	46696.03
581.78	46691.35
581.94	46986.25
582.10	46817.74
582.26	46979.23
582.42	46761.56
582.58	46569.64
582.74	47180.52
582.90	47016.68
583.06	47232.01
583.22	46571.98
583.38	46997.96
583.54	46766.24
583.70	46831.78
583.86	47107.96
584.02	46616.45
584.18	46761.56
584.34	47365.42
584.50	47342.02
584.66	47164.14
584.82	47110.30
584.98	47428.62
585.14	47461.38
585.30	46960.51
585.46	47276.48
585.62	46862.21
585.78	46717.09
585.94	47117.32
586.10	47058.81
586.26	47093.92
586.42	46843.48
586.58	46768.58
586.74	47014.34
586.90	46625.81
587.06	47047.11
587.22	47313.93
587.38	46852.84
587.54	47086.90
587.70	47143.07
587.86	46878.59
588.02	47239.03
588.18	47126.69
588.34	47077.54
588.49	46892.63
588.65	46602.41
588.81	47044.77
588.97	46829.44
589.13	47313.93
589.29	47056.47
589.45	47667.35
589.61	47442.66
589.77	47342.02
589.93	47241.37
590.08	47349.04
