SpectraSuite Data File
++++++++++++++++++++++++++++++++++++
Date: Fri Oct 25 10:47:06 EDT 2013
User: price-jones
Dark Spectrum Present: No
Reference Spectrum Present: No
Number of Sampled Component Spectra: 1
Spectrometers: USB2+H05261
Integration Time (usec): 100000 (USB2+H05261)
Spectra Averaged: 1 (USB2+H05261)
Boxcar Smoothing: 0 (USB2+H05261)
Correct for Electrical Dark: No (USB2+H05261)
Strobe/Lamp Enabled: No (USB2+H05261)
Correct for Detector Non-linearity: No (USB2+H05261)
Correct for Stray Light: No (USB2+H05261)
Number of Pixels in Processed Spectrum: 2048
>>>>>Begin Processed Spectral Data<<<<<
365.73	114.69
365.92	114.69
366.12	114.69
366.32	88.94
366.52	14.04
366.72	30.43
366.91	28.09
367.11	4.68
367.31	21.06
367.51	42.13
367.70	100.64
367.90	14.04
368.10	74.90
368.30	30.43
368.49	88.94
368.69	39.79
368.89	16.38
369.09	46.81
369.28	25.75
369.48	117.03
369.68	88.94
369.87	124.05
370.07	135.75
370.27	152.13
370.47	241.08
370.66	383.85
370.86	362.78
371.06	386.19
371.25	524.28
371.45	414.27
371.65	465.77
371.84	433.00
372.04	456.40
372.24	442.36
372.44	428.32
372.63	465.77
372.83	416.62
373.03	458.74
373.22	496.19
373.42	552.37
373.62	463.43
373.81	519.60
374.01	557.05
374.21	552.37
374.40	540.66
374.60	543.00
374.79	543.00
374.99	592.16
375.19	589.82
375.38	550.03
375.58	608.54
375.78	538.32
375.97	535.98
376.17	594.50
376.37	641.31
376.56	622.58
376.76	561.73
376.95	629.60
377.15	650.67
377.35	655.35
377.54	582.79
377.74	617.90
377.93	615.56
378.13	648.33
378.33	624.92
378.52	599.18
378.72	615.56
378.91	634.29
379.11	641.31
379.31	603.86
379.50	559.39
379.70	676.41
379.89	657.69
380.09	629.60
380.28	671.73
380.48	662.37
380.68	638.97
380.87	573.43
381.07	695.14
381.26	676.41
381.46	655.35
381.65	718.54
381.85	695.14
382.04	653.01
382.24	718.54
382.43	634.29
382.63	688.12
382.83	699.82
383.02	641.31
383.22	734.93
383.41	748.97
383.61	814.51
383.80	669.39
384.00	739.61
384.19	702.16
384.39	744.29
384.58	748.97
384.78	748.97
384.97	842.59
385.17	732.59
385.36	737.27
385.56	746.63
385.75	751.31
385.95	851.96
386.14	791.10
386.34	800.46
386.53	805.14
386.72	760.67
386.92	830.89
387.11	751.31
387.31	763.01
387.50	821.53
387.70	788.76
387.89	816.85
388.09	805.14
388.28	812.17
388.48	819.19
388.67	898.77
388.86	840.25
389.06	903.45
389.25	954.94
389.45	952.60
389.64	861.32
389.84	926.85
390.03	938.55
390.22	947.92
390.42	997.07
390.61	938.55
390.81	971.32
391.00	978.34
391.19	940.90
391.39	922.17
391.58	929.19
391.78	1067.28
391.97	987.71
392.16	940.90
392.36	1013.45
392.55	912.81
392.75	950.26
392.94	1067.28
393.13	980.68
393.33	910.47
393.52	964.30
393.71	990.05
393.91	976.00
394.10	1074.31
394.29	1013.45
394.49	968.98
394.68	1104.73
394.88	1107.07
395.07	1174.95
395.26	1090.69
395.46	1076.65
395.65	1078.99
395.84	1100.05
396.04	1060.26
396.23	1130.48
396.42	1135.16
396.62	1107.07
396.81	1170.27
397.00	1196.01
397.19	1249.85
397.39	1219.42
397.58	1196.01
397.77	1263.89
397.97	1282.61
398.16	1203.04
398.35	1331.76
398.55	1205.38
398.74	1364.53
398.93	1287.29
399.12	1334.11
399.32	1282.61
399.51	1390.28
399.70	1411.34
399.90	1350.49
400.09	1322.40
400.28	1352.83
400.47	1458.15
400.67	1427.73
400.86	1317.72
401.05	1530.71
401.24	1439.43
401.44	1425.39
401.63	1561.14
401.82	1460.49
402.01	1483.90
402.21	1390.28
402.40	1490.92
402.59	1549.43
402.78	1589.22
402.97	1519.01
403.17	1586.88
403.36	1659.44
403.55	1624.33
403.74	1636.03
403.93	1626.67
404.13	1659.44
404.32	1598.59
404.51	1652.42
404.70	1748.38
404.89	1678.16
405.09	1654.76
405.28	1769.44
405.47	1657.10
405.66	1727.32
405.85	1795.19
406.05	1771.79
406.24	1734.34
406.43	1830.30
406.62	1804.55
406.81	1870.09
407.00	1820.94
407.20	1895.83
407.39	1816.26
407.58	1926.26
407.77	1935.62
407.96	1940.30
408.15	2022.22
408.34	2038.61
408.54	2085.42
408.73	1980.09
408.92	1991.80
409.11	2052.65
409.30	1942.64
409.49	2008.18
409.68	1989.46
409.87	1949.67
410.07	2064.35
410.26	2108.82
410.45	2078.40
410.64	2094.78
410.83	2167.34
411.02	2195.42
411.21	2296.07
411.40	2356.92
411.59	2289.04
411.78	2324.15
411.98	2216.49
412.17	2228.19
412.36	2352.24
412.55	2221.17
412.74	2399.05
412.93	2424.80
413.12	2373.30
413.31	2518.42
413.50	2410.75
413.69	2511.39
413.88	2532.46
414.07	2605.02
414.26	2499.69
414.45	2684.59
414.64	2684.59
414.83	2649.49
415.02	2597.99
415.22	2733.75
415.41	2726.72
415.60	2710.34
415.79	2785.24
415.98	2771.19
416.17	2822.69
416.36	2944.39
416.55	2857.79
416.74	2911.63
416.93	2890.56
417.12	3009.93
417.31	2944.39
417.50	3019.29
417.69	3096.53
417.88	2963.12
418.07	3117.59
418.26	3033.33
418.45	3087.17
418.64	3084.83
418.83	3110.57
419.02	3187.81
419.21	3169.09
419.39	3143.34
419.58	3108.23
419.77	3206.53
419.96	3187.81
420.15	3241.64
420.34	3183.13
420.53	3272.07
420.72	3370.37
420.91	3361.01
421.10	3330.58
421.29	3396.12
421.48	3370.37
421.67	3311.86
421.86	3328.24
422.05	3440.59
422.24	3377.39
422.43	3398.46
422.61	3471.01
422.80	3564.64
422.99	3510.80
423.18	3463.99
423.37	3658.26
423.56	3407.82
423.75	3571.66
423.94	3492.08
424.13	3304.84
424.32	3372.71
424.50	3527.19
424.69	3515.48
424.88	3592.72
425.07	3515.48
425.26	3487.40
425.45	3463.99
425.64	3449.95
425.83	3393.78
426.01	3625.49
426.20	3559.95
426.39	3620.81
426.58	3574.00
426.77	3529.53
426.96	3578.68
427.15	3513.14
427.33	3749.54
427.52	3674.64
427.71	3786.99
427.90	3665.28
428.09	3681.66
428.28	3777.62
428.46	3885.29
428.65	3843.16
428.84	3791.67
429.03	3873.59
429.22	3726.13
429.40	3880.61
429.59	3676.98
429.78	3667.62
429.97	3735.50
430.16	3808.05
430.34	3796.35
430.53	3836.14
430.72	3922.74
430.91	3913.38
431.10	3730.81
431.28	3894.65
431.47	4063.17
431.66	4107.64
431.85	4056.15
432.03	3983.59
432.22	4227.01
432.41	4173.18
432.60	4257.43
432.79	4245.73
432.97	4217.65
433.16	4163.81
433.35	4035.08
433.54	4173.18
433.72	4102.96
433.91	4208.28
434.10	4243.39
434.28	4311.27
434.47	4376.80
434.66	4402.55
434.85	4510.21
435.03	4514.89
435.22	4484.47
435.41	4559.36
435.59	4491.49
435.78	4503.19
435.97	4669.37
436.16	4594.47
436.34	4554.68
436.53	4528.94
436.72	4664.69
436.90	4538.30
437.09	4550.00
437.28	4528.94
437.46	4711.50
437.65	4615.54
437.84	4685.75
438.02	4664.69
438.21	4643.62
438.40	4645.96
438.58	4856.61
438.77	4842.57
438.96	4812.14
439.14	4851.93
439.33	5107.05
439.52	4990.02
439.70	4966.62
439.89	5114.07
440.08	4940.87
440.26	5107.05
440.45	5027.47
440.63	5221.74
440.82	5352.81
441.01	5100.03
441.19	5238.12
441.38	5401.96
441.57	5418.34
441.75	5352.81
441.94	5582.18
442.12	5626.65
442.31	5605.58
442.50	5572.82
442.68	5533.03
442.87	5699.20
443.05	5778.78
443.24	5781.12
443.43	5832.62
443.61	5760.06
443.80	5776.44
443.98	5771.76
444.17	5540.05
444.35	5738.99
444.54	5966.03
444.73	5689.84
444.91	5788.14
445.10	5724.95
445.28	5874.74
445.47	5708.57
445.65	5518.98
445.84	5884.11
446.02	6008.16
446.21	6040.92
446.39	5785.80
446.58	6054.97
446.77	5975.39
446.95	5872.40
447.14	5830.27
447.32	5987.09
447.51	5980.07
447.69	5914.53
447.88	5996.45
448.06	5933.26
448.25	6022.20
448.43	6012.84
448.62	5879.43
448.80	5846.66
448.99	6057.31
449.17	6015.18
449.36	6019.86
449.54	5998.79
449.73	6291.36
449.91	6396.68
450.10	6338.17
450.28	6270.30
450.46	6263.27
450.65	6312.42
450.83	6303.06
451.02	6464.56
451.20	6370.94
451.39	6413.07
451.57	6431.79
451.76	6223.48
451.94	6392.00
452.13	6326.47
452.31	6420.09
452.49	6331.15
452.68	6401.37
452.86	6497.33
453.05	6455.20
453.23	6499.67
453.42	6682.23
453.60	6602.65
453.78	6738.40
453.97	6574.56
454.15	6466.90
454.34	6492.65
454.52	6614.35
454.70	6626.06
454.89	6551.16
455.07	6684.57
455.26	6867.13
455.44	6700.95
455.62	6796.92
455.81	6848.41
455.99	6876.49
456.17	7040.33
456.36	6874.15
456.54	6956.07
456.73	7117.57
456.91	7171.40
457.09	7152.68
457.28	7300.13
457.46	7220.55
457.64	7096.50
457.83	7229.91
458.01	7037.99
458.19	7328.22
458.38	7258.00
458.56	7206.51
458.74	7279.07
458.93	7400.77
459.11	7417.16
459.29	7527.16
459.48	7269.70
459.66	7501.42
459.84	7503.76
460.03	7566.95
460.21	7440.56
460.39	7508.44
460.57	7590.36
460.76	7569.29
460.94	7798.66
461.12	7698.02
461.31	7852.50
461.49	7768.24
461.67	7793.98
461.85	8004.63
462.04	7721.43
462.22	8414.23
462.40	8006.97
462.59	8049.10
462.77	7826.75
462.95	7953.14
463.13	7957.82
463.32	7969.52
463.50	8161.45
463.68	8025.70
463.86	8149.75
464.05	8028.04
464.23	8187.19
464.41	8217.62
464.59	7831.43
464.78	8231.66
464.96	8208.26
465.14	8159.11
465.32	8257.41
465.50	8341.67
465.69	8404.86
465.87	8257.41
466.05	8346.35
466.23	8145.06
466.41	8182.51
466.60	8643.60
466.78	8306.56
466.96	8376.78
467.14	8505.51
467.32	8472.74
467.51	8528.91
467.69	8238.69
467.87	8559.34
468.05	8622.53
468.23	8475.08
468.41	8531.25
468.60	8566.36
468.78	8468.06
468.96	8315.92
469.14	8624.87
469.32	8758.28
469.50	8704.45
469.69	8737.22
469.87	9060.21
470.05	8924.46
470.23	8966.59
470.41	8835.52
470.59	8952.55
470.77	8947.87
470.95	8924.46
471.14	9130.43
471.32	8924.46
471.50	9078.94
471.68	9156.18
471.86	9221.71
472.04	9275.54
472.22	9614.92
472.40	9252.14
472.58	9341.08
472.77	9310.65
472.95	9441.72
473.13	9654.71
473.31	9483.85
473.49	9614.92
473.67	9605.56
473.85	9610.24
474.03	9806.84
474.21	9980.04
474.39	9982.38
474.57	9818.55
474.75	9989.41
474.93	10057.28
475.12	9961.32
475.30	10230.48
475.48	10047.92
475.66	10204.74
475.84	10169.63
476.02	10197.71
476.20	10448.15
476.38	10637.73
476.56	10913.92
476.74	10705.61
476.92	10487.94
477.10	10738.38
477.28	10633.05
477.46	10867.11
477.64	11140.95
477.82	11080.10
478.00	11190.10
478.18	11185.42
478.36	11323.51
478.54	11421.81
478.72	11599.70
478.90	11761.19
479.08	11683.95
479.26	11934.39
479.44	11726.08
479.62	11974.18
479.80	11953.12
479.98	12163.76
480.16	12308.88
480.34	12177.81
480.52	12374.41
480.70	12290.15
480.88	11967.16
481.06	12482.08
481.24	12678.68
481.41	12730.17
481.59	12943.16
481.77	13111.68
481.95	12950.18
482.13	13256.79
482.31	13032.10
482.49	13561.06
482.67	13476.80
482.85	13729.58
483.03	13528.30
483.21	14008.11
483.39	13916.83
483.57	13820.86
483.74	13902.78
483.92	14183.65
484.10	14083.00
484.28	14408.34
484.46	14443.45
484.64	14651.75
484.82	14654.09
485.00	14604.94
485.18	15133.90
485.35	15323.49
485.53	14754.74
485.71	14787.50
485.89	15293.06
486.07	15157.31
486.25	15096.46
486.43	15585.63
486.61	15531.80
486.78	15868.83
486.96	15873.51
487.14	16201.19
487.32	16414.18
487.50	16540.57
487.68	16561.63
487.85	16657.59
488.03	16870.58
488.21	16926.75
488.39	16973.56
488.57	17186.55
488.75	17240.39
488.92	17432.31
489.10	17579.76
489.28	17778.71
489.46	17614.87
489.64	17682.75
489.81	18270.22
489.99	18080.64
490.17	18562.79
490.35	18614.28
490.53	18434.06
490.70	18824.93
490.88	18490.23
491.06	18977.06
491.24	18946.64
491.41	18785.14
491.59	19066.00
491.77	19042.60
491.95	19534.11
492.13	19552.84
492.30	19623.05
492.48	19946.05
492.66	19749.44
492.84	19840.72
493.01	20133.29
493.19	20025.62
493.37	20376.70
493.54	20072.43
493.72	20606.08
493.90	20643.52
494.08	20631.82
494.25	21341.00
494.43	21181.85
494.61	21315.26
494.79	21102.27
494.96	21434.63
495.14	21446.33
495.32	21525.91
495.49	21823.16
495.67	21783.37
495.85	21961.25
496.02	21654.64
496.20	22361.48
496.38	22253.81
496.55	22246.79
496.73	23002.78
496.91	22195.30
497.09	22546.38
497.26	22955.97
497.44	23143.22
497.62	23075.34
497.79	23531.75
497.97	23098.75
498.14	23241.52
498.32	23463.87
498.50	23548.13
498.67	23676.86
498.85	23697.92
499.03	23836.02
499.20	23700.26
499.38	24226.89
499.56	24247.95
499.73	24322.85
499.91	24353.27
500.08	24669.25
500.26	24269.01
500.44	24669.25
500.61	24467.96
500.79	24489.03
500.97	24645.84
501.14	24879.89
501.32	25333.96
501.49	25277.79
501.67	25174.80
501.84	25324.60
502.02	25350.34
502.20	25687.38
502.37	25549.29
502.55	25621.84
502.72	25886.32
502.90	26008.03
503.07	25785.68
503.25	25827.81
503.43	26099.31
503.60	26162.51
503.78	26300.60
503.95	25977.61
504.13	26335.71
504.30	26473.80
504.48	26382.52
504.65	26494.86
504.83	26806.16
505.01	27108.08
505.18	26848.29
505.36	27250.86
505.53	27206.39
505.71	27072.98
505.88	27026.17
506.06	26780.41
506.23	27529.38
506.41	27337.46
506.58	27599.60
506.76	27843.01
506.93	27445.12
507.11	27594.92
507.28	27978.76
507.46	27601.94
507.63	27550.45
507.81	28105.15
507.98	28137.92
508.16	28362.61
508.33	28257.29
508.50	28599.01
508.68	28161.33
508.85	28510.07
509.03	28627.09
509.20	28491.34
509.38	28947.75
509.55	28814.34
509.73	29067.11
509.90	28905.62
510.08	28957.11
510.25	29153.71
510.42	29263.72
510.60	29378.40
510.77	29200.52
510.95	29507.13
511.12	29209.89
511.30	29514.16
511.47	29750.55
511.64	29596.07
511.82	29872.26
511.99	29652.25
512.17	29970.56
512.34	29701.40
512.51	30106.31
512.69	30384.83
512.86	30354.41
513.04	30441.01
513.21	30642.29
513.38	30614.21
513.56	30480.80
513.73	30331.00
513.90	30848.26
514.08	30494.84
514.25	31112.74
514.43	31297.64
514.60	30724.21
514.77	30813.15
514.95	31318.71
515.12	31386.58
515.29	31154.87
515.47	31445.10
515.64	31899.16
515.81	31606.59
515.99	31143.17
516.16	31723.62
516.33	31592.55
516.51	31608.93
516.68	31489.57
516.85	31405.31
517.03	31494.25
517.20	31929.59
517.37	31922.57
517.54	32123.85
517.72	32116.83
517.89	31784.48
518.06	32378.97
518.24	31718.94
518.41	32154.28
518.58	32203.43
518.75	32011.51
518.93	32404.72
519.10	32744.09
519.27	32669.20
519.45	32732.39
519.62	33031.98
519.79	32877.51
519.96	32912.61
520.14	33235.61
520.31	32982.83
520.48	33563.28
520.65	33422.85
520.83	33766.91
521.00	33926.07
521.17	33703.71
521.34	33713.08
521.52	33846.49
521.69	33537.54
521.86	33659.24
522.03	33668.61
522.20	34040.75
522.38	33727.12
522.55	34110.97
522.72	34354.38
522.89	34094.58
523.07	34251.40
523.24	34071.18
523.41	34274.80
523.58	34139.05
523.75	34550.99
523.92	34504.18
524.10	34707.80
524.27	34735.89
524.44	35227.40
524.61	35150.17
524.78	34941.86
524.96	35206.34
525.13	35309.32
525.30	35426.35
525.47	35552.74
525.64	35194.64
525.81	35157.19
525.98	35311.66
526.16	34988.67
526.33	35262.51
526.50	35681.47
526.67	35173.57
526.84	35620.61
527.01	35026.12
527.18	35344.43
527.36	35761.05
527.53	35637.00
527.70	35896.80
527.87	36142.55
528.04	35697.85
528.21	35922.54
528.38	36191.70
528.55	36376.61
528.72	36552.15
528.89	36472.57
529.07	36268.94
529.24	36603.64
529.41	36435.12
529.58	36362.56
529.75	36411.71
529.92	36519.38
530.09	37132.60
530.26	36425.76
530.43	36905.57
530.60	36954.72
530.77	36353.20
530.94	36720.66
531.11	37104.51
531.28	37067.06
531.46	37319.84
531.63	37383.04
531.80	37347.93
531.97	37390.06
532.14	36999.19
532.31	36971.10
532.48	37111.53
532.65	37266.01
532.82	37521.13
532.99	38150.73
533.16	37191.11
533.33	37057.70
533.50	37645.18
533.67	37347.93
533.84	37013.23
534.01	37425.17
534.18	37879.23
534.35	38024.34
534.52	37755.18
534.69	37926.04
534.86	37919.02
535.03	37855.82
535.20	38459.68
535.37	38560.33
535.54	38359.04
535.71	38328.61
535.88	37998.60
536.05	38408.19
536.22	38487.77
536.38	38213.93
536.55	38433.94
536.72	38396.49
536.89	38054.77
537.06	38487.77
537.23	39173.55
537.40	38352.02
537.57	38478.41
537.74	38759.27
537.91	38892.68
538.08	39089.29
538.25	38597.77
538.42	39152.48
538.59	38710.12
538.75	38618.84
538.92	39180.57
539.09	38806.08
539.26	39234.40
539.43	39115.03
539.60	39456.75
539.77	38845.87
539.94	39416.96
540.11	38490.11
540.28	39210.99
540.44	39220.36
540.61	38920.77
540.78	39098.65
540.95	39632.29
541.12	39206.31
541.29	39414.62
541.46	39828.90
541.62	39550.37
541.79	39859.32
541.96	39580.80
542.13	39482.50
542.30	39454.41
542.47	39880.39
542.63	39543.35
542.80	40055.93
542.97	40334.45
543.14	40612.98
543.31	40327.43
543.48	40650.42
543.64	40540.42
543.81	40758.09
543.98	40547.44
544.15	40690.21
544.32	40512.33
544.48	40968.74
544.65	40734.68
544.82	40643.40
544.99	40233.81
545.16	40685.53
545.32	40694.89
545.49	40950.01
545.66	40793.20
545.83	41076.40
546.00	41015.55
546.16	41209.81
546.33	40931.29
546.50	40509.99
546.67	40711.28
546.83	40591.91
547.00	40692.55
547.17	41165.34
547.34	41228.54
547.50	41460.25
547.67	41352.58
547.84	40945.33
548.00	41198.11
548.17	41593.66
548.34	40769.79
548.51	41525.78
548.67	41610.04
548.84	41455.57
549.01	41687.28
549.18	41551.53
549.34	41741.11
549.51	41799.63
549.68	41635.79
549.84	41741.11
550.01	41874.52
550.18	41806.65
550.34	41698.98
550.51	41851.12
550.68	41577.28
550.84	41750.48
551.01	42204.54
551.18	41375.99
551.34	41563.23
551.51	41799.63
551.68	42288.80
551.84	42389.44
552.01	42131.98
552.18	41897.93
552.34	41982.19
552.51	42370.72
552.68	42110.92
552.84	42012.62
553.01	42564.98
553.18	42291.14
553.34	42284.12
553.51	42181.13
553.67	41937.72
553.84	42281.78
554.01	42155.39
554.17	42611.79
554.34	43016.71
554.51	42850.53
554.67	42953.51
554.84	43484.81
555.00	42469.02
555.17	42665.63
555.33	42873.93
555.50	42389.44
555.67	42775.63
555.83	42813.08
556.00	42663.28
556.16	43068.20
556.33	42787.33
556.50	42614.13
556.66	43028.41
556.83	42773.29
556.99	43105.65
557.16	43400.55
557.32	43089.26
557.49	43107.99
557.65	43021.39
557.82	43000.32
557.98	43007.34
558.15	43084.58
558.32	43571.41
558.48	43007.34
558.65	43660.35
558.81	43159.48
558.98	43016.71
559.14	42960.53
559.31	43356.08
559.47	43381.83
559.64	43070.54
559.80	43180.54
559.97	42878.61
560.13	43168.84
560.30	42918.40
560.46	43339.70
560.63	43208.63
560.79	43782.06
560.96	43622.90
561.12	43407.58
561.29	43594.82
561.45	43358.42
561.61	43662.69
561.78	43555.03
561.94	43234.38
562.11	43342.04
562.27	43267.14
562.44	43353.74
562.60	43683.76
562.77	43765.68
562.93	43414.60
563.10	43796.10
563.26	43704.82
563.42	43548.01
563.59	43323.32
563.75	43456.73
563.92	43873.34
564.08	43573.75
564.24	43849.94
564.41	43758.66
564.57	43779.72
564.74	43775.04
564.90	44107.40
565.07	43833.55
565.23	43768.02
565.39	43452.05
565.56	43842.92
565.72	43915.47
565.88	43924.83
566.05	43878.02
566.21	44079.31
566.38	43831.21
566.54	43753.97
566.70	44046.54
566.87	44353.15
567.03	44032.50
567.19	44058.24
567.36	43761.00
567.52	43587.80
567.68	43938.88
567.85	43739.93
568.01	43938.88
568.17	43952.92
568.34	44486.56
568.50	43798.44
568.66	43896.75
568.83	44500.61
568.99	43735.25
569.15	43999.73
569.32	44266.55
569.48	43981.01
569.64	44215.06
569.81	43971.64
569.97	43746.95
570.13	44217.40
570.30	43924.83
570.46	43915.47
570.62	43407.58
570.78	43707.16
570.95	44034.84
571.11	44252.51
571.27	44135.48
571.43	44046.54
571.60	44598.91
571.76	44098.03
571.92	43873.34
572.09	43718.87
572.25	44198.68
572.41	44009.09
572.57	44783.81
572.74	44626.99
572.90	44488.90
573.06	44397.62
573.22	44629.34
573.38	44107.40
573.55	43859.30
573.71	44168.25
573.87	44355.49
574.03	44156.55
574.20	44547.42
574.36	44034.84
574.52	44538.05
574.68	44296.98
574.84	44666.78
575.01	44048.88
575.17	44044.20
575.33	44374.22
575.49	44556.78
575.65	44664.44
575.82	44395.28
575.98	44275.91
576.14	45275.32
576.30	44699.55
576.46	44229.10
576.62	44172.93
576.79	44687.85
576.95	44126.12
577.11	44367.20
577.27	44439.75
577.43	44474.86
577.59	44271.23
577.75	44737.00
577.92	44264.21
578.08	44311.02
578.24	44123.78
578.40	44280.60
578.56	44868.07
578.72	44233.78
578.88	44671.46
579.04	44779.13
579.21	44498.26
579.37	44025.48
579.53	44299.32
579.69	44552.10
579.85	44509.97
580.01	44304.00
580.17	44619.97
580.33	44280.60
580.49	44346.13
580.65	44772.11
580.82	44893.82
580.98	44697.21
581.14	44809.56
581.30	44781.47
581.46	44556.78
581.62	44425.71
581.78	44229.10
581.94	45052.97
582.10	44776.79
582.26	44584.86
582.42	44311.02
582.58	44287.62
582.74	43892.07
582.90	44336.77
583.06	44629.34
583.22	44512.31
583.38	44254.85
583.54	44561.46
583.70	44683.17
583.86	44463.16
584.02	44095.69
584.18	44636.36
584.34	44261.87
584.50	44725.30
584.66	44573.16
584.82	44659.76
584.98	44725.30
585.14	44809.56
585.30	44435.07
585.46	44526.35
585.62	44547.42
585.78	44676.15
585.94	44313.36
586.10	44247.83
586.26	44453.79
586.42	44460.82
586.58	44928.92
586.74	44664.44
586.90	44268.89
587.06	44095.69
587.22	44498.26
587.38	44601.25
587.54	44725.30
587.70	45244.90
587.86	44645.72
588.02	44889.13
588.18	44861.05
588.34	44612.95
588.49	44421.03
588.65	44018.46
588.81	44442.09
588.97	44308.68
589.13	44348.47
589.29	44603.59
589.45	44905.52
589.61	44856.37
589.77	44875.09
589.93	44755.72
590.08	44980.42
590.24	45050.63
