SpectraSuite Data File
++++++++++++++++++++++++++++++++++++
Date: Fri Oct 25 10:48:26 EDT 2013
User: price-jones
Dark Spectrum Present: No
Reference Spectrum Present: No
Number of Sampled Component Spectra: 1
Spectrometers: USB2+H05261
Integration Time (usec): 100000 (USB2+H05261)
Spectra Averaged: 1 (USB2+H05261)
Boxcar Smoothing: 0 (USB2+H05261)
Correct for Electrical Dark: No (USB2+H05261)
Strobe/Lamp Enabled: No (USB2+H05261)
Correct for Detector Non-linearity: No (USB2+H05261)
Correct for Stray Light: No (USB2+H05261)
Number of Pixels in Processed Spectrum: 2048
>>>>>Begin Processed Spectral Data<<<<<
365.73	145.11
365.92	145.11
366.12	145.11
366.32	56.17
366.52	72.56
366.72	110.01
366.91	91.28
367.11	37.45
367.31	0.00
367.51	0.00
367.70	32.77
367.90	56.17
368.10	35.11
368.30	72.56
368.49	51.49
368.69	28.09
368.89	65.54
369.09	84.26
369.28	95.96
369.48	35.11
369.68	42.13
369.87	121.71
370.07	86.60
370.27	88.94
370.47	210.65
370.66	374.49
370.86	461.09
371.06	440.02
371.25	543.00
371.45	449.38
371.65	543.00
371.84	475.13
372.04	468.11
372.24	540.66
372.44	470.45
372.63	512.58
372.83	554.71
373.03	470.45
373.22	442.36
373.42	491.51
373.62	571.09
373.81	599.18
374.01	610.88
374.21	552.37
374.40	585.13
374.60	671.73
374.79	535.98
374.99	535.98
375.19	505.56
375.38	629.60
375.58	594.50
375.78	571.09
375.97	608.54
376.17	671.73
376.37	608.54
376.56	648.33
376.76	601.52
376.95	629.60
377.15	627.26
377.35	624.92
377.54	610.88
377.74	599.18
377.93	657.69
378.13	727.91
378.33	653.01
378.52	643.65
378.72	706.84
378.91	664.71
379.11	641.31
379.31	695.14
379.50	683.44
379.70	606.20
379.89	699.82
380.09	664.71
380.28	758.33
380.48	709.18
380.68	655.35
380.87	699.82
381.07	660.03
381.26	608.54
381.46	690.46
381.65	706.84
381.85	741.95
382.04	737.27
382.24	734.93
382.43	697.48
382.63	713.86
382.83	674.07
383.02	795.78
383.22	739.61
383.41	704.50
383.61	667.05
383.80	784.08
384.00	744.29
384.19	833.23
384.39	802.80
384.58	823.87
384.78	823.87
384.97	837.91
385.17	807.48
385.36	873.02
385.56	814.51
385.75	788.76
385.95	760.67
386.14	802.80
386.34	866.00
386.53	882.38
386.72	763.01
386.92	826.21
387.11	819.19
387.31	854.30
387.50	875.36
387.70	891.74
387.89	924.51
388.09	905.79
388.28	795.78
388.48	947.92
388.67	823.87
388.86	837.91
389.06	976.00
389.25	940.90
389.45	952.60
389.64	957.28
389.84	1022.81
390.03	966.64
390.22	964.30
390.42	992.39
390.61	1078.99
390.81	1076.65
391.00	1053.24
391.19	1027.50
391.39	1095.37
391.58	1036.86
391.78	983.02
391.97	1013.45
392.16	1046.22
392.36	1004.09
392.55	1015.79
392.75	987.71
392.94	947.92
393.13	1034.52
393.33	978.34
393.52	1074.31
393.71	1076.65
393.91	1172.61
394.10	1156.22
394.29	1116.44
394.49	1186.65
394.68	1160.91
394.88	1172.61
395.07	1247.51
395.26	1221.76
395.46	1249.85
395.65	1247.51
395.84	1242.82
396.04	1296.66
396.23	1226.44
396.42	1146.86
396.62	1151.54
396.81	1196.01
397.00	1268.57
397.19	1252.19
397.39	1287.29
397.58	1263.89
397.77	1373.89
397.97	1352.83
398.16	1416.02
398.35	1460.49
398.55	1376.24
398.74	1446.45
398.93	1458.15
399.12	1434.75
399.32	1411.34
399.51	1474.54
399.70	1495.60
399.90	1535.39
400.09	1493.26
400.28	1556.46
400.47	1530.71
400.67	1643.06
400.86	1540.07
401.05	1579.86
401.24	1554.12
401.44	1668.80
401.63	1673.48
401.82	1558.80
402.01	1645.40
402.21	1533.05
402.40	1643.06
402.59	1624.33
402.78	1680.50
402.97	1671.14
403.17	1743.70
403.36	1785.83
403.55	1713.27
403.74	1727.32
403.93	1729.66
404.13	1834.98
404.32	1865.41
404.51	1856.04
404.70	1804.55
404.89	1771.79
405.09	1923.92
405.28	1886.47
405.47	1790.51
405.66	1891.15
405.85	1825.62
406.05	1928.60
406.24	1952.01
406.43	2038.61
406.62	2036.27
406.81	2104.14
407.00	1870.09
407.20	2052.65
407.39	2085.42
407.58	2101.80
407.77	2106.48
407.96	2078.40
408.15	2162.66
408.34	2120.53
408.54	2139.25
408.73	2186.06
408.92	2249.25
409.11	2239.89
409.30	2207.13
409.49	2225.85
409.68	2200.10
409.87	2155.63
410.07	2249.25
410.26	2356.92
410.45	2265.64
410.64	2401.39
410.83	2403.73
411.02	2312.45
411.21	2497.35
411.40	2303.09
411.59	2506.71
411.78	2480.97
411.98	2509.05
412.17	2499.69
412.36	2644.81
412.55	2586.29
412.74	2626.08
412.93	2600.34
413.12	2574.59
413.31	2616.72
413.50	2544.16
413.69	2682.25
413.88	2789.92
414.07	2771.19
414.26	2853.11
414.45	2923.33
414.64	2778.22
414.83	2935.03
415.02	2895.24
415.22	2986.52
415.41	3026.31
415.60	3000.57
415.79	3019.29
415.98	3038.02
416.17	3063.76
416.36	3075.46
416.55	2939.71
416.74	3309.52
416.93	3178.45
417.12	3164.40
417.31	3213.56
417.50	3178.45
417.69	3269.73
417.88	3288.45
418.07	3316.54
418.26	3297.81
418.45	3358.67
418.64	3449.95
418.83	3400.80
419.02	3370.37
419.21	3487.40
419.39	3442.93
419.58	3463.99
419.77	3370.37
419.96	3459.31
420.15	3667.62
420.34	3513.14
420.53	3562.30
420.72	3679.32
420.91	3707.41
421.10	3791.67
421.29	3714.43
421.48	3857.20
421.67	3695.71
421.86	3707.41
422.05	3698.05
422.24	3641.87
422.43	3815.07
422.61	3653.58
422.80	3639.53
422.99	3763.58
423.18	3747.20
423.37	3871.25
423.56	3838.48
423.75	3819.75
423.94	3730.81
424.13	3576.34
424.32	3574.00
424.50	3763.58
424.69	3796.35
424.88	3880.61
425.07	3815.07
425.26	3786.99
425.45	3794.01
425.64	3805.71
425.83	3932.10
426.01	3770.60
426.20	3733.15
426.39	3882.95
426.58	3831.46
426.77	3850.18
426.96	3859.54
427.15	3932.10
427.33	4023.38
427.52	3948.48
427.71	3990.61
427.90	3939.12
428.09	4037.42
428.28	4173.18
428.46	4053.81
428.65	4046.79
428.84	4205.94
429.03	4348.72
429.22	3981.25
429.40	4093.60
429.59	3889.97
429.78	3845.50
429.97	3964.87
430.16	3878.27
430.34	3999.98
430.53	4147.43
430.72	4107.64
430.91	4081.89
431.10	4088.92
431.28	4259.78
431.47	4573.41
431.66	4519.57
431.85	4430.63
432.03	4517.23
432.22	4582.77
432.41	4503.19
432.60	4524.26
432.79	4510.21
432.97	4589.79
433.16	4526.60
433.35	4367.44
433.54	4608.51
433.72	4475.10
433.91	4629.58
434.10	4627.24
434.28	4561.70
434.47	4725.54
434.66	4730.22
434.85	4922.15
435.03	4744.27
435.22	4751.29
435.41	4926.83
435.59	4959.60
435.78	4865.97
435.97	4973.64
436.16	4978.32
436.34	5109.39
436.53	4947.89
436.72	5057.90
436.90	4901.08
437.09	5083.64
437.28	4858.95
437.46	5036.83
437.65	5006.41
437.84	5055.56
438.02	5118.75
438.21	5036.83
438.40	4905.76
438.58	5270.89
438.77	5259.18
438.96	5296.63
439.14	5336.42
439.33	5401.96
439.52	5352.81
439.70	5317.70
439.89	5369.19
440.08	5441.75
440.26	5369.19
440.45	5526.00
440.63	5626.65
440.82	5783.46
441.01	5696.86
441.19	5720.27
441.38	5788.14
441.57	5926.24
441.75	6033.90
441.94	5888.79
442.12	5989.43
442.31	6143.91
442.50	6176.67
442.68	6155.61
442.87	6054.97
443.05	6064.33
443.24	6317.11
443.43	6253.91
443.61	6139.23
443.80	6216.46
443.98	6033.90
444.17	6150.93
444.35	6277.32
444.54	6211.78
444.73	6216.46
444.91	5996.45
445.10	6459.88
445.28	6120.50
445.47	6139.23
445.65	6157.95
445.84	6324.13
446.02	6307.74
446.21	6300.72
446.39	6251.57
446.58	6338.17
446.77	6382.64
446.95	6354.55
447.14	6401.37
447.32	6527.75
447.51	6483.28
447.69	6459.88
447.88	6649.46
448.06	6485.62
448.25	6413.07
448.43	6738.40
448.62	6607.33
448.80	6499.67
448.99	6476.26
449.17	6731.38
449.36	6525.41
449.54	6668.19
449.73	6958.41
449.91	6984.16
450.10	6913.94
450.28	7016.93
450.46	6942.03
450.65	6878.83
450.83	6902.24
451.02	6913.94
451.20	7068.42
451.39	6951.39
451.57	7002.88
451.76	6965.43
451.94	6988.84
452.13	6895.22
452.31	6935.01
452.49	6970.12
452.68	7037.99
452.86	6885.86
453.05	7136.29
453.23	7236.94
453.42	7082.46
453.60	7005.22
453.78	7105.87
453.97	7016.93
454.15	7115.23
454.34	7007.56
454.52	7241.62
454.70	7260.34
454.89	7192.47
455.07	7386.73
455.26	7426.52
455.44	7393.75
455.62	7433.54
455.81	7377.37
455.99	7475.67
456.17	7515.46
456.36	7562.27
456.54	7541.21
456.73	7648.87
456.91	7903.99
457.09	7758.88
457.28	7985.91
457.46	7676.96
457.64	7779.94
457.83	7822.07
458.01	7791.64
458.19	7896.97
458.38	7892.29
458.56	7843.14
458.74	8013.99
458.93	7866.54
459.11	8016.33
459.29	7995.27
459.48	8112.30
459.66	7929.74
459.84	8121.66
460.03	7997.61
460.21	8170.81
460.39	8252.73
460.57	8142.72
460.76	8285.50
460.94	8145.06
461.12	8379.12
461.31	8283.16
461.49	8351.03
461.67	8339.33
461.85	8610.83
462.04	8531.25
462.22	9041.49
462.40	8526.57
462.59	8542.96
462.77	8489.12
462.95	8793.39
463.13	8805.10
463.32	8592.11
463.50	8748.92
463.68	8713.81
463.86	8795.73
464.05	8587.43
464.23	8608.49
464.41	8690.41
464.59	8587.43
464.78	8812.12
464.96	8718.50
465.14	8699.77
465.32	9085.96
465.50	9067.24
465.69	8985.32
465.87	9004.04
466.05	8879.99
466.23	8774.67
466.41	8887.01
466.60	9315.33
466.78	9013.40
466.96	9109.36
467.14	9446.40
467.32	9107.02
467.51	9034.47
467.69	8905.74
467.87	9249.80
468.05	9074.26
468.23	8950.21
468.41	9102.34
468.60	9266.18
468.78	9362.14
468.96	9170.22
469.14	9502.58
469.32	9401.93
469.50	9315.33
469.69	9413.63
469.87	9687.48
470.05	9488.53
470.23	9523.64
470.41	9757.69
470.59	9568.11
470.77	9572.79
470.95	9776.42
471.14	9947.28
471.32	9799.82
471.50	9926.21
471.68	9516.62
471.86	10054.94
472.04	9973.02
472.22	10356.87
472.40	9975.36
472.58	10148.56
472.77	9989.41
472.95	10193.03
473.13	10546.45
473.31	10157.92
473.49	9980.04
473.67	10265.59
473.85	10260.91
474.03	10473.90
474.21	10640.08
474.39	10651.78
474.57	10586.24
474.75	10902.22
474.93	10892.85
475.12	10834.34
475.30	10895.19
475.48	10911.58
475.66	10906.90
475.84	10981.79
476.02	11068.39
476.20	11016.90
476.38	11309.47
476.56	11403.09
476.74	11463.94
476.92	11580.97
477.10	11690.98
477.28	11599.70
477.46	11681.61
477.64	11861.84
477.82	11922.69
478.00	12056.10
478.18	12025.67
478.36	12201.21
478.54	12283.13
478.72	12105.25
478.90	12549.95
479.08	12442.29
479.26	12627.19
479.44	12992.31
479.62	12901.03
479.80	12863.58
479.98	12961.89
480.16	13343.39
480.34	13013.38
480.52	13390.20
480.70	13275.52
480.88	13301.26
481.06	13500.21
481.24	13474.46
481.41	13547.02
481.59	13891.08
481.77	13944.91
481.95	13942.57
482.13	14162.58
482.31	14146.20
482.49	14607.28
482.67	14221.10
482.85	14616.65
483.03	14925.60
483.21	14831.97
483.39	15061.35
483.57	14956.02
483.74	15456.90
483.92	15342.21
484.10	15323.49
484.28	15255.61
484.46	15733.08
484.64	16067.78
484.82	15606.69
485.00	15913.30
485.18	15957.77
485.35	16201.19
485.53	15845.43
485.71	15599.67
485.89	16365.03
486.07	15829.04
486.25	16355.66
486.43	16540.57
486.61	16814.41
486.78	16992.29
486.96	16886.97
487.14	17193.58
487.32	17128.04
487.50	17350.39
487.68	17902.76
487.85	17970.63
488.03	17954.25
488.21	18389.59
488.39	17996.38
488.57	18340.44
488.75	18214.05
488.92	18586.19
489.10	18871.74
489.28	19007.49
489.46	19234.52
489.64	19403.04
489.81	19620.71
489.99	19531.77
490.17	19782.21
490.35	19988.18
490.53	19707.31
490.70	19709.65
490.88	19953.07
491.06	20615.44
491.24	20229.25
491.41	20472.67
491.59	20493.73
491.77	20482.03
491.95	20620.12
492.13	21036.74
492.30	21289.51
492.48	21298.88
492.66	21303.56
492.84	21385.47
493.01	21556.33
493.19	21696.77
493.37	21692.08
493.54	21837.20
493.72	22370.84
493.90	22040.82
494.08	22253.81
494.25	22508.93
494.43	22656.39
494.61	22691.49
494.79	22530.00
494.96	22813.20
495.14	22827.24
495.32	23068.32
495.49	22878.74
495.67	23197.05
495.85	23623.03
496.02	23597.28
496.20	23711.97
496.38	23953.04
496.55	23735.37
496.73	24697.33
496.91	24173.05
497.09	23999.85
497.26	24458.60
497.44	24542.86
497.62	24915.00
497.79	24896.28
497.97	24519.45
498.14	24835.42
498.32	25039.05
498.50	25481.41
498.67	25563.33
498.85	25481.41
499.03	25975.27
499.20	25446.30
499.38	25762.28
499.56	25771.64
499.73	25685.04
499.91	26122.72
500.08	25750.57
500.26	25671.00
500.44	26019.74
500.61	26295.92
500.79	25839.51
500.97	26192.94
501.14	26904.46
501.32	27009.78
501.49	26609.55
501.67	26508.91
501.84	26691.47
502.02	26838.92
502.20	26916.16
502.37	27489.59
502.55	27241.50
502.72	27353.84
502.90	27648.75
503.07	27456.82
503.25	27604.28
503.43	27402.99
503.60	27466.19
503.78	27967.06
503.95	27615.98
504.13	28112.17
504.30	27887.48
504.48	27864.08
504.65	28173.03
504.83	28701.99
505.01	28687.95
505.18	28423.47
505.36	28718.37
505.53	29003.92
505.71	29214.57
505.88	29202.86
506.06	28795.61
506.23	28793.27
506.41	28943.06
506.58	29165.42
506.76	29151.37
506.93	29542.24
507.11	29221.59
507.28	29434.58
507.46	29483.73
507.63	29174.78
507.81	29598.41
507.98	30043.12
508.16	29654.59
508.33	30279.51
508.50	30045.46
508.68	30213.98
508.85	30518.25
509.03	30197.59
509.20	30494.84
509.38	30487.82
509.55	30801.45
509.73	30764.00
509.90	30686.76
510.08	30913.80
510.25	31070.61
510.42	30820.17
510.60	31379.56
510.77	31461.48
510.95	31108.06
511.12	31189.98
511.30	31524.68
511.47	31819.58
511.64	31924.91
511.82	31803.20
511.99	31669.79
512.17	31826.60
512.34	31697.88
512.51	31931.93
512.69	32004.49
512.86	32086.40
513.04	32339.18
513.21	32514.72
513.38	32652.81
513.56	32240.88
513.73	32297.05
513.90	32343.86
514.08	32793.25
514.25	32690.26
514.43	32278.33
514.60	32479.61
514.77	32856.44
514.95	33441.57
515.12	33476.68
515.29	33071.77
515.47	33764.57
515.64	33394.76
515.81	33156.03
515.99	33247.31
516.16	33277.74
516.33	33177.09
516.51	33006.23
516.68	33163.05
516.85	33282.42
517.03	33020.28
517.20	32985.17
517.37	33710.74
517.54	34183.52
517.72	33855.85
517.89	33589.03
518.06	33635.84
518.24	33614.77
518.41	33933.09
518.58	33944.79
518.75	34012.66
518.93	34309.91
519.10	34607.16
519.27	34724.19
519.45	34366.09
519.62	34679.72
519.79	34946.54
519.96	35526.99
520.14	35620.61
520.31	34677.38
520.48	35044.84
520.65	35037.82
520.83	35314.00
521.00	35306.98
521.17	35381.88
521.34	35424.01
521.52	35644.02
521.69	35236.77
521.86	36009.14
522.03	35786.79
522.20	35566.78
522.38	36062.97
522.55	36261.92
522.72	35749.34
522.89	35583.16
523.07	36105.10
523.24	35833.60
523.41	36409.37
523.58	36175.32
523.75	36643.43
523.92	36517.04
524.10	36676.19
524.27	36629.38
524.44	36978.12
524.61	37060.04
524.78	36886.84
524.96	37184.09
525.13	36879.82
525.30	37308.14
525.47	37240.26
525.64	37273.03
525.81	37198.13
525.98	36863.44
526.16	36783.86
526.33	36762.79
526.50	37177.07
526.67	36505.34
526.84	37029.62
527.01	37085.79
527.18	37413.46
527.36	37834.76
527.53	37961.15
527.70	38043.07
527.87	38277.12
528.04	37818.38
528.21	38153.07
528.38	37895.61
528.55	38127.33
528.72	38436.28
528.89	38543.94
529.07	38232.65
529.24	38164.78
529.41	38216.27
529.58	38249.03
529.75	38197.54
529.92	38506.49
530.09	38408.19
530.26	38770.97
530.43	38724.16
530.60	38646.93
530.77	38747.57
530.94	39005.03
531.11	38967.58
531.28	39070.56
531.46	39227.38
531.63	39058.86
531.80	38965.24
531.97	39049.50
532.14	39103.33
532.31	39098.65
532.48	39061.20
532.65	39346.75
532.82	39667.40
532.99	39449.73
533.16	39203.97
533.33	39501.22
533.50	39470.79
533.67	39583.14
533.84	39604.20
534.01	39892.09
534.18	39515.26
534.35	40053.59
534.52	39674.42
534.69	39882.73
534.86	40041.88
535.03	39601.86
535.20	39899.11
535.37	40114.44
535.54	40570.85
535.71	39941.24
535.88	40512.33
536.05	40311.05
536.22	40383.60
536.38	40215.08
536.55	40500.63
536.72	40856.39
536.89	40222.11
537.06	40105.08
537.23	40596.59
537.40	40706.60
537.57	40449.14
537.74	40697.24
537.91	40940.65
538.08	40732.34
538.25	40844.69
538.42	40765.11
538.59	41429.82
538.75	40800.22
538.92	41038.95
539.09	40795.54
539.26	40919.59
539.43	40928.95
539.60	40875.12
539.77	41017.89
539.94	41265.99
540.11	40914.90
540.28	41233.22
540.44	41352.58
540.61	41158.32
540.78	41057.68
540.95	41205.13
541.12	41235.56
541.29	41523.44
541.46	41581.96
541.62	41542.17
541.79	41659.20
541.96	41296.41
542.13	41497.70
542.30	42012.62
542.47	41853.46
542.63	41904.95
542.80	41951.76
542.97	42204.54
543.14	42593.07
543.31	42071.13
543.48	42401.14
543.64	42567.32
543.81	42717.12
543.98	42361.36
544.15	42099.22
544.32	42756.91
544.48	42817.76
544.65	42422.21
544.82	42473.70
544.99	42054.75
545.16	42579.03
545.32	42581.37
545.49	43035.43
545.66	42852.87
545.83	43122.03
546.00	42969.90
546.16	43157.14
546.33	42473.70
546.50	42916.06
546.67	42691.37
546.83	42670.31
547.00	42979.26
547.17	43096.28
547.34	43173.52
547.50	43084.58
547.67	43182.88
547.84	42871.59
548.00	43323.32
548.17	43526.94
548.34	43585.46
548.51	43613.54
548.67	43805.47
548.84	43503.54
549.01	43166.50
549.18	43662.69
549.34	43089.26
549.51	43597.16
549.68	43777.38
549.84	43545.67
550.01	43377.15
550.18	43117.35
550.34	43753.97
550.51	43695.46
550.68	43800.79
550.84	43407.58
551.01	43831.21
551.18	43997.39
551.34	43384.17
551.51	43782.06
551.68	43473.11
551.84	43971.64
552.01	44055.90
552.18	43985.69
552.34	44121.44
552.51	44112.08
552.68	44093.35
552.84	44250.17
553.01	44402.30
553.18	43878.02
553.34	44311.02
553.51	43985.69
553.67	44341.45
553.84	44156.55
554.01	44357.83
554.17	44425.71
554.34	44488.90
554.51	44762.75
554.67	45022.54
554.84	44610.61
555.00	44083.99
555.17	44451.45
555.33	44666.78
555.50	44662.10
555.67	44018.46
555.83	44421.03
556.00	44531.03
556.16	45052.97
556.33	44526.35
556.50	44453.79
556.66	44769.77
556.83	44341.45
556.99	45141.91
557.16	45427.46
557.32	44744.02
557.49	44744.02
557.65	44467.84
557.82	44734.66
557.98	45020.20
558.15	44732.32
558.32	45144.25
558.48	44570.82
558.65	44779.13
558.81	44437.41
558.98	45319.79
559.14	44992.12
559.31	44968.71
559.47	44917.22
559.64	45439.16
559.80	45509.38
559.97	45165.32
560.13	44818.92
560.30	45205.11
560.46	44872.75
560.63	45247.24
560.79	44961.69
560.96	45219.15
561.12	45340.86
561.29	45579.59
561.45	45612.36
561.61	45258.94
561.78	45305.75
561.94	44924.24
562.11	45397.03
562.27	45315.11
562.44	44952.33
562.60	45394.69
562.77	45694.28
562.93	44912.54
563.10	45654.49
563.26	45488.31
563.42	45312.77
563.59	44774.45
563.75	45427.46
563.92	45595.98
564.08	45750.45
564.24	45507.04
564.41	45815.99
564.57	45581.93
564.74	45415.76
564.90	45462.57
565.07	45797.26
565.23	45661.51
565.39	45570.23
565.56	45759.81
565.72	45558.53
565.88	45544.48
566.05	45502.35
566.21	45766.84
566.38	45827.69
566.54	45247.24
566.70	45801.94
566.87	45900.25
567.03	45820.67
567.19	45935.35
567.36	45961.10
567.52	45558.53
567.68	45565.55
567.85	45338.52
568.01	45986.85
568.17	45673.21
568.34	45684.92
568.50	45514.06
568.66	45764.49
568.83	45600.66
568.99	45448.52
569.15	45542.14
569.32	45745.77
569.48	45399.37
569.64	46054.72
569.81	46160.05
569.97	46045.36
570.13	45925.99
570.30	45949.40
570.46	45867.48
570.62	45717.68
570.78	45563.21
570.95	45750.45
571.11	45855.78
571.27	45713.00
571.43	45865.14
571.60	46153.02
571.76	46080.47
571.92	46073.45
572.09	46117.92
572.25	45497.67
572.41	46033.66
572.57	45666.19
572.74	46272.39
572.90	45921.31
573.06	46197.49
573.22	45970.46
573.38	45989.19
573.55	45844.07
573.71	45750.45
573.87	45682.58
574.03	45965.78
574.20	46164.73
574.36	45797.26
574.52	45621.72
574.68	45918.97
574.84	45825.35
575.01	45928.33
575.17	46356.65
575.33	45820.67
575.49	45823.01
575.65	46457.29
575.82	46181.11
575.98	46216.22
576.14	46237.28
576.30	46326.22
576.46	46054.72
576.62	45839.39
576.79	46344.95
576.95	45457.88
577.11	46124.94
577.27	46469.00
577.43	45993.87
577.59	45638.11
577.75	45848.75
577.92	45373.63
578.08	45612.36
578.24	45659.17
578.40	45544.48
578.56	45748.11
578.72	46019.61
578.88	46138.98
579.04	46021.95
579.21	45584.27
579.37	46211.54
579.53	46085.15
579.69	45893.22
579.85	45813.65
580.01	46351.97
580.17	46471.34
580.33	46298.14
580.49	46377.72
580.65	46043.02
580.82	46459.63
580.98	45963.44
581.14	46146.00
581.30	46319.20
581.46	45832.37
581.62	46593.04
581.78	46354.31
581.94	46155.36
582.10	46534.53
582.26	46550.91
582.42	46014.93
582.58	46370.69
582.74	45984.51
582.90	46085.15
583.06	45984.51
583.22	46113.23
583.38	46216.22
583.54	46309.84
583.70	46270.05
583.86	46248.99
584.02	45876.84
584.18	46204.52
584.34	46220.90
584.50	46227.92
584.66	46073.45
584.82	46419.84
584.98	46047.70
585.14	46021.95
585.30	46321.54
585.46	46309.84
585.62	45860.46
585.78	46384.74
585.94	45801.94
586.10	46150.68
586.26	46026.63
586.42	46223.24
586.58	46246.65
586.74	46293.46
586.90	46366.01
587.06	46122.60
587.22	46080.47
587.38	46162.39
587.54	45949.40
587.70	46328.56
587.86	46351.97
588.02	46057.06
588.18	46356.65
588.34	46253.67
588.49	46251.33
588.65	45904.93
588.81	45593.64
588.97	46256.01
589.13	46017.27
589.29	45684.92
589.45	45652.15
589.61	46326.22
589.77	46033.66
589.93	46363.67
590.08	46511.13
