SpectraSuite Data File
++++++++++++++++++++++++++++++++++++
Date: Fri Oct 25 11:33:22 EDT 2013
User: price-jones
Dark Spectrum Present: No
Reference Spectrum Present: No
Number of Sampled Component Spectra: 1
Spectrometers: USB2+H05261
Integration Time (usec): 100000 (USB2+H05261)
Spectra Averaged: 1 (USB2+H05261)
Boxcar Smoothing: 0 (USB2+H05261)
Correct for Electrical Dark: No (USB2+H05261)
Strobe/Lamp Enabled: No (USB2+H05261)
Correct for Detector Non-linearity: No (USB2+H05261)
Correct for Stray Light: No (USB2+H05261)
Number of Pixels in Processed Spectrum: 2048
>>>>>Begin Processed Spectral Data<<<<<
365.73	259.80
365.92	259.80
366.12	259.80
366.32	152.13
366.52	140.43
366.72	191.92
366.91	196.60
367.11	269.16
367.31	102.98
367.51	67.88
367.70	133.41
367.90	154.48
368.10	135.75
368.30	138.09
368.49	72.56
368.69	243.42
368.89	149.79
369.09	105.32
369.28	217.67
369.48	259.80
369.68	198.95
369.87	238.73
370.07	299.59
370.27	234.05
370.47	369.80
370.66	449.38
370.86	526.62
371.06	545.34
371.25	575.77
371.45	575.77
371.65	585.13
371.84	578.11
372.04	524.28
372.24	552.37
372.44	596.84
372.63	678.76
372.83	641.31
373.03	606.20
373.22	561.73
373.42	561.73
373.62	575.77
373.81	699.82
374.01	643.65
374.21	627.26
374.40	650.67
374.60	681.10
374.79	624.92
374.99	596.84
375.19	664.71
375.38	622.58
375.58	655.35
375.78	699.82
375.97	645.99
376.17	732.59
376.37	671.73
376.56	608.54
376.76	645.99
376.95	709.18
377.15	671.73
377.35	741.95
377.54	638.97
377.74	727.91
377.93	711.52
378.13	690.46
378.33	664.71
378.52	641.31
378.72	704.50
378.91	690.46
379.11	653.01
379.31	695.14
379.50	681.10
379.70	718.54
379.89	777.06
380.09	765.36
380.28	727.91
380.48	727.91
380.68	760.67
380.87	664.71
381.07	709.18
381.26	725.57
381.46	772.38
381.65	870.68
381.85	798.12
382.04	725.57
382.24	809.83
382.43	758.33
382.63	844.93
382.83	816.85
383.02	730.25
383.22	779.40
383.41	760.67
383.61	777.06
383.80	833.23
384.00	763.01
384.19	772.38
384.39	873.02
384.58	784.08
384.78	842.59
384.97	896.43
385.17	821.53
385.36	875.36
385.56	835.57
385.75	709.18
385.95	791.10
386.14	889.40
386.34	880.04
386.53	908.13
386.72	875.36
386.92	910.47
387.11	901.11
387.31	884.72
387.50	866.00
387.70	880.04
387.89	873.02
388.09	940.90
388.28	779.40
388.48	912.81
388.67	903.45
388.86	945.58
389.06	889.40
389.25	1004.09
389.45	912.81
389.64	877.70
389.84	1022.81
390.03	950.26
390.22	898.77
390.42	968.98
390.61	1015.79
390.81	1008.77
391.00	957.28
391.19	1001.75
391.39	997.07
391.58	1013.45
391.78	947.92
391.97	1022.81
392.16	987.71
392.36	1146.86
392.55	1170.27
392.75	1067.28
392.94	973.66
393.13	1067.28
393.33	1053.24
393.52	1179.63
393.71	1071.97
393.91	1069.62
394.10	1064.94
394.29	1078.99
394.49	1083.67
394.68	1139.84
394.88	1121.12
395.07	1172.61
395.26	1205.38
395.46	1149.20
395.65	1123.46
395.84	1205.38
396.04	1212.40
396.23	1212.40
396.42	1151.54
396.62	1203.04
396.81	1231.12
397.00	1198.35
397.19	1233.46
397.39	1231.12
397.58	1259.21
397.77	1313.04
397.97	1226.44
398.16	1210.06
398.35	1287.29
398.55	1261.55
398.74	1390.28
398.93	1432.41
399.12	1224.10
399.32	1329.42
399.51	1364.53
399.70	1263.89
399.90	1315.38
400.09	1371.55
400.28	1336.45
400.47	1350.49
400.67	1453.47
400.86	1420.71
401.05	1371.55
401.24	1423.05
401.44	1455.81
401.63	1544.75
401.82	1556.46
402.01	1425.39
402.21	1476.88
402.40	1528.37
402.59	1483.90
402.78	1533.05
402.97	1558.80
403.17	1544.75
403.36	1603.27
403.55	1666.46
403.74	1495.60
403.93	1589.22
404.13	1547.09
404.32	1624.33
404.51	1736.68
404.70	1710.93
404.89	1636.03
405.09	1713.27
405.28	1643.06
405.47	1734.34
405.66	1652.42
405.85	1652.42
406.05	1680.50
406.24	1619.65
406.43	1771.79
406.62	1926.26
406.81	1853.70
407.00	1767.10
407.20	1846.68
407.39	1844.34
407.58	1895.83
407.77	1842.00
407.96	1851.36
408.15	1879.45
408.34	1834.98
408.54	1874.77
408.73	1942.64
408.92	1989.46
409.11	2059.67
409.30	1937.96
409.49	1909.88
409.68	2022.22
409.87	2022.22
410.07	2010.52
410.26	2085.42
410.45	2090.10
410.64	2026.90
410.83	2186.06
411.02	2179.04
411.21	2157.97
411.40	2127.55
411.59	2183.72
411.78	2256.28
411.98	2202.44
412.17	2246.91
412.36	2291.38
412.55	2356.92
412.74	2246.91
412.93	2345.22
413.12	2253.94
413.31	2459.90
413.50	2387.35
413.69	2389.69
413.88	2452.88
414.07	2499.69
414.26	2562.89
414.45	2546.50
414.64	2438.84
414.83	2581.61
415.02	2595.65
415.22	2492.67
415.41	2635.44
415.60	2619.06
415.79	2691.62
415.98	2663.53
416.17	2799.28
416.36	2909.29
416.55	2839.07
416.74	2792.26
416.93	2752.47
417.12	2897.58
417.31	2843.75
417.50	2888.22
417.69	3047.38
417.88	3038.02
418.07	2967.80
418.26	2993.55
418.45	3030.99
418.64	3026.31
418.83	3047.38
419.02	3014.61
419.21	3152.70
419.39	3066.10
419.58	3176.11
419.77	3089.51
419.96	3103.55
420.15	3218.24
420.34	3185.47
420.53	3283.77
420.72	3225.26
420.91	3290.79
421.10	3297.81
421.29	3358.67
421.48	3211.22
421.67	3344.63
421.86	3316.54
422.05	3368.03
422.24	3225.26
422.43	3421.86
422.61	3419.52
422.80	3449.95
422.99	3433.57
423.18	3445.27
423.37	3536.55
423.56	3440.59
423.75	3393.78
423.94	3335.26
424.13	3129.30
424.32	3351.65
424.50	3473.36
424.69	3623.15
424.88	3569.32
425.07	3328.24
425.26	3412.50
425.45	3566.98
425.64	3382.07
425.83	3611.45
426.01	3644.21
426.20	3552.93
426.39	3513.14
426.58	3571.66
426.77	3536.55
426.96	3538.89
427.15	3660.60
427.33	3618.47
427.52	3644.21
427.71	3737.84
427.90	3541.23
428.09	3733.15
428.28	3791.67
428.46	3716.77
428.65	3728.47
428.84	3798.69
429.03	3838.48
429.22	3599.74
429.40	3850.18
429.59	3749.54
429.78	3700.39
429.97	3623.15
430.16	3808.05
430.34	3896.99
430.53	3901.67
430.72	3894.65
430.91	3908.69
431.10	3861.88
431.28	3960.19
431.47	4039.76
431.66	4107.64
431.85	4018.70
432.03	4065.51
432.22	4095.94
432.41	4145.09
432.60	4044.45
432.79	4060.83
432.97	4112.32
433.16	4145.09
433.35	4093.60
433.54	4250.41
433.72	4306.59
433.91	4147.43
434.10	4203.60
434.28	4142.75
434.47	4341.69
434.66	4369.78
434.85	4271.48
435.03	4348.72
435.22	4369.78
435.41	4482.13
435.59	4451.70
435.78	4442.34
435.97	4458.72
436.16	4524.26
436.34	4297.22
436.53	4486.81
436.72	4528.94
436.90	4475.10
437.09	4519.57
437.28	4458.72
437.46	4638.94
437.65	4650.64
437.84	4615.54
438.02	4681.07
438.21	4744.27
438.40	4711.50
438.58	4734.90
438.77	4873.00
438.96	4695.11
439.14	4894.06
439.33	4786.40
439.52	4870.65
439.70	4983.00
439.89	4978.32
440.08	5050.88
440.26	5039.17
440.45	4987.68
440.63	5184.29
440.82	5301.31
441.01	5083.64
441.19	5158.54
441.38	5287.27
441.57	5203.01
441.75	5334.08
441.94	5439.40
442.12	5406.64
442.31	5565.79
442.50	5495.58
442.68	5371.53
442.87	5526.00
443.05	5598.56
443.24	5523.66
443.43	5544.73
443.61	5746.02
443.80	5682.82
443.98	5610.26
444.17	5423.02
444.35	5654.73
444.54	5727.29
444.73	5717.93
444.91	5722.61
445.10	5694.52
445.28	5523.66
445.47	5418.34
445.65	5605.58
445.84	5544.73
446.02	5811.55
446.21	5753.04
446.39	5645.37
446.58	5767.08
446.77	5799.85
446.95	5509.62
447.14	5949.64
447.32	5816.23
447.51	5783.46
447.69	5790.49
447.88	5617.29
448.06	5746.02
448.25	5834.96
448.43	5865.38
448.62	5734.31
448.80	5914.53
448.99	6099.44
449.17	5973.05
449.36	5783.46
449.54	5930.92
449.73	6188.38
449.91	6129.86
450.10	6076.03
450.28	6143.91
450.46	6223.48
450.65	6164.97
450.83	6127.52
451.02	6202.42
451.20	6099.44
451.39	6150.93
451.57	6176.67
451.76	6221.14
451.94	6382.64
452.13	6349.87
452.31	6366.26
452.49	6321.79
452.68	6480.94
452.86	6270.30
453.05	6436.47
453.23	6621.38
453.42	6490.31
453.60	6375.62
453.78	6422.43
453.97	6420.09
454.15	6345.19
454.34	6455.20
454.52	6607.33
454.70	6595.63
454.89	6576.91
455.07	6642.44
455.26	6754.79
455.44	6817.98
455.62	6752.45
455.81	6775.85
455.99	6787.55
456.17	6710.32
456.36	6829.68
456.54	6984.16
456.73	6974.80
456.91	7035.65
457.09	7019.27
457.28	7096.50
457.46	6958.41
457.64	7199.49
457.83	7112.89
458.01	6956.07
458.19	7279.07
458.38	7269.70
458.56	7328.22
458.74	7124.59
458.93	7169.06
459.11	7187.79
459.29	7332.90
459.48	7143.32
459.66	7234.60
459.84	7295.45
460.03	7501.42
460.21	7524.82
460.39	7475.67
460.57	7433.54
460.76	7700.36
460.94	7576.31
461.12	7667.60
461.31	7571.63
461.49	7501.42
461.67	7529.50
461.85	7772.92
462.04	7700.36
462.22	8140.38
462.40	7847.82
462.59	8053.78
462.77	7782.28
462.95	7918.03
463.13	7943.78
463.32	7936.76
463.50	7906.33
463.68	7833.77
463.86	8021.02
464.05	7878.24
464.23	8049.10
464.41	7990.59
464.59	8065.49
464.78	8334.65
464.96	8039.74
465.14	7981.23
465.32	7885.26
465.50	8386.14
465.69	8257.41
465.87	8131.02
466.05	8191.88
466.23	8187.19
466.41	8203.58
466.60	8535.93
466.78	8257.41
466.96	8173.15
467.14	8194.22
467.32	8362.73
467.51	8404.86
467.69	8091.23
467.87	8290.18
468.05	8484.44
468.23	8327.63
468.41	8390.82
468.60	8393.16
468.78	8624.87
468.96	8512.53
469.14	8582.74
469.32	8505.51
469.50	8573.38
469.69	8931.48
469.87	8835.52
470.05	8800.41
470.23	8842.54
470.41	8908.08
470.59	8821.48
470.77	8982.98
470.95	8915.10
471.14	9006.38
471.32	8814.46
471.50	8931.48
471.68	9008.72
471.86	9057.87
472.04	9202.99
472.22	9392.57
472.40	9277.88
472.58	9247.46
472.77	9497.89
472.95	9586.83
473.13	9614.92
473.31	9509.60
473.49	9486.19
473.67	9308.31
473.85	9401.93
474.03	9750.67
474.21	9881.74
474.39	9893.44
474.57	9853.66
474.75	9895.78
474.93	9942.60
475.12	10076.01
475.30	10129.84
475.48	10003.45
475.66	10326.44
475.84	10073.67
476.02	10148.56
476.20	10256.23
476.38	10602.63
476.56	10707.95
476.74	10448.15
476.92	10572.20
477.10	10581.56
477.28	10644.76
477.46	10878.81
477.64	10867.11
477.82	10918.60
478.00	11232.23
478.18	10918.60
478.36	11211.17
478.54	11421.81
478.72	11367.98
478.90	11517.78
479.08	11899.28
479.26	11866.52
479.44	11796.30
479.62	11901.62
479.80	11861.84
479.98	11892.26
480.16	12271.43
480.34	11955.46
480.52	12549.95
480.70	12510.16
480.88	12271.43
481.06	12252.70
481.24	12400.16
481.41	12580.38
481.59	12802.73
481.77	12858.90
481.95	13121.04
482.13	13111.68
482.31	12908.05
482.49	13593.83
482.67	13596.17
482.85	13385.52
483.03	13327.01
483.21	13781.07
483.39	14001.08
483.57	13860.65
483.74	13907.46
483.92	14193.01
484.10	14345.14
484.28	14377.91
484.46	14810.91
484.64	14860.06
484.82	14424.72
485.00	14764.10
485.18	14934.96
485.35	15297.74
485.53	15129.22
485.71	14899.85
485.89	15426.47
486.07	15580.95
486.25	15634.78
486.43	15716.70
486.61	15733.08
486.78	15922.66
486.96	15854.79
487.14	16060.76
487.32	16210.55
487.50	16617.80
487.68	16704.40
487.85	16905.69
488.03	16950.16
488.21	17167.83
488.39	17186.55
488.57	17186.55
488.75	17420.61
488.92	17654.66
489.10	17813.82
489.28	17767.01
489.46	17916.80
489.64	17881.69
489.81	18349.80
489.99	18033.83
490.17	18431.72
490.35	18377.89
490.53	18867.06
490.70	18670.45
490.88	18649.39
491.06	18820.25
491.24	19056.64
491.41	18972.38
491.59	19276.65
491.77	19538.79
491.95	19857.10
492.13	19531.77
492.30	19936.68
492.48	19484.96
492.66	19913.28
492.84	20149.67
493.01	20409.47
493.19	20390.75
493.37	20395.43
493.54	20365.00
493.72	20737.15
493.90	20933.75
494.08	20746.51
494.25	21149.08
494.43	21205.25
494.61	21336.32
494.79	21355.05
494.96	21102.27
495.14	21544.63
495.32	22167.21
495.49	22148.49
495.67	21818.47
495.85	22614.26
496.02	22408.29
496.20	22581.49
496.38	22754.69
496.55	22766.39
496.73	22967.68
496.91	22995.76
497.09	22941.93
497.26	23391.31
497.44	23058.96
497.62	23363.23
497.79	23800.91
497.97	23721.33
498.14	24009.22
498.32	23936.66
498.50	24100.50
498.67	23934.32
498.85	23974.11
499.03	24056.03
499.20	24074.75
499.38	24779.25
499.56	24568.60
499.73	24496.05
499.91	24692.65
500.08	24795.64
500.26	24922.02
500.44	25081.18
500.61	24613.07
500.79	25268.42
500.97	25163.10
501.14	25266.08
501.32	25226.29
501.49	25497.80
501.67	25675.68
501.84	25666.31
502.02	25790.36
502.20	25837.17
502.37	25474.39
502.55	26008.03
502.72	26141.44
502.90	26333.37
503.07	26085.27
503.25	26258.47
503.43	26031.44
503.60	26647.00
503.78	26649.34
503.95	26771.05
504.13	26733.60
504.30	26604.87
504.48	26644.66
504.65	27089.36
504.83	27201.71
505.01	27370.22
505.18	27468.53
505.36	27887.48
505.53	27255.54
505.71	27604.28
505.88	27697.90
506.06	27513.00
506.23	27786.84
506.41	27445.12
506.58	28095.79
506.76	28222.18
506.93	28430.49
507.11	28369.63
507.28	28739.44
507.46	28528.79
507.63	28325.16
507.81	28589.64
507.98	28620.07
508.16	28421.13
508.33	28790.93
508.50	28910.30
508.68	28877.53
508.85	28912.64
509.03	29425.22
509.20	29158.39
509.38	29535.22
509.55	29869.92
509.73	29659.27
509.90	29820.77
510.08	29584.37
510.25	29509.47
510.42	30073.54
510.60	29799.70
510.77	29940.13
510.95	30731.23
511.12	30153.12
511.30	30321.64
511.47	30443.35
511.64	30403.56
511.82	30794.43
511.99	30260.79
512.17	30649.32
512.34	30747.62
512.51	30710.17
512.69	31175.94
512.86	30714.85
513.04	31101.04
513.21	30794.43
513.38	31302.32
513.56	31660.43
513.73	31119.76
513.90	31344.45
514.08	31744.69
514.25	31903.84
514.43	31419.35
514.60	32074.70
514.77	32020.87
514.95	32191.73
515.12	31775.11
515.29	31819.58
515.47	32233.86
515.64	32306.41
515.81	32119.17
515.99	32325.14
516.16	32488.98
516.33	32491.32
516.51	32507.70
516.68	32739.41
516.85	32938.36
517.03	33383.06
517.20	32718.35
517.37	32954.74
517.54	32926.66
517.72	33577.33
517.89	33163.05
518.06	33296.46
518.24	33504.77
518.41	33308.16
518.58	33544.56
518.75	33270.72
518.93	33525.83
519.10	33778.61
519.27	34066.50
519.45	33792.65
519.62	33717.76
519.79	34230.33
519.96	33851.17
520.14	34256.08
520.31	34019.69
520.48	34513.54
520.65	34314.59
520.83	34546.31
521.00	34515.88
521.17	34448.00
521.34	34630.57
521.52	34759.30
521.69	34796.74
521.86	34782.70
522.03	34810.79
522.20	35089.31
522.38	35201.66
522.55	35222.72
522.72	35487.20
522.89	35119.74
523.07	35440.39
523.24	35459.12
523.41	35695.51
523.58	35503.59
523.75	35655.72
523.92	35826.58
524.10	35988.08
524.27	35807.86
524.44	35988.08
524.61	36168.30
524.78	36123.83
524.96	36194.04
525.13	36327.45
525.30	36503.00
525.47	36840.03
525.64	36624.70
525.81	36460.87
525.98	36657.47
526.16	36348.52
526.33	36219.79
526.50	36992.17
526.67	36882.16
526.84	36793.22
527.01	36980.46
527.18	36928.97
527.36	37186.43
527.53	36903.23
527.70	37310.48
527.87	37834.76
528.04	37469.64
528.21	37457.93
528.38	37280.05
528.55	37460.27
528.72	38169.46
528.89	37872.21
529.07	37544.53
529.24	37626.45
529.41	37706.03
529.58	37907.32
529.75	37972.85
529.92	37979.87
530.09	37890.93
530.26	37907.32
530.43	38183.50
530.60	37631.13
530.77	37551.56
530.94	38150.73
531.11	38288.82
531.28	38480.75
531.46	38279.46
531.63	38536.92
531.80	38387.13
531.97	38675.01
532.14	38738.21
532.31	38394.15
532.48	38698.42
532.65	39136.10
532.82	38342.66
532.99	39154.82
533.16	38541.60
533.33	38852.89
533.50	39241.42
533.67	38731.18
533.84	38497.13
534.01	39480.16
534.18	38731.18
534.35	39730.59
534.52	39784.43
534.69	39606.55
534.86	39423.98
535.03	39583.14
535.20	39782.09
535.37	39714.21
535.54	40329.77
535.71	39604.20
535.88	40060.61
536.05	39782.09
536.22	39997.41
536.38	39997.41
536.55	39889.75
536.72	39772.72
536.89	39810.17
537.06	40165.93
537.23	40437.44
537.40	39690.80
537.57	39978.69
537.74	40308.71
537.91	40596.59
538.08	40470.20
538.25	40130.83
538.42	40374.24
538.59	40816.60
538.75	40318.07
538.92	40802.56
539.09	40882.14
539.26	40643.40
539.43	40802.56
539.60	40840.01
539.77	41015.55
539.94	40870.43
540.11	41017.89
540.28	41553.87
540.44	40900.86
540.61	40769.79
540.78	40470.20
540.95	40957.03
541.12	41221.52
541.29	41343.22
541.46	41141.94
541.62	41155.98
541.79	41642.81
541.96	41471.95
542.13	41340.88
542.30	41830.05
542.47	41570.25
542.63	41413.44
542.80	41989.21
542.97	42520.51
543.14	42527.53
543.31	42073.47
543.48	42176.45
543.64	42253.69
543.81	42312.20
543.98	42188.16
544.15	42071.13
544.32	42550.94
544.48	42611.79
544.65	42206.88
544.82	42944.15
544.99	42485.40
545.16	42656.26
545.32	42895.00
545.49	42780.31
545.66	43005.00
545.83	42918.40
546.00	43093.94
546.16	42906.70
546.33	42527.53
546.50	42756.91
546.67	43412.26
546.83	42939.47
547.00	42602.43
547.17	42857.55
547.34	43246.08
547.50	43028.41
547.67	43372.47
547.84	43271.82
548.00	43604.18
548.17	43510.56
548.34	43208.63
548.51	43381.83
548.67	43271.82
548.84	43592.48
549.01	43526.94
549.18	43412.26
549.34	43866.32
549.51	43894.41
549.68	43285.87
549.84	43618.22
550.01	44294.64
550.18	43625.25
550.34	43945.90
550.51	43959.94
550.68	44177.61
550.84	43798.44
551.01	44371.88
551.18	43915.47
551.34	44013.77
551.51	44268.89
551.68	44065.27
551.84	44390.60
552.01	43714.19
552.18	44095.69
552.34	44264.21
552.51	44573.16
552.68	44512.31
552.84	44240.81
553.01	44421.03
553.18	44257.19
553.34	44282.94
553.51	44601.25
553.67	44561.46
553.84	44793.17
554.01	44624.65
554.17	44722.96
554.34	44472.52
554.51	44987.44
554.67	45010.84
554.84	44996.80
555.00	44662.10
555.17	44739.34
555.33	45057.65
555.50	44531.03
555.67	45036.59
555.83	44898.50
556.00	45441.50
556.16	45270.64
556.33	45488.31
556.50	45483.63
556.66	45167.66
556.83	44814.24
556.99	45584.27
557.16	45942.38
557.32	45808.96
557.49	45984.51
557.65	45141.91
557.82	45092.76
557.98	45329.16
558.15	45394.69
558.32	45277.66
558.48	45705.98
558.65	45455.54
558.81	45591.30
558.98	45563.21
559.14	45521.08
559.31	45668.53
559.47	45710.66
559.64	45755.13
559.80	45759.81
559.97	45848.75
560.13	45783.22
560.30	45382.99
560.46	46124.94
560.63	46103.87
560.79	46031.32
560.96	46611.77
561.12	46150.68
561.29	46122.60
561.45	46141.32
561.61	46410.48
561.78	46370.69
561.94	45958.76
562.11	45778.54
562.27	46178.77
562.44	46089.83
562.60	46220.90
562.77	46330.90
562.93	45727.05
563.10	46492.40
563.26	46028.98
563.42	46293.46
563.59	46429.21
563.75	46045.36
563.92	46138.98
564.08	45937.69
564.24	46478.36
564.41	46199.83
564.57	46511.13
564.74	46415.16
564.90	45879.18
565.07	46197.49
565.23	46344.95
565.39	46466.66
565.56	46464.32
565.72	46356.65
565.88	46270.05
566.05	46770.93
566.21	46719.43
566.38	46188.13
566.54	46768.58
566.70	46562.62
566.87	46415.16
567.03	45944.72
567.19	46838.80
567.36	46445.59
567.52	46438.57
567.68	47065.83
567.85	46887.95
568.01	46724.11
568.17	46761.56
568.34	47009.66
568.50	46967.53
568.66	46770.93
568.83	46593.04
568.99	46520.49
569.15	46923.06
569.32	46782.63
569.48	46916.04
569.64	47131.37
569.81	46976.89
569.97	46843.48
570.13	47185.20
570.30	46597.73
570.46	46972.21
570.62	47037.75
570.78	47007.32
570.95	47086.90
571.11	47327.97
571.27	47264.78
571.43	46960.51
571.60	46836.46
571.76	46752.20
571.92	46946.47
572.09	46885.61
572.25	46649.22
572.41	47096.26
572.57	47100.94
572.74	47742.25
572.90	47004.98
573.06	47030.72
573.22	47213.29
573.38	47433.30
573.55	47599.47
573.71	47653.31
573.87	47611.18
574.03	46972.21
574.20	47655.65
574.36	46934.76
574.52	47700.12
574.68	47332.65
574.84	47445.00
575.01	47145.41
575.17	47304.57
575.33	47051.79
575.49	47285.84
575.65	47227.33
575.82	47730.54
575.98	46974.55
576.14	47660.33
576.30	47306.91
576.46	47477.77
576.62	47466.06
576.79	47402.87
576.95	47012.00
577.11	47569.05
577.27	47367.76
577.43	47194.56
577.59	47393.51
577.75	47475.43
577.92	46878.59
578.08	47159.45
578.24	47353.72
578.40	47192.22
578.56	47421.59
578.72	47847.57
578.88	47629.90
579.04	47079.88
579.21	46986.25
579.37	47283.50
579.53	47646.29
579.69	47447.34
579.85	47388.83
580.01	47522.24
580.17	47545.64
580.33	47693.10
580.49	47690.76
580.65	47491.81
580.82	47325.63
580.98	47068.17
581.14	47114.98
581.30	47571.39
581.46	47496.49
581.62	47257.76
581.78	47114.98
581.94	47452.02
582.10	47576.07
582.26	47452.02
582.42	47746.93
582.58	47248.39
582.74	47679.05
582.90	47526.92
583.06	47494.15
583.22	47187.54
583.38	47695.44
583.54	47690.76
583.70	47496.49
583.86	47784.38
584.02	47737.57
584.18	47906.08
584.34	47913.11
584.50	47969.28
584.66	47674.37
584.82	48069.92
584.98	48051.20
585.14	48170.57
585.30	47445.00
585.46	47601.82
585.62	47732.89
585.78	47650.97
585.94	47442.66
586.10	47405.21
586.26	47447.34
586.42	47739.91
586.58	47889.70
586.74	47344.36
586.90	47374.78
587.06	47576.07
587.22	48254.82
587.38	47606.50
587.54	48240.78
587.70	48360.15
587.86	47646.29
588.02	47779.70
588.18	47681.39
588.34	47547.98
588.49	47550.32
588.65	47763.31
588.81	47885.02
588.97	47999.71
589.13	47936.51
589.29	48044.18
589.45	48069.92
589.61	47978.64
589.77	48076.94
589.93	47882.68
590.08	47763.31
