SpectraSuite Data File
++++++++++++++++++++++++++++++++++++
Date: Fri Oct 25 10:44:48 EDT 2013
User: price-jones
Dark Spectrum Present: No
Reference Spectrum Present: No
Number of Sampled Component Spectra: 1
Spectrometers: USB2+H05261
Integration Time (usec): 100000 (USB2+H05261)
Spectra Averaged: 1 (USB2+H05261)
Boxcar Smoothing: 0 (USB2+H05261)
Correct for Electrical Dark: No (USB2+H05261)
Strobe/Lamp Enabled: No (USB2+H05261)
Correct for Detector Non-linearity: No (USB2+H05261)
Correct for Stray Light: No (USB2+H05261)
Number of Pixels in Processed Spectrum: 2048
>>>>>Begin Processed Spectral Data<<<<<
365.73	51.49
365.92	51.49
366.12	51.49
366.32	18.72
366.52	51.49
366.72	51.49
366.91	0.00
367.11	86.60
367.31	18.72
367.51	46.81
367.70	77.24
367.90	37.45
368.10	107.66
368.30	88.94
368.49	91.28
368.69	79.58
368.89	4.68
369.09	58.51
369.28	53.83
369.48	0.00
369.68	126.39
369.87	58.51
370.07	131.07
370.27	159.16
370.47	227.03
370.66	262.14
370.86	386.19
371.06	423.64
371.25	447.04
371.45	470.45
371.65	411.93
371.84	409.59
372.04	498.53
372.24	421.30
372.44	512.58
372.63	447.04
372.83	447.04
373.03	454.06
373.22	425.98
373.42	489.17
373.62	421.30
373.81	545.34
374.01	624.92
374.21	552.37
374.40	559.39
374.60	596.84
374.79	547.69
374.99	566.41
375.19	561.73
375.38	514.92
375.58	505.56
375.78	587.47
375.97	472.79
376.17	610.88
376.37	564.07
376.56	552.37
376.76	561.73
376.95	528.96
377.15	650.67
377.35	669.39
377.54	594.50
377.74	622.58
377.93	641.31
378.13	566.41
378.33	683.44
378.52	580.45
378.72	606.20
378.91	578.11
379.11	566.41
379.31	631.94
379.50	594.50
379.70	603.86
379.89	617.90
380.09	606.20
380.28	550.03
380.48	650.67
380.68	599.18
380.87	683.44
381.07	627.26
381.26	653.01
381.46	617.90
381.65	575.77
381.85	615.56
382.04	669.39
382.24	592.16
382.43	657.69
382.63	641.31
382.83	699.82
383.02	744.29
383.22	692.80
383.41	702.16
383.61	678.76
383.80	713.86
384.00	697.48
384.19	770.04
384.39	685.78
384.58	699.82
384.78	692.80
384.97	746.63
385.17	734.93
385.36	744.29
385.56	770.04
385.75	674.07
385.95	830.89
386.14	791.10
386.34	723.23
386.53	898.77
386.72	866.00
386.92	763.01
387.11	819.19
387.31	755.99
387.50	793.44
387.70	758.33
387.89	748.97
388.09	835.57
388.28	781.74
388.48	835.57
388.67	866.00
388.86	809.83
389.06	891.74
389.25	896.43
389.45	910.47
389.64	877.70
389.84	931.53
390.03	884.72
390.22	854.30
390.42	912.81
390.61	905.79
390.81	933.87
391.00	877.70
391.19	929.19
391.39	940.90
391.58	901.11
391.78	959.62
391.97	1027.50
392.16	968.98
392.36	1001.75
392.55	856.64
392.75	961.96
392.94	943.24
393.13	961.96
393.33	971.32
393.52	997.07
393.71	1090.69
393.91	1034.52
394.10	1097.71
394.29	1100.05
394.49	1081.33
394.68	1086.01
394.88	1086.01
395.07	1142.18
395.26	1142.18
395.46	1071.97
395.65	1139.84
395.84	1055.58
396.04	1146.86
396.23	1146.86
396.42	1104.73
396.62	1156.22
396.81	1123.46
397.00	1100.05
397.19	1142.18
397.39	1188.99
397.58	1235.80
397.77	1188.99
397.97	1240.48
398.16	1282.61
398.35	1275.59
398.55	1231.12
398.74	1240.48
398.93	1380.92
399.12	1343.47
399.32	1228.78
399.51	1212.40
399.70	1413.68
399.90	1418.36
400.09	1376.24
400.28	1416.02
400.47	1502.62
400.67	1359.85
400.86	1448.79
401.05	1509.65
401.24	1514.33
401.44	1495.60
401.63	1509.65
401.82	1565.82
402.01	1418.36
402.21	1511.99
402.40	1617.31
402.59	1558.80
402.78	1624.33
402.97	1549.43
403.17	1554.12
403.36	1640.72
403.55	1671.14
403.74	1614.97
403.93	1720.29
404.13	1645.40
404.32	1708.59
404.51	1657.10
404.70	1671.14
404.89	1652.42
405.09	1701.57
405.28	1783.49
405.47	1722.63
405.66	1750.72
405.85	1760.08
406.05	1771.79
406.24	1753.06
406.43	1842.00
406.62	1788.17
406.81	1860.73
407.00	1767.10
407.20	1834.98
407.39	1842.00
407.58	1865.41
407.77	1949.67
407.96	1980.09
408.15	1989.46
408.34	1968.39
408.54	1984.77
408.73	1949.67
408.92	2057.33
409.11	1980.09
409.30	2047.97
409.49	2069.03
409.68	1970.73
409.87	2097.12
410.07	2062.01
410.26	2162.66
410.45	2083.08
410.64	2186.06
410.83	2162.66
411.02	2256.28
411.21	2235.21
411.40	2253.94
411.59	2361.60
411.78	2289.04
411.98	2317.13
412.17	2354.58
412.36	2354.58
412.55	2312.45
412.74	2373.30
412.93	2406.07
413.12	2326.49
413.31	2544.16
413.50	2541.82
413.69	2541.82
413.88	2640.12
414.07	2579.27
414.26	2548.84
414.45	2614.38
414.64	2588.63
414.83	2682.25
415.02	2771.19
415.22	2789.92
415.41	2857.79
415.60	2752.47
415.79	2761.83
415.98	2953.76
416.17	2923.33
416.36	2881.20
416.55	2902.26
416.74	2897.58
416.93	2874.18
417.12	3019.29
417.31	3021.63
417.50	3045.04
417.69	2923.33
417.88	3166.74
418.07	3026.31
418.26	3007.59
418.45	3056.74
418.64	3253.34
418.83	3143.34
419.02	3185.47
419.21	3183.13
419.39	3199.51
419.58	3176.11
419.77	3201.85
419.96	3300.16
420.15	3272.07
420.34	3321.22
420.53	3342.28
420.72	3559.95
420.91	3239.30
421.10	3389.10
421.29	3485.06
421.48	3269.73
421.67	3349.31
421.86	3442.93
422.05	3435.91
422.24	3459.31
422.43	3318.88
422.61	3349.31
422.80	3478.04
422.99	3454.63
423.18	3604.42
423.37	3688.68
423.56	3452.29
423.75	3438.25
423.94	3489.74
424.13	3316.54
424.32	3463.99
424.50	3604.42
424.69	3508.46
424.88	3634.85
425.07	3557.61
425.26	3471.01
425.45	3452.29
425.64	3627.83
425.83	3552.93
426.01	3562.30
426.20	3630.17
426.39	3524.85
426.58	3592.72
426.77	3627.83
426.96	3641.87
427.15	3740.18
427.33	3632.51
427.52	3658.26
427.71	3658.26
427.90	3688.68
428.09	3857.20
428.28	3829.12
428.46	3754.22
428.65	3794.01
428.84	3892.31
429.03	3946.14
429.22	3728.47
429.40	3751.88
429.59	3887.63
429.78	3564.64
429.97	3676.98
430.16	3721.45
430.34	3854.86
430.53	3829.12
430.72	3859.54
430.91	3784.65
431.10	3861.88
431.28	4049.13
431.47	4205.94
431.66	4166.15
431.85	4051.47
432.03	4238.71
432.22	4259.78
432.41	4058.49
432.60	4131.05
432.79	4367.44
432.97	4215.30
433.16	4269.14
433.35	4341.69
433.54	4114.66
433.72	4348.72
433.91	4318.29
434.10	4435.32
434.28	4266.80
434.47	4489.15
434.66	4440.00
434.85	4477.44
435.03	4552.34
435.22	4442.34
435.41	4601.49
435.59	4592.13
435.78	4655.33
435.97	4648.30
436.16	4624.90
436.34	4568.73
436.53	4610.86
436.72	4683.41
436.90	4608.51
437.09	4615.54
437.28	4643.62
437.46	4587.45
437.65	4737.24
437.84	4655.33
438.02	4727.88
438.21	4716.18
438.40	4695.11
438.58	4887.04
438.77	4891.72
438.96	4880.02
439.14	5097.69
439.33	4971.30
439.52	4954.91
439.70	5076.62
439.89	5163.22
440.08	5149.18
440.26	5167.90
440.45	5060.24
440.63	5233.44
440.82	5425.36
441.01	5343.44
441.19	5458.13
441.38	5518.98
441.57	5547.07
441.75	5593.88
441.94	5638.35
442.12	5748.36
442.31	5741.33
442.50	5778.78
442.68	5579.84
442.87	5668.78
443.05	5645.37
443.24	5755.38
443.43	5827.93
443.61	5870.06
443.80	6087.73
443.98	5788.14
444.17	5530.69
444.35	5813.89
444.54	5954.32
444.73	5898.15
444.91	5980.07
445.10	5884.11
445.28	5731.97
445.47	5696.86
445.65	5673.46
445.84	5846.66
446.02	5966.03
446.21	5888.79
446.39	5830.27
446.58	5994.11
446.77	5928.58
446.95	6033.90
447.14	6040.92
447.32	6197.74
447.51	5935.60
447.69	5959.00
447.88	5907.51
448.06	6005.81
448.25	6019.86
448.43	5898.15
448.62	5991.77
448.80	6160.29
448.99	6008.16
449.17	6164.97
449.36	6083.05
449.54	6291.36
449.73	6218.80
449.91	6375.62
450.10	6338.17
450.28	6513.71
450.46	6389.66
450.65	6356.90
450.83	6530.09
451.02	6410.73
451.20	6555.84
451.39	6527.75
451.57	6506.69
451.76	6539.46
451.94	6588.61
452.13	6651.80
452.31	6502.01
452.49	6361.58
452.68	6527.75
452.86	6473.92
453.05	6588.61
453.23	6602.65
453.42	6403.71
453.60	6392.00
453.78	6698.61
453.97	6630.74
454.15	6597.97
454.34	6572.22
454.52	6813.30
454.70	6750.10
454.89	6689.25
455.07	6710.32
455.26	6747.76
455.44	7094.16
455.62	6911.60
455.81	6967.77
455.99	6925.65
456.17	6911.60
456.36	7148.00
456.54	7171.40
456.73	7197.15
456.91	7258.00
457.09	7325.88
457.28	7623.12
457.46	7274.38
457.64	7262.68
457.83	7440.56
458.01	7243.96
458.19	7548.23
458.38	7342.26
458.56	7482.69
458.74	7473.33
458.93	7365.67
459.11	7480.35
459.29	7468.65
459.48	7524.82
459.66	7529.50
459.84	7454.61
460.03	7791.64
460.21	7634.83
460.39	7641.85
460.57	7637.17
460.76	7613.76
460.94	7775.26
461.12	7770.58
461.31	7831.43
461.49	7857.18
461.67	7880.58
461.85	7997.61
462.04	7999.95
462.22	8131.02
462.40	8056.12
462.59	7889.95
462.77	7857.18
462.95	8131.02
463.13	7997.61
463.32	8226.98
463.50	8154.43
463.68	8241.03
463.86	8105.28
464.05	8074.85
464.23	8056.12
464.41	8243.37
464.59	7976.55
464.78	8304.22
464.96	8114.64
465.14	8088.89
465.32	8365.07
465.50	8414.23
465.69	8294.86
465.87	8332.31
466.05	8278.47
466.23	8205.92
466.41	8334.65
466.60	8566.36
466.78	8215.28
466.96	8437.63
467.14	8229.32
467.32	8421.25
467.51	8507.85
467.69	8397.84
467.87	8510.19
468.05	8702.11
468.23	8379.12
468.41	8528.91
468.60	8627.21
468.78	8657.64
468.96	8571.04
469.14	8755.94
469.32	8812.12
469.50	8734.88
469.69	8760.63
469.87	9006.38
470.05	8835.52
470.23	8877.65
470.41	8800.41
470.59	8854.25
470.77	9088.30
470.95	9163.20
471.14	9305.97
471.32	9146.81
471.50	9317.67
471.68	9338.74
471.86	9357.46
472.04	9439.38
472.22	9558.75
472.40	9348.10
472.58	9322.35
472.77	9509.60
472.95	9563.43
473.13	10068.98
473.31	9645.35
473.49	9561.09
473.67	9544.70
473.85	9809.19
474.03	9933.23
474.21	9830.25
474.39	10125.16
474.57	10068.98
474.75	10097.07
474.93	10239.84
475.12	10230.48
475.30	10139.20
475.48	10340.49
475.66	10106.43
475.84	10202.40
476.02	10366.23
476.20	10279.63
476.38	10600.29
476.56	10710.29
476.74	10967.75
476.92	10789.87
477.10	10761.78
477.28	11112.86
477.46	10719.65
477.64	11073.07
477.82	11044.99
478.00	11506.07
478.18	11487.35
478.36	11714.38
478.54	11421.81
478.72	11557.57
478.90	11538.84
479.08	11889.92
479.26	12205.89
479.44	12184.83
479.62	12252.70
479.80	12131.00
479.98	12156.74
480.16	12517.18
480.34	12540.59
480.52	12514.84
480.70	12496.12
480.88	12292.49
481.06	12716.13
481.24	12517.18
481.41	12954.87
481.59	13074.23
481.77	12959.55
481.95	13149.13
482.13	13291.90
482.31	13366.80
482.49	13610.22
482.67	13837.25
482.85	13481.49
483.03	13855.97
483.21	13809.16
483.39	13975.34
483.57	14031.51
483.74	14352.16
483.92	14230.46
484.10	14354.51
484.28	14558.13
484.46	14923.26
484.64	14616.65
484.82	14628.35
485.00	14712.61
485.18	15059.01
485.35	15154.97
485.53	15089.43
485.71	14974.75
485.89	15295.40
486.07	15499.03
486.25	15384.34
486.43	15398.38
486.61	15934.37
486.78	16208.21
486.96	15990.54
487.14	16353.32
487.32	16393.11
487.50	16343.96
487.68	16484.39
487.85	16893.99
488.03	17039.10
488.21	16950.16
488.39	17111.66
488.57	16975.91
488.75	17326.99
488.92	17804.46
489.10	17678.07
489.28	17706.15
489.46	17820.84
489.64	18305.33
489.81	18192.98
489.99	18576.83
490.17	18537.04
490.35	18487.89
490.53	18752.37
490.70	18780.46
490.88	18771.10
491.06	19157.28
491.24	19040.26
491.41	19234.52
491.59	19009.83
491.77	19136.22
491.95	19566.88
492.13	19733.06
492.30	19812.63
492.48	19866.47
492.66	20027.96
492.84	20105.20
493.01	20067.75
493.19	20271.38
493.37	20460.96
493.54	20659.91
493.72	20702.04
493.90	20893.96
494.08	21120.99
494.25	21216.96
494.43	21333.98
494.61	21509.52
494.79	21458.03
494.96	21472.07
495.14	21254.40
495.32	21404.20
495.49	21687.40
495.67	21902.73
495.85	22279.56
496.02	22239.77
496.20	22459.78
496.38	22590.85
496.55	22522.98
496.73	23101.09
496.91	22787.46
497.09	23019.17
497.26	23295.35
497.44	23049.60
497.62	23267.27
497.79	23337.48
497.97	23456.85
498.14	23393.65
498.32	23594.94
498.50	23578.56
498.67	23843.04
498.85	23821.97
499.03	24067.73
499.20	24233.91
499.38	24187.10
499.56	24276.04
499.73	24390.72
499.91	24666.91
500.08	25113.95
500.26	24533.50
500.44	24690.31
500.61	24788.61
500.79	24919.68
500.97	25078.84
501.14	25111.61
501.32	25308.21
501.49	25317.57
501.67	25294.17
501.84	25429.92
502.02	25357.36
502.20	25577.37
502.37	25621.84
502.55	26094.63
502.72	25996.33
502.90	26125.06
503.07	25703.76
503.25	26047.82
503.43	26136.76
503.60	26239.75
503.78	26040.80
503.95	26188.25
504.13	26284.22
504.30	26361.45
504.48	26583.80
504.65	26740.62
504.83	26859.99
505.01	27096.38
505.18	26597.85
505.36	27159.58
505.53	27297.67
505.71	27639.39
505.88	27630.02
506.06	27424.06
506.23	27653.43
506.41	27332.78
506.58	27735.35
506.76	27140.85
506.93	27901.53
507.11	27859.40
507.28	28100.47
507.46	28100.47
507.63	27971.74
507.81	27941.32
507.98	27772.80
508.16	28189.41
508.33	28758.16
508.50	28364.95
508.68	28439.85
508.85	28648.16
509.03	29195.84
509.20	28575.60
509.38	29233.29
509.55	28996.90
509.73	29036.69
509.90	29479.05
510.08	29029.66
510.25	29125.63
510.42	29415.85
510.60	29535.22
510.77	29736.51
510.95	29804.38
511.12	29577.35
511.30	30010.35
511.47	30148.44
511.64	30075.88
511.82	30293.55
511.99	29993.97
512.17	29965.88
512.34	29968.22
512.51	30497.18
512.69	30764.00
512.86	30338.02
513.04	30934.86
513.21	30803.79
513.38	30834.22
513.56	30698.47
513.73	30543.99
513.90	31267.22
514.08	30911.46
514.25	31159.55
514.43	31192.32
514.60	31197.00
514.77	30981.67
514.95	31484.89
515.12	31225.09
515.29	31515.31
515.47	31730.64
515.64	31931.93
515.81	31941.29
515.99	31646.38
516.16	31700.22
516.33	31491.91
516.51	31908.52
516.68	31559.78
516.85	31314.03
517.03	31641.70
517.20	32243.22
517.37	32287.69
517.54	32278.33
517.72	31945.97
517.89	32060.66
518.06	31917.89
518.24	31924.91
518.41	32636.43
518.58	32180.03
518.75	32318.12
518.93	32706.65
519.10	32496.00
519.27	33102.20
519.45	32568.55
519.62	32868.14
519.79	32975.81
519.96	33006.23
520.14	33350.29
520.31	33071.77
520.48	33053.05
520.65	33446.26
520.83	33813.72
521.00	33720.10
521.17	33654.56
521.34	34059.48
521.52	33902.66
521.69	33717.76
521.86	34609.50
522.03	33954.15
522.20	34466.73
522.38	34314.59
522.55	33951.81
522.72	34237.36
522.89	33818.40
523.07	34717.17
523.24	33881.60
523.41	34230.33
523.58	34429.28
523.75	35328.05
523.92	35199.32
524.10	34827.17
524.27	35232.08
524.44	35140.80
524.61	35007.39
524.78	35143.14
524.96	35629.98
525.13	35187.61
525.30	35515.29
525.47	35756.36
525.64	35409.96
525.81	35154.85
525.98	35391.24
526.16	35407.62
526.33	35927.22
526.50	35489.54
526.67	35243.79
526.84	35374.86
527.01	35278.89
527.18	35449.75
527.36	36037.23
527.53	35866.37
527.70	36055.95
527.87	36182.34
528.04	36034.89
528.21	36102.76
528.38	36198.73
528.55	36135.53
528.72	36428.10
528.89	36446.82
529.07	36404.69
529.24	36720.66
529.41	36732.37
529.58	36870.46
529.75	36856.42
529.92	36596.62
530.09	36708.96
530.26	36898.55
530.43	37010.89
530.60	36671.51
530.77	37214.52
530.94	37542.19
531.11	36725.35
531.28	37350.27
531.46	37488.36
531.63	37036.64
531.80	37436.87
531.97	37174.73
532.14	36774.50
532.31	37029.62
532.48	37310.48
532.65	37626.45
532.82	37415.80
532.99	37663.90
533.16	37177.07
533.33	37811.35
533.50	37963.49
533.67	37806.67
533.84	37415.80
534.01	37820.72
534.18	37839.44
534.35	38389.47
534.52	37874.55
534.69	38150.73
534.86	38068.81
535.03	37715.39
535.20	38499.47
535.37	38206.90
535.54	38522.88
535.71	38443.30
535.88	38440.96
536.05	38321.59
536.22	38462.02
536.38	38873.96
536.55	38490.11
536.72	38567.35
536.89	38501.81
537.06	38735.87
537.23	38873.96
537.40	38557.99
537.57	39108.01
537.74	39047.16
537.91	39381.85
538.08	39220.36
538.25	39019.07
538.42	38733.53
538.59	39454.41
538.75	38962.90
538.92	39255.46
539.09	39150.14
539.26	39166.52
539.43	39608.89
539.60	39164.18
539.77	39084.61
539.94	39735.27
540.11	39021.41
540.28	39756.34
540.44	39522.29
540.61	39459.09
540.78	38836.51
540.95	39653.36
541.12	39541.01
541.29	39447.39
541.46	39861.66
541.62	39824.22
541.79	39772.72
541.96	39299.94
542.13	39571.44
542.30	39728.25
542.47	39559.73
542.63	39903.79
542.80	40013.80
542.97	40385.94
543.14	40437.44
543.31	40734.68
543.48	40165.93
543.64	41263.64
543.81	40931.29
543.98	40577.87
544.15	40456.16
544.32	41055.34
544.48	41134.92
544.65	40882.14
544.82	40732.34
544.99	40746.39
545.16	40816.60
545.32	40577.87
545.49	41120.87
545.66	41191.09
545.83	40858.73
546.00	41691.96
546.16	40863.41
546.33	41057.68
546.50	41008.53
546.67	40882.14
546.83	40559.14
547.00	40954.69
547.17	40987.46
547.34	41345.56
547.50	41441.53
547.67	41380.67
547.84	41635.79
548.00	41453.23
548.17	41710.69
548.34	41684.94
548.51	41682.60
548.67	41443.87
548.84	41745.80
549.01	41455.57
549.18	41383.01
549.34	41773.88
549.51	41942.40
549.68	41851.12
549.84	41792.61
550.01	42307.52
550.18	41626.43
550.34	41874.52
550.51	41897.93
550.68	41933.04
550.84	41645.15
551.01	42328.59
551.18	42031.34
551.34	42160.07
551.51	42344.97
551.68	42438.59
551.84	42253.69
552.01	42258.37
552.18	41972.83
552.34	42115.60
552.51	42071.13
552.68	42010.28
552.84	42431.57
553.01	42270.08
553.18	42686.69
553.34	42274.76
553.51	42363.70
553.67	42607.11
553.84	42885.64
554.01	42522.85
554.17	42682.01
554.34	42883.30
554.51	42817.76
554.67	42700.73
554.84	42859.89
555.00	42637.54
555.17	42181.13
555.33	42593.07
555.50	42508.81
555.67	42618.81
555.83	42611.79
556.00	42941.81
556.16	43430.98
556.33	42906.70
556.50	42745.20
556.66	43077.56
556.83	42433.91
556.99	43012.02
557.16	43234.38
557.32	43335.02
557.49	43203.95
557.65	42756.91
557.82	43136.07
557.98	43012.02
558.15	43330.34
558.32	43346.72
558.48	42848.19
558.65	43112.67
558.81	42717.12
558.98	43313.95
559.14	43536.30
559.31	42717.12
559.47	43440.34
559.64	43693.12
559.80	43768.02
559.97	43484.81
560.13	43365.45
560.30	43402.89
560.46	43730.57
560.63	43779.72
560.79	43552.69
560.96	43995.05
561.12	43985.69
561.29	43597.16
561.45	43278.85
561.61	43271.82
561.78	43379.49
561.94	43604.18
562.11	43412.26
562.27	43466.09
562.44	43679.08
562.60	44037.18
562.77	43405.23
562.93	43669.72
563.10	43878.02
563.26	43559.71
563.42	43913.13
563.59	43892.07
563.75	43225.01
563.92	43686.10
564.08	43655.67
564.24	43880.36
564.41	44102.71
564.57	43704.82
564.74	43786.74
564.90	43798.44
565.07	44158.89
565.23	43674.40
565.39	43515.24
565.56	43639.29
565.72	43646.31
565.88	43725.89
566.05	43414.60
566.21	43927.17
566.38	44147.18
566.54	43796.10
566.70	44430.39
566.87	44339.11
567.03	44107.40
567.19	44446.77
567.36	44430.39
567.52	43985.69
567.68	44289.96
567.85	44194.00
568.01	44112.08
568.17	43826.53
568.34	43695.46
568.50	44060.58
568.66	43852.28
568.83	44126.12
568.99	43810.15
569.15	43758.66
569.32	43845.26
569.48	43950.58
569.64	44500.61
569.81	44289.96
569.97	44186.97
570.13	44165.91
570.30	43999.73
570.46	44121.44
570.62	44109.74
570.78	43772.70
570.95	44444.43
571.11	44456.14
571.27	43831.21
571.43	43983.35
571.60	43941.22
571.76	44430.39
571.92	44292.30
572.09	44325.07
572.25	44002.07
572.41	43786.74
572.57	44320.38
572.74	44409.32
572.90	44184.63
573.06	44339.11
573.22	44435.07
573.38	43995.05
573.55	44182.29
573.71	44268.89
573.87	44177.61
574.03	44165.91
574.20	44215.06
574.36	44432.73
574.52	44165.91
574.68	44301.66
574.84	44435.07
575.01	44299.32
575.17	44378.90
575.33	44013.77
575.49	44165.91
575.65	44186.97
575.82	44149.53
575.98	44186.97
576.14	44802.53
576.30	44416.35
576.46	44271.23
576.62	44308.68
576.79	44325.07
576.95	43770.36
577.11	44250.17
577.27	44395.28
577.43	44203.36
577.59	44374.22
577.75	44404.64
577.92	44268.89
578.08	43821.85
578.24	44076.97
578.40	44313.36
578.56	44229.10
578.72	44051.22
578.88	44442.09
579.04	44774.45
579.21	44355.49
579.37	44638.70
579.53	44650.40
579.69	44449.11
579.85	44304.00
580.01	44383.58
580.17	44509.97
580.33	44165.91
580.49	44912.54
580.65	45001.48
580.82	44172.93
580.98	44760.40
581.14	44598.91
581.30	44797.85
581.46	44711.25
581.62	44507.63
581.78	44509.97
581.94	44996.80
582.10	44594.23
582.26	44208.04
582.42	44423.37
582.58	44669.12
582.74	44645.72
582.90	44533.37
583.06	44626.99
583.22	44662.10
583.38	44634.02
583.54	44355.49
583.70	44823.60
583.86	44737.00
584.02	43887.39
584.18	44268.89
584.34	44369.54
584.50	44133.14
584.66	44519.33
584.82	44399.96
584.98	44685.51
585.14	44573.16
585.30	44725.30
585.46	44519.33
585.62	44594.23
585.78	44800.19
585.94	44067.61
586.10	44615.29
586.26	44662.10
586.42	44582.52
586.58	44905.52
586.74	44481.88
586.90	44311.02
587.06	44168.25
587.22	44308.68
587.38	44392.94
587.54	44528.69
587.70	44912.54
587.86	44708.91
588.02	44875.09
588.18	44528.69
588.34	45006.16
588.49	44044.20
588.65	44142.50
588.81	43856.96
588.97	44245.49
589.13	44322.72
589.29	44884.45
589.45	44692.53
589.61	44631.68
589.77	44748.70
589.93	44889.13
590.08	44591.89
590.24	44535.71
