SpectraSuite Data File
++++++++++++++++++++++++++++++++++++
Date: Fri Oct 25 10:44:54 EDT 2013
User: price-jones
Dark Spectrum Present: No
Reference Spectrum Present: No
Number of Sampled Component Spectra: 1
Spectrometers: USB2+H05261
Integration Time (usec): 100000 (USB2+H05261)
Spectra Averaged: 1 (USB2+H05261)
Boxcar Smoothing: 0 (USB2+H05261)
Correct for Electrical Dark: No (USB2+H05261)
Strobe/Lamp Enabled: No (USB2+H05261)
Correct for Detector Non-linearity: No (USB2+H05261)
Correct for Stray Light: No (USB2+H05261)
Number of Pixels in Processed Spectrum: 2048
>>>>>Begin Processed Spectral Data<<<<<
365.73	98.30
365.92	98.30
366.12	98.30
366.32	18.72
366.52	0.00
366.72	86.60
366.91	0.00
367.11	14.04
367.31	44.47
367.51	100.64
367.70	60.85
367.90	67.88
368.10	16.38
368.30	98.30
368.49	0.00
368.69	65.54
368.89	28.09
369.09	49.15
369.28	117.03
369.48	60.85
369.68	60.85
369.87	44.47
370.07	77.24
370.27	154.48
370.47	110.01
370.66	372.15
370.86	381.51
371.06	425.98
371.25	402.57
371.45	360.44
371.65	351.08
371.84	463.43
372.04	465.77
372.24	512.58
372.44	444.70
372.63	477.47
372.83	484.49
373.03	510.24
373.22	498.53
373.42	486.83
373.62	521.94
373.81	535.98
374.01	528.96
374.21	550.03
374.40	498.53
374.60	552.37
374.79	505.56
374.99	557.05
375.19	559.39
375.38	624.92
375.58	599.18
375.78	554.71
375.97	606.20
376.17	648.33
376.37	559.39
376.56	552.37
376.76	540.66
376.95	566.41
377.15	573.43
377.35	559.39
377.54	587.47
377.74	610.88
377.93	561.73
378.13	662.37
378.33	655.35
378.52	521.94
378.72	617.90
378.91	552.37
379.11	547.69
379.31	631.94
379.50	603.86
379.70	636.63
379.89	697.48
380.09	645.99
380.28	589.82
380.48	622.58
380.68	648.33
380.87	627.26
381.07	676.41
381.26	711.52
381.46	636.63
381.65	688.12
381.85	648.33
382.04	737.27
382.24	709.18
382.43	641.31
382.63	676.41
382.83	657.69
383.02	748.97
383.22	723.23
383.41	657.69
383.61	734.93
383.80	723.23
384.00	671.73
384.19	650.67
384.39	676.41
384.58	723.23
384.78	788.76
384.97	751.31
385.17	758.33
385.36	716.20
385.56	753.65
385.75	751.31
385.95	739.61
386.14	788.76
386.34	744.29
386.53	807.48
386.72	732.59
386.92	781.74
387.11	889.40
387.31	854.30
387.50	800.46
387.70	777.06
387.89	866.00
388.09	821.53
388.28	814.51
388.48	798.12
388.67	933.87
388.86	821.53
389.06	823.87
389.25	819.19
389.45	889.40
389.64	877.70
389.84	929.19
390.03	945.58
390.22	980.68
390.42	945.58
390.61	943.24
390.81	961.96
391.00	851.96
391.19	912.81
391.39	1027.50
391.58	961.96
391.78	938.55
391.97	1001.75
392.16	936.21
392.36	1001.75
392.55	976.00
392.75	994.73
392.94	964.30
393.13	985.37
393.33	894.08
393.52	983.02
393.71	1004.09
393.91	1022.81
394.10	1006.43
394.29	1100.05
394.49	1064.94
394.68	1100.05
394.88	1062.60
395.07	1027.50
395.26	1095.37
395.46	1217.08
395.65	1121.12
395.84	1153.88
396.04	1107.07
396.23	1078.99
396.42	1069.62
396.62	1036.86
396.81	1151.54
397.00	1039.20
397.19	1181.97
397.39	1273.25
397.58	1203.04
397.77	1261.55
397.97	1240.48
398.16	1289.64
398.35	1362.19
398.55	1287.29
398.74	1320.06
398.93	1334.11
399.12	1296.66
399.32	1287.29
399.51	1350.49
399.70	1406.66
399.90	1320.06
400.09	1320.06
400.28	1404.32
400.47	1310.70
400.67	1432.41
400.86	1385.60
401.05	1465.18
401.24	1582.20
401.44	1490.92
401.63	1448.79
401.82	1476.88
402.01	1401.98
402.21	1514.33
402.40	1516.67
402.59	1495.60
402.78	1493.26
402.97	1556.46
403.17	1511.99
403.36	1554.12
403.55	1584.54
403.74	1638.38
403.93	1544.75
404.13	1694.55
404.32	1664.12
404.51	1645.40
404.70	1617.31
404.89	1703.91
405.09	1722.63
405.28	1685.19
405.47	1715.61
405.66	1746.04
405.85	1748.38
406.05	1724.97
406.24	1802.21
406.43	1802.21
406.62	1799.87
406.81	1881.79
407.00	1809.23
407.20	1837.32
407.39	1930.94
407.58	1921.58
407.77	1902.86
407.96	1989.46
408.15	2003.50
408.34	1926.26
408.54	2008.18
408.73	1966.05
408.92	1956.69
409.11	1966.05
409.30	1961.37
409.49	1944.99
409.68	2036.27
409.87	1963.71
410.07	2092.44
410.26	2083.08
410.45	2106.48
410.64	2101.80
410.83	2244.57
411.02	2214.15
411.21	2303.09
411.40	2289.04
411.59	2239.89
411.78	2200.10
411.98	2366.28
412.17	2370.96
412.36	2429.48
412.55	2385.01
412.74	2389.69
412.93	2321.81
413.12	2415.43
413.31	2602.68
413.50	2487.99
413.69	2363.94
413.88	2614.38
414.07	2438.84
414.26	2635.44
414.45	2626.08
414.64	2532.46
414.83	2696.30
415.02	2670.55
415.22	2705.66
415.41	2773.53
415.60	2810.98
415.79	2792.26
415.98	2904.60
416.17	2853.11
416.36	2860.13
416.55	2932.69
416.74	2874.18
416.93	2892.90
417.12	3045.04
417.31	2981.84
417.50	2979.50
417.69	3009.93
417.88	3047.38
418.07	3021.63
418.26	3016.95
418.45	3012.27
418.64	3110.57
418.83	3162.06
419.02	3096.53
419.21	3101.21
419.39	3169.09
419.58	3197.17
419.77	3201.85
419.96	3143.34
420.15	3316.54
420.34	3384.41
420.53	3372.71
420.72	3346.97
420.91	3295.47
421.10	3438.25
421.29	3375.05
421.48	3466.33
421.67	3487.40
421.86	3473.36
422.05	3459.31
422.24	3424.20
422.43	3461.65
422.61	3396.12
422.80	3576.34
422.99	3588.04
423.18	3609.11
423.37	3684.00
423.56	3520.17
423.75	3449.95
423.94	3449.95
424.13	3225.26
424.32	3431.23
424.50	3545.91
424.69	3459.31
424.88	3574.00
425.07	3613.79
425.26	3545.91
425.45	3452.29
425.64	3737.84
425.83	3674.64
426.01	3688.68
426.20	3604.42
426.39	3578.68
426.58	3613.79
426.77	3588.04
426.96	3602.08
427.15	3761.24
427.33	3772.94
427.52	3597.40
427.71	3789.33
427.90	3597.40
428.09	3653.58
428.28	3695.71
428.46	3801.03
428.65	3822.09
428.84	3772.94
429.03	3843.16
429.22	3836.14
429.40	3723.79
429.59	3751.88
429.78	3555.27
429.97	3609.11
430.16	3831.46
430.34	3786.99
430.53	3976.57
430.72	3899.33
430.91	3943.80
431.10	3969.55
431.28	3957.85
431.47	4168.49
431.66	4184.88
431.85	4109.98
432.03	4182.54
432.22	4196.58
432.41	4105.30
432.60	4135.73
432.79	4255.09
432.97	4285.52
433.16	4238.71
433.35	4175.52
433.54	4245.73
433.72	4308.93
433.91	4381.48
434.10	4334.67
434.28	4208.28
434.47	4367.44
434.66	4329.99
434.85	4393.19
435.03	4409.57
435.22	4341.69
435.41	4669.37
435.59	4585.11
435.78	4636.60
435.97	4517.23
436.16	4561.70
436.34	4596.81
436.53	4578.09
436.72	4524.26
436.90	4552.34
437.09	4669.37
437.28	4587.45
437.46	4578.09
437.65	4652.98
437.84	4770.01
438.02	4657.67
438.21	4798.10
438.40	4613.20
438.58	4861.29
438.77	4894.06
438.96	4835.55
439.14	5001.72
439.33	5039.17
439.52	5067.26
439.70	5172.58
439.89	5085.98
440.08	5158.54
440.26	5146.84
440.45	5502.60
440.63	5177.26
440.82	5408.98
441.01	5210.03
441.19	5284.93
441.38	5404.30
441.57	5418.34
441.75	5511.96
441.94	5743.67
442.12	5579.84
442.31	5645.37
442.50	5781.12
442.68	5666.44
442.87	5638.35
443.05	5589.20
443.24	5881.77
443.43	5776.44
443.61	5783.46
443.80	5753.04
443.98	5799.85
444.17	5675.80
444.35	5790.49
444.54	5865.38
444.73	5874.74
444.91	5701.54
445.10	5881.77
445.28	5724.95
445.47	5753.04
445.65	5839.64
445.84	5813.89
446.02	5994.11
446.21	5825.59
446.39	5886.45
446.58	5893.47
446.77	5877.09
446.95	5968.37
447.14	6146.25
447.32	6008.16
447.51	6125.18
447.69	5853.68
447.88	6083.05
448.06	5898.15
448.25	6155.61
448.43	6216.46
448.62	6012.84
448.80	5912.19
448.99	6211.78
449.17	6136.88
449.36	6221.14
449.54	6340.51
449.73	6298.38
449.91	6331.15
450.10	6434.13
450.28	6403.71
450.46	6518.39
450.65	6427.11
450.83	6509.03
451.02	6333.49
451.20	6380.30
451.39	6382.64
451.57	6321.79
451.76	6441.15
451.94	6494.99
452.13	6595.63
452.31	6502.01
452.49	6403.71
452.68	6504.35
452.86	6455.20
453.05	6525.41
453.23	6628.40
453.42	6459.88
453.60	6525.41
453.78	6670.53
453.97	6621.38
454.15	6551.16
454.34	6623.72
454.52	6771.17
454.70	6738.40
454.89	6885.86
455.07	6850.75
455.26	6860.11
455.44	6918.62
455.62	6949.05
455.81	7016.93
455.99	7080.12
456.17	7122.25
456.36	7117.57
456.54	7045.01
456.73	7140.97
456.91	7243.96
457.09	7140.97
457.28	7461.63
457.46	7248.64
457.64	7478.01
457.83	7330.56
458.01	7396.09
458.19	7466.31
458.38	7225.23
458.56	7405.46
458.74	7438.22
458.93	7468.65
459.11	7473.33
459.29	7571.63
459.48	7440.56
459.66	7585.68
459.84	7620.78
460.03	7410.14
460.21	7782.28
460.39	7676.96
460.57	7672.28
460.76	7660.57
460.94	7786.96
461.12	7639.51
461.31	7784.62
461.49	7857.18
461.67	7826.75
461.85	7868.88
462.04	7857.18
462.22	8051.44
462.40	7976.55
462.59	7976.55
462.77	8182.51
462.95	7981.23
463.13	8074.85
463.32	8079.53
463.50	8072.51
463.68	8156.77
463.86	8304.22
464.05	7999.95
464.23	7941.44
464.41	8191.88
464.59	8114.64
464.78	8280.82
464.96	8203.58
465.14	8112.30
465.32	8379.12
465.50	8344.01
465.69	8336.99
465.87	8493.80
466.05	8231.66
466.23	8189.53
466.41	8198.90
466.60	8692.75
466.78	8154.43
466.96	8308.90
467.14	8344.01
467.32	8416.57
467.51	8479.76
467.69	8339.33
467.87	8723.18
468.05	8620.19
468.23	8547.64
468.41	8479.76
468.60	8718.50
468.78	8674.03
468.96	8695.09
469.14	8784.03
469.32	8994.68
469.50	8641.26
469.69	9039.15
469.87	8999.36
470.05	8966.59
470.23	8945.53
470.41	8901.06
470.59	9015.74
470.77	8931.48
470.95	8975.95
471.14	9144.47
471.32	9029.79
471.50	9380.87
471.68	9242.78
471.86	9502.58
472.04	9338.74
472.22	9603.22
472.40	9336.40
472.58	9598.54
472.77	9418.32
472.95	9692.16
473.13	9753.01
473.31	9502.58
473.49	9458.10
473.67	9706.20
473.85	9781.10
474.03	9818.55
474.21	9912.17
474.39	9841.95
474.57	10171.97
474.75	10274.95
474.93	10200.05
475.12	10050.26
475.30	10094.73
475.48	10352.19
475.66	10267.93
475.84	10141.54
476.02	10279.63
476.20	10251.55
476.38	10649.44
476.56	10789.87
476.74	10602.63
476.92	10647.10
477.10	10562.84
477.28	11171.38
477.46	10984.13
477.64	11192.44
477.82	11194.78
478.00	11517.78
478.18	11325.85
478.36	11314.15
478.54	11494.37
478.72	11838.43
478.90	11730.76
479.08	11903.96
479.26	11946.09
479.44	11812.68
479.62	11978.86
479.80	12112.27
479.98	12224.62
480.16	12372.07
480.34	12060.78
480.52	12348.67
480.70	12568.68
480.88	12212.92
481.06	12657.62
481.24	12793.37
481.41	12556.97
481.59	13053.17
481.77	13053.17
481.95	13025.08
482.13	13352.76
482.31	13174.88
482.49	13673.41
482.67	13561.06
482.85	13891.08
483.03	13830.23
483.21	13771.71
483.39	14043.21
483.57	14122.79
483.74	14389.61
483.92	14576.86
484.10	14106.41
484.28	14347.48
484.46	14766.44
484.64	14717.29
484.82	14752.40
485.00	14682.18
485.18	14888.15
485.35	15147.95
485.53	14817.93
485.71	14794.53
485.89	15164.33
486.07	15255.61
486.25	15218.16
486.43	15510.73
486.61	15419.45
486.78	15800.96
486.96	15932.03
487.14	15960.11
487.32	16276.09
487.50	16322.90
487.68	16678.66
487.85	16830.79
488.03	17022.72
488.21	17172.51
488.39	17104.64
488.57	17226.34
488.75	17331.67
488.92	17490.82
489.10	17554.02
489.28	17872.33
489.46	18162.56
489.64	17886.37
489.81	18319.37
489.99	18298.31
490.17	18408.31
490.35	18625.98
490.53	18485.55
490.70	18827.27
490.88	18813.23
491.06	19030.90
491.24	19211.12
491.41	19314.10
491.59	19044.94
491.77	19187.71
491.95	19297.72
492.13	19379.64
492.30	19814.98
492.48	19878.17
492.66	20383.73
492.84	19906.26
493.01	20095.84
493.19	20283.08
493.37	20327.55
493.54	20554.58
493.72	20905.66
493.90	20877.58
494.08	20793.32
494.25	21092.91
494.43	21530.59
494.61	21387.82
494.79	21336.32
494.96	21458.03
495.14	21476.76
495.32	21664.00
495.49	21799.75
495.67	21736.56
495.85	21830.18
496.02	22242.11
496.20	22567.45
496.38	22314.67
496.55	22717.24
496.73	23030.87
496.91	22609.58
497.09	22937.25
497.26	22984.06
497.44	22916.19
497.62	23342.16
497.79	23527.06
497.97	23220.45
498.14	23594.94
498.32	23707.29
498.50	23480.25
498.67	24070.07
498.85	23772.82
499.03	24329.87
499.20	24088.79
499.38	24140.29
499.56	24126.24
499.73	24577.97
499.91	24372.00
500.08	24505.41
500.26	24278.38
500.44	24772.23
500.61	24704.35
500.79	24479.66
500.97	24968.84
501.14	25495.46
501.32	25106.93
501.49	25256.72
501.67	25240.34
501.84	25638.23
502.02	25502.48
502.20	25736.53
502.37	25717.81
502.55	25305.87
502.72	26192.94
502.90	26073.57
503.07	25846.54
503.25	26136.76
503.43	25675.68
503.60	26345.07
503.78	26223.36
503.95	26008.03
504.13	26258.47
504.30	26211.66
504.48	26717.22
504.65	26829.56
504.83	26831.90
505.01	26836.58
505.18	26682.11
505.36	27393.63
505.53	27227.45
505.71	27562.15
505.88	27835.99
506.06	27077.66
506.23	27606.62
506.41	27515.34
506.58	27615.98
506.76	27358.52
506.93	27915.57
507.11	27740.03
507.28	27887.48
507.46	27850.03
507.63	28011.53
507.81	28341.55
507.98	27721.30
508.16	27819.61
508.33	28589.64
508.50	28746.46
508.68	28685.61
508.85	28954.77
509.03	28411.76
509.20	28706.67
509.38	29050.73
509.55	29034.35
509.73	29076.48
509.90	29240.31
510.08	29230.95
510.25	29153.71
510.42	29373.72
510.60	29549.26
510.77	29397.13
510.95	29874.60
511.12	29369.04
511.30	29436.92
511.47	29970.56
511.64	30354.41
511.82	29886.30
511.99	30031.41
512.17	29862.90
512.34	30211.64
512.51	30345.05
512.69	30319.30
512.86	30300.58
513.04	30639.95
513.21	30789.75
513.38	30621.23
513.56	30307.60
513.73	30408.24
513.90	30806.13
514.08	30953.58
514.25	30649.32
514.43	30962.95
514.60	30944.22
514.77	31213.38
514.95	31494.25
515.12	31164.23
515.29	31779.79
515.47	31594.89
515.64	31524.68
515.81	31391.26
515.99	31519.99
516.16	31681.49
516.33	31667.45
516.51	31889.80
516.68	31566.81
516.85	31517.65
517.03	31868.73
517.20	32060.66
517.37	32297.05
517.54	32500.68
517.72	32053.64
517.89	31777.45
518.06	32144.92
518.24	31805.54
518.41	32488.98
518.58	32353.23
518.75	32641.11
518.93	32954.74
519.10	32662.18
519.27	32708.99
519.45	33078.79
519.62	33151.35
519.79	33085.81
519.96	33170.07
520.14	33308.16
520.31	32936.02
520.48	33273.06
520.65	33099.86
520.83	33539.88
521.00	33500.09
521.17	33603.07
521.34	33881.60
521.52	33837.12
521.69	34092.24
521.86	33893.30
522.03	33757.55
522.20	34237.36
522.38	34122.67
522.55	34195.23
522.72	34220.97
522.89	34134.37
523.07	34389.49
523.24	34160.12
523.41	34595.46
523.58	34415.24
523.75	35042.50
523.92	34902.07
524.10	34628.23
524.27	34806.11
524.44	34852.92
524.61	34998.03
524.78	35283.58
524.96	35096.33
525.13	35194.64
525.30	35185.27
525.47	35604.23
525.64	35416.99
525.81	35344.43
525.98	35800.83
526.16	35187.61
526.33	35264.85
526.50	35700.19
526.67	34792.06
526.84	35796.15
527.01	35599.55
527.18	35641.68
527.36	35903.82
527.53	35871.05
527.70	36512.36
527.87	36116.81
528.04	35782.11
528.21	36591.94
528.38	36259.58
528.55	36570.87
528.72	35983.40
528.89	36559.17
529.07	36605.98
529.24	36098.08
529.41	36414.05
529.58	36364.90
529.75	36524.06
529.92	36706.62
530.09	36680.88
530.26	36416.40
530.43	37085.79
530.60	36788.54
530.77	36772.16
530.94	37153.66
531.11	36608.32
531.28	36779.18
531.46	37223.88
531.63	37303.46
531.80	37249.63
531.97	36971.10
532.14	37415.80
532.31	36744.07
532.48	37378.36
532.65	37600.71
532.82	36982.80
532.99	37502.40
533.16	37071.75
533.33	37855.82
533.50	38031.36
533.67	37914.34
533.84	37755.18
534.01	37797.31
534.18	37607.73
534.35	38094.56
534.52	37993.92
534.69	38529.90
534.86	37902.64
535.03	38080.52
535.20	38665.65
535.37	38286.48
535.54	38499.47
535.71	38286.48
535.88	38050.09
536.05	38609.48
536.22	38815.44
536.38	38682.03
536.55	38635.22
536.72	38747.57
536.89	38185.84
537.06	38583.73
537.23	38778.00
537.40	38562.67
537.57	38864.60
537.74	38803.74
537.91	39388.88
538.08	38895.02
538.25	38885.66
538.42	39016.73
538.59	39201.63
538.75	38644.59
538.92	38953.54
539.09	39278.87
539.26	39044.82
539.43	39187.59
539.60	39056.52
539.77	39157.16
539.94	39611.23
540.11	38967.58
540.28	39164.18
540.44	39505.90
540.61	39154.82
540.78	39702.51
540.95	39264.83
541.12	39562.08
541.29	39395.90
541.46	39505.90
541.62	39742.30
541.79	40069.97
541.96	39531.65
542.13	39777.40
542.30	40030.18
542.47	40346.15
542.63	40217.43
542.80	40009.12
542.97	40168.27
543.14	40491.27
543.31	40725.32
543.48	40500.63
543.64	41233.22
543.81	40507.65
543.98	40720.64
544.15	40442.12
544.32	40790.86
544.48	41352.58
544.65	40966.40
544.82	40889.16
544.99	40460.84
545.16	40734.68
545.32	40844.69
545.49	41127.89
545.66	40837.67
545.83	40924.27
546.00	41418.12
546.16	41139.60
546.33	41184.07
546.50	40994.48
546.67	40882.14
546.83	40683.19
547.00	41020.23
547.17	41429.82
547.34	40928.95
547.50	41373.65
547.67	41640.47
547.84	41769.20
548.00	41567.91
548.17	41476.63
548.34	41818.35
548.51	41841.76
548.67	41649.83
548.84	41642.81
549.01	41701.32
549.18	41350.24
549.34	41724.73
549.51	41280.03
549.68	42298.16
549.84	41729.41
550.01	42036.02
550.18	41443.87
550.34	42005.59
550.51	41991.55
550.68	41970.49
550.84	41647.49
551.01	42019.64
551.18	41890.91
551.34	42106.24
551.51	41766.86
551.68	42450.30
551.84	42279.44
552.01	42195.18
552.18	41916.65
552.34	41979.85
552.51	42419.87
552.68	42440.93
552.84	42375.40
553.01	42817.76
553.18	42698.39
553.34	42562.64
553.51	42216.24
553.67	42965.21
553.84	42684.35
554.01	42120.28
554.17	42714.78
554.34	42866.91
554.51	42630.52
554.67	42995.64
554.84	42749.88
555.00	42658.60
555.17	42836.48
555.33	42780.31
555.50	42817.76
555.67	42733.50
555.83	42667.97
556.00	42918.40
556.16	42829.46
556.33	42925.42
556.50	42850.53
556.66	43262.46
556.83	42745.20
556.99	43440.34
557.16	43416.94
557.32	43119.69
557.49	43157.14
557.65	42918.40
557.82	43077.56
557.98	43150.12
558.15	43395.87
558.32	43217.99
558.48	43234.38
558.65	43040.11
558.81	43122.03
558.98	42766.27
559.14	43503.54
559.31	43288.21
559.47	43384.17
559.64	43447.36
559.80	43702.48
559.97	43482.47
560.13	42541.58
560.30	43129.05
560.46	43512.90
560.63	43618.22
560.79	43545.67
560.96	43999.73
561.12	43861.64
561.29	43627.59
561.45	43746.95
561.61	43391.19
561.78	43304.59
561.94	43662.69
562.11	43344.38
562.27	43503.54
562.44	43775.04
562.60	43971.64
562.77	43510.56
562.93	43606.52
563.10	43812.49
563.26	43466.09
563.42	43962.28
563.59	43299.91
563.75	43620.56
563.92	44018.46
564.08	43768.02
564.24	43882.70
564.41	43807.81
564.57	43941.22
564.74	43665.03
564.90	43676.74
565.07	44179.95
565.23	43817.17
565.39	43887.39
565.56	44266.55
565.72	43407.58
565.88	44065.27
566.05	43838.23
566.21	43803.13
566.38	44226.76
566.54	43688.44
566.70	44390.60
566.87	44636.36
567.03	43922.49
567.19	44626.99
567.36	44423.37
567.52	43847.60
567.68	44025.48
567.85	43540.99
568.01	43899.09
568.17	43854.62
568.34	44430.39
568.50	44350.81
568.66	43817.17
568.83	44177.61
568.99	44091.01
569.15	43777.38
569.32	43955.26
569.48	44179.95
569.64	43990.37
569.81	44236.12
569.97	43992.71
570.13	43810.15
570.30	44023.14
570.46	44198.68
570.62	43508.22
570.78	44039.52
570.95	43793.76
571.11	44196.34
571.27	44004.41
571.43	44105.06
571.60	44547.42
571.76	43873.34
571.92	44325.07
572.09	44549.76
572.25	44226.76
572.41	44240.81
572.57	44383.58
572.74	44484.22
572.90	44547.42
573.06	44416.35
573.22	44357.83
573.38	44411.67
573.55	44339.11
573.71	44177.61
573.87	44112.08
574.03	44039.52
574.20	44053.56
574.36	44327.41
574.52	44849.35
574.68	44556.78
574.84	44357.83
575.01	44397.62
575.17	44442.09
575.33	44016.11
575.49	44051.22
575.65	44603.59
575.82	44453.79
575.98	44385.92
576.14	44250.17
576.30	44484.22
576.46	44318.04
576.62	44341.45
576.79	44540.39
576.95	44147.18
577.11	44306.34
577.27	44306.34
577.43	44989.78
577.59	44287.62
577.75	44367.20
577.92	44119.10
578.08	43950.58
578.24	43723.55
578.40	44877.43
578.56	44285.28
578.72	44304.00
578.88	44907.86
579.04	44856.37
579.21	44847.00
579.37	44083.99
579.53	44205.70
579.69	44322.72
579.85	44701.89
580.01	44289.96
580.17	44325.07
580.33	45069.36
580.49	44694.87
580.65	44514.65
580.82	44552.10
580.98	44219.74
581.14	44086.33
581.30	44741.68
581.46	44678.49
581.62	44493.58
581.78	44376.56
581.94	45010.84
582.10	44491.24
582.26	44657.42
582.42	44800.19
582.58	44229.10
582.74	44362.51
582.90	44556.78
583.06	44591.89
583.22	44926.58
583.38	44610.61
583.54	44641.04
583.70	44547.42
583.86	44266.55
584.02	44011.43
584.18	44194.00
584.34	44629.34
584.50	44573.16
584.66	44282.94
584.82	44013.77
584.98	44889.13
585.14	44788.49
585.30	44416.35
585.46	44617.63
585.62	44470.18
585.78	44360.17
585.94	44257.19
586.10	44451.45
586.26	44870.41
586.42	44554.44
586.58	44519.33
586.74	45022.54
586.90	44626.99
587.06	44306.34
587.22	44687.85
587.38	44552.10
587.54	44559.12
587.70	44809.56
587.86	44488.90
588.02	45057.65
588.18	44924.24
588.34	44734.66
588.49	44287.62
588.65	44463.16
588.81	44364.85
588.97	44175.27
589.13	44367.20
589.29	44608.27
589.45	44158.89
589.61	44949.99
589.77	44762.75
589.93	45104.46
590.08	45256.60
590.24	44837.64
