SpectraSuite Data File
++++++++++++++++++++++++++++++++++++
Date: Fri Oct 25 11:26:31 EDT 2013
User: price-jones
Dark Spectrum Present: No
Reference Spectrum Present: No
Number of Sampled Component Spectra: 1
Spectrometers: USB2+H05261
Integration Time (usec): 100000 (USB2+H05261)
Spectra Averaged: 1 (USB2+H05261)
Boxcar Smoothing: 0 (USB2+H05261)
Correct for Electrical Dark: No (USB2+H05261)
Strobe/Lamp Enabled: No (USB2+H05261)
Correct for Detector Non-linearity: No (USB2+H05261)
Correct for Stray Light: No (USB2+H05261)
Number of Pixels in Processed Spectrum: 2048
>>>>>Begin Processed Spectral Data<<<<<
365.73	276.18
365.92	276.18
366.12	276.18
366.32	133.41
366.52	161.50
366.72	154.48
366.91	102.98
367.11	117.03
367.31	147.45
367.51	117.03
367.70	91.28
367.90	126.39
368.10	112.35
368.30	175.54
368.49	133.41
368.69	161.50
368.89	173.20
369.09	135.75
369.28	173.20
369.48	152.13
369.68	205.97
369.87	271.50
370.07	166.18
370.27	266.82
370.47	311.29
370.66	575.77
370.86	667.05
371.06	734.93
371.25	706.84
371.45	613.22
371.65	662.37
371.84	720.88
372.04	678.76
372.24	734.93
372.44	727.91
372.63	763.01
372.83	669.39
373.03	777.06
373.22	784.08
373.42	765.36
373.62	826.21
373.81	835.57
374.01	926.85
374.21	880.04
374.40	851.96
374.60	882.38
374.79	812.17
374.99	784.08
375.19	793.44
375.38	814.51
375.58	835.57
375.78	905.79
375.97	908.13
376.17	912.81
376.37	863.66
376.56	903.45
376.76	884.72
376.95	919.83
377.15	884.72
377.35	973.66
377.54	938.55
377.74	1015.79
377.93	947.92
378.13	919.83
378.33	901.11
378.52	887.06
378.72	901.11
378.91	1008.77
379.11	1015.79
379.31	994.73
379.50	873.02
379.70	1006.43
379.89	1050.90
380.09	971.32
380.28	1008.77
380.48	917.49
380.68	959.62
380.87	1011.11
381.07	1050.90
381.26	968.98
381.46	976.00
381.65	1100.05
381.85	1064.94
382.04	957.28
382.24	990.05
382.43	1083.67
382.63	1041.54
382.83	1086.01
383.02	1116.44
383.22	1212.40
383.41	1139.84
383.61	1114.10
383.80	1090.69
384.00	1097.71
384.19	1165.59
384.39	1125.80
384.58	1165.59
384.78	1128.14
384.97	1181.97
385.17	1156.22
385.36	1121.12
385.56	1233.46
385.75	1289.64
385.95	1160.91
386.14	1137.50
386.34	1181.97
386.53	1142.18
386.72	1217.08
386.92	1228.78
387.11	1235.80
387.31	1327.08
387.50	1245.16
387.70	1174.95
387.89	1284.95
388.09	1245.16
388.28	1287.29
388.48	1226.44
388.67	1284.95
388.86	1357.51
389.06	1331.76
389.25	1355.17
389.45	1336.45
389.64	1254.53
389.84	1343.47
390.03	1394.96
390.22	1380.92
390.42	1406.66
390.61	1303.68
390.81	1439.43
391.00	1500.28
391.19	1385.60
391.39	1371.55
391.58	1486.24
391.78	1547.09
391.97	1441.77
392.16	1455.81
392.36	1554.12
392.55	1441.77
392.75	1591.56
392.94	1502.62
393.13	1612.63
393.33	1490.92
393.52	1556.46
393.71	1666.46
393.91	1720.29
394.10	1563.48
394.29	1542.41
394.49	1610.29
394.68	1652.42
394.88	1626.67
395.07	1657.10
395.26	1790.51
395.46	1685.19
395.65	1795.19
395.84	1687.53
396.04	1785.83
396.23	1734.34
396.42	1706.25
396.62	1774.13
396.81	1811.57
397.00	1748.38
397.19	1872.43
397.39	1813.92
397.58	1839.66
397.77	1842.00
397.97	1867.75
398.16	1905.20
398.35	1905.20
398.55	1877.11
398.74	1956.69
398.93	1952.01
399.12	1914.56
399.32	1827.96
399.51	1942.64
399.70	2087.76
399.90	1928.60
400.09	2010.52
400.28	2026.90
400.47	2036.27
400.67	2066.69
400.86	2080.74
401.05	2118.18
401.24	2136.91
401.44	2176.70
401.63	2115.84
401.82	2085.42
402.01	2186.06
402.21	2207.13
402.40	2209.47
402.59	2204.78
402.78	2134.57
402.97	2291.38
403.17	2317.13
403.36	2307.77
403.55	2239.89
403.74	2476.29
403.93	2260.96
404.13	2396.71
404.32	2441.18
404.51	2368.62
404.70	2539.48
404.89	2443.52
405.09	2399.05
405.28	2579.27
405.47	2469.27
405.66	2499.69
405.85	2546.50
406.05	2541.82
406.24	2562.89
406.43	2511.39
406.62	2619.06
406.81	2712.68
407.00	2619.06
407.20	2558.21
407.39	2614.38
407.58	2747.79
407.77	2834.39
407.96	2689.28
408.15	2679.91
408.34	2724.38
408.54	2850.77
408.73	2717.36
408.92	2860.13
409.11	2738.43
409.30	2871.84
409.49	2794.60
409.68	2935.03
409.87	2932.69
410.07	3141.00
410.26	2977.16
410.45	2923.33
410.64	3023.97
410.83	3068.44
411.02	3183.13
411.21	3239.30
411.40	3056.74
411.59	3274.41
411.78	3241.64
411.98	3300.16
412.17	3239.30
412.36	3236.96
412.55	3410.16
412.74	3487.40
412.93	3440.59
413.12	3239.30
413.31	3625.49
413.50	3421.86
413.69	3499.10
413.88	3574.00
414.07	3700.39
414.26	3726.13
414.45	3676.98
414.64	3679.32
414.83	3728.47
415.02	3801.03
415.22	3735.50
415.41	3978.91
415.60	3845.50
415.79	3892.31
415.98	4093.60
416.17	3941.46
416.36	3941.46
416.55	4053.81
416.74	4063.17
416.93	3990.61
417.12	4294.88
417.31	4231.69
417.50	4292.54
417.69	4465.74
417.88	4191.90
418.07	4278.50
418.26	4320.63
418.45	4440.00
418.64	4528.94
418.83	4458.72
419.02	4372.12
419.21	4407.23
419.39	4580.43
419.58	4557.02
419.77	4337.01
419.96	4554.68
420.15	4596.81
420.34	4802.78
420.53	4554.68
420.72	4585.11
420.91	4922.15
421.10	4589.79
421.29	4730.22
421.48	4601.49
421.67	4777.03
421.86	4786.40
422.05	4739.58
422.24	4732.56
422.43	4835.55
422.61	4753.63
422.80	4858.95
422.99	4994.70
423.18	5022.79
423.37	5085.98
423.56	4926.83
423.75	5013.43
423.94	4931.51
424.13	4645.96
424.32	4819.16
424.50	5046.20
424.69	5156.20
424.88	5062.58
425.07	4873.00
425.26	4847.25
425.45	4926.83
425.64	4905.76
425.83	4933.85
426.01	5078.96
426.20	5006.41
426.39	5069.60
426.58	5146.84
426.77	5093.01
426.96	5004.07
427.15	5114.07
427.33	5238.12
427.52	5172.58
427.71	5338.76
427.90	5097.69
428.09	5357.49
428.28	5303.65
428.46	5401.96
428.65	5446.43
428.84	5455.79
429.03	5586.86
429.22	5245.14
429.40	5462.81
429.59	5626.65
429.78	5313.02
429.97	5167.90
430.16	5549.41
430.34	5458.13
430.53	5614.95
430.72	5701.54
430.91	5430.04
431.10	5589.20
431.28	5708.57
431.47	5748.36
431.66	5867.72
431.85	5867.72
432.03	6033.90
432.22	6064.33
432.41	5954.32
432.60	5966.03
432.79	6083.05
432.97	5893.47
433.16	6143.91
433.35	5956.66
433.54	6076.03
433.72	5923.90
433.91	6183.70
434.10	6387.32
434.28	6092.41
434.47	6239.87
434.66	6235.19
434.85	6333.49
435.03	6438.81
435.22	6373.28
435.41	6492.65
435.59	6377.96
435.78	6480.94
435.97	6572.22
436.16	6338.17
436.34	6399.02
436.53	6612.01
436.72	6623.72
436.90	6361.58
437.09	6698.61
437.28	6572.22
437.46	6492.65
437.65	6614.35
437.84	6827.34
438.02	6686.91
438.21	6787.55
438.40	6773.51
438.58	7023.95
438.77	7016.93
438.96	7070.76
439.14	7101.19
439.33	7208.85
439.52	7176.08
439.70	7211.19
439.89	7288.43
440.08	7389.07
440.26	7419.50
440.45	7382.05
440.63	7461.63
440.82	7623.12
441.01	7503.76
441.19	7672.28
441.38	7981.23
441.57	7808.03
441.75	7889.95
441.94	7812.71
442.12	7960.16
442.31	8039.74
442.50	7962.50
442.68	8025.70
442.87	8049.10
443.05	8224.64
443.24	8229.32
443.43	8182.51
443.61	8306.56
443.80	8454.02
443.98	8072.51
444.17	8088.89
444.35	8168.47
444.54	8475.08
444.73	8491.46
444.91	8379.12
445.10	8060.80
445.28	8184.85
445.47	8189.53
445.65	8425.93
445.84	8774.67
446.02	8280.82
446.21	8365.07
446.39	8367.42
446.58	8454.02
446.77	8304.22
446.95	8351.03
447.14	8669.34
447.32	8451.67
447.51	8407.20
447.69	8404.86
447.88	8514.87
448.06	8486.78
448.25	8519.55
448.43	8631.90
448.62	8699.77
448.80	8699.77
448.99	8631.90
449.17	8683.39
449.36	8617.85
449.54	8905.74
449.73	9011.06
449.91	8924.46
450.10	8950.21
450.28	8975.95
450.46	9011.06
450.65	9100.00
450.83	9043.83
451.02	8978.30
451.20	9116.39
451.39	9137.45
451.57	9210.01
451.76	9027.45
451.94	9348.10
452.13	9205.33
452.31	9214.69
452.49	9401.93
452.68	9439.38
452.86	9345.76
453.05	9399.59
453.23	9654.71
453.42	9441.72
453.60	9521.30
453.78	9650.03
453.97	9392.57
454.15	9371.50
454.34	9315.33
454.52	9544.70
454.70	9699.18
454.89	9776.42
455.07	9844.29
455.26	9785.78
455.44	10085.37
455.62	9914.51
455.81	10024.51
455.99	10092.39
456.17	10097.07
456.36	9966.00
456.54	10345.17
456.73	10520.71
456.91	10607.31
457.09	10361.55
457.28	10764.12
457.46	10483.26
457.64	10448.15
457.83	10700.93
458.01	10410.70
458.19	10663.48
458.38	10637.73
458.56	10682.20
458.74	10747.74
458.93	10654.12
459.11	10747.74
459.29	10862.43
459.48	10499.64
459.66	11009.88
459.84	11009.88
460.03	11131.59
460.21	11147.97
460.39	11183.08
460.57	11162.01
460.76	11124.57
460.94	11164.36
461.12	11162.01
461.31	11386.71
461.49	11131.59
461.67	11197.12
461.85	11503.73
462.04	11154.99
462.22	11719.06
462.40	11587.99
462.59	11552.88
462.77	11393.73
462.95	11524.80
463.13	11737.79
463.32	11709.70
463.50	11903.96
463.68	11726.08
463.86	11749.49
464.05	11728.42
464.23	11932.05
464.41	12107.59
464.59	11906.31
464.78	12126.32
464.96	11896.94
465.14	11899.28
465.32	12098.23
465.50	12250.36
465.69	12353.35
465.87	12306.54
466.05	12170.79
466.23	12418.88
466.41	12273.77
466.60	12421.22
466.78	12397.82
466.96	12222.28
467.14	12329.94
467.32	12472.71
467.51	12510.16
467.69	12163.76
467.87	12531.23
468.05	12615.49
468.23	12173.13
468.41	12468.03
468.60	12739.54
468.78	12786.35
468.96	12575.70
469.14	12655.28
469.32	13179.56
469.50	12587.40
469.69	12994.65
469.87	13209.98
470.05	13334.03
470.23	13060.19
470.41	13256.79
470.59	13500.21
470.77	13486.17
470.95	13153.81
471.14	13659.37
471.32	13149.13
471.50	13429.99
471.68	13500.21
471.86	13738.94
472.04	13792.78
472.22	14171.94
472.40	13867.67
472.58	13853.63
472.77	13767.03
472.95	14080.66
473.13	14670.48
473.31	14253.86
473.49	14230.46
473.67	14136.84
473.85	14225.78
474.03	14679.84
474.21	14621.33
474.39	14897.51
474.57	15150.29
474.75	14686.86
474.93	15215.82
475.12	14771.12
475.30	15234.55
475.48	14899.85
475.66	15309.44
475.84	15227.53
476.02	15527.11
476.20	15321.15
476.38	15637.12
476.56	16147.36
476.74	15967.13
476.92	15985.86
477.10	15758.83
477.28	16016.29
477.46	16299.49
477.64	16332.26
477.82	16498.44
478.00	16901.01
478.18	17067.19
478.36	17167.83
478.54	17060.16
478.72	17153.79
478.90	17596.15
479.08	17525.93
479.26	17738.92
479.44	17841.90
479.62	17797.43
479.80	18001.06
479.98	18328.74
480.16	18520.66
480.34	18370.86
480.52	18871.74
480.70	18515.98
480.88	18279.58
481.06	18963.02
481.24	19154.94
481.41	19122.18
481.59	19515.39
481.77	19325.80
481.95	19510.71
482.13	19529.43
482.31	19763.48
482.49	20460.96
482.67	20313.51
482.85	20559.27
483.03	20350.96
483.21	20844.81
483.39	21076.52
483.57	21223.98
483.74	21247.38
483.92	21490.80
484.10	21652.30
484.28	21776.34
484.46	21933.16
484.64	22455.10
484.82	22230.41
485.00	22441.06
485.18	22604.89
485.35	23236.84
485.53	22806.18
485.71	23213.43
485.89	23414.72
486.07	23332.80
486.25	23520.04
486.43	23875.80
486.61	24123.90
486.78	23953.04
486.96	24350.93
487.14	24758.19
487.32	24758.19
487.50	24407.11
487.68	25055.43
487.85	25195.87
488.03	25362.04
488.21	26033.78
488.39	25816.11
488.57	25916.75
488.75	26506.57
488.92	26466.78
489.10	26586.15
489.28	26850.63
489.46	26934.88
489.64	27007.44
489.81	27513.00
489.99	27585.55
490.17	28098.13
490.35	28306.44
490.53	28301.76
490.70	28325.16
490.88	28521.77
491.06	28797.95
491.24	28772.21
491.41	29324.57
491.59	29441.60
491.77	29460.32
491.95	29759.91
492.13	29830.13
492.30	30178.87
492.48	30000.99
492.66	30401.22
492.84	30415.26
493.01	30630.59
493.19	30735.92
493.37	31047.21
493.54	31330.41
493.72	31789.16
493.90	31227.43
494.08	31592.55
494.25	32189.39
494.43	32025.55
494.61	32273.65
494.79	32694.94
494.96	32531.11
495.14	32905.59
495.32	33034.32
495.49	33071.77
495.67	33315.19
495.85	33677.97
496.02	33687.33
496.20	34253.74
496.38	34628.23
496.55	34340.34
496.73	34623.54
496.91	34497.16
497.09	34873.98
497.26	34866.96
497.44	34902.07
497.62	35328.05
497.79	35868.71
497.97	35637.00
498.14	36130.85
498.32	36257.24
498.50	36273.62
498.67	36257.24
498.85	36870.46
499.03	36538.10
499.20	37289.42
499.38	36849.39
499.56	36975.78
499.73	37366.65
499.91	36858.76
500.08	37598.37
500.26	37546.87
500.44	37659.22
500.61	37926.04
500.79	37514.11
500.97	38382.45
501.14	38691.40
501.32	38913.75
501.49	38384.79
501.67	38738.21
501.84	39220.36
502.02	38813.10
502.20	38988.64
502.37	39182.91
502.55	39625.27
502.72	39489.52
502.90	40051.25
503.07	39751.66
503.25	39636.97
503.43	39517.60
503.60	40165.93
503.78	40231.47
503.95	40313.39
504.13	40725.32
504.30	41090.44
504.48	40603.61
504.65	40694.89
504.83	41516.42
505.01	41244.92
505.18	41317.48
505.36	41399.40
505.53	41500.04
505.71	41865.16
505.88	42064.11
506.06	41731.75
506.23	42241.99
506.41	41890.91
506.58	42230.29
506.76	42337.95
506.93	43086.92
507.11	42232.63
507.28	42815.42
507.46	42773.29
507.63	42916.06
507.81	43339.70
507.98	43093.94
508.16	42939.47
508.33	43690.78
508.50	43358.42
508.68	43810.15
508.85	44257.19
509.03	43971.64
509.20	44149.53
509.38	44631.68
509.55	44271.23
509.73	44404.64
509.90	44807.22
510.08	44690.19
510.25	44690.19
510.42	44872.75
510.60	44973.39
510.77	45617.04
510.95	45581.93
511.12	45029.57
511.30	45289.37
511.47	45502.35
511.64	45698.96
511.82	46108.55
511.99	45326.81
512.17	46059.40
512.34	45879.18
512.51	46550.91
512.69	46450.27
512.86	46492.40
513.04	46618.79
513.21	46850.50
513.38	46499.42
513.56	46930.08
513.73	46705.39
513.90	47236.69
514.08	46684.33
514.25	47255.42
514.43	47372.44
514.60	47536.28
514.77	47782.04
514.95	47753.95
515.12	47732.89
515.29	47760.97
515.47	48044.18
515.64	47969.28
515.81	48397.60
515.99	48601.22
516.16	48865.70
516.33	48692.50
516.51	48491.22
516.68	48411.64
516.85	48481.86
517.03	48809.53
517.20	48868.05
517.37	48633.99
517.54	48498.24
517.72	49303.38
517.89	49455.52
518.06	49446.16
518.24	49354.88
518.41	49041.24
518.58	49546.80
518.75	49462.54
518.93	49874.48
519.10	49724.68
519.27	50068.74
519.45	49720.00
519.62	49879.16
519.79	49972.78
519.96	49935.33
520.14	50515.78
520.31	50174.06
520.48	50492.38
520.65	50511.10
520.83	51011.98
521.00	50546.21
521.17	50461.95
521.34	50616.43
521.52	50906.65
521.69	50941.76
521.86	50969.85
522.03	50794.31
522.20	51538.60
522.38	51522.21
522.55	51473.06
522.72	51487.10
522.89	51180.49
523.07	51503.49
523.24	51559.66
523.41	52002.02
523.58	51545.62
523.75	51990.32
523.92	51896.70
524.10	51903.72
524.27	52196.29
524.44	51873.29
524.61	52119.05
524.78	52163.52
524.96	52271.18
525.13	52175.22
525.30	52381.19
525.47	52479.49
525.64	52374.17
525.81	52633.97
525.98	52842.27
526.16	52652.69
526.33	52783.76
526.50	52980.37
526.67	52755.68
526.84	52743.97
527.01	52743.97
527.18	52914.83
527.36	52790.78
527.53	53083.35
527.70	53396.98
527.87	53394.64
528.04	53422.73
528.21	53553.80
528.38	53354.85
528.55	53609.97
528.72	53315.06
528.89	53628.69
529.07	53504.65
529.24	53680.19
529.41	53734.02
529.58	53799.55
529.75	53488.26
529.92	53867.43
530.09	53865.09
530.26	53954.03
530.43	54031.27
530.60	53825.30
530.77	53900.20
530.94	54335.54
531.11	54185.74
531.28	54099.14
531.46	54389.37
531.63	54314.47
531.80	54347.24
531.97	54377.67
532.14	54625.76
532.31	54426.82
532.48	54609.38
532.65	54670.23
532.82	54621.08
532.99	54770.88
533.16	54703.00
533.33	54850.45
533.50	54836.41
533.67	54866.84
533.84	54667.89
534.01	54965.14
534.18	54990.89
534.35	55332.60
534.52	54979.18
534.69	55178.13
534.86	55346.65
535.03	55290.48
535.20	55114.94
535.37	55332.60
535.54	55688.37
535.71	55583.04
535.88	55538.57
536.05	55751.56
536.22	55585.38
536.38	55505.80
536.55	55629.85
536.72	55564.32
536.89	55550.27
537.06	55606.45
537.23	55749.22
537.40	55679.00
537.57	55821.78
537.74	55838.16
537.91	55936.46
538.08	55814.76
538.25	55746.88
538.42	56128.39
538.59	56023.06
538.75	55931.78
538.92	56224.35
539.09	56224.35
539.26	56123.71
539.43	56376.48
539.60	56530.96
539.77	56451.38
539.94	56697.14
540.11	56374.14
540.28	56577.77
540.44	56636.28
540.61	56369.46
540.78	56521.60
540.95	56320.31
541.12	56481.81
541.29	56498.19
541.46	56549.68
541.62	56655.01
541.79	56849.27
541.96	56357.76
542.13	56456.06
542.30	56755.65
542.47	56809.48
542.63	56734.59
542.80	56994.39
542.97	57357.17
543.14	57183.97
543.31	57113.75
543.48	57205.03
543.64	57432.07
543.81	57656.76
543.98	57317.38
544.15	57375.89
544.32	57485.90
544.48	57542.07
544.65	57715.27
544.82	57425.04
544.99	57453.13
545.16	57663.78
545.32	57474.20
545.49	57975.07
545.66	57834.64
545.83	57701.23
546.00	57874.43
546.16	57743.36
546.33	57621.65
546.50	57607.61
546.67	57631.01
546.83	57623.99
547.00	57836.98
547.17	57769.10
547.34	57794.85
547.50	58216.14
547.67	57975.07
547.84	58047.63
548.00	58113.16
548.17	58248.91
548.34	58052.31
548.51	58181.04
548.67	58567.23
548.84	58258.27
549.01	57902.51
549.18	58190.40
549.34	58213.80
549.51	58426.79
549.68	58358.92
549.84	58330.83
550.01	58379.98
550.18	58440.84
550.34	58351.90
550.51	58487.65
550.68	58370.62
550.84	58159.97
551.01	58777.87
551.18	58394.03
551.34	58543.82
551.51	58681.91
551.68	58717.02
551.84	58651.48
552.01	58412.75
552.18	58766.17
552.34	58632.76
552.51	58754.47
552.68	58370.62
552.84	58738.08
553.01	58932.35
553.18	58684.25
553.34	59063.42
553.51	58794.26
553.67	58904.26
553.84	59150.02
554.01	59056.40
554.17	58927.67
554.34	59054.06
554.51	58859.79
554.67	59040.01
554.84	59196.83
555.00	59100.87
555.17	59049.38
555.33	59138.32
555.50	58955.75
555.67	59051.72
555.83	59011.93
556.00	59402.80
556.16	59470.67
556.33	59346.62
556.50	59414.50
556.66	59360.67
556.83	59138.32
556.99	59381.73
557.16	59597.06
557.32	59554.93
557.49	59590.04
557.65	59236.62
557.82	59395.77
557.98	59271.73
558.15	59456.63
558.32	59763.24
558.48	59323.22
558.65	59725.79
558.81	59629.83
558.98	59615.79
559.14	59531.53
559.31	59531.53
559.47	59709.41
559.64	59657.91
559.80	59826.43
559.97	59671.96
560.13	59648.55
560.30	59861.54
560.46	59683.66
560.63	60065.17
560.79	59831.11
560.96	60086.23
561.12	59887.29
561.29	59894.31
561.45	59917.71
561.61	60086.23
561.78	59772.60
561.94	59845.16
562.11	59945.80
562.27	59952.82
562.44	60016.02
562.60	60111.98
562.77	60067.51
562.93	59828.77
563.10	60186.88
563.26	59985.59
563.42	60320.29
563.59	60193.90
563.75	59955.16
563.92	60030.06
564.08	60020.70
564.24	60278.16
564.41	59994.95
564.57	60144.75
564.74	60151.77
564.90	60348.37
565.07	59971.55
565.23	60474.76
565.39	60233.69
565.56	60282.84
565.72	60093.25
565.88	60207.94
566.05	60114.32
566.21	60257.09
566.38	60177.51
566.54	60097.94
566.70	60439.65
566.87	60331.99
567.03	60179.85
567.19	60434.97
567.36	60404.55
567.52	60439.65
567.68	60802.44
567.85	60381.14
568.01	60336.67
568.17	60402.21
568.34	60477.10
568.50	60360.08
568.66	60666.69
568.83	60650.30
568.99	60390.50
569.15	60526.25
569.32	60430.29
569.48	60486.46
569.64	60587.11
569.81	60664.35
569.97	60217.30
570.13	60388.16
570.30	60177.51
570.46	60645.62
570.62	60554.34
570.78	60554.34
570.95	60556.68
571.11	60514.55
571.27	60446.68
571.43	60683.07
571.60	60736.90
571.76	60762.65
571.92	60638.60
572.09	60566.04
572.25	60582.43
572.41	60589.45
572.57	60530.93
572.74	60786.05
572.90	60437.31
573.06	60477.10
573.22	60568.38
573.38	60694.77
573.55	60589.45
573.71	60893.72
573.87	60561.36
574.03	60697.11
574.20	60839.89
574.36	60610.51
574.52	60664.35
574.68	60896.06
574.84	60811.80
575.01	60914.78
575.17	60669.03
575.33	60802.44
575.49	60589.45
575.65	60673.71
575.82	60739.24
575.98	60966.27
576.14	60849.25
576.30	60837.54
576.46	60800.10
576.62	60676.05
576.79	60809.46
576.95	60521.57
577.11	60664.35
577.27	60966.27
577.43	60734.56
577.59	60823.50
577.75	60762.65
577.92	60615.19
578.08	60905.42
578.24	60928.83
578.40	60858.61
578.56	60989.68
578.72	60858.61
578.88	61099.68
579.04	61162.88
579.21	60987.34
579.37	61029.47
579.53	61043.51
579.69	60867.97
579.85	60924.14
580.01	60844.57
580.17	60919.46
580.33	61050.53
580.49	61095.00
580.65	61010.74
580.82	60860.95
580.98	60774.35
581.14	60851.59
581.30	61034.15
581.46	60931.17
581.62	60912.44
581.78	60762.65
581.94	60938.19
582.10	60942.87
582.26	60870.31
582.42	60748.60
582.58	61013.08
582.74	60741.58
582.90	61057.56
583.06	61097.34
583.22	60807.12
583.38	60999.04
583.54	61062.24
583.70	61010.74
583.86	61038.83
584.02	60926.49
584.18	61172.24
584.34	60844.57
584.50	61064.58
584.66	60912.44
584.82	61048.19
584.98	61425.02
585.14	61141.81
585.30	60992.02
585.46	61064.58
585.62	60945.21
585.78	61371.19
585.94	61031.81
586.10	61066.92
586.26	61200.33
586.42	61261.18
586.58	61209.69
586.74	61118.41
586.90	61055.21
587.06	61158.20
587.22	61235.44
587.38	61055.21
587.54	61268.20
587.70	61298.63
587.86	61221.39
588.02	61244.80
588.18	61364.17
588.34	61027.13
