SpectraSuite Data File
++++++++++++++++++++++++++++++++++++
Date: Fri Oct 25 11:33:19 EDT 2013
User: price-jones
Dark Spectrum Present: No
Reference Spectrum Present: No
Number of Sampled Component Spectra: 1
Spectrometers: USB2+H05261
Integration Time (usec): 100000 (USB2+H05261)
Spectra Averaged: 1 (USB2+H05261)
Boxcar Smoothing: 0 (USB2+H05261)
Correct for Electrical Dark: No (USB2+H05261)
Strobe/Lamp Enabled: No (USB2+H05261)
Correct for Detector Non-linearity: No (USB2+H05261)
Correct for Stray Light: No (USB2+H05261)
Number of Pixels in Processed Spectrum: 2048
>>>>>Begin Processed Spectral Data<<<<<
365.73	255.12
365.92	255.12
366.12	255.12
366.32	110.01
366.52	128.73
366.72	297.25
366.91	248.10
367.11	173.20
367.31	145.11
367.51	133.41
367.70	93.62
367.90	102.98
368.10	173.20
368.30	170.86
368.49	131.07
368.69	168.52
368.89	191.92
369.09	128.73
369.28	229.37
369.48	154.48
369.68	196.60
369.87	271.50
370.07	283.20
370.27	217.67
370.47	292.57
370.66	524.28
370.86	517.26
371.06	503.22
371.25	552.37
371.45	505.56
371.65	578.11
371.84	535.98
372.04	606.20
372.24	610.88
372.44	629.60
372.63	582.79
372.83	596.84
373.03	601.52
373.22	566.41
373.42	587.47
373.62	636.63
373.81	568.75
374.01	645.99
374.21	730.25
374.40	528.96
374.60	709.18
374.79	664.71
374.99	699.82
375.19	709.18
375.38	676.41
375.58	683.44
375.78	739.61
375.97	657.69
376.17	725.57
376.37	737.27
376.56	634.29
376.76	676.41
376.95	723.23
377.15	690.46
377.35	788.76
377.54	791.10
377.74	660.03
377.93	699.82
378.13	641.31
378.33	704.50
378.52	706.84
378.72	720.88
378.91	807.48
379.11	690.46
379.31	737.27
379.50	730.25
379.70	812.17
379.89	805.14
380.09	786.42
380.28	713.86
380.48	732.59
380.68	751.31
380.87	746.63
381.07	683.44
381.26	758.33
381.46	748.97
381.65	777.06
381.85	727.91
382.04	805.14
382.24	772.38
382.43	753.65
382.63	851.96
382.83	798.12
383.02	772.38
383.22	786.42
383.41	760.67
383.61	866.00
383.80	863.66
384.00	741.95
384.19	767.70
384.39	765.36
384.58	863.66
384.78	791.10
384.97	847.27
385.17	812.17
385.36	784.08
385.56	760.67
385.75	793.44
385.95	908.13
386.14	905.79
386.34	830.89
386.53	903.45
386.72	926.85
386.92	821.53
387.11	873.02
387.31	898.77
387.50	802.80
387.70	875.36
387.89	922.17
388.09	889.40
388.28	931.53
388.48	891.74
388.67	910.47
388.86	873.02
389.06	926.85
389.25	919.83
389.45	891.74
389.64	898.77
389.84	924.51
390.03	912.81
390.22	1015.79
390.42	1034.52
390.61	1032.18
390.81	964.30
391.00	999.41
391.19	1034.52
391.39	1006.43
391.58	976.00
391.78	983.02
391.97	1029.84
392.16	1006.43
392.36	1036.86
392.55	1015.79
392.75	1041.54
392.94	1083.67
393.13	1090.69
393.33	1022.81
393.52	1128.14
393.71	1123.46
393.91	1121.12
394.10	1006.43
394.29	1111.75
394.49	1025.15
394.68	1107.07
394.88	1111.75
395.07	1203.04
395.26	1149.20
395.46	1083.67
395.65	1203.04
395.84	1163.25
396.04	1270.91
396.23	1160.91
396.42	1142.18
396.62	1238.14
396.81	1231.12
397.00	1158.57
397.19	1172.61
397.39	1301.34
397.58	1224.10
397.77	1235.80
397.97	1235.80
398.16	1299.00
398.35	1299.00
398.55	1280.27
398.74	1280.27
398.93	1296.66
399.12	1240.48
399.32	1275.59
399.51	1352.83
399.70	1348.15
399.90	1299.00
400.09	1331.76
400.28	1362.19
400.47	1336.45
400.67	1387.94
400.86	1441.77
401.05	1376.24
401.24	1390.28
401.44	1406.66
401.63	1511.99
401.82	1455.81
402.01	1385.60
402.21	1511.99
402.40	1411.34
402.59	1537.73
402.78	1533.05
402.97	1556.46
403.17	1467.52
403.36	1558.80
403.55	1607.95
403.74	1633.69
403.93	1547.09
404.13	1645.40
404.32	1647.74
404.51	1596.25
404.70	1703.91
404.89	1650.08
405.09	1729.66
405.28	1708.59
405.47	1739.02
405.66	1746.04
405.85	1706.25
406.05	1757.74
406.24	1724.97
406.43	1748.38
406.62	1818.60
406.81	1846.68
407.00	1724.97
407.20	1790.51
407.39	1839.66
407.58	1937.96
407.77	1755.40
407.96	1914.56
408.15	1834.98
408.34	1895.83
408.54	1940.30
408.73	2078.40
408.92	1949.67
409.11	2005.84
409.30	2069.03
409.49	2050.31
409.68	1980.09
409.87	2106.48
410.07	2094.78
410.26	2062.01
410.45	2139.25
410.64	2033.93
410.83	2197.76
411.02	2214.15
411.21	2242.23
411.40	2141.59
411.59	2263.30
411.78	2258.62
411.98	2127.55
412.17	2157.97
412.36	2251.60
412.55	2251.60
412.74	2448.20
412.93	2328.83
413.12	2392.03
413.31	2469.27
413.50	2307.77
413.69	2382.67
413.88	2457.56
414.07	2413.09
414.26	2478.63
414.45	2492.67
414.64	2497.35
414.83	2602.68
415.02	2562.89
415.22	2733.75
415.41	2633.10
415.60	2647.15
415.79	2651.83
415.98	2731.41
416.17	2771.19
416.36	2700.98
416.55	2796.94
416.74	2832.05
416.93	2942.05
417.12	2909.29
417.31	2867.16
417.50	2909.29
417.69	3007.59
417.88	3009.93
418.07	2848.43
418.26	3061.42
418.45	2923.33
418.64	3117.59
418.83	3026.31
419.02	3136.32
419.21	2904.60
419.39	2995.89
419.58	3234.62
419.77	2970.14
419.96	3192.49
420.15	3126.96
420.34	3042.70
420.53	3272.07
420.72	3248.66
420.91	3323.56
421.10	3377.39
421.29	3323.56
421.48	3213.56
421.67	3332.92
421.86	3332.92
422.05	3302.50
422.24	3330.58
422.43	3375.05
422.61	3349.31
422.80	3461.65
422.99	3417.18
423.18	3346.97
423.37	3463.99
423.56	3473.36
423.75	3489.74
423.94	3435.91
424.13	3201.85
424.32	3311.86
424.50	3414.84
424.69	3543.57
424.88	3492.08
425.07	3456.97
425.26	3321.22
425.45	3431.23
425.64	3508.46
425.83	3361.01
426.01	3559.95
426.20	3438.25
426.39	3660.60
426.58	3604.42
426.77	3515.48
426.96	3517.83
427.15	3459.31
427.33	3583.36
427.52	3478.04
427.71	3712.09
427.90	3651.24
428.09	3672.30
428.28	3756.56
428.46	3700.39
428.65	3665.28
428.84	3808.05
429.03	3824.44
429.22	3712.09
429.40	3885.29
429.59	3777.62
429.78	3653.58
429.97	3758.90
430.16	3751.88
430.34	3946.14
430.53	3775.28
430.72	4007.00
430.91	3906.35
431.10	3801.03
431.28	3861.88
431.47	3953.16
431.66	4091.26
431.85	3960.19
432.03	4086.58
432.22	4107.64
432.41	4039.76
432.60	4088.92
432.79	4079.55
432.97	4227.01
433.16	4315.95
433.35	4098.28
433.54	4227.01
433.72	4208.28
433.91	4184.88
434.10	4163.81
434.28	4236.37
434.47	4255.09
434.66	4154.45
434.85	4311.27
435.03	4365.10
435.22	4505.53
435.41	4390.84
435.59	4334.67
435.78	4334.67
435.97	4449.36
436.16	4547.66
436.34	4493.83
436.53	4542.98
436.72	4571.07
436.90	4447.02
437.09	4503.19
437.28	4542.98
437.46	4362.76
437.65	4744.27
437.84	4596.81
438.02	4723.20
438.21	4709.16
438.40	4425.95
438.58	4758.31
438.77	4791.08
438.96	4823.84
439.14	4905.76
439.33	4971.30
439.52	4968.96
439.70	4844.91
439.89	4931.51
440.08	5067.26
440.26	5231.10
440.45	5057.90
440.63	5139.82
440.82	5179.61
441.01	5158.54
441.19	5055.56
441.38	5249.82
441.57	5387.91
441.75	5275.57
441.94	5380.89
442.12	5390.25
442.31	5561.11
442.50	5476.85
442.68	5493.24
442.87	5458.13
443.05	5521.32
443.24	5584.52
443.43	5731.97
443.61	5682.82
443.80	5809.21
443.98	5603.24
444.17	5303.65
444.35	5549.41
444.54	5790.49
444.73	5572.82
444.91	5631.33
445.10	5748.36
445.28	5724.95
445.47	5605.58
445.65	5675.80
445.84	5809.21
446.02	5701.54
446.21	5654.73
446.39	5753.04
446.58	5729.63
446.77	5734.31
446.95	5692.18
447.14	5900.49
447.32	5935.60
447.51	5802.19
447.69	5827.93
447.88	5973.05
448.06	5743.67
448.25	5764.74
448.43	5865.38
448.62	5722.61
448.80	5811.55
448.99	6001.13
449.17	5804.53
449.36	6033.90
449.54	5954.32
449.73	6050.28
449.91	6155.61
450.10	6134.54
450.28	6181.35
450.46	6345.19
450.65	6342.85
450.83	6300.72
451.02	6104.12
451.20	6455.20
451.39	6141.57
451.57	6286.68
451.76	6171.99
451.94	6251.57
452.13	6356.90
452.31	6155.61
452.49	6258.59
452.68	6239.87
452.86	6380.30
453.05	6396.68
453.23	6675.21
453.42	6340.51
453.60	6438.81
453.78	6513.71
453.97	6469.24
454.15	6319.45
454.34	6384.98
454.52	6661.16
454.70	6651.80
454.89	6581.59
455.07	6806.28
455.26	6628.40
455.44	6848.41
455.62	6719.68
455.81	6729.04
455.99	6761.81
456.17	6869.47
456.36	6764.15
456.54	6825.00
456.73	6951.39
456.91	7110.55
457.09	6944.37
457.28	7129.27
457.46	6984.16
457.64	7204.17
457.83	7300.13
458.01	7028.63
458.19	7335.24
458.38	7094.16
458.56	7372.69
458.74	7248.64
458.93	7173.74
459.11	7183.10
459.29	7297.79
459.48	7236.94
459.66	7468.65
459.84	7204.17
460.03	7688.66
460.21	7508.44
460.39	7304.81
460.57	7431.20
460.76	7588.02
460.94	7564.61
461.12	7681.64
461.31	7613.76
461.49	7318.86
461.67	7613.76
461.85	7808.03
462.04	7480.35
462.22	8074.85
462.40	7698.02
462.59	7693.34
462.77	7906.33
462.95	7873.56
463.13	7829.09
463.32	7948.46
463.50	8016.33
463.68	8051.44
463.86	7957.82
464.05	7660.57
464.23	7908.67
464.41	7997.61
464.59	7857.18
464.78	8346.35
464.96	7929.74
465.14	8060.80
465.32	8053.78
465.50	8329.97
465.69	8037.40
465.87	8294.86
466.05	8273.79
466.23	8177.83
466.41	8273.79
466.60	8329.97
466.78	8322.94
466.96	8226.98
467.14	8287.84
467.32	8402.52
467.51	8325.29
467.69	8112.30
467.87	8390.82
468.05	8578.06
468.23	8451.67
468.41	8456.36
468.60	8358.05
468.78	8608.49
468.96	8540.61
469.14	8662.32
469.32	8641.26
469.50	8524.23
469.69	8767.65
469.87	8905.74
470.05	8863.61
470.23	9004.04
470.41	8971.27
470.59	8964.25
470.77	8849.57
470.95	8915.10
471.14	9259.16
471.32	8809.78
471.50	9205.33
471.68	9207.67
471.86	9165.54
472.04	9165.54
472.22	9563.43
472.40	9158.52
472.58	9224.05
472.77	9554.07
472.95	9479.17
473.13	9792.80
473.31	9549.39
473.49	9324.69
473.67	9327.03
473.85	9448.74
474.03	10001.11
474.21	9856.00
474.39	9853.66
474.57	9977.70
474.75	10115.80
474.93	10052.60
475.12	9996.43
475.30	10200.05
475.48	10183.67
475.66	10284.31
475.84	10012.81
476.02	10249.21
476.20	10539.43
476.38	10396.66
476.56	10511.35
476.74	10644.76
476.92	10415.38
477.10	10462.19
477.28	10696.25
477.46	10417.72
477.64	10682.20
477.82	11253.30
478.00	11171.38
478.18	11140.95
478.36	11304.79
478.54	11318.83
478.72	11297.77
478.90	11784.60
479.08	11646.51
479.26	11583.31
479.44	11843.11
479.62	12072.48
479.80	12091.21
479.98	12126.32
480.16	12411.86
480.34	12346.33
480.52	12446.97
480.70	12451.65
480.88	12294.83
481.06	12243.34
481.24	12472.71
481.41	12564.00
481.59	12641.23
481.77	12755.92
481.95	12945.50
482.13	13034.44
482.31	13233.39
482.49	13359.78
482.67	13399.57
482.85	13783.41
483.03	13631.28
483.21	13872.36
483.39	13916.83
483.57	14129.81
483.74	13823.20
483.92	14160.24
484.10	14132.15
484.28	14319.40
484.46	14490.26
484.64	14885.81
484.82	14436.42
485.00	14609.62
485.18	14911.55
485.35	14991.13
485.53	15178.37
485.71	15222.84
485.89	15723.72
486.07	15606.69
486.25	15484.98
486.43	15910.96
486.61	15978.84
486.78	16147.36
486.96	15932.03
487.14	16135.65
487.32	16107.57
487.50	16538.23
487.68	16505.46
487.85	16945.48
488.03	16798.02
488.21	16945.48
488.39	16954.84
488.57	17284.86
488.75	17254.43
488.92	17741.26
489.10	17633.60
489.28	17715.51
489.46	18005.74
489.64	17792.75
489.81	18267.88
489.99	18279.58
490.17	18157.88
490.35	18539.38
490.53	18731.31
490.70	18836.63
490.88	18925.57
491.06	18909.19
491.24	19260.27
491.41	19426.45
491.59	19433.47
491.77	19255.59
491.95	19208.78
492.13	19721.35
492.30	20004.56
492.48	19967.11
492.66	19992.86
492.84	20135.63
493.01	20114.56
493.19	20250.32
493.37	20592.03
493.54	20512.46
493.72	21106.95
493.90	20627.14
494.08	20772.25
494.25	20805.02
494.43	21060.14
494.61	21128.02
494.79	21205.25
494.96	21474.42
495.14	21605.49
495.32	21696.77
495.49	21820.81
495.67	22101.68
495.85	21968.27
496.02	22221.05
496.20	22419.99
496.38	22530.00
496.55	22443.40
496.73	22913.84
496.91	22562.76
497.09	22845.97
497.26	23166.62
497.44	23269.61
497.62	23468.55
497.79	24020.92
497.97	23187.69
498.14	24180.07
498.32	23728.35
498.50	23969.43
498.67	23981.13
498.85	24215.18
499.03	23922.62
499.20	24254.97
499.38	24521.79
499.56	24397.74
499.73	24573.28
499.91	24704.35
500.08	24985.22
500.26	24802.66
500.44	25273.10
500.61	25198.21
500.79	24797.98
500.97	25392.47
501.14	25666.31
501.32	25146.72
501.49	25617.16
501.67	25525.88
501.84	25692.06
502.02	25378.43
502.20	25888.67
502.37	26143.78
502.55	25699.08
502.72	26057.18
502.90	26319.32
503.07	26129.74
503.25	26302.94
503.43	26176.55
503.60	26532.31
503.78	26792.11
503.95	26426.99
504.13	26766.37
504.30	26780.41
504.48	26778.07
504.65	27431.08
504.83	27218.09
505.01	27419.38
505.18	27367.88
505.36	27239.15
505.53	27534.06
505.71	27344.48
505.88	27852.38
506.06	27480.23
506.23	28100.47
506.41	27751.73
506.58	28154.30
506.76	28402.40
506.93	28259.63
507.11	28187.07
507.28	28264.31
507.46	28685.61
507.63	28538.15
507.81	28821.36
507.98	28648.16
508.16	28765.18
508.33	28985.19
508.50	28973.49
508.68	28666.88
508.85	29633.52
509.03	29151.37
509.20	29266.06
509.38	29635.86
509.55	29319.89
509.73	29731.83
509.90	29764.59
510.08	29659.27
510.25	29436.92
510.42	30052.48
510.60	29951.84
510.77	30298.23
510.95	30082.91
511.12	30312.28
511.30	30092.27
511.47	30380.15
511.64	30450.37
511.82	30696.13
511.99	30696.13
512.17	30511.22
512.34	30808.47
512.51	31051.89
512.69	30576.76
512.86	31108.06
513.04	31009.76
513.21	31220.41
513.38	31459.14
513.56	31744.69
513.73	31651.06
513.90	31541.06
514.08	31342.11
514.25	31665.11
514.43	31793.84
514.60	31770.43
514.77	31573.83
514.95	32187.05
515.12	31782.13
515.29	31878.10
515.47	32694.94
515.64	32891.55
515.81	32034.91
515.99	32388.33
516.16	32449.19
516.33	32582.60
516.51	32524.08
516.68	32474.93
516.85	32641.11
517.03	32968.79
517.20	33102.20
517.37	32912.61
517.54	32882.19
517.72	33413.49
517.89	32833.04
518.06	32989.85
518.24	33490.73
518.41	33223.90
518.58	33233.27
518.75	33476.68
518.93	33694.35
519.10	33137.30
519.27	33706.05
519.45	33694.35
519.62	33977.56
519.79	33687.33
519.96	33897.98
520.14	34600.14
520.31	33773.93
520.48	34218.63
520.65	34125.01
520.83	34920.79
521.00	34651.63
521.17	34724.19
521.34	34574.39
521.52	34487.79
521.69	34660.99
521.86	34895.05
522.03	35377.20
522.20	35421.67
522.38	35192.30
522.55	35744.66
522.72	35159.53
522.89	35318.68
523.07	35833.60
523.24	35335.07
523.41	35552.74
523.58	35342.09
523.75	35868.71
523.92	35674.45
524.10	35667.42
524.27	35805.52
524.44	35768.07
524.61	36194.04
524.78	36182.34
524.96	36259.58
525.13	36170.64
525.30	36175.32
525.47	36655.13
525.64	36133.19
525.81	36884.50
525.98	36636.41
526.16	36528.74
526.33	36767.48
526.50	36790.88
526.67	36547.47
526.84	37123.24
527.01	36943.02
527.18	36905.57
527.36	37319.84
527.53	37013.23
527.70	37848.80
527.87	37769.22
528.04	36868.12
528.21	37347.93
528.38	37441.55
528.55	37530.49
528.72	37214.52
528.89	37324.52
529.07	37558.58
529.24	37450.91
529.41	37862.85
529.58	37996.26
529.75	37343.25
529.92	37986.89
530.09	37598.37
530.26	38209.25
530.43	37937.74
530.60	37532.83
530.77	38103.92
530.94	38363.72
531.11	37935.40
531.28	38040.73
531.46	38349.68
531.63	38368.40
531.80	38256.06
531.97	38623.52
532.14	38983.96
532.31	38464.36
532.48	38679.69
532.65	39100.99
532.82	38817.78
532.99	38703.10
533.16	39054.18
533.33	39562.08
533.50	39255.46
533.67	39037.80
533.84	39023.75
534.01	38944.17
534.18	39299.94
534.35	39466.11
534.52	39384.19
534.69	39819.53
534.86	39826.56
535.03	39489.52
535.20	39791.45
535.37	39639.31
535.54	39845.28
535.71	39723.57
535.88	39894.43
536.05	40013.80
536.22	39842.94
536.38	40053.59
536.55	39840.60
536.72	40037.20
536.89	40348.50
537.06	39936.56
537.23	40320.41
537.40	40067.63
537.57	40275.94
537.74	40098.06
537.91	40493.61
538.08	40528.72
538.25	39695.49
538.42	40428.07
538.59	40458.50
538.75	40084.01
538.92	40987.46
539.09	40678.51
539.26	40507.65
539.43	40662.13
539.60	41165.34
539.77	40872.78
539.94	41144.28
540.11	40940.65
540.28	41434.50
540.44	41120.87
540.61	41383.01
540.78	41043.63
540.95	40919.59
541.12	41418.12
541.29	41392.37
541.46	41347.90
541.62	41144.28
541.79	41633.45
541.96	41141.94
542.13	41371.31
542.30	41453.23
542.47	41722.39
542.63	41560.89
542.80	42078.15
542.97	42398.80
543.14	42230.29
543.31	41893.25
543.48	41865.16
543.64	42525.19
543.81	42351.99
543.98	42405.83
544.15	41872.18
544.32	42637.54
544.48	42611.79
544.65	42424.55
544.82	42534.56
544.99	42483.06
545.16	42752.23
545.32	42532.22
545.49	42656.26
545.66	42958.19
545.83	42660.94
546.00	42951.17
546.16	42454.98
546.33	42351.99
546.50	42689.03
546.67	43232.04
546.83	42440.93
547.00	42913.72
547.17	42534.56
547.34	43042.45
547.50	42990.96
547.67	43194.59
547.84	42864.57
548.00	43358.42
548.17	43697.80
548.34	43789.08
548.51	43959.94
548.67	43601.84
548.84	43849.94
549.01	43192.25
549.18	43793.76
549.34	43459.07
549.51	43849.94
549.68	43716.53
549.84	44069.95
550.01	43711.84
550.18	43697.80
550.34	43861.64
550.51	44121.44
550.68	44112.08
550.84	43611.20
551.01	44179.95
551.18	43936.54
551.34	43873.34
551.51	44299.32
551.68	44009.09
551.84	44451.45
552.01	43927.17
552.18	44463.16
552.34	44119.10
552.51	44451.45
552.68	43917.81
552.84	44402.30
553.01	43852.28
553.18	44350.81
553.34	44296.98
553.51	44493.58
553.67	44397.62
553.84	44690.19
554.01	44814.24
554.17	44790.83
554.34	44804.88
554.51	44509.97
554.67	45172.34
554.84	44662.10
555.00	45045.95
555.17	45198.09
555.33	45319.79
555.50	44966.37
555.67	44800.19
555.83	44690.19
556.00	45160.64
556.16	45429.80
556.33	45411.07
556.50	45064.67
556.66	45099.78
556.83	45045.95
556.99	45504.70
557.16	45188.72
557.32	45385.33
557.49	45703.64
557.65	45029.57
557.82	45359.58
557.98	45598.32
558.15	45338.52
558.32	45607.68
558.48	45551.51
558.65	45394.69
558.81	45588.95
558.98	45277.66
559.14	45755.13
559.31	45368.94
559.47	45495.33
559.64	45780.88
559.80	45691.94
559.97	45535.12
560.13	45663.85
560.30	45198.09
560.46	46176.43
560.63	45947.06
560.79	46068.76
560.96	45991.53
561.12	46024.29
561.29	45823.01
561.45	45813.65
561.61	46190.47
561.78	45879.18
561.94	45731.73
562.11	45818.33
562.27	46064.08
562.44	45593.64
562.60	46616.45
562.77	45823.01
562.93	46014.93
563.10	46117.92
563.26	46209.20
563.42	46813.05
563.59	46087.49
563.75	46518.15
563.92	46216.22
564.08	46225.58
564.24	46431.55
564.41	46340.27
564.57	46562.62
564.74	46307.50
564.90	46206.86
565.07	45729.39
565.23	46557.94
565.39	46735.82
565.56	46696.03
565.72	46302.82
565.88	46534.53
566.05	46567.30
566.21	46681.98
566.38	46799.01
566.54	46167.07
566.70	46979.23
566.87	46857.52
567.03	46422.19
567.19	46394.10
567.36	46564.96
567.52	46988.60
567.68	47037.75
567.85	46834.12
568.01	46948.81
568.17	46511.13
568.34	46827.10
568.50	46866.89
568.66	46689.01
568.83	46630.49
568.99	47122.01
569.15	46672.62
569.32	46749.86
569.48	46810.71
569.64	46979.23
569.81	46768.58
569.97	46651.56
570.13	46880.93
570.30	46763.90
570.46	47150.09
570.62	47016.68
570.78	47093.92
570.95	47047.11
571.11	47082.22
571.27	46897.31
571.43	46803.69
571.60	46979.23
571.76	46464.32
571.92	47161.79
572.09	47267.12
572.25	46927.74
572.41	46794.33
572.57	47171.16
572.74	47454.36
572.90	46784.97
573.06	47196.90
573.22	47358.40
573.38	47746.93
573.55	47171.16
573.71	47870.98
573.87	47262.44
574.03	47145.41
574.20	47604.16
574.36	47363.08
574.52	47557.35
574.68	47512.88
574.84	47667.35
575.01	47381.80
575.17	47077.54
575.33	47433.30
575.49	47210.95
575.65	47253.08
575.82	47168.82
575.98	46974.55
576.14	47409.89
576.30	47604.16
576.46	47531.60
576.62	47421.59
576.79	47386.49
576.95	47187.54
577.11	47161.79
577.27	47267.12
577.43	47217.97
577.59	47510.53
577.75	47330.31
577.92	47414.57
578.08	47585.43
578.24	47147.75
578.40	47803.10
578.56	47646.29
578.72	47229.67
578.88	47236.69
579.04	47210.95
579.21	47606.50
579.37	46962.85
579.53	47709.48
579.69	47398.19
579.85	47323.29
580.01	47456.70
580.17	47615.86
580.33	47648.63
580.49	47346.70
580.65	47421.59
580.82	46965.19
580.98	47311.59
581.14	47019.02
581.30	47728.20
581.46	47386.49
581.62	47573.73
581.78	47519.90
581.94	47288.18
582.10	47547.98
582.26	47728.20
582.42	47246.05
582.58	47878.00
582.74	47543.30
582.90	47508.19
583.06	47594.79
583.22	47700.12
583.38	47604.16
583.54	47587.77
583.70	47861.61
583.86	47655.65
584.02	47608.84
584.18	47868.64
584.34	47714.16
584.50	47887.36
584.66	47931.83
584.82	47688.42
584.98	48060.56
585.14	48060.56
585.30	47615.86
585.46	47643.94
585.62	47657.99
585.78	47634.58
585.94	47416.91
586.10	47674.37
586.26	47267.12
586.42	47824.17
586.58	47739.91
586.74	47929.49
586.90	47487.13
587.06	47241.37
587.22	47966.94
587.38	47543.30
587.54	47903.74
587.70	48044.18
587.86	48177.59
588.02	47737.57
588.18	47697.78
588.34	47533.94
588.49	47491.81
588.65	47880.34
588.81	47725.86
588.97	47805.44
589.13	47681.39
589.29	47503.51
589.45	48020.77
589.61	48142.48
589.77	47798.42
589.93	47842.89
