SpectraSuite Data File
++++++++++++++++++++++++++++++++++++
Date: Fri Oct 25 11:22:57 EDT 2013
User: price-jones
Dark Spectrum Present: No
Reference Spectrum Present: No
Number of Sampled Component Spectra: 1
Spectrometers: USB2+H05261
Integration Time (usec): 100000 (USB2+H05261)
Spectra Averaged: 1 (USB2+H05261)
Boxcar Smoothing: 0 (USB2+H05261)
Correct for Electrical Dark: No (USB2+H05261)
Strobe/Lamp Enabled: No (USB2+H05261)
Correct for Detector Non-linearity: No (USB2+H05261)
Correct for Stray Light: No (USB2+H05261)
Number of Pixels in Processed Spectrum: 2048
>>>>>Begin Processed Spectral Data<<<<<
365.73	252.78
365.92	252.78
366.12	252.78
366.32	102.98
366.52	187.24
366.72	177.88
366.91	58.51
367.11	147.45
367.31	168.52
367.51	86.60
367.70	105.32
367.90	149.79
368.10	145.11
368.30	133.41
368.49	147.45
368.69	154.48
368.89	117.03
369.09	100.64
369.28	156.82
369.48	124.05
369.68	126.39
369.87	229.37
370.07	187.24
370.27	212.99
370.47	304.27
370.66	592.16
370.86	608.54
371.06	643.65
371.25	650.67
371.45	683.44
371.65	650.67
371.84	671.73
372.04	664.71
372.24	713.86
372.44	662.37
372.63	781.74
372.83	737.27
373.03	706.84
373.22	702.16
373.42	784.08
373.62	739.61
373.81	744.29
374.01	753.65
374.21	795.78
374.40	802.80
374.60	807.48
374.79	748.97
374.99	788.76
375.19	819.19
375.38	844.93
375.58	755.99
375.78	767.70
375.97	870.68
376.17	830.89
376.37	966.64
376.56	894.08
376.76	833.23
376.95	924.51
377.15	854.30
377.35	858.98
377.54	912.81
377.74	959.62
377.93	891.74
378.13	931.53
378.33	959.62
378.52	985.37
378.72	877.70
378.91	901.11
379.11	910.47
379.31	968.98
379.50	931.53
379.70	1001.75
379.89	954.94
380.09	908.13
380.28	926.85
380.48	1011.11
380.68	1060.26
380.87	1022.81
381.07	1029.84
381.26	1095.37
381.46	1067.28
381.65	978.34
381.85	994.73
382.04	1111.75
382.24	1048.56
382.43	966.64
382.63	999.41
382.83	1060.26
383.02	1048.56
383.22	1149.20
383.41	1116.44
383.61	1088.35
383.80	1132.82
384.00	1088.35
384.19	1149.20
384.39	1121.12
384.58	1076.65
384.78	1184.31
384.97	1212.40
385.17	1160.91
385.36	1238.14
385.56	1240.48
385.75	1135.16
385.95	1158.57
386.14	1153.88
386.34	1174.95
386.53	1177.29
386.72	1156.22
386.92	1277.93
387.11	1291.98
387.31	1193.67
387.50	1284.95
387.70	1242.82
387.89	1385.60
388.09	1287.29
388.28	1313.04
388.48	1352.83
388.67	1423.05
388.86	1266.23
389.06	1315.38
389.25	1437.09
389.45	1425.39
389.64	1289.64
389.84	1376.24
390.03	1369.21
390.22	1387.94
390.42	1409.00
390.61	1434.75
390.81	1385.60
391.00	1519.01
391.19	1497.94
391.39	1448.79
391.58	1465.18
391.78	1439.43
391.97	1451.13
392.16	1451.13
392.36	1481.56
392.55	1563.48
392.75	1572.84
392.94	1547.09
393.13	1600.93
393.33	1486.24
393.52	1600.93
393.71	1603.27
393.91	1666.46
394.10	1547.09
394.29	1612.63
394.49	1547.09
394.68	1596.25
394.88	1699.23
395.07	1701.57
395.26	1636.03
395.46	1631.35
395.65	1739.02
395.84	1605.61
396.04	1785.83
396.23	1748.38
396.42	1739.02
396.62	1769.44
396.81	1774.13
397.00	1753.06
397.19	1834.98
397.39	1806.89
397.58	1839.66
397.77	1830.30
397.97	1877.11
398.16	1860.73
398.35	1802.21
398.55	1933.28
398.74	2005.84
398.93	2066.69
399.12	1799.87
399.32	1895.83
399.51	2008.18
399.70	1998.82
399.90	1989.46
400.09	1989.46
400.28	2085.42
400.47	2076.06
400.67	2010.52
400.86	2045.63
401.05	2071.37
401.24	2127.55
401.44	2143.93
401.63	2125.21
401.82	2211.81
402.01	2148.61
402.21	2129.89
402.40	2207.13
402.59	2249.25
402.78	2312.45
402.97	2275.00
403.17	2235.21
403.36	2204.78
403.55	2183.72
403.74	2373.30
403.93	2511.39
404.13	2317.13
404.32	2415.43
404.51	2347.56
404.70	2331.17
404.89	2324.15
405.09	2438.84
405.28	2516.08
405.47	2555.86
405.66	2511.39
405.85	2509.05
406.05	2478.63
406.24	2560.55
406.43	2574.59
406.62	2574.59
406.81	2649.49
407.00	2607.36
407.20	2569.91
407.39	2637.78
407.58	2715.02
407.77	2764.17
407.96	2691.62
408.15	2764.17
408.34	2789.92
408.54	2888.22
408.73	2841.41
408.92	2853.11
409.11	3045.04
409.30	2881.20
409.49	2932.69
409.68	2995.89
409.87	3033.33
410.07	2979.50
410.26	3047.38
410.45	3038.02
410.64	3038.02
410.83	3117.59
411.02	3089.51
411.21	3159.72
411.40	3110.57
411.59	3204.19
411.78	3157.38
411.98	3138.66
412.17	3225.26
412.36	3267.39
412.55	3262.71
412.74	3428.88
412.93	3419.52
413.12	3459.31
413.31	3627.83
413.50	3445.27
413.69	3449.95
413.88	3660.60
414.07	3527.19
414.26	3669.96
414.45	3798.69
414.64	3719.11
414.83	3754.22
415.02	3845.50
415.22	3637.19
415.41	3953.16
415.60	3826.78
415.79	4039.76
415.98	4056.15
416.17	4067.85
416.36	4053.81
416.55	3836.14
416.74	4203.60
416.93	4074.87
417.12	4093.60
417.31	4142.75
417.50	4124.02
417.69	4344.03
417.88	4346.37
418.07	4311.27
418.26	4301.90
418.45	4383.82
418.64	4650.64
418.83	4472.76
419.02	4521.92
419.21	4564.04
419.39	4589.79
419.58	4554.68
419.77	4482.13
419.96	4564.04
420.15	4601.49
420.34	4620.22
420.53	4624.90
420.72	4774.69
420.91	4777.03
421.10	4772.35
421.29	4816.82
421.48	4664.69
421.67	4741.93
421.86	4887.04
422.05	4901.08
422.24	4819.16
422.43	4868.31
422.61	4980.66
422.80	5100.03
422.99	5064.92
423.18	5116.41
423.37	5146.84
423.56	4870.65
423.75	4994.70
423.94	4830.87
424.13	4734.90
424.32	4821.50
424.50	5060.24
424.69	5055.56
424.88	5130.45
425.07	5025.13
425.26	4915.12
425.45	5046.20
425.64	4940.87
425.83	4973.64
426.01	5233.44
426.20	5081.30
426.39	5212.37
426.58	4975.98
426.77	5008.75
426.96	5020.45
427.15	5203.01
427.33	5373.87
427.52	5064.92
427.71	5497.92
427.90	5252.16
428.09	5303.65
428.28	5376.21
428.46	5439.40
428.65	5406.64
428.84	5544.73
429.03	5528.35
429.22	5544.73
429.40	5446.43
429.59	5659.42
429.78	5469.83
429.97	5153.86
430.16	5495.58
430.34	5633.67
430.53	5738.99
430.72	5692.18
430.91	5666.44
431.10	5617.29
431.28	5809.21
431.47	5951.98
431.66	5900.49
431.85	5715.59
432.03	5827.93
432.22	6029.22
432.41	6005.81
432.60	6008.16
432.79	6033.90
432.97	5982.41
433.16	6118.16
433.35	6171.99
433.54	6143.91
433.72	6127.52
433.91	6097.10
434.10	6284.34
434.28	6244.55
434.47	6193.06
434.66	6274.98
434.85	6277.32
435.03	6476.26
435.22	6312.42
435.41	6509.03
435.59	6382.64
435.78	6525.41
435.97	6511.37
436.16	6436.47
436.34	6321.79
436.53	6345.19
436.72	6555.84
436.90	6399.02
437.09	6604.99
437.28	6497.33
437.46	6553.50
437.65	6635.42
437.84	6726.70
438.02	6832.02
438.21	6778.19
438.40	6794.58
438.58	7035.65
438.77	7206.51
438.96	6977.14
439.14	6965.43
439.33	7222.89
439.52	7407.80
439.70	7403.11
439.89	7489.71
440.08	7393.75
440.26	7344.60
440.45	7515.46
440.63	7473.33
440.82	7581.00
441.01	7569.29
441.19	7576.31
441.38	7747.17
441.57	7873.56
441.75	7892.29
441.94	8004.63
442.12	7845.48
442.31	8032.72
442.50	7971.86
442.68	8030.38
442.87	7943.78
443.05	7990.59
443.24	8461.04
443.43	8353.37
443.61	8402.52
443.80	8404.86
443.98	8161.45
444.17	8093.57
444.35	8348.69
444.54	8285.50
444.73	8390.82
444.91	8348.69
445.10	8489.12
445.28	8486.78
445.47	8161.45
445.65	8334.65
445.84	8428.27
446.02	8446.99
446.21	8411.89
446.39	8573.38
446.58	8526.57
446.77	8465.72
446.95	8182.51
447.14	8425.93
447.32	8732.54
447.51	8517.21
447.69	8524.23
447.88	8636.58
448.06	8524.23
448.25	8559.34
448.43	8674.03
448.62	8854.25
448.80	8667.00
448.99	8718.50
449.17	8561.68
449.36	9011.06
449.54	9027.45
449.73	8999.36
449.91	9055.53
450.10	9132.77
450.28	9174.90
450.46	9118.73
450.65	9329.38
450.83	9202.99
451.02	9160.86
451.20	9184.26
451.39	9277.88
451.57	9287.25
451.76	9114.05
451.94	9247.46
452.13	9366.82
452.31	9423.00
452.49	9362.14
452.68	9479.17
452.86	9516.62
453.05	9579.81
453.23	9600.88
453.42	9392.57
453.60	9453.42
453.78	9441.72
453.97	9467.47
454.15	9605.56
454.34	9785.78
454.52	9809.19
454.70	9628.96
454.89	9792.80
455.07	9722.59
455.26	9949.62
455.44	9973.02
455.62	10003.45
455.81	9909.83
455.99	10024.51
456.17	10256.23
456.36	10181.33
456.54	10143.88
456.73	10349.85
456.91	10448.15
457.09	10382.62
457.28	10642.42
457.46	10321.76
457.64	10614.33
457.83	10553.48
458.01	10455.17
458.19	10836.68
458.38	10696.25
458.56	10719.65
458.74	10827.32
458.93	10633.05
459.11	10764.12
459.29	10832.00
459.48	11021.58
459.66	10782.85
459.84	11047.33
460.03	11028.60
460.21	10937.32
460.39	11318.83
460.57	11087.12
460.76	11162.01
460.94	11236.91
461.12	11398.41
461.31	11307.13
461.49	11309.47
461.67	11091.80
461.85	11541.18
462.04	11538.84
462.22	11889.92
462.40	11543.52
462.59	11705.02
462.77	11702.68
462.95	11653.53
463.13	11786.94
463.32	11810.34
463.50	11728.42
463.68	11808.00
463.86	11812.68
464.05	11882.90
464.23	11889.92
464.41	12067.80
464.59	11648.85
464.78	12229.30
464.96	12030.35
465.14	12028.01
465.32	12156.74
465.50	12236.32
465.69	12208.23
465.87	12149.72
466.05	12051.42
466.23	12304.20
466.41	12355.69
466.60	12592.08
466.78	12287.81
466.96	12339.30
467.14	12245.68
467.32	12475.06
467.51	12627.19
467.69	12233.98
467.87	12798.05
468.05	12554.63
468.23	12402.50
468.41	12566.34
468.60	12718.47
468.78	13015.72
468.96	12650.60
469.14	12725.49
469.32	13224.03
469.50	12847.20
469.69	13181.90
469.87	13312.97
470.05	13224.03
470.23	13200.62
470.41	13455.74
470.59	13385.52
470.77	13444.04
470.95	13315.31
471.14	13722.56
471.32	13305.95
471.50	13792.78
471.68	13628.94
471.86	13605.53
472.04	13816.18
472.22	14183.65
472.40	13785.76
472.58	13877.04
472.77	14054.92
472.95	14071.30
473.13	14471.53
473.31	14328.76
473.49	14267.91
473.67	14251.52
473.85	14326.42
474.03	14890.49
474.21	14647.07
474.39	14602.60
474.57	14834.32
474.75	14963.04
474.93	15033.26
475.12	15183.06
475.30	15513.07
475.48	15154.97
475.66	15288.38
475.84	15300.08
476.02	15564.56
476.20	15667.55
476.38	15772.87
476.56	16222.25
476.74	16233.96
476.92	15737.76
477.10	15969.48
477.28	16210.55
477.46	16493.76
477.64	16519.50
477.82	16765.26
478.00	17245.07
478.18	16819.09
478.36	17114.00
478.54	17357.41
478.72	17273.15
478.90	17326.99
479.08	17502.53
479.26	18148.51
479.44	17839.56
479.62	18185.96
479.80	18059.57
479.98	18384.91
480.16	19183.03
480.34	18181.28
480.52	18831.95
480.70	19143.24
480.88	18693.86
481.06	18897.49
481.24	19044.94
481.41	19115.16
481.59	19967.11
481.77	19889.87
481.95	19513.05
482.13	19847.74
482.31	19873.49
482.49	20304.15
482.67	20496.07
482.85	20886.94
483.03	20720.76
483.21	20702.04
483.39	20957.16
483.57	20783.96
483.74	21308.24
483.92	21898.05
484.10	21905.07
484.28	21846.56
484.46	22127.42
484.64	22359.14
484.82	22335.73
485.00	22328.71
485.18	22836.61
485.35	23384.29
485.53	22911.50
485.71	23447.49
485.89	23761.12
486.07	23580.90
486.25	23503.66
486.43	23721.33
486.61	24308.80
486.78	24372.00
486.96	24386.04
487.14	24772.23
487.32	24812.02
487.50	25188.85
487.68	25064.80
487.85	25596.10
488.03	25675.68
488.21	26094.63
488.39	26366.13
488.57	26031.44
488.75	26658.70
488.92	26471.46
489.10	26820.20
489.28	26874.03
489.46	27407.67
489.64	27536.40
489.81	28060.68
489.99	28100.47
490.17	27974.08
490.35	28350.91
490.53	28383.68
490.70	29001.58
490.88	28842.42
491.06	28851.78
491.24	28872.85
491.41	29329.25
491.59	29795.02
491.77	29619.48
491.95	29773.95
492.13	29944.81
492.30	30052.48
492.48	30164.82
492.66	30309.94
492.84	30721.87
493.01	31040.18
493.19	31178.28
493.37	31510.63
493.54	31250.83
493.72	32058.32
493.90	31828.95
494.08	32126.19
494.25	32451.53
494.43	32629.41
494.61	32629.41
494.79	33219.22
494.96	32608.34
495.14	32842.40
495.32	33354.97
495.49	33259.01
495.67	33310.50
495.85	33715.42
496.02	34012.66
496.20	34335.66
496.38	34696.10
496.55	34230.33
496.73	35051.86
496.91	35290.60
497.09	35091.65
497.26	35063.57
497.44	35372.52
497.62	35124.42
497.79	36123.83
497.97	35775.09
498.14	36495.97
498.32	36430.44
498.50	36580.23
498.67	36521.72
498.85	36793.22
499.03	36914.93
499.20	37083.45
499.38	37413.46
499.56	37546.87
499.73	37455.59
499.91	37909.66
500.08	37717.73
500.26	37792.63
500.44	38190.52
500.61	38242.01
500.79	38356.70
500.97	38401.17
501.14	38567.35
501.32	38990.98
501.49	38873.96
501.67	39136.10
501.84	39063.54
502.02	38768.63
502.20	39543.35
502.37	39754.00
502.55	39775.06
502.72	39723.57
502.90	40313.39
503.07	39908.47
503.25	40189.34
503.43	40376.58
503.60	40198.70
503.78	40713.62
503.95	40615.32
504.13	40460.84
504.30	40650.42
504.48	40624.68
504.65	41261.30
504.83	41698.98
505.01	41422.80
505.18	41593.66
505.36	42012.62
505.53	41722.39
505.71	41947.08
505.88	42197.52
506.06	41628.77
506.23	42239.65
506.41	42220.92
506.58	42340.29
506.76	42405.83
506.93	43061.18
507.11	42892.66
507.28	42993.30
507.46	43002.66
507.63	43042.45
507.81	43800.79
507.98	43028.41
508.16	43590.14
508.33	43756.32
508.50	43498.86
508.68	43409.92
508.85	44025.48
509.03	43957.60
509.20	44481.88
509.38	44851.69
509.55	45038.93
509.73	44964.03
509.90	44610.61
510.08	44882.11
510.25	44959.35
510.42	44673.81
510.60	45017.86
510.77	45207.45
510.95	45958.76
511.12	45441.50
511.30	45787.90
511.47	45778.54
511.64	45401.71
511.82	45972.80
511.99	46328.56
512.17	46382.40
512.34	46064.08
512.51	46749.86
512.69	46263.03
512.86	46794.33
513.04	46799.01
513.21	46916.04
513.38	47475.43
513.56	47290.52
513.73	47185.20
513.90	47503.51
514.08	46932.42
514.25	47739.91
514.43	47887.36
514.60	47742.25
514.77	47969.28
514.95	48121.41
515.12	47962.26
515.29	48406.96
515.47	48428.02
515.64	48533.35
515.81	48467.81
515.99	48322.70
516.16	48964.01
516.33	48811.87
516.51	49375.94
516.68	49123.16
516.85	48891.45
517.03	49394.67
517.20	49017.84
517.37	49158.27
517.54	49076.35
517.72	49495.31
517.89	49605.31
518.06	49539.78
518.24	49539.78
518.41	49837.03
518.58	49546.80
518.75	49598.29
518.93	49806.60
519.10	49675.53
519.27	49993.84
519.45	50164.70
519.62	50354.29
519.79	50298.11
519.96	50440.89
520.14	50380.03
520.31	50511.10
520.48	50703.03
520.65	50578.98
520.83	51107.94
521.00	51075.17
521.17	51054.11
521.34	51058.79
521.52	51021.34
521.69	51498.81
521.86	51267.09
522.03	51100.92
522.20	51554.98
522.38	51669.67
522.55	51608.81
522.72	51793.71
522.89	51416.89
523.07	51702.43
523.24	51709.46
523.41	51906.06
523.58	51714.14
523.75	52353.10
523.92	51924.78
524.10	52378.85
524.27	52322.68
524.44	52184.58
524.61	52186.92
524.78	52404.59
524.96	52535.66
525.13	52458.43
525.30	52626.95
525.47	52858.66
525.64	52732.27
525.81	52872.70
525.98	52945.26
526.16	52804.83
526.33	52975.69
526.50	53134.84
526.67	53043.56
526.84	53333.79
527.01	53036.54
527.18	53160.59
527.36	53333.79
527.53	53394.64
527.70	53787.85
527.87	53682.53
528.04	53469.54
528.21	53574.86
528.38	53755.08
528.55	54075.74
528.72	53928.28
528.89	53890.83
529.07	53518.69
529.24	53572.52
529.41	53942.33
529.58	54160.00
529.75	53961.05
529.92	54124.89
530.09	53872.11
530.26	54113.19
530.43	54293.41
530.60	54174.04
530.77	54237.23
530.94	54574.27
531.11	54192.76
531.28	54525.12
531.46	54398.73
531.63	54614.06
531.80	54321.49
531.97	54518.10
532.14	54534.48
532.31	54593.00
532.48	54749.81
532.65	54953.44
532.82	54707.68
532.99	54883.22
533.16	55007.27
533.33	55121.96
533.50	55283.45
533.67	55068.12
533.84	54974.50
534.01	55220.26
534.18	55348.99
534.35	55325.58
534.52	55370.05
534.69	55217.92
534.86	55309.20
535.03	55269.41
535.20	55316.22
535.37	55451.97
535.54	55903.70
535.71	55533.89
535.88	55494.10
536.05	55845.18
536.22	55629.85
536.38	55955.19
536.55	55915.40
536.72	55828.80
536.89	55894.33
537.06	56076.90
537.23	55856.88
537.40	55873.27
537.57	56062.85
537.74	56109.66
537.91	56282.86
538.08	55987.95
538.25	55922.42
538.42	56285.20
538.59	56317.97
538.75	56261.80
538.92	56470.11
539.09	56458.40
539.26	56411.59
539.43	56217.33
539.60	56371.80
539.77	56556.70
539.94	56605.86
540.11	56596.49
540.28	56439.68
540.44	56369.46
540.61	56502.87
540.78	56624.58
540.95	56823.53
541.12	56786.08
541.29	56676.07
541.46	57064.60
541.62	56924.17
541.79	57134.82
541.96	56746.29
542.13	56926.51
542.30	56921.83
542.47	56996.73
542.63	57076.30
542.80	57141.84
542.97	57399.30
543.14	57394.62
543.31	57190.99
543.48	57483.56
543.64	57631.01
543.81	57701.23
543.98	57497.60
544.15	57701.23
544.32	57687.18
544.48	57741.02
544.65	57439.09
544.82	57581.86
544.99	57446.11
545.16	57888.47
545.32	57752.72
545.49	57893.15
545.66	57600.58
545.83	57780.81
546.00	57923.58
546.16	57895.49
546.33	57521.01
546.50	57888.47
546.67	57972.73
546.83	57722.29
547.00	57975.07
547.17	58012.52
547.34	57860.38
547.50	58248.91
547.67	58475.94
547.84	58447.86
548.00	58333.17
548.17	58452.54
548.34	58323.81
548.51	58599.99
548.67	58440.84
548.84	58410.41
549.01	58431.47
549.18	58536.80
549.34	58548.50
549.51	58555.52
549.68	58351.90
549.84	58515.73
550.01	58672.55
550.18	58482.97
550.34	58663.19
550.51	58468.92
550.68	58712.34
550.84	58534.46
551.01	58698.30
551.18	58656.17
551.34	58630.42
551.51	58710.00
551.68	58782.55
551.84	58667.87
552.01	58702.98
552.18	58920.65
552.34	58789.58
552.51	58981.50
552.68	58871.49
552.84	58969.80
553.01	59098.53
553.18	58878.52
553.34	59405.14
553.51	58637.44
553.67	59157.04
553.84	59309.18
554.01	59063.42
554.17	59334.92
554.34	59206.19
554.51	59185.13
554.67	59302.15
554.84	59250.66
555.00	59091.51
555.17	59217.89
555.33	59227.26
555.50	59182.79
555.67	59189.81
555.83	59388.75
556.00	59264.70
556.16	59742.17
556.33	59533.87
556.50	59360.67
556.66	59707.07
556.83	59318.54
556.99	59508.12
557.16	59505.78
557.32	59505.78
557.49	59978.57
557.65	59620.47
557.82	59632.17
557.98	59770.26
558.15	59767.92
558.32	59714.09
558.48	59737.49
558.65	59681.32
558.81	59891.97
558.98	59863.88
559.14	59873.24
559.31	59952.82
559.47	60027.72
559.64	59987.93
559.80	59845.16
559.97	59889.63
560.13	59660.26
560.30	59898.99
560.46	59791.33
560.63	59980.91
560.79	59920.05
560.96	60044.10
561.12	60184.54
561.29	60104.96
561.45	60294.54
561.61	60032.40
561.78	59938.78
561.94	60013.68
562.11	60081.55
562.27	60107.30
562.44	60102.62
562.60	60100.28
562.77	60271.14
562.93	60189.22
563.10	60119.00
563.26	60126.02
563.42	60346.03
563.59	60315.61
563.75	60184.54
563.92	60128.36
564.08	60214.96
564.24	60339.01
564.41	60303.90
564.57	60376.46
564.74	60299.22
564.90	60367.10
565.07	60341.35
565.23	60259.43
565.39	60371.78
565.56	60299.22
565.72	60456.04
565.88	60378.80
566.05	60353.05
566.21	60261.77
566.38	60336.67
566.54	60456.04
566.70	60521.57
566.87	60409.23
567.03	60456.04
567.19	60687.75
567.36	60612.85
567.52	60341.35
567.68	60544.98
567.85	60507.53
568.01	60537.96
568.17	60594.13
568.34	60612.85
568.50	60608.17
568.66	60413.91
568.83	60556.68
568.99	60463.06
569.15	60488.80
569.32	60596.47
569.48	60671.37
569.64	60846.91
569.81	60584.77
569.97	60486.46
570.13	60629.24
570.30	60652.64
570.46	60867.97
570.62	60867.97
570.78	60982.66
570.95	60725.20
571.11	60767.33
571.27	60741.58
571.43	60722.86
571.60	60825.84
571.76	60865.63
571.92	60753.29
572.09	60816.48
572.25	60767.33
572.41	60669.03
572.57	60795.42
572.74	60882.02
572.90	60940.53
573.06	60966.27
573.22	60809.46
573.38	60839.89
573.55	60844.57
573.71	61041.17
573.87	60898.40
574.03	60559.02
574.20	60992.02
574.36	60779.03
574.52	60886.70
574.68	61003.72
574.84	60774.35
575.01	60800.10
575.17	61031.81
575.33	60898.40
575.49	60989.68
575.65	61041.17
575.82	61052.87
575.98	60968.61
576.14	61172.24
576.30	60963.93
576.46	61015.43
576.62	60992.02
576.79	61132.45
576.95	60989.68
577.11	61052.87
577.27	60977.98
577.43	61146.50
577.59	60926.49
577.75	61031.81
577.92	60823.50
578.08	60959.25
578.24	61048.19
578.40	61162.88
578.56	61036.49
578.72	60856.27
578.88	61298.63
579.04	61326.72
579.21	61008.40
579.37	61116.07
579.53	61200.33
579.69	60858.61
579.85	60987.34
580.01	61174.58
580.17	61010.74
580.33	61249.48
580.49	61291.61
580.65	61167.56
580.82	60931.17
580.98	61034.15
581.14	61254.16
581.30	61240.12
581.46	61188.63
581.62	61083.30
581.78	60982.66
581.94	60999.04
582.10	61123.09
582.26	61207.35
582.42	61080.96
582.58	61123.09
582.74	61446.08
582.90	61144.16
583.06	61111.39
583.22	61099.68
583.38	61205.01
583.54	61258.84
583.70	61186.28
583.86	61303.31
584.02	61076.28
584.18	61254.16
584.34	61366.51
584.50	61155.86
584.66	61116.07
584.82	60900.74
584.98	61307.99
585.14	61373.53
585.30	61123.09
585.46	61043.51
585.62	61104.37
585.78	61399.27
585.94	61085.64
586.10	61153.52
586.26	61282.25
586.42	61457.79
586.58	61300.97
586.74	61268.20
586.90	61169.90
587.06	61073.94
587.22	61319.70
587.38	61144.16
587.54	61436.72
587.70	61495.24
587.86	61052.87
588.02	61205.01
588.18	61420.34
588.34	61226.07
588.49	61165.22
