SpectraSuite Data File
++++++++++++++++++++++++++++++++++++
Date: Fri Oct 25 11:34:28 EDT 2013
User: price-jones
Dark Spectrum Present: No
Reference Spectrum Present: No
Number of Sampled Component Spectra: 1
Spectrometers: USB2+H05261
Integration Time (usec): 100000 (USB2+H05261)
Spectra Averaged: 1 (USB2+H05261)
Boxcar Smoothing: 0 (USB2+H05261)
Correct for Electrical Dark: No (USB2+H05261)
Strobe/Lamp Enabled: No (USB2+H05261)
Correct for Detector Non-linearity: No (USB2+H05261)
Correct for Stray Light: No (USB2+H05261)
Number of Pixels in Processed Spectrum: 2048
>>>>>Begin Processed Spectral Data<<<<<
365.73	308.95
365.92	308.95
366.12	308.95
366.32	198.95
366.52	245.76
366.72	180.22
366.91	187.24
367.11	173.20
367.31	175.54
367.51	163.84
367.70	163.84
367.90	180.22
368.10	187.24
368.30	196.60
368.49	196.60
368.69	145.11
368.89	344.06
369.09	156.82
369.28	276.18
369.48	262.14
369.68	212.99
369.87	191.92
370.07	210.65
370.27	229.37
370.47	355.76
370.66	491.51
370.86	477.47
371.06	477.47
371.25	510.24
371.45	465.77
371.65	571.09
371.84	566.41
372.04	543.00
372.24	533.64
372.44	547.69
372.63	543.00
372.83	638.97
373.03	552.37
373.22	564.07
373.42	571.09
373.62	545.34
373.81	631.94
374.01	648.33
374.21	571.09
374.40	627.26
374.60	601.52
374.79	606.20
374.99	587.47
375.19	641.31
375.38	566.41
375.58	643.65
375.78	606.20
375.97	702.16
376.17	674.07
376.37	645.99
376.56	634.29
376.76	667.05
376.95	683.44
377.15	664.71
377.35	734.93
377.54	650.67
377.74	741.95
377.93	692.80
378.13	624.92
378.33	725.57
378.52	685.78
378.72	657.69
378.91	725.57
379.11	699.82
379.31	751.31
379.50	716.20
379.70	765.36
379.89	739.61
380.09	718.54
380.28	671.73
380.48	692.80
380.68	634.29
380.87	699.82
381.07	798.12
381.26	737.27
381.46	716.20
381.65	837.91
381.85	692.80
382.04	718.54
382.24	739.61
382.43	727.91
382.63	777.06
382.83	746.63
383.02	720.88
383.22	774.72
383.41	737.27
383.61	814.51
383.80	882.38
384.00	779.40
384.19	777.06
384.39	807.48
384.58	791.10
384.78	856.64
384.97	734.93
385.17	816.85
385.36	823.87
385.56	809.83
385.75	802.80
385.95	835.57
386.14	858.98
386.34	856.64
386.53	870.68
386.72	866.00
386.92	947.92
387.11	844.93
387.31	898.77
387.50	877.70
387.70	847.27
387.89	842.59
388.09	903.45
388.28	880.04
388.48	863.66
388.67	875.36
388.86	882.38
389.06	950.26
389.25	889.40
389.45	952.60
389.64	919.83
389.84	929.19
390.03	961.96
390.22	908.13
390.42	908.13
390.61	917.49
390.81	915.15
391.00	868.34
391.19	1067.28
391.39	978.34
391.58	1022.81
391.78	945.58
391.97	1029.84
392.16	957.28
392.36	994.73
392.55	971.32
392.75	1053.24
392.94	997.07
393.13	1046.22
393.33	1039.20
393.52	1125.80
393.71	1116.44
393.91	1062.60
394.10	1015.79
394.29	1027.50
394.49	1034.52
394.68	1100.05
394.88	1064.94
395.07	1116.44
395.26	1081.33
395.46	1046.22
395.65	1200.69
395.84	1135.16
396.04	1203.04
396.23	1196.01
396.42	1029.84
396.62	1200.69
396.81	1165.59
397.00	1128.14
397.19	1259.21
397.39	1086.01
397.58	1198.35
397.77	1177.29
397.97	1210.06
398.16	1207.72
398.35	1142.18
398.55	1151.54
398.74	1301.34
398.93	1362.19
399.12	1233.46
399.32	1268.57
399.51	1235.80
399.70	1345.81
399.90	1296.66
400.09	1284.95
400.28	1282.61
400.47	1327.08
400.67	1348.15
400.86	1394.96
401.05	1277.93
401.24	1394.96
401.44	1416.02
401.63	1462.83
401.82	1345.81
402.01	1439.43
402.21	1406.66
402.40	1430.07
402.59	1521.35
402.78	1406.66
402.97	1483.90
403.17	1483.90
403.36	1458.15
403.55	1593.90
403.74	1530.71
403.93	1570.50
404.13	1572.84
404.32	1600.93
404.51	1556.46
404.70	1570.50
404.89	1551.78
405.09	1689.87
405.28	1631.35
405.47	1584.54
405.66	1561.14
405.85	1626.67
406.05	1603.27
406.24	1657.10
406.43	1638.38
406.62	1736.68
406.81	1706.25
407.00	1764.76
407.20	1650.08
407.39	1621.99
407.58	1774.13
407.77	1774.13
407.96	1867.75
408.15	1724.97
408.34	1685.19
408.54	1806.89
408.73	1813.92
408.92	1963.71
409.11	1916.90
409.30	1959.03
409.49	1975.41
409.68	1823.28
409.87	2054.99
410.07	1952.01
410.26	1888.81
410.45	2043.29
410.64	1998.82
410.83	2057.33
411.02	2038.61
411.21	2223.51
411.40	2160.31
411.59	2073.71
411.78	2080.74
411.98	2174.36
412.17	2176.70
412.36	2176.70
412.55	2335.85
412.74	2275.00
412.93	2256.28
413.12	2249.25
413.31	2345.22
413.50	2277.34
413.69	2314.79
413.88	2253.94
414.07	2427.14
414.26	2427.14
414.45	2335.85
414.64	2495.01
414.83	2417.77
415.02	2457.56
415.22	2525.44
415.41	2579.27
415.60	2490.33
415.79	2630.76
415.98	2654.17
416.17	2569.91
416.36	2630.76
416.55	2679.91
416.74	2719.70
416.93	2691.62
417.12	2710.34
417.31	2700.98
417.50	2761.83
417.69	2757.15
417.88	2899.92
418.07	2813.32
418.26	2862.48
418.45	2862.48
418.64	2920.99
418.83	2911.63
419.02	2932.69
419.21	3054.40
419.39	3110.57
419.58	2981.84
419.77	2993.55
419.96	3176.11
420.15	2946.73
420.34	2930.35
420.53	3016.95
420.72	3101.21
420.91	3234.62
421.10	3162.06
421.29	3197.17
421.48	3211.22
421.67	3077.80
421.86	3094.19
422.05	3103.55
422.24	3272.07
422.43	3389.10
422.61	3110.57
422.80	3276.75
422.99	3311.86
423.18	3279.09
423.37	3323.56
423.56	3208.87
423.75	3255.69
423.94	3208.87
424.13	3101.21
424.32	3098.87
424.50	3178.45
424.69	3424.20
424.88	3386.76
425.07	3269.73
425.26	3288.45
425.45	3229.94
425.64	3269.73
425.83	3438.25
426.01	3353.99
426.20	3412.50
426.39	3344.63
426.58	3356.33
426.77	3323.56
426.96	3239.30
427.15	3309.52
427.33	3468.67
427.52	3410.16
427.71	3368.03
427.90	3522.51
428.09	3386.76
428.28	3702.73
428.46	3459.31
428.65	3386.76
428.84	3681.66
429.03	3627.83
429.22	3494.42
429.40	3726.13
429.59	3559.95
429.78	3480.38
429.97	3419.52
430.16	3616.13
430.34	3581.02
430.53	3742.52
430.72	3723.79
430.91	3667.62
431.10	3873.59
431.28	3796.35
431.47	3845.50
431.66	4002.32
431.85	3782.31
432.03	3904.01
432.22	3904.01
432.41	3840.82
432.60	3805.71
432.79	3962.53
432.97	3747.20
433.16	3957.85
433.35	4035.08
433.54	3985.93
433.72	4039.76
433.91	4018.70
434.10	4037.42
434.28	3953.16
434.47	4142.75
434.66	4124.02
434.85	4102.96
435.03	4098.28
435.22	4142.75
435.41	4348.72
435.59	4154.45
435.78	4166.15
435.97	4079.55
436.16	4196.58
436.34	4351.06
436.53	4318.29
436.72	4273.82
436.90	4262.12
437.09	4306.59
437.28	4161.47
437.46	4315.95
437.65	4276.16
437.84	4353.40
438.02	4278.50
438.21	4418.93
438.40	4297.22
438.58	4599.15
438.77	4557.02
438.96	4575.75
439.14	4634.26
439.33	4645.96
439.52	4643.62
439.70	4636.60
439.89	4758.31
440.08	4781.71
440.26	4856.61
440.45	4863.63
440.63	4791.08
440.82	4865.97
441.01	4938.53
441.19	4889.38
441.38	5090.67
441.57	5060.24
441.75	4973.64
441.94	5128.11
442.12	5214.71
442.31	5200.67
442.50	5256.84
442.68	5235.78
442.87	5252.16
443.05	5350.46
443.24	5434.72
443.43	5371.53
443.61	5305.99
443.80	5476.85
443.98	5287.27
444.17	5069.60
444.35	5256.84
444.54	5586.86
444.73	5329.40
444.91	5266.21
445.10	5486.22
445.28	5427.70
445.47	5465.15
445.65	5385.57
445.84	5343.44
446.02	5516.64
446.21	5628.99
446.39	5451.11
446.58	5607.92
446.77	5476.85
446.95	5376.21
447.14	5308.34
447.32	5437.06
447.51	5577.50
447.69	5383.23
447.88	5568.13
448.06	5453.45
448.25	5533.03
448.43	5479.19
448.62	5643.03
448.80	5598.56
448.99	5657.07
449.17	5605.58
449.36	5624.31
449.54	5792.83
449.73	5834.96
449.91	5818.57
450.10	5813.89
450.28	5891.13
450.46	5830.27
450.65	5849.00
450.83	5762.40
451.02	5942.62
451.20	5919.21
451.39	5790.49
451.57	5877.09
451.76	5696.86
451.94	5935.60
452.13	5996.45
452.31	6054.97
452.49	5973.05
452.68	6176.67
452.86	5991.77
453.05	6171.99
453.23	6050.28
453.42	6080.71
453.60	6071.35
453.78	5947.30
453.97	6090.07
454.15	6040.92
454.34	6033.90
454.52	6296.04
454.70	6162.63
454.89	6401.37
455.07	6253.91
455.26	6438.81
455.44	6263.27
455.62	6384.98
455.81	6399.02
455.99	6478.60
456.17	6464.56
456.36	6516.05
456.54	6415.41
456.73	6614.35
456.91	6569.88
457.09	6813.30
457.28	6808.62
457.46	6607.33
457.64	6597.97
457.83	6806.28
458.01	6560.52
458.19	6850.75
458.38	6768.83
458.56	6998.20
458.74	6782.87
458.93	6878.83
459.11	6979.48
459.29	6927.99
459.48	6897.56
459.66	6855.43
459.84	7045.01
460.03	7169.06
460.21	7063.74
460.39	7117.57
460.57	7096.50
460.76	7143.32
460.94	7227.57
461.12	7265.02
461.31	7269.70
461.49	7169.06
461.67	7206.51
461.85	7199.49
462.04	7171.40
462.22	7728.45
462.40	7321.20
462.59	7463.97
462.77	7349.28
462.95	7559.93
463.13	7405.46
463.32	7548.23
463.50	7492.05
463.68	7592.70
463.86	7456.95
464.05	7590.36
464.23	7538.87
464.41	7651.21
464.59	7489.71
464.78	7892.29
464.96	7852.50
465.14	7609.08
465.32	7592.70
465.50	7702.70
465.69	7665.25
465.87	7588.02
466.05	7772.92
466.23	7702.70
466.41	7899.31
466.60	7843.14
466.78	7630.15
466.96	7850.16
467.14	7793.98
467.32	7999.95
467.51	7999.95
467.69	7946.12
467.87	7934.42
468.05	8142.72
468.23	8011.65
468.41	7922.71
468.60	8044.42
468.78	8046.76
468.96	8142.72
469.14	8311.24
469.32	8259.75
469.50	8184.85
469.69	8444.65
469.87	8446.99
470.05	8475.08
470.23	8477.42
470.41	8538.27
470.59	8397.84
470.77	8524.23
470.95	8416.57
471.14	8369.76
471.32	8451.67
471.50	8662.32
471.68	8807.44
471.86	8519.55
472.04	8655.30
472.22	8683.39
472.40	8741.90
472.58	8805.10
472.77	8767.65
472.95	9240.44
473.13	9252.14
473.31	8992.34
473.49	9090.64
473.67	8908.08
473.85	9123.41
474.03	9273.20
474.21	9163.20
474.39	9516.62
474.57	9434.70
474.75	9336.40
474.93	9371.50
475.12	9303.63
475.30	9708.54
475.48	9509.60
475.66	9902.81
475.84	9540.02
476.02	9816.21
476.20	9863.02
476.38	10047.92
476.56	10242.18
476.74	9937.91
476.92	10066.64
477.10	9863.02
477.28	10235.16
477.46	10033.88
477.64	10434.11
477.82	10773.49
478.00	10696.25
478.18	10523.05
478.36	10878.81
478.54	10970.09
478.72	10661.14
478.90	10916.26
479.08	11094.14
479.26	11279.04
479.44	11297.77
479.62	11143.29
479.80	11290.74
479.98	11257.98
480.16	11485.01
480.34	11370.32
480.52	11789.28
480.70	11667.57
480.88	11571.61
481.06	11690.98
481.24	12074.82
481.41	12114.61
481.59	12341.64
481.77	12184.83
481.95	12278.45
482.13	12470.37
482.31	12594.42
482.49	12762.94
482.67	12959.55
482.85	13013.38
483.03	12917.42
483.21	13076.57
483.39	13231.05
483.57	13193.60
483.74	13458.08
483.92	13469.78
484.10	13289.56
484.28	13638.30
484.46	13816.18
484.64	14031.51
484.82	14005.77
485.00	14047.90
485.18	14125.13
485.35	14363.87
485.53	14153.22
485.71	14436.42
485.89	14939.64
486.07	14656.43
486.25	14728.99
486.43	14691.54
486.61	14869.42
486.78	15108.16
486.96	14920.92
487.14	15487.32
487.32	15199.44
487.50	15606.69
487.68	15599.67
487.85	15971.82
488.03	16074.80
488.21	16287.79
488.39	16362.69
488.57	16746.53
488.75	16613.12
488.92	16624.83
489.10	16659.93
489.28	16528.86
489.46	17315.28
489.64	16884.62
489.81	17373.80
489.99	17238.05
490.17	17336.35
490.35	17635.94
490.53	17811.48
490.70	18012.76
490.88	17657.00
491.06	18118.09
491.24	17956.59
491.41	18001.06
491.59	18256.18
491.77	17977.65
491.95	18258.52
492.13	18614.28
492.30	18630.66
492.48	18457.46
492.66	18956.00
492.84	18822.59
493.01	19161.97
493.19	19192.39
493.37	19433.47
493.54	19220.48
493.72	19590.28
493.90	19660.50
494.08	19978.81
494.25	20154.35
494.43	20229.25
494.61	20372.02
494.79	20238.61
494.96	20189.46
495.14	20329.89
495.32	20423.51
495.49	20987.58
495.67	20718.42
495.85	20952.48
496.02	21195.89
496.20	21315.26
496.38	21301.22
496.55	21345.69
496.73	21603.14
496.91	21336.32
497.09	21511.86
497.26	21972.95
497.44	21790.39
497.62	21994.01
497.79	22469.14
497.97	22452.76
498.14	22527.66
498.32	22600.21
498.50	22766.39
498.67	22757.03
498.85	23065.98
499.03	22876.40
499.20	22906.82
499.38	23213.43
499.56	23028.53
499.73	23370.25
499.91	23126.83
500.08	23845.38
500.26	23278.97
500.44	23604.30
500.61	23669.84
500.79	23831.33
500.97	23718.99
501.14	24056.03
501.32	24203.48
501.49	23819.63
501.67	24287.74
501.84	24414.13
502.02	24229.23
502.20	24512.43
502.37	24531.15
502.55	24299.44
502.72	24723.08
502.90	24905.64
503.07	24758.19
503.25	24833.08
503.43	24613.07
503.60	24966.49
503.78	25067.14
503.95	25111.61
504.13	25252.04
504.30	25626.53
504.48	25420.56
504.65	25626.53
504.83	25809.09
505.01	26012.71
505.18	25680.36
505.36	25944.84
505.53	25970.58
505.71	26267.83
505.88	26223.36
506.06	25996.33
506.23	26621.25
506.41	26094.63
506.58	26408.26
506.76	26398.90
506.93	26794.45
507.11	26405.92
507.28	26728.92
507.46	26801.47
507.63	26712.53
507.81	27098.72
507.98	27019.14
508.16	27147.87
508.33	27360.86
508.50	27021.48
508.68	27475.55
508.85	27182.98
509.03	27108.08
509.20	27627.68
509.38	28173.03
509.55	28086.43
509.73	27901.53
509.90	28308.78
510.08	28056.00
510.25	27751.73
510.42	28226.86
510.60	27906.21
510.77	28477.30
510.95	28933.70
511.12	28458.57
511.30	28491.34
511.47	28606.03
511.64	28643.48
511.82	29050.73
511.99	29139.67
512.17	28947.75
512.34	28889.23
512.51	28994.56
512.69	29383.09
512.86	29244.99
513.04	29418.19
513.21	29605.44
513.38	30125.04
513.56	30092.27
513.73	29628.84
513.90	29692.04
514.08	30015.03
514.25	29968.22
514.43	29919.07
514.60	30120.35
514.77	29834.81
514.95	30384.83
515.12	29993.97
515.29	30494.84
515.47	30429.30
515.64	30513.56
515.81	30419.94
515.99	30965.29
516.16	30962.95
516.33	30787.41
516.51	30731.23
516.68	30796.77
516.85	31096.36
517.03	31161.89
517.20	31304.67
517.37	31480.21
517.54	31555.10
517.72	31330.41
517.89	31398.29
518.06	31772.77
518.24	31644.04
518.41	31445.10
518.58	31681.49
518.75	31356.16
518.93	31950.65
519.10	31873.42
519.27	31981.08
519.45	31864.05
519.62	32360.25
519.79	32416.42
519.96	32039.59
520.14	32430.46
520.31	32432.80
520.48	32514.72
520.65	32350.88
520.83	32823.67
521.00	32823.67
521.17	32505.36
521.34	32758.14
521.52	32795.59
521.69	33015.60
521.86	33006.23
522.03	32847.08
522.20	33106.88
522.38	33343.27
522.55	33340.93
522.72	33392.42
522.89	33546.90
523.07	33900.32
523.24	33336.25
523.41	33886.28
523.58	33359.66
523.75	33949.47
523.92	33820.74
524.10	34024.37
524.27	34281.83
524.44	33895.64
524.61	33954.15
524.78	34352.04
524.96	33883.94
525.13	34314.59
525.30	34719.51
525.47	34991.01
525.64	34579.07
525.81	34412.90
525.98	34773.34
526.16	34623.54
526.33	34810.79
526.50	34873.98
526.67	34742.91
526.84	35182.93
527.01	34955.90
527.18	35299.96
527.36	35098.67
527.53	34909.09
527.70	34948.88
527.87	35370.18
528.04	35398.26
528.21	35838.28
528.38	35377.20
528.55	35545.72
528.72	35526.99
528.89	35597.21
529.07	35482.52
529.24	35093.99
529.41	35704.87
529.58	36247.88
529.75	35723.60
529.92	35854.67
530.09	36245.54
530.26	36114.47
530.43	36156.60
530.60	35859.35
530.77	36053.61
530.94	35924.88
531.11	35798.49
531.28	35990.42
531.46	36568.53
531.63	36407.03
531.80	36397.67
531.97	36690.24
532.14	36481.93
532.31	36341.50
532.48	36657.47
532.65	37104.51
532.82	36641.09
532.99	36741.73
533.16	36875.14
533.33	37170.05
533.50	36898.55
533.67	36790.88
533.84	37177.07
534.01	37043.66
534.18	37003.87
534.35	37408.78
534.52	37420.48
534.69	37542.19
534.86	37839.44
535.03	37450.91
535.20	37350.27
535.37	37617.09
535.54	37563.26
535.71	37434.53
535.88	37741.14
536.05	37750.50
536.22	37982.21
536.38	37904.98
536.55	37860.51
536.72	37649.86
536.89	37619.43
537.06	37895.61
537.23	38148.39
537.40	37670.92
537.57	37841.78
537.74	37724.75
537.91	38295.85
538.08	38171.80
538.25	38387.13
538.42	38450.32
538.59	38490.11
538.75	38106.26
538.92	38616.50
539.09	38813.10
539.26	38679.69
539.43	38986.30
539.60	39014.39
539.77	39056.52
539.94	39143.12
540.11	38794.38
540.28	38307.55
540.44	38742.89
540.61	38995.67
540.78	38686.71
540.95	39000.35
541.12	38913.75
541.29	38630.54
541.46	39068.22
541.62	39580.80
541.79	39264.83
541.96	39042.48
542.13	38660.97
542.30	39229.72
542.47	39660.38
542.63	39686.12
542.80	39463.77
542.97	39541.01
543.14	39997.41
543.31	39695.49
543.48	39503.56
543.64	40217.43
543.81	40100.40
543.98	40144.87
544.15	39852.30
544.32	40493.61
544.48	40636.38
544.65	40353.18
544.82	40123.80
544.99	40004.44
545.16	40526.38
545.32	40182.32
545.49	40814.26
545.66	40701.92
545.83	40589.57
546.00	40783.83
546.16	40612.98
546.33	40486.59
546.50	40252.53
546.67	41315.14
546.83	40509.99
547.00	40781.49
547.17	40369.56
547.34	40451.48
547.50	40865.75
547.67	41249.60
547.84	41034.27
548.00	41085.76
548.17	41478.97
548.34	40989.80
548.51	41701.32
548.67	41305.77
548.84	41329.18
549.01	41163.00
549.18	40985.12
549.34	41443.87
549.51	41434.50
549.68	41804.31
549.84	41434.50
550.01	41560.89
550.18	40931.29
550.34	41345.56
550.51	41663.88
550.68	41897.93
550.84	41663.88
551.01	42000.91
551.18	41572.60
551.34	41577.28
551.51	41577.28
551.68	42342.63
551.84	41841.76
552.01	41933.04
552.18	42024.32
552.34	42026.66
552.51	42078.15
552.68	41909.63
552.84	41883.89
553.01	42211.56
553.18	42043.04
553.34	42160.07
553.51	42440.93
553.67	42057.09
553.84	42639.88
554.01	42071.13
554.17	42356.67
554.34	42497.11
554.51	42525.19
554.67	42815.42
554.84	42667.97
555.00	42803.72
555.17	42880.95
555.33	42595.41
555.50	42412.85
555.67	42651.58
555.83	42506.47
556.00	42981.60
556.16	43405.23
556.33	43199.27
556.50	42817.76
556.66	43208.63
556.83	42932.45
556.99	42941.81
557.16	42777.97
557.32	43129.05
557.49	43402.89
557.65	43206.29
557.82	43445.02
557.98	43154.80
558.15	43117.35
558.32	43173.52
558.48	43026.07
558.65	43030.75
558.81	43061.18
558.98	43409.92
559.14	43171.18
559.31	43138.41
559.47	43115.01
559.64	43615.88
559.80	43267.14
559.97	43803.13
560.13	42857.55
560.30	43835.89
560.46	43988.03
560.63	43922.49
560.79	44020.80
560.96	43934.20
561.12	43210.97
561.29	43969.30
561.45	43576.09
561.61	43845.26
561.78	43426.30
561.94	43763.34
562.11	43842.92
562.27	43952.92
562.44	43768.02
562.60	44086.33
562.77	44027.82
562.93	43550.35
563.10	43966.96
563.26	43826.53
563.42	44301.66
563.59	43695.46
563.75	43658.01
563.92	43997.39
564.08	44168.25
564.24	44091.01
564.41	44018.46
564.57	44179.95
564.74	44137.82
564.90	43819.51
565.07	43868.66
565.23	44161.23
565.39	44044.20
565.56	44453.79
565.72	43941.22
565.88	44205.70
566.05	44271.23
566.21	43990.37
566.38	44126.12
566.54	44201.02
566.70	44467.84
566.87	44477.20
567.03	43796.10
567.19	44369.54
567.36	44296.98
567.52	44353.15
567.68	44678.49
567.85	44535.71
568.01	44790.83
568.17	44292.30
568.34	44788.49
568.50	44065.27
568.66	44402.30
568.83	44446.77
568.99	44737.00
569.15	44463.16
569.32	44428.05
569.48	44135.48
569.64	44985.10
569.81	44898.50
569.97	44711.25
570.13	44701.89
570.30	44264.21
570.46	44598.91
570.62	44451.45
570.78	44524.01
570.95	44706.57
571.11	44636.36
571.27	44285.28
571.43	44514.65
571.60	44886.79
571.76	44832.96
571.92	44605.93
572.09	44973.39
572.25	45048.29
572.41	44458.48
572.57	44725.30
572.74	44528.69
572.90	45013.18
573.06	45392.35
573.22	44882.11
573.38	44552.10
573.55	45202.77
573.71	45310.43
573.87	45130.21
574.03	44650.40
574.20	45209.79
574.36	45132.55
574.52	44917.22
574.68	45141.91
574.84	44921.90
575.01	44907.86
575.17	45191.06
575.33	45408.73
575.49	45134.89
575.65	44966.37
575.82	45052.97
575.98	44973.39
576.14	45144.25
576.30	45272.98
576.46	44957.01
576.62	44938.29
576.79	45055.31
576.95	44512.31
577.11	44891.48
577.27	44744.02
577.43	45214.47
577.59	45198.09
577.75	44851.69
577.92	44636.36
578.08	44760.40
578.24	44858.71
578.40	45291.71
578.56	45474.27
578.72	44528.69
578.88	45282.34
579.04	44971.05
579.21	45317.45
579.37	45092.76
579.53	44905.52
579.69	44739.34
579.85	45219.15
580.01	44814.24
580.17	45258.94
580.33	45052.97
580.49	45174.68
580.65	45565.55
580.82	45207.45
580.98	45132.55
581.14	44617.63
581.30	45052.97
581.46	44666.78
581.62	45144.25
581.78	45123.19
581.94	45120.85
582.10	45165.32
582.26	45116.17
582.42	45652.15
582.58	45359.58
582.74	45450.86
582.90	45017.86
583.06	45340.86
583.22	45275.32
583.38	45368.94
583.54	45111.49
583.70	44985.10
583.86	45457.88
584.02	45336.18
584.18	45628.74
584.34	45123.19
584.50	45462.57
584.66	45333.84
584.82	45434.48
584.98	45764.49
585.14	45202.77
585.30	45380.65
585.46	45460.23
585.62	45312.77
585.78	45804.28
585.94	44816.58
586.10	45483.63
586.26	44868.07
586.42	45535.12
586.58	45249.58
586.74	45500.01
586.90	45364.26
587.06	45790.24
587.22	45411.07
587.38	45167.66
587.54	45347.88
587.70	45439.16
587.86	45167.66
588.02	45411.07
588.18	45640.45
588.34	45366.60
588.49	45495.33
588.65	45343.20
588.81	45436.82
588.97	45521.08
589.13	45350.22
589.29	45474.27
589.45	46117.92
589.61	45792.58
589.77	45507.04
589.93	45507.04
590.08	45832.37
