SpectraSuite Data File
++++++++++++++++++++++++++++++++++++
Date: Fri Oct 25 10:48:09 EDT 2013
User: price-jones
Dark Spectrum Present: No
Reference Spectrum Present: No
Number of Sampled Component Spectra: 1
Spectrometers: USB2+H05261
Integration Time (usec): 100000 (USB2+H05261)
Spectra Averaged: 1 (USB2+H05261)
Boxcar Smoothing: 0 (USB2+H05261)
Correct for Electrical Dark: No (USB2+H05261)
Strobe/Lamp Enabled: No (USB2+H05261)
Correct for Detector Non-linearity: No (USB2+H05261)
Correct for Stray Light: No (USB2+H05261)
Number of Pixels in Processed Spectrum: 2048
>>>>>Begin Processed Spectral Data<<<<<
365.73	147.45
365.92	147.45
366.12	147.45
366.32	65.54
366.52	37.45
366.72	51.49
366.91	84.26
367.11	4.68
367.31	49.15
367.51	18.72
367.70	51.49
367.90	53.83
368.10	88.94
368.30	81.92
368.49	44.47
368.69	25.75
368.89	39.79
369.09	2.34
369.28	182.56
369.48	84.26
369.68	107.66
369.87	124.05
370.07	110.01
370.27	203.63
370.47	177.88
370.66	397.89
370.86	386.19
371.06	458.74
371.25	482.15
371.45	409.59
371.65	486.83
371.84	386.19
372.04	468.11
372.24	411.93
372.44	423.64
372.63	489.17
372.83	449.38
373.03	500.87
373.22	421.30
373.42	468.11
373.62	514.92
373.81	535.98
374.01	543.00
374.21	575.77
374.40	538.32
374.60	526.62
374.79	554.71
374.99	620.24
375.19	599.18
375.38	521.94
375.58	575.77
375.78	603.86
375.97	669.39
376.17	585.13
376.37	606.20
376.56	585.13
376.76	580.45
376.95	622.58
377.15	571.09
377.35	650.67
377.54	613.22
377.74	622.58
377.93	613.22
378.13	578.11
378.33	636.63
378.52	645.99
378.72	718.54
378.91	638.97
379.11	655.35
379.31	589.82
379.50	561.73
379.70	660.03
379.89	702.16
380.09	622.58
380.28	650.67
380.48	676.41
380.68	645.99
380.87	620.24
381.07	713.86
381.26	699.82
381.46	617.90
381.65	648.33
381.85	739.61
382.04	685.78
382.24	606.20
382.43	671.73
382.63	613.22
382.83	688.12
383.02	683.44
383.22	758.33
383.41	622.58
383.61	730.25
383.80	788.76
384.00	744.29
384.19	730.25
384.39	697.48
384.58	760.67
384.78	760.67
384.97	779.40
385.17	746.63
385.36	730.25
385.56	770.04
385.75	669.39
385.95	800.46
386.14	784.08
386.34	809.83
386.53	734.93
386.72	753.65
386.92	781.74
387.11	833.23
387.31	833.23
387.50	828.55
387.70	821.53
387.89	847.27
388.09	854.30
388.28	863.66
388.48	837.91
388.67	868.34
388.86	856.64
389.06	821.53
389.25	849.61
389.45	940.90
389.64	910.47
389.84	887.06
390.03	891.74
390.22	858.98
390.42	849.61
390.61	936.21
390.81	905.79
391.00	961.96
391.19	950.26
391.39	952.60
391.58	990.05
391.78	1039.20
391.97	924.51
392.16	978.34
392.36	954.94
392.55	882.38
392.75	940.90
392.94	931.53
393.13	1025.15
393.33	912.81
393.52	1029.84
393.71	1006.43
393.91	997.07
394.10	1025.15
394.29	980.68
394.49	1097.71
394.68	1095.37
394.88	1123.46
395.07	1078.99
395.26	1174.95
395.46	1083.67
395.65	1137.50
395.84	1083.67
396.04	1165.59
396.23	1074.31
396.42	1074.31
396.62	1048.56
396.81	1165.59
397.00	1064.94
397.19	1165.59
397.39	1179.63
397.58	1235.80
397.77	1256.87
397.97	1191.33
398.16	1149.20
398.35	1266.23
398.55	1259.21
398.74	1277.93
398.93	1263.89
399.12	1306.02
399.32	1263.89
399.51	1320.06
399.70	1387.94
399.90	1296.66
400.09	1373.89
400.28	1397.30
400.47	1362.19
400.67	1378.58
400.86	1455.81
401.05	1434.75
401.24	1392.62
401.44	1474.54
401.63	1561.14
401.82	1474.54
402.01	1469.86
402.21	1507.30
402.40	1490.92
402.59	1558.80
402.78	1497.94
402.97	1556.46
403.17	1549.43
403.36	1509.65
403.55	1657.10
403.74	1633.69
403.93	1652.42
404.13	1657.10
404.32	1551.78
404.51	1631.35
404.70	1673.48
404.89	1607.95
405.09	1724.97
405.28	1717.95
405.47	1710.93
405.66	1750.72
405.85	1678.16
406.05	1736.68
406.24	1722.63
406.43	1717.95
406.62	1802.21
406.81	1818.60
407.00	1898.17
407.20	1785.83
407.39	1748.38
407.58	1921.58
407.77	1930.94
407.96	1937.96
408.15	1923.92
408.34	1867.75
408.54	1944.99
408.73	2015.20
408.92	2040.95
409.11	2017.54
409.30	2015.20
409.49	1961.37
409.68	2120.53
409.87	2083.08
410.07	2080.74
410.26	2080.74
410.45	2059.67
410.64	2104.14
410.83	2223.51
411.02	2249.25
411.21	2148.61
411.40	2270.32
411.59	2209.47
411.78	2256.28
411.98	2181.38
412.17	2186.06
412.36	2289.04
412.55	2291.38
412.74	2471.61
412.93	2373.30
413.12	2417.77
413.31	2480.97
413.50	2413.09
413.69	2441.18
413.88	2541.82
414.07	2506.71
414.26	2523.10
414.45	2560.55
414.64	2640.12
414.83	2710.34
415.02	2637.78
415.22	2738.43
415.41	2757.15
415.60	2764.17
415.79	2771.19
415.98	2773.53
416.17	2775.88
416.36	2878.86
416.55	2736.09
416.74	2846.09
416.93	2916.31
417.12	2843.75
417.31	2930.35
417.50	3042.70
417.69	3080.14
417.88	3112.91
418.07	2895.24
418.26	3040.36
418.45	3047.38
418.64	3211.22
418.83	3190.15
419.02	3091.85
419.21	3241.64
419.39	3222.92
419.58	3267.39
419.77	3155.04
419.96	3222.92
420.15	3246.32
420.34	3094.19
420.53	3239.30
420.72	3375.05
420.91	3262.71
421.10	3361.01
421.29	3492.08
421.48	3258.03
421.67	3419.52
421.86	3405.48
422.05	3445.27
422.24	3356.33
422.43	3452.29
422.61	3552.93
422.80	3585.70
422.99	3581.02
423.18	3543.57
423.37	3527.19
423.56	3510.80
423.75	3555.27
423.94	3475.70
424.13	3290.79
424.32	3417.18
424.50	3466.33
424.69	3506.12
424.88	3545.91
425.07	3449.95
425.26	3365.69
425.45	3456.97
425.64	3435.91
425.83	3480.38
426.01	3639.53
426.20	3672.30
426.39	3449.95
426.58	3513.14
426.77	3606.77
426.96	3578.68
427.15	3478.04
427.33	3655.92
427.52	3559.95
427.71	3618.47
427.90	3747.20
428.09	3714.43
428.28	3723.79
428.46	3728.47
428.65	3669.96
428.84	3831.46
429.03	3899.33
429.22	3812.73
429.40	3822.09
429.59	3786.99
429.78	3538.89
429.97	3571.66
430.16	3796.35
430.34	3831.46
430.53	3950.82
430.72	3864.22
430.91	3761.24
431.10	3885.29
431.28	4091.26
431.47	4086.58
431.66	4065.51
431.85	3964.87
432.03	4198.92
432.22	4266.80
432.41	4131.05
432.60	4168.49
432.79	4234.03
432.97	4241.05
433.16	4243.39
433.35	4180.20
433.54	4180.20
433.72	4208.28
433.91	4180.20
434.10	4133.39
434.28	4147.43
434.47	4182.54
434.66	4379.14
434.85	4428.29
435.03	4397.87
435.22	4327.65
435.41	4587.45
435.59	4514.89
435.78	4507.87
435.97	4500.85
436.16	4587.45
436.34	4496.17
436.53	4512.55
436.72	4599.15
436.90	4538.30
437.09	4533.62
437.28	4580.43
437.46	4580.43
437.65	4674.05
437.84	4725.54
438.02	4662.35
438.21	4713.84
438.40	4521.92
438.58	4889.38
438.77	4781.71
438.96	4856.61
439.14	4903.42
439.33	4992.36
439.52	5048.54
439.70	5102.37
439.89	5200.67
440.08	4985.34
440.26	4950.23
440.45	5025.13
440.63	5231.10
440.82	5305.99
441.01	5317.70
441.19	5179.61
441.38	5376.21
441.57	5270.89
441.75	5390.25
441.94	5465.15
442.12	5343.44
442.31	5584.52
442.50	5612.60
442.68	5481.53
442.87	5720.27
443.05	5612.60
443.24	5731.97
443.43	5715.59
443.61	5668.78
443.80	5937.94
443.98	5600.90
444.17	5467.49
444.35	5600.90
444.54	5949.64
444.73	5734.31
444.91	5851.34
445.10	5600.90
445.28	5741.33
445.47	5741.33
445.65	5675.80
445.84	5837.30
446.02	5834.96
446.21	5738.99
446.39	5757.72
446.58	5928.58
446.77	5893.47
446.95	5778.78
447.14	5947.30
447.32	6010.50
447.51	6005.81
447.69	5856.02
447.88	5923.90
448.06	5832.62
448.25	5769.42
448.43	5949.64
448.62	5816.23
448.80	5954.32
448.99	5980.07
449.17	6033.90
449.36	6174.33
449.54	5966.03
449.73	6202.42
449.91	6307.74
450.10	6235.19
450.28	6340.51
450.46	6221.14
450.65	6263.27
450.83	6190.72
451.02	6265.61
451.20	6455.20
451.39	6377.96
451.57	6277.32
451.76	6307.74
451.94	6363.92
452.13	6462.22
452.31	6443.49
452.49	6162.63
452.68	6340.51
452.86	6370.94
453.05	6527.75
453.23	6434.13
453.42	6443.49
453.60	6539.46
453.78	6576.91
453.97	6504.35
454.15	6612.01
454.34	6544.14
454.52	6693.93
454.70	6766.49
454.89	6766.49
455.07	6497.33
455.26	6803.94
455.44	6890.54
455.62	6895.22
455.81	6925.65
455.99	7021.61
456.17	6939.69
456.36	6960.75
456.54	7131.61
456.73	7023.95
456.91	7222.89
457.09	7290.77
457.28	7302.47
457.46	7258.00
457.64	7185.44
457.83	7148.00
458.01	7007.56
458.19	7269.70
458.38	7258.00
458.56	7234.60
458.74	7159.70
458.93	7433.54
459.11	7391.41
459.29	7410.14
459.48	7428.86
459.66	7435.88
459.84	7473.33
460.03	7667.60
460.21	7372.69
460.39	7368.01
460.57	7581.00
460.76	7882.92
460.94	7588.02
461.12	7595.04
461.31	7857.18
461.49	7548.23
461.67	7456.95
461.85	7957.82
462.04	7655.89
462.22	8313.58
462.40	7899.31
462.59	7920.37
462.77	7913.35
462.95	7929.74
463.13	7880.58
463.32	7744.83
463.50	8030.38
463.68	7899.31
463.86	7866.54
464.05	7840.79
464.23	8002.29
464.41	8025.70
464.59	7824.41
464.78	8119.32
464.96	8201.24
465.14	8084.21
465.32	8163.79
465.50	8140.38
465.69	8280.82
465.87	8170.81
466.05	8222.30
466.23	8198.90
466.41	8159.11
466.60	8514.87
466.78	8147.40
466.96	8229.32
467.14	8369.76
467.32	8353.37
467.51	8554.66
467.69	8313.58
467.87	8484.44
468.05	8559.34
468.23	8444.65
468.41	8519.55
468.60	8421.25
468.78	8617.85
468.96	8578.06
469.14	8592.11
469.32	8695.09
469.50	8486.78
469.69	8816.80
469.87	8830.84
470.05	8837.86
470.23	8849.57
470.41	8725.52
470.59	8999.36
470.77	9118.73
470.95	8945.53
471.14	9214.69
471.32	8882.33
471.50	9064.89
471.68	8992.34
471.86	9214.69
472.04	9205.33
472.22	9362.14
472.40	8945.53
472.58	9338.74
472.77	9228.73
472.95	9479.17
473.13	9619.60
473.31	9640.67
473.49	9654.71
473.67	9647.69
473.85	9638.33
474.03	9783.44
474.21	9774.08
474.39	9872.38
474.57	10043.24
474.75	10052.60
474.93	10052.60
475.12	10073.67
475.30	10083.03
475.48	9989.41
475.66	10104.09
475.84	10047.92
476.02	10291.34
476.20	10359.21
476.38	10525.39
476.56	10712.63
476.74	10686.89
476.92	10581.56
477.10	10633.05
477.28	10913.92
477.46	10942.00
477.64	11052.01
477.82	11169.04
478.00	11367.98
478.18	11173.72
478.36	11377.34
478.54	11337.56
478.72	11225.21
478.90	11454.58
479.08	11641.82
479.26	11761.19
479.44	11709.70
479.62	11819.71
479.80	11901.62
479.98	11866.52
480.16	12149.72
480.34	12212.92
480.52	12250.36
480.70	12318.24
480.88	12402.50
481.06	12397.82
481.24	12133.34
481.41	12587.40
481.59	13172.54
481.77	12781.67
481.95	12882.31
482.13	13060.19
482.31	13006.36
482.49	13277.86
482.67	13376.16
482.85	13399.57
483.03	13675.75
483.21	13935.55
483.39	13877.04
483.57	14148.54
483.74	13870.01
483.92	14111.09
484.10	13926.19
484.28	14321.74
484.46	14368.55
484.64	14562.81
484.82	14520.68
485.00	14635.37
485.18	14932.62
485.35	15005.17
485.53	14902.19
485.71	14993.47
485.89	15183.06
486.07	15068.37
486.25	15166.67
486.43	15562.22
486.61	15510.73
486.78	15669.89
486.96	15824.36
487.14	16233.96
487.32	16067.78
487.50	16285.45
487.68	16327.58
487.85	16762.92
488.03	16814.41
488.21	16737.17
488.39	16716.11
488.57	16723.13
488.75	16922.07
488.92	17291.88
489.10	17624.23
489.28	17638.28
489.46	17757.64
489.64	17790.41
489.81	18228.09
489.99	18216.39
490.17	18270.22
490.35	18829.61
490.53	18436.40
490.70	18586.19
490.88	18750.03
491.06	18775.78
491.24	18743.01
491.41	18757.05
491.59	19066.00
491.77	19094.09
491.95	19386.66
492.13	19634.75
492.30	19716.67
492.48	19674.54
492.66	19847.74
492.84	19948.39
493.01	20039.67
493.19	19950.73
493.37	20100.52
493.54	20673.95
493.72	20498.41
493.90	20613.10
494.08	20730.12
494.25	20826.09
494.43	20940.77
494.61	20741.83
494.79	21282.49
494.96	21139.72
495.14	21048.44
495.32	21607.83
495.49	21523.57
495.67	21427.60
495.85	21884.01
496.02	21942.52
496.20	22094.66
496.38	21902.73
496.55	22384.88
496.73	22684.47
496.91	22448.08
497.09	22459.78
497.26	22808.52
497.44	22654.05
497.62	22745.33
497.79	23023.85
497.97	22789.80
498.14	23290.67
498.32	23534.09
498.50	23183.01
498.67	24023.26
498.85	23681.54
499.03	23850.06
499.20	23765.80
499.38	23943.68
499.56	24067.73
499.73	24044.32
499.91	24716.06
500.08	24526.47
500.26	24379.02
500.44	24505.41
500.61	24570.94
500.79	24170.71
500.97	24833.08
501.14	25369.07
501.32	24833.08
501.49	25106.93
501.67	24982.88
501.84	25413.54
502.02	24816.70
502.20	25479.07
502.37	25598.44
502.55	25558.65
502.72	25582.06
502.90	25610.14
503.07	25458.01
503.25	25722.49
503.43	25542.27
503.60	26199.96
503.78	26010.37
503.95	26068.89
504.13	26047.82
504.30	26249.11
504.48	26094.63
504.65	26515.93
504.83	26445.71
505.01	26771.05
505.18	26892.76
505.36	26937.23
505.53	26848.29
505.71	27440.44
505.88	27206.39
506.06	27185.32
506.23	27126.81
506.41	26820.20
506.58	27211.07
506.76	27541.08
506.93	27709.60
507.11	27307.03
507.28	27632.36
507.46	27545.76
507.63	27653.43
507.81	27758.75
507.98	27920.25
508.16	27971.74
508.33	27768.12
508.50	27899.19
508.68	28451.55
508.85	28163.67
509.03	28276.01
509.20	28458.57
509.38	28659.86
509.55	28924.34
509.73	28730.08
509.90	29146.69
510.08	28914.98
510.25	29134.99
510.42	29177.12
510.60	29289.46
510.77	29481.39
510.95	29340.96
511.12	29085.84
511.30	29666.29
511.47	29528.20
511.64	29916.73
511.82	30099.29
511.99	29450.96
512.17	30082.91
512.34	29507.13
512.51	30045.46
512.69	30543.99
512.86	30101.63
513.04	30279.51
513.21	29984.60
513.38	30331.00
513.56	30569.74
513.73	30356.75
513.90	30677.40
514.08	30277.17
514.25	30712.51
514.43	30899.75
514.60	30857.62
514.77	31098.70
514.95	31194.66
515.12	31112.74
515.29	31189.98
515.47	31646.38
515.64	31742.35
515.81	31370.20
515.99	31573.83
516.16	31370.20
516.33	31356.16
516.51	31887.46
516.68	31379.56
516.85	31276.58
517.03	31702.56
517.20	31938.95
517.37	32308.76
517.54	32077.04
517.72	32325.14
517.89	31950.65
518.06	31915.54
518.24	32084.06
518.41	32053.64
518.58	32170.66
518.75	32505.36
518.93	32730.05
519.10	32547.49
519.27	32905.59
519.45	32535.79
519.62	32872.82
519.79	32580.26
519.96	33125.60
520.14	33720.10
520.31	32900.91
520.48	33193.48
520.65	33336.25
520.83	33586.69
521.00	33256.67
521.17	33350.29
521.34	33972.88
521.52	33661.58
521.69	33570.30
521.86	33628.82
522.03	34167.14
522.20	33773.93
522.38	33844.15
522.55	33811.38
522.72	34089.90
522.89	33989.26
523.07	34143.74
523.24	33907.34
523.41	34483.11
523.58	34235.02
523.75	34572.05
523.92	34628.23
524.10	34670.36
524.27	34721.85
524.44	34679.72
524.61	35196.98
524.78	34735.89
524.96	35204.00
525.13	35304.64
525.30	35601.89
525.47	35255.49
525.64	34981.65
525.81	35218.04
525.98	35070.59
526.16	34859.94
526.33	34906.75
526.50	35543.38
526.67	35290.60
526.84	35484.86
527.01	35379.54
527.18	35875.73
527.36	35777.43
527.53	35728.28
527.70	36053.61
527.87	36210.43
528.04	36437.46
528.21	36081.70
528.38	35952.97
528.55	36175.32
528.72	35964.67
528.89	36032.55
529.07	36044.25
529.24	36208.09
529.41	36168.30
529.58	36495.97
529.75	36360.22
529.92	36390.65
530.09	36610.66
530.26	36751.09
530.43	36650.45
530.60	36414.05
530.77	36535.76
530.94	36797.90
531.11	36627.04
531.28	36928.97
531.46	37074.09
531.63	37603.05
531.80	36802.58
531.97	37160.69
532.14	36968.76
532.31	36847.05
532.48	37324.52
532.65	36884.50
532.82	37322.18
532.99	37656.88
533.16	37174.73
533.33	37493.04
533.50	38071.15
533.67	37687.31
533.84	37392.40
534.01	37558.58
534.18	37532.83
534.35	38096.90
534.52	37603.05
534.69	38108.60
534.86	37645.18
535.03	38099.24
535.20	38251.38
535.37	38302.87
535.54	38337.98
535.71	38302.87
535.88	38085.20
536.05	38389.47
536.22	38012.64
536.38	38384.79
536.55	38398.83
536.72	38101.58
536.89	38237.33
537.06	38450.32
537.23	38625.86
537.40	38752.25
537.57	38574.37
537.74	39152.48
537.91	38871.62
538.08	38815.44
538.25	38799.06
538.42	38852.89
538.59	39473.13
538.75	38600.12
538.92	38820.13
539.09	38712.46
539.26	39189.93
539.43	38976.94
539.60	39210.99
539.77	38934.81
539.94	39201.63
540.11	39044.82
540.28	38930.13
540.44	39515.26
540.61	39133.76
540.78	39274.19
540.95	39117.37
541.12	39026.09
541.29	38993.32
541.46	39735.27
541.62	39370.15
541.79	39138.44
541.96	39672.08
542.13	39491.86
542.30	39700.17
542.47	39510.58
542.63	39861.66
542.80	39910.82
542.97	40170.61
543.14	40549.78
543.31	40250.19
543.48	40369.56
543.64	40650.42
543.81	40760.43
543.98	39971.67
544.15	40402.33
544.32	40999.16
544.48	40964.06
544.65	40636.38
544.82	40697.24
544.99	40507.65
545.16	40596.59
545.32	40130.83
545.49	40912.56
545.66	40699.58
545.83	40563.82
546.00	41106.83
546.16	40657.45
546.33	40676.17
546.50	40804.90
546.67	40940.65
546.83	40816.60
547.00	41132.57
547.17	40662.13
547.34	40933.63
547.50	41188.75
547.67	41399.40
547.84	41291.73
548.00	41610.04
548.17	41532.81
548.34	41338.54
548.51	41708.35
548.67	41298.75
548.84	41738.77
549.01	41460.25
549.18	41132.57
549.34	41434.50
549.51	41085.76
549.68	41523.44
549.84	41394.71
550.01	41558.55
550.18	41490.68
550.34	41745.80
550.51	41663.88
550.68	41642.81
550.84	41338.54
551.01	41916.65
551.18	41853.46
551.34	42181.13
551.51	42031.34
551.68	42440.93
551.84	42068.79
552.01	42054.75
552.18	42129.64
552.34	41937.72
552.51	42302.84
552.68	42234.97
552.84	42536.90
553.01	42452.64
553.18	42061.77
553.34	42356.67
553.51	42117.94
553.67	42866.91
553.84	42574.34
554.01	42714.78
554.17	43058.84
554.34	43239.06
554.51	42927.77
554.67	42513.49
554.84	41989.21
555.00	42590.73
555.17	42164.75
555.33	42672.65
555.50	42899.68
555.67	42628.18
555.83	42469.02
556.00	42550.94
556.16	42735.84
556.33	42548.60
556.50	42887.98
556.66	42869.25
556.83	43009.68
556.99	42511.15
557.16	43306.93
557.32	42953.51
557.49	43100.97
557.65	43035.43
557.82	43222.67
557.98	43098.62
558.15	43173.52
558.32	42890.32
558.48	42789.67
558.65	42878.61
558.81	43182.88
558.98	43580.78
559.14	43171.18
559.31	42817.76
559.47	43627.59
559.64	43459.07
559.80	43384.17
559.97	43089.26
560.13	43236.72
560.30	42864.57
560.46	43646.31
560.63	43234.38
560.79	43320.98
560.96	43543.33
561.12	42962.87
561.29	43365.45
561.45	43625.25
561.61	43150.12
561.78	44009.09
561.94	43426.30
562.11	43267.14
562.27	43145.44
562.44	43489.49
562.60	43578.43
562.77	43531.62
562.93	43658.01
563.10	43601.84
563.26	43533.96
563.42	43646.31
563.59	43564.39
563.75	43800.79
563.92	43735.25
564.08	43569.07
564.24	43828.87
564.41	43901.43
564.57	43461.41
564.74	43976.33
564.90	43915.47
565.07	44280.60
565.23	43796.10
565.39	43737.59
565.56	44069.95
565.72	44240.81
565.88	43737.59
566.05	43791.42
566.21	43512.90
566.38	43728.23
566.54	44048.88
566.70	44472.52
566.87	43983.35
567.03	44289.96
567.19	44659.76
567.36	44116.76
567.52	43466.09
567.68	44002.07
567.85	43948.24
568.01	43814.83
568.17	43990.37
568.34	43999.73
568.50	44093.35
568.66	43721.21
568.83	44093.35
568.99	43896.75
569.15	44208.04
569.32	44282.94
569.48	43903.77
569.64	44100.37
569.81	44500.61
569.97	43721.21
570.13	43861.64
570.30	43882.70
570.46	44004.41
570.62	43594.82
570.78	43863.98
570.95	44264.21
571.11	43840.57
571.27	44069.95
571.43	44048.88
571.60	44205.70
571.76	44114.42
571.92	44140.16
572.09	44116.76
572.25	44151.87
572.41	43936.54
572.57	44329.75
572.74	44992.12
572.90	44245.49
573.06	44392.94
573.22	44641.04
573.38	44158.89
573.55	43906.11
573.71	44287.62
573.87	44348.47
574.03	43983.35
574.20	44128.46
574.36	44210.38
574.52	44535.71
574.68	44989.78
574.84	44577.84
575.01	44500.61
575.17	44224.42
575.33	44004.41
575.49	44224.42
575.65	44519.33
575.82	44685.51
575.98	43983.35
576.14	44725.30
576.30	44556.78
576.46	44215.06
576.62	44259.53
576.79	44037.18
576.95	43885.04
577.11	44601.25
577.27	44348.47
577.43	44526.35
577.59	44446.77
577.75	44334.43
577.92	44091.01
578.08	44088.67
578.24	43824.19
578.40	44311.02
578.56	44378.90
578.72	44378.90
578.88	44680.83
579.04	44458.48
579.21	44535.71
579.37	44451.45
579.53	44502.95
579.69	43936.54
579.85	44332.09
580.01	44339.11
580.17	44570.82
580.33	44772.11
580.49	44402.30
580.65	44734.66
580.82	44673.81
580.98	44566.14
581.14	44568.48
581.30	44367.20
581.46	44692.53
581.62	44219.74
581.78	44542.74
581.94	44645.72
582.10	44811.90
582.26	44758.06
582.42	44308.68
582.58	44498.26
582.74	44912.54
582.90	44594.23
583.06	44615.29
583.22	44456.14
583.38	44886.79
583.54	44465.50
583.70	44816.58
583.86	44664.44
584.02	44570.82
584.18	44797.85
584.34	44348.47
584.50	44631.68
584.66	44332.09
584.82	44395.28
584.98	45298.73
585.14	44287.62
585.30	44617.63
585.46	44610.61
585.62	44509.97
585.78	44547.42
585.94	44116.76
586.10	44229.10
586.26	44301.66
586.42	44718.28
586.58	44992.12
586.74	44626.99
586.90	44367.20
587.06	44463.16
587.22	44795.51
587.38	44477.20
587.54	44589.55
587.70	45242.56
587.86	44865.73
588.02	44219.74
588.18	44683.17
588.34	44706.57
588.49	44645.72
588.65	44119.10
588.81	44519.33
588.97	44538.05
589.13	44755.72
589.29	44793.17
589.45	44587.21
589.61	44767.43
589.77	44877.43
589.93	44699.55
590.08	44856.37
590.24	44776.79
