SpectraSuite Data File
++++++++++++++++++++++++++++++++++++
Date: Fri Oct 25 10:43:34 EDT 2013
User: price-jones
Dark Spectrum Present: No
Reference Spectrum Present: No
Number of Sampled Component Spectra: 1
Spectrometers: USB2+H05261
Integration Time (usec): 100000 (USB2+H05261)
Spectra Averaged: 1 (USB2+H05261)
Boxcar Smoothing: 0 (USB2+H05261)
Correct for Electrical Dark: No (USB2+H05261)
Strobe/Lamp Enabled: No (USB2+H05261)
Correct for Detector Non-linearity: No (USB2+H05261)
Correct for Stray Light: No (USB2+H05261)
Number of Pixels in Processed Spectrum: 2048
>>>>>Begin Processed Spectral Data<<<<<
365.73	147.45
365.92	147.45
366.12	147.45
366.32	0.00
366.52	11.70
366.72	65.54
366.91	0.00
367.11	0.00
367.31	0.00
367.51	74.90
367.70	32.77
367.90	30.43
368.10	0.00
368.30	44.47
368.49	23.41
368.69	28.09
368.89	63.19
369.09	0.00
369.28	44.47
369.48	102.98
369.68	11.70
369.87	91.28
370.07	98.30
370.27	142.77
370.47	163.84
370.66	404.91
370.86	360.44
371.06	440.02
371.25	521.94
371.45	428.32
371.65	463.43
371.84	500.87
372.04	472.79
372.24	547.69
372.44	564.07
372.63	517.26
372.83	468.11
373.03	496.19
373.22	533.64
373.42	566.41
373.62	547.69
373.81	552.37
374.01	545.34
374.21	517.26
374.40	566.41
374.60	587.47
374.79	554.71
374.99	622.58
375.19	535.98
375.38	517.26
375.58	653.01
375.78	582.79
375.97	681.10
376.17	624.92
376.37	624.92
376.56	662.37
376.76	589.82
376.95	655.35
377.15	667.05
377.35	617.90
377.54	650.67
377.74	671.73
377.93	613.22
378.13	617.90
378.33	645.99
378.52	690.46
378.72	627.26
378.91	620.24
379.11	627.26
379.31	699.82
379.50	653.01
379.70	734.93
379.89	688.12
380.09	779.40
380.28	655.35
380.48	681.10
380.68	692.80
380.87	746.63
381.07	676.41
381.26	751.31
381.46	746.63
381.65	793.44
381.85	690.46
382.04	662.37
382.24	720.88
382.43	667.05
382.63	741.95
382.83	699.82
383.02	737.27
383.22	720.88
383.41	697.48
383.61	716.20
383.80	800.46
384.00	676.41
384.19	798.12
384.39	807.48
384.58	767.70
384.78	805.14
384.97	929.19
385.17	784.08
385.36	833.23
385.56	781.74
385.75	837.91
385.95	910.47
386.14	847.27
386.34	847.27
386.53	882.38
386.72	875.36
386.92	866.00
387.11	880.04
387.31	854.30
387.50	805.14
387.70	814.51
387.89	929.19
388.09	896.43
388.28	861.32
388.48	947.92
388.67	997.07
388.86	945.58
389.06	940.90
389.25	990.05
389.45	933.87
389.64	990.05
389.84	999.41
390.03	1004.09
390.22	1013.45
390.42	1015.79
390.61	1004.09
390.81	1039.20
391.00	1036.86
391.19	1081.33
391.39	1086.01
391.58	1053.24
391.78	1020.47
391.97	1069.62
392.16	1046.22
392.36	1050.90
392.55	1263.89
392.75	985.37
392.94	994.73
393.13	950.26
393.33	1018.13
393.52	1004.09
393.71	1097.71
393.91	1100.05
394.10	1081.33
394.29	1170.27
394.49	1214.74
394.68	1238.14
394.88	1165.59
395.07	1240.48
395.26	1172.61
395.46	1207.72
395.65	1245.16
395.84	1247.51
396.04	1210.06
396.23	1240.48
396.42	1205.38
396.62	1233.46
396.81	1177.29
397.00	1273.25
397.19	1275.59
397.39	1270.91
397.58	1430.07
397.77	1397.30
397.97	1467.52
398.16	1394.96
398.35	1401.98
398.55	1469.86
398.74	1441.77
398.93	1570.50
399.12	1507.30
399.32	1455.81
399.51	1575.18
399.70	1490.92
399.90	1530.71
400.09	1741.36
400.28	1589.22
400.47	1631.35
400.67	1673.48
400.86	1685.19
401.05	1734.34
401.24	1760.08
401.44	1713.27
401.63	1788.17
401.82	1717.95
402.01	1643.06
402.21	1748.38
402.40	1710.93
402.59	1792.85
402.78	1790.51
402.97	1753.06
403.17	1813.92
403.36	1764.76
403.55	1834.98
403.74	1860.73
403.93	1900.52
404.13	1933.28
404.32	1989.46
404.51	1928.60
404.70	2029.24
404.89	1942.64
405.09	2069.03
405.28	1856.04
405.47	2012.86
405.66	2064.35
405.85	2024.56
406.05	2054.99
406.24	2083.08
406.43	2076.06
406.62	2064.35
406.81	2195.42
407.00	2024.56
407.20	2059.67
407.39	2059.67
407.58	2181.38
407.77	2303.09
407.96	2200.10
408.15	2265.64
408.34	2291.38
408.54	2345.22
408.73	2347.56
408.92	2380.32
409.11	2417.77
409.30	2377.98
409.49	2310.11
409.68	2267.98
409.87	2267.98
410.07	2354.58
410.26	2490.33
410.45	2452.88
410.64	2443.52
410.83	2605.02
411.02	2487.99
411.21	2761.83
411.40	2616.72
411.59	2705.66
411.78	2553.52
411.98	2689.28
412.17	2689.28
412.36	2684.59
412.55	2689.28
412.74	2785.24
412.93	2717.36
413.12	2745.45
413.31	2913.97
413.50	2967.80
413.69	2928.01
413.88	2946.73
414.07	2967.80
414.26	2913.97
414.45	2857.79
414.64	2958.44
414.83	3112.91
415.02	3021.63
415.22	3173.77
415.41	3290.79
415.60	3185.47
415.79	3243.98
415.98	3323.56
416.17	3372.71
416.36	3229.94
416.55	3229.94
416.74	3232.28
416.93	3225.26
417.12	3281.43
417.31	3529.53
417.50	3361.01
417.69	3588.04
417.88	3574.00
418.07	3543.57
418.26	3489.74
418.45	3592.72
418.64	3515.48
418.83	3630.17
419.02	3623.15
419.21	3674.64
419.39	3611.45
419.58	3646.55
419.77	3625.49
419.96	3714.43
420.15	3815.07
420.34	3714.43
420.53	3861.88
420.72	3768.26
420.91	3880.61
421.10	3878.27
421.29	3939.12
421.48	3915.72
421.67	3843.16
421.86	3822.09
422.05	3789.33
422.24	3833.80
422.43	3838.48
422.61	3882.95
422.80	3974.23
422.99	4133.39
423.18	4107.64
423.37	4044.45
423.56	4081.89
423.75	4109.98
423.94	3943.80
424.13	3735.50
424.32	3892.31
424.50	4018.70
424.69	4014.02
424.88	4191.90
425.07	3913.38
425.26	3925.08
425.45	3983.59
425.64	4070.19
425.83	4025.72
426.01	4032.74
426.20	4058.49
426.39	4067.85
426.58	4065.51
426.77	4060.83
426.96	4074.87
427.15	3911.04
427.33	4044.45
427.52	4166.15
427.71	4318.29
427.90	4180.20
428.09	4292.54
428.28	4234.03
428.46	4257.43
428.65	4304.25
428.84	4273.82
429.03	4337.01
429.22	4311.27
429.40	4163.81
429.59	4187.22
429.78	3922.74
429.97	4007.00
430.16	3967.21
430.34	4180.20
430.53	4266.80
430.72	4322.97
430.91	4203.60
431.10	4299.56
431.28	4631.92
431.47	4734.90
431.66	4671.71
431.85	4620.22
432.03	4819.16
432.22	4737.24
432.41	4737.24
432.60	4910.44
432.79	4788.74
432.97	4891.72
433.16	4851.93
433.35	4699.80
433.54	4805.12
433.72	4894.06
433.91	4730.22
434.10	4699.80
434.28	4844.91
434.47	4758.31
434.66	4968.96
434.85	4868.31
435.03	4959.60
435.22	5085.98
435.41	5291.95
435.59	5254.50
435.78	5256.84
435.97	5305.99
436.16	5219.39
436.34	5308.34
436.53	5364.51
436.72	5380.89
436.90	5078.96
437.09	5043.85
437.28	5291.95
437.46	5184.29
437.65	5184.29
437.84	5226.42
438.02	5259.18
438.21	5362.17
438.40	5378.55
438.58	5481.53
438.77	5554.09
438.96	5540.05
439.14	5687.50
439.33	5645.37
439.52	5776.44
439.70	5797.51
439.89	5781.12
440.08	5767.08
440.26	5762.40
440.45	5783.46
440.63	6057.31
440.82	6054.97
441.01	6253.91
441.19	6024.54
441.38	6293.70
441.57	6160.29
441.75	6193.06
441.94	6366.26
442.12	6452.86
442.31	6523.07
442.50	6434.13
442.68	6232.85
442.87	6307.74
443.05	6509.03
443.24	6544.14
443.43	6431.79
443.61	6513.71
443.80	6815.64
443.98	6502.01
444.17	6104.12
444.35	6569.88
444.54	6689.25
444.73	6677.55
444.91	6473.92
445.10	6771.17
445.28	6534.78
445.47	6539.46
445.65	6548.82
445.84	6607.33
446.02	6717.34
446.21	6551.16
446.39	6642.44
446.58	6705.63
446.77	6979.48
446.95	6665.85
447.14	6902.24
447.32	6871.81
447.51	6719.68
447.69	6719.68
447.88	6733.72
448.06	6679.89
448.25	6885.86
448.43	6846.07
448.62	6801.60
448.80	6757.13
448.99	6932.67
449.17	6918.62
449.36	6963.09
449.54	7054.37
449.73	7351.62
449.91	7164.38
450.10	7365.67
450.28	7164.38
450.46	7538.87
450.65	7377.37
450.83	7265.02
451.02	7414.82
451.20	7449.93
451.39	7431.20
451.57	7414.82
451.76	7314.17
451.94	7311.83
452.13	7379.71
452.31	7396.09
452.49	7225.23
452.68	7318.86
452.86	7410.14
453.05	7325.88
453.23	7478.01
453.42	7543.55
453.60	7428.86
453.78	7695.68
453.97	7365.67
454.15	7475.67
454.34	7770.58
454.52	7709.72
454.70	7485.03
454.89	7454.61
455.07	7698.02
455.26	7709.72
455.44	7941.44
455.62	7850.16
455.81	7985.91
455.99	7885.26
456.17	7695.68
456.36	8023.36
456.54	8088.89
456.73	8105.28
456.91	8037.40
457.09	8351.03
457.28	8299.54
457.46	8119.32
457.64	8329.97
457.83	8231.66
458.01	8248.05
458.19	8381.46
458.38	8362.73
458.56	8320.60
458.74	8276.13
458.93	8311.24
459.11	8400.18
459.29	8542.96
459.48	8528.91
459.66	8444.65
459.84	8468.06
460.03	8636.58
460.21	8430.61
460.39	8629.56
460.57	8578.06
460.76	8732.54
460.94	8952.55
461.12	8718.50
461.31	8636.58
461.49	8741.90
461.67	8837.86
461.85	8982.98
462.04	8613.17
462.22	9195.96
462.40	9109.36
462.59	9179.58
462.77	8849.57
462.95	9235.75
463.13	9001.70
463.32	8971.27
463.50	9170.22
463.68	9195.96
463.86	9149.15
464.05	9050.85
464.23	9092.98
464.41	9207.67
464.59	9090.64
464.78	9479.17
464.96	9277.88
465.14	9111.71
465.32	9413.63
465.50	9219.37
465.69	9448.74
465.87	9331.72
466.05	9488.53
466.23	9228.73
466.41	9228.73
466.60	9518.96
466.78	9362.14
466.96	9364.48
467.14	9537.68
467.32	9533.00
467.51	9570.45
467.69	9139.79
467.87	9706.20
468.05	9678.12
468.23	9355.12
468.41	9535.34
468.60	9554.07
468.78	9696.84
468.96	9610.24
469.14	9877.06
469.32	9958.98
469.50	9795.14
469.69	9844.29
469.87	10242.18
470.05	9895.78
470.23	10019.83
470.41	9867.70
470.59	10003.45
470.77	9977.70
470.95	10157.92
471.14	10164.95
471.32	10125.16
471.50	10576.88
471.68	10579.22
471.86	10553.48
472.04	10698.59
472.22	10738.38
472.40	10375.59
472.58	10560.50
472.77	10471.56
472.95	10626.03
473.13	10918.60
473.31	10537.09
473.49	10719.65
473.67	10888.17
473.85	11005.20
474.03	11208.83
474.21	11126.91
474.39	11279.04
474.57	11279.04
474.75	11410.11
474.93	11431.18
475.12	11316.49
475.30	11686.29
475.48	11253.30
475.66	11658.21
475.84	11419.47
476.02	11482.67
476.20	11157.33
476.38	11705.02
476.56	12037.38
476.74	12138.02
476.92	11922.69
477.10	12133.34
477.28	12315.90
477.46	12173.13
477.64	12351.01
477.82	12587.40
478.00	12959.55
478.18	12695.07
478.36	12709.11
478.54	13034.44
478.72	12856.56
478.90	13167.85
479.08	13142.11
479.26	13235.73
479.44	13277.86
479.62	13242.75
479.80	13495.53
479.98	13556.38
480.16	13666.39
480.34	13804.48
480.52	14143.86
480.70	13956.61
480.88	13919.17
481.06	14097.05
481.24	14115.77
481.41	14321.74
481.59	14530.05
481.77	14640.05
481.95	14621.33
482.13	14855.38
482.31	14424.72
482.49	15037.94
482.67	15131.56
482.85	15108.16
483.03	15421.79
483.21	15407.75
483.39	15611.37
483.57	15660.52
483.74	15417.11
483.92	15803.30
484.10	15796.28
484.28	15800.96
484.46	16414.18
484.64	16814.41
484.82	16145.02
485.00	16180.12
485.18	16503.12
485.35	16503.12
485.53	16451.63
485.71	16114.59
485.89	16601.42
486.07	16531.20
486.25	16608.44
486.43	17041.44
486.61	17057.82
486.78	17247.41
486.96	17460.40
487.14	17942.55
487.32	17776.37
487.50	18162.56
487.68	18352.14
487.85	18487.89
488.03	18478.53
488.21	19002.81
488.39	18654.07
488.57	18773.44
488.75	18743.01
488.92	18998.13
489.10	19573.90
489.28	19702.63
489.46	19709.65
489.64	19772.85
489.81	20233.93
489.99	20582.67
490.17	20395.43
490.35	20566.29
490.53	20512.46
490.70	20453.94
490.88	20861.19
491.06	21174.83
491.24	21167.80
491.41	20739.49
491.59	20952.48
491.77	20975.88
491.95	21195.89
492.13	21495.48
492.30	21876.99
492.48	21949.54
492.66	21923.80
492.84	22106.36
493.01	22436.38
493.19	22300.62
493.37	22490.21
493.54	22757.03
493.72	22841.29
493.90	22728.94
494.08	22771.07
494.25	23215.77
494.43	23349.18
494.61	23295.35
494.79	23812.61
494.96	23683.88
495.14	23435.78
495.32	23850.06
495.49	24032.62
495.67	23976.45
495.85	24446.90
496.02	24643.50
496.20	24482.00
496.38	24641.16
496.55	24694.99
496.73	25209.91
496.91	25062.46
497.09	25242.68
497.26	25223.95
497.44	25638.23
497.62	25553.97
497.79	25773.98
497.97	25645.25
498.14	25462.69
498.32	25778.66
498.50	26239.75
498.67	26342.73
498.85	26405.92
499.03	26408.26
499.20	26448.05
499.38	26588.49
499.56	26522.95
499.73	26740.62
499.91	26948.93
500.08	27082.34
500.26	26602.53
500.44	26911.48
500.61	27075.32
500.79	26508.91
500.97	27161.92
501.14	27356.18
501.32	27206.39
501.49	27126.81
501.67	27143.19
501.84	27501.29
502.02	28191.75
502.20	28212.82
502.37	28231.54
502.55	27929.61
502.72	28166.01
502.90	28542.83
503.07	28243.24
503.25	28512.41
503.43	28374.31
503.60	28383.68
503.78	28219.84
503.95	28388.36
504.13	28655.18
504.30	28954.77
504.48	28849.44
504.65	29282.44
504.83	29184.14
505.01	29062.43
505.18	29289.46
505.36	29551.60
505.53	29326.91
505.71	30316.96
505.88	30160.14
506.06	29565.65
506.23	29848.85
506.41	29811.40
506.58	29865.24
506.76	30132.06
506.93	30375.47
507.11	30321.64
507.28	30293.55
507.46	30263.13
507.63	30211.64
507.81	30771.02
507.98	30408.24
508.16	30600.16
508.33	30731.23
508.50	30902.09
508.68	31133.81
508.85	31395.95
509.03	31377.22
509.20	31321.05
509.38	31620.64
509.55	31758.73
509.73	31615.96
509.90	31786.82
510.08	31714.26
510.25	31597.23
510.42	31859.37
510.60	31908.52
510.77	31913.20
510.95	32163.64
511.12	32067.68
511.30	32325.14
511.47	32292.37
511.64	32737.07
511.82	32811.97
511.99	32292.37
512.17	32596.64
512.34	32409.40
512.51	33088.15
512.69	32818.99
512.86	32547.49
513.04	32950.06
513.21	32664.52
513.38	32849.42
513.56	32910.27
513.73	33034.32
513.90	33448.60
514.08	33151.35
514.25	33603.07
514.43	33266.03
514.60	33783.29
514.77	33432.21
514.95	33792.65
515.12	33832.44
515.29	34000.96
515.47	34164.80
515.64	34625.89
515.81	34195.23
515.99	34206.93
516.16	33736.48
516.33	33567.96
516.51	34064.16
516.68	33516.47
516.85	33137.30
517.03	33778.61
517.20	34251.40
517.37	34483.11
517.54	34981.65
517.72	34333.32
517.89	34518.22
518.06	34015.01
518.24	34464.39
518.41	34410.56
518.58	34511.20
518.75	34745.25
518.93	35082.29
519.10	34962.92
519.27	35379.54
519.45	35239.11
519.62	35409.96
519.79	35962.33
519.96	35503.59
520.14	35646.36
520.31	35395.92
520.48	35297.62
520.65	35751.68
520.83	36196.38
521.00	36112.13
521.17	36172.98
521.34	36409.37
521.52	36613.00
521.69	36430.44
521.86	36301.71
522.03	36783.86
522.20	36304.05
522.38	36875.14
522.55	37074.09
522.72	37170.05
522.89	36723.01
523.07	36687.90
523.24	36744.07
523.41	37216.86
523.58	36851.73
523.75	37713.05
523.92	36851.73
524.10	37645.18
524.27	37589.00
524.44	37214.52
524.61	37453.25
524.78	37944.76
524.96	37425.17
525.13	37598.37
525.30	37729.44
525.47	38075.84
525.64	37825.40
525.81	38014.98
525.98	38096.90
526.16	37530.49
526.33	37563.26
526.50	37460.27
526.67	37493.04
526.84	37626.45
527.01	37570.28
527.18	37771.57
527.36	38249.03
527.53	38218.61
527.70	38628.20
527.87	38614.16
528.04	38548.62
528.21	39019.07
528.38	38986.30
528.55	39115.03
528.72	38602.46
528.89	39442.71
529.07	39030.77
529.24	39299.94
529.41	39103.33
529.58	38831.83
529.75	39037.80
529.92	39150.14
530.09	39278.87
530.26	39384.19
530.43	39716.55
530.60	39328.02
530.77	39959.97
530.94	39643.99
531.11	39419.30
531.28	39690.80
531.46	39730.59
531.63	39922.52
531.80	39777.40
531.97	39868.69
532.14	39688.46
532.31	39730.59
532.48	39756.34
532.65	39536.33
532.82	39814.85
532.99	39639.31
533.16	39866.34
533.33	39922.52
533.50	40460.84
533.67	40187.00
533.84	40615.32
534.01	40332.11
534.18	40037.20
534.35	40699.58
534.52	40318.07
534.69	40451.48
534.86	41067.04
535.03	40582.55
535.20	41017.89
535.37	40919.59
535.54	41689.62
535.71	40790.86
535.88	40914.90
536.05	41085.76
536.22	40891.50
536.38	41354.93
536.55	41380.67
536.72	40903.20
536.89	40531.06
537.06	41123.21
537.23	41076.40
537.40	40947.67
537.57	41469.61
537.74	41310.46
537.91	42401.14
538.08	41443.87
538.25	41174.70
538.42	41511.74
538.59	41736.43
538.75	41703.67
538.92	41551.53
539.09	42014.96
539.26	41883.89
539.43	41813.67
539.60	41619.41
539.77	41755.16
539.94	41443.87
540.11	41422.80
540.28	41750.48
540.44	41343.22
540.61	41839.42
540.78	41507.06
540.95	42064.11
541.12	41467.27
541.29	41668.56
541.46	42415.19
541.62	42394.12
541.79	42260.71
541.96	41792.61
542.13	41853.46
542.30	41998.57
542.47	42532.22
542.63	42094.53
542.80	42820.10
542.97	42794.36
543.14	42960.53
543.31	42724.14
543.48	42768.61
543.64	43157.14
543.81	43105.65
543.98	43201.61
544.15	43246.08
544.32	43138.41
544.48	43117.35
544.65	43452.05
544.82	43384.17
544.99	43026.07
545.16	42808.40
545.32	42878.61
545.49	43669.72
545.66	43821.85
545.83	43442.68
546.00	43592.48
546.16	43468.43
546.33	43510.56
546.50	43157.14
546.67	43473.11
546.83	42988.62
547.00	43250.76
547.17	43129.05
547.34	43562.05
547.50	43688.44
547.67	43772.70
547.84	43606.52
548.00	43777.38
548.17	43739.93
548.34	43936.54
548.51	44479.54
548.67	44201.02
548.84	44121.44
549.01	43863.98
549.18	44053.56
549.34	43751.63
549.51	44126.12
549.68	44376.56
549.84	44378.90
550.01	43995.05
550.18	43578.43
550.34	44215.06
550.51	44301.66
550.68	44355.49
550.84	43578.43
551.01	44650.40
551.18	43620.56
551.34	44257.19
551.51	44266.55
551.68	44790.83
551.84	44839.98
552.01	44296.98
552.18	44320.38
552.34	43863.98
552.51	44601.25
552.68	44381.24
552.84	44825.94
553.01	44463.16
553.18	44259.53
553.34	44509.97
553.51	44516.99
553.67	44781.47
553.84	44854.03
554.01	45024.89
554.17	45371.28
554.34	44877.43
554.51	44744.02
554.67	45205.11
554.84	44786.15
555.00	44327.41
555.17	44868.07
555.33	45052.97
555.50	44945.31
555.67	45495.33
555.83	44889.13
556.00	44982.76
556.16	45022.54
556.33	45155.96
556.50	44746.36
556.66	45184.04
556.83	44425.71
556.99	44957.01
557.16	45195.74
557.32	45359.58
557.49	45432.14
557.65	44849.35
557.82	45137.23
557.98	45263.62
558.15	45195.74
558.32	45565.55
558.48	45090.42
558.65	44928.92
558.81	45104.46
558.98	45174.68
559.14	45401.71
559.31	45116.17
559.47	45324.47
559.64	45546.82
559.80	45207.45
559.97	45565.55
560.13	45237.87
560.30	45556.19
560.46	45265.96
560.63	45956.42
560.79	45755.13
560.96	45507.04
561.12	45600.66
561.29	45319.79
561.45	45890.88
561.61	45631.08
561.78	45492.99
561.94	45301.07
562.11	46031.32
562.27	45055.31
562.44	45305.75
562.60	45689.60
562.77	45771.52
562.93	45642.79
563.10	46089.83
563.26	45544.48
563.42	45935.35
563.59	45844.07
563.75	45382.99
563.92	45502.35
564.08	45642.79
564.24	46061.74
564.41	45752.79
564.57	46082.81
564.74	45593.64
564.90	45703.64
565.07	45649.81
565.23	46218.56
565.39	45598.32
565.56	45567.89
565.72	45546.82
565.88	45663.85
566.05	45818.33
566.21	45879.18
566.38	46064.08
566.54	45387.67
566.70	46087.49
566.87	45879.18
567.03	46054.72
567.19	46256.01
567.36	46202.18
567.52	45794.92
567.68	45989.19
567.85	45972.80
568.01	45942.38
568.17	45872.16
568.34	46052.38
568.50	45827.69
568.66	45654.49
568.83	46202.18
568.99	45729.39
569.15	45895.56
569.32	45933.01
569.48	45942.38
569.64	46330.90
569.81	46113.23
569.97	46019.61
570.13	46337.93
570.30	45907.27
570.46	45750.45
570.62	45808.96
570.78	45652.15
570.95	45801.94
571.11	45874.50
571.27	45670.87
571.43	46452.61
571.60	45907.27
571.76	45869.82
571.92	45886.20
572.09	46518.15
572.25	46466.66
572.41	46157.70
572.57	46307.50
572.74	46735.82
572.90	46068.76
573.06	46052.38
573.22	46202.18
573.38	45951.74
573.55	46300.48
573.71	46698.37
573.87	46735.82
574.03	46445.59
574.20	46363.67
574.36	45993.87
574.52	46234.94
574.68	46312.18
574.84	46445.59
575.01	45989.19
575.17	46213.88
575.33	46019.61
575.49	46153.02
575.65	46115.58
575.82	46000.89
575.98	46185.79
576.14	46539.21
576.30	46223.24
576.46	46415.16
576.62	46124.94
576.79	45799.60
576.95	45928.33
577.11	46106.21
577.27	45972.80
577.43	46246.65
577.59	45769.18
577.75	46106.21
577.92	45713.00
578.08	46085.15
578.24	45361.92
578.40	46007.91
578.56	46138.98
578.72	46637.51
578.88	46227.92
579.04	46457.29
579.21	45911.95
579.37	46279.41
579.53	46206.86
579.69	45940.04
579.85	46038.34
580.01	46564.96
580.17	46323.88
580.33	46307.50
580.49	46380.06
580.65	46354.31
580.82	46373.03
580.98	46457.29
581.14	45975.14
581.30	46199.83
581.46	46419.84
581.62	46653.90
581.78	45687.26
581.94	46876.25
582.10	46532.19
582.26	46536.87
582.42	46356.65
582.58	46248.99
582.74	46396.44
582.90	46740.50
583.06	46244.30
583.22	46478.36
583.38	46380.06
583.54	46604.75
583.70	46328.56
583.86	46373.03
584.02	46522.83
584.18	46351.97
584.34	46314.52
584.50	45963.44
584.66	46092.17
584.82	46726.46
584.98	46248.99
585.14	46618.79
585.30	46330.90
585.46	46618.79
585.62	46220.90
585.78	45954.08
585.94	46043.02
586.10	46323.88
586.26	45689.60
586.42	46880.93
586.58	46494.74
586.74	46291.12
586.90	46160.05
587.06	46398.78
587.22	46494.74
587.38	46429.21
587.54	46057.06
587.70	46579.00
587.86	46131.96
588.02	46197.49
588.18	46616.45
588.34	46012.59
588.49	45827.69
588.65	45546.82
588.81	45897.91
588.97	45940.04
589.13	45684.92
589.29	45942.38
589.45	46036.00
589.61	46185.79
589.77	46443.25
589.93	46499.42
