SpectraSuite Data File
++++++++++++++++++++++++++++++++++++
Date: Fri Oct 25 11:23:53 EDT 2013
User: price-jones
Dark Spectrum Present: No
Reference Spectrum Present: No
Number of Sampled Component Spectra: 1
Spectrometers: USB2+H05261
Integration Time (usec): 100000 (USB2+H05261)
Spectra Averaged: 1 (USB2+H05261)
Boxcar Smoothing: 0 (USB2+H05261)
Correct for Electrical Dark: No (USB2+H05261)
Strobe/Lamp Enabled: No (USB2+H05261)
Correct for Detector Non-linearity: No (USB2+H05261)
Correct for Stray Light: No (USB2+H05261)
Number of Pixels in Processed Spectrum: 2048
>>>>>Begin Processed Spectral Data<<<<<
365.73	156.82
365.92	156.82
366.12	156.82
366.32	161.50
366.52	100.64
366.72	159.16
366.91	117.03
367.11	102.98
367.31	126.39
367.51	163.84
367.70	180.22
367.90	100.64
368.10	154.48
368.30	93.62
368.49	124.05
368.69	180.22
368.89	124.05
369.09	166.18
369.28	70.22
369.48	182.56
369.68	196.60
369.87	201.29
370.07	142.77
370.27	248.10
370.47	322.99
370.66	568.75
370.86	638.97
371.06	575.77
371.25	667.05
371.45	653.01
371.65	627.26
371.84	627.26
372.04	723.23
372.24	622.58
372.44	727.91
372.63	688.12
372.83	676.41
373.03	751.31
373.22	779.40
373.42	763.01
373.62	758.33
373.81	755.99
374.01	851.96
374.21	798.12
374.40	765.36
374.60	868.34
374.79	784.08
374.99	779.40
375.19	837.91
375.38	814.51
375.58	779.40
375.78	908.13
375.97	854.30
376.17	863.66
376.37	828.55
376.56	959.62
376.76	863.66
376.95	884.72
377.15	950.26
377.35	835.57
377.54	933.87
377.74	919.83
377.93	884.72
378.13	896.43
378.33	954.94
378.52	973.66
378.72	943.24
378.91	936.21
379.11	887.06
379.31	976.00
379.50	837.91
379.70	980.68
379.89	1057.92
380.09	994.73
380.28	961.96
380.48	971.32
380.68	959.62
380.87	997.07
381.07	1015.79
381.26	1083.67
381.46	1043.88
381.65	983.02
381.85	1039.20
382.04	1048.56
382.24	1048.56
382.43	1036.86
382.63	992.39
382.83	1071.97
383.02	1036.86
383.22	1081.33
383.41	1139.84
383.61	1135.16
383.80	1097.71
384.00	1109.41
384.19	1116.44
384.39	1128.14
384.58	1165.59
384.78	1249.85
384.97	1158.57
385.17	1163.25
385.36	1198.35
385.56	1228.78
385.75	1235.80
385.95	1153.88
386.14	1191.33
386.34	1160.91
386.53	1273.25
386.72	1132.82
386.92	1217.08
387.11	1167.93
387.31	1217.08
387.50	1228.78
387.70	1240.48
387.89	1233.46
388.09	1268.57
388.28	1291.98
388.48	1313.04
388.67	1345.81
388.86	1247.51
389.06	1259.21
389.25	1310.70
389.45	1313.04
389.64	1315.38
389.84	1451.13
390.03	1373.89
390.22	1313.04
390.42	1460.49
390.61	1465.18
390.81	1364.53
391.00	1425.39
391.19	1369.21
391.39	1385.60
391.58	1399.64
391.78	1362.19
391.97	1500.28
392.16	1497.94
392.36	1598.59
392.55	1596.25
392.75	1516.67
392.94	1579.86
393.13	1432.41
393.33	1511.99
393.52	1547.09
393.71	1556.46
393.91	1530.71
394.10	1542.41
394.29	1533.05
394.49	1689.87
394.68	1593.90
394.88	1636.03
395.07	1575.18
395.26	1657.10
395.46	1640.72
395.65	1671.14
395.84	1746.04
396.04	1825.62
396.23	1720.29
396.42	1692.21
396.62	1680.50
396.81	1802.21
397.00	1703.91
397.19	1858.39
397.39	1802.21
397.58	1832.64
397.77	1844.34
397.97	1905.20
398.16	1940.30
398.35	1870.09
398.55	1926.26
398.74	2005.84
398.93	1944.99
399.12	1933.28
399.32	1977.75
399.51	1966.05
399.70	1973.07
399.90	2003.50
400.09	1966.05
400.28	2092.44
400.47	2008.18
400.67	2157.97
400.86	2017.54
401.05	2066.69
401.24	2113.50
401.44	2073.71
401.63	2078.40
401.82	2136.91
402.01	2113.50
402.21	2062.01
402.40	2111.16
402.59	2047.97
402.78	2160.31
402.97	2181.38
403.17	2232.87
403.36	2385.01
403.55	2310.11
403.74	2253.94
403.93	2342.88
404.13	2319.47
404.32	2335.85
404.51	2242.23
404.70	2431.82
404.89	2366.28
405.09	2408.41
405.28	2387.35
405.47	2459.90
405.66	2569.91
405.85	2487.99
406.05	2516.08
406.24	2593.31
406.43	2576.93
406.62	2635.44
406.81	2693.96
407.00	2490.33
407.20	2612.04
407.39	2609.70
407.58	2635.44
407.77	2719.70
407.96	2829.71
408.15	2902.26
408.34	2789.92
408.54	2644.81
408.73	2752.47
408.92	2722.04
409.11	2715.02
409.30	2874.18
409.49	2953.76
409.68	2869.50
409.87	2965.46
410.07	3045.04
410.26	2942.05
410.45	2981.84
410.64	3038.02
410.83	3176.11
411.02	3070.78
411.21	3194.83
411.40	3028.65
411.59	3276.75
411.78	3169.09
411.98	3246.32
412.17	3201.85
412.36	3262.71
412.55	3386.76
412.74	3445.27
412.93	3356.33
413.12	3300.16
413.31	3503.78
413.50	3269.73
413.69	3398.46
413.88	3534.21
414.07	3569.32
414.26	3541.23
414.45	3669.96
414.64	3693.37
414.83	3829.12
415.02	3726.13
415.22	3641.87
415.41	3950.82
415.60	3784.65
415.79	3946.14
415.98	4007.00
416.17	3946.14
416.36	3988.27
416.55	3934.44
416.74	4353.40
416.93	4002.32
417.12	4081.89
417.31	4173.18
417.50	4170.83
417.69	4388.50
417.88	4290.20
418.07	4205.94
418.26	4159.13
418.45	4269.14
418.64	4393.19
418.83	4362.76
419.02	4379.14
419.21	4561.70
419.39	4533.62
419.58	4535.96
419.77	4449.36
419.96	4615.54
420.15	4702.14
420.34	4615.54
420.53	4755.97
420.72	4652.98
420.91	4774.69
421.10	4748.95
421.29	4823.84
421.48	4676.39
421.67	4870.65
421.86	4858.95
422.05	4809.80
422.24	4765.33
422.43	4798.10
422.61	5074.28
422.80	5004.07
422.99	5020.45
423.18	4880.02
423.37	5053.22
423.56	4887.04
423.75	4826.18
423.94	4816.82
424.13	4678.73
424.32	4786.40
424.50	5048.54
424.69	5188.97
424.88	4954.91
425.07	4985.34
425.26	4917.47
425.45	5041.51
425.64	4889.38
425.83	4851.93
426.01	5060.24
426.20	5029.81
426.39	5184.29
426.58	5088.32
426.77	5076.62
426.96	5139.82
427.15	5020.45
427.33	5200.67
427.52	5041.51
427.71	5188.97
427.90	5359.83
428.09	5228.76
428.28	5364.51
428.46	5427.70
428.65	5427.70
428.84	5577.50
429.03	5521.32
429.22	5455.79
429.40	5448.77
429.59	5488.56
429.78	5423.02
429.97	5221.74
430.16	5540.05
430.34	5757.72
430.53	5760.06
430.72	5816.23
430.91	5767.08
431.10	5692.18
431.28	5741.33
431.47	5722.61
431.66	5886.45
431.85	5928.58
432.03	5886.45
432.22	5942.62
432.41	5930.92
432.60	5951.98
432.79	5963.68
432.97	6047.94
433.16	5856.02
433.35	6031.56
433.54	6207.10
433.72	6218.80
433.91	6076.03
434.10	6296.04
434.28	6066.67
434.47	6164.97
434.66	6256.25
434.85	6420.09
435.03	6375.62
435.22	6272.64
435.41	6424.77
435.59	6434.13
435.78	6476.26
435.97	6469.24
436.16	6392.00
436.34	6305.40
436.53	6595.63
436.72	6677.55
436.90	6513.71
437.09	6715.00
437.28	6511.37
437.46	6530.09
437.65	6668.19
437.84	6869.47
438.02	6700.95
438.21	6712.66
438.40	6555.84
438.58	6995.86
438.77	6998.20
438.96	7033.31
439.14	7110.55
439.33	7190.13
439.52	7012.24
439.70	7213.53
439.89	7180.76
440.08	7314.17
440.26	7353.96
440.45	7475.67
440.63	7531.84
440.82	7747.17
441.01	7548.23
441.19	7812.71
441.38	7688.66
441.57	7676.96
441.75	7786.96
441.94	7960.16
442.12	7824.41
442.31	7925.05
442.50	8217.62
442.68	8002.29
442.87	7950.80
443.05	8311.24
443.24	8102.93
443.43	8081.87
443.61	8285.50
443.80	8439.97
443.98	7913.35
444.17	7698.02
444.35	8105.28
444.54	8526.57
444.73	8461.04
444.91	8294.86
445.10	8421.25
445.28	8276.13
445.47	8149.75
445.65	8308.90
445.84	8446.99
446.02	8645.94
446.21	8428.27
446.39	8500.83
446.58	8585.08
446.77	8514.87
446.95	8163.79
447.14	8336.99
447.32	8542.96
447.51	8606.15
447.69	8540.61
447.88	8414.23
448.06	8723.18
448.25	8414.23
448.43	8549.98
448.62	8606.15
448.80	8706.79
448.99	8594.45
449.17	8643.60
449.36	8690.41
449.54	8922.12
449.73	8905.74
449.91	8784.03
450.10	8856.59
450.28	9064.89
450.46	9123.41
450.65	9064.89
450.83	9076.60
451.02	9029.79
451.20	9128.09
451.39	9233.41
451.57	9270.86
451.76	8997.02
451.94	9013.40
452.13	9383.21
452.31	9315.33
452.49	9228.73
452.68	9303.63
452.86	9371.50
453.05	9383.21
453.23	9621.94
453.42	9308.31
453.60	9465.13
453.78	9430.02
453.97	9467.47
454.15	9605.56
454.34	9530.66
454.52	9664.07
454.70	9937.91
454.89	9738.97
455.07	9713.22
455.26	9958.98
455.44	9928.55
455.62	9804.50
455.81	9907.49
455.99	10038.56
456.17	10052.60
456.36	10059.62
456.54	10162.61
456.73	10401.34
456.91	10408.36
457.09	10342.83
457.28	10640.08
457.46	10209.42
457.64	10747.74
457.83	10354.53
458.01	10394.32
458.19	10700.93
458.38	10726.68
458.56	10595.61
458.74	10616.67
458.93	10595.61
459.11	10757.10
459.29	10927.96
459.48	10965.41
459.66	10836.68
459.84	10665.82
460.03	10857.75
460.21	11089.46
460.39	10899.87
460.57	11138.61
460.76	11108.18
460.94	11269.68
461.12	11222.87
461.31	11164.36
461.49	11126.91
461.67	11321.17
461.85	11435.86
462.04	11239.25
462.22	11510.75
462.40	11646.51
462.59	11700.34
462.77	11506.07
462.95	11758.85
463.13	11672.25
463.32	11618.42
463.50	11854.81
463.68	11833.75
463.86	11885.24
464.05	11496.71
464.23	11726.08
464.41	11976.52
464.59	11824.39
464.78	12255.04
464.96	11943.75
465.14	11943.75
465.32	12098.23
465.50	12030.35
465.69	12133.34
465.87	12208.23
466.05	11955.46
466.23	12311.22
466.41	12231.64
466.60	12545.27
466.78	12145.04
466.96	12259.73
467.14	12032.69
467.32	12322.92
467.51	12556.97
467.69	12072.48
467.87	12383.77
468.05	12596.76
468.23	12360.37
468.41	12519.53
468.60	12592.08
468.78	12772.30
468.96	12585.06
469.14	12964.23
469.32	13149.13
469.50	12606.13
469.69	12964.23
469.87	12980.61
470.05	13151.47
470.23	13170.19
470.41	13336.37
470.59	13448.72
470.77	13298.92
470.95	13207.64
471.14	13603.19
471.32	13584.47
471.50	13558.72
471.68	13448.72
471.86	13785.76
472.04	13874.70
472.22	14200.03
472.40	13879.38
472.58	13998.74
472.77	13820.86
472.95	14162.58
473.13	14705.59
473.31	14118.11
473.49	14057.26
473.67	14420.04
473.85	14162.58
474.03	14813.25
474.21	14534.73
474.39	14855.38
474.57	14640.05
474.75	14785.16
474.93	15185.40
475.12	14867.08
475.30	15232.21
475.48	15131.56
475.66	15243.91
475.84	15030.92
476.02	15190.08
476.20	15246.25
476.38	15637.12
476.56	16217.57
476.74	15990.54
476.92	15826.70
477.10	15798.62
477.28	16189.49
477.46	16135.65
477.64	16194.17
477.82	16704.40
478.00	16978.25
478.18	16915.05
478.36	17104.64
478.54	17277.83
478.72	17088.25
478.90	17336.35
479.08	17411.25
479.26	17518.91
479.44	17996.38
479.62	17991.70
479.80	18085.32
479.98	18324.05
480.16	18789.82
480.34	18354.48
480.52	18792.16
480.70	18813.23
480.88	18155.54
481.06	18843.65
481.24	18822.59
481.41	19030.90
481.59	19632.41
481.77	19714.33
481.95	19651.14
482.13	19843.06
482.31	19599.65
482.49	20360.32
482.67	20086.48
482.85	20262.02
483.03	20592.03
483.21	20854.17
483.39	20950.14
483.57	21156.10
483.74	21043.76
483.92	20994.61
484.10	21436.97
484.28	21682.72
484.46	21666.34
484.64	22209.34
484.82	21970.61
485.00	22178.92
485.18	22738.30
485.35	23051.94
485.53	22958.31
485.71	23201.73
485.89	23527.06
486.07	23475.57
486.25	23674.52
486.43	23714.31
486.61	23861.76
486.78	24173.05
486.96	24226.89
487.14	24580.31
487.32	24797.98
487.50	24994.58
487.68	25275.45
487.85	25453.33
488.03	25539.93
488.21	25954.20
488.39	25860.58
488.57	26242.09
488.75	26256.13
488.92	26529.97
489.10	26672.74
489.28	26654.02
489.46	27381.93
489.64	26867.01
489.81	27796.20
489.99	27707.26
490.17	27875.78
490.35	28306.44
490.53	28086.43
490.70	28472.62
490.88	28627.09
491.06	28931.36
491.24	28739.44
491.41	29399.47
491.59	29223.93
491.77	29834.81
491.95	29766.93
492.13	29621.82
492.30	30024.39
492.48	29919.07
492.66	30284.19
492.84	30136.74
493.01	30761.66
493.19	30593.14
493.37	31037.84
493.54	31290.62
493.72	31248.49
493.90	31445.10
494.08	32023.21
494.25	32018.53
494.43	32343.86
494.61	32194.07
494.79	32395.35
494.96	32788.56
495.14	32851.76
495.32	33284.76
495.49	33111.56
495.67	33170.07
495.85	33783.29
496.02	33858.19
496.20	34141.39
496.38	34103.95
496.55	34415.24
496.73	34960.58
496.91	34866.96
497.09	34873.98
497.26	35248.47
497.44	34916.11
497.62	35620.61
497.79	35728.28
497.97	35503.59
498.14	36086.38
498.32	36613.00
498.50	36390.65
498.67	36730.03
498.85	36332.14
499.03	36926.63
499.20	36865.78
499.38	36957.06
499.56	37099.83
499.73	37237.92
499.91	37497.72
500.08	37823.06
500.26	37656.88
500.44	37401.76
500.61	37537.51
500.79	37989.24
500.97	37701.35
501.14	38817.78
501.32	38658.63
501.49	38721.82
501.67	38829.49
501.84	39047.16
502.02	39365.47
502.20	39407.60
502.37	39358.45
502.55	39075.24
502.72	39716.55
502.90	40016.14
503.07	39798.47
503.25	39695.49
503.43	40254.87
503.60	39800.81
503.78	40465.52
503.95	40924.27
504.13	40311.05
504.30	40577.87
504.48	40439.78
504.65	40720.64
504.83	41249.60
505.01	41085.76
505.18	41256.62
505.36	41942.40
505.53	41455.57
505.71	41708.35
505.88	42157.73
506.06	41443.87
506.23	42024.32
506.41	42045.38
506.58	42412.85
506.76	42476.04
506.93	42256.03
507.11	42410.51
507.28	42361.36
507.46	42644.56
507.63	42993.30
507.81	43405.23
507.98	42962.87
508.16	43257.78
508.33	43676.74
508.50	43636.95
508.68	43590.14
508.85	44006.75
509.03	43936.54
509.20	44156.55
509.38	44264.21
509.55	44341.45
509.73	44573.16
509.90	44172.93
510.08	44392.94
510.25	44474.86
510.42	44783.81
510.60	45390.01
510.77	45481.29
510.95	45347.88
511.12	45155.96
511.30	45015.52
511.47	45546.82
511.64	45659.17
511.82	45811.31
511.99	45961.10
512.17	45972.80
512.34	46082.81
512.51	46630.49
512.69	46611.77
512.86	46518.15
513.04	46904.34
513.21	46934.76
513.38	46478.36
513.56	46689.01
513.73	46658.58
513.90	46822.42
514.08	46831.78
514.25	47103.28
514.43	47442.66
514.60	47555.00
514.77	47526.92
514.95	47718.84
515.12	47512.88
515.29	47494.15
515.47	47927.15
515.64	48531.01
515.81	48083.97
515.99	47995.03
516.16	48467.81
516.33	48542.71
516.51	48432.71
516.68	48425.68
516.85	48629.31
517.03	48982.73
517.20	48982.73
517.37	48858.68
517.54	48968.69
517.72	48676.12
517.89	49148.91
518.06	49631.06
518.24	49289.34
518.41	49230.83
518.58	49357.22
518.75	49350.20
518.93	49914.26
519.10	49591.27
519.27	49895.54
519.45	49771.49
519.62	50136.62
519.79	50267.69
519.96	50042.99
520.14	50199.81
520.31	50096.83
520.48	50557.91
520.65	50337.90
520.83	51089.21
521.00	50384.71
521.17	50520.46
521.34	50967.51
521.52	50782.60
521.69	50934.74
521.86	51267.09
522.03	50939.42
522.20	51194.54
522.38	51826.48
522.55	51554.98
522.72	51161.77
522.89	51318.59
523.07	52076.92
523.24	51772.65
523.41	51760.95
523.58	51557.32
523.75	52128.41
523.92	51824.14
524.10	52350.76
524.27	51969.26
524.44	52172.88
524.61	52212.67
524.78	52463.11
524.96	52346.08
525.13	52552.05
525.30	52402.25
525.47	52339.06
525.64	52439.70
525.81	52479.49
525.98	52704.18
526.16	52704.18
526.33	52573.11
526.50	53261.23
526.67	52643.33
526.84	53139.52
527.01	52842.27
527.18	52645.67
527.36	53221.44
527.53	53191.01
527.70	53418.05
527.87	53474.22
528.04	53186.33
528.21	53598.27
528.38	53270.59
528.55	53879.13
528.72	53422.73
528.89	53247.19
529.07	53598.27
529.24	53825.30
529.41	53916.58
529.58	53469.54
529.75	53860.41
529.92	53712.95
530.09	53872.11
530.26	54155.32
530.43	54162.34
530.60	53907.22
530.77	53942.33
530.94	54042.97
531.11	54066.38
531.28	54171.70
531.46	54597.68
531.63	54246.60
531.80	54504.06
531.97	54597.68
532.14	54319.15
532.31	54333.20
532.48	54754.49
532.65	55065.78
532.82	54494.69
532.99	54913.65
533.16	54571.93
533.33	54958.12
533.50	54890.24
533.67	54976.84
533.84	54794.28
534.01	55007.27
534.18	55051.74
534.35	55503.46
534.52	55154.72
534.69	55166.43
534.86	55372.39
535.03	55260.05
535.20	55346.65
535.37	55503.46
535.54	55370.05
535.71	55061.10
535.88	55475.38
536.05	55601.77
536.22	55767.94
536.38	55646.24
536.55	55716.45
536.72	55777.31
536.89	55543.25
537.06	55662.62
537.23	55805.39
537.40	55805.39
537.57	55597.09
537.74	55826.46
537.91	56048.81
538.08	55908.38
538.25	55676.66
538.42	55992.64
538.59	56236.05
538.75	55969.23
538.92	56324.99
539.09	56477.13
539.26	56200.94
539.43	56320.31
539.60	56282.86
539.77	56245.41
539.94	56535.64
540.11	56222.01
540.28	56659.69
540.44	56310.95
540.61	56474.79
540.78	56552.02
540.95	56708.84
541.12	56413.93
541.29	56435.00
541.46	56516.92
541.62	56774.37
541.79	56594.15
541.96	56594.15
542.13	56662.03
542.30	56769.69
542.47	56985.02
542.63	57022.47
542.80	56989.70
542.97	56978.00
543.14	57378.23
543.31	57216.74
543.48	56900.76
543.64	57518.67
543.81	57432.07
543.98	57326.74
544.15	57352.49
544.32	57652.08
544.48	57733.99
544.65	57415.68
544.82	57317.38
544.99	57244.82
545.16	57640.37
545.32	57546.75
545.49	57820.59
545.66	57797.19
545.83	57907.19
546.00	57626.33
546.16	57729.31
546.33	57598.24
546.50	57469.51
546.67	57738.68
546.83	57577.18
547.00	57975.07
547.17	58012.52
547.34	57935.28
547.50	57942.30
547.67	58159.97
547.84	58089.76
548.00	58155.29
548.17	58244.23
548.34	58145.93
548.51	58429.13
548.67	58295.72
548.84	58225.51
549.01	58164.65
549.18	58075.71
549.34	58527.44
549.51	58342.53
549.68	58377.64
549.84	58408.07
550.01	58389.34
550.18	58298.06
550.34	58536.80
550.51	58372.96
550.68	58384.66
550.84	58251.25
551.01	58628.08
551.18	58733.40
551.34	58489.99
551.51	58482.97
551.68	58595.31
551.84	58838.73
552.01	58356.58
552.18	58712.34
552.34	58621.06
552.51	58918.31
552.68	58436.16
552.84	58541.48
553.01	58965.12
553.18	58812.98
553.34	58822.34
553.51	58911.28
553.67	58885.54
553.84	58937.03
554.01	59040.01
554.17	59250.66
554.34	59302.15
554.51	58920.65
554.67	59355.99
554.84	59243.64
555.00	59021.29
555.17	59107.89
555.33	59007.25
555.50	59000.22
555.67	59093.85
555.83	58972.14
556.00	59093.85
556.16	59456.63
556.33	59355.99
556.50	59222.58
556.66	59561.95
556.83	59103.21
556.99	59522.16
557.16	59554.93
557.32	59561.95
557.49	59702.38
557.65	59414.50
557.82	59561.95
557.98	59407.48
558.15	59477.69
558.32	59421.52
558.48	59407.48
558.65	59435.56
558.81	59657.91
558.98	59615.79
559.14	59662.60
559.31	59840.48
559.47	59840.48
559.64	59931.76
559.80	59690.68
559.97	59758.56
560.13	59648.55
560.30	59896.65
560.46	59770.26
560.63	59819.41
560.79	59660.26
560.96	59992.61
561.12	60016.02
561.29	59976.23
561.45	59980.91
561.61	59828.77
561.78	60004.31
561.94	59777.28
562.11	60041.76
562.27	59924.74
562.44	59955.16
562.60	60097.94
562.77	59999.63
562.93	59842.82
563.10	60224.32
563.26	59732.81
563.42	60320.29
563.59	60013.68
563.75	60090.91
563.92	60006.65
564.08	59985.59
564.24	60065.17
564.41	59976.23
564.57	60193.90
564.74	60327.31
564.90	60189.22
565.07	60151.77
565.23	60245.39
565.39	60179.85
565.56	60100.28
565.72	60385.82
565.88	60357.74
566.05	60346.03
566.21	59927.08
566.38	60348.37
566.54	60369.44
566.70	60636.26
566.87	60460.72
567.03	60273.48
567.19	60449.02
567.36	60500.51
567.52	60193.90
567.68	60596.47
567.85	60458.38
568.01	60556.68
568.17	60411.57
568.34	60514.55
568.50	60308.58
568.66	60336.67
568.83	60540.30
568.99	60416.25
569.15	60477.10
569.32	60615.19
569.48	60568.38
569.64	60781.37
569.81	60509.87
569.97	60472.42
570.13	60662.00
570.30	60388.16
570.46	60640.94
570.62	60678.39
570.78	60636.26
570.95	60687.75
571.11	60619.88
571.27	60664.35
571.43	60636.26
571.60	60699.45
571.76	60608.17
571.92	60814.14
572.09	60509.87
572.25	60580.09
572.41	60540.30
572.57	60755.63
572.74	60662.00
572.90	60697.11
573.06	60802.44
573.22	60774.35
573.38	60505.19
573.55	60690.09
573.71	60931.17
573.87	60757.97
574.03	60713.50
574.20	60535.62
574.36	60645.62
574.52	60704.13
574.68	60879.67
574.84	61001.38
575.01	60940.53
575.17	60701.79
575.33	60757.97
575.49	60715.84
575.65	61048.19
575.82	60940.53
575.98	60877.33
576.14	61045.85
576.30	60947.55
576.46	60772.01
576.62	60903.08
576.79	60884.36
576.95	60860.95
577.11	60926.49
577.27	61010.74
577.43	60865.63
577.59	60800.10
577.75	60802.44
577.92	60718.18
578.08	60760.31
578.24	60889.04
578.40	61045.85
578.56	61102.03
578.72	60949.89
578.88	61080.96
579.04	61109.05
579.21	60921.80
579.37	60818.82
579.53	61186.28
579.69	60769.67
579.85	60809.46
580.01	61003.72
580.17	60949.89
580.33	61057.56
580.49	61097.34
580.65	60975.64
580.82	60982.66
580.98	60786.05
581.14	60846.91
581.30	61155.86
581.46	60896.06
581.62	61048.19
581.78	60797.76
581.94	61015.43
582.10	60903.08
582.26	60762.65
582.42	61057.56
582.58	60823.50
582.74	60898.40
582.90	60879.67
583.06	60961.59
583.22	60811.80
583.38	61127.77
583.54	61020.11
583.70	61137.13
583.86	61176.92
584.02	60896.06
584.18	61017.77
584.34	61052.87
584.50	61137.13
584.66	60985.00
584.82	60692.43
584.98	61104.37
585.14	61176.92
585.30	60928.83
585.46	61165.22
585.62	61069.26
585.78	61207.35
585.94	61045.85
586.10	60949.89
586.26	61076.28
586.42	60982.66
586.58	61193.31
586.74	61066.92
586.90	61205.01
587.06	60961.59
587.22	61233.10
587.38	61275.22
587.54	61303.31
587.70	61043.51
587.86	61249.48
588.02	61132.45
588.18	61413.32
588.34	61083.30
588.49	61045.85
