SpectraSuite Data File
++++++++++++++++++++++++++++++++++++
Date: Fri Oct 25 11:25:51 EDT 2013
User: price-jones
Dark Spectrum Present: No
Reference Spectrum Present: No
Number of Sampled Component Spectra: 1
Spectrometers: USB2+H05261
Integration Time (usec): 100000 (USB2+H05261)
Spectra Averaged: 1 (USB2+H05261)
Boxcar Smoothing: 0 (USB2+H05261)
Correct for Electrical Dark: No (USB2+H05261)
Strobe/Lamp Enabled: No (USB2+H05261)
Correct for Detector Non-linearity: No (USB2+H05261)
Correct for Stray Light: No (USB2+H05261)
Number of Pixels in Processed Spectrum: 2048
>>>>>Begin Processed Spectral Data<<<<<
365.73	257.46
365.92	257.46
366.12	257.46
366.32	142.77
366.52	126.39
366.72	189.58
366.91	161.50
367.11	105.32
367.31	159.16
367.51	133.41
367.70	126.39
367.90	126.39
368.10	131.07
368.30	154.48
368.49	184.90
368.69	203.63
368.89	196.60
369.09	161.50
369.28	166.18
369.48	175.54
369.68	236.39
369.87	163.84
370.07	252.78
370.27	182.56
370.47	330.02
370.66	620.24
370.86	716.20
371.06	706.84
371.25	648.33
371.45	683.44
371.65	739.61
371.84	697.48
372.04	699.82
372.24	751.31
372.44	699.82
372.63	746.63
372.83	758.33
373.03	781.74
373.22	690.46
373.42	713.86
373.62	781.74
373.81	833.23
374.01	791.10
374.21	746.63
374.40	755.99
374.60	784.08
374.79	835.57
374.99	823.87
375.19	905.79
375.38	847.27
375.58	781.74
375.78	856.64
375.97	861.32
376.17	847.27
376.37	835.57
376.56	910.47
376.76	1001.75
376.95	873.02
377.15	903.45
377.35	870.68
377.54	880.04
377.74	894.08
377.93	884.72
378.13	950.26
378.33	999.41
378.52	929.19
378.72	840.25
378.91	950.26
379.11	945.58
379.31	964.30
379.50	940.90
379.70	924.51
379.89	1027.50
380.09	1015.79
380.28	1004.09
380.48	997.07
380.68	985.37
380.87	866.00
381.07	990.05
381.26	1064.94
381.46	1081.33
381.65	1057.92
381.85	1022.81
382.04	1001.75
382.24	1123.46
382.43	1090.69
382.63	1142.18
382.83	985.37
383.02	1179.63
383.22	1114.10
383.41	1109.41
383.61	1013.45
383.80	1167.93
384.00	1107.07
384.19	1090.69
384.39	1118.78
384.58	1259.21
384.78	1001.75
384.97	1238.14
385.17	1177.29
385.36	1118.78
385.56	1181.97
385.75	1226.44
385.95	1170.27
386.14	1174.95
386.34	1270.91
386.53	1263.89
386.72	1196.01
386.92	1261.55
387.11	1296.66
387.31	1172.61
387.50	1214.74
387.70	1268.57
387.89	1263.89
388.09	1282.61
388.28	1275.59
388.48	1249.85
388.67	1259.21
388.86	1306.02
389.06	1306.02
389.25	1355.17
389.45	1322.40
389.64	1371.55
389.84	1362.19
390.03	1385.60
390.22	1427.73
390.42	1289.64
390.61	1352.83
390.81	1378.58
391.00	1444.11
391.19	1474.54
391.39	1488.58
391.58	1425.39
391.78	1458.15
391.97	1441.77
392.16	1469.86
392.36	1479.22
392.55	1497.94
392.75	1495.60
392.94	1441.77
393.13	1523.69
393.33	1497.94
393.52	1533.05
393.71	1558.80
393.91	1631.35
394.10	1675.82
394.29	1582.20
394.49	1652.42
394.68	1619.65
394.88	1673.48
395.07	1647.74
395.26	1647.74
395.46	1650.08
395.65	1666.46
395.84	1767.10
396.04	1806.89
396.23	1809.23
396.42	1783.49
396.62	1776.47
396.81	1827.96
397.00	1827.96
397.19	1753.06
397.39	1736.68
397.58	1942.64
397.77	1928.60
397.97	1811.57
398.16	1834.98
398.35	1935.62
398.55	1806.89
398.74	1872.43
398.93	1982.43
399.12	1797.53
399.32	1947.33
399.51	1959.03
399.70	2057.33
399.90	1977.75
400.09	2078.40
400.28	2064.35
400.47	2073.71
400.67	2017.54
400.86	2139.25
401.05	2197.76
401.24	2162.66
401.44	2106.48
401.63	2204.78
401.82	2188.40
402.01	2125.21
402.21	2167.34
402.40	2111.16
402.59	2214.15
402.78	2303.09
402.97	2286.70
403.17	2279.68
403.36	2246.91
403.55	2321.81
403.74	2385.01
403.93	2377.98
404.13	2392.03
404.32	2342.88
404.51	2375.64
404.70	2427.14
404.89	2361.60
405.09	2520.76
405.28	2466.92
405.47	2548.84
405.66	2436.50
405.85	2530.12
406.05	2527.78
406.24	2499.69
406.43	2565.23
406.62	2588.63
406.81	2605.02
407.00	2537.14
407.20	2649.49
407.39	2644.81
407.58	2757.15
407.77	2693.96
407.96	2813.32
408.15	2698.64
408.34	2682.25
408.54	2803.96
408.73	2757.15
408.92	2792.26
409.11	2810.98
409.30	2911.63
409.49	2902.26
409.68	2843.75
409.87	2890.56
410.07	2998.23
410.26	2916.31
410.45	3073.12
410.64	2864.82
410.83	2998.23
411.02	3103.55
411.21	3110.57
411.40	3197.17
411.59	3314.20
411.78	3248.66
411.98	3045.04
412.17	3241.64
412.36	3293.13
412.55	3349.31
412.74	3435.91
412.93	3389.10
413.12	3377.39
413.31	3545.91
413.50	3396.12
413.69	3421.86
413.88	3595.06
414.07	3627.83
414.26	3705.07
414.45	3653.58
414.64	3735.50
414.83	3716.77
415.02	3754.22
415.22	3740.18
415.41	3723.79
415.60	3889.97
415.79	3847.84
415.98	3894.65
416.17	3946.14
416.36	4018.70
416.55	4007.00
416.74	4175.52
416.93	4072.53
417.12	4044.45
417.31	4166.15
417.50	4095.94
417.69	4283.18
417.88	4311.27
418.07	4098.28
418.26	4360.42
418.45	4334.67
418.64	4379.14
418.83	4381.48
419.02	4386.16
419.21	4531.28
419.39	4613.20
419.58	4599.15
419.77	4552.34
419.96	4699.80
420.15	4610.86
420.34	4636.60
420.53	4601.49
420.72	4716.18
420.91	4786.40
421.10	4685.75
421.29	4760.65
421.48	4713.84
421.67	4795.76
421.86	4624.90
422.05	4971.30
422.24	4671.71
422.43	5004.07
422.61	4891.72
422.80	4985.34
422.99	5013.43
423.18	4915.12
423.37	4968.96
423.56	4882.36
423.75	4887.04
423.94	4641.28
424.13	4582.77
424.32	4816.82
424.50	5076.62
424.69	5081.30
424.88	5114.07
425.07	4896.40
425.26	4910.44
425.45	4959.60
425.64	4870.65
425.83	5011.09
426.01	5008.75
426.20	5001.72
426.39	5198.33
426.58	4936.19
426.77	4975.98
426.96	5085.98
427.15	5132.79
427.33	5266.21
427.52	5186.63
427.71	5259.18
427.90	5291.95
428.09	5313.02
428.28	5305.99
428.46	5324.72
428.65	5413.66
428.84	5451.11
429.03	5430.04
429.22	5373.87
429.40	5404.30
429.59	5628.99
429.78	5430.04
429.97	5116.41
430.16	5596.22
430.34	5605.58
430.53	5799.85
430.72	5526.00
430.91	5521.32
431.10	5605.58
431.28	5795.17
431.47	5776.44
431.66	5841.98
431.85	5837.30
432.03	5921.56
432.22	5947.30
432.41	5947.30
432.60	5900.49
432.79	5858.36
432.97	6246.89
433.16	6094.76
433.35	5914.53
433.54	6085.39
433.72	6118.16
433.91	6078.37
434.10	6190.72
434.28	6167.31
434.47	6307.74
434.66	6244.55
434.85	6221.14
435.03	6349.87
435.22	6291.36
435.41	6291.36
435.59	6373.28
435.78	6436.47
435.97	6572.22
436.16	6307.74
436.34	6354.55
436.53	6445.84
436.72	6586.27
436.90	6331.15
437.09	6459.88
437.28	6541.80
437.46	6733.72
437.65	6612.01
437.84	6729.04
438.02	6944.37
438.21	6850.75
438.40	6860.11
438.58	6799.26
438.77	6942.03
438.96	6960.75
439.14	7180.76
439.33	7096.50
439.52	7332.90
439.70	7215.87
439.89	7449.93
440.08	7389.07
440.26	7421.84
440.45	7255.66
440.63	7337.58
440.82	7784.62
441.01	7414.82
441.19	7552.91
441.38	7639.51
441.57	7756.54
441.75	7648.87
441.94	7896.97
442.12	7843.14
442.31	8067.83
442.50	7915.69
442.68	8124.00
442.87	7957.82
443.05	8044.42
443.24	8124.00
443.43	8100.59
443.61	8102.93
443.80	8400.18
443.98	8016.33
444.17	7857.18
444.35	8053.78
444.54	8322.94
444.73	8372.10
444.91	8217.62
445.10	8184.85
445.28	8486.78
445.47	8093.57
445.65	8360.39
445.84	8531.25
446.02	8437.63
446.21	8423.59
446.39	8299.54
446.58	8512.53
446.77	8461.04
446.95	8446.99
447.14	8549.98
447.32	8652.96
447.51	8631.90
447.69	8557.00
447.88	8566.36
448.06	8678.71
448.25	8557.00
448.43	8432.95
448.62	8535.93
448.80	8542.96
448.99	8678.71
449.17	8739.56
449.36	8669.34
449.54	8678.71
449.73	9107.02
449.91	9104.68
450.10	8926.80
450.28	9202.99
450.46	9100.00
450.65	8856.59
450.83	8968.93
451.02	9034.47
451.20	9200.65
451.39	9453.42
451.57	9095.32
451.76	9043.83
451.94	9177.24
452.13	9298.95
452.31	9423.00
452.49	9053.19
452.68	9247.46
452.86	9240.44
453.05	9490.87
453.23	9476.83
453.42	9111.71
453.60	9357.46
453.78	9643.01
453.97	9408.95
454.15	9619.60
454.34	9341.08
454.52	9741.31
454.70	9816.21
454.89	9727.27
455.07	9813.87
455.26	9984.73
455.44	9982.38
455.62	9977.70
455.81	9963.66
455.99	10024.51
456.17	10136.86
456.36	9928.55
456.54	9968.34
456.73	10167.29
456.91	10422.41
457.09	10368.57
457.28	10525.39
457.46	10307.72
457.64	10417.72
457.83	10544.11
458.01	10352.19
458.19	10780.51
458.38	10459.85
458.56	10441.13
458.74	10621.35
458.93	10555.82
459.11	10637.73
459.29	10551.14
459.48	10867.11
459.66	10532.41
459.84	10780.51
460.03	11023.92
460.21	10998.18
460.39	10927.96
460.57	11089.46
460.76	11023.92
460.94	11330.53
461.12	11119.89
461.31	11187.76
461.49	11042.65
461.67	11176.06
461.85	11272.02
462.04	11524.80
462.22	11597.35
462.40	11496.71
462.59	11389.05
462.77	11363.30
462.95	11477.99
463.13	11475.65
463.32	11719.06
463.50	11939.07
463.68	11819.71
463.86	11871.20
464.05	11419.47
464.23	11676.93
464.41	12002.27
464.59	11503.73
464.78	12109.93
464.96	12025.67
465.14	11981.20
465.32	11976.52
465.50	11992.90
465.69	12271.43
465.87	12102.91
466.05	12301.86
466.23	12011.63
466.41	12243.34
466.60	12561.66
466.78	12311.22
466.96	12035.03
467.14	12233.98
467.32	12269.09
467.51	12643.57
467.69	12367.39
467.87	12388.46
468.05	12514.84
468.23	12484.42
468.41	12496.12
468.60	12571.02
468.78	12716.13
468.96	12407.18
469.14	13046.15
469.32	12973.59
469.50	12638.89
469.69	12727.83
469.87	13214.66
470.05	13184.24
470.23	13050.83
470.41	13104.66
470.59	13317.65
470.77	13029.76
470.95	13125.72
471.14	13399.57
471.32	13191.26
471.50	13582.13
471.68	13647.66
471.86	13631.28
472.04	13654.69
472.22	14068.96
472.40	13626.60
472.58	13809.16
472.77	13926.19
472.95	14160.24
473.13	14450.47
473.31	14108.75
473.49	13935.55
473.67	13944.91
473.85	14298.33
474.03	14757.08
474.21	14455.15
474.39	14895.17
474.57	14712.61
474.75	14934.96
474.93	14981.77
475.12	15077.73
475.30	14883.47
475.48	15161.99
475.66	15342.21
475.84	14684.52
476.02	15150.29
476.20	15318.81
476.38	15819.68
476.56	15901.60
476.74	16025.65
476.92	15913.30
477.10	15843.09
477.28	16070.12
477.46	16325.24
477.64	16273.74
477.82	16271.40
478.00	16929.09
478.18	16678.66
478.36	17069.53
478.54	17039.10
478.72	17184.21
478.90	17343.37
479.08	17539.97
479.26	17549.34
479.44	17853.61
479.62	17949.57
479.80	17909.78
479.98	18354.48
480.16	18691.52
480.34	18324.05
480.52	18656.41
480.70	18677.48
480.88	18462.15
481.06	18728.97
481.24	18602.58
481.41	18986.43
481.59	19370.27
481.77	19393.68
481.95	19339.85
482.13	19660.50
482.31	19786.89
482.49	20514.80
482.67	20189.46
482.85	20027.96
483.03	20788.64
483.21	20664.59
483.39	21137.38
483.57	21109.29
483.74	21010.99
483.92	21273.13
484.10	21338.66
484.28	21645.27
484.46	22293.60
484.64	22551.06
484.82	22033.80
485.00	22197.64
485.18	22724.26
485.35	22937.25
485.53	22862.35
485.71	23143.22
485.89	23606.64
486.07	23295.35
486.25	23513.02
486.43	23737.71
486.61	24079.43
486.78	24130.92
486.96	23868.78
487.14	24835.42
487.32	24645.84
487.50	24706.70
487.68	24809.68
487.85	25020.33
488.03	25275.45
488.21	25853.56
488.39	25916.75
488.57	26089.95
488.75	26052.50
488.92	26221.02
489.10	26499.55
489.28	26588.49
489.46	27241.50
489.64	27360.86
489.81	27873.44
489.99	27803.22
490.17	27777.48
490.35	28245.58
490.53	28060.68
490.70	28491.34
490.88	28460.91
491.06	28940.72
491.24	28650.50
491.41	29099.88
491.59	29095.20
491.77	29439.26
491.95	29940.13
492.13	29486.07
492.30	29888.64
492.48	29670.97
492.66	29935.45
492.84	30658.68
493.01	30543.99
493.19	31000.40
493.37	31014.44
493.54	30916.14
493.72	32093.43
493.90	31826.60
494.08	31644.04
494.25	32109.81
494.43	32081.72
494.61	32444.51
494.79	32629.41
494.96	32266.63
495.14	32884.53
495.32	32985.17
495.49	32961.76
495.67	33249.65
495.85	33727.12
496.02	33979.90
496.20	33975.22
496.38	34031.39
496.55	34176.50
496.73	34490.13
496.91	34534.60
497.09	34401.19
497.26	34712.49
497.44	35096.33
497.62	35084.63
497.79	35978.72
497.97	35316.34
498.14	36093.40
498.32	36238.51
498.50	36460.87
498.67	36779.18
498.85	36605.98
499.03	36601.30
499.20	36708.96
499.38	37001.53
499.56	36800.24
499.73	37378.36
499.91	37317.50
500.08	37317.50
500.26	37237.92
500.44	37523.47
500.61	38019.66
500.79	37703.69
500.97	38188.18
501.14	38614.16
501.32	38471.39
501.49	38117.96
501.67	38415.21
501.84	38918.43
502.02	38761.61
502.20	38953.54
502.37	39063.54
502.55	39140.78
502.72	39210.99
502.90	39665.06
503.07	39295.25
503.25	39604.20
503.43	39786.77
503.60	40172.96
503.78	39880.39
503.95	39889.75
504.13	40416.37
504.30	40903.20
504.48	40472.54
504.65	40109.76
504.83	41350.24
505.01	41284.71
505.18	41486.00
505.36	41656.85
505.53	40938.31
505.71	41956.44
505.88	41579.62
506.06	41397.06
506.23	41832.39
506.41	41982.19
506.58	42078.15
506.76	42363.70
506.93	42433.91
507.11	42562.64
507.28	42075.81
507.46	42438.59
507.63	42913.72
507.81	43199.27
507.98	43023.73
508.16	42810.74
508.33	43629.93
508.50	43433.32
508.68	43655.67
508.85	44292.30
509.03	43585.46
509.20	43419.28
509.38	44453.79
509.55	44477.20
509.73	44392.94
509.90	44629.34
510.08	44142.50
510.25	44512.31
510.42	44336.77
510.60	44938.29
510.77	44957.01
510.95	45333.84
511.12	45092.76
511.30	45170.00
511.47	45404.05
511.64	45296.39
511.82	45624.06
511.99	45738.75
512.17	45865.14
512.34	45935.35
512.51	46677.30
512.69	46298.14
512.86	46464.32
513.04	46740.50
513.21	46595.38
513.38	46529.85
513.56	46920.72
513.73	46658.58
513.90	47075.19
514.08	46794.33
514.25	47381.80
514.43	47409.89
514.60	47222.65
514.77	47531.60
514.95	47700.12
515.12	47681.39
515.29	47604.16
515.47	47819.49
515.64	47913.11
515.81	48055.88
515.99	48369.51
516.16	48624.63
516.33	48285.25
516.51	48926.56
516.68	48512.28
516.85	48423.34
517.03	48917.20
517.20	48758.04
517.37	48514.62
517.54	48994.43
517.72	48928.90
517.89	49116.14
518.06	49539.78
518.24	49120.82
518.41	49076.35
518.58	49258.91
518.75	49474.24
518.93	49549.14
519.10	49371.26
519.27	49593.61
519.45	49813.62
519.62	49867.45
519.79	49888.52
519.96	50356.63
520.14	50342.58
520.31	50012.57
520.48	50443.23
520.65	50312.16
520.83	50337.90
521.00	50518.12
521.17	50742.81
521.34	51011.98
521.52	50897.29
521.69	51047.08
521.86	50997.93
522.03	51105.60
522.20	51430.93
522.38	51365.40
522.55	51026.02
522.72	51136.02
522.89	51433.27
523.07	51894.36
523.24	51234.33
523.41	51576.04
523.58	51374.76
523.75	51739.88
523.92	51683.71
524.10	51941.17
524.27	51990.32
524.44	52257.14
524.61	52069.90
524.78	52116.71
524.96	52032.45
525.13	52224.37
525.30	52502.90
525.47	52694.82
525.64	52514.60
525.81	52619.92
525.98	52664.39
526.16	52308.63
526.33	52437.36
526.50	52942.92
526.67	52842.27
526.84	52992.07
527.01	52231.40
527.18	53148.88
527.36	52928.87
527.53	53202.72
527.70	53392.30
527.87	53298.68
528.04	53221.44
528.21	53375.92
528.38	53254.21
528.55	53616.99
528.72	53155.91
528.89	53572.52
529.07	53296.34
529.24	53364.21
529.41	53734.02
529.58	53588.91
529.75	53640.40
529.92	53951.69
530.09	53813.60
530.26	53642.74
530.43	53846.36
530.60	53937.65
530.77	53628.69
530.94	53991.48
531.11	53897.86
531.28	54417.46
531.46	54096.80
531.63	54305.11
531.80	53930.62
531.97	54117.87
532.14	54560.23
532.31	54417.46
532.48	54651.51
532.65	54321.49
532.82	54342.56
532.99	54644.49
533.16	54663.21
533.33	54693.64
533.50	54677.25
533.67	54761.51
533.84	54752.15
534.01	55068.12
534.18	54815.35
534.35	55140.68
534.52	54824.71
534.69	55323.24
534.86	55250.69
535.03	55381.76
535.20	55311.54
535.37	55334.95
535.54	55238.98
535.71	55356.01
535.88	55281.11
536.05	55426.23
536.22	55468.36
536.38	55604.11
536.55	55646.24
536.72	55522.19
536.89	55414.52
537.06	55679.00
537.23	55803.05
537.40	55384.10
537.57	55615.81
537.74	55608.79
537.91	55906.04
538.08	56072.21
538.25	55622.83
538.42	55812.41
538.59	56268.82
538.75	55819.44
538.92	56065.19
539.09	56135.41
539.26	56282.86
539.43	55976.25
539.60	55941.14
539.77	56287.54
539.94	56537.98
540.11	56135.41
540.28	56437.34
540.44	56222.01
540.61	56402.23
540.78	56563.73
540.95	56545.00
541.12	56332.01
541.29	56299.25
541.46	56477.13
541.62	56739.27
541.79	56547.34
541.96	56430.32
542.13	56519.26
542.30	56626.92
542.47	56849.27
542.63	56814.16
542.80	56837.57
542.97	57031.83
543.14	57043.54
543.31	57064.60
543.48	57045.88
543.64	57432.07
543.81	57443.77
543.98	57336.10
544.15	57134.82
544.32	57434.41
544.48	57513.98
544.65	57270.57
544.82	57478.88
544.99	57399.30
545.16	57418.02
545.32	57586.54
545.49	57476.54
545.66	57689.52
545.83	57434.41
546.00	57745.70
546.16	57677.82
546.33	57460.15
546.50	57418.02
546.67	57708.25
546.83	57387.60
547.00	57670.80
547.17	57771.44
547.34	57752.72
547.50	57918.90
547.67	58209.12
547.84	58078.05
548.00	58047.63
548.17	58099.12
548.34	58005.50
548.51	58145.93
548.67	58230.19
548.84	58204.44
549.01	57925.92
549.18	58405.73
549.34	58363.60
549.51	58323.81
549.68	58213.80
549.84	58199.76
550.01	58555.52
550.18	58131.89
550.34	58459.56
550.51	58560.20
550.68	58375.30
550.84	58157.63
551.01	58541.48
551.18	58511.05
551.34	58548.50
551.51	58630.42
551.68	58497.01
551.84	58354.24
552.01	58354.24
552.18	58770.85
552.34	58438.50
552.51	58733.40
552.68	58450.20
552.84	58635.10
553.01	58824.68
553.18	58810.64
553.34	58930.01
553.51	58574.25
553.67	58859.79
553.84	59014.27
554.01	58745.11
554.17	58983.84
554.34	59054.06
554.51	58918.31
554.67	58927.67
554.84	58890.22
555.00	59018.95
555.17	58817.66
555.33	59117.25
555.50	58820.00
555.67	59065.76
555.83	58883.20
556.00	59194.49
556.16	59381.73
556.33	59150.02
556.50	59100.87
556.66	59468.33
556.83	59110.23
556.99	59344.28
557.16	59360.67
557.32	59512.80
557.49	59489.40
557.65	59311.52
557.82	59398.12
557.98	59379.39
558.15	59393.43
558.32	59407.48
558.48	59168.74
558.65	59639.19
558.81	59480.03
558.98	59526.84
559.14	59590.04
559.31	59583.02
559.47	59728.13
559.64	59676.64
559.80	59655.57
559.97	59643.87
560.13	59515.14
560.30	59554.93
560.46	59746.86
560.63	59920.05
560.79	59639.19
560.96	59840.48
561.12	59796.01
561.29	59817.07
561.45	59557.27
561.61	59697.70
561.78	59913.03
561.94	59742.17
562.11	59788.98
562.27	59803.03
562.44	59735.15
562.60	59959.84
562.77	59936.44
562.93	59875.58
563.10	60048.78
563.26	59821.75
563.42	60168.15
563.59	60093.25
563.75	59840.48
563.92	60102.62
564.08	60058.15
564.24	60142.41
564.41	60156.45
564.57	60067.51
564.74	60179.85
564.90	60257.09
565.07	60067.51
565.23	60182.19
565.39	60147.09
565.56	60179.85
565.72	60119.00
565.88	60067.51
566.05	60030.06
566.21	60097.94
566.38	60163.47
566.54	60395.18
566.70	60292.20
566.87	60507.53
567.03	60250.07
567.19	60308.58
567.36	60165.81
567.52	59999.63
567.68	60516.89
567.85	60376.46
568.01	60449.02
568.17	60327.31
568.34	60439.65
568.50	60245.39
568.66	60170.49
568.83	60308.58
568.99	60268.79
569.15	60580.09
569.32	60388.16
569.48	60392.84
569.64	60367.10
569.81	60530.93
569.97	60280.50
570.13	60523.91
570.30	60273.48
570.46	60308.58
570.62	60430.29
570.78	60498.17
570.95	60664.35
571.11	60519.23
571.27	60463.06
571.43	60385.82
571.60	60704.13
571.76	60390.50
571.92	60528.59
572.09	60460.72
572.25	60650.30
572.41	60397.52
572.57	60420.93
572.74	60683.07
572.90	60757.97
573.06	60472.42
573.22	60505.19
573.38	60736.90
573.55	60718.18
573.71	60786.05
573.87	60720.52
574.03	60561.36
574.20	60608.17
574.36	60561.36
574.52	60783.71
574.68	60816.48
574.84	60643.28
575.01	60678.39
575.17	60676.05
575.33	60575.40
575.49	60699.45
575.65	60519.23
575.82	60814.14
575.98	60673.71
576.14	60891.38
576.30	60954.57
576.46	60654.98
576.62	60884.36
576.79	60732.22
576.95	60507.53
577.11	60837.54
577.27	60654.98
577.43	60832.86
577.59	60722.86
577.75	60870.31
577.92	60470.08
578.08	60687.75
578.24	60889.04
578.40	60970.96
578.56	60940.53
578.72	60748.60
578.88	60975.64
579.04	61104.37
579.21	60900.74
579.37	60935.85
579.53	60973.30
579.69	60654.98
579.85	60837.54
580.01	60755.63
580.17	60591.79
580.33	60985.00
580.49	60858.61
580.65	61066.92
580.82	60797.76
580.98	60900.74
581.14	60900.74
581.30	61190.97
581.46	60832.86
581.62	60985.00
581.78	60760.31
581.94	60713.50
582.10	61001.38
582.26	60884.36
582.42	60860.95
582.58	60647.96
582.74	60849.25
582.90	60877.33
583.06	60692.43
583.22	60437.31
583.38	60956.91
583.54	61071.60
583.70	60903.08
583.86	60935.85
584.02	60839.89
584.18	60970.96
584.34	60795.42
584.50	60896.06
584.66	60776.69
584.82	60872.65
584.98	61125.43
585.14	61111.39
585.30	60830.52
585.46	60987.34
585.62	61080.96
585.78	61240.12
585.94	60694.77
586.10	61123.09
586.26	60926.49
586.42	61228.41
586.58	61275.22
586.74	61310.33
586.90	61219.05
587.06	60849.25
587.22	61179.26
587.38	60863.29
587.54	61137.13
587.70	61307.99
587.86	61055.21
588.02	60961.59
588.18	61251.82
588.34	60966.27
588.49	61123.09
