SpectraSuite Data File
++++++++++++++++++++++++++++++++++++
Date: Fri Oct 25 10:43:58 EDT 2013
User: price-jones
Dark Spectrum Present: No
Reference Spectrum Present: No
Number of Sampled Component Spectra: 1
Spectrometers: USB2+H05261
Integration Time (usec): 100000 (USB2+H05261)
Spectra Averaged: 1 (USB2+H05261)
Boxcar Smoothing: 0 (USB2+H05261)
Correct for Electrical Dark: No (USB2+H05261)
Strobe/Lamp Enabled: No (USB2+H05261)
Correct for Detector Non-linearity: No (USB2+H05261)
Correct for Stray Light: No (USB2+H05261)
Number of Pixels in Processed Spectrum: 2048
>>>>>Begin Processed Spectral Data<<<<<
365.73	100.64
365.92	100.64
366.12	100.64
366.32	35.11
366.52	53.83
366.72	18.72
366.91	39.79
367.11	32.77
367.31	49.15
367.51	9.36
367.70	9.36
367.90	35.11
368.10	28.09
368.30	4.68
368.49	7.02
368.69	53.83
368.89	32.77
369.09	91.28
369.28	51.49
369.48	18.72
369.68	65.54
369.87	124.05
370.07	70.22
370.27	105.32
370.47	208.31
370.66	390.87
370.86	425.98
371.06	456.40
371.25	510.24
371.45	496.19
371.65	507.90
371.84	411.93
372.04	458.74
372.24	463.43
372.44	547.69
372.63	470.45
372.83	482.15
373.03	496.19
373.22	561.73
373.42	535.98
373.62	472.79
373.81	521.94
374.01	543.00
374.21	603.86
374.40	547.69
374.60	566.41
374.79	535.98
374.99	554.71
375.19	554.71
375.38	627.26
375.58	585.13
375.78	622.58
375.97	613.22
376.17	650.67
376.37	594.50
376.56	631.94
376.76	526.62
376.95	603.86
377.15	587.47
377.35	587.47
377.54	566.41
377.74	634.29
377.93	561.73
378.13	599.18
378.33	739.61
378.52	674.07
378.72	671.73
378.91	657.69
379.11	594.50
379.31	550.03
379.50	657.69
379.70	683.44
379.89	706.84
380.09	678.76
380.28	755.99
380.48	793.44
380.68	699.82
380.87	702.16
381.07	676.41
381.26	833.23
381.46	704.50
381.65	678.76
381.85	695.14
382.04	678.76
382.24	744.29
382.43	711.52
382.63	760.67
382.83	674.07
383.02	758.33
383.22	727.91
383.41	657.69
383.61	861.32
383.80	744.29
384.00	739.61
384.19	713.86
384.39	798.12
384.58	791.10
384.78	868.34
384.97	793.44
385.17	837.91
385.36	870.68
385.56	711.52
385.75	858.98
385.95	748.97
386.14	882.38
386.34	833.23
386.53	903.45
386.72	816.85
386.92	933.87
387.11	898.77
387.31	903.45
387.50	901.11
387.70	774.72
387.89	901.11
388.09	938.55
388.28	819.19
388.48	851.96
388.67	931.53
388.86	1004.09
389.06	933.87
389.25	999.41
389.45	971.32
389.64	922.17
389.84	1006.43
390.03	966.64
390.22	1004.09
390.42	1036.86
390.61	1011.11
390.81	990.05
391.00	1001.75
391.19	1132.82
391.39	994.73
391.58	1057.92
391.78	1086.01
391.97	1104.73
392.16	1071.97
392.36	1116.44
392.55	1015.79
392.75	1029.84
392.94	1069.62
393.13	964.30
393.33	926.85
393.52	1006.43
393.71	1055.58
393.91	1078.99
394.10	1043.88
394.29	1153.88
394.49	1235.80
394.68	1184.31
394.88	1207.72
395.07	1235.80
395.26	1275.59
395.46	1254.53
395.65	1315.38
395.84	1282.61
396.04	1235.80
396.23	1114.10
396.42	1144.52
396.62	1238.14
396.81	1153.88
397.00	1203.04
397.19	1217.08
397.39	1359.85
397.58	1308.36
397.77	1416.02
397.97	1441.77
398.16	1437.09
398.35	1497.94
398.55	1434.75
398.74	1547.09
398.93	1586.88
399.12	1589.22
399.32	1444.11
399.51	1549.43
399.70	1610.29
399.90	1495.60
400.09	1664.12
400.28	1652.42
400.47	1500.28
400.67	1689.87
400.86	1685.19
401.05	1746.04
401.24	1710.93
401.44	1671.14
401.63	1774.13
401.82	1694.55
402.01	1739.02
402.21	1755.40
402.40	1762.42
402.59	1764.76
402.78	1699.23
402.97	1870.09
403.17	1746.04
403.36	1849.02
403.55	1753.06
403.74	1872.43
403.93	1762.42
404.13	1834.98
404.32	1914.56
404.51	1783.49
404.70	1823.28
404.89	1842.00
405.09	2015.20
405.28	1851.36
405.47	2005.84
405.66	2005.84
405.85	1994.14
406.05	1982.43
406.24	1970.73
406.43	2040.95
406.62	2153.29
406.81	2134.57
407.00	2029.24
407.20	2129.89
407.39	2106.48
407.58	2073.71
407.77	2232.87
407.96	2179.04
408.15	2202.44
408.34	2174.36
408.54	2305.43
408.73	2347.56
408.92	2387.35
409.11	2307.77
409.30	2303.09
409.49	2363.94
409.68	2377.98
409.87	2349.90
410.07	2321.81
410.26	2385.01
410.45	2455.22
410.64	2502.03
410.83	2469.27
411.02	2469.27
411.21	2572.25
411.40	2626.08
411.59	2801.62
411.78	2586.29
411.98	2560.55
412.17	2633.10
412.36	2684.59
412.55	2736.09
412.74	2752.47
412.93	2841.41
413.12	2810.98
413.31	2963.12
413.50	2892.90
413.69	2895.24
413.88	2904.60
414.07	2906.95
414.26	2920.99
414.45	2860.13
414.64	2991.20
414.83	3061.42
415.02	3098.87
415.22	3145.68
415.41	3218.24
415.60	3283.77
415.79	3241.64
415.98	3243.98
416.17	3293.13
416.36	3262.71
416.55	3276.75
416.74	3368.03
416.93	3309.52
417.12	3288.45
417.31	3339.94
417.50	3274.41
417.69	3496.76
417.88	3466.33
418.07	3463.99
418.26	3459.31
418.45	3487.40
418.64	3550.59
418.83	3468.67
419.02	3435.91
419.21	3616.13
419.39	3634.85
419.58	3599.74
419.77	3447.61
419.96	3576.34
420.15	3782.31
420.34	3775.28
420.53	3808.05
420.72	3845.50
420.91	3786.99
421.10	4025.72
421.29	3887.63
421.48	3777.62
421.67	3873.59
421.86	3882.95
422.05	3695.71
422.24	3831.46
422.43	3756.56
422.61	3960.19
422.80	4011.68
422.99	3943.80
423.18	4100.62
423.37	3922.74
423.56	4023.38
423.75	3906.35
423.94	4021.04
424.13	3665.28
424.32	3850.18
424.50	3962.53
424.69	4030.40
424.88	4149.77
425.07	4044.45
425.26	3838.48
425.45	3892.31
425.64	3918.06
425.83	3955.51
426.01	3983.59
426.20	4046.79
426.39	4049.13
426.58	4060.83
426.77	4002.32
426.96	4039.76
427.15	4046.79
427.33	4046.79
427.52	4030.40
427.71	4051.47
427.90	4077.21
428.09	4095.94
428.28	4203.60
428.46	4121.68
428.65	4117.00
428.84	4287.86
429.03	4407.23
429.22	4077.21
429.40	4154.45
429.59	4046.79
429.78	4028.06
429.97	3948.48
430.16	4095.94
430.34	4135.73
430.53	4161.47
430.72	4313.61
430.91	4184.88
431.10	4189.56
431.28	4624.90
431.47	4528.94
431.66	4652.98
431.85	4512.55
432.03	4470.42
432.22	4667.03
432.41	4575.75
432.60	4727.88
432.79	4793.42
432.97	4671.71
433.16	4938.53
433.35	4767.67
433.54	4716.18
433.72	4765.33
433.91	4704.48
434.10	4858.95
434.28	4861.29
434.47	4894.06
434.66	4858.95
434.85	5034.49
435.03	5011.09
435.22	4994.70
435.41	5181.95
435.59	5132.79
435.78	5158.54
435.97	5160.88
436.16	5270.89
436.34	5050.88
436.53	5303.65
436.72	5186.63
436.90	5198.33
437.09	5252.16
437.28	5179.61
437.46	5294.29
437.65	5062.58
437.84	5172.58
438.02	5151.52
438.21	5254.50
438.40	5130.45
438.58	5242.80
438.77	5556.43
438.96	5373.87
439.14	5549.41
439.33	5706.23
439.52	5657.07
439.70	5755.38
439.89	5624.31
440.08	5750.70
440.26	5785.80
440.45	5764.74
440.63	5860.70
440.82	6066.67
441.01	5900.49
441.19	6017.52
441.38	6050.28
441.57	6211.78
441.75	6218.80
441.94	6443.49
442.12	6389.66
442.31	6387.32
442.50	6455.20
442.68	6270.30
442.87	6305.40
443.05	6401.37
443.24	6609.67
443.43	6541.80
443.61	6511.37
443.80	6717.34
443.98	6422.43
444.17	6448.18
444.35	6623.72
444.54	6778.19
444.73	6546.48
444.91	6494.99
445.10	6527.75
445.28	6621.38
445.47	6492.65
445.65	6532.44
445.84	6537.12
446.02	6794.58
446.21	6572.22
446.39	6696.27
446.58	6583.93
446.77	6789.89
446.95	6602.65
447.14	6789.89
447.32	6979.48
447.51	6668.19
447.69	6693.93
447.88	6869.47
448.06	6899.90
448.25	6745.42
448.43	6724.36
448.62	6871.81
448.80	6745.42
448.99	6862.45
449.17	6958.41
449.36	6822.66
449.54	7028.63
449.73	7178.42
449.91	7133.95
450.10	7192.47
450.28	7307.15
450.46	7269.70
450.65	7229.91
450.83	7215.87
451.02	7288.43
451.20	7356.30
451.39	7258.00
451.57	7255.66
451.76	7229.91
451.94	7246.30
452.13	7494.40
452.31	7290.77
452.49	7150.34
452.68	7405.46
452.86	7222.89
453.05	7386.73
453.23	7499.08
453.42	7363.33
453.60	7386.73
453.78	7573.97
453.97	7419.50
454.15	7517.80
454.34	7543.55
454.52	7592.70
454.70	7634.83
454.89	7651.21
455.07	7709.72
455.26	7459.29
455.44	7691.00
455.62	7793.98
455.81	7735.47
455.99	7857.18
456.17	7953.14
456.36	7875.90
456.54	7899.31
456.73	7999.95
456.91	8229.32
457.09	8156.77
457.28	8475.08
457.46	8226.98
457.64	8339.33
457.83	8159.11
458.01	7967.18
458.19	8339.33
458.38	8311.24
458.56	8290.18
458.74	8241.03
458.93	8191.88
459.11	8299.54
459.29	8365.07
459.48	8493.80
459.66	8203.58
459.84	8538.27
460.03	8709.13
460.21	8589.77
460.39	8554.66
460.57	8472.74
460.76	8514.87
460.94	8664.66
461.12	8674.03
461.31	8751.26
461.49	8734.88
461.67	8482.10
461.85	8872.97
462.04	8786.37
462.22	8947.87
462.40	9022.77
462.59	8990.00
462.77	9060.21
462.95	9081.28
463.13	8952.55
463.32	8964.25
463.50	8929.14
463.68	8917.44
463.86	8898.72
464.05	8919.78
464.23	9018.08
464.41	9277.88
464.59	8945.53
464.78	9245.12
464.96	9195.96
465.14	8971.27
465.32	9430.02
465.50	9558.75
465.69	9362.14
465.87	9296.61
466.05	9217.03
466.23	9142.13
466.41	9294.27
466.60	9497.89
466.78	9275.54
466.96	9259.16
467.14	9305.97
467.32	9362.14
467.51	9291.93
467.69	9217.03
467.87	9317.67
468.05	9467.47
468.23	9661.73
468.41	9525.98
468.60	9586.83
468.78	9675.77
468.96	9612.58
469.14	9551.73
469.32	9689.82
469.50	9633.64
469.69	9837.27
469.87	9745.99
470.05	9734.29
470.23	9853.66
470.41	9893.44
470.59	10001.11
470.77	9912.17
470.95	9961.32
471.14	10094.73
471.32	10223.46
471.50	10373.25
471.68	10326.44
471.86	10473.90
472.04	10359.21
472.22	10431.77
472.40	10223.46
472.58	10431.77
472.77	10370.91
472.95	10649.44
473.13	10850.72
473.31	10242.18
473.49	10558.16
473.67	10703.27
473.85	10670.50
474.03	11016.90
474.21	10960.73
474.39	11082.44
474.57	11005.20
474.75	11314.15
474.93	11269.68
475.12	11463.94
475.30	11351.60
475.48	11028.60
475.66	11433.52
475.84	11396.07
476.02	11419.47
476.20	11616.08
476.38	11894.60
476.56	12051.42
476.74	12107.59
476.92	11775.24
477.10	11833.75
477.28	12212.92
477.46	11850.13
477.64	12320.58
477.82	12594.42
478.00	12592.08
478.18	12461.01
478.36	12762.94
478.54	12826.14
478.72	12884.65
478.90	13027.42
479.08	12863.58
479.26	13132.75
479.44	13603.19
479.62	13291.90
479.80	13432.33
479.98	13680.43
480.16	13865.33
480.34	13809.16
480.52	13989.38
480.70	13975.34
480.88	13678.09
481.06	14033.85
481.24	14176.62
481.41	14185.99
481.59	14431.74
481.77	14597.92
481.95	14555.79
482.13	14623.67
482.31	14476.21
482.49	15059.01
482.67	15122.20
482.85	15021.56
483.03	15349.23
483.21	15492.01
483.39	15620.74
483.57	15726.06
483.74	15503.71
483.92	15686.27
484.10	15550.52
484.28	15974.16
484.46	16238.64
484.64	16615.46
484.82	16341.62
485.00	16489.07
485.18	16615.46
485.35	16744.19
485.53	16489.07
485.71	16173.10
485.89	16669.30
486.07	16582.70
486.25	16950.16
486.43	17071.87
486.61	17001.65
486.78	17350.39
486.96	17399.54
487.14	17771.69
487.32	17628.92
487.50	18218.73
487.68	18373.21
487.85	18204.69
488.03	18691.52
488.21	18700.88
488.39	18640.03
488.57	18735.99
488.75	19028.56
488.92	19241.54
489.10	19389.00
489.28	19735.40
489.46	19969.45
489.64	19962.43
489.81	20411.81
489.99	20175.42
490.17	20381.38
490.35	20486.71
490.53	20315.85
490.70	20608.42
490.88	20702.04
491.06	21153.76
491.24	21177.17
491.41	21113.97
491.59	21167.80
491.77	20783.96
491.95	21336.32
492.13	21373.77
492.30	21769.32
492.48	21727.19
492.66	21724.85
492.84	21858.26
493.01	22340.41
493.19	22256.15
493.37	22637.66
493.54	22705.54
493.72	22780.43
493.90	22953.63
494.08	22881.08
494.25	23183.01
494.43	23433.44
494.61	23470.89
494.79	23700.26
494.96	23775.16
495.14	23613.66
495.32	23608.98
495.49	23695.58
495.67	24051.34
495.85	24149.65
496.02	24521.79
496.20	24386.04
496.38	24299.44
496.55	24762.87
496.73	25387.79
496.91	24919.68
497.09	25298.85
497.26	25324.60
497.44	25273.10
497.62	25420.56
497.79	25493.12
497.97	25331.62
498.14	26075.91
498.32	26045.48
498.50	25891.01
498.67	26492.52
498.85	26384.86
499.03	26630.62
499.20	26394.22
499.38	26368.48
499.56	26246.77
499.73	26616.57
499.91	26829.56
500.08	26455.08
500.26	26389.54
500.44	26525.29
500.61	26719.56
500.79	26747.64
500.97	26813.18
501.14	27370.22
501.32	27431.08
501.49	27290.65
501.67	27082.34
501.84	27505.98
502.02	27576.19
502.20	27618.32
502.37	28063.02
502.55	27917.91
502.72	28126.22
502.90	27995.15
503.07	28280.69
503.25	28343.89
503.43	28194.09
503.60	28311.12
503.78	28098.13
503.95	28121.54
504.13	28739.44
504.30	29113.92
504.48	28545.17
504.65	29268.40
504.83	28996.90
505.01	29460.32
505.18	29495.43
505.36	29720.12
505.53	29462.66
505.71	30000.99
505.88	29462.66
506.06	29514.16
506.23	30047.80
506.41	29928.43
506.58	29851.19
506.76	30012.69
506.93	30326.32
507.11	30040.78
507.28	30087.59
507.46	30443.35
507.63	30487.82
507.81	30445.69
507.98	30492.50
508.16	30520.59
508.33	30841.24
508.50	30984.01
508.68	31061.25
508.85	31796.18
509.03	31061.25
509.20	30976.99
509.38	31599.57
509.55	31295.30
509.73	31456.80
509.90	31779.79
510.08	31693.19
510.25	31824.26
510.42	31817.24
510.60	31676.81
510.77	31866.39
510.95	32556.85
511.12	31995.12
511.30	32023.21
511.47	32671.54
511.64	32917.29
511.82	32388.33
511.99	32212.79
512.17	32446.85
512.34	32844.74
512.51	32868.14
512.69	32886.87
512.86	32613.02
513.04	33186.46
513.21	32987.51
513.38	33085.81
513.56	32671.54
513.73	32760.48
513.90	33366.68
514.08	33305.82
514.25	33563.28
514.43	33113.90
514.60	33579.67
514.77	33677.97
514.95	33858.19
515.12	33769.25
515.29	34043.09
515.47	34213.95
515.64	34270.12
515.81	34195.23
515.99	34033.73
516.16	33750.52
516.33	33708.40
516.51	33759.89
516.68	33626.48
516.85	33165.39
517.03	33504.77
517.20	34391.83
517.37	34403.53
517.54	34838.87
517.72	34316.93
517.89	34223.31
518.06	34169.48
518.24	34202.25
518.41	34698.44
518.58	34595.46
518.75	34796.74
518.93	35143.14
519.10	35213.36
519.27	35246.13
519.45	35241.45
519.62	35225.06
519.79	35400.60
519.96	35248.47
520.14	35840.62
520.31	35491.88
520.48	35679.13
520.65	35697.85
520.83	36025.53
521.00	36079.36
521.17	35831.26
521.34	36158.94
521.52	36608.32
521.69	36093.40
521.86	36559.17
522.03	36369.58
522.20	36573.21
522.38	36814.29
522.55	36755.77
522.72	36533.42
522.89	36608.32
523.07	36732.37
523.24	36605.98
523.41	37031.96
523.58	37001.53
523.75	37432.19
523.92	37350.27
524.10	37333.89
524.27	37401.76
524.44	37474.32
524.61	37635.81
524.78	37727.10
524.96	37670.92
525.13	37949.45
525.30	38064.13
525.47	37933.06
525.64	37818.38
525.81	38000.94
525.98	37708.37
526.16	37617.09
526.33	37256.65
526.50	37598.37
526.67	37280.05
526.84	37830.08
527.01	37567.94
527.18	37965.83
527.36	38373.08
527.53	38569.69
527.70	38684.37
527.87	38693.74
528.04	38307.55
528.21	38593.09
528.38	38506.49
528.55	39206.31
528.72	39147.80
528.89	39337.38
529.07	39044.82
529.24	38969.92
529.41	39154.82
529.58	38986.30
529.75	39108.01
529.92	39131.42
530.09	39356.11
530.26	39789.11
530.43	39257.81
530.60	39501.22
530.77	39269.51
530.94	39370.15
531.11	39374.83
531.28	40020.82
531.46	39885.07
531.63	39974.01
531.80	39442.71
531.97	39358.45
532.14	39686.12
532.31	39168.87
532.48	39356.11
532.65	39716.55
532.82	39997.41
532.99	39744.64
533.16	40285.30
533.33	39976.35
533.50	40465.52
533.67	40179.98
533.84	39922.52
534.01	40329.77
534.18	40367.22
534.35	40390.62
534.52	40638.72
534.69	40526.38
534.86	40840.01
535.03	40884.48
535.20	40507.65
535.37	41074.06
535.54	41134.92
535.71	40748.73
535.88	40980.44
536.05	41006.19
536.22	41312.80
536.38	40942.99
536.55	40797.88
536.72	40727.66
536.89	40889.16
537.06	41137.26
537.23	41404.08
537.40	41235.56
537.57	41354.93
537.74	41240.24
537.91	41504.72
538.08	41546.85
538.25	41048.32
538.42	41596.00
538.59	41823.03
538.75	41422.80
538.92	41429.82
539.09	42005.59
539.26	41853.46
539.43	41612.38
539.60	41275.35
539.77	41467.27
539.94	41684.94
540.11	41495.36
540.28	41844.10
540.44	41858.14
540.61	41436.84
540.78	41607.70
540.95	41588.98
541.12	41921.34
541.29	41773.88
541.46	41848.78
541.62	41806.65
541.79	42309.86
541.96	41839.42
542.13	42277.10
542.30	42155.39
542.47	42330.93
542.63	42143.69
542.80	42426.89
542.97	42520.51
543.14	42824.78
543.31	43002.66
543.48	42597.75
543.64	43248.42
543.81	43306.93
543.98	43157.14
544.15	43180.54
544.32	43580.78
544.48	43416.94
544.65	43171.18
544.82	43299.91
544.99	42845.85
545.16	42883.30
545.32	42967.55
545.49	43585.46
545.66	43426.30
545.83	43672.06
546.00	43723.55
546.16	43672.06
546.33	43290.55
546.50	43611.20
546.67	43669.72
546.83	43084.58
547.00	43693.12
547.17	43285.87
547.34	43185.22
547.50	43845.26
547.67	43676.74
547.84	43784.40
548.00	43910.79
548.17	44154.21
548.34	43964.62
548.51	44208.04
548.67	44095.69
548.84	43826.53
549.01	43882.70
549.18	43753.97
549.34	43873.34
549.51	44086.33
549.68	44470.18
549.84	44320.38
550.01	44217.40
550.18	44079.31
550.34	44404.64
550.51	44044.20
550.68	43887.39
550.84	44030.16
551.01	44205.70
551.18	44568.48
551.34	44451.45
551.51	44451.45
551.68	44900.84
551.84	45130.21
552.01	44673.81
552.18	44556.78
552.34	43667.37
552.51	44554.44
552.68	44509.97
552.84	44587.21
553.01	44837.64
553.18	44762.75
553.34	44406.98
553.51	44744.02
553.67	44837.64
553.84	45825.35
554.01	45106.80
554.17	44676.15
554.34	45254.26
554.51	45263.62
554.67	44856.37
554.84	45184.04
555.00	45062.33
555.17	44563.80
555.33	44701.89
555.50	45067.02
555.67	44807.22
555.83	45198.09
556.00	44699.55
556.16	45401.71
556.33	44868.07
556.50	44734.66
556.66	45429.80
556.83	44739.34
556.99	45317.45
557.16	45560.87
557.32	45371.28
557.49	45329.16
557.65	45331.50
557.82	44793.17
557.98	45551.51
558.15	45743.43
558.32	45116.17
558.48	45195.74
558.65	45090.42
558.81	45584.27
558.98	45198.09
559.14	45523.42
559.31	45270.64
559.47	45661.51
559.64	45532.78
559.80	45382.99
559.97	45364.26
560.13	45258.94
560.30	45577.25
560.46	45881.52
560.63	45968.12
560.79	45652.15
560.96	45577.25
561.12	45345.54
561.29	45673.21
561.45	45654.49
561.61	45530.44
561.78	45294.05
561.94	45457.88
562.11	45605.34
562.27	45462.57
562.44	45710.66
562.60	45914.29
562.77	46195.15
562.93	45511.72
563.10	46064.08
563.26	45343.20
563.42	46096.85
563.59	45406.39
563.75	45872.16
563.92	46476.02
564.08	45918.97
564.24	46087.49
564.41	46052.38
564.57	45942.38
564.74	45518.74
564.90	45865.14
565.07	45937.69
565.23	45956.42
565.39	45446.18
565.56	45752.79
565.72	45736.41
565.88	45705.98
566.05	46188.13
566.21	45708.32
566.38	45713.00
566.54	46017.27
566.70	46120.26
566.87	46089.83
567.03	45553.85
567.19	46543.89
567.36	46586.02
567.52	46054.72
567.68	46403.46
567.85	45916.63
568.01	46143.66
568.17	45923.65
568.34	46438.57
568.50	46167.07
568.66	45830.03
568.83	46220.90
568.99	45787.90
569.15	46014.93
569.32	45916.63
569.48	45979.82
569.64	46483.04
569.81	45780.88
569.97	45993.87
570.13	45794.92
570.30	45890.88
570.46	45696.62
570.62	46026.63
570.78	45907.27
570.95	46211.54
571.11	46408.14
571.27	45771.52
571.43	45633.42
571.60	46253.67
571.76	46342.61
571.92	45984.51
572.09	46106.21
572.25	46157.70
572.41	46169.41
572.57	46382.40
572.74	46735.82
572.90	45991.53
573.06	46571.98
573.22	46108.55
573.38	46183.45
573.55	45624.06
573.71	46471.34
573.87	46555.60
574.03	46167.07
574.20	46457.29
574.36	46464.32
574.52	46323.88
574.68	46075.79
574.84	46131.96
575.01	45855.78
575.17	46181.11
575.33	45759.81
575.49	45989.19
575.65	46586.02
575.82	46246.65
575.98	46134.30
576.14	46480.70
576.30	46770.93
576.46	46110.89
576.62	46136.64
576.79	46115.58
576.95	46082.81
577.11	46071.10
577.27	46337.93
577.43	46433.89
577.59	46312.18
577.75	45972.80
577.92	45940.04
578.08	46157.70
578.24	45652.15
578.40	45918.97
578.56	46288.77
578.72	46181.11
578.88	46391.76
579.04	46738.16
579.21	46192.81
579.37	46117.92
579.53	46387.08
579.69	46403.46
579.85	45921.31
580.01	46122.60
580.17	46333.24
580.33	46263.03
580.49	46014.93
580.65	46677.30
580.82	46059.40
580.98	46157.70
581.14	46354.31
581.30	46387.08
581.46	46581.34
581.62	46316.86
581.78	46394.10
581.94	46536.87
582.10	46253.67
582.26	46492.40
582.42	46281.75
582.58	46143.66
582.74	46469.00
582.90	46050.04
583.06	46789.65
583.22	46349.63
583.38	46892.63
583.54	46553.26
583.70	46632.83
583.86	46712.41
584.02	46469.00
584.18	46461.97
584.34	46450.27
584.50	46387.08
584.66	46284.09
584.82	46005.57
584.98	46768.58
585.14	46508.79
585.30	46155.36
585.46	46256.01
585.62	46141.32
585.78	46099.19
585.94	45830.03
586.10	46639.86
586.26	46094.51
586.42	46373.03
586.58	46768.58
586.74	46553.26
586.90	46501.76
587.06	46508.79
587.22	46546.23
587.38	46691.35
587.54	46319.20
587.70	46237.28
587.86	46316.86
588.02	46403.46
588.18	46979.23
588.34	46124.94
588.49	45743.43
588.65	45801.94
588.81	46085.15
588.97	45682.58
589.13	45364.26
589.29	46178.77
589.45	46679.64
589.61	46244.30
589.77	46904.34
589.93	46532.19
