SpectraSuite Data File
++++++++++++++++++++++++++++++++++++
Date: Fri Oct 25 11:33:53 EDT 2013
User: price-jones
Dark Spectrum Present: No
Reference Spectrum Present: No
Number of Sampled Component Spectra: 1
Spectrometers: USB2+H05261
Integration Time (usec): 100000 (USB2+H05261)
Spectra Averaged: 1 (USB2+H05261)
Boxcar Smoothing: 0 (USB2+H05261)
Correct for Electrical Dark: No (USB2+H05261)
Strobe/Lamp Enabled: No (USB2+H05261)
Correct for Detector Non-linearity: No (USB2+H05261)
Correct for Stray Light: No (USB2+H05261)
Number of Pixels in Processed Spectrum: 2048
>>>>>Begin Processed Spectral Data<<<<<
365.73	346.40
365.92	346.40
366.12	346.40
366.32	203.63
366.52	177.88
366.72	128.73
366.91	203.63
367.11	191.92
367.31	168.52
367.51	117.03
367.70	177.88
367.90	191.92
368.10	149.79
368.30	208.31
368.49	215.33
368.69	152.13
368.89	180.22
369.09	187.24
369.28	205.97
369.48	168.52
369.68	259.80
369.87	210.65
370.07	205.97
370.27	217.67
370.47	330.02
370.66	514.92
370.86	510.24
371.06	517.26
371.25	514.92
371.45	564.07
371.65	528.96
371.84	543.00
372.04	550.03
372.24	573.43
372.44	601.52
372.63	571.09
372.83	582.79
373.03	613.22
373.22	699.82
373.42	638.97
373.62	589.82
373.81	650.67
374.01	627.26
374.21	645.99
374.40	629.60
374.60	671.73
374.79	645.99
374.99	704.50
375.19	676.41
375.38	615.56
375.58	660.03
375.78	641.31
375.97	594.50
376.17	711.52
376.37	697.48
376.56	681.10
376.76	692.80
376.95	669.39
377.15	702.16
377.35	709.18
377.54	699.82
377.74	727.91
377.93	711.52
378.13	660.03
378.33	702.16
378.52	655.35
378.72	631.94
378.91	723.23
379.11	716.20
379.31	774.72
379.50	699.82
379.70	699.82
379.89	718.54
380.09	751.31
380.28	660.03
380.48	753.65
380.68	723.23
380.87	730.25
381.07	753.65
381.26	826.21
381.46	753.65
381.65	704.50
381.85	725.57
382.04	805.14
382.24	847.27
382.43	781.74
382.63	774.72
382.83	763.01
383.02	723.23
383.22	826.21
383.41	753.65
383.61	809.83
383.80	819.19
384.00	732.59
384.19	833.23
384.39	798.12
384.58	767.70
384.78	795.78
384.97	882.38
385.17	835.57
385.36	851.96
385.56	957.28
385.75	826.21
385.95	830.89
386.14	964.30
386.34	837.91
386.53	880.04
386.72	791.10
386.92	884.72
387.11	856.64
387.31	847.27
387.50	856.64
387.70	894.08
387.89	882.38
388.09	847.27
388.28	917.49
388.48	870.68
388.67	1006.43
388.86	798.12
389.06	917.49
389.25	964.30
389.45	954.94
389.64	980.68
389.84	945.58
390.03	851.96
390.22	910.47
390.42	994.73
390.61	990.05
390.81	905.79
391.00	947.92
391.19	1015.79
391.39	922.17
391.58	992.39
391.78	1006.43
391.97	1069.62
392.16	1062.60
392.36	1041.54
392.55	1055.58
392.75	997.07
392.94	1078.99
393.13	1050.90
393.33	1111.75
393.52	1034.52
393.71	1060.26
393.91	1095.37
394.10	1104.73
394.29	1107.07
394.49	1109.41
394.68	1064.94
394.88	1130.48
395.07	1156.22
395.26	1181.97
395.46	1083.67
395.65	1160.91
395.84	1151.54
396.04	1198.35
396.23	1132.82
396.42	1231.12
396.62	1240.48
396.81	1212.40
397.00	1273.25
397.19	1165.59
397.39	1174.95
397.58	1240.48
397.77	1329.42
397.97	1313.04
398.16	1240.48
398.35	1254.53
398.55	1287.29
398.74	1266.23
398.93	1313.04
399.12	1282.61
399.32	1172.61
399.51	1287.29
399.70	1376.24
399.90	1284.95
400.09	1357.51
400.28	1460.49
400.47	1394.96
400.67	1451.13
400.86	1366.87
401.05	1383.26
401.24	1425.39
401.44	1401.98
401.63	1394.96
401.82	1437.09
402.01	1385.60
402.21	1540.07
402.40	1479.22
402.59	1481.56
402.78	1528.37
402.97	1476.88
403.17	1490.92
403.36	1486.24
403.55	1605.61
403.74	1544.75
403.93	1598.59
404.13	1591.56
404.32	1547.09
404.51	1610.29
404.70	1619.65
404.89	1582.20
405.09	1689.87
405.28	1624.33
405.47	1694.55
405.66	1804.55
405.85	1685.19
406.05	1727.32
406.24	1757.74
406.43	1813.92
406.62	1846.68
406.81	1760.08
407.00	1682.85
407.20	1617.31
407.39	1713.27
407.58	1818.60
407.77	1853.70
407.96	1998.82
408.15	1984.77
408.34	1844.34
408.54	1844.34
408.73	1837.32
408.92	1823.28
409.11	1952.01
409.30	1895.83
409.49	2008.18
409.68	1987.11
409.87	2017.54
410.07	2118.18
410.26	2139.25
410.45	2080.74
410.64	2029.24
410.83	2036.27
411.02	2066.69
411.21	2223.51
411.40	2139.25
411.59	2270.32
411.78	2160.31
411.98	2246.91
412.17	2286.70
412.36	2209.47
412.55	2225.85
412.74	2251.60
412.93	2239.89
413.12	2265.64
413.31	2429.48
413.50	2438.84
413.69	2368.62
413.88	2586.29
414.07	2492.67
414.26	2539.48
414.45	2502.03
414.64	2469.27
414.83	2511.39
415.02	2586.29
415.22	2616.72
415.41	2665.87
415.60	2614.38
415.79	2672.89
415.98	2651.83
416.17	2693.96
416.36	2766.51
416.55	2722.04
416.74	2801.62
416.93	2848.43
417.12	2855.45
417.31	2820.35
417.50	2899.92
417.69	2902.26
417.88	2944.39
418.07	2881.20
418.26	3091.85
418.45	2988.86
418.64	3075.46
418.83	2972.48
419.02	3021.63
419.21	3145.68
419.39	3033.33
419.58	3026.31
419.77	2974.82
419.96	3197.17
420.15	3096.53
420.34	3234.62
420.53	3117.59
420.72	3234.62
420.91	3281.43
421.10	3248.66
421.29	3337.60
421.48	3304.84
421.67	3262.71
421.86	3318.88
422.05	3332.92
422.24	3342.28
422.43	3417.18
422.61	3272.07
422.80	3501.44
422.99	3346.97
423.18	3485.06
423.37	3417.18
423.56	3325.90
423.75	3328.24
423.94	3300.16
424.13	3197.17
424.32	3253.34
424.50	3449.95
424.69	3473.36
424.88	3588.04
425.07	3396.12
425.26	3290.79
425.45	3410.16
425.64	3419.52
425.83	3325.90
426.01	3548.25
426.20	3323.56
426.39	3496.76
426.58	3414.84
426.77	3428.88
426.96	3595.06
427.15	3566.98
427.33	3653.58
427.52	3426.54
427.71	3515.48
427.90	3585.70
428.09	3632.51
428.28	3648.90
428.46	3716.77
428.65	3744.86
428.84	3712.09
429.03	3733.15
429.22	3676.98
429.40	3791.67
429.59	3777.62
429.78	3613.79
429.97	3625.49
430.16	3782.31
430.34	3726.13
430.53	3880.61
430.72	3798.69
430.91	3857.20
431.10	3936.78
431.28	4030.40
431.47	3985.93
431.66	3899.33
431.85	4032.74
432.03	4028.06
432.22	4058.49
432.41	4007.00
432.60	3943.80
432.79	4131.05
432.97	4002.32
433.16	4049.13
433.35	4102.96
433.54	4112.32
433.72	4107.64
433.91	4135.73
434.10	4180.20
434.28	4332.33
434.47	4257.43
434.66	4407.23
434.85	4337.01
435.03	4327.65
435.22	4294.88
435.41	4381.48
435.59	4428.29
435.78	4538.30
435.97	4451.70
436.16	4465.74
436.34	4440.00
436.53	4461.06
436.72	4554.68
436.90	4407.23
437.09	4498.51
437.28	4418.93
437.46	4507.87
437.65	4531.28
437.84	4692.77
438.02	4645.96
438.21	4561.70
438.40	4550.00
438.58	4770.01
438.77	4685.75
438.96	4699.80
439.14	4830.87
439.33	4884.70
439.52	4961.94
439.70	4791.08
439.89	5156.20
440.08	4917.47
440.26	4917.47
440.45	4877.68
440.63	5107.05
440.82	5160.88
441.01	5008.75
441.19	5081.30
441.38	5259.18
441.57	5284.93
441.75	5317.70
441.94	5460.47
442.12	5556.43
442.31	5423.02
442.50	5399.62
442.68	5212.37
442.87	5322.38
443.05	5497.92
443.24	5273.23
443.43	5734.31
443.61	5490.90
443.80	5713.25
443.98	5390.25
444.17	5205.35
444.35	5619.63
444.54	5687.50
444.73	5483.88
444.91	5579.84
445.10	5657.07
445.28	5699.20
445.47	5612.60
445.65	5703.89
445.84	5638.35
446.02	5762.40
446.21	5626.65
446.39	5659.42
446.58	5696.86
446.77	5799.85
446.95	5575.16
447.14	5652.39
447.32	5888.79
447.51	5767.08
447.69	5584.52
447.88	5593.88
448.06	5954.32
448.25	5724.95
448.43	5792.83
448.62	5799.85
448.80	5760.06
448.99	5804.53
449.17	5893.47
449.36	5797.51
449.54	6132.20
449.73	5928.58
449.91	6164.97
450.10	5998.79
450.28	6031.56
450.46	6171.99
450.65	6064.33
450.83	6197.74
451.02	6118.16
451.20	6314.77
451.39	6197.74
451.57	6113.48
451.76	5947.30
451.94	6246.89
452.13	6279.66
452.31	6349.87
452.49	6272.64
452.68	6321.79
452.86	6251.57
453.05	6422.43
453.23	6307.74
453.42	6352.21
453.60	6256.25
453.78	6368.60
453.97	6377.96
454.15	6228.17
454.34	6389.66
454.52	6338.17
454.70	6534.78
454.89	6516.05
455.07	6548.82
455.26	6616.69
455.44	6686.91
455.62	6717.34
455.81	6675.21
455.99	6579.25
456.17	6698.61
456.36	6715.00
456.54	6745.42
456.73	6904.58
456.91	7056.72
457.09	7049.69
457.28	6942.03
457.46	6995.86
457.64	7037.99
457.83	7012.24
458.01	6981.82
458.19	7129.27
458.38	6855.43
458.56	7281.41
458.74	7082.46
458.93	7066.08
459.11	7169.06
459.29	7047.35
459.48	7159.70
459.66	7323.54
459.84	7304.81
460.03	7407.80
460.21	7370.35
460.39	7368.01
460.57	7272.04
460.76	7449.93
460.94	7456.95
461.12	7492.05
461.31	7494.40
461.49	7463.97
461.67	7541.21
461.85	7461.63
462.04	7634.83
462.22	7997.61
462.40	7761.22
462.59	7765.90
462.77	7653.55
462.95	7686.32
463.13	7770.58
463.32	7676.96
463.50	7765.90
463.68	7805.69
463.86	7896.97
464.05	7838.45
464.23	7740.15
464.41	7859.52
464.59	7733.13
464.78	7997.61
464.96	8107.62
465.14	7885.26
465.32	7927.39
465.50	8156.77
465.69	8161.45
465.87	8088.89
466.05	8133.36
466.23	8283.16
466.41	8063.15
466.60	8365.07
466.78	8023.36
466.96	8105.28
467.14	8236.35
467.32	8381.46
467.51	8381.46
467.69	8222.30
467.87	8454.02
468.05	8393.16
468.23	8262.09
468.41	8446.99
468.60	8446.99
468.78	8671.68
468.96	8379.12
469.14	8287.84
469.32	8575.72
469.50	8191.88
469.69	8751.26
469.87	8688.07
470.05	8762.97
470.23	8664.66
470.41	8872.97
470.59	8798.07
470.77	8779.35
470.95	8819.14
471.14	9153.84
471.32	8657.64
471.50	8959.57
471.68	8940.85
471.86	9266.18
472.04	9097.66
472.22	9308.31
472.40	9071.92
472.58	9439.38
472.77	9305.97
472.95	9476.83
473.13	9547.05
473.31	9266.18
473.49	9305.97
473.67	9205.33
473.85	9261.50
474.03	9504.92
474.21	9783.44
474.39	9818.55
474.57	9741.31
474.75	9937.91
474.93	9837.27
475.12	9881.74
475.30	9928.55
475.48	9994.09
475.66	10129.84
475.84	10047.92
476.02	10174.31
476.20	10143.88
476.38	10293.68
476.56	10548.79
476.74	10670.50
476.92	10576.88
477.10	10448.15
477.28	10483.26
477.46	10656.46
477.64	10803.91
477.82	10970.09
478.00	11279.04
478.18	10839.02
478.36	11126.91
478.54	11199.46
478.72	11506.07
478.90	11372.66
479.08	11463.94
479.26	11616.08
479.44	11609.06
479.62	11817.36
479.80	11754.17
479.98	11690.98
480.16	12269.09
480.34	11983.54
480.52	12173.13
480.70	12325.26
480.88	11969.50
481.06	12575.70
481.24	12339.30
481.41	12622.51
481.59	12641.23
481.77	12760.60
481.95	12657.62
482.13	12816.77
482.31	12760.60
482.49	13172.54
482.67	12952.52
482.85	13369.14
483.03	13532.98
483.21	13757.67
483.39	13851.29
483.57	13638.30
483.74	13862.99
483.92	13963.64
484.10	13741.29
484.28	14223.44
484.46	14153.22
484.64	14590.90
484.82	14668.14
485.00	14670.48
485.18	14703.25
485.35	14974.75
485.53	14951.34
485.71	15410.09
485.89	15396.04
486.07	15054.33
486.25	15470.94
486.43	15641.80
486.61	15733.08
486.78	15885.22
486.96	15496.69
487.14	15969.48
487.32	16121.61
487.50	16320.56
487.68	16255.02
487.85	16287.79
488.03	16599.08
488.21	16748.87
488.39	17114.00
488.57	17111.66
488.75	17104.64
488.92	17266.13
489.10	17413.59
489.28	17413.59
489.46	17617.21
489.64	17633.60
489.81	18214.05
489.99	18298.31
490.17	17933.18
490.35	18256.18
490.53	18452.78
490.70	18686.84
490.88	18593.22
491.06	18625.98
491.24	18635.35
491.41	19049.62
491.59	19112.81
491.77	19274.31
491.95	19112.81
492.13	19466.24
492.30	19590.28
492.48	19735.40
492.66	19772.85
492.84	19805.61
493.01	20086.48
493.19	20159.03
493.37	20262.02
493.54	20095.84
493.72	20428.20
493.90	20379.04
494.08	20781.62
494.25	20786.30
494.43	21013.33
494.61	20905.66
494.79	20940.77
494.96	20922.05
495.14	21296.53
495.32	21579.74
495.49	21685.06
495.67	21839.54
495.85	21783.37
496.02	21977.63
496.20	21914.44
496.38	22232.75
496.55	22122.74
496.73	22745.33
496.91	22499.57
497.09	22677.45
497.26	22836.61
497.44	22728.94
497.62	23002.78
497.79	23159.60
497.97	23012.15
498.14	23339.82
498.32	23906.23
498.50	23484.94
498.67	23714.31
498.85	23473.23
499.03	23915.59
499.20	24130.92
499.38	24025.60
499.56	24435.19
499.73	24187.10
499.91	24514.77
500.08	24531.15
500.26	24449.24
500.44	24610.73
500.61	24828.40
500.79	24374.34
500.97	24891.60
501.14	25195.87
501.32	25113.95
501.49	25041.39
501.67	25422.90
501.84	25149.06
502.02	25406.52
502.20	25837.17
502.37	25350.34
502.55	25614.82
502.72	25652.27
502.90	25544.61
503.07	25598.44
503.25	25841.85
503.43	25914.41
503.60	26118.04
503.78	26331.03
503.95	26171.87
504.13	26370.82
504.30	26469.12
504.48	26190.59
504.65	26749.98
504.83	27021.48
505.01	26951.27
505.18	27000.42
505.36	27087.02
505.53	26850.63
505.71	27608.96
505.88	27475.55
506.06	27222.77
506.23	27936.63
506.41	27405.33
506.58	27859.40
506.76	27845.35
506.93	28091.11
507.11	27875.78
507.28	28084.09
507.46	27978.76
507.63	28023.23
507.81	28268.99
507.98	28367.29
508.16	28498.36
508.33	28407.08
508.50	28065.36
508.68	28662.20
508.85	29062.43
509.03	28732.42
509.20	28788.59
509.38	28505.38
509.55	28884.55
509.73	29137.33
509.90	29099.88
510.08	29450.96
510.25	29287.12
510.42	29202.86
510.60	29663.95
510.77	29844.17
510.95	29848.85
511.12	29790.34
511.30	30331.00
511.47	29867.58
511.64	29919.07
511.82	30338.02
511.99	30333.34
512.17	30490.16
512.34	30389.52
512.51	30396.54
512.69	30691.44
512.86	30457.39
513.04	30897.41
513.21	31037.84
513.38	31084.65
513.56	30888.05
513.73	30920.82
513.90	30888.05
514.08	31049.55
514.25	31012.10
514.43	31314.03
514.60	31590.21
514.77	31283.60
514.95	31384.24
515.12	31264.88
515.29	31903.84
515.47	31740.00
515.64	31938.95
515.81	31992.78
515.99	32034.91
516.16	32292.37
516.33	32369.61
516.51	32367.27
516.68	32175.34
516.85	32346.20
517.03	32526.42
517.20	32517.06
517.37	32748.78
517.54	32339.18
517.72	32566.21
517.89	32835.38
518.06	32861.12
518.24	32690.26
518.41	32701.96
518.58	33146.67
518.75	32746.44
518.93	33127.94
519.10	33235.61
519.27	33535.20
519.45	33371.36
519.62	33434.55
519.79	33528.17
519.96	33535.20
520.14	33294.12
520.31	33720.10
520.48	33701.37
520.65	33713.08
520.83	34309.91
521.00	34319.28
521.17	33916.70
521.34	34263.10
521.52	34314.59
521.69	34522.90
521.86	34668.02
522.03	34815.47
522.20	34665.67
522.38	34897.39
522.55	34848.24
522.72	34689.08
522.89	34925.47
523.07	35206.34
523.24	34759.30
523.41	35091.65
523.58	35063.57
523.75	35419.33
523.92	34934.84
524.10	35672.10
524.27	35435.71
524.44	35646.36
524.61	35695.51
524.78	36041.91
524.96	36016.16
525.13	35578.48
525.30	36006.80
525.47	35763.39
525.64	36322.77
525.81	36205.75
525.98	36177.66
526.16	35880.41
526.33	35641.68
526.50	36259.58
526.67	36219.79
526.84	36470.23
527.01	36343.84
527.18	36503.00
527.36	36205.75
527.53	37062.38
527.70	36985.15
527.87	37027.28
528.04	36844.71
528.21	36823.65
528.38	36704.28
528.55	36858.76
528.72	37022.59
528.89	36870.46
529.07	36697.26
529.24	36802.58
529.41	37427.51
529.58	37095.15
529.75	37347.93
529.92	37462.61
530.09	37223.88
530.26	37488.36
530.43	37308.14
530.60	37191.11
530.77	37125.58
530.94	37654.54
531.11	37844.12
531.28	37591.34
531.46	37937.74
531.63	37748.16
531.80	37886.25
531.97	38014.98
532.14	38064.13
532.31	38134.35
532.48	38572.03
532.65	38787.36
532.82	38103.92
532.99	38398.83
533.16	37909.66
533.33	38665.65
533.50	38424.57
533.67	38789.70
533.84	38239.67
534.01	38616.50
534.18	38181.16
534.35	39126.74
534.52	39005.03
534.69	38712.46
534.86	39091.63
535.03	38667.99
535.20	39299.94
535.37	38948.85
535.54	39356.11
535.71	39248.44
535.88	39594.84
536.05	39246.10
536.22	39672.08
536.38	39531.65
536.55	39445.05
536.72	39222.70
536.89	39421.64
537.06	39786.77
537.23	39908.47
537.40	39562.08
537.57	39358.45
537.74	39868.69
537.91	40044.23
538.08	40137.85
538.25	39746.98
538.42	40327.43
538.59	40215.08
538.75	40039.54
538.92	40023.16
539.09	40355.52
539.26	40004.44
539.43	40156.57
539.60	40051.25
539.77	40432.75
539.94	40287.64
540.11	40502.97
540.28	40699.58
540.44	40919.59
540.61	40554.46
540.78	40437.44
540.95	40540.42
541.12	40498.29
541.29	40620.00
541.46	40910.22
541.62	40720.64
541.79	41448.55
541.96	40467.86
542.13	40870.43
542.30	41242.58
542.47	41134.92
542.63	41076.40
542.80	41099.81
542.97	42089.85
543.14	41603.02
543.31	41425.14
543.48	41523.44
543.64	42120.28
543.81	42014.96
543.98	42043.04
544.15	41411.10
544.32	41916.65
544.48	42202.20
544.65	41874.52
544.82	42085.17
544.99	42199.86
545.16	42162.41
545.32	41411.10
545.49	42373.06
545.66	42323.91
545.83	42583.71
546.00	42768.61
546.16	42464.34
546.33	42047.72
546.50	41731.75
546.67	42983.94
546.83	41961.12
547.00	42511.15
547.17	42337.95
547.34	42541.58
547.50	42600.09
547.67	42583.71
547.84	42710.10
548.00	42679.67
548.17	42920.74
548.34	42735.84
548.51	43115.01
548.67	42960.53
548.84	42815.42
549.01	42911.38
549.18	43075.22
549.34	43154.80
549.51	43208.63
549.68	43136.07
549.84	43002.66
550.01	43496.52
550.18	42869.25
550.34	43351.40
550.51	43491.83
550.68	43377.15
550.84	43522.26
551.01	43569.07
551.18	43714.19
551.34	43325.66
551.51	43798.44
551.68	43676.74
551.84	43622.90
552.01	43367.79
552.18	43353.74
552.34	43763.34
552.51	43433.32
552.68	43302.25
552.84	43896.75
553.01	44013.77
553.18	43878.02
553.34	43985.69
553.51	43892.07
553.67	44067.61
553.84	43578.43
554.01	44336.77
554.17	44224.42
554.34	44671.46
554.51	44069.95
554.67	44598.91
554.84	44322.72
555.00	44622.31
555.17	44135.48
555.33	44683.17
555.50	44133.14
555.67	44542.74
555.83	44236.12
556.00	44348.47
556.16	45155.96
556.33	44591.89
556.50	44708.91
556.66	44718.28
556.83	44397.62
556.99	45123.19
557.16	44884.45
557.32	44638.70
557.49	45230.85
557.65	44655.08
557.82	44788.49
557.98	44507.63
558.15	44949.99
558.32	44994.46
558.48	44837.64
558.65	44645.72
558.81	45017.86
558.98	45003.82
559.14	45015.52
559.31	44479.54
559.47	45214.47
559.64	45165.32
559.80	44954.67
559.97	45057.65
560.13	45038.93
560.30	45352.56
560.46	45525.76
560.63	45392.35
560.79	45394.69
560.96	45474.27
561.12	45322.13
561.29	45574.91
561.45	45476.61
561.61	45235.53
561.78	45490.65
561.94	45436.82
562.11	45270.64
562.27	45645.13
562.44	45284.68
562.60	45713.00
562.77	45567.89
562.93	45308.09
563.10	45764.49
563.26	45258.94
563.42	46127.28
563.59	45586.61
563.75	45603.00
563.92	45918.97
564.08	45748.11
564.24	45975.14
564.41	45408.73
564.57	45846.41
564.74	46028.98
564.90	45764.49
565.07	45720.02
565.23	45584.27
565.39	45951.74
565.56	45914.29
565.72	46061.74
565.88	45738.75
566.05	45780.88
566.21	45963.44
566.38	46146.00
566.54	45516.40
566.70	46138.98
566.87	46141.32
567.03	45277.66
567.19	46174.09
567.36	46260.69
567.52	46061.74
567.68	46443.25
567.85	45820.67
568.01	46532.19
568.17	45933.01
568.34	46232.60
568.50	46258.35
568.66	46239.62
568.83	46230.26
568.99	46712.41
569.15	46122.60
569.32	46394.10
569.48	46466.66
569.64	46564.96
569.81	46171.75
569.97	46202.18
570.13	46375.37
570.30	46340.27
570.46	46557.94
570.62	46415.16
570.78	46045.36
570.95	46272.39
571.11	46724.11
571.27	46188.13
571.43	46401.12
571.60	46600.07
571.76	45991.53
571.92	46073.45
572.09	46391.76
572.25	46134.30
572.41	46223.24
572.57	46520.49
572.74	46721.77
572.90	46440.91
573.06	46777.95
573.22	46656.24
573.38	46948.81
573.55	46838.80
573.71	47014.34
573.87	46784.97
574.03	46815.40
574.20	47124.35
574.36	46932.42
574.52	47093.92
574.68	46543.89
574.84	46880.93
575.01	46827.10
575.17	46862.21
575.33	46988.60
575.49	46387.08
575.65	46621.13
575.82	46969.87
575.98	46735.82
576.14	47292.86
576.30	47189.88
576.46	46567.30
576.62	46892.63
576.79	46681.98
576.95	46494.74
577.11	46696.03
577.27	46602.41
577.43	46244.30
577.59	46857.52
577.75	46667.94
577.92	46454.95
578.08	46637.51
578.24	47058.81
578.40	46852.84
578.56	47016.68
578.72	47210.95
578.88	46789.65
579.04	46925.40
579.21	47271.80
579.37	47028.38
579.53	47077.54
579.69	46457.29
579.85	46749.86
580.01	46845.82
580.17	46689.01
580.33	46852.84
580.49	46878.59
580.65	46885.61
580.82	47435.64
580.98	46485.38
581.14	46438.57
581.30	46707.73
581.46	46981.57
581.62	47044.77
581.78	46658.58
581.94	47185.20
582.10	46944.12
582.26	47089.24
582.42	47241.37
582.58	47222.65
582.74	46920.72
582.90	46770.93
583.06	46962.85
583.22	46902.00
583.38	46993.28
583.54	47271.80
583.70	47562.03
583.86	47180.52
584.02	46836.46
584.18	47241.37
584.34	47505.85
584.50	47213.29
584.66	47122.01
584.82	47159.45
584.98	47674.37
585.14	47201.58
585.30	47110.30
585.46	47030.72
585.62	46677.30
585.78	47374.78
585.94	46773.27
586.10	46885.61
586.26	47049.45
586.42	47068.17
586.58	47154.77
586.74	47171.16
586.90	47423.93
587.06	47103.28
587.22	47143.07
587.38	47164.14
587.54	47309.25
587.70	47299.89
587.86	46909.02
588.02	47255.42
588.18	47313.93
588.34	47138.39
588.49	47192.22
588.65	47077.54
588.81	47096.26
588.97	47044.77
589.13	47327.97
589.29	47370.10
589.45	47789.06
589.61	47613.52
589.77	47320.95
589.93	47091.58
590.08	47510.53
