SpectraSuite Data File
++++++++++++++++++++++++++++++++++++
Date: Fri Oct 25 11:24:06 EDT 2013
User: price-jones
Dark Spectrum Present: No
Reference Spectrum Present: No
Number of Sampled Component Spectra: 1
Spectrometers: USB2+H05261
Integration Time (usec): 100000 (USB2+H05261)
Spectra Averaged: 1 (USB2+H05261)
Boxcar Smoothing: 0 (USB2+H05261)
Correct for Electrical Dark: No (USB2+H05261)
Strobe/Lamp Enabled: No (USB2+H05261)
Correct for Detector Non-linearity: No (USB2+H05261)
Correct for Stray Light: No (USB2+H05261)
Number of Pixels in Processed Spectrum: 2048
>>>>>Begin Processed Spectral Data<<<<<
365.73	250.44
365.92	250.44
366.12	250.44
366.32	152.13
366.52	124.05
366.72	210.65
366.91	128.73
367.11	159.16
367.31	149.79
367.51	119.37
367.70	147.45
367.90	187.24
368.10	95.96
368.30	163.84
368.49	140.43
368.69	131.07
368.89	131.07
369.09	142.77
369.28	131.07
369.48	170.86
369.68	168.52
369.87	201.29
370.07	224.69
370.27	259.80
370.47	259.80
370.66	620.24
370.86	610.88
371.06	610.88
371.25	664.71
371.45	638.97
371.65	648.33
371.84	638.97
372.04	650.67
372.24	699.82
372.44	643.65
372.63	788.76
372.83	688.12
373.03	837.91
373.22	727.91
373.42	657.69
373.62	784.08
373.81	821.53
374.01	770.04
374.21	826.21
374.40	683.44
374.60	903.45
374.79	873.02
374.99	826.21
375.19	849.61
375.38	858.98
375.58	823.87
375.78	828.55
375.97	905.79
376.17	919.83
376.37	842.59
376.56	901.11
376.76	910.47
376.95	828.55
377.15	933.87
377.35	849.61
377.54	842.59
377.74	938.55
377.93	924.51
378.13	933.87
378.33	936.21
378.52	922.17
378.72	938.55
378.91	901.11
379.11	954.94
379.31	943.24
379.50	1025.15
379.70	994.73
379.89	1008.77
380.09	926.85
380.28	971.32
380.48	924.51
380.68	990.05
380.87	1020.47
381.07	999.41
381.26	1050.90
381.46	901.11
381.65	1104.73
381.85	1029.84
382.04	1041.54
382.24	1163.25
382.43	1121.12
382.63	1025.15
382.83	1111.75
383.02	1116.44
383.22	1067.28
383.41	1050.90
383.61	1107.07
383.80	1064.94
384.00	1125.80
384.19	1121.12
384.39	1102.39
384.58	1214.74
384.78	1219.42
384.97	1139.84
385.17	1174.95
385.36	1118.78
385.56	1219.42
385.75	1226.44
385.95	1228.78
386.14	1132.82
386.34	1221.76
386.53	1153.88
386.72	1252.19
386.92	1282.61
387.11	1144.52
387.31	1231.12
387.50	1235.80
387.70	1228.78
387.89	1301.34
388.09	1341.13
388.28	1247.51
388.48	1242.82
388.67	1310.70
388.86	1315.38
389.06	1242.82
389.25	1334.11
389.45	1362.19
389.64	1313.04
389.84	1432.41
390.03	1364.53
390.22	1383.26
390.42	1413.68
390.61	1373.89
390.81	1315.38
391.00	1441.77
391.19	1444.11
391.39	1483.90
391.58	1516.67
391.78	1406.66
391.97	1437.09
392.16	1418.36
392.36	1476.88
392.55	1507.30
392.75	1563.48
392.94	1479.22
393.13	1572.84
393.33	1561.14
393.52	1530.71
393.71	1521.35
393.91	1511.99
394.10	1547.09
394.29	1643.06
394.49	1645.40
394.68	1671.14
394.88	1636.03
395.07	1614.97
395.26	1657.10
395.46	1631.35
395.65	1687.53
395.84	1636.03
396.04	1778.81
396.23	1685.19
396.42	1666.46
396.62	1764.76
396.81	1842.00
397.00	1818.60
397.19	1813.92
397.39	1879.45
397.58	1727.32
397.77	1802.21
397.97	1797.53
398.16	1888.81
398.35	1804.55
398.55	1806.89
398.74	1872.43
398.93	1827.96
399.12	1961.37
399.32	1839.66
399.51	1989.46
399.70	1984.77
399.90	1914.56
400.09	2038.61
400.28	2122.87
400.47	2190.74
400.67	1952.01
400.86	2031.58
401.05	2029.24
401.24	2019.88
401.44	2132.23
401.63	2141.59
401.82	2293.72
402.01	2125.21
402.21	2209.47
402.40	2223.51
402.59	2179.04
402.78	2195.42
402.97	2312.45
403.17	2260.96
403.36	2249.25
403.55	2251.60
403.74	2459.90
403.93	2380.32
404.13	2410.75
404.32	2420.11
404.51	2361.60
404.70	2352.24
404.89	2394.37
405.09	2438.84
405.28	2452.88
405.47	2490.33
405.66	2539.48
405.85	2513.74
406.05	2532.46
406.24	2471.61
406.43	2640.12
406.62	2602.68
406.81	2785.24
407.00	2672.89
407.20	2635.44
407.39	2630.76
407.58	2745.45
407.77	2668.21
407.96	2766.51
408.15	2778.22
408.34	2789.92
408.54	2799.28
408.73	2677.57
408.92	2953.76
409.11	2885.88
409.30	2904.60
409.49	2977.16
409.68	2974.82
409.87	2949.08
410.07	2923.33
410.26	3000.57
410.45	3047.38
410.64	3045.04
410.83	3208.87
411.02	3173.77
411.21	3204.19
411.40	3150.36
411.59	3215.90
411.78	3272.07
411.98	3222.92
412.17	3356.33
412.36	3363.35
412.55	3370.37
412.74	3428.88
412.93	3447.61
413.12	3405.48
413.31	3438.25
413.50	3410.16
413.69	3487.40
413.88	3648.90
414.07	3618.47
414.26	3543.57
414.45	3728.47
414.64	3761.24
414.83	3801.03
415.02	3726.13
415.22	3782.31
415.41	3847.84
415.60	3857.20
415.79	3995.29
415.98	4039.76
416.17	3964.87
416.36	4016.36
416.55	4124.02
416.74	4112.32
416.93	3978.91
417.12	4014.02
417.31	4224.67
417.50	4140.41
417.69	4409.57
417.88	4227.01
418.07	4236.37
418.26	4283.18
418.45	4315.95
418.64	4552.34
418.83	4301.90
419.02	4397.87
419.21	4535.96
419.39	4578.09
419.58	4519.57
419.77	4535.96
419.96	4519.57
420.15	4645.96
420.34	4444.68
420.53	4650.64
420.72	4690.43
420.91	4826.18
421.10	4770.01
421.29	4882.36
421.48	4629.58
421.67	4816.82
421.86	4833.21
422.05	4809.80
422.24	4781.71
422.43	4760.65
422.61	5018.11
422.80	5046.20
422.99	4926.83
423.18	4929.17
423.37	4882.36
423.56	5004.07
423.75	4936.19
423.94	4877.68
424.13	4519.57
424.32	4685.75
424.50	5013.43
424.69	5123.43
424.88	5184.29
425.07	5088.32
425.26	4938.53
425.45	5011.09
425.64	5156.20
425.83	4880.02
426.01	5118.75
426.20	5123.43
426.39	5116.41
426.58	5093.01
426.77	5067.26
426.96	5177.26
427.15	5041.51
427.33	5404.30
427.52	5116.41
427.71	5263.86
427.90	5174.92
428.09	5366.85
428.28	5584.52
428.46	5348.12
428.65	5331.74
428.84	5544.73
429.03	5446.43
429.22	5301.31
429.40	5448.77
429.59	5413.66
429.78	5291.95
429.97	5329.40
430.16	5486.22
430.34	5748.36
430.53	5713.25
430.72	5774.10
430.91	5577.50
431.10	5577.50
431.28	5797.51
431.47	5738.99
431.66	5820.91
431.85	5802.19
432.03	5877.09
432.22	6069.01
432.41	5970.71
432.60	6024.54
432.79	5951.98
432.97	5975.39
433.16	6066.67
433.35	6029.22
433.54	6253.91
433.72	6071.35
433.91	6253.91
434.10	6076.03
434.28	6293.70
434.47	6094.76
434.66	6139.23
434.85	6223.48
435.03	6389.66
435.22	6370.94
435.41	6560.52
435.59	6328.81
435.78	6516.05
435.97	6520.73
436.16	6441.15
436.34	6417.75
436.53	6373.28
436.72	6644.78
436.90	6555.84
437.09	6658.82
437.28	6408.39
437.46	6715.00
437.65	6738.40
437.84	6848.41
438.02	6670.53
438.21	6754.79
438.40	6766.49
438.58	6939.69
438.77	7012.24
438.96	6909.26
439.14	7059.06
439.33	7164.38
439.52	7239.28
439.70	7286.09
439.89	7456.95
440.08	7382.05
440.26	7269.70
440.45	7414.82
440.63	7604.40
440.82	7716.75
441.01	7503.76
441.19	7630.15
441.38	7801.01
441.57	7669.94
441.75	7779.94
441.94	7903.99
442.12	7957.82
442.31	8131.02
442.50	8025.70
442.68	7906.33
442.87	8189.53
443.05	8177.83
443.24	8299.54
443.43	8053.78
443.61	8271.45
443.80	8449.33
443.98	8140.38
444.17	7960.16
444.35	8315.92
444.54	8297.20
444.73	8376.78
444.91	8250.39
445.10	8358.05
445.28	8344.01
445.47	8524.23
445.65	8353.37
445.84	8587.43
446.02	8596.79
446.21	8414.23
446.39	8374.44
446.58	8456.36
446.77	8503.17
446.95	8318.26
447.14	8365.07
447.32	8580.40
447.51	8568.70
447.69	8437.63
447.88	8496.14
448.06	8603.81
448.25	8479.76
448.43	8636.58
448.62	8575.72
448.80	8671.68
448.99	8610.83
449.17	8704.45
449.36	8667.00
449.54	8777.01
449.73	8826.16
449.91	9064.89
450.10	8894.04
450.28	9184.26
450.46	9198.31
450.65	9121.07
450.83	8999.36
451.02	9123.41
451.20	9376.19
451.39	9088.30
451.57	9401.93
451.76	8959.57
451.94	9238.09
452.13	9376.19
452.31	9287.25
452.49	9160.86
452.68	9324.69
452.86	9317.67
453.05	9600.88
453.23	9547.05
453.42	9465.13
453.60	9231.07
453.78	9495.55
453.97	9430.02
454.15	9434.70
454.34	9474.49
454.52	9790.46
454.70	9607.90
454.89	9888.76
455.07	9973.02
455.26	9769.40
455.44	9909.83
455.62	10043.24
455.81	10174.31
455.99	10071.33
456.17	10068.98
456.36	10083.03
456.54	10424.75
456.73	10246.87
456.91	10352.19
457.09	10705.61
457.28	10647.10
457.46	10333.47
457.64	10750.08
457.83	10527.73
458.01	10485.60
458.19	10754.76
458.38	10721.99
458.56	10712.63
458.74	10738.38
458.93	10824.98
459.11	10832.00
459.29	10981.79
459.48	10778.17
459.66	10661.14
459.84	10946.69
460.03	11218.19
460.21	10965.41
460.39	11089.46
460.57	10923.28
460.76	11241.59
460.94	11094.14
461.12	11269.68
461.31	11257.98
461.49	11449.90
461.67	11201.80
461.85	11300.11
462.04	11272.02
462.22	11695.66
462.40	11634.80
462.59	11705.02
462.77	11545.86
462.95	11665.23
463.13	11719.06
463.32	11712.04
463.50	11805.66
463.68	11721.40
463.86	11903.96
464.05	11817.36
464.23	11597.35
464.41	11936.73
464.59	11637.14
464.78	12095.89
464.96	12053.76
465.14	11918.01
465.32	11967.16
465.50	12177.81
465.69	12252.70
465.87	12121.63
466.05	12140.36
466.23	12255.04
466.41	12542.93
466.60	12676.34
466.78	12119.29
466.96	12198.87
467.14	12512.50
467.32	12238.66
467.51	12622.51
467.69	12126.32
467.87	12568.68
468.05	12648.26
468.23	12580.38
468.41	12400.16
468.60	12767.62
468.78	12943.16
468.96	12655.28
469.14	13095.30
469.32	12917.42
469.50	12751.24
469.69	12936.14
469.87	13547.02
470.05	13081.25
470.23	13202.96
470.41	13219.35
470.59	13376.16
470.77	13305.95
470.95	13343.39
471.14	13619.58
471.32	13137.43
471.50	13401.91
471.68	13631.28
471.86	13795.12
472.04	13717.88
472.22	14120.45
472.40	13797.46
472.58	13954.27
472.77	13954.27
472.95	14153.22
473.13	14661.12
473.31	14305.35
473.49	14356.85
473.67	14075.98
473.85	14464.51
474.03	14846.02
474.21	14684.52
474.39	14623.67
474.57	14829.63
474.75	14963.04
474.93	15108.16
475.12	15080.07
475.30	15129.22
475.48	15192.42
475.66	15454.56
475.84	15384.34
476.02	15260.29
476.20	15374.98
476.38	15686.27
476.56	16070.12
476.74	15838.41
476.92	15829.04
477.10	15754.15
477.28	16379.07
477.46	16381.41
477.64	16578.01
477.82	16812.07
478.00	17092.93
478.18	16893.99
478.36	16950.16
478.54	17291.88
478.72	17266.13
478.90	17750.62
479.08	17701.47
479.26	17980.00
479.44	17720.20
479.62	17933.18
479.80	17987.02
479.98	17996.38
480.16	18532.36
480.34	18539.38
480.52	18544.06
480.70	18721.95
480.88	18251.50
481.06	19105.79
481.24	18759.39
481.41	19154.94
481.59	19346.87
481.77	19627.73
481.95	19641.78
482.13	20053.71
482.31	19651.14
482.49	20446.92
482.67	20114.56
482.85	20755.87
483.03	20795.66
483.21	21006.31
483.39	21032.05
483.57	20999.29
483.74	21090.57
483.92	21610.17
484.10	21441.65
484.28	21357.39
484.46	22052.53
484.64	22317.01
484.82	22043.17
485.00	22148.49
485.18	22824.90
485.35	23215.77
485.53	22986.40
485.71	22937.25
485.89	23562.17
486.07	23646.43
486.25	23442.81
486.43	23618.35
486.61	23988.15
486.78	24240.93
486.96	24210.50
487.14	24797.98
487.32	24711.38
487.50	25151.40
487.68	25046.07
487.85	25652.27
488.03	25834.83
488.21	25879.30
488.39	26108.68
488.57	26408.26
488.75	26286.56
488.92	26459.76
489.10	26518.27
489.28	26604.87
489.46	27498.95
489.64	27253.20
489.81	27988.13
489.99	27665.13
490.17	28215.16
490.35	28009.19
490.53	28561.56
490.70	28994.56
490.88	28374.31
491.06	28903.28
491.24	29050.73
491.41	29160.73
491.59	29572.67
491.77	29146.69
491.95	29881.62
492.13	29951.84
492.30	30085.25
492.48	30106.31
492.66	30148.44
492.84	30452.71
493.01	31189.98
493.19	30817.83
493.37	31115.08
493.54	31175.94
493.72	31318.71
493.90	31779.79
494.08	31922.57
494.25	32219.81
494.43	32196.41
494.61	32603.66
494.79	32865.80
494.96	32549.83
495.14	33259.01
495.32	33322.21
495.49	33443.91
495.67	33336.25
495.85	33919.04
496.02	33989.26
496.20	34160.12
496.38	34403.53
496.55	34684.40
496.73	34806.11
496.91	34628.23
497.09	34983.99
497.26	35241.45
497.44	35161.87
497.62	35454.44
497.79	35941.27
497.97	35676.79
498.14	35711.89
498.32	36060.63
498.50	36474.91
498.67	37008.55
498.85	36488.95
499.03	36552.15
499.20	37198.13
499.38	36828.33
499.56	37425.17
499.73	37591.34
499.91	37523.47
500.08	37677.94
500.26	37361.97
500.44	37883.91
500.61	38124.99
500.79	38127.33
500.97	38281.80
501.14	38782.68
501.32	39086.95
501.49	38618.84
501.67	38576.71
501.84	39035.45
502.02	38756.93
502.20	39192.27
502.37	39096.31
502.55	39976.35
502.72	39700.17
502.90	39709.53
503.07	39934.22
503.25	39831.24
503.43	39573.78
503.60	40856.39
503.78	40526.38
503.95	40236.15
504.13	40872.78
504.30	40535.74
504.48	40615.32
504.65	41120.87
504.83	40968.74
505.01	41652.17
505.18	41261.30
505.36	41837.08
505.53	41652.17
505.71	41741.11
505.88	42171.77
506.06	41553.87
506.23	42291.14
506.41	42073.47
506.58	42483.06
506.76	42815.42
506.93	42866.91
507.11	42799.04
507.28	43122.03
507.46	42852.87
507.63	43196.93
507.81	43512.90
507.98	42843.51
508.16	43346.72
508.33	43365.45
508.50	44119.10
508.68	43894.41
508.85	44189.31
509.03	43882.70
509.20	44374.22
509.38	44538.05
509.55	44657.42
509.73	44779.13
509.90	44631.68
510.08	44790.83
510.25	45181.70
510.42	44631.68
510.60	45247.24
510.77	44917.22
510.95	45572.57
511.12	45354.90
511.30	45689.60
511.47	45804.28
511.64	45923.65
511.82	46038.34
511.99	45888.54
512.17	46241.96
512.34	46043.02
512.51	46518.15
512.69	46209.20
512.86	46443.25
513.04	47019.02
513.21	46454.95
513.38	47257.76
513.56	46866.89
513.73	46958.17
513.90	46976.89
514.08	46794.33
514.25	47704.80
514.43	47880.34
514.60	47775.02
514.77	47716.50
514.95	48058.22
515.12	47796.08
515.29	47821.83
515.47	48158.86
515.64	48135.46
515.81	48011.41
515.99	48353.13
516.16	48816.55
516.33	48643.35
516.51	48397.60
516.68	48655.06
516.85	48594.20
517.03	48968.69
517.20	49277.64
517.37	48842.30
517.54	49048.27
517.72	48973.37
517.89	49158.27
518.06	49193.38
518.24	48942.94
518.41	49478.92
518.58	49326.79
518.75	49364.24
518.93	49895.54
519.10	49684.89
519.27	50066.40
519.45	49989.16
519.62	50255.98
519.79	50157.68
519.96	50277.05
520.14	50171.72
520.31	49925.97
520.48	50782.60
520.65	50443.23
520.83	50784.94
521.00	51199.22
521.17	50834.10
521.34	51271.78
521.52	50986.23
521.69	51217.94
521.86	51351.35
522.03	51491.79
522.20	51262.41
522.38	51814.78
522.55	51260.07
522.72	51576.04
522.89	51456.68
523.07	51847.55
523.24	51730.52
523.41	52023.09
523.58	51559.66
523.75	52030.11
523.92	51873.29
524.10	51938.83
524.27	52442.04
524.44	52147.14
524.61	52287.57
524.78	52287.57
524.96	52289.91
525.13	52327.36
525.30	52420.98
525.47	52680.78
525.64	52797.80
525.81	52748.65
525.98	52781.42
526.16	52608.22
526.33	52896.11
526.50	52989.73
526.67	53113.78
526.84	53221.44
527.01	52966.32
527.18	53123.14
527.36	53167.61
527.53	53207.40
527.70	53811.26
527.87	53415.71
528.04	53228.46
528.21	53544.44
528.38	53368.90
528.55	53734.02
528.72	53539.75
528.89	53483.58
529.07	53560.82
529.24	53558.48
529.41	53752.74
529.58	54108.50
529.75	53998.50
529.92	54042.97
530.09	54176.38
530.26	53998.50
530.43	54000.84
530.60	53808.92
530.77	54197.44
530.94	54045.31
531.11	54293.41
531.28	54300.43
531.46	54337.88
531.63	54480.65
531.80	54440.86
531.97	54553.21
532.14	54721.72
532.31	54401.07
532.48	54878.54
532.65	54859.82
532.82	54761.51
532.99	54686.62
533.16	54464.27
533.33	55035.36
533.50	55075.15
533.67	54780.24
533.84	54543.84
534.01	55100.89
534.18	55091.53
534.35	55283.45
534.52	55084.51
534.69	55159.41
534.86	55346.65
535.03	55070.46
535.20	55407.50
535.37	55346.65
535.54	55458.99
535.71	55285.79
535.88	55510.49
536.05	55604.11
536.22	55765.60
536.38	55976.25
536.55	55547.93
536.72	55950.51
536.89	55667.30
537.06	55569.00
537.23	55704.75
537.40	55625.17
537.57	55880.29
537.74	55861.57
537.91	56095.62
538.08	56023.06
538.25	55952.85
538.42	56112.00
538.59	56226.69
538.75	56039.45
538.92	56095.62
539.09	56233.71
539.26	56261.80
539.43	56364.78
539.60	56317.97
539.77	56420.95
539.94	56720.54
540.11	56526.28
540.28	56647.99
540.44	56545.00
540.61	56680.75
540.78	56540.32
540.95	56711.18
541.12	56362.44
541.29	56542.66
541.46	56568.41
541.62	56844.59
541.79	56882.04
541.96	56413.93
542.13	56690.12
542.30	56992.04
542.47	56889.06
542.63	56989.70
542.80	57165.24
542.97	57183.97
543.14	57364.19
543.31	57389.94
543.48	57249.50
543.64	57565.48
543.81	57453.13
543.98	57453.13
544.15	57315.04
544.32	57710.59
544.48	57764.42
544.65	57717.61
544.82	57385.25
544.99	57415.68
545.16	57518.67
545.32	57516.32
545.49	57640.37
545.66	57935.28
545.83	57815.91
546.00	57867.40
546.16	57654.42
546.33	57771.44
546.50	57638.03
546.67	57766.76
546.83	57474.20
547.00	57757.40
547.17	57993.79
547.34	57935.28
547.50	58258.27
547.67	58045.29
547.84	58195.08
548.00	58092.10
548.17	58262.96
548.34	58174.02
548.51	58520.41
548.67	58375.30
548.84	58464.24
549.01	58220.83
549.18	58262.96
549.34	58157.63
549.51	58508.71
549.68	58457.22
549.84	58307.43
550.01	58532.12
550.18	58333.17
550.34	58665.53
550.51	58588.29
550.68	58466.58
550.84	58244.23
551.01	58630.42
551.18	58766.17
551.34	58609.35
551.51	58658.51
551.68	58700.64
551.84	58726.38
552.01	58433.81
552.18	58677.23
552.34	58515.73
552.51	58658.51
552.68	58628.08
552.84	58702.98
553.01	59166.40
553.18	58731.06
553.34	58927.67
553.51	58700.64
553.67	59152.36
553.84	59213.21
554.01	59185.13
554.17	58997.88
554.34	58988.52
554.51	59054.06
554.67	59098.53
554.84	59262.36
555.00	59213.21
555.17	59049.38
555.33	59199.17
555.50	59166.40
555.67	58969.80
555.83	58965.12
556.00	59124.27
556.16	59627.49
556.33	59367.69
556.50	59346.62
556.66	59545.57
556.83	59257.68
556.99	59550.25
557.16	59590.04
557.32	59657.91
557.49	59728.13
557.65	59334.92
557.82	59377.05
557.98	59363.01
558.15	59365.35
558.32	59583.02
558.48	59601.74
558.65	59636.85
558.81	59592.38
558.98	59503.44
559.14	59688.34
559.31	59702.38
559.47	59814.73
559.64	59861.54
559.80	59859.20
559.97	60046.44
560.13	59597.06
560.30	59833.46
560.46	59784.30
560.63	59908.35
560.79	60046.44
560.96	60037.08
561.12	59833.46
561.29	59910.69
561.45	59854.52
561.61	59938.78
561.78	60020.70
561.94	59917.71
562.11	60058.15
562.27	59880.27
562.44	59980.91
562.60	60097.94
562.77	59906.01
562.93	60100.28
563.10	60079.21
563.26	59941.12
563.42	60486.46
563.59	60289.86
563.75	60186.88
563.92	60151.77
564.08	60039.42
564.24	60425.61
564.41	60303.90
564.57	60456.04
564.74	60425.61
564.90	60224.32
565.07	60231.35
565.23	60109.64
565.39	60254.75
565.56	60383.48
565.72	60243.05
565.88	60308.58
566.05	60257.09
566.21	60381.14
566.38	60221.98
566.54	60353.05
566.70	60507.53
566.87	60399.86
567.03	60378.80
567.19	60633.92
567.36	60336.67
567.52	60282.84
567.68	60657.32
567.85	60453.70
568.01	60608.17
568.17	60357.74
568.34	60495.83
568.50	60509.87
568.66	60411.57
568.83	60374.12
568.99	60441.99
569.15	60610.51
569.32	60441.99
569.48	60505.19
569.64	60577.75
569.81	60654.98
569.97	60430.29
570.13	60552.00
570.30	60430.29
570.46	60729.88
570.62	60711.16
570.78	60519.23
570.95	60647.96
571.11	60954.57
571.27	60591.79
571.43	60556.68
571.60	60725.20
571.76	60652.64
571.92	60846.91
572.09	60617.53
572.25	60699.45
572.41	60809.46
572.57	60692.43
572.74	60999.04
572.90	60692.43
573.06	60776.69
573.22	60732.22
573.38	60928.83
573.55	60933.51
573.71	60968.61
573.87	60942.87
574.03	60746.26
574.20	60678.39
574.36	60692.43
574.52	61010.74
574.68	61069.26
574.84	60954.57
575.01	60891.38
575.17	60849.25
575.33	60842.23
575.49	60741.58
575.65	60739.24
575.82	60779.03
575.98	61041.17
576.14	61095.00
576.30	60921.80
576.46	60687.75
576.62	60769.67
576.79	60767.33
576.95	60844.57
577.11	60896.06
577.27	60949.89
577.43	60872.65
577.59	60879.67
577.75	60638.60
577.92	60781.37
578.08	60846.91
578.24	60882.02
578.40	60968.61
578.56	61268.20
578.72	60772.01
578.88	61095.00
579.04	61052.87
579.21	60921.80
579.37	61087.98
579.53	61284.59
579.69	60809.46
579.85	60949.89
580.01	60970.96
580.17	60853.93
580.33	61010.74
580.49	61052.87
580.65	61162.88
580.82	60830.52
580.98	61078.62
581.14	60954.57
581.30	61071.60
581.46	60940.53
581.62	61130.11
581.78	60800.10
581.94	61085.64
582.10	60905.42
582.26	61092.66
582.42	61057.56
582.58	61013.08
582.74	60954.57
582.90	61069.26
583.06	61038.83
583.22	60874.99
583.38	61034.15
583.54	61048.19
583.70	61029.47
583.86	61130.11
584.02	61055.21
584.18	61109.05
584.34	61052.87
584.50	61139.47
584.66	60977.98
584.82	60872.65
584.98	61207.35
585.14	60966.27
585.30	61034.15
585.46	61022.45
585.62	61050.53
585.78	61378.21
585.94	60865.63
586.10	61027.13
586.26	61352.46
586.42	61350.12
586.58	61279.91
586.74	61036.49
586.90	61144.16
587.06	61216.71
587.22	61228.41
587.38	61057.56
587.54	61401.61
587.70	61359.48
587.86	61284.59
588.02	61216.71
588.18	61038.83
588.34	61319.70
