SpectraSuite Data File
++++++++++++++++++++++++++++++++++++
Date: Fri Oct 25 11:25:01 EDT 2013
User: price-jones
Dark Spectrum Present: No
Reference Spectrum Present: No
Number of Sampled Component Spectra: 1
Spectrometers: USB2+H05261
Integration Time (usec): 100000 (USB2+H05261)
Spectra Averaged: 1 (USB2+H05261)
Boxcar Smoothing: 0 (USB2+H05261)
Correct for Electrical Dark: No (USB2+H05261)
Strobe/Lamp Enabled: No (USB2+H05261)
Correct for Detector Non-linearity: No (USB2+H05261)
Correct for Stray Light: No (USB2+H05261)
Number of Pixels in Processed Spectrum: 2048
>>>>>Begin Processed Spectral Data<<<<<
365.73	224.69
365.92	224.69
366.12	224.69
366.32	161.50
366.52	145.11
366.72	215.33
366.91	131.07
367.11	128.73
367.31	112.35
367.51	147.45
367.70	201.29
367.90	154.48
368.10	95.96
368.30	140.43
368.49	152.13
368.69	126.39
368.89	147.45
369.09	152.13
369.28	173.20
369.48	140.43
369.68	210.65
369.87	184.90
370.07	194.26
370.27	255.12
370.47	322.99
370.66	545.34
370.86	599.18
371.06	690.46
371.25	767.70
371.45	692.80
371.65	664.71
371.84	631.94
372.04	636.63
372.24	629.60
372.44	758.33
372.63	744.29
372.83	727.91
373.03	779.40
373.22	681.10
373.42	823.87
373.62	716.20
373.81	809.83
374.01	723.23
374.21	772.38
374.40	858.98
374.60	837.91
374.79	802.80
374.99	788.76
375.19	849.61
375.38	870.68
375.58	863.66
375.78	805.14
375.97	889.40
376.17	943.24
376.37	870.68
376.56	791.10
376.76	917.49
376.95	898.77
377.15	901.11
377.35	936.21
377.54	966.64
377.74	830.89
377.93	882.38
378.13	875.36
378.33	985.37
378.52	912.81
378.72	1064.94
378.91	954.94
379.11	964.30
379.31	898.77
379.50	954.94
379.70	971.32
379.89	1071.97
380.09	966.64
380.28	943.24
380.48	882.38
380.68	1008.77
380.87	1043.88
381.07	1027.50
381.26	1004.09
381.46	1004.09
381.65	1055.58
381.85	1109.41
382.04	1034.52
382.24	1018.13
382.43	1097.71
382.63	1104.73
382.83	1109.41
383.02	1156.22
383.22	1104.73
383.41	1046.22
383.61	1013.45
383.80	1135.16
384.00	1060.26
384.19	1125.80
384.39	1153.88
384.58	1193.67
384.78	1114.10
384.97	1128.14
385.17	1221.76
385.36	1128.14
385.56	1128.14
385.75	1116.44
385.95	1219.42
386.14	1233.46
386.34	1158.57
386.53	1181.97
386.72	1179.63
386.92	1139.84
387.11	1196.01
387.31	1277.93
387.50	1198.35
387.70	1193.67
387.89	1224.10
388.09	1270.91
388.28	1196.01
388.48	1261.55
388.67	1284.95
388.86	1329.42
389.06	1263.89
389.25	1352.83
389.45	1294.32
389.64	1240.48
389.84	1357.51
390.03	1378.58
390.22	1406.66
390.42	1369.21
390.61	1364.53
390.81	1331.76
391.00	1416.02
391.19	1495.60
391.39	1458.15
391.58	1462.83
391.78	1441.77
391.97	1434.75
392.16	1554.12
392.36	1540.07
392.55	1603.27
392.75	1504.96
392.94	1451.13
393.13	1502.62
393.33	1434.75
393.52	1509.65
393.71	1605.61
393.91	1600.93
394.10	1591.56
394.29	1633.69
394.49	1598.59
394.68	1654.76
394.88	1575.18
395.07	1600.93
395.26	1666.46
395.46	1827.96
395.65	1736.68
395.84	1629.01
396.04	1790.51
396.23	1769.44
396.42	1699.23
396.62	1685.19
396.81	1746.04
397.00	1685.19
397.19	1830.30
397.39	1790.51
397.58	1830.30
397.77	1811.57
397.97	1937.96
398.16	1802.21
398.35	1872.43
398.55	1898.17
398.74	1844.34
398.93	1919.24
399.12	1839.66
399.32	1966.05
399.51	1905.20
399.70	2036.27
399.90	2015.20
400.09	2038.61
400.28	2062.01
400.47	2010.52
400.67	2022.22
400.86	1940.30
401.05	1996.48
401.24	2073.71
401.44	2059.67
401.63	2136.91
401.82	2244.57
402.01	2150.95
402.21	2087.76
402.40	2176.70
402.59	2143.93
402.78	2181.38
402.97	2253.94
403.17	2282.02
403.36	2223.51
403.55	2349.90
403.74	2356.92
403.93	2361.60
404.13	2356.92
404.32	2356.92
404.51	2380.32
404.70	2361.60
404.89	2389.69
405.09	2513.74
405.28	2586.29
405.47	2511.39
405.66	2530.12
405.85	2487.99
406.05	2504.37
406.24	2576.93
406.43	2579.27
406.62	2588.63
406.81	2656.51
407.00	2452.88
407.20	2703.32
407.39	2670.55
407.58	2675.23
407.77	2691.62
407.96	2677.57
408.15	2799.28
408.34	2759.49
408.54	2691.62
408.73	2768.85
408.92	2789.92
409.11	2899.92
409.30	2932.69
409.49	2972.48
409.68	2963.12
409.87	2965.46
410.07	2869.50
410.26	3002.91
410.45	3005.25
410.64	2953.76
410.83	3206.53
411.02	3126.96
411.21	3232.28
411.40	3166.74
411.59	3243.98
411.78	3229.94
411.98	3148.02
412.17	3356.33
412.36	3351.65
412.55	3274.41
412.74	3419.52
412.93	3393.78
413.12	3361.01
413.31	3515.48
413.50	3513.14
413.69	3403.14
413.88	3515.48
414.07	3520.17
414.26	3588.04
414.45	3646.55
414.64	3691.02
414.83	3801.03
415.02	3721.45
415.22	3775.28
415.41	3854.86
415.60	3836.14
415.79	3854.86
415.98	4021.04
416.17	3882.95
416.36	3840.82
416.55	4042.11
416.74	4133.39
416.93	4107.64
417.12	4276.16
417.31	4163.81
417.50	4194.24
417.69	4243.39
417.88	4266.80
418.07	4205.94
418.26	4367.44
418.45	4262.12
418.64	4425.95
418.83	4440.00
419.02	4283.18
419.21	4498.51
419.39	4526.60
419.58	4421.27
419.77	4435.32
419.96	4540.64
420.15	4512.55
420.34	4538.30
420.53	4610.86
420.72	4479.79
420.91	4765.33
421.10	4770.01
421.29	4798.10
421.48	4664.69
421.67	4798.10
421.86	4744.27
422.05	4683.41
422.24	4910.44
422.43	4760.65
422.61	5062.58
422.80	5085.98
422.99	5020.45
423.18	5027.47
423.37	5116.41
423.56	4952.57
423.75	4880.02
423.94	4873.00
424.13	4690.43
424.32	4784.06
424.50	4968.96
424.69	5043.85
424.88	4971.30
425.07	5008.75
425.26	5102.37
425.45	4950.23
425.64	4926.83
425.83	4851.93
426.01	5085.98
426.20	4961.94
426.39	5142.16
426.58	5060.24
426.77	5034.49
426.96	5177.26
427.15	5104.71
427.33	5118.75
427.52	5029.81
427.71	5357.49
427.90	5219.39
428.09	5268.55
428.28	5313.02
428.46	5408.98
428.65	5355.15
428.84	5561.11
429.03	5561.11
429.22	5294.29
429.40	5474.51
429.59	5427.70
429.78	5305.99
429.97	5238.12
430.16	5411.32
430.34	5682.82
430.53	5666.44
430.72	5661.76
430.91	5713.25
431.10	5596.22
431.28	5626.65
431.47	5685.16
431.66	5947.30
431.85	5701.54
432.03	5902.83
432.22	5851.34
432.41	5863.04
432.60	5853.68
432.79	5940.28
432.97	6005.81
433.16	6251.57
433.35	6069.01
433.54	6134.54
433.72	6099.44
433.91	6001.13
434.10	5998.79
434.28	6071.35
434.47	6176.67
434.66	6195.40
434.85	6303.06
435.03	6272.64
435.22	6375.62
435.41	6466.90
435.59	6476.26
435.78	6403.71
435.97	6574.56
436.16	6413.07
436.34	6373.28
436.53	6382.64
436.72	6574.56
436.90	6445.84
437.09	6455.20
437.28	6523.07
437.46	6534.78
437.65	6661.16
437.84	6780.53
438.02	6576.91
438.21	6684.57
438.40	6761.81
438.58	7030.97
438.77	7070.76
438.96	6862.45
439.14	7061.40
439.33	7073.10
439.52	7234.60
439.70	7281.41
439.89	7232.26
440.08	7389.07
440.26	7520.14
440.45	7440.56
440.63	7311.83
440.82	7566.95
441.01	7552.91
441.19	7679.30
441.38	7653.55
441.57	7623.12
441.75	7822.07
441.94	7864.20
442.12	7857.18
442.31	8142.72
442.50	7978.89
442.68	7974.21
442.87	8067.83
443.05	8013.99
443.24	8201.24
443.43	7969.52
443.61	7999.95
443.80	8376.78
443.98	8102.93
444.17	7831.43
444.35	8285.50
444.54	8315.92
444.73	8442.31
444.91	8266.77
445.10	8262.09
445.28	8432.95
445.47	8180.17
445.65	8444.65
445.84	8346.35
446.02	8564.02
446.21	8496.14
446.39	8442.31
446.58	8414.23
446.77	8519.55
446.95	8161.45
447.14	8486.78
447.32	8709.13
447.51	8528.91
447.69	8348.69
447.88	8496.14
448.06	8608.49
448.25	8617.85
448.43	8685.73
448.62	8601.47
448.80	8589.77
448.99	8716.16
449.17	8812.12
449.36	8734.88
449.54	8657.64
449.73	8908.08
449.91	9102.34
450.10	9018.08
450.28	9186.60
450.46	9027.45
450.65	9128.09
450.83	9107.02
451.02	9029.79
451.20	9165.54
451.39	9413.63
451.57	9247.46
451.76	8952.55
451.94	9327.03
452.13	9160.86
452.31	9298.95
452.49	9095.32
452.68	9261.50
452.86	9256.82
453.05	9596.20
453.23	9572.79
453.42	9256.82
453.60	9334.06
453.78	9687.48
453.97	9394.91
454.15	9462.79
454.34	9411.29
454.52	9736.63
454.70	9734.29
454.89	9928.55
455.07	9996.43
455.26	9699.18
455.44	9951.96
455.62	9926.21
455.81	9949.62
455.99	10010.47
456.17	10019.83
456.36	10015.15
456.54	10092.39
456.73	10115.80
456.91	10356.87
457.09	10267.93
457.28	10464.54
457.46	10328.78
457.64	10562.84
457.83	10319.42
458.01	10354.53
458.19	10607.31
458.38	10483.26
458.56	10441.13
458.74	10684.55
458.93	10698.59
459.11	10815.62
459.29	10614.33
459.48	10698.59
459.66	10874.13
459.84	11080.10
460.03	11143.29
460.21	10853.06
460.39	10864.77
460.57	10813.28
460.76	11199.46
460.94	11239.25
461.12	11370.32
461.31	11077.76
461.49	11290.74
461.67	11389.05
461.85	11412.45
462.04	11410.11
462.22	11793.96
462.40	11583.31
462.59	11559.91
462.77	11363.30
462.95	11695.66
463.13	11812.68
463.32	11470.97
463.50	11833.75
463.68	11709.70
463.86	11871.20
464.05	11548.20
464.23	11651.19
464.41	11850.13
464.59	11634.80
464.78	12147.38
464.96	11943.75
465.14	11826.73
465.32	11948.43
465.50	11941.41
465.69	12121.63
465.87	12086.53
466.05	12140.36
466.23	12084.19
466.41	12053.76
466.60	12510.16
466.78	12210.57
466.96	12250.36
467.14	12091.21
467.32	12404.84
467.51	12334.62
467.69	12224.62
467.87	12542.93
468.05	12582.72
468.23	12439.95
468.41	12566.34
468.60	12835.50
468.78	12592.08
468.96	12461.01
469.14	12945.50
469.32	12805.07
469.50	12463.35
469.69	13048.49
469.87	13289.56
470.05	13198.28
470.23	13188.92
470.41	12971.25
470.59	13378.50
470.77	13064.87
470.95	12999.34
471.14	13233.39
471.32	13004.02
471.50	13481.49
471.68	13591.49
471.86	13692.13
472.04	13865.33
472.22	14033.85
472.40	13668.73
472.58	13926.19
472.77	13989.38
472.95	14246.84
473.13	14651.75
473.31	14087.68
473.49	14286.63
473.67	14104.07
473.85	14080.66
474.03	14721.97
474.21	14513.66
474.39	14609.62
474.57	14656.43
474.75	14979.43
474.93	14766.44
475.12	15063.69
475.30	15075.39
475.48	15084.75
475.66	15426.47
475.84	14920.92
476.02	15323.49
476.20	15508.39
476.38	15477.96
476.56	16081.82
476.74	16159.06
476.92	15873.51
477.10	15716.70
477.28	16049.05
477.46	16145.02
477.64	16414.18
477.82	16582.70
478.00	17046.12
478.18	16556.95
478.36	16720.79
478.54	17254.43
478.72	17132.72
478.90	17509.55
479.08	17547.00
479.26	17926.16
479.44	17860.63
479.62	17935.53
479.80	18281.92
479.98	17942.55
480.16	18492.57
480.34	17968.29
480.52	18691.52
480.70	18785.14
480.88	18361.50
481.06	18902.17
481.24	18850.67
481.41	18981.74
481.59	19325.80
481.77	19351.55
481.95	19501.34
482.13	19679.22
482.31	19695.61
482.49	20166.06
482.67	19913.28
482.85	20538.20
483.03	20425.86
483.21	20533.52
483.39	20627.14
483.57	20809.70
483.74	21392.50
483.92	21401.86
484.10	21146.74
484.28	21364.41
484.46	22003.38
484.64	22239.77
484.82	21933.16
485.00	22443.40
485.18	22649.36
485.35	22698.52
485.53	22546.38
485.71	22944.27
485.89	23702.61
486.07	23440.47
486.25	23854.74
486.43	23611.32
486.61	23690.90
486.78	24196.46
486.96	23889.85
487.14	24676.27
487.32	24320.51
487.50	24624.78
487.68	25010.96
487.85	25113.95
488.03	25137.35
488.21	25998.67
488.39	25612.48
488.57	25933.14
488.75	25820.79
488.92	26192.94
489.10	26534.65
489.28	26572.10
489.46	26988.72
489.64	27061.27
489.81	27641.73
489.99	27784.50
490.17	27651.09
490.35	28301.76
490.53	28259.63
490.70	28393.04
490.88	28112.17
491.06	28641.14
491.24	28837.74
491.41	28950.09
491.59	29448.62
491.77	29359.68
491.95	29546.92
492.13	29661.61
492.30	30134.40
492.48	30099.29
492.66	30066.52
492.84	29937.79
493.01	30670.38
493.19	30703.15
493.37	31101.04
493.54	31241.47
493.72	31250.83
493.90	31388.92
494.08	31969.38
494.25	32158.96
494.43	32070.02
494.61	32339.18
494.79	32458.55
494.96	32638.77
495.14	32884.53
495.32	33298.80
495.49	33008.58
495.67	33558.60
495.85	33654.56
496.02	33511.79
496.20	34239.70
496.38	34110.97
496.55	34483.11
496.73	34646.95
496.91	34277.15
497.09	34742.91
497.26	34991.01
497.44	34951.22
497.62	34944.20
497.79	35608.91
497.97	35101.01
498.14	36053.61
498.32	36091.06
498.50	35945.95
498.67	36582.57
498.85	35484.86
499.03	36453.84
499.20	36816.63
499.38	36938.33
499.56	36973.44
499.73	36912.59
499.91	37521.13
500.08	37457.93
500.26	37354.95
500.44	37479.00
500.61	37624.11
500.79	37902.64
500.97	37865.19
501.14	38515.86
501.32	38417.55
501.49	38412.87
501.67	38260.74
501.84	38703.10
502.02	39180.57
502.20	38937.15
502.37	39154.82
502.55	39608.89
502.72	39381.85
502.90	39571.44
503.07	39342.06
503.25	39814.85
503.43	39552.71
503.60	40112.10
503.78	40133.17
503.95	40095.72
504.13	40535.74
504.30	40650.42
504.48	40570.85
504.65	40830.65
504.83	40683.19
505.01	41542.17
505.18	41062.36
505.36	41359.61
505.53	40861.07
505.71	41656.85
505.88	42031.34
506.06	41418.12
506.23	41879.21
506.41	41858.14
506.58	41656.85
506.76	42370.72
506.93	42183.48
507.11	41989.21
507.28	42270.08
507.46	42974.58
507.63	42955.85
507.81	43110.33
507.98	43012.02
508.16	42616.47
508.33	43545.67
508.50	43423.96
508.68	43536.30
508.85	44013.77
509.03	43601.84
509.20	44011.43
509.38	44224.42
509.55	43988.03
509.73	44156.55
509.90	44903.18
510.08	44683.17
510.25	44318.04
510.42	44978.07
510.60	44547.42
510.77	45514.06
510.95	45474.27
511.12	45666.19
511.30	45015.52
511.47	45502.35
511.64	45893.22
511.82	45579.59
511.99	45331.50
512.17	46045.36
512.34	45972.80
512.51	46562.62
512.69	46471.34
512.86	46192.81
513.04	46323.88
513.21	46794.33
513.38	46728.80
513.56	46979.23
513.73	46639.86
513.90	46997.96
514.08	46803.69
514.25	47138.39
514.43	47395.85
514.60	47262.44
514.77	47585.43
514.95	48037.16
515.12	47653.31
515.29	47522.24
515.47	47894.38
515.64	48074.60
515.81	48259.51
515.99	48343.77
516.16	48491.22
516.33	48083.97
516.51	48659.74
516.68	48538.03
516.85	48655.06
517.03	48795.49
517.20	48732.29
517.37	48535.69
517.54	48774.42
517.72	48816.55
517.89	49038.90
518.06	48992.09
518.24	49003.80
518.41	49322.11
518.58	49626.38
518.75	49542.12
518.93	49485.95
519.10	49371.26
519.27	49897.88
519.45	49516.37
519.62	49633.40
519.79	49883.84
519.96	50138.96
520.14	49822.98
520.31	50225.56
520.48	50333.22
520.65	50398.76
520.83	50555.57
521.00	50843.46
521.17	50403.44
521.34	50642.17
521.52	50962.82
521.69	50663.24
521.86	50993.25
522.03	51007.29
522.20	51372.42
522.38	51552.64
522.55	51681.37
522.72	51489.45
522.89	51264.75
523.07	51367.74
523.24	51255.39
523.41	51828.82
523.58	51543.28
523.75	51735.20
523.92	51880.31
524.10	51789.03
524.27	51723.50
524.44	51983.30
524.61	51704.77
524.78	52289.91
524.96	52292.25
525.13	52374.17
525.30	52589.50
525.47	52650.35
525.64	52704.18
525.81	52589.50
525.98	52863.34
526.16	52615.24
526.33	52598.86
526.50	52786.10
526.67	52720.57
526.84	52807.17
527.01	52814.19
527.18	53017.82
527.36	52708.86
527.53	53024.84
527.70	53434.43
527.87	53219.10
528.04	53078.67
528.21	53364.21
528.38	53364.21
528.55	53420.39
528.72	53277.61
528.89	53481.24
529.07	53535.07
529.24	53347.83
529.41	53539.75
529.58	53481.24
529.75	53495.28
529.92	53565.50
530.09	53902.54
530.26	54157.66
530.43	53820.62
530.60	53567.84
530.77	53956.37
530.94	53947.01
531.11	53893.18
531.28	54064.03
531.46	54241.92
531.63	54300.43
531.80	54005.52
531.97	54557.89
532.14	54454.90
532.31	54401.07
532.48	54426.82
532.65	54466.61
532.82	54096.80
532.99	54911.31
533.16	54368.30
533.33	54864.50
533.50	54791.94
533.67	54710.02
533.84	54642.15
534.01	54937.05
534.18	54766.20
534.35	55077.49
534.52	55098.55
534.69	55327.92
534.86	55164.09
535.03	54841.09
535.20	55159.41
535.37	55201.53
535.54	55414.52
535.71	55107.91
535.88	55379.42
536.05	55646.24
536.22	55456.65
536.38	55760.92
536.55	55524.53
536.72	55519.85
536.89	55442.61
537.06	55531.55
537.23	55648.58
537.40	55358.35
537.57	55660.28
537.74	55987.95
537.91	55941.14
538.08	55955.19
538.25	55627.51
538.42	55861.57
538.59	55936.46
538.75	55746.88
538.92	55889.65
539.09	55924.76
539.26	56128.39
539.43	56285.20
539.60	56367.12
539.77	55955.19
539.94	56631.60
540.11	56268.82
540.28	56376.48
540.44	56432.66
540.61	56390.53
540.78	56367.12
540.95	56472.45
541.12	56523.94
541.29	56523.94
541.46	56537.98
541.62	56537.98
541.79	56587.13
541.96	56425.64
542.13	56446.70
542.30	56868.00
542.47	56898.42
542.63	56816.50
542.80	56868.00
542.97	56886.72
543.14	57277.59
543.31	56985.02
543.48	57141.84
543.64	57457.81
543.81	57261.21
543.98	57401.64
544.15	57139.50
544.32	57219.08
544.48	57525.69
544.65	57375.89
544.82	57684.84
544.99	57134.82
545.16	57425.04
545.32	57364.19
545.49	57633.35
545.66	57865.06
545.83	57518.67
546.00	57764.42
546.16	57696.55
546.33	57621.65
546.50	57408.66
546.67	57689.52
546.83	57366.53
547.00	57956.35
547.17	57389.94
547.34	57783.15
547.50	57954.00
547.67	58052.31
547.84	58028.90
548.00	58227.85
548.17	58115.50
548.34	57818.25
548.51	58150.61
548.67	58237.21
548.84	58150.61
549.01	57879.11
549.18	58216.14
549.34	58148.27
549.51	58349.56
549.68	58293.38
549.84	58480.63
550.01	58234.87
550.18	58265.30
550.34	58349.56
550.51	58452.54
550.68	58223.17
550.84	58237.21
551.01	58555.52
551.18	58372.96
551.34	58494.67
551.51	58525.10
551.68	58721.70
551.84	58550.84
552.01	58375.30
552.18	58768.51
552.34	58419.77
552.51	58497.01
552.68	58501.69
552.84	58780.21
553.01	58995.54
553.18	58887.88
553.34	58827.02
553.51	58873.84
553.67	58817.66
553.84	59143.00
554.01	58983.84
554.17	58990.86
554.34	58878.52
554.51	59056.40
554.67	58944.05
554.84	58887.88
555.00	58976.82
555.17	59018.95
555.33	59189.81
555.50	58883.20
555.67	58798.94
555.83	59079.80
556.00	58922.99
556.16	59536.21
556.33	59260.02
556.50	59054.06
556.66	59276.41
556.83	59068.10
556.99	59355.99
557.16	59458.97
557.32	59442.59
557.49	59360.67
557.65	59281.09
557.82	59187.47
557.98	59248.32
558.15	59458.97
558.32	59477.69
558.48	59491.74
558.65	59480.03
558.81	59381.73
558.98	59458.97
559.14	59494.08
559.31	59571.32
559.47	59578.34
559.64	59681.32
559.80	59578.34
559.97	59814.73
560.13	59812.39
560.30	59756.22
560.46	59583.02
560.63	59849.84
560.79	59812.39
560.96	59835.80
561.12	59842.82
561.29	59976.23
561.45	59676.64
561.61	59990.27
561.78	59739.83
561.94	59805.37
562.11	59817.07
562.27	59952.82
562.44	59969.21
562.60	59866.22
562.77	59835.80
562.93	59709.41
563.10	60147.09
563.26	60116.66
563.42	60074.53
563.59	60203.26
563.75	59875.58
563.92	60268.79
564.08	59866.22
564.24	60088.57
564.41	60191.56
564.57	60018.36
564.74	60350.71
564.90	59966.87
565.07	60020.70
565.23	60161.13
565.39	59950.48
565.56	60095.60
565.72	60114.32
565.88	60250.07
566.05	60027.72
566.21	60130.70
566.38	60367.10
566.54	60058.15
566.70	60310.92
566.87	60287.52
567.03	60252.41
567.19	60259.43
567.36	60266.45
567.52	60446.68
567.68	60374.12
567.85	60434.97
568.01	60392.84
568.17	60229.01
568.34	60308.58
568.50	60310.92
568.66	60247.73
568.83	60273.48
568.99	60303.90
569.15	60275.82
569.32	60217.30
569.48	60385.82
569.64	60329.65
569.81	60385.82
569.97	60214.96
570.13	60350.71
570.30	60285.18
570.46	60409.23
570.62	60519.23
570.78	60622.22
570.95	60376.46
571.11	60647.96
571.27	60420.93
571.43	60322.63
571.60	60456.04
571.76	60720.52
571.92	60612.85
572.09	60441.99
572.25	60608.17
572.41	60460.72
572.57	60463.06
572.74	60732.22
572.90	60582.43
573.06	60580.09
573.22	60746.26
573.38	60566.04
573.55	60671.37
573.71	60802.44
573.87	60870.31
574.03	60519.23
574.20	60631.58
574.36	60573.06
574.52	60690.09
574.68	60509.87
574.84	60729.88
575.01	60547.32
575.17	60708.82
575.33	60547.32
575.49	60439.65
575.65	60779.03
575.82	60844.57
575.98	60640.94
576.14	60952.23
576.30	60645.62
576.46	60556.68
576.62	60718.18
576.79	60760.31
576.95	60690.09
577.11	60846.91
577.27	60687.75
577.43	60935.85
577.59	60552.00
577.75	60783.71
577.92	60804.78
578.08	60657.32
578.24	60800.10
578.40	60907.76
578.56	60910.10
578.72	60816.48
578.88	60914.78
579.04	60961.59
579.21	60825.84
579.37	60905.42
579.53	61034.15
579.69	60697.11
579.85	60685.41
580.01	60617.53
580.17	60762.65
580.33	60905.42
580.49	60839.89
580.65	61083.30
580.82	60757.97
580.98	60704.13
581.14	60924.14
581.30	61013.08
581.46	60842.23
581.62	60849.25
581.78	60654.98
581.94	61132.45
582.10	60856.27
582.26	60987.34
582.42	60858.61
582.58	61020.11
582.74	60802.44
582.90	60982.66
583.06	60907.76
583.22	60580.09
583.38	60865.63
583.54	60938.19
583.70	61008.40
583.86	60949.89
584.02	60949.89
584.18	60989.68
584.34	61020.11
584.50	60992.02
584.66	60905.42
584.82	60814.14
584.98	61041.17
585.14	61003.72
585.30	60804.78
585.46	60928.83
585.62	60945.21
585.78	61244.80
585.94	60977.98
586.10	61017.77
586.26	61059.90
586.42	60987.34
586.58	60992.02
586.74	61003.72
586.90	61155.86
587.06	60945.21
587.22	61188.63
587.38	60977.98
587.54	61017.77
587.70	61251.82
587.86	61050.53
588.02	61043.51
588.18	61169.90
588.34	60811.80
