SpectraSuite Data File
++++++++++++++++++++++++++++++++++++
Date: Fri Oct 25 10:48:26 EDT 2013
User: price-jones
Dark Spectrum Present: No
Reference Spectrum Present: No
Number of Sampled Component Spectra: 1
Spectrometers: USB2+H05261
Integration Time (usec): 100000 (USB2+H05261)
Spectra Averaged: 1 (USB2+H05261)
Boxcar Smoothing: 0 (USB2+H05261)
Correct for Electrical Dark: No (USB2+H05261)
Strobe/Lamp Enabled: No (USB2+H05261)
Correct for Detector Non-linearity: No (USB2+H05261)
Correct for Stray Light: No (USB2+H05261)
Number of Pixels in Processed Spectrum: 2048
>>>>>Begin Processed Spectral Data<<<<<
365.73	163.84
365.92	163.84
366.12	163.84
366.32	7.02
366.52	42.13
366.72	63.19
366.91	46.81
367.11	126.39
367.31	0.00
367.51	95.96
367.70	67.88
367.90	86.60
368.10	9.36
368.30	102.98
368.49	42.13
368.69	140.43
368.89	32.77
369.09	154.48
369.28	107.66
369.48	32.77
369.68	53.83
369.87	133.41
370.07	84.26
370.27	86.60
370.47	173.20
370.66	402.57
370.86	444.70
371.06	449.38
371.25	484.49
371.45	491.51
371.65	557.05
371.84	498.53
372.04	475.13
372.24	524.28
372.44	475.13
372.63	489.17
372.83	517.26
373.03	557.05
373.22	507.90
373.42	496.19
373.62	514.92
373.81	552.37
374.01	610.88
374.21	535.98
374.40	610.88
374.60	688.12
374.79	524.28
374.99	650.67
375.19	557.05
375.38	662.37
375.58	589.82
375.78	568.75
375.97	622.58
376.17	622.58
376.37	594.50
376.56	599.18
376.76	592.16
376.95	643.65
377.15	718.54
377.35	624.92
377.54	660.03
377.74	653.01
377.93	662.37
378.13	657.69
378.33	706.84
378.52	697.48
378.72	695.14
378.91	709.18
379.11	617.90
379.31	615.56
379.50	678.76
379.70	671.73
379.89	667.05
380.09	748.97
380.28	676.41
380.48	692.80
380.68	765.36
380.87	643.65
381.07	727.91
381.26	746.63
381.46	692.80
381.65	655.35
381.85	664.71
382.04	667.05
382.24	755.99
382.43	676.41
382.63	770.04
382.83	650.67
383.02	788.76
383.22	786.42
383.41	718.54
383.61	741.95
383.80	788.76
384.00	685.78
384.19	664.71
384.39	774.72
384.58	823.87
384.78	734.93
384.97	802.80
385.17	812.17
385.36	737.27
385.56	802.80
385.75	844.93
385.95	751.31
386.14	819.19
386.34	842.59
386.53	816.85
386.72	891.74
386.92	894.08
387.11	884.72
387.31	910.47
387.50	884.72
387.70	837.91
387.89	933.87
388.09	866.00
388.28	968.98
388.48	919.83
388.67	882.38
388.86	940.90
389.06	837.91
389.25	1076.65
389.45	968.98
389.64	1015.79
389.84	1025.15
390.03	1090.69
390.22	1078.99
390.42	1050.90
390.61	1006.43
390.81	983.02
391.00	1013.45
391.19	1060.26
391.39	1064.94
391.58	1055.58
391.78	1046.22
391.97	1060.26
392.16	1027.50
392.36	1097.71
392.55	940.90
392.75	1107.07
392.94	1020.47
393.13	1074.31
393.33	1048.56
393.52	1116.44
393.71	1100.05
393.91	1109.41
394.10	1076.65
394.29	1125.80
394.49	1071.97
394.68	1114.10
394.88	1210.06
395.07	1109.41
395.26	1245.16
395.46	1270.91
395.65	1207.72
395.84	1177.29
396.04	1181.97
396.23	1238.14
396.42	1137.50
396.62	1135.16
396.81	1303.68
397.00	1207.72
397.19	1280.27
397.39	1231.12
397.58	1387.94
397.77	1322.40
397.97	1387.94
398.16	1355.17
398.35	1455.81
398.55	1390.28
398.74	1394.96
398.93	1514.33
399.12	1383.26
399.32	1502.62
399.51	1495.60
399.70	1488.58
399.90	1502.62
400.09	1523.69
400.28	1624.33
400.47	1582.20
400.67	1598.59
400.86	1544.75
401.05	1598.59
401.24	1519.01
401.44	1664.12
401.63	1776.47
401.82	1715.61
402.01	1603.27
402.21	1643.06
402.40	1682.85
402.59	1732.00
402.78	1692.21
402.97	1710.93
403.17	1802.21
403.36	1724.97
403.55	1746.04
403.74	1820.94
403.93	1860.73
404.13	1750.72
404.32	1687.53
404.51	1886.47
404.70	1881.79
404.89	1872.43
405.09	1809.23
405.28	1844.34
405.47	1849.02
405.66	1849.02
405.85	1987.11
406.05	1966.05
406.24	1961.37
406.43	1858.39
406.62	1921.58
406.81	1980.09
407.00	1963.71
407.20	1844.34
407.39	2038.61
407.58	2031.58
407.77	2111.16
407.96	2188.40
408.15	2153.29
408.34	2221.17
408.54	2188.40
408.73	2200.10
408.92	2223.51
409.11	2267.98
409.30	2277.34
409.49	2235.21
409.68	2132.23
409.87	2127.55
410.07	2267.98
410.26	2338.20
410.45	2312.45
410.64	2441.18
410.83	2394.37
411.02	2387.35
411.21	2427.14
411.40	2518.42
411.59	2541.82
411.78	2593.31
411.98	2504.37
412.17	2572.25
412.36	2612.04
412.55	2619.06
412.74	2593.31
412.93	2612.04
413.12	2640.12
413.31	2619.06
413.50	2670.55
413.69	2857.79
413.88	2820.35
414.07	2724.38
414.26	2829.71
414.45	2953.76
414.64	2932.69
414.83	2897.58
415.02	2885.88
415.22	2970.14
415.41	3061.42
415.60	2970.14
415.79	3063.76
415.98	3281.43
416.17	3183.13
416.36	3047.38
416.55	3208.87
416.74	3180.79
416.93	3150.36
417.12	3150.36
417.31	3141.00
417.50	3243.98
417.69	3346.97
417.88	3318.88
418.07	3288.45
418.26	3328.24
418.45	3267.39
418.64	3529.53
418.83	3410.16
419.02	3466.33
419.21	3377.39
419.39	3482.72
419.58	3431.23
419.77	3506.12
419.96	3571.66
420.15	3461.65
420.34	3471.01
420.53	3522.51
420.72	3674.64
420.91	3723.79
421.10	3733.15
421.29	3709.75
421.48	3758.90
421.67	3751.88
421.86	3728.47
422.05	3641.87
422.24	3576.34
422.43	3646.55
422.61	3709.75
422.80	3868.91
422.99	3791.67
423.18	3925.08
423.37	3796.35
423.56	3850.18
423.75	3824.44
423.94	3691.02
424.13	3482.72
424.32	3672.30
424.50	3740.18
424.69	3880.61
424.88	3822.09
425.07	3756.56
425.26	3885.29
425.45	3822.09
425.64	3775.28
425.83	3859.54
426.01	3948.48
426.20	3960.19
426.39	3927.42
426.58	3826.78
426.77	3871.25
426.96	3875.93
427.15	3836.14
427.33	3808.05
427.52	3847.84
427.71	3943.80
427.90	3913.38
428.09	3988.27
428.28	3983.59
428.46	4030.40
428.65	4126.36
428.84	4156.79
429.03	4107.64
429.22	3983.59
429.40	4142.75
429.59	4093.60
429.78	3929.76
429.97	3882.95
430.16	3852.52
430.34	4065.51
430.53	4100.62
430.72	4070.19
430.91	4091.26
431.10	4088.92
431.28	4351.06
431.47	4437.66
431.66	4498.51
431.85	4327.65
432.03	4425.95
432.22	4561.70
432.41	4559.36
432.60	4414.25
432.79	4503.19
432.97	4657.67
433.16	4667.03
433.35	4451.70
433.54	4491.49
433.72	4482.13
433.91	4512.55
434.10	4638.94
434.28	4685.75
434.47	4746.61
434.66	4821.50
434.85	4697.46
435.03	4863.63
435.22	4709.16
435.41	5057.90
435.59	4887.04
435.78	5041.51
435.97	4983.00
436.16	4898.74
436.34	4870.65
436.53	4952.57
436.72	5062.58
436.90	5025.13
437.09	5006.41
437.28	4809.80
437.46	5132.79
437.65	5076.62
437.84	4961.94
438.02	4999.38
438.21	5011.09
438.40	5004.07
438.58	5186.63
438.77	5350.46
438.96	5245.14
439.14	5430.04
439.33	5584.52
439.52	5441.75
439.70	5528.35
439.89	5720.27
440.08	5661.76
440.26	5692.18
440.45	5458.13
440.63	5659.42
440.82	5743.67
441.01	5617.29
441.19	5600.90
441.38	5895.81
441.57	5879.43
441.75	5959.00
441.94	6024.54
442.12	6019.86
442.31	5921.56
442.50	6160.29
442.68	6218.80
442.87	6094.76
443.05	6057.31
443.24	6246.89
443.43	6237.53
443.61	6291.36
443.80	6429.45
443.98	6207.10
444.17	6038.58
444.35	6466.90
444.54	6399.02
444.73	6345.19
444.91	6317.11
445.10	6207.10
445.28	6200.08
445.47	6146.25
445.65	6111.14
445.84	6326.47
446.02	6274.98
446.21	6289.02
446.39	6272.64
446.58	6377.96
446.77	6340.51
446.95	6139.23
447.14	6490.31
447.32	6626.06
447.51	6312.42
447.69	6415.41
447.88	6525.41
448.06	6518.39
448.25	6459.88
448.43	6619.04
448.62	6518.39
448.80	6586.27
448.99	6574.56
449.17	6565.20
449.36	6663.51
449.54	6586.27
449.73	6794.58
449.91	6726.70
450.10	6780.53
450.28	6981.82
450.46	6780.53
450.65	7035.65
450.83	6913.94
451.02	6970.12
451.20	7002.88
451.39	6972.46
451.57	6857.77
451.76	7066.08
451.94	7037.99
452.13	7012.24
452.31	7012.24
452.49	6888.20
452.68	7077.78
452.86	7005.22
453.05	7070.76
453.23	7005.22
453.42	7187.79
453.60	7101.19
453.78	6944.37
453.97	7005.22
454.15	7049.69
454.34	7000.54
454.52	7272.04
454.70	7007.56
454.89	7265.02
455.07	7346.94
455.26	7485.03
455.44	7576.31
455.62	7620.78
455.81	7475.67
455.99	7595.04
456.17	7384.39
456.36	7749.51
456.54	7808.03
456.73	7747.17
456.91	8053.78
457.09	7782.28
457.28	8056.12
457.46	7740.15
457.64	7723.77
457.83	7639.51
458.01	7817.39
458.19	7997.61
458.38	7698.02
458.56	8044.42
458.74	7875.90
458.93	7887.61
459.11	7981.23
459.29	8229.32
459.48	8140.38
459.66	7974.21
459.84	8053.78
460.03	8411.89
460.21	8341.67
460.39	8138.04
460.57	8208.26
460.76	8327.63
460.94	8482.10
461.12	8198.90
461.31	8393.16
461.49	8255.07
461.67	8334.65
461.85	8594.45
462.04	8442.31
462.22	8802.75
462.40	8636.58
462.59	8596.79
462.77	8676.37
462.95	8589.77
463.13	8615.51
463.32	8615.51
463.50	8500.83
463.68	8603.81
463.86	8643.60
464.05	8648.28
464.23	8652.96
464.41	8599.13
464.59	8594.45
464.78	8950.21
464.96	8648.28
465.14	8819.14
465.32	8847.22
465.50	9088.30
465.69	9020.42
465.87	8830.84
466.05	8760.63
466.23	8702.11
466.41	8894.04
466.60	9085.96
466.78	8987.66
466.96	8833.18
467.14	9153.84
467.32	9011.06
467.51	9362.14
467.69	8823.82
467.87	8990.00
468.05	9287.25
468.23	9207.67
468.41	9221.71
468.60	9294.27
468.78	9366.82
468.96	9348.10
469.14	9432.36
469.32	9294.27
469.50	9315.33
469.69	9462.79
469.87	9586.83
470.05	9486.19
470.23	9535.34
470.41	9614.92
470.59	9570.45
470.77	9542.36
470.95	9680.46
471.14	9834.93
471.32	9825.57
471.50	9914.51
471.68	9792.80
471.86	10139.20
472.04	9961.32
472.22	10188.35
472.40	9975.36
472.58	9951.96
472.77	10113.45
472.95	10186.01
473.13	10441.13
473.31	10263.25
473.49	10118.14
473.67	10258.57
473.85	10637.73
474.03	10485.60
474.21	10469.22
474.39	10956.05
474.57	10553.48
474.75	10862.43
474.93	10974.77
475.12	10888.17
475.30	10995.84
475.48	10916.26
475.66	11087.12
475.84	11040.31
476.02	11007.54
476.20	11101.16
476.38	11396.07
476.56	11499.05
476.74	11545.86
476.92	11309.47
477.10	11527.14
477.28	11707.36
477.46	11742.47
477.64	11880.56
477.82	11854.81
478.00	12252.70
478.18	12311.22
478.36	12271.43
478.54	12437.61
478.72	12299.52
478.90	12439.95
479.08	12641.23
479.26	12751.24
479.44	12540.59
479.62	12896.35
479.80	12765.28
479.98	13071.89
480.16	13282.54
480.34	12987.63
480.52	13209.98
480.70	13277.86
480.88	13111.68
481.06	13357.44
481.24	13490.85
481.41	13504.89
481.59	14127.47
481.77	14040.87
481.95	14129.81
482.13	14136.84
482.31	14230.46
482.49	14530.05
482.67	14478.55
482.85	14686.86
483.03	14410.68
483.21	14698.56
483.39	15094.11
483.57	14923.26
483.74	14876.44
483.92	15030.92
484.10	14991.13
484.28	15295.40
484.46	15712.02
484.64	15824.36
484.82	15606.69
485.00	15805.64
485.18	16212.89
485.35	16051.39
485.53	15829.04
485.71	15726.06
485.89	16428.22
486.07	16030.33
486.25	16404.81
486.43	16236.30
486.61	16662.27
486.78	16767.60
486.96	16950.16
487.14	17160.81
487.32	17329.33
487.50	17453.37
487.68	17855.95
487.85	17811.48
488.03	18209.37
488.21	18139.15
488.39	17933.18
488.57	17862.97
488.75	18251.50
488.92	18712.58
489.10	18810.89
489.28	18728.97
489.46	18988.77
489.64	18785.14
489.81	19648.80
489.99	19536.45
490.17	19580.92
490.35	19971.79
490.53	20011.58
490.70	20004.56
490.88	20009.24
491.06	20196.48
491.24	20016.26
491.41	20243.29
491.59	20643.52
491.77	20365.00
491.95	20475.01
492.13	20807.36
492.30	20912.69
492.48	21259.09
492.66	21666.34
492.84	21366.75
493.01	21460.37
493.19	21254.40
493.37	21722.51
493.54	22017.42
493.72	21968.27
493.90	21907.41
494.08	22436.38
494.25	22405.95
494.43	22448.08
494.61	22640.00
494.79	22679.79
494.96	22918.53
495.14	22895.12
495.32	23215.77
495.49	23145.56
495.67	23178.33
495.85	23515.36
496.02	23601.96
496.20	23817.29
496.38	23777.50
496.55	23840.70
496.73	24629.46
496.91	24201.14
497.09	24397.74
497.26	24016.24
497.44	24266.67
497.62	24638.82
497.79	25111.61
497.97	24685.63
498.14	24945.43
498.32	25053.09
498.50	25198.21
498.67	25333.96
498.85	25462.69
499.03	25816.11
499.20	25537.59
499.38	25715.47
499.56	25944.84
499.73	25961.22
499.91	25785.68
500.08	25933.14
500.26	25759.94
500.44	25809.09
500.61	25811.43
500.79	26387.20
500.97	26415.29
501.14	27065.96
501.32	26574.44
501.49	26363.79
501.67	26628.27
501.84	26738.28
502.02	26745.30
502.20	27431.08
502.37	27328.10
502.55	27236.81
502.72	27494.27
502.90	27725.99
503.07	27211.07
503.25	27885.14
503.43	27405.33
503.60	27264.90
503.78	27580.87
503.95	27508.32
504.13	28201.11
504.30	28486.66
504.48	28458.57
504.65	27882.80
504.83	28334.53
505.01	28701.99
505.18	28589.64
505.36	28638.80
505.53	28748.80
505.71	29064.77
505.88	29371.38
506.06	28804.97
506.23	28910.30
506.41	29053.07
506.58	28992.22
506.76	29261.38
506.93	28966.47
507.11	29511.81
507.28	29455.64
507.46	29200.52
507.63	29273.08
507.81	29523.52
507.98	29769.27
508.16	29703.74
508.33	30099.29
508.50	30036.09
508.68	30029.07
508.85	30267.81
509.03	30171.85
509.20	30518.25
509.38	30787.41
509.55	30684.42
509.73	30455.05
509.90	31007.42
510.08	30595.48
510.25	30988.69
510.42	30766.34
510.60	31087.00
510.77	31281.26
510.95	31449.78
511.12	31014.44
511.30	31435.74
511.47	31665.11
511.64	32077.04
511.82	31882.78
511.99	31531.70
512.17	31660.43
512.34	31732.98
512.51	32238.54
512.69	32180.03
512.86	32299.39
513.04	32355.57
513.21	32385.99
513.38	32077.04
513.56	31922.57
513.73	31929.59
513.90	32437.48
514.08	32657.49
514.25	32985.17
514.43	32432.80
514.60	32463.23
514.77	32858.78
514.95	33216.88
515.12	32978.15
515.29	33509.45
515.47	33750.52
515.64	33855.85
515.81	32905.59
515.99	33029.64
516.16	32914.95
516.33	32847.08
516.51	33347.95
516.68	32692.60
516.85	33085.81
517.03	32978.15
517.20	33308.16
517.37	33518.81
517.54	33921.38
517.72	33677.97
517.89	33879.25
518.06	33600.73
518.24	33823.08
518.41	33694.35
518.58	33888.62
518.75	33830.10
518.93	34022.03
519.10	34258.42
519.27	34672.70
519.45	34452.69
519.62	34728.87
519.79	34827.17
519.96	35147.82
520.14	34675.04
520.31	34543.97
520.48	34630.57
520.65	35196.98
520.83	35222.72
521.00	34960.58
521.17	35093.99
521.34	35641.68
521.52	35784.45
521.69	35526.99
521.86	35597.21
522.03	35981.06
522.20	36079.36
522.38	36098.08
522.55	36034.89
522.72	35770.41
522.89	35873.39
523.07	36170.64
523.24	35878.07
523.41	36044.25
523.58	36067.66
523.75	36807.26
523.92	36680.88
524.10	36973.44
524.27	36442.14
524.44	37137.28
524.61	36889.18
524.78	36823.65
524.96	37081.11
525.13	36795.56
525.30	37163.03
525.47	37371.33
525.64	37277.71
525.81	37125.58
525.98	37258.99
526.16	36966.42
526.33	36456.18
526.50	37532.83
526.67	36971.10
526.84	37116.22
527.01	37214.52
527.18	37319.84
527.36	37656.88
527.53	37589.00
527.70	38213.93
527.87	37991.58
528.04	37605.39
528.21	38000.94
528.38	37933.06
528.55	38305.21
528.72	37724.75
528.89	38124.99
529.07	38036.05
529.24	37902.64
529.41	38190.52
529.58	37909.66
529.75	37834.76
529.92	38387.13
530.09	38515.86
530.26	38604.80
530.43	38813.10
530.60	38550.96
530.77	38499.47
530.94	39061.20
531.11	38754.59
531.28	38766.29
531.46	39332.70
531.63	39108.01
531.80	39187.59
531.97	39082.27
532.14	39009.71
532.31	38710.12
532.48	39278.87
532.65	39393.56
532.82	39227.38
532.99	39576.12
533.16	39480.16
533.33	39569.10
533.50	39917.84
533.67	39194.61
533.84	39618.25
534.01	39641.65
534.18	39391.22
534.35	40140.19
534.52	39426.32
534.69	39779.74
534.86	39817.19
535.03	39871.03
535.20	39952.94
535.37	40275.94
535.54	40631.70
535.71	40130.83
535.88	40018.48
536.05	39985.71
536.22	40158.91
536.38	40870.43
536.55	40217.43
536.72	40053.59
536.89	40512.33
537.06	40451.48
537.23	40865.75
537.40	40577.87
537.57	40690.21
537.74	40376.58
537.91	41375.99
538.08	41184.07
538.25	40746.39
538.42	40699.58
538.59	40875.12
538.75	40776.81
538.92	40807.24
539.09	40428.07
539.26	40652.76
539.43	41155.98
539.60	40701.92
539.77	41184.07
539.94	41127.89
540.11	40816.60
540.28	40355.52
540.44	40938.31
540.61	40893.84
540.78	41226.20
540.95	40975.76
541.12	40966.40
541.29	41214.49
541.46	41223.86
541.62	41635.79
541.79	41598.34
541.96	41193.43
542.13	41514.08
542.30	41755.16
542.47	41881.55
542.63	41696.64
542.80	42024.32
542.97	41937.72
543.14	42454.98
543.31	42178.79
543.48	42038.36
543.64	42550.94
543.81	42742.86
543.98	42066.45
544.15	42452.64
544.32	42504.13
544.48	42859.89
544.65	42176.45
544.82	42593.07
544.99	42415.19
545.16	42433.91
545.32	42464.34
545.49	42714.78
545.66	42710.10
545.83	42895.00
546.00	42997.98
546.16	42583.71
546.33	42679.67
546.50	42677.33
546.67	42494.77
546.83	42387.10
547.00	42810.74
547.17	42684.35
547.34	42614.13
547.50	43089.26
547.67	43103.31
547.84	42892.66
548.00	43217.99
548.17	43386.51
548.34	43388.85
548.51	43438.00
548.67	43709.50
548.84	43508.22
549.01	43515.24
549.18	42815.42
549.34	43620.56
549.51	43569.07
549.68	43791.42
549.84	43632.27
550.01	43775.04
550.18	43454.39
550.34	43180.54
550.51	43180.54
550.68	43356.08
550.84	43325.66
551.01	43690.78
551.18	43482.47
551.34	43576.09
551.51	43896.75
551.68	43672.06
551.84	44203.36
552.01	44051.22
552.18	43997.39
552.34	43887.39
552.51	43934.20
552.68	43646.31
552.84	44107.40
553.01	43871.00
553.18	44006.75
553.34	44247.83
553.51	44107.40
553.67	44362.51
553.84	44245.49
554.01	44423.37
554.17	44507.63
554.34	44378.90
554.51	44587.21
554.67	44626.99
554.84	44687.85
555.00	44149.53
555.17	44378.90
555.33	44692.53
555.50	44495.92
555.67	44711.25
555.83	44645.72
556.00	44257.19
556.16	44905.52
556.33	44500.61
556.50	44416.35
556.66	44655.08
556.83	44414.01
556.99	44837.64
557.16	44591.89
557.32	44669.12
557.49	44954.67
557.65	44664.44
557.82	44870.41
557.98	44779.13
558.15	44966.37
558.32	45085.74
558.48	44949.99
558.65	44868.07
558.81	44842.32
558.98	44818.92
559.14	44856.37
559.31	45120.85
559.47	45069.36
559.64	45305.75
559.80	45322.13
559.97	45125.53
560.13	44947.65
560.30	44828.28
560.46	45212.13
560.63	45064.67
560.79	44994.46
560.96	45090.42
561.12	44825.94
561.29	45492.99
561.45	45549.17
561.61	45390.01
561.78	45085.74
561.94	45368.94
562.11	45563.21
562.27	45287.03
562.44	45179.36
562.60	45783.22
562.77	45666.19
562.93	45422.78
563.10	45230.85
563.26	45062.33
563.42	45954.08
563.59	45326.81
563.75	45406.39
563.92	45518.74
564.08	45345.54
564.24	45776.20
564.41	45429.80
564.57	45844.07
564.74	45378.31
564.90	45429.80
565.07	46115.58
565.23	45911.95
565.39	45343.20
565.56	45397.03
565.72	45413.41
565.88	45422.78
566.05	45546.82
566.21	45579.59
566.38	45261.28
566.54	45631.08
566.70	45923.65
566.87	46115.58
567.03	45705.98
567.19	45633.42
567.36	45900.25
567.52	45684.92
567.68	46082.81
567.85	45312.77
568.01	45755.13
568.17	45404.05
568.34	45975.14
568.50	45954.08
568.66	45378.31
568.83	45790.24
568.99	45743.43
569.15	45518.74
569.32	45621.72
569.48	45315.11
569.64	46143.66
569.81	45914.29
569.97	45713.00
570.13	45729.39
570.30	45715.34
570.46	45530.44
570.62	45448.52
570.78	45659.17
570.95	45661.51
571.11	45691.94
571.27	45776.20
571.43	45827.69
571.60	45272.98
571.76	45865.14
571.92	45448.52
572.09	45914.29
572.25	45876.84
572.41	45944.72
572.57	45811.31
572.74	46401.12
572.90	46019.61
573.06	45743.43
573.22	45869.82
573.38	45591.30
573.55	45659.17
573.71	46263.03
573.87	45968.12
574.03	45385.33
574.20	46295.80
574.36	45979.82
574.52	46366.01
574.68	45972.80
574.84	45862.80
575.01	45811.31
575.17	46019.61
575.33	45792.58
575.49	45787.90
575.65	46445.59
575.82	46272.39
575.98	45907.27
576.14	46344.95
576.30	45855.78
576.46	45591.30
576.62	45783.22
576.79	45680.24
576.95	45471.93
577.11	46082.81
577.27	46043.02
577.43	46146.00
577.59	46232.60
577.75	46103.87
577.92	45507.04
578.08	45673.21
578.24	45492.99
578.40	45918.97
578.56	45666.19
578.72	45830.03
578.88	46024.29
579.04	45921.31
579.21	45691.94
579.37	46071.10
579.53	45764.49
579.69	45947.06
579.85	46078.13
580.01	46263.03
580.17	46007.91
580.33	46272.39
580.49	46199.83
580.65	46347.29
580.82	45865.14
580.98	46267.71
581.14	46195.15
581.30	46438.57
581.46	46155.36
581.62	45909.61
581.78	46068.76
581.94	46693.69
582.10	46047.70
582.26	46274.73
582.42	46309.84
582.58	46344.95
582.74	45923.65
582.90	46043.02
583.06	46375.37
583.22	46445.59
583.38	46557.94
583.54	46375.37
583.70	46134.30
583.86	45799.60
584.02	45874.50
584.18	46291.12
584.34	46270.05
584.50	46178.77
584.66	46241.96
584.82	45729.39
584.98	46480.70
585.14	46263.03
585.30	46127.28
585.46	46078.13
585.62	45848.75
585.78	46066.42
585.94	45867.48
586.10	45909.61
586.26	45504.70
586.42	46141.32
586.58	45949.40
586.74	45776.20
586.90	46354.31
587.06	46047.70
587.22	46513.47
587.38	45839.39
587.54	46260.69
587.70	46431.55
587.86	46038.34
588.02	46050.04
588.18	46447.93
588.34	46073.45
588.49	45909.61
588.65	45563.21
588.81	45687.26
588.97	45947.06
589.13	45333.84
589.29	46061.74
589.45	45572.57
589.61	46150.68
589.77	46450.27
589.93	46375.37
