SpectraSuite Data File
++++++++++++++++++++++++++++++++++++
Date: Fri Oct 25 11:23:28 EDT 2013
User: price-jones
Dark Spectrum Present: No
Reference Spectrum Present: No
Number of Sampled Component Spectra: 1
Spectrometers: USB2+H05261
Integration Time (usec): 100000 (USB2+H05261)
Spectra Averaged: 1 (USB2+H05261)
Boxcar Smoothing: 0 (USB2+H05261)
Correct for Electrical Dark: No (USB2+H05261)
Strobe/Lamp Enabled: No (USB2+H05261)
Correct for Detector Non-linearity: No (USB2+H05261)
Correct for Stray Light: No (USB2+H05261)
Number of Pixels in Processed Spectrum: 2048
>>>>>Begin Processed Spectral Data<<<<<
365.73	241.08
365.92	241.08
366.12	241.08
366.32	72.56
366.52	133.41
366.72	215.33
366.91	79.58
367.11	170.86
367.31	149.79
367.51	121.71
367.70	156.82
367.90	133.41
368.10	140.43
368.30	128.73
368.49	28.09
368.69	112.35
368.89	163.84
369.09	133.41
369.28	98.30
369.48	161.50
369.68	266.82
369.87	187.24
370.07	203.63
370.27	271.50
370.47	409.59
370.66	648.33
370.86	638.97
371.06	657.69
371.25	660.03
371.45	667.05
371.65	645.99
371.84	594.50
372.04	629.60
372.24	755.99
372.44	734.93
372.63	774.72
372.83	734.93
373.03	767.70
373.22	732.59
373.42	746.63
373.62	772.38
373.81	821.53
374.01	828.55
374.21	758.33
374.40	784.08
374.60	765.36
374.79	814.51
374.99	800.46
375.19	849.61
375.38	898.77
375.58	751.31
375.78	919.83
375.97	884.72
376.17	947.92
376.37	798.12
376.56	908.13
376.76	898.77
376.95	880.04
377.15	868.34
377.35	844.93
377.54	917.49
377.74	844.93
377.93	898.77
378.13	976.00
378.33	931.53
378.52	917.49
378.72	966.64
378.91	938.55
379.11	957.28
379.31	987.71
379.50	823.87
379.70	940.90
379.89	1011.11
380.09	1008.77
380.28	947.92
380.48	945.58
380.68	910.47
380.87	884.72
381.07	1008.77
381.26	1076.65
381.46	1039.20
381.65	973.66
381.85	966.64
382.04	1111.75
382.24	1088.35
382.43	1001.75
382.63	980.68
382.83	1083.67
383.02	1081.33
383.22	1064.94
383.41	992.39
383.61	1132.82
383.80	1186.65
384.00	1067.28
384.19	1090.69
384.39	1100.05
384.58	1057.92
384.78	1034.52
384.97	1221.76
385.17	1125.80
385.36	1196.01
385.56	1266.23
385.75	1135.16
385.95	1200.69
386.14	1172.61
386.34	1240.48
386.53	1186.65
386.72	1144.52
386.92	1217.08
387.11	1245.16
387.31	1268.57
387.50	1254.53
387.70	1254.53
387.89	1291.98
388.09	1294.32
388.28	1235.80
388.48	1287.29
388.67	1291.98
388.86	1259.21
389.06	1273.25
389.25	1352.83
389.45	1324.74
389.64	1329.42
389.84	1364.53
390.03	1331.76
390.22	1397.30
390.42	1430.07
390.61	1404.32
390.81	1364.53
391.00	1406.66
391.19	1502.62
391.39	1495.60
391.58	1418.36
391.78	1373.89
391.97	1502.62
392.16	1380.92
392.36	1537.73
392.55	1521.35
392.75	1579.86
392.94	1526.03
393.13	1554.12
393.33	1488.58
393.52	1519.01
393.71	1579.86
393.91	1603.27
394.10	1626.67
394.29	1572.84
394.49	1591.56
394.68	1593.90
394.88	1650.08
395.07	1703.91
395.26	1703.91
395.46	1664.12
395.65	1647.74
395.84	1790.51
396.04	1788.17
396.23	1659.44
396.42	1830.30
396.62	1743.70
396.81	1710.93
397.00	1788.17
397.19	1694.55
397.39	1767.10
397.58	1734.34
397.77	1727.32
397.97	1874.77
398.16	1853.70
398.35	1926.26
398.55	1797.53
398.74	2066.69
398.93	1994.14
399.12	1942.64
399.32	1914.56
399.51	1963.71
399.70	2005.84
399.90	1926.26
400.09	2022.22
400.28	2097.12
400.47	2017.54
400.67	2125.21
400.86	1959.03
401.05	2038.61
401.24	2125.21
401.44	2003.50
401.63	2153.29
401.82	2150.95
402.01	2097.12
402.21	2127.55
402.40	2179.04
402.59	2136.91
402.78	2256.28
402.97	2242.23
403.17	2223.51
403.36	2394.37
403.55	2260.96
403.74	2359.26
403.93	2408.41
404.13	2317.13
404.32	2303.09
404.51	2363.94
404.70	2422.45
404.89	2370.96
405.09	2492.67
405.28	2408.41
405.47	2448.20
405.66	2530.12
405.85	2502.03
406.05	2576.93
406.24	2537.14
406.43	2588.63
406.62	2670.55
406.81	2677.57
407.00	2651.83
407.20	2572.25
407.39	2698.64
407.58	2696.30
407.77	2832.05
407.96	2775.88
408.15	2637.78
408.34	2796.94
408.54	2928.01
408.73	2780.56
408.92	2785.24
409.11	2897.58
409.30	2956.10
409.49	2888.22
409.68	2928.01
409.87	2913.97
410.07	2885.88
410.26	3005.25
410.45	2998.23
410.64	2946.73
410.83	3023.97
411.02	3019.29
411.21	3166.74
411.40	3035.67
411.59	3351.65
411.78	3145.68
411.98	3183.13
412.17	3246.32
412.36	3332.92
412.55	3449.95
412.74	3368.03
412.93	3304.84
413.12	3295.47
413.31	3552.93
413.50	3541.23
413.69	3569.32
413.88	3679.32
414.07	3501.44
414.26	3772.94
414.45	3705.07
414.64	3674.64
414.83	3763.58
415.02	3810.39
415.22	3864.22
415.41	3955.51
415.60	3946.14
415.79	3950.82
415.98	3936.78
416.17	3911.04
416.36	3864.22
416.55	3964.87
416.74	4037.42
416.93	4067.85
417.12	4147.43
417.31	4271.48
417.50	4168.49
417.69	4322.97
417.88	4381.48
418.07	4229.35
418.26	4379.14
418.45	4388.50
418.64	4503.19
418.83	4451.70
419.02	4484.47
419.21	4528.94
419.39	4519.57
419.58	4367.44
419.77	4542.98
419.96	4648.30
420.15	4631.92
420.34	4641.28
420.53	4592.13
420.72	4638.94
420.91	4730.22
421.10	4667.03
421.29	4758.31
421.48	4723.20
421.67	4821.50
421.86	4791.08
422.05	4840.23
422.24	4791.08
422.43	4856.61
422.61	4912.78
422.80	5022.79
422.99	4964.28
423.18	4922.15
423.37	5078.96
423.56	4961.94
423.75	5060.24
423.94	4924.49
424.13	4697.46
424.32	4945.55
424.50	5076.62
424.69	5090.67
424.88	5081.30
425.07	5123.43
425.26	4791.08
425.45	4936.19
425.64	5015.77
425.83	5001.72
426.01	4940.87
426.20	5104.71
426.39	5100.03
426.58	5217.05
426.77	5060.24
426.96	5102.37
427.15	5217.05
427.33	5125.77
427.52	5280.25
427.71	5308.34
427.90	5205.35
428.09	5214.71
428.28	5364.51
428.46	5352.81
428.65	5291.95
428.84	5626.65
429.03	5575.16
429.22	5563.45
429.40	5551.75
429.59	5614.95
429.78	5465.15
429.97	5200.67
430.16	5479.19
430.34	5565.79
430.53	5724.95
430.72	5792.83
430.91	5715.59
431.10	5736.65
431.28	5614.95
431.47	5823.25
431.66	5900.49
431.85	5769.42
432.03	5827.93
432.22	6076.03
432.41	5940.28
432.60	5696.86
432.79	5926.24
432.97	6043.26
433.16	6031.56
433.35	6024.54
433.54	6038.58
433.72	6202.42
433.91	6019.86
434.10	6174.33
434.28	6101.78
434.47	6104.12
434.66	6246.89
434.85	6244.55
435.03	6356.90
435.22	6361.58
435.41	6457.54
435.59	6335.83
435.78	6574.56
435.97	6427.11
436.16	6537.12
436.34	6471.58
436.53	6485.62
436.72	6469.24
436.90	6401.37
437.09	6682.23
437.28	6525.41
437.46	6548.82
437.65	6663.51
437.84	6654.14
438.02	6656.48
438.21	6745.42
438.40	6546.48
438.58	7054.37
438.77	7101.19
438.96	7119.91
439.14	7220.55
439.33	7232.26
439.52	7220.55
439.70	7131.61
439.89	7307.15
440.08	7412.48
440.26	7370.35
440.45	7552.91
440.63	7337.58
440.82	7595.04
441.01	7541.21
441.19	7508.44
441.38	7660.57
441.57	7644.19
441.75	7770.58
441.94	7934.42
442.12	7850.16
442.31	8116.98
442.50	8105.28
442.68	8016.33
442.87	8063.15
443.05	8243.37
443.24	8290.18
443.43	8166.13
443.61	8205.92
443.80	8388.48
443.98	8032.72
444.17	7892.29
444.35	8259.75
444.54	8119.32
444.73	8435.29
444.91	8161.45
445.10	8430.61
445.28	8367.42
445.47	8287.84
445.65	8154.43
445.84	8458.70
446.02	8437.63
446.21	8409.54
446.39	8365.07
446.58	8561.68
446.77	8566.36
446.95	8379.12
447.14	8552.32
447.32	8655.30
447.51	8596.79
447.69	8250.39
447.88	8503.17
448.06	8610.83
448.25	8631.90
448.43	8493.80
448.62	8613.17
448.80	8521.89
448.99	8767.65
449.17	8821.48
449.36	8589.77
449.54	8940.85
449.73	8891.70
449.91	9001.70
450.10	9055.53
450.28	9067.24
450.46	9123.41
450.65	9071.92
450.83	8959.57
451.02	9020.42
451.20	9083.62
451.39	9188.94
451.57	9153.84
451.76	9329.38
451.94	9088.30
452.13	9291.93
452.31	9177.24
452.49	9170.22
452.68	9345.76
452.86	9551.73
453.05	9500.23
453.23	9659.39
453.42	9455.76
453.60	9415.98
453.78	9490.87
453.97	9373.85
454.15	9668.75
454.34	9650.03
454.52	9643.01
454.70	9673.43
454.89	9753.01
455.07	9863.02
455.26	9909.83
455.44	10061.96
455.62	10003.45
455.81	9930.89
455.99	10071.33
456.17	10061.96
456.36	9937.91
456.54	10188.35
456.73	10258.57
456.91	10539.43
457.09	10532.41
457.28	10539.43
457.46	10319.42
457.64	10703.27
457.83	10466.88
458.01	10600.29
458.19	10698.59
458.38	10644.76
458.56	10712.63
458.74	10747.74
458.93	10878.81
459.11	10803.91
459.29	10700.93
459.48	11105.84
459.66	10752.42
459.84	10979.45
460.03	11169.04
460.21	11000.52
460.39	11049.67
460.57	11159.67
460.76	11054.35
460.94	11023.92
461.12	11154.99
461.31	11044.99
461.49	11192.44
461.67	11108.18
461.85	11676.93
462.04	11147.97
462.22	11868.86
462.40	11613.74
462.59	11583.31
462.77	11662.89
462.95	11634.80
463.13	11580.97
463.32	11754.17
463.50	11644.17
463.68	11920.35
463.86	12028.01
464.05	11559.91
464.23	11854.81
464.41	12163.76
464.59	11964.82
464.78	12217.60
464.96	11901.62
465.14	12044.40
465.32	12119.29
465.50	12215.26
465.69	12212.92
465.87	12245.68
466.05	11903.96
466.23	12070.14
466.41	12393.14
466.60	12486.76
466.78	12264.41
466.96	12149.72
467.14	12519.53
467.32	12444.63
467.51	12507.82
467.69	12119.29
467.87	12463.35
468.05	12645.91
468.23	12428.24
468.41	12390.80
468.60	12638.89
468.78	12800.39
468.96	12634.21
469.14	12739.54
469.32	12826.14
469.50	12805.07
469.69	12996.99
469.87	13163.17
470.05	12999.34
470.23	13008.70
470.41	13200.62
470.59	13518.93
470.77	13224.03
470.95	13317.65
471.14	13652.34
471.32	13650.00
471.50	13589.15
471.68	13565.74
471.86	13638.30
472.04	13951.93
472.22	14045.55
472.40	13675.75
472.58	13984.70
472.77	14157.90
472.95	14115.77
473.13	14527.71
473.31	13902.78
473.49	14092.37
473.67	14359.19
473.85	14321.74
474.03	14679.84
474.21	14455.15
474.39	14614.30
474.57	14782.82
474.75	14981.77
474.93	14944.32
475.12	14815.59
475.30	15096.46
475.48	15119.86
475.66	15288.38
475.84	15206.46
476.02	15707.34
476.20	15410.09
476.38	15838.41
476.56	15948.41
476.74	16123.95
476.92	16006.92
477.10	15899.26
477.28	16086.50
477.46	16231.62
477.64	16154.38
477.82	16779.30
478.00	16884.62
478.18	16711.42
478.36	17011.01
478.54	17458.06
478.72	17238.05
478.90	17671.04
479.08	17834.88
479.26	17944.89
479.44	17961.27
479.62	17980.00
479.80	18029.15
479.98	18176.60
480.16	18352.14
480.34	18511.30
480.52	18579.17
480.70	18448.10
480.88	18710.24
481.06	18897.49
481.24	18984.09
481.41	19108.13
481.59	19667.52
481.77	19578.58
481.95	19601.99
482.13	19726.04
482.31	19704.97
482.49	20292.44
482.67	20051.37
482.85	20849.49
483.03	20912.69
483.21	20730.12
483.39	20877.58
483.57	21109.29
483.74	21149.08
483.92	21434.63
484.10	21132.70
484.28	21776.34
484.46	22054.87
484.64	22572.13
484.82	22015.08
485.00	22101.68
485.18	23023.85
485.35	22834.27
485.53	22972.36
485.71	23065.98
485.89	23775.16
486.07	23295.35
486.25	23501.32
486.43	23929.64
486.61	24081.77
486.78	24180.07
486.96	24161.35
487.14	24393.06
487.32	24524.13
487.50	25156.08
487.68	24994.58
487.85	25502.48
488.03	25631.21
488.21	25869.94
488.39	25879.30
488.57	26026.76
488.75	26288.90
488.92	26445.71
489.10	26593.17
489.28	26815.52
489.46	27227.45
489.64	27000.42
489.81	27819.61
489.99	27239.15
490.17	27798.54
490.35	28322.82
490.53	28367.29
490.70	28570.92
490.88	28425.81
491.06	29008.60
491.24	28905.62
491.41	29221.59
491.59	29450.96
491.77	29315.21
491.95	29928.43
492.13	29968.22
492.30	30162.48
492.48	30515.90
492.66	30536.97
492.84	30656.34
493.01	30834.22
493.19	30838.90
493.37	31426.37
493.54	31318.71
493.72	31363.18
493.90	31213.38
494.08	32219.81
494.25	31630.00
494.43	32084.06
494.61	32051.30
494.79	32893.89
494.96	32694.94
495.14	32699.62
495.32	33064.75
495.49	33294.12
495.67	33305.82
495.85	33921.38
496.02	34213.95
496.20	34586.10
496.38	34424.60
496.55	34415.24
496.73	34780.36
496.91	34649.29
497.09	34747.59
497.26	35290.60
497.44	35117.40
497.62	35239.11
497.79	35662.74
497.97	35784.45
498.14	36067.66
498.32	36196.38
498.50	36128.51
498.67	36617.68
498.85	36732.37
499.03	37216.86
499.20	36851.73
499.38	37127.92
499.56	36931.31
499.73	37624.11
499.91	37610.07
500.08	37757.52
500.26	37600.71
500.44	37654.54
500.61	38267.76
500.79	37940.08
500.97	38253.72
501.14	38845.87
501.32	38756.93
501.49	38543.94
501.67	38831.83
501.84	39093.97
502.02	39196.95
502.20	38897.36
502.37	39290.57
502.55	39831.24
502.72	39604.20
502.90	39489.52
503.07	39009.71
503.25	40053.59
503.43	39629.95
503.60	40322.75
503.78	40287.64
503.95	40439.78
504.13	40830.65
504.30	40432.75
504.48	41001.50
504.65	41284.71
504.83	41095.13
505.01	41539.83
505.18	41422.80
505.36	41354.93
505.53	41137.26
505.71	41490.68
505.88	41907.29
506.06	41593.66
506.23	41722.39
506.41	42033.68
506.58	42096.88
506.76	42270.08
506.93	42983.94
507.11	42185.82
507.28	42527.53
507.46	43236.72
507.63	43306.93
507.81	43669.72
507.98	42745.20
508.16	42904.36
508.33	43943.56
508.50	43805.47
508.68	43683.76
508.85	44121.44
509.03	44233.78
509.20	44559.12
509.38	44842.32
509.55	44261.87
509.73	44446.77
509.90	44414.01
510.08	44339.11
510.25	44746.36
510.42	44666.78
510.60	45287.03
510.77	45521.08
510.95	45773.86
511.12	45443.84
511.30	44926.58
511.47	45764.49
511.64	45507.04
511.82	46534.53
511.99	45897.91
512.17	46167.07
512.34	45904.93
512.51	46436.23
512.69	46574.32
512.86	46511.13
513.04	46522.83
513.21	46841.14
513.38	46674.96
513.56	47131.37
513.73	46976.89
513.90	47236.69
514.08	47070.51
514.25	47414.57
514.43	47489.47
514.60	47920.13
514.77	47655.65
514.95	47807.78
515.12	47599.47
515.29	47777.36
515.47	48212.70
515.64	48203.33
515.81	48388.24
515.99	48135.46
516.16	48786.13
516.33	48580.16
516.51	48701.87
516.68	48280.57
516.85	48875.07
517.03	48910.17
517.20	48971.03
517.37	49191.04
517.54	49200.40
517.72	49041.24
517.89	48683.14
518.06	49200.40
518.24	49434.45
518.41	48980.39
518.58	49523.40
518.75	49411.05
518.93	49434.45
519.10	49879.16
519.27	50160.02
519.45	49830.01
519.62	50014.91
519.79	50206.83
519.96	49851.07
520.14	50478.33
520.31	50380.03
520.48	50461.95
520.65	50557.91
520.83	50960.48
521.00	50843.46
521.17	50609.40
521.34	50927.72
521.52	50993.25
521.69	51089.21
521.86	51000.27
522.03	51437.95
522.20	51264.75
522.38	51697.75
522.55	51480.08
522.72	51700.09
522.89	51569.02
523.07	51770.31
523.24	51693.07
523.41	51657.96
523.58	51524.55
523.75	51826.48
523.92	52112.03
524.10	52413.96
524.27	52320.34
524.44	52179.90
524.61	52425.66
524.78	52294.59
524.96	52500.56
525.13	52362.46
525.30	52535.66
525.47	52615.24
525.64	52453.75
525.81	52882.06
525.98	52783.76
526.16	52559.07
526.33	52472.47
526.50	53010.79
526.67	53057.60
526.84	53120.80
527.01	53062.29
527.18	52963.98
527.36	53165.27
527.53	53174.63
527.70	53200.38
527.87	53312.72
528.04	53401.66
528.21	53427.41
528.38	53584.22
528.55	53642.74
528.72	53577.20
528.89	53455.50
529.07	53638.06
529.24	53635.72
529.41	53874.45
529.58	53778.49
529.75	53757.42
529.92	53719.98
530.09	54124.89
530.26	54061.69
530.43	54038.29
530.60	54094.46
530.77	54398.73
530.94	54218.51
531.11	53982.12
531.28	54099.14
531.46	54220.85
531.63	54286.39
531.80	54258.30
531.97	54190.42
532.14	54759.17
532.31	54555.55
532.48	54515.76
532.65	54607.04
532.82	54700.66
532.99	54733.43
533.16	54798.96
533.33	54993.23
533.50	55072.81
533.67	55049.40
533.84	54897.27
534.01	54990.89
534.18	54883.22
534.35	55407.50
534.52	55096.21
534.69	55238.98
534.86	55611.13
535.03	54995.57
535.20	55437.93
535.37	55260.05
535.54	55255.37
535.71	54953.44
535.88	55592.40
536.05	55332.60
536.22	55671.98
536.38	55739.86
536.55	55718.79
536.72	55524.53
536.89	55627.51
537.06	55709.43
537.23	55969.23
537.40	55650.92
537.57	55945.83
537.74	55955.19
537.91	56254.78
538.08	55821.78
538.25	55714.11
538.42	56149.45
538.59	56254.78
538.75	56044.13
538.92	56200.94
539.09	56432.66
539.26	56294.56
539.43	56044.13
539.60	56034.77
539.77	56301.59
539.94	56800.12
540.11	56652.67
540.28	56383.51
540.44	56559.05
540.61	56458.40
540.78	56598.83
540.95	56395.21
541.12	56655.01
541.29	56587.13
541.46	56985.02
541.62	56545.00
541.79	56926.51
541.96	56395.21
542.13	56514.58
542.30	56905.44
542.47	56877.36
542.63	57104.39
542.80	57137.16
542.97	57176.95
543.14	57368.87
543.31	57382.91
543.48	57167.58
543.64	57619.31
543.81	57357.17
543.98	57312.70
544.15	57272.91
544.32	57436.75
544.48	57773.78
544.65	57361.85
544.82	57565.48
544.99	57488.24
545.16	57638.03
545.32	57443.77
545.49	57708.25
545.66	57982.09
545.83	57752.72
546.00	57860.38
546.16	57832.30
546.33	57546.75
546.50	57490.58
546.67	57724.63
546.83	57705.91
547.00	57975.07
547.17	57979.75
547.34	57752.72
547.50	58059.33
547.67	58230.19
547.84	58155.29
548.00	58267.64
548.17	58396.37
548.34	58211.46
548.51	58323.81
548.67	58347.21
548.84	58314.45
549.01	58195.08
549.18	58363.60
549.34	58525.10
549.51	58309.77
549.68	58459.56
549.84	58417.43
550.01	58639.78
550.18	58134.23
550.34	58808.30
550.51	58511.05
550.68	58731.06
550.84	58354.24
551.01	58651.48
551.18	58618.72
551.34	58710.00
551.51	58717.02
551.68	58698.30
551.84	58681.91
552.01	58419.77
552.18	58726.38
552.34	58838.73
552.51	59070.44
552.68	58628.08
552.84	58686.59
553.01	59143.00
553.18	58871.49
553.34	59000.22
553.51	58658.51
553.67	58920.65
553.84	58981.50
554.01	58780.21
554.17	59023.63
554.34	59082.14
554.51	59182.79
554.67	59157.04
554.84	59047.04
555.00	59063.42
555.17	59023.63
555.33	59203.85
555.50	59145.34
555.67	59063.42
555.83	59049.38
556.00	59299.81
556.16	59365.35
556.33	59405.14
556.50	59489.40
556.66	59271.73
556.83	59133.63
556.99	59543.23
557.16	59552.59
557.32	59487.06
557.49	59646.21
557.65	59388.75
557.82	59402.80
557.98	59451.95
558.15	59501.10
558.32	59402.80
558.48	59552.59
558.65	59737.49
558.81	59564.29
558.98	59597.06
559.14	59664.94
559.31	59779.62
559.47	59760.90
559.64	59767.92
559.80	59739.83
559.97	59861.54
560.13	59697.70
560.30	59655.57
560.46	59770.26
560.63	60055.81
560.79	59856.86
560.96	60044.10
561.12	59920.05
561.29	60032.40
561.45	59798.35
561.61	59833.46
561.78	59774.94
561.94	59746.86
562.11	59913.03
562.27	59868.56
562.44	60001.97
562.60	60041.76
562.77	60135.38
562.93	59934.10
563.10	60186.88
563.26	59847.50
563.42	60367.10
563.59	60081.55
563.75	60257.09
563.92	60020.70
564.08	60149.43
564.24	60193.90
564.41	60310.92
564.57	60016.02
564.74	60198.58
564.90	60163.47
565.07	60273.48
565.23	60037.08
565.39	60205.60
565.56	60395.18
565.72	60261.77
565.88	60273.48
566.05	60324.97
566.21	60252.41
566.38	60507.53
566.54	60355.39
566.70	60392.84
566.87	60189.22
567.03	60324.97
567.19	60528.59
567.36	60411.57
567.52	60388.16
567.68	60757.97
567.85	60456.04
568.01	60505.19
568.17	60280.50
568.34	60523.91
568.50	60299.22
568.66	60280.50
568.83	60594.13
568.99	60348.37
569.15	60666.69
569.32	60664.35
569.48	60573.06
569.64	60636.26
569.81	60598.81
569.97	60519.23
570.13	60519.23
570.30	60369.44
570.46	60575.40
570.62	60533.28
570.78	60622.22
570.95	60626.90
571.11	60725.20
571.27	60739.24
571.43	60640.94
571.60	60933.51
571.76	60823.50
571.92	60720.52
572.09	60610.51
572.25	60680.73
572.41	60587.11
572.57	60540.30
572.74	60994.36
572.90	60753.29
573.06	60790.73
573.22	60640.94
573.38	60739.24
573.55	60769.67
573.71	60846.91
573.87	60945.21
574.03	60652.64
574.20	60718.18
574.36	60872.65
574.52	60849.25
574.68	60839.89
574.84	60762.65
575.01	60959.25
575.17	60947.55
575.33	60673.71
575.49	60687.75
575.65	60828.18
575.82	60760.31
575.98	60884.36
576.14	61050.53
576.30	61048.19
576.46	60889.04
576.62	60945.21
576.79	60727.54
576.95	60692.43
577.11	60832.86
577.27	60851.59
577.43	60959.25
577.59	60711.16
577.75	60732.22
577.92	60769.67
578.08	60924.14
578.24	61001.38
578.40	61043.51
578.56	60970.96
578.72	60921.80
578.88	61167.56
579.04	61174.58
579.21	60924.14
579.37	60860.95
579.53	61174.58
579.69	60935.85
579.85	60727.54
580.01	60919.46
580.17	60999.04
580.33	60921.80
580.49	60954.57
580.65	61043.51
580.82	60809.46
580.98	60699.45
581.14	60753.29
581.30	61085.64
581.46	60898.40
581.62	61062.24
581.78	60809.46
581.94	61165.22
582.10	61029.47
582.26	60999.04
582.42	60903.08
582.58	60844.57
582.74	60889.04
582.90	61197.99
583.06	60963.93
583.22	60898.40
583.38	61162.88
583.54	61242.46
583.70	61099.68
583.86	61160.54
584.02	61029.47
584.18	61221.39
584.34	61104.37
584.50	61066.92
584.66	60786.05
584.82	60774.35
584.98	61186.28
585.14	60975.64
585.30	61017.77
585.46	61151.18
585.62	61059.90
585.78	61249.48
585.94	61095.00
586.10	61137.13
586.26	61041.17
586.42	60999.04
586.58	61059.90
586.74	61090.32
586.90	61113.73
587.06	61200.33
587.22	61394.59
587.38	60914.78
587.54	61343.10
587.70	61155.86
587.86	61183.94
588.02	61223.73
588.18	61361.82
588.34	61195.65
588.49	61013.08
