SpectraSuite Data File
++++++++++++++++++++++++++++++++++++
Date: Fri Oct 25 11:24:08 EDT 2013
User: price-jones
Dark Spectrum Present: No
Reference Spectrum Present: No
Number of Sampled Component Spectra: 1
Spectrometers: USB2+H05261
Integration Time (usec): 100000 (USB2+H05261)
Spectra Averaged: 1 (USB2+H05261)
Boxcar Smoothing: 0 (USB2+H05261)
Correct for Electrical Dark: No (USB2+H05261)
Strobe/Lamp Enabled: No (USB2+H05261)
Correct for Detector Non-linearity: No (USB2+H05261)
Correct for Stray Light: No (USB2+H05261)
Number of Pixels in Processed Spectrum: 2048
>>>>>Begin Processed Spectral Data<<<<<
365.73	191.92
365.92	191.92
366.12	191.92
366.32	166.18
366.52	187.24
366.72	168.52
366.91	117.03
367.11	152.13
367.31	95.96
367.51	114.69
367.70	86.60
367.90	175.54
368.10	79.58
368.30	198.95
368.49	95.96
368.69	140.43
368.89	117.03
369.09	187.24
369.28	149.79
369.48	138.09
369.68	241.08
369.87	196.60
370.07	175.54
370.27	222.35
370.47	276.18
370.66	552.37
370.86	589.82
371.06	683.44
371.25	643.65
371.45	627.26
371.65	704.50
371.84	681.10
372.04	613.22
372.24	723.23
372.44	748.97
372.63	732.59
372.83	734.93
373.03	779.40
373.22	744.29
373.42	777.06
373.62	774.72
373.81	767.70
374.01	837.91
374.21	763.01
374.40	809.83
374.60	837.91
374.79	863.66
374.99	732.59
375.19	877.70
375.38	858.98
375.58	833.23
375.78	940.90
375.97	781.74
376.17	917.49
376.37	905.79
376.56	961.96
376.76	898.77
376.95	938.55
377.15	964.30
377.35	954.94
377.54	856.64
377.74	903.45
377.93	851.96
378.13	908.13
378.33	954.94
378.52	889.40
378.72	917.49
378.91	983.02
379.11	915.15
379.31	929.19
379.50	957.28
379.70	1043.88
379.89	987.71
380.09	910.47
380.28	1022.81
380.48	1055.58
380.68	1001.75
380.87	1011.11
381.07	945.58
381.26	1013.45
381.46	1104.73
381.65	952.60
381.85	1046.22
382.04	1078.99
382.24	1039.20
382.43	1046.22
382.63	1018.13
382.83	1123.46
383.02	1132.82
383.22	1224.10
383.41	1055.58
383.61	1144.52
383.80	1144.52
384.00	1177.29
384.19	1170.27
384.39	1137.50
384.58	1188.99
384.78	1090.69
384.97	1174.95
385.17	1144.52
385.36	1109.41
385.56	1238.14
385.75	1174.95
385.95	1193.67
386.14	1203.04
386.34	1142.18
386.53	1107.07
386.72	1198.35
386.92	1301.34
387.11	1254.53
387.31	1233.46
387.50	1303.68
387.70	1263.89
387.89	1329.42
388.09	1224.10
388.28	1205.38
388.48	1277.93
388.67	1224.10
388.86	1352.83
389.06	1357.51
389.25	1352.83
389.45	1357.51
389.64	1366.87
389.84	1336.45
390.03	1411.34
390.22	1399.64
390.42	1364.53
390.61	1336.45
390.81	1387.94
391.00	1448.79
391.19	1401.98
391.39	1392.62
391.58	1455.81
391.78	1474.54
391.97	1528.37
392.16	1495.60
392.36	1572.84
392.55	1551.78
392.75	1448.79
392.94	1479.22
393.13	1544.75
393.33	1568.16
393.52	1626.67
393.71	1643.06
393.91	1511.99
394.10	1605.61
394.29	1598.59
394.49	1528.37
394.68	1645.40
394.88	1661.78
395.07	1668.80
395.26	1657.10
395.46	1661.78
395.65	1664.12
395.84	1650.08
396.04	1755.40
396.23	1696.89
396.42	1645.40
396.62	1816.26
396.81	1827.96
397.00	1736.68
397.19	1914.56
397.39	1769.44
397.58	1820.94
397.77	1856.04
397.97	1881.79
398.16	1832.64
398.35	1907.54
398.55	1914.56
398.74	1867.75
398.93	1996.48
399.12	1935.62
399.32	2001.16
399.51	2071.37
399.70	2010.52
399.90	1912.22
400.09	2094.78
400.28	2026.90
400.47	2136.91
400.67	2134.57
400.86	2073.71
401.05	2052.65
401.24	2148.61
401.44	2097.12
401.63	2024.56
401.82	2209.47
402.01	2235.21
402.21	2291.38
402.40	2153.29
402.59	2179.04
402.78	2328.83
402.97	2239.89
403.17	2312.45
403.36	2324.15
403.55	2342.88
403.74	2282.02
403.93	2345.22
404.13	2352.24
404.32	2368.62
404.51	2403.73
404.70	2429.48
404.89	2427.14
405.09	2502.03
405.28	2464.58
405.47	2448.20
405.66	2497.35
405.85	2534.80
406.05	2487.99
406.24	2445.86
406.43	2567.57
406.62	2649.49
406.81	2583.95
407.00	2562.89
407.20	2670.55
407.39	2633.10
407.58	2693.96
407.77	2708.00
407.96	2759.49
408.15	2799.28
408.34	2836.73
408.54	2806.30
408.73	2956.10
408.92	2834.39
409.11	2750.13
409.30	2892.90
409.49	2810.98
409.68	3045.04
409.87	2937.37
410.07	2935.03
410.26	3077.80
410.45	3117.59
410.64	3030.99
410.83	3110.57
411.02	3190.15
411.21	3143.34
411.40	3136.32
411.59	3213.56
411.78	3164.40
411.98	3272.07
412.17	3300.16
412.36	3398.46
412.55	3309.52
412.74	3377.39
412.93	3375.05
413.12	3283.77
413.31	3522.51
413.50	3424.20
413.69	3494.42
413.88	3592.72
414.07	3555.27
414.26	3613.79
414.45	3861.88
414.64	3850.18
414.83	3805.71
415.02	3796.35
415.22	3981.25
415.41	3901.67
415.60	3908.69
415.79	4007.00
415.98	3911.04
416.17	3995.29
416.36	4023.38
416.55	3981.25
416.74	4109.98
416.93	4016.36
417.12	4229.35
417.31	4315.95
417.50	4287.86
417.69	4203.60
417.88	4348.72
418.07	4325.31
418.26	4266.80
418.45	4292.54
418.64	4582.77
418.83	4393.19
419.02	4451.70
419.21	4390.84
419.39	4538.30
419.58	4517.23
419.77	4491.49
419.96	4648.30
420.15	4690.43
420.34	4610.86
420.53	4676.39
420.72	4734.90
420.91	4732.56
421.10	4762.99
421.29	4856.61
421.48	4880.02
421.67	4873.00
421.86	4720.86
422.05	4788.74
422.24	4779.37
422.43	5062.58
422.61	4851.93
422.80	4887.04
422.99	5018.11
423.18	4980.66
423.37	5006.41
423.56	4931.51
423.75	4889.38
423.94	4770.01
424.13	4638.94
424.32	4858.95
424.50	4992.36
424.69	5076.62
424.88	5041.51
425.07	5069.60
425.26	4884.70
425.45	5095.35
425.64	5053.22
425.83	4987.68
426.01	5109.39
426.20	5085.98
426.39	5090.67
426.58	4992.36
426.77	5123.43
426.96	5114.07
427.15	5284.93
427.33	5219.39
427.52	5261.52
427.71	5224.08
427.90	5188.97
428.09	5416.00
428.28	5390.25
428.46	5387.91
428.65	5392.59
428.84	5586.86
429.03	5628.99
429.22	5280.25
429.40	5661.76
429.59	5710.91
429.78	5238.12
429.97	5252.16
430.16	5472.17
430.34	5820.91
430.53	5790.49
430.72	5820.91
430.91	5586.86
431.10	5614.95
431.28	5664.10
431.47	5834.96
431.66	5867.72
431.85	5851.34
432.03	6054.97
432.22	6092.41
432.41	5956.66
432.60	5928.58
432.79	6061.99
432.97	6115.82
433.16	6132.20
433.35	6061.99
433.54	6136.88
433.72	6265.61
433.91	6176.67
434.10	6176.67
434.28	6125.18
434.47	6169.65
434.66	6258.59
434.85	6324.13
435.03	6422.43
435.22	6375.62
435.41	6621.38
435.59	6457.54
435.78	6502.01
435.97	6415.41
436.16	6431.79
436.34	6413.07
436.53	6539.46
436.72	6696.27
436.90	6576.91
437.09	6827.34
437.28	6715.00
437.46	6700.95
437.65	6794.58
437.84	6810.96
438.02	6803.94
438.21	6892.88
438.40	6754.79
438.58	6857.77
438.77	7126.93
438.96	7021.61
439.14	7136.29
439.33	7190.13
439.52	7255.66
439.70	7286.09
439.89	7503.76
440.08	7501.42
440.26	7445.24
440.45	7297.79
440.63	7468.65
440.82	7562.27
441.01	7452.27
441.19	7653.55
441.38	7948.46
441.57	7864.20
441.75	7698.02
441.94	8002.29
442.12	7913.35
442.31	8170.81
442.50	8030.38
442.68	7936.76
442.87	8013.99
443.05	8114.64
443.24	8301.88
443.43	8088.89
443.61	8283.16
443.80	8372.10
443.98	8142.72
444.17	7934.42
444.35	8241.03
444.54	8404.86
444.73	8369.76
444.91	8311.24
445.10	8461.04
445.28	8318.26
445.47	8271.45
445.65	8372.10
445.84	8594.45
446.02	8554.66
446.21	8252.73
446.39	8521.89
446.58	8716.16
446.77	8613.17
446.95	8365.07
447.14	8517.21
447.32	8643.60
447.51	8458.70
447.69	8615.51
447.88	8596.79
448.06	8545.30
448.25	8594.45
448.43	8674.03
448.62	8547.64
448.80	8507.85
448.99	8514.87
449.17	8936.17
449.36	8671.68
449.54	8947.87
449.73	9043.83
449.91	8936.17
450.10	9036.81
450.28	9104.68
450.46	9174.90
450.65	8964.25
450.83	9076.60
451.02	9125.75
451.20	9289.59
451.39	9177.24
451.57	9034.47
451.76	9186.60
451.94	9095.32
452.13	9289.59
452.31	9507.26
452.49	9172.56
452.68	9415.98
452.86	9252.14
453.05	9521.30
453.23	9596.20
453.42	9408.95
453.60	9476.83
453.78	9542.36
453.97	9551.73
454.15	9682.80
454.34	9631.30
454.52	9834.93
454.70	9561.09
454.89	9785.78
455.07	9657.05
455.26	10057.28
455.44	10045.58
455.62	9996.43
455.81	9996.43
455.99	10008.13
456.17	10038.56
456.36	10118.14
456.54	10113.45
456.73	10122.82
456.91	10239.84
457.09	10483.26
457.28	10651.78
457.46	10284.31
457.64	10665.82
457.83	10551.14
458.01	10511.35
458.19	10703.27
458.38	10773.49
458.56	10855.40
458.74	10675.18
458.93	10794.55
459.11	10658.80
459.29	10951.37
459.48	10899.87
459.66	10895.19
459.84	10984.13
460.03	11269.68
460.21	11152.65
460.39	11080.10
460.57	11178.40
460.76	11056.69
460.94	11192.44
461.12	11255.64
461.31	11169.04
461.49	11297.77
461.67	11183.08
461.85	11597.35
462.04	11232.23
462.22	11543.52
462.40	11765.87
462.59	11637.14
462.77	11576.29
462.95	11641.82
463.13	11892.26
463.32	11831.41
463.50	11829.07
463.68	11726.08
463.86	11901.62
464.05	11569.27
464.23	11749.49
464.41	11969.50
464.59	11749.49
464.78	12283.13
464.96	12060.78
465.14	11957.80
465.32	11922.69
465.50	12355.69
465.69	12280.79
465.87	12241.00
466.05	12006.95
466.23	12318.24
466.41	12365.05
466.60	12510.16
466.78	12248.02
466.96	12231.64
467.14	12505.48
467.32	12402.50
467.51	12645.91
467.69	12372.07
467.87	12493.78
468.05	12837.84
468.23	12439.95
468.41	12383.77
468.60	12666.98
468.78	12716.13
468.96	12655.28
469.14	12755.92
469.32	13041.46
469.50	12826.14
469.69	12968.91
469.87	12886.99
470.05	13130.41
470.23	13373.82
470.41	13041.46
470.59	13462.76
470.77	13247.43
470.95	13429.99
471.14	13870.01
471.32	13446.38
471.50	13734.26
471.68	13642.98
471.86	13949.59
472.04	13664.05
472.22	14286.63
472.40	13678.09
472.58	14024.49
472.77	14038.53
472.95	14134.50
473.13	14750.06
473.31	14305.35
473.49	14216.41
473.67	14342.80
473.85	14431.74
474.03	14642.39
474.21	14834.32
474.39	14963.04
474.57	14771.12
474.75	15154.97
474.93	15030.92
475.12	15094.11
475.30	15384.34
475.48	15122.20
475.66	15571.58
475.84	15208.80
476.02	15328.17
476.20	15564.56
476.38	15885.22
476.56	16016.29
476.74	16147.36
476.92	16051.39
477.10	15955.43
477.28	16325.24
477.46	16322.90
477.64	16596.74
477.82	16589.72
478.00	17224.00
478.18	16791.00
478.36	17011.01
478.54	17294.22
478.72	17331.67
478.90	17542.32
479.08	17757.64
479.26	17844.24
479.44	18010.42
479.62	17937.87
479.80	18380.23
479.98	18162.56
480.16	18939.62
480.34	18319.37
480.52	18644.71
480.70	18532.36
480.88	18551.09
481.06	18794.50
481.24	18693.86
481.41	19124.52
481.59	19349.21
481.77	19655.82
481.95	19627.73
482.13	19859.45
482.31	19836.04
482.49	20376.70
482.67	20060.73
482.85	20594.37
483.03	20720.76
483.21	20819.07
483.39	21139.72
483.57	20884.60
483.74	20980.56
483.92	21441.65
484.10	21338.66
484.28	22022.10
484.46	21935.50
484.64	22253.81
484.82	22040.82
485.00	22537.02
485.18	22799.16
485.35	23105.77
485.53	22932.57
485.71	23426.42
485.89	23447.49
486.07	23424.08
486.25	23728.35
486.43	23807.93
486.61	24299.44
486.78	24383.70
486.96	24463.28
487.14	24807.34
487.32	24360.30
487.50	25191.19
487.68	25013.31
487.85	25352.68
488.03	25874.62
488.21	26092.29
488.39	26143.78
488.57	26237.41
488.75	26466.78
488.92	26644.66
489.10	27180.64
489.28	27087.02
489.46	27239.15
489.64	27070.64
489.81	27878.12
489.99	28030.26
490.17	27796.20
490.35	28444.53
490.53	28678.58
490.70	28697.31
490.88	28304.10
491.06	29179.46
491.24	28875.19
491.41	29647.57
491.59	29586.71
491.77	29163.08
491.95	29518.84
492.13	29813.74
492.30	30188.23
492.48	30094.61
492.66	30747.62
492.84	30373.13
493.01	31068.27
493.19	30953.58
493.37	31232.11
493.54	31370.20
493.72	31758.73
493.90	31756.39
494.08	31864.05
494.25	32184.71
494.43	32624.73
494.61	32844.74
494.79	32788.56
494.96	32755.80
495.14	32947.72
495.32	33621.80
495.49	33102.20
495.67	33514.13
495.85	34195.23
496.02	34089.90
496.20	34115.65
496.38	34146.08
496.55	34183.52
496.73	34932.50
496.91	34653.97
497.09	35037.82
497.26	35503.59
497.44	34845.90
497.62	35419.33
497.79	35747.00
497.97	35915.52
498.14	36165.96
498.32	36505.34
498.50	36706.62
498.67	36732.37
498.85	36580.23
499.03	37067.06
499.20	36835.35
499.38	36987.49
499.56	37123.24
499.73	37460.27
499.91	37577.30
500.08	37940.08
500.26	37928.38
500.44	37993.92
500.61	38014.98
500.79	38162.43
500.97	38534.58
501.14	38820.13
501.32	38733.53
501.49	38476.07
501.67	38899.70
501.84	39440.37
502.02	39274.19
502.20	39512.92
502.37	39288.23
502.55	39643.99
502.72	40074.65
502.90	39789.11
503.07	39821.87
503.25	39948.26
503.43	39697.83
503.60	40545.10
503.78	40877.46
503.95	40247.85
504.13	40603.61
504.30	40926.61
504.48	40620.00
504.65	40577.87
504.83	41731.75
505.01	41397.06
505.18	41633.45
505.36	41769.20
505.53	41387.69
505.71	41598.34
505.88	41935.38
506.06	41769.20
506.23	42045.38
506.41	42265.39
506.58	42373.06
506.76	42450.30
506.93	42845.85
507.11	42735.84
507.28	42993.30
507.46	43337.36
507.63	43377.15
507.81	43620.56
507.98	43540.99
508.16	43283.53
508.33	43943.56
508.50	44009.09
508.68	44215.06
508.85	44123.78
509.03	44023.14
509.20	44498.26
509.38	44509.97
509.55	44842.32
509.73	44629.34
509.90	44744.02
510.08	44563.80
510.25	44931.26
510.42	44741.68
510.60	45324.47
510.77	45626.40
510.95	45799.60
511.12	45549.17
511.30	45628.74
511.47	46110.89
511.64	46050.04
511.82	46096.85
511.99	45797.26
512.17	46604.75
512.34	46178.77
512.51	46602.41
512.69	46595.38
512.86	46644.54
513.04	46864.55
513.21	46724.11
513.38	46937.10
513.56	47487.13
513.73	46986.25
513.90	46995.62
514.08	47217.97
514.25	47477.77
514.43	47819.49
514.60	47833.53
514.77	47557.35
514.95	47948.21
515.12	48133.12
515.29	48112.05
515.47	48098.01
515.64	48390.58
515.81	48437.39
515.99	48502.92
516.16	48683.14
516.33	48432.71
516.51	48781.45
516.68	48739.32
516.85	48992.09
517.03	48947.62
517.20	49296.36
517.37	48938.26
517.54	48942.94
517.72	49106.78
517.89	49411.05
518.06	49322.11
518.24	49858.09
518.41	49504.67
518.58	49930.65
518.75	49354.88
518.93	50054.70
519.10	50143.64
519.27	50007.89
519.45	50129.59
519.62	50373.01
519.79	50026.61
519.96	50068.74
520.14	50401.10
520.31	49956.39
520.48	50880.91
520.65	50560.25
520.83	50901.97
521.00	51009.64
521.17	50621.11
521.34	50843.46
521.52	51379.44
521.69	51236.67
521.86	50714.73
522.03	51793.71
522.20	51292.84
522.38	51817.12
522.55	51459.02
522.72	51444.98
522.89	51454.34
523.07	52025.43
523.24	51847.55
523.41	52041.81
523.58	51875.63
523.75	52193.95
523.92	51950.53
524.10	52350.76
524.27	52229.05
524.44	52428.00
524.61	52266.50
524.78	52617.58
524.96	52491.19
525.13	52514.60
525.30	52662.05
525.47	52839.93
525.64	52889.09
525.81	53078.67
525.98	53083.35
526.16	52713.55
526.33	52963.98
526.50	52973.34
526.67	53066.97
526.84	53270.59
527.01	53125.48
527.18	52863.34
527.36	53153.57
527.53	53247.19
527.70	53635.72
527.87	53577.20
528.04	53427.41
528.21	53336.13
528.38	53411.02
528.55	53675.51
528.72	53553.80
528.89	53673.16
529.07	53717.64
529.24	53743.38
529.41	53731.68
529.58	53874.45
529.75	53944.67
529.92	54071.06
530.09	54045.31
530.26	54031.27
530.43	54307.45
530.60	53888.49
530.77	53968.07
530.94	54232.55
531.11	54195.10
531.28	54492.35
531.46	54415.11
531.63	54466.61
531.80	54398.73
531.97	54501.71
532.14	54885.56
532.31	54724.07
532.48	54670.23
532.65	54653.85
532.82	54616.40
532.99	54967.48
533.16	54873.86
533.33	55056.42
533.50	55248.35
533.67	54958.12
533.84	54813.01
534.01	55262.39
534.18	55292.82
534.35	55599.43
534.52	55398.14
534.69	55379.42
534.86	55496.44
535.03	55157.06
535.20	55697.73
535.37	55540.91
535.54	55620.49
535.71	55540.91
535.88	55470.70
536.05	55587.72
536.22	55927.10
536.38	56072.21
536.55	55842.84
536.72	55791.35
536.89	55767.94
537.06	55648.58
537.23	56116.68
537.40	55936.46
537.57	56069.87
537.74	55756.24
537.91	56275.84
538.08	56114.34
538.25	55833.48
538.42	56095.62
538.59	56385.85
538.75	56140.09
538.92	56203.28
539.09	56673.73
539.26	56346.06
539.43	56350.74
539.60	56601.18
539.77	56655.01
539.94	56779.06
540.11	56666.71
540.28	56605.86
540.44	56596.49
540.61	56425.64
540.78	56757.99
540.95	56495.85
541.12	56502.87
541.29	56697.14
541.46	56903.10
541.62	56769.69
541.79	56835.23
541.96	56662.03
542.13	56575.43
542.30	56755.65
542.47	56992.04
542.63	57083.33
542.80	57090.35
542.97	57155.88
543.14	57418.02
543.31	57226.10
543.48	57251.84
543.64	57703.57
543.81	57836.98
543.98	57616.97
544.15	57474.20
544.32	57616.97
544.48	57675.48
544.65	57455.47
544.82	57511.64
544.99	57359.51
545.16	57886.13
545.32	57432.07
545.49	57855.70
545.66	58017.20
545.83	57649.74
546.00	58087.42
546.16	57801.87
546.33	57759.74
546.50	57673.14
546.67	58113.16
546.83	57542.07
547.00	57853.36
547.17	57954.00
547.34	57783.15
547.50	58293.38
547.67	58349.56
547.84	58277.00
548.00	58340.19
548.17	58583.61
548.34	58274.66
548.51	58211.46
548.67	58370.62
548.84	58333.17
549.01	58178.70
549.18	58288.70
549.34	58688.93
549.51	58468.92
549.68	58405.73
549.84	58424.45
550.01	58583.61
550.18	58525.10
550.34	58691.27
550.51	58604.67
550.68	58595.31
550.84	58447.86
551.01	58672.55
551.18	58581.27
551.34	58663.19
551.51	58812.98
551.68	58827.02
551.84	58735.74
552.01	58667.87
552.18	58724.04
552.34	58862.13
552.51	58775.53
552.68	58656.17
552.84	58787.24
553.01	59042.35
553.18	59262.36
553.34	59049.38
553.51	59025.97
553.67	59110.23
553.84	59143.00
554.01	58937.03
554.17	59133.63
554.34	59084.48
554.51	59220.23
554.67	59171.08
554.84	59135.98
555.00	59124.27
555.17	59341.94
555.33	59201.51
555.50	59290.45
555.67	59072.78
555.83	59311.52
556.00	59313.86
556.16	59409.82
556.33	59372.37
556.50	59517.48
556.66	59512.80
556.83	59384.07
556.99	59660.26
557.16	59566.63
557.32	59688.34
557.49	59676.64
557.65	59498.76
557.82	59433.22
557.98	59641.53
558.15	59620.47
558.32	59683.66
558.48	59426.20
558.65	59568.97
558.81	59803.03
558.98	59599.40
559.14	59749.20
559.31	59772.60
559.47	59810.05
559.64	59887.29
559.80	59983.25
559.97	60004.31
560.13	59784.30
560.30	59978.57
560.46	59896.65
560.63	60018.36
560.79	59938.78
560.96	59931.76
561.12	60086.23
561.29	59852.18
561.45	60069.85
561.61	60069.85
561.78	59831.11
561.94	59873.24
562.11	59863.88
562.27	60018.36
562.44	60074.53
562.60	60420.93
562.77	60165.81
562.93	60016.02
563.10	60331.99
563.26	60161.13
563.42	60488.80
563.59	60086.23
563.75	60186.88
563.92	60266.45
564.08	60083.89
564.24	60172.83
564.41	60238.37
564.57	60233.69
564.74	60364.76
564.90	60355.39
565.07	60205.60
565.23	60355.39
565.39	60378.80
565.56	60449.02
565.72	60111.98
565.88	60395.18
566.05	60254.75
566.21	60261.77
566.38	60360.08
566.54	60231.35
566.70	60341.35
566.87	60486.46
567.03	60126.02
567.19	60828.18
567.36	60472.42
567.52	60294.54
567.68	60772.01
567.85	60413.91
568.01	60683.07
568.17	60474.76
568.34	60645.62
568.50	60640.94
568.66	60313.26
568.83	60416.25
568.99	60619.88
569.15	60580.09
569.32	60568.38
569.48	60470.08
569.64	60877.33
569.81	60739.24
569.97	60556.68
570.13	60699.45
570.30	60516.89
570.46	60874.99
570.62	60842.23
570.78	60645.62
570.95	60523.91
571.11	60828.18
571.27	60664.35
571.43	60626.90
571.60	60666.69
571.76	60727.54
571.92	60811.80
572.09	60664.35
572.25	60715.84
572.41	60732.22
572.57	60858.61
572.74	60907.76
572.90	60711.16
573.06	60872.65
573.22	60828.18
573.38	60762.65
573.55	60739.24
573.71	60928.83
573.87	61020.11
574.03	60694.77
574.20	60966.27
574.36	60860.95
574.52	60938.19
574.68	60961.59
574.84	61034.15
575.01	60987.34
575.17	60767.33
575.33	60856.27
575.49	60809.46
575.65	60963.93
575.82	60973.30
575.98	61043.51
576.14	61045.85
576.30	61020.11
576.46	60790.73
576.62	60874.99
576.79	61109.05
576.95	60727.54
577.11	61001.38
577.27	60914.78
577.43	61010.74
577.59	60786.05
577.75	61027.13
577.92	60797.76
578.08	60720.52
578.24	61043.51
578.40	61153.52
578.56	61003.72
578.72	60975.64
578.88	61209.69
579.04	61219.05
579.21	61118.41
579.37	61069.26
579.53	61219.05
579.69	61029.47
579.85	60786.05
580.01	60917.12
580.17	60795.42
580.33	61162.88
580.49	61071.60
580.65	60935.85
580.82	60963.93
580.98	61017.77
581.14	60842.23
581.30	61078.62
581.46	60956.91
581.62	61146.50
581.78	61137.13
581.94	61165.22
582.10	61123.09
582.26	61027.13
582.42	61050.53
582.58	61123.09
582.74	60767.33
582.90	61146.50
583.06	61076.28
583.22	60994.36
583.38	61038.83
583.54	61141.81
583.70	61048.19
583.86	61286.93
584.02	61095.00
584.18	61090.32
584.34	60989.68
584.50	61228.41
584.66	61130.11
584.82	61006.06
584.98	61427.36
585.14	61317.35
585.30	60973.30
585.46	61258.84
585.62	60975.64
585.78	61399.27
585.94	61190.97
586.10	61528.00
586.26	61392.25
586.42	61205.01
586.58	61432.04
586.74	61324.38
586.90	61127.77
587.06	61017.77
587.22	61467.15
587.38	61165.22
587.54	61116.07
587.70	61488.21
587.86	61221.39
588.02	61293.95
588.18	61333.74
588.34	61158.20
588.49	61228.41
