SpectraSuite Data File
++++++++++++++++++++++++++++++++++++
Date: Fri Oct 25 11:34:27 EDT 2013
User: price-jones
Dark Spectrum Present: No
Reference Spectrum Present: No
Number of Sampled Component Spectra: 1
Spectrometers: USB2+H05261
Integration Time (usec): 100000 (USB2+H05261)
Spectra Averaged: 1 (USB2+H05261)
Boxcar Smoothing: 0 (USB2+H05261)
Correct for Electrical Dark: No (USB2+H05261)
Strobe/Lamp Enabled: No (USB2+H05261)
Correct for Detector Non-linearity: No (USB2+H05261)
Correct for Stray Light: No (USB2+H05261)
Number of Pixels in Processed Spectrum: 2048
>>>>>Begin Processed Spectral Data<<<<<
365.73	245.76
365.92	245.76
366.12	245.76
366.32	177.88
366.52	182.56
366.72	236.39
366.91	114.69
367.11	180.22
367.31	189.58
367.51	196.60
367.70	201.29
367.90	184.90
368.10	149.79
368.30	205.97
368.49	191.92
368.69	168.52
368.89	241.08
369.09	187.24
369.28	243.42
369.48	198.95
369.68	250.44
369.87	313.63
370.07	245.76
370.27	238.73
370.47	325.33
370.66	416.62
370.86	491.51
371.06	566.41
371.25	568.75
371.45	514.92
371.65	578.11
371.84	496.19
372.04	500.87
372.24	580.45
372.44	552.37
372.63	554.71
372.83	685.78
373.03	587.47
373.22	603.86
373.42	496.19
373.62	624.92
373.81	601.52
374.01	667.05
374.21	653.01
374.40	645.99
374.60	725.57
374.79	657.69
374.99	603.86
375.19	641.31
375.38	667.05
375.58	653.01
375.78	688.12
375.97	692.80
376.17	699.82
376.37	545.34
376.56	653.01
376.76	669.39
376.95	631.94
377.15	711.52
377.35	765.36
377.54	741.95
377.74	723.23
377.93	648.33
378.13	676.41
378.33	599.18
378.52	615.56
378.72	671.73
378.91	716.20
379.11	697.48
379.31	748.97
379.50	676.41
379.70	760.67
379.89	725.57
380.09	706.84
380.28	688.12
380.48	688.12
380.68	681.10
380.87	713.86
381.07	758.33
381.26	821.53
381.46	697.48
381.65	746.63
381.85	770.04
382.04	734.93
382.24	800.46
382.43	711.52
382.63	709.18
382.83	732.59
383.02	821.53
383.22	816.85
383.41	767.70
383.61	772.38
383.80	777.06
384.00	835.57
384.19	744.29
384.39	805.14
384.58	793.44
384.78	765.36
384.97	891.74
385.17	856.64
385.36	856.64
385.56	746.63
385.75	814.51
385.95	821.53
386.14	882.38
386.34	833.23
386.53	830.89
386.72	844.93
386.92	870.68
387.11	905.79
387.31	849.61
387.50	915.15
387.70	802.80
387.89	940.90
388.09	901.11
388.28	823.87
388.48	905.79
388.67	875.36
388.86	877.70
389.06	954.94
389.25	896.43
389.45	875.36
389.64	863.66
389.84	957.28
390.03	959.62
390.22	950.26
390.42	929.19
390.61	926.85
390.81	961.96
391.00	980.68
391.19	964.30
391.39	931.53
391.58	964.30
391.78	919.83
391.97	950.26
392.16	1020.47
392.36	966.64
392.55	1006.43
392.75	1043.88
392.94	1020.47
393.13	1088.35
393.33	1027.50
393.52	1036.86
393.71	1109.41
393.91	1118.78
394.10	1071.97
394.29	1107.07
394.49	1083.67
394.68	1050.90
394.88	1107.07
395.07	1146.86
395.26	1123.46
395.46	1090.69
395.65	1144.52
395.84	1125.80
396.04	1203.04
396.23	1151.54
396.42	1055.58
396.62	1165.59
396.81	1188.99
397.00	1149.20
397.19	1212.40
397.39	1228.78
397.58	1240.48
397.77	1137.50
397.97	1282.61
398.16	1245.16
398.35	1268.57
398.55	1301.34
398.74	1315.38
398.93	1256.87
399.12	1282.61
399.32	1282.61
399.51	1252.19
399.70	1313.04
399.90	1207.72
400.09	1313.04
400.28	1320.06
400.47	1313.04
400.67	1369.21
400.86	1343.47
401.05	1282.61
401.24	1401.98
401.44	1394.96
401.63	1409.00
401.82	1345.81
402.01	1411.34
402.21	1418.36
402.40	1385.60
402.59	1385.60
402.78	1446.45
402.97	1397.30
403.17	1495.60
403.36	1528.37
403.55	1537.73
403.74	1511.99
403.93	1568.16
404.13	1614.97
404.32	1577.52
404.51	1568.16
404.70	1570.50
404.89	1544.75
405.09	1614.97
405.28	1664.12
405.47	1500.28
405.66	1626.67
405.85	1671.14
406.05	1593.90
406.24	1593.90
406.43	1647.74
406.62	1734.34
406.81	1849.02
407.00	1736.68
407.20	1703.91
407.39	1706.25
407.58	1760.08
407.77	1706.25
407.96	1767.10
408.15	1832.64
408.34	1781.15
408.54	1795.19
408.73	1846.68
408.92	1884.13
409.11	1867.75
409.30	1912.22
409.49	1949.67
409.68	1863.07
409.87	1842.00
410.07	1928.60
410.26	1975.41
410.45	1977.75
410.64	2050.31
410.83	2101.80
411.02	1996.48
411.21	2122.87
411.40	2101.80
411.59	2125.21
411.78	2157.97
411.98	2097.12
412.17	2111.16
412.36	2139.25
412.55	2134.57
412.74	2202.44
412.93	2293.72
413.12	2277.34
413.31	2232.87
413.50	2310.11
413.69	2246.91
413.88	2429.48
414.07	2349.90
414.26	2408.41
414.45	2420.11
414.64	2487.99
414.83	2375.64
415.02	2457.56
415.22	2539.48
415.41	2502.03
415.60	2595.65
415.79	2619.06
415.98	2590.97
416.17	2544.16
416.36	2649.49
416.55	2560.55
416.74	2747.79
416.93	2764.17
417.12	2768.85
417.31	2726.72
417.50	2738.43
417.69	2778.22
417.88	2764.17
418.07	2789.92
418.26	2874.18
418.45	2818.00
418.64	3005.25
418.83	2958.44
419.02	3019.29
419.21	3075.46
419.39	2909.29
419.58	2977.16
419.77	2972.48
419.96	3096.53
420.15	3054.40
420.34	3038.02
420.53	3035.67
420.72	3192.49
420.91	3007.59
421.10	3194.83
421.29	3187.81
421.48	3138.66
421.67	3241.64
421.86	3103.55
422.05	3094.19
422.24	3148.02
422.43	3208.87
422.61	3190.15
422.80	3183.13
422.99	3377.39
423.18	3236.96
423.37	3332.92
423.56	3295.47
423.75	3211.22
423.94	3272.07
424.13	3038.02
424.32	3098.87
424.50	3204.19
424.69	3274.41
424.88	3346.97
425.07	3215.90
425.26	3220.58
425.45	3314.20
425.64	3330.58
425.83	3265.05
426.01	3375.05
426.20	3513.14
426.39	3260.37
426.58	3368.03
426.77	3403.14
426.96	3262.71
427.15	3485.06
427.33	3396.12
427.52	3286.11
427.71	3419.52
427.90	3447.61
428.09	3468.67
428.28	3548.25
428.46	3492.08
428.65	3588.04
428.84	3583.36
429.03	3658.26
429.22	3604.42
429.40	3641.87
429.59	3627.83
429.78	3545.91
429.97	3431.23
430.16	3447.61
430.34	3716.77
430.53	3620.81
430.72	3730.81
430.91	3693.37
431.10	3887.63
431.28	3803.37
431.47	3873.59
431.66	3904.01
431.85	3775.28
432.03	3822.09
432.22	3873.59
432.41	3995.29
432.60	3974.23
432.79	3922.74
432.97	4081.89
433.16	3927.42
433.35	3927.42
433.54	3969.55
433.72	4072.53
433.91	3955.51
434.10	3906.35
434.28	3974.23
434.47	4124.02
434.66	4205.94
434.85	4032.74
435.03	4224.67
435.22	4266.80
435.41	4219.99
435.59	4166.15
435.78	4182.54
435.97	4121.68
436.16	4203.60
436.34	4217.65
436.53	4140.41
436.72	4318.29
436.90	4189.56
437.09	4269.14
437.28	4196.58
437.46	4273.82
437.65	4435.32
437.84	4468.08
438.02	4411.91
438.21	4379.14
438.40	4482.13
438.58	4730.22
438.77	4601.49
438.96	4482.13
439.14	4634.26
439.33	4765.33
439.52	4634.26
439.70	4903.42
439.89	4877.68
440.08	4798.10
440.26	4877.68
440.45	4730.22
440.63	4875.34
440.82	4910.44
441.01	4980.66
441.19	4884.70
441.38	5078.96
441.57	5036.83
441.75	5062.58
441.94	5142.16
442.12	5128.11
442.31	5039.17
442.50	5125.77
442.68	5310.68
442.87	5242.80
443.05	5263.86
443.24	5366.85
443.43	5275.57
443.61	5408.98
443.80	5359.83
443.98	5043.85
444.17	5088.32
444.35	5441.75
444.54	5533.03
444.73	5465.15
444.91	5418.34
445.10	5322.38
445.28	5446.43
445.47	5268.55
445.65	5350.46
445.84	5486.22
446.02	5544.73
446.21	5488.56
446.39	5420.68
446.58	5640.69
446.77	5582.18
446.95	5423.02
447.14	5397.28
447.32	5554.09
447.51	5483.88
447.69	5563.45
447.88	5610.26
448.06	5575.16
448.25	5451.11
448.43	5579.84
448.62	5706.23
448.80	5558.77
448.99	5713.25
449.17	5746.02
449.36	5675.80
449.54	5666.44
449.73	5708.57
449.91	5865.38
450.10	5893.47
450.28	5895.81
450.46	5816.23
450.65	5874.74
450.83	5839.64
451.02	5753.04
451.20	6029.22
451.39	5921.56
451.57	6038.58
451.76	5937.94
451.94	5982.41
452.13	5996.45
452.31	6085.39
452.49	6015.18
452.68	5909.85
452.86	6061.99
453.05	6129.86
453.23	6026.88
453.42	5975.39
453.60	5989.43
453.78	6038.58
453.97	6260.93
454.15	6197.74
454.34	6080.71
454.52	6352.21
454.70	6249.23
454.89	6328.81
455.07	6249.23
455.26	6370.94
455.44	6345.19
455.62	6459.88
455.81	6228.17
455.99	6401.37
456.17	6420.09
456.36	6462.22
456.54	6553.50
456.73	6665.85
456.91	6778.19
457.09	6670.53
457.28	6665.85
457.46	6696.27
457.64	6930.33
457.83	6745.42
458.01	6771.17
458.19	6970.12
458.38	6899.90
458.56	6766.49
458.74	6913.94
458.93	6764.15
459.11	6794.58
459.29	6771.17
459.48	6822.66
459.66	6848.41
459.84	7023.95
460.03	7192.47
460.21	7012.24
460.39	7129.27
460.57	7059.06
460.76	6944.37
460.94	7091.82
461.12	7229.91
461.31	7236.94
461.49	7030.97
461.67	7091.82
461.85	7396.09
462.04	7344.60
462.22	7861.86
462.40	7492.05
462.59	7274.38
462.77	7499.08
462.95	7396.09
463.13	7431.20
463.32	7566.95
463.50	7433.54
463.68	7566.95
463.86	7625.47
464.05	7360.98
464.23	7456.95
464.41	7433.54
464.59	7595.04
464.78	7903.99
464.96	7735.47
465.14	7379.71
465.32	7630.15
465.50	7793.98
465.69	7796.32
465.87	7740.15
466.05	7712.07
466.23	7894.63
466.41	7831.43
466.60	8201.24
466.78	7796.32
466.96	7801.01
467.14	7845.48
467.32	8039.74
467.51	8006.97
467.69	7880.58
467.87	7995.27
468.05	8161.45
468.23	7978.89
468.41	7976.55
468.60	8030.38
468.78	8372.10
468.96	8004.63
469.14	8299.54
469.32	8208.26
469.50	8107.62
469.69	8154.43
469.87	8428.27
470.05	8175.49
470.23	8306.56
470.41	8463.38
470.59	8564.02
470.77	8369.76
470.95	8346.35
471.14	8695.09
471.32	8311.24
471.50	8472.74
471.68	8594.45
471.86	8655.30
472.04	8706.79
472.22	8788.71
472.40	8718.50
472.58	8879.99
472.77	8929.14
472.95	8861.27
473.13	9039.15
473.31	8865.95
473.49	8985.32
473.67	9025.11
473.85	9210.01
474.03	9252.14
474.21	9217.03
474.39	9327.03
474.57	9582.15
474.75	9694.50
474.93	9488.53
475.12	9469.81
475.30	9703.86
475.48	9390.23
475.66	9654.71
475.84	9554.07
476.02	9856.00
476.20	9731.95
476.38	9823.23
476.56	10228.14
476.74	10052.60
476.92	9991.75
477.10	10061.96
477.28	10033.88
477.46	10207.08
477.64	10246.87
477.82	10473.90
478.00	10611.99
478.18	10623.69
478.36	11084.78
478.54	10843.70
478.72	10970.09
478.90	10918.60
479.08	11080.10
479.26	11075.42
479.44	11215.85
479.62	11192.44
479.80	11463.94
479.98	11513.10
480.16	11800.98
480.34	11538.84
480.52	11470.97
480.70	11536.50
480.88	11749.49
481.06	11791.62
481.24	11927.37
481.41	11850.13
481.59	12119.29
481.77	12163.76
481.95	12435.27
482.13	12372.07
482.31	12334.62
482.49	12596.76
482.67	12594.42
482.85	12812.09
483.03	12975.93
483.21	13018.06
483.39	13200.62
483.57	13018.06
483.74	13217.01
483.92	13535.32
484.10	13399.57
484.28	13579.79
484.46	13884.06
484.64	14012.79
484.82	13813.84
485.00	14235.14
485.18	14288.97
485.35	14518.34
485.53	14146.20
485.71	14415.36
485.89	14806.23
486.07	14544.09
486.25	14839.00
486.43	14862.40
486.61	14963.04
486.78	15073.05
486.96	15084.75
487.14	15225.18
487.32	15211.14
487.50	15602.01
487.68	15889.90
487.85	15775.21
488.03	15793.94
488.21	16210.55
488.39	16236.30
488.57	16561.63
488.75	16470.35
488.92	16486.73
489.10	16718.45
489.28	16739.51
489.46	16968.88
489.64	16882.28
489.81	17301.24
489.99	17128.04
490.17	17448.69
490.35	17537.63
490.53	17647.64
490.70	17869.99
490.88	17724.88
491.06	17991.70
491.24	17951.91
491.41	18204.69
491.59	18073.62
491.77	18288.95
491.95	18714.92
492.13	18544.06
492.30	18902.17
492.48	18995.79
492.66	18909.19
492.84	18806.20
493.01	19365.59
493.19	19236.86
493.37	19325.80
493.54	19396.02
493.72	19648.80
493.90	19543.47
494.08	19810.29
494.25	19922.64
494.43	19939.02
494.61	19962.43
494.79	20264.36
494.96	20116.90
495.14	20325.21
495.32	20772.25
495.49	20762.89
495.67	20695.02
495.85	21046.10
496.02	20678.63
496.20	21071.84
496.38	21448.67
496.55	21399.52
496.73	21692.08
496.91	21476.76
497.09	21741.24
497.26	21809.11
497.44	21827.84
497.62	22199.98
497.79	22490.21
497.97	22209.34
498.14	22562.76
498.32	22209.34
498.50	22537.02
498.67	22726.60
498.85	22707.88
499.03	23328.12
499.20	22934.91
499.38	23194.71
499.56	23297.69
499.73	23220.45
499.91	23510.68
500.08	23763.46
500.26	23566.85
500.44	23576.22
500.61	23555.15
500.79	23648.77
500.97	24322.85
501.14	24091.13
501.32	24547.54
501.49	24168.37
501.67	24121.56
501.84	24568.60
502.02	24631.80
502.20	24613.07
502.37	24638.82
502.55	24451.58
502.72	24992.24
502.90	25027.35
503.07	24971.18
503.25	24751.17
503.43	24807.34
503.60	25291.83
503.78	25268.42
503.95	25319.92
504.13	25441.62
504.30	25425.24
504.48	25298.85
504.65	25591.42
504.83	25640.57
505.01	25369.07
505.18	25982.29
505.36	26164.85
505.53	25577.37
505.71	26185.91
505.88	26298.26
506.06	25989.31
506.23	26244.43
506.41	26555.72
506.58	26230.38
506.76	26808.50
506.93	26806.16
507.11	26398.90
507.28	27236.81
507.46	26684.45
507.63	26815.52
507.81	27033.19
507.98	27140.85
508.16	27129.15
508.33	27676.83
508.50	27531.72
508.68	27520.02
508.85	27468.53
509.03	27665.13
509.20	27353.84
509.38	28130.90
509.55	27901.53
509.73	27709.60
509.90	28212.82
510.08	28079.41
510.25	28201.11
510.42	28250.27
510.60	28177.71
510.77	28643.48
510.95	28491.34
511.12	28472.62
511.30	28559.22
511.47	28800.29
511.64	28776.89
511.82	29319.89
511.99	28975.83
512.17	29319.89
512.34	29088.18
512.51	29118.60
512.69	29226.27
512.86	29467.34
513.04	29710.76
513.21	29326.91
513.38	29888.64
513.56	30005.67
513.73	29624.16
513.90	30101.63
514.08	29462.66
514.25	30272.49
514.43	30221.00
514.60	30045.46
514.77	30178.87
514.95	30527.61
515.12	29954.18
515.29	30359.09
515.47	30506.54
515.64	30778.04
515.81	30251.42
515.99	31007.42
516.16	30909.11
516.33	31007.42
516.51	30888.05
516.68	30897.41
516.85	30944.22
517.03	31161.89
517.20	31166.57
517.37	31220.41
517.54	31489.57
517.72	31175.94
517.89	31747.03
518.06	31367.86
518.24	31768.09
518.41	31386.58
518.58	31271.90
518.75	31438.08
518.93	31892.14
519.10	31721.28
519.27	31782.13
519.45	31990.44
519.62	31936.61
519.79	32034.91
519.96	32301.73
520.14	32446.85
520.31	31824.26
520.48	32552.17
520.65	32598.98
520.83	32818.99
521.00	32676.22
521.17	32903.25
521.34	32706.65
521.52	32706.65
521.69	33191.14
521.86	32947.72
522.03	33050.70
522.20	33659.24
522.38	33479.02
522.55	33745.84
522.72	33357.32
522.89	33656.90
523.07	33783.29
523.24	33457.96
523.41	33631.16
523.58	33518.81
523.75	33722.44
523.92	34089.90
524.10	33862.87
524.27	33811.38
524.44	33963.51
524.61	34284.17
524.78	34361.40
524.96	34328.64
525.13	34323.96
525.30	34822.49
525.47	34614.18
525.64	34637.59
525.81	34934.84
525.98	34464.39
526.16	34726.53
526.33	34780.36
526.50	34813.13
526.67	34567.37
526.84	34864.62
527.01	34941.86
527.18	34986.33
527.36	34939.52
527.53	35281.24
527.70	35730.62
527.87	35475.50
528.04	35302.30
528.21	35651.04
528.38	35253.15
528.55	35515.29
528.72	35845.30
528.89	35211.02
529.07	35412.31
529.24	35424.01
529.41	35578.48
529.58	35653.38
529.75	36023.19
529.92	35859.35
530.09	35784.45
530.26	36311.07
530.43	35758.70
530.60	36224.47
530.77	35557.42
530.94	36437.46
531.11	35892.12
531.28	36570.87
531.46	36062.97
531.63	36027.87
531.80	36758.11
531.97	36577.89
532.14	36645.77
532.31	36290.01
532.48	36538.10
532.65	36790.88
532.82	36795.56
532.99	36882.16
533.16	37024.93
533.33	36921.95
533.50	37359.63
533.67	36879.82
533.84	36814.29
534.01	37090.47
534.18	37287.07
534.35	37329.20
534.52	37298.78
534.69	38019.66
534.86	37338.57
535.03	37567.94
535.20	37511.77
535.37	38012.64
535.54	37844.12
535.71	37645.18
535.88	37523.47
536.05	37809.01
536.22	38132.01
536.38	37837.10
536.55	37989.24
536.72	37450.91
536.89	37839.44
537.06	38136.69
537.23	38590.75
537.40	37944.76
537.57	37837.10
537.74	38277.12
537.91	38616.50
538.08	38232.65
538.25	38408.19
538.42	38298.19
538.59	38642.24
538.75	38686.71
538.92	38974.60
539.09	38630.54
539.26	38855.23
539.43	38679.69
539.60	38939.49
539.77	38387.13
539.94	38838.85
540.11	38653.95
540.28	39028.43
540.44	39313.98
540.61	38803.74
540.78	38939.49
540.95	38855.23
541.12	38869.28
541.29	38852.89
541.46	38902.04
541.62	38998.01
541.79	39416.96
541.96	39002.69
542.13	39161.84
542.30	39054.18
542.47	39365.47
542.63	39622.93
542.80	39962.31
542.97	39988.05
543.14	39910.82
543.31	39487.18
543.48	39992.73
543.64	40381.26
543.81	40297.00
543.98	39667.40
544.15	40086.36
544.32	40163.59
544.48	40711.28
544.65	40376.58
544.82	40381.26
544.99	40217.43
545.16	40217.43
545.32	40512.33
545.49	40924.27
545.66	40744.05
545.83	40690.21
546.00	40861.07
546.16	40645.74
546.33	40690.21
546.50	40282.96
546.67	40570.85
546.83	40470.20
547.00	40910.22
547.17	40973.42
547.34	41411.10
547.50	41155.98
547.67	41429.82
547.84	41078.74
548.00	41165.34
548.17	41181.73
548.34	41249.60
548.51	40926.61
548.67	41071.72
548.84	41904.95
549.01	41228.54
549.18	41352.58
549.34	41666.22
549.51	41560.89
549.68	41418.12
549.84	41640.47
550.01	41682.60
550.18	41654.51
550.34	41694.30
550.51	41514.08
550.68	41752.82
550.84	41649.83
551.01	41752.82
551.18	41347.90
551.34	41916.65
551.51	41858.14
551.68	41825.37
551.84	41757.50
552.01	41865.16
552.18	41998.57
552.34	41933.04
552.51	42321.57
552.68	41818.35
552.84	41944.74
553.01	42026.66
553.18	42127.30
553.34	42520.51
553.51	41949.42
553.67	42539.24
553.84	42813.08
554.01	42534.56
554.17	42183.48
554.34	42431.57
554.51	42499.45
554.67	42787.33
554.84	42504.13
555.00	42593.07
555.17	42768.61
555.33	42946.49
555.50	42572.00
555.67	42665.63
555.83	43077.56
556.00	43117.35
556.16	43650.99
556.33	43107.99
556.50	42777.97
556.66	42726.48
556.83	42745.20
556.99	43255.44
557.16	43203.95
557.32	43372.47
557.49	43405.23
557.65	43330.34
557.82	43079.90
557.98	43168.84
558.15	43196.93
558.32	43543.33
558.48	42911.38
558.65	43248.42
558.81	43456.73
558.98	43271.82
559.14	43332.68
559.31	43005.00
559.47	43222.67
559.64	43578.43
559.80	43187.56
559.97	44191.65
560.13	43335.02
560.30	43484.81
560.46	43557.37
560.63	43494.18
560.79	43828.87
560.96	43999.73
561.12	43667.37
561.29	43803.13
561.45	43650.99
561.61	44025.48
561.78	43435.66
561.94	43557.37
562.11	43735.25
562.27	43934.20
562.44	43772.70
562.60	44205.70
562.77	43824.19
562.93	43920.15
563.10	43927.17
563.26	44151.87
563.42	44444.43
563.59	44189.31
563.75	43721.21
563.92	43988.03
564.08	44032.50
564.24	44041.86
564.41	43969.30
564.57	43901.43
564.74	44048.88
564.90	43716.53
565.07	43981.01
565.23	44406.98
565.39	44069.95
565.56	44491.24
565.72	44308.68
565.88	44559.12
566.05	44060.58
566.21	44580.18
566.38	44488.90
566.54	44481.88
566.70	44332.09
566.87	44322.72
567.03	43999.73
567.19	44404.64
567.36	44266.55
567.52	44217.40
567.68	44725.30
567.85	44500.61
568.01	44491.24
568.17	44601.25
568.34	44261.87
568.50	44610.61
568.66	44292.30
568.83	44177.61
568.99	44795.51
569.15	44306.34
569.32	44713.59
569.48	44701.89
569.64	44664.44
569.81	44430.39
569.97	44519.33
570.13	44474.86
570.30	44432.73
570.46	44830.62
570.62	44701.89
570.78	44465.50
570.95	44741.68
571.11	45291.71
571.27	44516.99
571.43	44556.78
571.60	44474.86
571.76	44673.81
571.92	44847.00
572.09	45071.70
572.25	44996.80
572.41	44275.91
572.57	44823.60
572.74	45429.80
572.90	44727.64
573.06	45188.72
573.22	44947.65
573.38	45401.71
573.55	45165.32
573.71	45172.34
573.87	45174.68
574.03	45228.51
574.20	45432.14
574.36	45233.19
574.52	45095.10
574.68	44928.92
574.84	45111.49
575.01	45209.79
575.17	45333.84
575.33	44608.27
575.49	44889.13
575.65	45230.85
575.82	45359.58
575.98	44994.46
576.14	44994.46
576.30	45219.15
576.46	45006.16
576.62	44872.75
576.79	44811.90
576.95	44470.18
577.11	44971.05
577.27	44919.56
577.43	45050.63
577.59	45116.17
577.75	44776.79
577.92	44905.52
578.08	45165.32
578.24	45226.17
578.40	45591.30
578.56	45319.79
578.72	45123.19
578.88	45067.02
579.04	45141.91
579.21	45064.67
579.37	45296.39
579.53	45366.60
579.69	45139.57
579.85	45038.93
580.01	45446.18
580.17	45343.20
580.33	45268.30
580.49	44978.07
580.65	45549.17
580.82	45055.31
580.98	45008.50
581.14	44694.87
581.30	45249.58
581.46	45422.78
581.62	45081.06
581.78	45064.67
581.94	44931.26
582.10	45123.19
582.26	45734.07
582.42	45357.24
582.58	45045.95
582.74	45137.23
582.90	44828.28
583.06	45516.40
583.22	44847.00
583.38	45237.87
583.54	45368.94
583.70	45275.32
583.86	45249.58
584.02	45434.48
584.18	45633.42
584.34	45649.81
584.50	45720.02
584.66	45844.07
584.82	45186.38
584.98	46068.76
585.14	45467.25
585.30	45415.76
585.46	45324.47
585.62	45357.24
585.78	45626.40
585.94	45090.42
586.10	45492.99
586.26	45230.85
586.42	45074.04
586.58	45319.79
586.74	44987.44
586.90	45041.27
587.06	45359.58
587.22	45909.61
587.38	45261.28
587.54	45902.59
587.70	45649.81
587.86	45282.34
588.02	45078.72
588.18	45783.22
588.34	45378.31
588.49	45588.95
588.65	45502.35
588.81	45055.31
588.97	45614.70
589.13	45041.27
589.29	45689.60
589.45	45713.00
589.61	45759.81
589.77	45743.43
589.93	46223.24
590.08	46003.23
