SpectraSuite Data File
++++++++++++++++++++++++++++++++++++
Date: Fri Oct 25 11:24:00 EDT 2013
User: price-jones
Dark Spectrum Present: No
Reference Spectrum Present: No
Number of Sampled Component Spectra: 1
Spectrometers: USB2+H05261
Integration Time (usec): 100000 (USB2+H05261)
Spectra Averaged: 1 (USB2+H05261)
Boxcar Smoothing: 0 (USB2+H05261)
Correct for Electrical Dark: No (USB2+H05261)
Strobe/Lamp Enabled: No (USB2+H05261)
Correct for Detector Non-linearity: No (USB2+H05261)
Correct for Stray Light: No (USB2+H05261)
Number of Pixels in Processed Spectrum: 2048
>>>>>Begin Processed Spectral Data<<<<<
365.73	271.50
365.92	271.50
366.12	271.50
366.32	194.26
366.52	159.16
366.72	196.60
366.91	131.07
367.11	79.58
367.31	88.94
367.51	95.96
367.70	88.94
367.90	196.60
368.10	98.30
368.30	51.49
368.49	105.32
368.69	210.65
368.89	222.35
369.09	215.33
369.28	131.07
369.48	145.11
369.68	196.60
369.87	189.58
370.07	236.39
370.27	248.10
370.47	311.29
370.66	561.73
370.86	592.16
371.06	603.86
371.25	755.99
371.45	674.07
371.65	713.86
371.84	653.01
372.04	627.26
372.24	669.39
372.44	758.33
372.63	751.31
372.83	739.61
373.03	709.18
373.22	748.97
373.42	763.01
373.62	823.87
373.81	763.01
374.01	814.51
374.21	718.54
374.40	737.27
374.60	767.70
374.79	849.61
374.99	915.15
375.19	861.32
375.38	861.32
375.58	781.74
375.78	880.04
375.97	924.51
376.17	917.49
376.37	903.45
376.56	926.85
376.76	856.64
376.95	884.72
377.15	880.04
377.35	908.13
377.54	835.57
377.74	910.47
377.93	933.87
378.13	903.45
378.33	1001.75
378.52	940.90
378.72	999.41
378.91	926.85
379.11	950.26
379.31	908.13
379.50	950.26
379.70	966.64
379.89	994.73
380.09	978.34
380.28	1015.79
380.48	945.58
380.68	983.02
380.87	922.17
381.07	1069.62
381.26	1018.13
381.46	990.05
381.65	976.00
381.85	1050.90
382.04	1001.75
382.24	1137.50
382.43	1064.94
382.63	1015.79
382.83	1121.12
383.02	1102.39
383.22	1097.71
383.41	1004.09
383.61	1177.29
383.80	1022.81
384.00	1102.39
384.19	1160.91
384.39	1188.99
384.58	1181.97
384.78	1146.86
384.97	1165.59
385.17	1036.86
385.36	1123.46
385.56	1212.40
385.75	1146.86
385.95	1252.19
386.14	1132.82
386.34	1200.69
386.53	1231.12
386.72	1228.78
386.92	1191.33
387.11	1275.59
387.31	1350.49
387.50	1198.35
387.70	1327.08
387.89	1331.76
388.09	1280.27
388.28	1352.83
388.48	1355.17
388.67	1343.47
388.86	1397.30
389.06	1338.79
389.25	1341.13
389.45	1394.96
389.64	1287.29
389.84	1385.60
390.03	1397.30
390.22	1385.60
390.42	1411.34
390.61	1404.32
390.81	1460.49
391.00	1451.13
391.19	1437.09
391.39	1476.88
391.58	1444.11
391.78	1338.79
391.97	1448.79
392.16	1497.94
392.36	1600.93
392.55	1486.24
392.75	1605.61
392.94	1481.56
393.13	1614.97
393.33	1453.47
393.52	1514.33
393.71	1631.35
393.91	1556.46
394.10	1614.97
394.29	1682.85
394.49	1516.67
394.68	1624.33
394.88	1664.12
395.07	1614.97
395.26	1680.50
395.46	1614.97
395.65	1706.25
395.84	1771.79
396.04	1715.61
396.23	1792.85
396.42	1743.70
396.62	1785.83
396.81	1830.30
397.00	1783.49
397.19	1937.96
397.39	1863.07
397.58	1806.89
397.77	1898.17
397.97	1860.73
398.16	1914.56
398.35	1881.79
398.55	1895.83
398.74	1947.33
398.93	1888.81
399.12	2029.24
399.32	1888.81
399.51	1966.05
399.70	1973.07
399.90	2111.16
400.09	2001.16
400.28	2122.87
400.47	1944.99
400.67	2225.85
400.86	1984.77
401.05	1968.39
401.24	2069.03
401.44	2157.97
401.63	2024.56
401.82	2106.48
402.01	2162.66
402.21	2150.95
402.40	2277.34
402.59	2153.29
402.78	2186.06
402.97	2251.60
403.17	2282.02
403.36	2232.87
403.55	2363.94
403.74	2392.03
403.93	2450.54
404.13	2434.16
404.32	2368.62
404.51	2382.67
404.70	2422.45
404.89	2410.75
405.09	2377.98
405.28	2429.48
405.47	2417.77
405.66	2511.39
405.85	2544.16
406.05	2633.10
406.24	2597.99
406.43	2502.03
406.62	2654.17
406.81	2679.91
407.00	2579.27
407.20	2583.95
407.39	2642.46
407.58	2818.00
407.77	2679.91
407.96	2775.88
408.15	2759.49
408.34	2871.84
408.54	2923.33
408.73	2703.32
408.92	2813.32
409.11	2906.95
409.30	2916.31
409.49	2953.76
409.68	2958.44
409.87	2998.23
410.07	2981.84
410.26	2939.71
410.45	3068.44
410.64	3007.59
410.83	3056.74
411.02	3138.66
411.21	3222.92
411.40	3082.49
411.59	3255.69
411.78	3185.47
411.98	3197.17
412.17	3295.47
412.36	3382.07
412.55	3417.18
412.74	3417.18
412.93	3344.63
413.12	3318.88
413.31	3662.94
413.50	3480.38
413.69	3604.42
413.88	3604.42
414.07	3485.06
414.26	3602.08
414.45	3602.08
414.64	3698.05
414.83	3850.18
415.02	3927.42
415.22	3756.56
415.41	3852.52
415.60	3929.76
415.79	4081.89
415.98	3922.74
416.17	4093.60
416.36	3960.19
416.55	3838.48
416.74	4215.30
416.93	4063.17
417.12	4161.47
417.31	4166.15
417.50	4056.15
417.69	4287.86
417.88	4329.99
418.07	4280.84
418.26	4411.91
418.45	4482.13
418.64	4486.81
418.83	4550.00
419.02	4325.31
419.21	4568.73
419.39	4512.55
419.58	4559.36
419.77	4463.40
419.96	4540.64
420.15	4685.75
420.34	4608.51
420.53	4638.94
420.72	4753.63
420.91	4903.42
421.10	4746.61
421.29	4826.18
421.48	4786.40
421.67	4716.18
421.86	4844.91
422.05	4800.44
422.24	4821.50
422.43	4840.23
422.61	4910.44
422.80	4966.62
422.99	4917.47
423.18	4978.32
423.37	5032.15
423.56	5039.17
423.75	4950.23
423.94	4961.94
424.13	4641.28
424.32	4786.40
424.50	5018.11
424.69	5025.13
424.88	5088.32
425.07	4938.53
425.26	4997.04
425.45	5067.26
425.64	5020.45
425.83	4947.89
426.01	5128.11
426.20	5064.92
426.39	5013.43
426.58	5006.41
426.77	5109.39
426.96	5188.97
427.15	5144.50
427.33	5181.95
427.52	5179.61
427.71	5291.95
427.90	5167.90
428.09	5214.71
428.28	5357.49
428.46	5394.93
428.65	5345.78
428.84	5500.26
429.03	5579.84
429.22	5465.15
429.40	5645.37
429.59	5544.73
429.78	5310.68
429.97	5406.64
430.16	5364.51
430.34	5514.30
430.53	5792.83
430.72	5767.08
430.91	5776.44
431.10	5694.52
431.28	5771.76
431.47	5755.38
431.66	5996.45
431.85	5802.19
432.03	5933.26
432.22	6038.58
432.41	5977.73
432.60	5912.19
432.79	5916.87
432.97	6064.33
433.16	6019.86
433.35	6129.86
433.54	6104.12
433.72	6188.38
433.91	6108.80
434.10	6090.07
434.28	6171.99
434.47	6108.80
434.66	6298.38
434.85	6408.39
435.03	6466.90
435.22	6429.45
435.41	6551.16
435.59	6492.65
435.78	6466.90
435.97	6703.29
436.16	6431.79
436.34	6623.72
436.53	6614.35
436.72	6724.36
436.90	6525.41
437.09	6562.86
437.28	6574.56
437.46	6633.08
437.65	6722.02
437.84	6935.01
438.02	6696.27
438.21	6855.43
438.40	6672.87
438.58	7178.42
438.77	7040.33
438.96	6960.75
439.14	7133.95
439.33	7148.00
439.52	7180.76
439.70	7253.32
439.89	7473.33
440.08	7585.68
440.26	7461.63
440.45	7269.70
440.63	7470.99
440.82	7747.17
441.01	7522.48
441.19	7555.25
441.38	7751.85
441.57	7789.30
441.75	7866.54
441.94	8135.70
442.12	7903.99
442.31	8124.00
442.50	8070.17
442.68	7829.09
442.87	8187.19
443.05	8145.06
443.24	8257.41
443.43	8351.03
443.61	8353.37
443.80	8510.19
443.98	8145.06
444.17	7744.83
444.35	8238.69
444.54	8500.83
444.73	8348.69
444.91	8210.60
445.10	8322.94
445.28	8596.79
445.47	8292.52
445.65	8505.51
445.84	8746.58
446.02	8430.61
446.21	8575.72
446.39	8418.91
446.58	8489.12
446.77	8557.00
446.95	8411.89
447.14	8535.93
447.32	8557.00
447.51	8393.16
447.69	8545.30
447.88	8496.14
448.06	8580.40
448.25	8624.87
448.43	8629.56
448.62	8697.43
448.80	8500.83
448.99	8678.71
449.17	8758.28
449.36	8592.11
449.54	8744.24
449.73	9032.13
449.91	9135.11
450.10	9167.88
450.28	9137.45
450.46	9205.33
450.65	9090.64
450.83	8980.64
451.02	9165.54
451.20	9240.44
451.39	9275.54
451.57	9235.75
451.76	9095.32
451.94	9170.22
452.13	9502.58
452.31	9383.21
452.49	9364.48
452.68	9479.17
452.86	9390.23
453.05	9558.75
453.23	9556.41
453.42	9350.44
453.60	9338.74
453.78	9764.72
453.97	9451.08
454.15	9708.54
454.34	9610.24
454.52	9753.01
454.70	9750.67
454.89	9643.01
455.07	9947.28
455.26	9820.89
455.44	9905.15
455.62	9874.72
455.81	10066.64
455.99	10104.09
456.17	10113.45
456.36	10078.35
456.54	9973.02
456.73	10413.04
456.91	10633.05
457.09	10368.57
457.28	10759.44
457.46	10434.11
457.64	10649.44
457.83	10497.30
458.01	10387.30
458.19	10527.73
458.38	10485.60
458.56	10925.62
458.74	10743.06
458.93	10726.68
459.11	10853.06
459.29	10881.15
459.48	10808.59
459.66	10956.05
459.84	11059.03
460.03	11154.99
460.21	11180.74
460.39	11147.97
460.57	11005.20
460.76	11492.03
460.94	11349.26
461.12	11300.11
461.31	11295.43
461.49	11276.70
461.67	11236.91
461.85	11473.31
462.04	11269.68
462.22	11595.01
462.40	11756.51
462.59	11328.19
462.77	11611.40
462.95	11721.40
463.13	11543.52
463.32	11520.12
463.50	11943.75
463.68	11721.40
463.86	11985.88
464.05	11903.96
464.23	11510.75
464.41	12175.47
464.59	11969.50
464.78	12180.15
464.96	12107.59
465.14	11997.59
465.32	12226.96
465.50	12194.19
465.69	12287.81
465.87	12276.11
466.05	12449.31
466.23	12170.79
466.41	12257.39
466.60	12561.66
466.78	12301.86
466.96	12418.88
467.14	12554.63
467.32	12315.90
467.51	12512.50
467.69	12201.21
467.87	12617.83
468.05	12929.12
468.23	12643.57
468.41	12475.06
468.60	12601.44
468.78	12912.74
468.96	12807.41
469.14	12776.98
469.32	13095.30
469.50	12566.34
469.69	13214.66
469.87	13165.51
470.05	13280.20
470.23	13362.12
470.41	13270.84
470.59	13352.76
470.77	13118.70
470.95	13554.04
471.14	13612.56
471.32	13383.18
471.50	13579.79
471.68	13631.28
471.86	13771.71
472.04	13886.40
472.22	14188.33
472.40	13795.12
472.58	13736.60
472.77	14284.29
472.95	14265.57
473.13	14642.39
473.31	14003.43
473.49	14342.80
473.67	14455.15
473.85	14132.15
474.03	14736.01
474.21	14724.31
474.39	14890.49
474.57	14789.85
474.75	15070.71
474.93	15005.17
475.12	14927.94
475.30	15276.68
475.48	14827.29
475.66	15211.14
475.84	15227.53
476.02	15461.58
476.20	15674.57
476.38	15936.71
476.56	15833.72
476.74	16400.13
476.92	15831.38
477.10	15957.77
477.28	16318.22
477.46	16498.44
477.64	16594.40
477.82	16884.62
478.00	16854.20
478.18	17132.72
478.36	17092.93
478.54	17254.43
478.72	17310.60
478.90	17216.98
479.08	17532.95
479.26	17996.38
479.44	17994.04
479.62	17949.57
479.80	18192.98
479.98	18097.02
480.16	19026.21
480.34	18532.36
480.52	18719.60
480.70	18948.98
480.88	18738.33
481.06	18906.85
481.24	18991.11
481.41	19433.47
481.59	19456.87
481.77	19728.38
481.95	19674.54
482.13	19702.63
482.31	19515.39
482.49	20428.20
482.67	20304.15
482.85	20912.69
483.03	20650.55
483.21	20793.32
483.39	21048.44
483.57	20814.38
483.74	21446.33
483.92	21708.47
484.10	21163.12
484.28	22001.04
484.46	22134.45
484.64	22504.25
484.82	22036.14
485.00	22487.87
485.18	22567.45
485.35	23129.17
485.53	23159.60
485.71	23211.09
485.89	23379.61
486.07	23583.24
486.25	23513.02
486.43	23655.79
486.61	24163.69
486.78	24521.79
486.96	24627.12
487.14	24915.00
487.32	24828.40
487.50	25067.14
487.68	25228.63
487.85	25685.04
488.03	25769.30
488.21	25912.07
488.39	25907.39
488.57	26218.68
488.75	26298.26
488.92	26731.26
489.10	27023.83
489.28	27168.94
489.46	27075.32
489.64	27199.37
489.81	27873.44
489.99	27864.08
490.17	27901.53
490.35	28025.57
490.53	28423.47
490.70	28776.89
490.88	28538.15
491.06	29137.33
491.24	28505.38
491.41	29357.34
491.59	29598.41
491.77	29563.31
491.95	30089.93
492.13	29626.50
492.30	30504.20
492.48	30110.99
492.66	30295.89
492.84	30829.54
493.01	31178.28
493.19	31056.57
493.37	31299.98
493.54	31562.12
493.72	31798.52
493.90	31840.65
494.08	31962.36
494.25	32180.03
494.43	32397.70
494.61	32697.28
494.79	32793.25
494.96	32622.39
495.14	33041.34
495.32	32905.59
495.49	33294.12
495.67	33549.24
495.85	33497.75
496.02	33869.89
496.20	34148.42
496.38	34457.37
496.55	34239.70
496.73	34869.30
496.91	34726.53
497.09	34927.81
497.26	35344.43
497.44	35370.18
497.62	35173.57
497.79	36304.05
497.97	35615.93
498.14	36147.23
498.32	36484.27
498.50	36444.48
498.67	36931.31
498.85	36507.68
499.03	37092.81
499.20	37113.87
499.38	37148.98
499.56	37057.70
499.73	37350.27
499.91	37212.18
500.08	38408.19
500.26	37488.36
500.44	37729.44
500.61	37881.57
500.79	38171.80
500.97	38583.73
501.14	38852.89
501.32	38962.90
501.49	39168.87
501.67	38998.01
501.84	39339.72
502.02	38862.26
502.20	39196.95
502.37	39782.09
502.55	39749.32
502.72	39622.93
502.90	40254.87
503.07	39896.77
503.25	40261.90
503.43	40332.11
503.60	40196.36
503.78	40708.94
503.95	40449.14
504.13	40608.29
504.30	41060.02
504.48	40620.00
504.65	41151.30
504.83	41303.43
505.01	41682.60
505.18	41502.38
505.36	41769.20
505.53	41490.68
505.71	41535.15
505.88	41944.74
506.06	41977.51
506.23	42120.28
506.41	42192.84
506.58	42344.97
506.76	42476.04
506.93	43117.35
507.11	42604.77
507.28	43058.84
507.46	42609.45
507.63	43323.32
507.81	43765.68
507.98	43278.85
508.16	43564.39
508.33	43831.21
508.50	43531.62
508.68	44006.75
508.85	44105.06
509.03	43969.30
509.20	44179.95
509.38	44479.54
509.55	44416.35
509.73	45055.31
509.90	44931.26
510.08	44502.95
510.25	44690.19
510.42	44851.69
510.60	45331.50
510.77	45258.94
510.95	45514.06
511.12	45226.17
511.30	45343.20
511.47	45904.93
511.64	45848.75
511.82	45923.65
511.99	46160.05
512.17	46401.12
512.34	46373.03
512.51	46693.69
512.69	46930.08
512.86	46871.57
513.04	46969.87
513.21	46845.82
513.38	47072.85
513.56	47129.03
513.73	47110.30
513.90	47131.37
514.08	47327.97
514.25	47786.72
514.43	47255.42
514.60	47770.33
514.77	47529.26
514.95	48278.23
515.12	48023.11
515.29	48051.20
515.47	48421.00
515.64	47983.32
515.81	47894.38
515.99	48523.99
516.16	48671.44
516.33	48523.99
516.51	49310.41
516.68	48708.89
516.85	48870.39
517.03	49357.22
517.20	49380.62
517.37	48924.22
517.54	49158.27
517.72	49677.87
517.89	49296.36
518.06	49839.37
518.24	49277.64
518.41	49668.51
518.58	49778.51
518.75	49687.23
518.93	49659.15
519.10	49446.16
519.27	49954.05
519.45	49904.90
519.62	50461.95
519.79	49886.18
519.96	50061.72
520.14	50731.11
520.31	50141.30
520.48	50752.18
520.65	50382.37
520.83	50576.64
521.00	50962.82
521.17	50777.92
521.34	50848.14
521.52	51033.04
521.69	51192.20
521.86	50899.63
522.03	51562.00
522.20	51648.60
522.38	51833.50
522.55	51590.09
522.72	51660.30
522.89	51669.67
523.07	52097.98
523.24	51831.16
523.41	52308.63
523.58	51821.80
523.75	52060.54
523.92	52102.67
524.10	52413.96
524.27	52264.16
524.44	52512.26
524.61	52662.05
524.78	52626.95
524.96	52718.23
525.13	52556.73
525.30	52952.28
525.47	52896.11
525.64	52877.38
525.81	52755.68
525.98	53069.31
526.16	52889.09
526.33	52725.25
526.50	53364.21
526.67	53041.22
526.84	53209.74
527.01	53340.81
527.18	53207.40
527.36	53207.40
527.53	53382.94
527.70	53670.82
527.87	53609.97
528.04	53298.68
528.21	53762.11
528.38	53485.92
528.55	53727.00
528.72	53792.53
528.89	53715.29
529.07	53846.36
529.24	53668.48
529.41	53682.53
529.58	53956.37
529.75	54035.95
529.92	54216.17
530.09	53825.30
530.26	53876.79
530.43	54288.73
530.60	53834.66
530.77	54216.17
530.94	54312.13
531.11	54382.35
531.28	54663.21
531.46	54724.07
531.63	54646.83
531.80	54415.11
531.97	54452.56
532.14	54691.30
532.31	54752.15
532.48	54710.02
532.65	54827.05
532.82	54850.45
532.99	54859.82
533.16	54965.14
533.33	55035.36
533.50	55117.28
533.67	55229.62
533.84	54883.22
534.01	55185.15
534.18	55217.92
534.35	55332.60
534.52	55550.27
534.69	55407.50
534.86	55451.97
535.03	55175.79
535.20	55473.04
535.37	55505.80
535.54	55571.34
535.71	55489.42
535.88	55643.90
536.05	55899.01
536.22	55583.04
536.38	55561.98
536.55	55725.81
536.72	55540.91
536.89	55608.79
537.06	55739.86
537.23	55882.63
537.40	55835.82
537.57	55943.48
537.74	56086.26
537.91	56104.98
538.08	56048.81
538.25	55931.78
538.42	55955.19
538.59	56191.58
538.75	56100.30
538.92	56142.43
539.09	56502.87
539.26	56458.40
539.43	56486.49
539.60	56411.59
539.77	56287.54
539.94	56556.70
540.11	56530.96
540.28	56917.15
540.44	56526.28
540.61	56638.62
540.78	56652.67
540.95	56596.49
541.12	56704.16
541.29	56640.96
541.46	56718.20
541.62	56800.12
541.79	56832.89
541.96	56678.41
542.13	56900.76
542.30	56741.61
542.47	57139.50
542.63	56994.39
542.80	57137.16
542.97	57116.09
543.14	57366.53
543.31	57240.14
543.48	57448.45
543.64	57539.73
543.81	57654.42
543.98	57586.54
544.15	57638.03
544.32	57705.91
544.48	57869.75
544.65	57509.30
544.82	57764.42
544.99	57656.76
545.16	57977.41
545.32	57483.56
545.49	57888.47
545.66	57822.93
545.83	57748.04
546.00	57909.53
546.16	57942.30
546.33	57820.59
546.50	57738.68
546.67	57989.11
546.83	57715.27
547.00	58099.12
547.17	57881.45
547.34	58026.56
547.50	58120.18
547.67	58143.59
547.84	58300.40
548.00	58333.17
548.17	58440.84
548.34	58335.51
548.51	58557.86
548.67	58436.16
548.84	58211.46
549.01	58326.15
549.18	58307.43
549.34	58445.52
549.51	58391.68
549.68	58625.74
549.84	58358.92
550.01	58585.95
550.18	58578.93
550.34	58639.78
550.51	58614.04
550.68	58372.96
550.84	58344.87
551.01	58761.49
551.18	58595.31
551.34	58646.80
551.51	58864.47
551.68	58677.23
551.84	58754.47
552.01	58482.97
552.18	58686.59
552.34	58611.70
552.51	58759.15
552.68	58557.86
552.84	58827.02
553.01	59098.53
553.18	58918.31
553.34	59103.21
553.51	58892.56
553.67	59084.48
553.84	59091.51
554.01	59260.02
554.17	59145.34
554.34	59236.62
554.51	59363.01
554.67	59110.23
554.84	59384.07
555.00	59002.56
555.17	59061.08
555.33	59292.79
555.50	59138.32
555.67	59283.43
555.83	59161.72
556.00	59262.36
556.16	59690.68
556.33	59458.97
556.50	59372.37
556.66	59538.55
556.83	59393.43
556.99	59531.53
557.16	59737.49
557.32	59695.36
557.49	59739.83
557.65	59367.69
557.82	59337.26
557.98	59566.63
558.15	59536.21
558.32	59812.39
558.48	59667.28
558.65	59662.60
558.81	59587.70
558.98	59636.85
559.14	59688.34
559.31	59889.63
559.47	59889.63
559.64	59861.54
559.80	60013.68
559.97	59910.69
560.13	59611.10
560.30	59835.80
560.46	60048.78
560.63	59870.90
560.79	60062.83
560.96	60037.08
561.12	59976.23
561.29	59927.08
561.45	59887.29
561.61	59966.87
561.78	59779.62
561.94	59945.80
562.11	60058.15
562.27	60151.77
562.44	60072.19
562.60	59992.61
562.77	60027.72
562.93	59856.86
563.10	60294.54
563.26	60069.85
563.42	60331.99
563.59	60177.51
563.75	60151.77
563.92	60306.24
564.08	60144.75
564.24	60357.74
564.41	60273.48
564.57	60320.29
564.74	60107.30
564.90	60266.45
565.07	60369.44
565.23	60317.95
565.39	60289.86
565.56	60245.39
565.72	60399.86
565.88	60353.05
566.05	60210.28
566.21	60425.61
566.38	60292.20
566.54	60425.61
566.70	60341.35
566.87	60622.22
567.03	60346.03
567.19	60650.30
567.36	60568.38
567.52	60474.76
567.68	60561.36
567.85	60678.39
568.01	60601.15
568.17	60566.04
568.34	60472.42
568.50	60484.12
568.66	60378.80
568.83	60434.97
568.99	60589.45
569.15	60418.59
569.32	60411.57
569.48	60563.70
569.64	60544.98
569.81	60694.77
569.97	60512.21
570.13	60802.44
570.30	60432.63
570.46	60769.67
570.62	60734.56
570.78	60772.01
570.95	60795.42
571.11	60823.50
571.27	60500.51
571.43	60640.94
571.60	60589.45
571.76	60739.24
571.92	60856.27
572.09	60874.99
572.25	60746.26
572.41	60732.22
572.57	61085.64
572.74	60900.74
572.90	60891.38
573.06	60795.42
573.22	60804.78
573.38	60858.61
573.55	60797.76
573.71	60903.08
573.87	60914.78
574.03	60706.47
574.20	61022.45
574.36	60996.70
574.52	60896.06
574.68	61085.64
574.84	60896.06
575.01	60877.33
575.17	61017.77
575.33	60795.42
575.49	60905.42
575.65	61083.30
575.82	60860.95
575.98	61095.00
576.14	61181.60
576.30	60870.31
576.46	60767.33
576.62	60835.20
576.79	61010.74
576.95	61003.72
577.11	61029.47
577.27	60956.91
577.43	61123.09
577.59	61073.94
577.75	61027.13
577.92	60846.91
578.08	61085.64
578.24	60996.70
578.40	61137.13
578.56	61015.43
578.72	60870.31
578.88	61183.94
579.04	61378.21
579.21	61169.90
579.37	61183.94
579.53	60963.93
579.69	60975.64
579.85	61064.58
580.01	61127.77
580.17	60900.74
580.33	61099.68
580.49	61029.47
580.65	61139.47
580.82	61003.72
580.98	60938.19
581.14	61078.62
581.30	61137.13
581.46	60996.70
581.62	61116.07
581.78	61118.41
581.94	61095.00
582.10	60858.61
582.26	61015.43
582.42	61221.39
582.58	61205.01
582.74	61090.32
582.90	61073.94
583.06	61127.77
583.22	60954.57
583.38	61144.16
583.54	61151.18
583.70	61045.85
583.86	61251.82
584.02	61158.20
584.18	61125.43
584.34	61127.77
584.50	61130.11
584.66	61069.26
584.82	61087.98
584.98	61347.78
585.14	61251.82
585.30	60924.14
585.46	61242.46
585.62	61221.39
585.78	61394.59
585.94	61045.85
586.10	61268.20
586.26	61244.80
586.42	61057.56
586.58	61464.81
586.74	61237.78
586.90	61144.16
587.06	61085.64
587.22	61443.74
587.38	61207.35
587.54	61460.13
587.70	61399.27
587.86	61188.63
588.02	61296.29
588.18	61235.44
588.34	61284.59
588.49	61331.40
