SpectraSuite Data File
++++++++++++++++++++++++++++++++++++
Date: Fri Oct 25 11:23:01 EDT 2013
User: price-jones
Dark Spectrum Present: No
Reference Spectrum Present: No
Number of Sampled Component Spectra: 1
Spectrometers: USB2+H05261
Integration Time (usec): 100000 (USB2+H05261)
Spectra Averaged: 1 (USB2+H05261)
Boxcar Smoothing: 0 (USB2+H05261)
Correct for Electrical Dark: No (USB2+H05261)
Strobe/Lamp Enabled: No (USB2+H05261)
Correct for Detector Non-linearity: No (USB2+H05261)
Correct for Stray Light: No (USB2+H05261)
Number of Pixels in Processed Spectrum: 2048
>>>>>Begin Processed Spectral Data<<<<<
365.73	205.97
365.92	205.97
366.12	205.97
366.32	145.11
366.52	100.64
366.72	145.11
366.91	145.11
367.11	142.77
367.31	110.01
367.51	121.71
367.70	149.79
367.90	152.13
368.10	74.90
368.30	117.03
368.49	184.90
368.69	126.39
368.89	119.37
369.09	105.32
369.28	138.09
369.48	135.75
369.68	234.05
369.87	145.11
370.07	175.54
370.27	220.01
370.47	292.57
370.66	603.86
370.86	641.31
371.06	587.47
371.25	716.20
371.45	641.31
371.65	741.95
371.84	674.07
372.04	692.80
372.24	699.82
372.44	692.80
372.63	791.10
372.83	816.85
373.03	741.95
373.22	758.33
373.42	739.61
373.62	758.33
373.81	739.61
374.01	819.19
374.21	781.74
374.40	716.20
374.60	835.57
374.79	767.70
374.99	791.10
375.19	807.48
375.38	875.36
375.58	767.70
375.78	875.36
375.97	800.46
376.17	910.47
376.37	812.17
376.56	830.89
376.76	861.32
376.95	828.55
377.15	945.58
377.35	854.30
377.54	837.91
377.74	896.43
377.93	910.47
378.13	952.60
378.33	976.00
378.52	849.61
378.72	882.38
378.91	940.90
379.11	990.05
379.31	903.45
379.50	959.62
379.70	936.21
379.89	997.07
380.09	922.17
380.28	917.49
380.48	1006.43
380.68	983.02
380.87	1013.45
381.07	1020.47
381.26	1018.13
381.46	973.66
381.65	1001.75
381.85	1057.92
382.04	1029.84
382.24	1011.11
382.43	1160.91
382.63	1004.09
382.83	1102.39
383.02	1088.35
383.22	1064.94
383.41	1144.52
383.61	1060.26
383.80	1163.25
384.00	1114.10
384.19	1032.18
384.39	1118.78
384.58	1109.41
384.78	1081.33
384.97	1179.63
385.17	1153.88
385.36	1104.73
385.56	1219.42
385.75	1151.54
385.95	1151.54
386.14	1177.29
386.34	1247.51
386.53	1263.89
386.72	1203.04
386.92	1111.75
387.11	1284.95
387.31	1291.98
387.50	1245.16
387.70	1247.51
387.89	1247.51
388.09	1268.57
388.28	1245.16
388.48	1352.83
388.67	1270.91
388.86	1313.04
389.06	1313.04
389.25	1399.64
389.45	1411.34
389.64	1357.51
389.84	1441.77
390.03	1352.83
390.22	1284.95
390.42	1413.68
390.61	1341.13
390.81	1474.54
391.00	1352.83
391.19	1511.99
391.39	1479.22
391.58	1444.11
391.78	1397.30
391.97	1479.22
392.16	1502.62
392.36	1570.50
392.55	1563.48
392.75	1453.47
392.94	1554.12
393.13	1483.90
393.33	1511.99
393.52	1551.78
393.71	1533.05
393.91	1652.42
394.10	1638.38
394.29	1561.14
394.49	1586.88
394.68	1720.29
394.88	1689.87
395.07	1708.59
395.26	1633.69
395.46	1724.97
395.65	1680.50
395.84	1640.72
396.04	1823.28
396.23	1755.40
396.42	1694.55
396.62	1748.38
396.81	1799.87
397.00	1757.74
397.19	1717.95
397.39	1724.97
397.58	1870.09
397.77	1706.25
397.97	1851.36
398.16	1858.39
398.35	1853.70
398.55	1877.11
398.74	1846.68
398.93	1933.28
399.12	1935.62
399.32	1898.17
399.51	1928.60
399.70	1912.22
399.90	1935.62
400.09	2031.58
400.28	2024.56
400.47	2026.90
400.67	1989.46
400.86	2251.60
401.05	2087.76
401.24	2186.06
401.44	2186.06
401.63	2167.34
401.82	2165.00
402.01	2195.42
402.21	2162.66
402.40	2097.12
402.59	2181.38
402.78	2200.10
402.97	2319.47
403.17	2319.47
403.36	2246.91
403.55	2209.47
403.74	2291.38
403.93	2326.49
404.13	2305.43
404.32	2359.26
404.51	2403.73
404.70	2469.27
404.89	2427.14
405.09	2499.69
405.28	2490.33
405.47	2464.58
405.66	2448.20
405.85	2520.76
406.05	2359.26
406.24	2511.39
406.43	2548.84
406.62	2708.00
406.81	2715.02
407.00	2614.38
407.20	2602.68
407.39	2607.36
407.58	2691.62
407.77	2778.22
407.96	2626.08
408.15	2710.34
408.34	2747.79
408.54	2951.42
408.73	2848.43
408.92	2754.81
409.11	2895.24
409.30	2902.26
409.49	2970.14
409.68	3035.67
409.87	3016.95
410.07	3077.80
410.26	3023.97
410.45	2965.46
410.64	2988.86
410.83	3052.06
411.02	3236.96
411.21	3133.98
411.40	3126.96
411.59	3171.43
411.78	3227.60
411.98	3192.49
412.17	3283.77
412.36	3370.37
412.55	3295.47
412.74	3379.73
412.93	3337.60
413.12	3353.99
413.31	3581.02
413.50	3384.41
413.69	3361.01
413.88	3513.14
414.07	3574.00
414.26	3609.11
414.45	3658.26
414.64	3623.15
414.83	3611.45
415.02	3803.37
415.22	3873.59
415.41	3833.80
415.60	3859.54
415.79	3915.72
415.98	4067.85
416.17	4102.96
416.36	3960.19
416.55	4063.17
416.74	4166.15
416.93	4105.30
417.12	4131.05
417.31	4170.83
417.50	4238.71
417.69	4374.46
417.88	4280.84
418.07	4227.01
418.26	4325.31
418.45	4367.44
418.64	4545.32
418.83	4528.94
419.02	4365.10
419.21	4440.00
419.39	4482.13
419.58	4395.53
419.77	4465.74
419.96	4482.13
420.15	4730.22
420.34	4720.86
420.53	4526.60
420.72	4762.99
420.91	4702.14
421.10	4697.46
421.29	4788.74
421.48	4664.69
421.67	4741.93
421.86	4753.63
422.05	4695.11
422.24	4739.58
422.43	4833.21
422.61	4919.81
422.80	4931.51
422.99	4800.44
423.18	4938.53
423.37	4978.32
423.56	4837.89
423.75	4854.27
423.94	4858.95
424.13	4617.88
424.32	4805.12
424.50	5015.77
424.69	5142.16
424.88	5233.44
425.07	4842.57
425.26	4945.55
425.45	4924.49
425.64	4912.78
425.83	4919.81
426.01	5284.93
426.20	5025.13
426.39	5034.49
426.58	5025.13
426.77	5048.54
426.96	5277.91
427.15	5041.51
427.33	5163.22
427.52	5207.69
427.71	5296.63
427.90	5273.23
428.09	5385.57
428.28	5327.06
428.46	5554.09
428.65	5420.68
428.84	5640.69
429.03	5469.83
429.22	5404.30
429.40	5561.11
429.59	5490.90
429.78	5310.68
429.97	5357.49
430.16	5652.39
430.34	5673.46
430.53	5783.46
430.72	5619.63
430.91	5666.44
431.10	5593.88
431.28	5736.65
431.47	6022.20
431.66	5895.81
431.85	5767.08
432.03	5886.45
432.22	6024.54
432.41	5998.79
432.60	5940.28
432.79	6036.24
432.97	6094.76
433.16	5937.94
433.35	6043.26
433.54	6235.19
433.72	6333.49
433.91	6083.05
434.10	6209.44
434.28	6162.63
434.47	6211.78
434.66	6242.21
434.85	6331.15
435.03	6291.36
435.22	6279.66
435.41	6574.56
435.59	6338.17
435.78	6469.24
435.97	6349.87
436.16	6424.77
436.34	6443.49
436.53	6317.11
436.72	6445.84
436.90	6462.22
437.09	6574.56
437.28	6485.62
437.46	6473.92
437.65	6799.26
437.84	6813.30
438.02	6682.23
438.21	6759.47
438.40	6810.96
438.58	6932.67
438.77	7040.33
438.96	7028.63
439.14	6927.99
439.33	7054.37
439.52	7290.77
439.70	7297.79
439.89	7503.76
440.08	7400.77
440.26	7389.07
440.45	7370.35
440.63	7569.29
440.82	7627.81
441.01	7485.03
441.19	7723.77
441.38	7700.36
441.57	7698.02
441.75	7861.86
441.94	7892.29
442.12	7960.16
442.31	8065.49
442.50	8114.64
442.68	8229.32
442.87	8100.59
443.05	8203.58
443.24	8346.35
443.43	8114.64
443.61	8353.37
443.80	8315.92
443.98	8304.22
444.17	7918.03
444.35	8287.84
444.54	8280.82
444.73	8388.48
444.91	8278.47
445.10	8423.59
445.28	8475.08
445.47	8285.50
445.65	8332.31
445.84	8493.80
446.02	8667.00
446.21	8465.72
446.39	8372.10
446.58	8332.31
446.77	8667.00
446.95	8418.91
447.14	8355.71
447.32	8685.73
447.51	8627.21
447.69	8582.74
447.88	8524.23
448.06	8571.04
448.25	8526.57
448.43	8634.24
448.62	8657.64
448.80	8542.96
448.99	8723.18
449.17	8842.54
449.36	8744.24
449.54	8767.65
449.73	8851.91
449.91	9088.30
450.10	8992.34
450.28	9193.62
450.46	9116.39
450.65	9116.39
450.83	8858.93
451.02	9184.26
451.20	9254.48
451.39	9172.56
451.57	9153.84
451.76	9167.88
451.94	9231.07
452.13	9420.66
452.31	9425.34
452.49	9235.75
452.68	9458.10
452.86	9380.87
453.05	9298.95
453.23	9504.92
453.42	9469.81
453.60	9357.46
453.78	9530.66
453.97	9493.21
454.15	9336.40
454.34	9474.49
454.52	9692.16
454.70	9689.82
454.89	9722.59
455.07	9802.16
455.26	9825.57
455.44	10038.56
455.62	10073.67
455.81	9893.44
455.99	9942.60
456.17	9987.07
456.36	10267.93
456.54	10125.16
456.73	10202.40
456.91	10506.66
457.09	10380.28
457.28	10586.24
457.46	10361.55
457.64	10656.46
457.83	10630.71
458.01	10551.14
458.19	10691.57
458.38	10604.97
458.56	10855.40
458.74	10754.76
458.93	10621.35
459.11	10611.99
459.29	10672.84
459.48	10934.98
459.66	10771.15
459.84	11152.65
460.03	10939.66
460.21	11059.03
460.39	10878.81
460.57	11145.63
460.76	11171.38
460.94	11105.84
461.12	11335.21
461.31	10920.94
461.49	11272.02
461.67	11370.32
461.85	11309.47
462.04	11449.90
462.22	11531.82
462.40	11454.58
462.59	11489.69
462.77	11545.86
462.95	11686.29
463.13	11609.06
463.32	11740.13
463.50	11988.22
463.68	11864.18
463.86	11875.88
464.05	11564.59
464.23	11871.20
464.41	11800.98
464.59	11587.99
464.78	12077.16
464.96	12147.38
465.14	11845.45
465.32	12147.38
465.50	12156.74
465.69	12116.95
465.87	12131.00
466.05	12334.62
466.23	12393.14
466.41	12264.41
466.60	12514.84
466.78	12121.63
466.96	12329.94
467.14	12205.89
467.32	12442.29
467.51	12510.16
467.69	12011.63
467.87	12381.43
468.05	12727.83
468.23	12248.02
468.41	12615.49
468.60	12779.32
468.78	12739.54
468.96	12482.08
469.14	12823.80
469.32	13050.83
469.50	12655.28
469.69	12912.74
469.87	13219.35
470.05	12901.03
470.23	13273.18
470.41	13287.22
470.59	13472.12
470.77	13202.96
470.95	13188.92
471.14	13722.56
471.32	13156.15
471.50	13476.80
471.68	13752.99
471.86	13708.52
472.04	13942.57
472.22	14127.47
472.40	13577.45
472.58	13884.06
472.77	14235.14
472.95	14319.40
473.13	14590.90
473.31	14384.93
473.49	14232.80
473.67	14071.30
473.85	14368.55
474.03	14633.03
474.21	14586.22
474.39	14806.23
474.57	14621.33
474.75	14771.12
474.93	15117.52
475.12	14864.74
475.30	14878.79
475.48	15131.56
475.66	15290.72
475.84	15330.51
476.02	15580.95
476.20	15438.17
476.38	15658.18
476.56	16180.12
476.74	15857.13
476.92	15688.61
477.10	15857.13
477.28	16044.37
477.46	16051.39
477.64	16620.14
477.82	16475.03
478.00	17095.27
478.18	17034.42
478.36	17429.97
478.54	17329.33
478.72	17233.36
478.90	17626.57
479.08	17654.66
479.26	17745.94
479.44	17778.71
479.62	17916.80
479.80	18052.55
479.98	18459.81
480.16	18834.29
480.34	18466.83
480.52	18761.73
480.70	18618.96
480.88	18462.15
481.06	18972.38
481.24	18808.54
481.41	19281.33
481.59	19367.93
481.77	19791.57
481.95	19702.63
482.13	19903.92
482.31	19803.27
482.49	20348.62
482.67	20283.08
482.85	20425.86
483.03	20587.35
483.21	20688.00
483.39	20959.50
483.57	20940.77
483.74	21200.57
483.92	21584.42
484.10	21266.11
484.28	22223.39
484.46	22012.74
484.64	22279.56
484.82	22195.30
485.00	22513.61
485.18	22773.41
485.35	23077.68
485.53	22986.40
485.71	23309.40
485.89	23791.55
486.07	23927.30
486.25	23864.10
486.43	23915.59
486.61	24116.88
486.78	24032.62
486.96	24533.50
487.14	24587.33
487.32	24716.06
487.50	25020.33
487.68	24938.41
487.85	25469.71
488.03	25727.17
488.21	26340.39
488.39	25972.92
488.57	26450.39
488.75	26391.88
488.92	26352.09
489.10	26850.63
489.28	27072.98
489.46	27246.18
489.64	27131.49
489.81	27864.08
489.99	27843.01
490.17	27889.82
490.35	28650.50
490.53	28531.13
490.70	28751.14
490.88	28507.72
491.06	29081.16
491.24	29422.87
491.41	29165.42
491.59	29483.73
491.77	29270.74
491.95	30024.39
492.13	30043.12
492.30	30403.56
492.48	29989.28
492.66	30274.83
492.84	30380.15
493.01	30902.09
493.19	30628.25
493.37	31377.22
493.54	31033.16
493.72	31742.35
493.90	31690.85
494.08	31873.42
494.25	31981.08
494.43	32500.68
494.61	32456.21
494.79	32720.69
494.96	32701.96
495.14	33406.47
495.32	33607.75
495.49	33638.18
495.67	33090.49
495.85	33734.14
496.02	33682.65
496.20	34197.57
496.38	34368.43
496.55	34316.93
496.73	34967.60
496.91	34550.99
497.09	34988.67
497.26	34895.05
497.44	35199.32
497.62	35487.20
497.79	35407.62
497.97	35992.76
498.14	36037.23
498.32	36463.21
498.50	36149.57
498.67	36638.75
498.85	36800.24
499.03	36762.79
499.20	36935.99
499.38	37240.26
499.56	37371.33
499.73	37209.84
499.91	37502.40
500.08	37991.58
500.26	37621.77
500.44	37801.99
500.61	38115.62
500.79	37956.47
500.97	38642.24
501.14	39093.97
501.32	38918.43
501.49	38380.10
501.67	39222.70
501.84	39199.29
502.02	38808.42
502.20	39061.20
502.37	39545.69
502.55	39236.74
502.72	39889.75
502.90	39770.38
503.07	39674.42
503.25	40081.67
503.43	40238.49
503.60	40252.53
503.78	40617.66
503.95	40343.81
504.13	40769.79
504.30	40711.28
504.48	40268.92
504.65	41053.00
504.83	41060.02
505.01	41638.13
505.18	41619.41
505.36	41706.01
505.53	41816.01
505.71	41553.87
505.88	41841.76
506.06	41958.78
506.23	41888.57
506.41	42174.11
506.58	42557.96
506.76	42679.67
506.93	42459.66
507.11	42869.25
507.28	42548.60
507.46	43222.67
507.63	43388.85
507.81	43419.28
507.98	43395.87
508.16	43325.66
508.33	43945.90
508.50	43723.55
508.68	43559.71
508.85	43871.00
509.03	43885.04
509.20	44062.93
509.38	44467.84
509.55	44484.22
509.73	44580.18
509.90	44935.95
510.08	44701.89
510.25	44802.53
510.42	44968.71
510.60	44938.29
510.77	45277.66
510.95	45757.47
511.12	45331.50
511.30	45474.27
511.47	45867.48
511.64	45668.53
511.82	46103.87
511.99	46335.59
512.17	46007.91
512.34	46108.55
512.51	46548.57
512.69	46253.67
512.86	46120.26
513.04	47283.50
513.21	46932.42
513.38	47033.07
513.56	47154.77
513.73	47103.28
513.90	47468.40
514.08	46871.57
514.25	47739.91
514.43	47854.59
514.60	47491.81
514.77	47688.42
514.95	48093.33
515.12	48100.35
515.29	47971.62
515.47	48088.65
515.64	48114.39
515.81	48210.35
515.99	48238.44
516.16	48664.42
516.33	48474.84
516.51	48746.34
516.68	48458.45
516.85	48947.62
517.03	49106.78
517.20	49010.82
517.37	49198.06
517.54	48790.81
517.72	49467.22
517.89	49387.64
518.06	49345.51
518.24	49638.08
518.41	49167.63
518.58	49481.27
518.75	49401.69
518.93	49460.20
519.10	49703.62
519.27	49940.01
519.45	49717.66
519.62	50061.72
519.79	50272.37
519.96	50286.41
520.14	50471.31
520.31	50263.00
520.48	50663.24
520.65	50670.26
520.83	50813.03
521.00	50976.87
521.17	50911.33
521.34	50754.52
521.52	51194.54
521.69	51023.68
521.86	51021.34
522.03	51229.65
522.20	51585.41
522.38	51613.49
522.55	51459.02
522.72	51456.68
522.89	51487.10
523.07	51789.03
523.24	51583.07
523.41	51543.28
523.58	51454.34
523.75	52074.58
523.92	51929.47
524.10	52105.01
524.27	52463.11
524.44	52229.05
524.61	51962.23
524.78	52516.94
524.96	52491.19
525.13	52594.18
525.30	52568.43
525.47	52650.35
525.64	52552.05
525.81	52769.72
525.98	52818.87
526.16	52875.04
526.33	52853.98
526.50	53148.88
526.67	52963.98
526.84	53308.04
527.01	53343.15
527.18	53081.01
527.36	53404.00
527.53	53396.98
527.70	53443.79
527.87	53294.00
528.04	53429.75
528.21	53560.82
528.38	53396.98
528.55	53832.32
528.72	53521.03
528.89	53701.25
529.07	53179.31
529.24	53570.18
529.41	53860.41
529.58	53804.24
529.75	53785.51
529.92	53794.87
530.09	53858.07
530.26	54234.89
530.43	54089.78
530.60	53914.24
530.77	53968.07
530.94	54204.47
531.11	54358.94
531.28	54295.75
531.46	54344.90
531.63	54440.86
531.80	54553.21
531.97	54740.45
532.14	54576.61
532.31	54527.46
532.48	54869.18
532.65	54920.67
532.82	54698.32
532.99	54911.31
533.16	54932.37
533.33	55077.49
533.50	55199.19
533.67	54820.03
533.84	55068.12
534.01	54679.60
534.18	55192.17
534.35	55533.89
534.52	55288.13
534.69	55337.29
534.86	55341.97
535.03	55138.34
535.20	55440.27
535.37	55487.08
535.54	55690.71
535.71	55302.18
535.88	55695.39
536.05	55742.20
536.22	55543.25
536.38	55861.57
536.55	55868.59
536.72	55814.76
536.89	55643.90
537.06	55725.81
537.23	55903.70
537.40	55714.11
537.57	55863.91
537.74	55966.89
537.91	56149.45
538.08	56182.22
538.25	55875.61
538.42	56236.05
538.59	56186.90
538.75	55966.89
538.92	56079.24
539.09	56413.93
539.26	56041.79
539.43	56229.03
539.60	56266.48
539.77	56451.38
539.94	56713.52
540.11	56470.11
540.28	56584.79
540.44	56533.30
540.61	56561.39
540.78	56580.11
540.95	56498.19
541.12	56360.10
541.29	56587.13
541.46	56809.48
541.62	56996.73
541.79	56699.48
541.96	56449.04
542.13	56465.42
542.30	56886.72
542.47	56982.68
542.63	56982.68
542.80	56980.34
542.97	57350.15
543.14	57298.65
543.31	57492.92
543.48	57457.81
543.64	57698.89
543.81	57392.28
543.98	57240.14
544.15	57429.72
544.32	57532.71
544.48	57979.75
544.65	57366.53
544.82	57626.33
544.99	57387.60
545.16	57682.50
545.32	57567.82
545.49	57813.57
545.66	57762.08
545.83	57806.55
546.00	57902.51
546.16	57939.96
546.33	57502.28
546.50	57560.79
546.67	57921.24
546.83	57621.65
547.00	57942.30
547.17	57977.41
547.34	57902.51
547.50	57841.66
547.67	58188.06
547.84	57975.07
548.00	58136.57
548.17	58520.41
548.34	58204.44
548.51	58344.87
548.67	58426.79
548.84	58197.42
549.01	58323.81
549.18	58195.08
549.34	58349.56
549.51	58330.83
549.68	58555.52
549.84	58602.33
550.01	58347.21
550.18	58513.39
550.34	58506.37
550.51	58511.05
550.68	58417.43
550.84	58358.92
551.01	58724.04
551.18	58717.02
551.34	58532.12
551.51	58635.10
551.68	59140.66
551.84	58672.55
552.01	58688.93
552.18	58859.79
552.34	58686.59
552.51	58873.84
552.68	58761.49
552.84	58780.21
553.01	59238.96
553.18	58974.48
553.34	59201.51
553.51	58848.09
553.67	58908.94
553.84	59051.72
554.01	58941.71
554.17	59210.87
554.34	59283.43
554.51	59157.04
554.67	59175.76
554.84	59229.60
555.00	59311.52
555.17	59157.04
555.33	59337.26
555.50	58995.54
555.67	59271.73
555.83	59248.32
556.00	59442.59
556.16	59510.46
556.33	59245.98
556.50	59587.70
556.66	59360.67
556.83	59248.32
556.99	59648.55
557.16	59531.53
557.32	59707.07
557.49	59437.90
557.65	59370.03
557.82	59590.04
557.98	59288.11
558.15	59655.57
558.32	59742.17
558.48	59576.00
558.65	59510.46
558.81	59636.85
558.98	59728.13
559.14	59922.40
559.31	59678.98
559.47	59676.64
559.64	59976.23
559.80	59707.07
559.97	59863.88
560.13	59664.94
560.30	59772.60
560.46	59746.86
560.63	59924.74
560.79	60076.87
560.96	60018.36
561.12	59931.76
561.29	59840.48
561.45	60074.53
561.61	60067.51
561.78	59749.20
561.94	60053.47
562.11	59999.63
562.27	59943.46
562.44	60090.91
562.60	60317.95
562.77	60055.81
562.93	60044.10
563.10	60224.32
563.26	59980.91
563.42	60177.51
563.59	60006.65
563.75	60041.76
563.92	60156.45
564.08	60107.30
564.24	60399.86
564.41	60441.99
564.57	60289.86
564.74	60322.63
564.90	60177.51
565.07	60364.76
565.23	60280.50
565.39	60243.05
565.56	60444.33
565.72	60289.86
565.88	60334.33
566.05	60217.30
566.21	60226.66
566.38	60484.12
566.54	60313.26
566.70	60446.68
566.87	60615.19
567.03	60088.57
567.19	60654.98
567.36	60477.10
567.52	60463.06
567.68	60690.09
567.85	60650.30
568.01	60598.81
568.17	60137.72
568.34	60516.89
568.50	60605.83
568.66	60399.86
568.83	60605.83
568.99	60397.52
569.15	60537.96
569.32	60697.11
569.48	60657.32
569.64	60589.45
569.81	60577.75
569.97	60388.16
570.13	60748.60
570.30	60331.99
570.46	60500.51
570.62	60582.43
570.78	60577.75
570.95	60573.06
571.11	60561.36
571.27	60552.00
571.43	60577.75
571.60	60846.91
571.76	60664.35
571.92	60818.82
572.09	60764.99
572.25	60804.78
572.41	60715.84
572.57	60800.10
572.74	61027.13
572.90	60683.07
573.06	60690.09
573.22	60804.78
573.38	60762.65
573.55	60706.47
573.71	60842.23
573.87	60577.75
574.03	60704.13
574.20	60748.60
574.36	60776.69
574.52	60921.80
574.68	60842.23
574.84	61083.30
575.01	60683.07
575.17	60786.05
575.33	60697.11
575.49	60884.36
575.65	61034.15
575.82	61041.17
575.98	60823.50
576.14	60910.10
576.30	60874.99
576.46	60835.20
576.62	60889.04
576.79	60996.70
576.95	60690.09
577.11	60963.93
577.27	60968.61
577.43	60741.58
577.59	60725.20
577.75	61027.13
577.92	60858.61
578.08	60816.48
578.24	61069.26
578.40	61080.96
578.56	61109.05
578.72	60912.44
578.88	61183.94
579.04	61165.22
579.21	60870.31
579.37	61230.75
579.53	61366.51
579.69	60631.58
579.85	61113.73
580.01	60970.96
580.17	60753.29
580.33	61045.85
580.49	61109.05
580.65	61104.37
580.82	60987.34
580.98	60856.27
581.14	60954.57
581.30	61071.60
581.46	60931.17
581.62	61041.17
581.78	60973.30
581.94	61095.00
582.10	60830.52
582.26	61183.94
582.42	61017.77
582.58	61066.92
582.74	61022.45
582.90	60987.34
583.06	61169.90
583.22	60977.98
583.38	61102.03
583.54	61268.20
583.70	60956.91
583.86	61155.86
584.02	61041.17
584.18	61319.70
584.34	61183.94
584.50	61024.79
584.66	60994.36
584.82	60872.65
584.98	61048.19
585.14	61064.58
585.30	61013.08
585.46	60992.02
585.62	61261.18
585.78	61123.09
585.94	61057.56
586.10	61073.94
586.26	61109.05
586.42	61179.26
586.58	61125.43
586.74	61090.32
586.90	61155.86
587.06	60994.36
587.22	61303.31
587.38	60966.27
587.54	61221.39
587.70	61399.27
587.86	61310.33
588.02	61104.37
588.18	61380.55
588.34	61240.12
588.49	61207.35
