SpectraSuite Data File
++++++++++++++++++++++++++++++++++++
Date: Fri Oct 25 11:26:02 EDT 2013
User: price-jones
Dark Spectrum Present: No
Reference Spectrum Present: No
Number of Sampled Component Spectra: 1
Spectrometers: USB2+H05261
Integration Time (usec): 100000 (USB2+H05261)
Spectra Averaged: 1 (USB2+H05261)
Boxcar Smoothing: 0 (USB2+H05261)
Correct for Electrical Dark: No (USB2+H05261)
Strobe/Lamp Enabled: No (USB2+H05261)
Correct for Detector Non-linearity: No (USB2+H05261)
Correct for Stray Light: No (USB2+H05261)
Number of Pixels in Processed Spectrum: 2048
>>>>>Begin Processed Spectral Data<<<<<
365.73	259.80
365.92	259.80
366.12	259.80
366.32	154.48
366.52	177.88
366.72	147.45
366.91	88.94
367.11	133.41
367.31	102.98
367.51	184.90
367.70	187.24
367.90	102.98
368.10	131.07
368.30	161.50
368.49	72.56
368.69	208.31
368.89	166.18
369.09	107.66
369.28	135.75
369.48	149.79
369.68	161.50
369.87	196.60
370.07	163.84
370.27	208.31
370.47	367.46
370.66	603.86
370.86	596.84
371.06	685.78
371.25	685.78
371.45	697.48
371.65	732.59
371.84	634.29
372.04	725.57
372.24	660.03
372.44	641.31
372.63	702.16
372.83	814.51
373.03	788.76
373.22	753.65
373.42	770.04
373.62	772.38
373.81	779.40
374.01	842.59
374.21	767.70
374.40	884.72
374.60	868.34
374.79	835.57
374.99	758.33
375.19	807.48
375.38	842.59
375.58	950.26
375.78	863.66
375.97	905.79
376.17	924.51
376.37	809.83
376.56	954.94
376.76	957.28
376.95	842.59
377.15	973.66
377.35	905.79
377.54	973.66
377.74	922.17
377.93	903.45
378.13	837.91
378.33	1036.86
378.52	947.92
378.72	919.83
378.91	983.02
379.11	945.58
379.31	851.96
379.50	957.28
379.70	954.94
379.89	961.96
380.09	938.55
380.28	1048.56
380.48	1020.47
380.68	940.90
380.87	1018.13
381.07	1036.86
381.26	961.96
381.46	1008.77
381.65	1069.62
381.85	1102.39
382.04	952.60
382.24	1144.52
382.43	1111.75
382.63	1118.78
382.83	1083.67
383.02	1095.37
383.22	1043.88
383.41	1132.82
383.61	1179.63
383.80	1149.20
384.00	1125.80
384.19	1116.44
384.39	1135.16
384.58	1167.93
384.78	1210.06
384.97	1186.65
385.17	1090.69
385.36	1132.82
385.56	1247.51
385.75	1142.18
385.95	1153.88
386.14	1203.04
386.34	1219.42
386.53	1284.95
386.72	1193.67
386.92	1219.42
387.11	1238.14
387.31	1153.88
387.50	1228.78
387.70	1184.31
387.89	1282.61
388.09	1273.25
388.28	1275.59
388.48	1310.70
388.67	1247.51
388.86	1383.26
389.06	1308.36
389.25	1317.72
389.45	1306.02
389.64	1355.17
389.84	1399.64
390.03	1451.13
390.22	1317.72
390.42	1366.87
390.61	1404.32
390.81	1359.85
391.00	1474.54
391.19	1432.41
391.39	1425.39
391.58	1458.15
391.78	1397.30
391.97	1488.58
392.16	1427.73
392.36	1446.45
392.55	1526.03
392.75	1448.79
392.94	1549.43
393.13	1605.61
393.33	1549.43
393.52	1486.24
393.71	1514.33
393.91	1598.59
394.10	1519.01
394.29	1521.35
394.49	1565.82
394.68	1640.72
394.88	1666.46
395.07	1519.01
395.26	1636.03
395.46	1603.27
395.65	1596.25
395.84	1874.77
396.04	1671.14
396.23	1720.29
396.42	1792.85
396.62	1783.49
396.81	1811.57
397.00	1818.60
397.19	1806.89
397.39	1776.47
397.58	1799.87
397.77	1846.68
397.97	1888.81
398.16	1802.21
398.35	1881.79
398.55	1860.73
398.74	1923.92
398.93	1947.33
399.12	1865.41
399.32	1942.64
399.51	1947.33
399.70	1961.37
399.90	1994.14
400.09	2036.27
400.28	2043.29
400.47	1975.41
400.67	2169.68
400.86	2024.56
401.05	2099.46
401.24	2197.76
401.44	2092.44
401.63	2197.76
401.82	2172.02
402.01	2160.31
402.21	2172.02
402.40	2200.10
402.59	2214.15
402.78	2125.21
402.97	2129.89
403.17	2314.79
403.36	2373.30
403.55	2251.60
403.74	2328.83
403.93	2335.85
404.13	2291.38
404.32	2377.98
404.51	2356.92
404.70	2450.54
404.89	2380.32
405.09	2324.15
405.28	2417.77
405.47	2478.63
405.66	2415.43
405.85	2502.03
406.05	2511.39
406.24	2457.56
406.43	2572.25
406.62	2558.21
406.81	2644.81
407.00	2609.70
407.20	2619.06
407.39	2551.18
407.58	2764.17
407.77	2670.55
407.96	2710.34
408.15	2818.00
408.34	2747.79
408.54	2803.96
408.73	2815.66
408.92	2836.73
409.11	2834.39
409.30	2951.42
409.49	2960.78
409.68	2911.63
409.87	2963.12
410.07	3084.83
410.26	3002.91
410.45	3073.12
410.64	3012.27
410.83	3002.91
411.02	3112.91
411.21	3197.17
411.40	3157.38
411.59	3101.21
411.78	3232.28
411.98	3197.17
412.17	3272.07
412.36	3286.11
412.55	3403.14
412.74	3337.60
412.93	3414.84
413.12	3353.99
413.31	3529.53
413.50	3452.29
413.69	3545.91
413.88	3719.11
414.07	3723.79
414.26	3578.68
414.45	3620.81
414.64	3712.09
414.83	3655.92
415.02	3775.28
415.22	3941.46
415.41	3758.90
415.60	3847.84
415.79	3866.56
415.98	3896.99
416.17	3941.46
416.36	4039.76
416.55	3953.16
416.74	4175.52
416.93	4023.38
417.12	4114.66
417.31	4140.41
417.50	4091.26
417.69	4217.65
417.88	4273.82
418.07	4175.52
418.26	4313.61
418.45	4353.40
418.64	4580.43
418.83	4301.90
419.02	4395.53
419.21	4395.53
419.39	4547.66
419.58	4348.72
419.77	4400.21
419.96	4720.86
420.15	4545.32
420.34	4587.45
420.53	4791.08
420.72	4678.73
420.91	4638.94
421.10	4716.18
421.29	4720.86
421.48	4615.54
421.67	4657.67
421.86	4674.05
422.05	4791.08
422.24	4648.30
422.43	4961.94
422.61	4891.72
422.80	5029.81
422.99	4912.78
423.18	5062.58
423.37	4940.87
423.56	5025.13
423.75	4751.29
423.94	4865.97
424.13	4573.41
424.32	4983.00
424.50	5001.72
424.69	5074.28
424.88	5172.58
425.07	4929.17
425.26	4938.53
425.45	4947.89
425.64	5043.85
425.83	4933.85
426.01	4968.96
426.20	4983.00
426.39	5071.94
426.58	5029.81
426.77	5018.11
426.96	5212.37
427.15	5011.09
427.33	5212.37
427.52	5071.94
427.71	5298.97
427.90	5137.48
428.09	5416.00
428.28	5268.55
428.46	5357.49
428.65	5355.15
428.84	5467.49
429.03	5446.43
429.22	5565.79
429.40	5308.34
429.59	5401.96
429.78	5301.31
429.97	5245.14
430.16	5423.02
430.34	5664.10
430.53	5570.48
430.72	5659.42
430.91	5715.59
431.10	5584.52
431.28	5659.42
431.47	5785.80
431.66	5935.60
431.85	5799.85
432.03	5893.47
432.22	6073.69
432.41	6005.81
432.60	5879.43
432.79	6026.88
432.97	6057.31
433.16	5980.07
433.35	5944.96
433.54	5980.07
433.72	5977.73
433.91	6164.97
434.10	6017.52
434.28	6073.69
434.47	6246.89
434.66	6258.59
434.85	6258.59
435.03	6431.79
435.22	6195.40
435.41	6469.24
435.59	6410.73
435.78	6670.53
435.97	6541.80
436.16	6450.52
436.34	6565.20
436.53	6452.86
436.72	6494.99
436.90	6373.28
437.09	6712.66
437.28	6476.26
437.46	6530.09
437.65	6581.59
437.84	6710.32
438.02	6640.10
438.21	6633.08
438.40	6836.70
438.58	6897.56
438.77	7049.69
438.96	6988.84
439.14	7108.21
439.33	7094.16
439.52	7382.05
439.70	7091.82
439.89	7365.67
440.08	7428.86
440.26	7396.09
440.45	7309.49
440.63	7576.31
440.82	7576.31
441.01	7454.61
441.19	7445.24
441.38	7817.39
441.57	7672.28
441.75	7676.96
441.94	7957.82
442.12	8086.55
442.31	8191.88
442.50	8126.34
442.68	7929.74
442.87	8257.41
443.05	8210.60
443.24	8138.04
443.43	8245.71
443.61	8145.06
443.80	8435.29
443.98	7906.33
444.17	7847.82
444.35	8198.90
444.54	8400.18
444.73	8308.90
444.91	8135.70
445.10	8428.27
445.28	8423.59
445.47	8306.56
445.65	8358.05
445.84	8489.12
446.02	8458.70
446.21	8463.38
446.39	8524.23
446.58	8514.87
446.77	8437.63
446.95	8133.36
447.14	8451.67
447.32	8409.54
447.51	8521.89
447.69	8346.35
447.88	8582.74
448.06	8503.17
448.25	8578.06
448.43	8559.34
448.62	8456.36
448.80	8631.90
448.99	8699.77
449.17	8659.98
449.36	8645.94
449.54	8779.35
449.73	8945.53
449.91	8959.57
450.10	8978.30
450.28	9074.26
450.46	9195.96
450.65	8727.86
450.83	9004.04
451.02	9289.59
451.20	8999.36
451.39	9102.34
451.57	9097.66
451.76	8994.68
451.94	9102.34
452.13	9441.72
452.31	9366.82
452.49	9186.60
452.68	9329.38
452.86	9305.97
453.05	9373.85
453.23	9507.26
453.42	9240.44
453.60	9315.33
453.78	9535.34
453.97	9575.13
454.15	9675.77
454.34	9530.66
454.52	9610.24
454.70	9750.67
454.89	9635.99
455.07	9701.52
455.26	9767.06
455.44	9865.36
455.62	9813.87
455.81	9755.35
455.99	9966.00
456.17	10090.05
456.36	10157.92
456.54	10134.52
456.73	10160.27
456.91	10511.35
457.09	10464.54
457.28	10485.60
457.46	10228.14
457.64	10270.27
457.83	10349.85
458.01	10279.63
458.19	10583.90
458.38	10450.49
458.56	10700.93
458.74	10637.73
458.93	10740.72
459.11	10799.23
459.29	10810.93
459.48	10855.40
459.66	10757.10
459.84	10946.69
460.03	11084.78
460.21	10834.34
460.39	10939.66
460.57	11009.88
460.76	11040.31
460.94	11157.33
461.12	11206.48
461.31	11122.23
461.49	11318.83
461.67	11302.45
461.85	11583.31
462.04	11339.90
462.22	11735.45
462.40	11686.29
462.59	11445.22
462.77	11442.88
462.95	11499.05
463.13	11440.54
463.32	11510.75
463.50	11662.89
463.68	11758.85
463.86	12042.06
464.05	11461.60
464.23	11651.19
464.41	11903.96
464.59	11616.08
464.78	12037.38
464.96	12011.63
465.14	12016.31
465.32	11810.34
465.50	12163.76
465.69	12013.97
465.87	12184.83
466.05	12173.13
466.23	12196.53
466.41	12348.67
466.60	12575.70
466.78	11896.94
466.96	12290.15
467.14	12217.60
467.32	12226.96
467.51	12512.50
467.69	11896.94
467.87	12547.61
468.05	12369.73
468.23	12245.68
468.41	12479.74
468.60	12453.99
468.78	12620.17
468.96	12517.18
469.14	12835.50
469.32	13163.17
469.50	12807.41
469.69	12879.97
469.87	13107.00
470.05	13116.36
470.23	12973.59
470.41	13153.81
470.59	13460.42
470.77	13437.02
470.95	13015.72
471.14	13563.40
471.32	13303.60
471.50	13441.70
471.68	13790.44
471.86	13692.13
472.04	13792.78
472.22	14024.49
472.40	13682.77
472.58	13811.50
472.77	13879.38
472.95	14188.33
473.13	14693.88
473.31	14136.84
473.49	14160.24
473.67	14190.67
473.85	14312.38
474.03	14523.02
474.21	14551.11
474.39	14728.99
474.57	14721.97
474.75	14759.42
474.93	14991.13
475.12	14761.76
475.30	15035.60
475.48	15180.71
475.66	15091.77
475.84	15033.26
476.02	15290.72
476.20	15353.91
476.38	15566.90
476.56	15803.30
476.74	15782.23
476.92	16006.92
477.10	15913.30
477.28	16240.98
477.46	16163.74
477.64	16266.72
477.82	16435.24
478.00	16746.53
478.18	16989.95
478.36	16858.88
478.54	17048.46
478.72	17081.23
478.90	17458.06
479.08	17413.59
479.26	17516.57
479.44	17717.86
479.62	17579.76
479.80	17942.55
479.98	18150.85
480.16	18370.86
480.34	18129.79
480.52	18635.35
480.70	18726.63
480.88	18431.72
481.06	18834.29
481.24	18771.10
481.41	19019.19
481.59	19468.58
481.77	19503.68
481.95	19323.46
482.13	19520.07
482.31	19639.44
482.49	20273.72
482.67	19922.64
482.85	20882.26
483.03	20900.98
483.21	20751.19
483.39	20823.75
483.57	20692.68
483.74	21186.53
483.92	21291.85
484.10	21130.36
484.28	21427.60
484.46	22204.66
484.64	22066.57
484.82	21881.67
485.00	22012.74
485.18	22806.18
485.35	22735.96
485.53	22918.53
485.71	22836.61
485.89	23466.21
486.07	23571.54
486.25	23094.07
486.43	23630.05
486.61	24044.32
486.78	24243.27
486.96	24217.52
487.14	24608.39
487.32	24594.35
487.50	24645.84
487.68	25078.84
487.85	25378.43
488.03	25008.62
488.21	25582.06
488.39	25792.70
488.57	26050.16
488.75	25769.30
488.92	26464.44
489.10	26789.77
489.28	26658.70
489.46	27000.42
489.64	26611.89
489.81	27866.42
489.99	27232.13
490.17	27807.90
490.35	28034.94
490.53	28685.61
490.70	28491.34
490.88	28161.33
491.06	28669.22
491.24	28781.57
491.41	29034.35
491.59	29310.53
491.77	28952.43
491.95	29240.31
492.13	29816.08
492.30	29549.26
492.48	29816.08
492.66	30101.63
492.84	30373.13
493.01	30787.41
493.19	30621.23
493.37	30820.17
493.54	30991.03
493.72	31295.30
493.90	31440.42
494.08	31814.90
494.25	32025.55
494.43	32140.24
494.61	32357.91
494.79	32350.88
494.96	32582.60
495.14	32793.25
495.32	33099.86
495.49	32931.34
495.67	32900.91
495.85	33439.23
496.02	33986.92
496.20	33954.15
496.38	34108.63
496.55	34237.36
496.73	34801.43
496.91	34305.23
497.09	35049.52
497.26	34813.13
497.44	34960.58
497.62	35124.42
497.79	35880.41
497.97	35267.19
498.14	35861.69
498.32	36699.60
498.50	36266.60
498.67	36369.58
498.85	35964.67
499.03	36662.15
499.20	36697.26
499.38	36610.66
499.56	36954.72
499.73	37057.70
499.91	37268.35
500.08	37907.32
500.26	37284.73
500.44	37497.72
500.61	37890.93
500.79	37848.80
500.97	37933.06
501.14	38782.68
501.32	38382.45
501.49	38682.03
501.67	38623.52
501.84	38546.28
502.02	38852.89
502.20	39285.89
502.37	38899.70
502.55	39131.42
502.72	39309.30
502.90	39159.50
503.07	39519.95
503.25	39688.46
503.43	39723.57
503.60	40098.06
503.78	40430.41
503.95	40498.29
504.13	40313.39
504.30	40371.90
504.48	40165.93
504.65	40638.72
504.83	40950.01
505.01	41298.75
505.18	40662.13
505.36	41102.15
505.53	41277.69
505.71	41813.67
505.88	42068.79
506.06	41497.70
506.23	41794.95
506.41	41654.51
506.58	41921.34
506.76	42223.26
506.93	42396.46
507.11	42298.16
507.28	42396.46
507.46	42344.97
507.63	42766.27
507.81	43005.00
507.98	42967.55
508.16	43023.73
508.33	43311.61
508.50	43292.89
508.68	43281.19
508.85	43976.33
509.03	43592.48
509.20	43964.62
509.38	44086.33
509.55	44348.47
509.73	44619.97
509.90	44535.71
510.08	44631.68
510.25	44381.24
510.42	44556.78
510.60	45350.22
510.77	44678.49
510.95	45333.84
511.12	45427.46
511.30	45242.56
511.47	45394.69
511.64	45532.78
511.82	45504.70
511.99	45586.61
512.17	45701.30
512.34	45963.44
512.51	46401.12
512.69	46286.43
512.86	46291.12
513.04	46770.93
513.21	46529.85
513.38	47000.30
513.56	47229.67
513.73	46913.70
513.90	47243.71
514.08	46911.36
514.25	47229.67
514.43	47253.08
514.60	47274.14
514.77	47440.32
514.95	47447.34
515.12	47260.10
515.29	47384.15
515.47	47739.91
515.64	47878.00
515.81	47742.25
515.99	48053.54
516.16	48437.39
516.33	48507.60
516.51	48708.89
516.68	47999.71
516.85	48205.67
517.03	49010.82
517.20	49097.42
517.37	48736.98
517.54	48935.92
517.72	48961.67
517.89	49289.34
518.06	49291.68
518.24	49059.97
518.41	49118.48
518.58	49668.51
518.75	48989.75
518.93	49544.46
519.10	49296.36
519.27	49762.13
519.45	49602.97
519.62	49907.24
519.79	50068.74
519.96	49855.75
520.14	50162.36
520.31	50031.29
520.48	50370.67
520.65	50014.91
520.83	50494.72
521.00	50775.58
521.17	50623.45
521.34	50981.55
521.52	50775.58
521.69	50916.01
521.86	50824.73
522.03	50983.89
522.20	51058.79
522.38	51178.15
522.55	51285.82
522.72	51229.65
522.89	51367.74
523.07	51779.67
523.24	51594.77
523.41	51653.28
523.58	51231.99
523.75	52161.18
523.92	51854.57
524.10	51744.56
524.27	51852.23
524.44	52207.99
524.61	52074.58
524.78	52140.11
524.96	52013.73
525.13	52126.07
525.30	52154.16
525.47	52420.98
525.64	52060.54
525.81	52549.71
525.98	52907.81
526.16	52636.31
526.33	52685.46
526.50	53017.82
526.67	52886.74
526.84	52889.09
527.01	52596.52
527.18	52697.16
527.36	53214.42
527.53	53052.92
527.70	53233.14
527.87	53448.47
528.04	52963.98
528.21	53518.69
528.38	53577.20
528.55	53504.65
528.72	53284.64
528.89	53645.08
529.07	53289.32
529.24	53223.78
529.41	53750.40
529.58	53577.20
529.75	53628.69
529.92	53965.73
530.09	53492.94
530.26	53858.07
530.43	54061.69
530.60	53900.20
530.77	54047.65
530.94	53993.82
531.11	54005.52
531.28	54155.32
531.46	53958.71
531.63	54033.61
531.80	54209.15
531.97	54473.63
532.14	54169.36
532.31	54218.51
532.48	54490.01
532.65	54752.15
532.82	54396.39
532.99	54754.49
533.16	54501.71
533.33	54831.73
533.50	54752.15
533.67	54803.64
533.84	54672.57
534.01	54791.94
534.18	54810.67
534.35	55297.50
534.52	55124.30
534.69	54993.23
534.86	55309.20
535.03	55075.15
535.20	55077.49
535.37	55299.84
535.54	55676.66
535.71	54969.82
535.88	55552.62
536.05	55295.16
536.22	55573.68
536.38	55564.32
536.55	55466.02
536.72	55646.24
536.89	55494.10
537.06	55498.78
537.23	55817.10
537.40	55491.76
537.57	55852.20
537.74	55821.78
537.91	55681.34
538.08	55697.73
538.25	55805.39
538.42	55770.28
538.59	55910.72
538.75	55920.08
538.92	56107.32
539.09	56205.62
539.26	55952.85
539.43	56156.47
539.60	56191.58
539.77	56385.85
539.94	56369.46
540.11	56224.35
540.28	56399.89
540.44	56322.65
540.61	56446.70
540.78	56268.82
540.95	56182.22
541.12	56231.37
541.29	56306.27
541.46	56537.98
541.62	56498.19
541.79	56858.63
541.96	56332.01
542.13	56495.85
542.30	56718.20
542.47	56765.01
542.63	56788.42
542.80	56760.33
542.97	57198.01
543.14	57230.78
543.31	57240.14
543.48	57125.46
543.64	57406.32
543.81	57354.83
543.98	57277.59
544.15	57254.18
544.32	57361.85
544.48	57631.01
544.65	57102.05
544.82	57467.17
544.99	57207.37
545.16	57546.75
545.32	57219.08
545.49	57551.43
545.66	57741.02
545.83	57432.07
546.00	57736.34
546.16	57628.67
546.33	57467.17
546.50	57226.10
546.67	57502.28
546.83	57336.10
547.00	57659.10
547.17	57542.07
547.34	57806.55
547.50	57984.43
547.67	57968.05
547.84	57949.32
548.00	58059.33
548.17	58298.06
548.34	58066.35
548.51	58225.51
548.67	58202.10
548.84	58288.70
549.01	58007.84
549.18	58141.25
549.34	58150.61
549.51	58277.00
549.68	58260.62
549.84	58171.67
550.01	58134.23
550.18	58436.16
550.34	58475.94
550.51	58281.68
550.68	58438.50
550.84	58267.64
551.01	58431.47
551.18	58513.39
551.34	58471.26
551.51	58583.61
551.68	58464.24
551.84	58710.00
552.01	58494.67
552.18	58349.56
552.34	58464.24
552.51	58714.68
552.68	58532.12
552.84	58578.93
553.01	58759.15
553.18	58820.00
553.34	58773.19
553.51	58731.06
553.67	58979.16
553.84	59030.65
554.01	59032.99
554.17	58925.33
554.34	58920.65
554.51	58810.64
554.67	59117.25
554.84	59054.06
555.00	58995.54
555.17	58932.35
555.33	59107.89
555.50	58883.20
555.67	59112.57
555.83	59002.56
556.00	59196.83
556.16	59515.14
556.33	59182.79
556.50	59096.19
556.66	59133.63
556.83	59089.16
556.99	59363.01
557.16	59421.52
557.32	59236.62
557.49	59526.84
557.65	59400.46
557.82	59351.30
557.98	59409.82
558.15	59365.35
558.32	59426.20
558.48	59344.28
558.65	59554.93
558.81	59440.24
558.98	59526.84
559.14	59620.47
559.31	59653.23
559.47	59608.76
559.64	59676.64
559.80	59622.81
559.97	59739.83
560.13	59697.70
560.30	59508.12
560.46	59653.23
560.63	59601.74
560.79	59763.24
560.96	59786.64
561.12	59943.46
561.29	59632.17
561.45	60011.34
561.61	60044.10
561.78	59917.71
561.94	59744.51
562.11	59828.77
562.27	59739.83
562.44	59873.24
562.60	59910.69
562.77	59992.61
562.93	59613.44
563.10	60261.77
563.26	59868.56
563.42	60020.70
563.59	60065.17
563.75	60107.30
563.92	60074.53
564.08	59924.74
564.24	60243.05
564.41	60147.09
564.57	60032.40
564.74	60140.07
564.90	59901.33
565.07	59917.71
565.23	59962.18
565.39	59962.18
565.56	60083.89
565.72	60069.85
565.88	60301.56
566.05	60076.87
566.21	59980.91
566.38	60271.14
566.54	60186.88
566.70	60336.67
566.87	60203.26
567.03	60163.47
567.19	60264.11
567.36	60219.64
567.52	60329.65
567.68	60385.82
567.85	60285.18
568.01	60460.72
568.17	60217.30
568.34	60392.84
568.50	60212.62
568.66	60243.05
568.83	60329.65
568.99	60301.56
569.15	60434.97
569.32	60537.96
569.48	60179.85
569.64	60498.17
569.81	60491.15
569.97	60334.33
570.13	60374.12
570.30	60221.98
570.46	60350.71
570.62	60324.97
570.78	60568.38
570.95	60303.90
571.11	60582.43
571.27	60303.90
571.43	60444.33
571.60	60509.87
571.76	60617.53
571.92	60409.23
572.09	60533.28
572.25	60441.99
572.41	60605.83
572.57	60502.85
572.74	60640.94
572.90	60556.68
573.06	60563.70
573.22	60638.60
573.38	60430.29
573.55	60697.11
573.71	60671.37
573.87	60774.35
574.03	60491.15
574.20	60654.98
574.36	60416.25
574.52	60720.52
574.68	60687.75
574.84	60760.31
575.01	60837.54
575.17	60760.31
575.33	60619.88
575.49	60608.17
575.65	60711.16
575.82	60905.42
575.98	60762.65
576.14	60933.51
576.30	60837.54
576.46	60657.32
576.62	60570.72
576.79	60849.25
576.95	60629.24
577.11	60720.52
577.27	60769.67
577.43	60734.56
577.59	60713.50
577.75	60879.67
577.92	60842.23
578.08	60687.75
578.24	60809.46
578.40	60877.33
578.56	60882.02
578.72	60891.38
578.88	60797.76
579.04	60893.72
579.21	61003.72
579.37	61041.17
579.53	61020.11
579.69	60640.94
579.85	60942.87
580.01	60718.18
580.17	60640.94
580.33	60947.55
580.49	60898.40
580.65	60889.04
580.82	60781.37
580.98	60711.16
581.14	60676.05
581.30	60970.96
581.46	60814.14
581.62	60755.63
581.78	60767.33
581.94	60760.31
582.10	60907.76
582.26	60844.57
582.42	60769.67
582.58	60933.51
582.74	60769.67
582.90	60954.57
583.06	61010.74
583.22	60701.79
583.38	60903.08
583.54	60942.87
583.70	60889.04
583.86	60849.25
584.02	60949.89
584.18	61029.47
584.34	60900.74
584.50	60975.64
584.66	60732.22
584.82	60729.88
584.98	61087.98
585.14	60954.57
585.30	60893.72
585.46	60863.29
585.62	61024.79
585.78	61036.49
585.94	60755.63
586.10	60917.12
586.26	60764.99
586.42	61080.96
586.58	61113.73
586.74	61073.94
586.90	60919.46
587.06	60842.23
587.22	60989.68
587.38	60910.10
587.54	60999.04
587.70	61315.01
587.86	61202.67
588.02	60989.68
588.18	61102.03
588.34	60917.12
588.49	60949.89
