SpectraSuite Data File
++++++++++++++++++++++++++++++++++++
Date: Fri Oct 25 10:43:51 EDT 2013
User: price-jones
Dark Spectrum Present: No
Reference Spectrum Present: No
Number of Sampled Component Spectra: 1
Spectrometers: USB2+H05261
Integration Time (usec): 100000 (USB2+H05261)
Spectra Averaged: 1 (USB2+H05261)
Boxcar Smoothing: 0 (USB2+H05261)
Correct for Electrical Dark: No (USB2+H05261)
Strobe/Lamp Enabled: No (USB2+H05261)
Correct for Detector Non-linearity: No (USB2+H05261)
Correct for Stray Light: No (USB2+H05261)
Number of Pixels in Processed Spectrum: 2048
>>>>>Begin Processed Spectral Data<<<<<
365.73	84.26
365.92	84.26
366.12	84.26
366.32	0.00
366.52	0.00
366.72	9.36
366.91	63.19
367.11	14.04
367.31	51.49
367.51	9.36
367.70	14.04
367.90	7.02
368.10	105.32
368.30	60.85
368.49	0.00
368.69	86.60
368.89	35.11
369.09	11.70
369.28	65.54
369.48	32.77
369.68	30.43
369.87	105.32
370.07	74.90
370.27	135.75
370.47	147.45
370.66	313.63
370.86	421.30
371.06	465.77
371.25	575.77
371.45	433.00
371.65	440.02
371.84	486.83
372.04	449.38
372.24	411.93
372.44	526.62
372.63	486.83
372.83	500.87
373.03	517.26
373.22	566.41
373.42	517.26
373.62	479.81
373.81	491.51
374.01	589.82
374.21	592.16
374.40	599.18
374.60	575.77
374.79	573.43
374.99	575.77
375.19	645.99
375.38	624.92
375.58	559.39
375.78	580.45
375.97	685.78
376.17	692.80
376.37	657.69
376.56	568.75
376.76	550.03
376.95	589.82
377.15	566.41
377.35	662.37
377.54	589.82
377.74	648.33
377.93	664.71
378.13	723.23
378.33	732.59
378.52	671.73
378.72	669.39
378.91	622.58
379.11	636.63
379.31	564.07
379.50	674.07
379.70	711.52
379.89	734.93
380.09	676.41
380.28	716.20
380.48	758.33
380.68	746.63
380.87	622.58
381.07	732.59
381.26	690.46
381.46	702.16
381.65	709.18
381.85	678.76
382.04	624.92
382.24	702.16
382.43	634.29
382.63	667.05
382.83	751.31
383.02	706.84
383.22	744.29
383.41	681.10
383.61	676.41
383.80	746.63
384.00	634.29
384.19	760.67
384.39	791.10
384.58	688.12
384.78	901.11
384.97	858.98
385.17	786.42
385.36	873.02
385.56	770.04
385.75	809.83
385.95	844.93
386.14	805.14
386.34	912.81
386.53	823.87
386.72	795.78
386.92	919.83
387.11	891.74
387.31	896.43
387.50	877.70
387.70	926.85
387.89	898.77
388.09	849.61
388.28	828.55
388.48	889.40
388.67	987.71
388.86	973.66
389.06	940.90
389.25	919.83
389.45	919.83
389.64	1001.75
389.84	1039.20
390.03	1050.90
390.22	994.73
390.42	922.17
390.61	1015.79
390.81	945.58
391.00	1107.07
391.19	1025.15
391.39	1165.59
391.58	1111.75
391.78	1046.22
391.97	1036.86
392.16	1022.81
392.36	1008.77
392.55	1086.01
392.75	983.02
392.94	1015.79
393.13	1011.11
393.33	1025.15
393.52	1055.58
393.71	1100.05
393.91	1125.80
394.10	1146.86
394.29	1158.57
394.49	1188.99
394.68	1193.67
394.88	1165.59
395.07	1268.57
395.26	1238.14
395.46	1214.74
395.65	1212.40
395.84	1200.69
396.04	1273.25
396.23	1242.82
396.42	1142.18
396.62	1238.14
396.81	1224.10
397.00	1254.53
397.19	1277.93
397.39	1338.79
397.58	1341.13
397.77	1373.89
397.97	1394.96
398.16	1390.28
398.35	1451.13
398.55	1502.62
398.74	1451.13
398.93	1586.88
399.12	1519.01
399.32	1556.46
399.51	1453.47
399.70	1558.80
399.90	1600.93
400.09	1685.19
400.28	1638.38
400.47	1617.31
400.67	1645.40
400.86	1675.82
401.05	1671.14
401.24	1778.81
401.44	1673.48
401.63	1715.61
401.82	1701.57
402.01	1708.59
402.21	1757.74
402.40	1842.00
402.59	1771.79
402.78	1722.63
402.97	1832.64
403.17	1774.13
403.36	1753.06
403.55	1750.72
403.74	1977.75
403.93	1928.60
404.13	1839.66
404.32	1757.74
404.51	1870.09
404.70	1909.88
404.89	1952.01
405.09	2017.54
405.28	1977.75
405.47	1954.35
405.66	1959.03
405.85	1963.71
406.05	1977.75
406.24	2008.18
406.43	2038.61
406.62	2111.16
406.81	2155.63
407.00	2085.42
407.20	2043.29
407.39	1959.03
407.58	2113.50
407.77	2265.64
407.96	2356.92
408.15	2232.87
408.34	2214.15
408.54	2286.70
408.73	2326.49
408.92	2303.09
409.11	2366.28
409.30	2361.60
409.49	2293.72
409.68	2300.75
409.87	2275.00
410.07	2354.58
410.26	2361.60
410.45	2476.29
410.64	2429.48
410.83	2457.56
411.02	2548.84
411.21	2466.92
411.40	2588.63
411.59	2590.97
411.78	2626.08
411.98	2686.94
412.17	2609.70
412.36	2700.98
412.55	2787.58
412.74	2719.70
412.93	2700.98
413.12	2785.24
413.31	2930.35
413.50	2757.15
413.69	2771.19
413.88	2923.33
414.07	2810.98
414.26	2953.76
414.45	2853.11
414.64	3021.63
414.83	3082.49
415.02	2963.12
415.22	3108.23
415.41	3183.13
415.60	3070.78
415.79	3208.87
415.98	3190.15
416.17	3269.73
416.36	3215.90
416.55	3279.09
416.74	3323.56
416.93	3234.62
417.12	3372.71
417.31	3342.28
417.50	3377.39
417.69	3454.63
417.88	3391.44
418.07	3372.71
418.26	3597.40
418.45	3361.01
418.64	3585.70
418.83	3602.08
419.02	3548.25
419.21	3627.83
419.39	3651.24
419.58	3552.93
419.77	3569.32
419.96	3543.57
420.15	3574.00
420.34	3693.37
420.53	3714.43
420.72	3824.44
420.91	3843.16
421.10	3880.61
421.29	3873.59
421.48	3756.56
421.67	3939.12
421.86	3906.35
422.05	3896.99
422.24	3751.88
422.43	3798.69
422.61	3758.90
422.80	3801.03
422.99	4028.06
423.18	3798.69
423.37	3955.51
423.56	3908.69
423.75	3866.56
423.94	3978.91
424.13	3751.88
424.32	3824.44
424.50	4088.92
424.69	4056.15
424.88	4051.47
425.07	3939.12
425.26	3878.27
425.45	4091.26
425.64	4018.70
425.83	3978.91
426.01	4124.02
426.20	3927.42
426.39	4131.05
426.58	4109.98
426.77	3784.65
426.96	4032.74
427.15	4016.36
427.33	4065.51
427.52	4121.68
427.71	4224.67
427.90	4088.92
428.09	4177.86
428.28	4273.82
428.46	4156.79
428.65	4163.81
428.84	4177.86
429.03	4304.25
429.22	4138.07
429.40	4112.32
429.59	4313.61
429.78	3955.51
429.97	3882.95
430.16	4039.76
430.34	4107.64
430.53	4112.32
430.72	4112.32
430.91	4156.79
431.10	4252.75
431.28	4528.94
431.47	4723.20
431.66	4601.49
431.85	4685.75
432.03	4634.26
432.22	4830.87
432.41	4601.49
432.60	4748.95
432.79	4746.61
432.97	4734.90
433.16	4732.56
433.35	4620.22
433.54	4741.93
433.72	4865.97
433.91	4791.08
434.10	4762.99
434.28	4741.93
434.47	4856.61
434.66	4856.61
434.85	4954.91
435.03	5006.41
435.22	4940.87
435.41	5181.95
435.59	5057.90
435.78	5130.45
435.97	5121.09
436.16	5317.70
436.34	5198.33
436.53	5184.29
436.72	5294.29
436.90	5149.18
437.09	5287.27
437.28	5224.08
437.46	5280.25
437.65	5191.31
437.84	5165.56
438.02	5184.29
438.21	5062.58
438.40	5214.71
438.58	5247.48
438.77	5504.94
438.96	5420.68
439.14	5535.37
439.33	5465.15
439.52	5490.90
439.70	5643.03
439.89	5678.14
440.08	5619.63
440.26	5724.95
440.45	5781.12
440.63	5769.42
440.82	6129.86
441.01	5944.96
441.19	6005.81
441.38	6120.50
441.57	6129.86
441.75	6129.86
441.94	6204.76
442.12	6333.49
442.31	6417.75
442.50	6300.72
442.68	6328.81
442.87	6335.83
443.05	6279.66
443.24	6525.41
443.43	6579.25
443.61	6518.39
443.80	6633.08
443.98	6509.03
444.17	6375.62
444.35	6497.33
444.54	6583.93
444.73	6581.59
444.91	6403.71
445.10	6389.66
445.28	6382.64
445.47	6370.94
445.65	6520.73
445.84	6541.80
446.02	6396.68
446.21	6567.54
446.39	6492.65
446.58	6635.42
446.77	6696.27
446.95	6473.92
447.14	6665.85
447.32	6651.80
447.51	6740.74
447.69	6750.10
447.88	6815.64
448.06	6466.90
448.25	6691.59
448.43	6815.64
448.62	6757.13
448.80	6677.55
448.99	6689.25
449.17	6902.24
449.36	6911.60
449.54	7073.10
449.73	7119.91
449.91	7108.21
450.10	7007.56
450.28	7360.98
450.46	7248.64
450.65	7293.11
450.83	7258.00
451.02	7108.21
451.20	7318.86
451.39	7375.03
451.57	7222.89
451.76	7328.22
451.94	7267.36
452.13	7309.49
452.31	7293.11
452.49	7248.64
452.68	7229.91
452.86	7173.74
453.05	7449.93
453.23	7353.96
453.42	7414.82
453.60	7372.69
453.78	7478.01
453.97	7400.77
454.15	7403.11
454.34	7590.36
454.52	7623.12
454.70	7564.61
454.89	7541.21
455.07	7564.61
455.26	7515.46
455.44	7819.73
455.62	7803.35
455.81	7726.11
455.99	7969.52
456.17	7712.07
456.36	7751.85
456.54	7810.37
456.73	7946.12
456.91	8236.35
457.09	8301.88
457.28	8271.45
457.46	8009.31
457.64	8042.08
457.83	8252.73
458.01	8140.38
458.19	8306.56
458.38	8109.96
458.56	8084.21
458.74	8102.93
458.93	8215.28
459.11	8248.05
459.29	8226.98
459.48	8257.41
459.66	8458.70
459.84	8552.32
460.03	8465.72
460.21	8439.97
460.39	8690.41
460.57	8554.66
460.76	8470.40
460.94	8716.16
461.12	8702.11
461.31	8601.47
461.49	8711.47
461.67	8699.77
461.85	8868.29
462.04	8741.90
462.22	8737.22
462.40	9104.68
462.59	8753.60
462.77	8840.20
462.95	9015.74
463.13	8777.01
463.32	8940.85
463.50	9057.87
463.68	9135.11
463.86	9027.45
464.05	8894.04
464.23	8992.34
464.41	9071.92
464.59	9158.52
464.78	9074.26
464.96	9064.89
465.14	9036.81
465.32	9048.51
465.50	9254.48
465.69	9235.75
465.87	9301.29
466.05	9149.15
466.23	9240.44
466.41	9242.78
466.60	9432.36
466.78	9146.81
466.96	9238.09
467.14	9205.33
467.32	9357.46
467.51	9320.01
467.69	9282.56
467.87	9411.29
468.05	9467.47
468.23	9226.39
468.41	9434.70
468.60	9589.17
468.78	9769.40
468.96	9476.83
469.14	9776.42
469.32	9647.69
469.50	9579.81
469.69	9692.16
469.87	9839.61
470.05	9771.74
470.23	9673.43
470.41	9816.21
470.59	10132.18
470.77	9811.53
470.95	10197.71
471.14	10171.97
471.32	9991.75
471.50	10377.94
471.68	10190.69
471.86	10483.26
472.04	10431.77
472.22	10590.92
472.40	10080.69
472.58	10319.42
472.77	10340.49
472.95	10668.16
473.13	10644.76
473.31	10757.10
473.49	10663.48
473.67	10602.63
473.85	10860.09
474.03	10843.70
474.21	11222.87
474.39	11211.17
474.57	11035.63
474.75	10918.60
474.93	11026.26
475.12	11213.51
475.30	11136.27
475.48	11208.83
475.66	11344.58
475.84	11321.17
476.02	11578.63
476.20	11506.07
476.38	11548.20
476.56	11875.88
476.74	11707.36
476.92	11597.35
477.10	12074.82
477.28	12177.81
477.46	12248.02
477.64	12070.14
477.82	12512.50
478.00	12674.00
478.18	12472.71
478.36	12695.07
478.54	12475.06
478.72	12716.13
478.90	12737.20
479.08	13004.02
479.26	13109.34
479.44	13205.30
479.62	13184.24
479.80	13289.56
479.98	13380.84
480.16	13837.25
480.34	13657.03
480.52	13694.47
480.70	13731.92
480.88	13692.13
481.06	13621.92
481.24	13947.25
481.41	14136.84
481.59	14546.43
481.77	14567.49
481.95	14420.04
482.13	14726.65
482.31	14633.03
482.49	14925.60
482.67	14977.09
482.85	15257.95
483.03	15054.33
483.21	15346.89
483.39	15531.80
483.57	15307.10
483.74	15599.67
483.92	15733.08
484.10	15421.79
484.28	15913.30
484.46	16137.99
484.64	16657.59
484.82	15903.94
485.00	16152.04
485.18	16407.16
485.35	16561.63
485.53	16133.31
485.71	16112.25
485.89	16369.71
486.07	16278.43
486.25	16580.36
486.43	16849.52
486.61	16776.96
486.78	17319.96
486.96	17446.35
487.14	17951.91
487.32	17745.94
487.50	17872.33
487.68	18178.94
487.85	18525.34
488.03	18555.77
488.21	18480.87
488.39	18504.28
488.57	18600.24
488.75	18675.13
488.92	19166.65
489.10	19112.81
489.28	19660.50
489.46	19728.38
489.64	19922.64
489.81	20456.28
489.99	20196.48
490.17	20306.49
490.35	20425.86
490.53	19997.54
490.70	20688.00
490.88	20849.49
491.06	20830.77
491.24	20837.79
491.41	20683.31
491.59	20922.05
491.77	20819.07
491.95	21298.88
492.13	21411.22
492.30	21741.24
492.48	21909.75
492.66	21675.70
492.84	21865.28
493.01	22185.94
493.19	22050.19
493.37	22228.07
493.54	22284.24
493.72	22588.51
493.90	22780.43
494.08	22754.69
494.25	23087.04
494.43	23410.04
494.61	23468.55
494.79	23669.84
494.96	23524.72
495.14	23742.39
495.32	23798.57
495.49	23878.15
495.67	24016.24
495.85	24496.05
496.02	24215.18
496.20	24194.12
496.38	24563.92
496.55	24849.47
496.73	25081.18
496.91	24720.74
497.09	25333.96
497.26	25394.81
497.44	25060.12
497.62	25338.64
497.79	25675.68
497.97	25319.92
498.14	25348.00
498.32	25523.54
498.50	25415.88
498.67	26157.83
498.85	26045.48
499.03	26115.70
499.20	26258.47
499.38	26377.84
499.56	26298.26
499.73	26588.49
499.91	26986.38
500.08	26434.01
500.26	26639.98
500.44	26787.43
500.61	26654.02
500.79	26672.74
500.97	26588.49
501.14	27351.50
501.32	26944.25
501.49	26977.01
501.67	27072.98
501.84	27545.76
502.02	27524.70
502.20	27695.56
502.37	27337.46
502.55	27880.46
502.72	28397.72
502.90	28100.47
503.07	27861.74
503.25	28517.09
503.43	27955.36
503.60	28100.47
503.78	28390.70
503.95	28170.69
504.13	28669.22
504.30	28512.41
504.48	28723.05
504.65	28919.66
504.83	29336.27
505.01	29453.30
505.18	29177.12
505.36	29275.42
505.53	29448.62
505.71	29759.91
505.88	29951.84
506.06	29390.11
506.23	29530.54
506.41	29633.52
506.58	30080.56
506.76	30024.39
506.93	30312.28
507.11	30068.86
507.28	30000.99
507.46	30471.43
507.63	29912.05
507.81	30026.73
507.98	30199.93
508.16	30616.55
508.33	30352.07
508.50	30558.03
508.68	31009.76
508.85	31681.49
509.03	30923.16
509.20	31166.57
509.38	31328.07
509.55	31047.21
509.73	31124.44
509.90	31510.63
510.08	31700.22
510.25	31304.67
510.42	31711.92
510.60	31527.02
510.77	31585.53
510.95	31922.57
511.12	32116.83
511.30	32091.09
511.47	32580.26
511.64	32376.63
511.82	32456.21
511.99	31936.61
512.17	32582.60
512.34	32142.58
512.51	32739.41
512.69	33106.88
512.86	32699.62
513.04	33158.37
513.21	33092.83
513.38	32587.28
513.56	32697.28
513.73	32865.80
513.90	32868.14
514.08	32971.13
514.25	33514.13
514.43	33216.88
514.60	33340.93
514.77	33298.80
514.95	33787.97
515.12	33366.68
515.29	33977.56
515.47	34143.74
515.64	34277.15
515.81	33970.54
515.99	34038.41
516.16	33897.98
516.33	33769.25
516.51	33596.05
516.68	33233.27
516.85	33205.18
517.03	33607.75
517.20	33890.96
517.37	34490.13
517.54	34471.41
517.72	34459.71
517.89	34291.19
518.06	34000.96
518.24	34113.31
518.41	34799.08
518.58	34555.67
518.75	34656.31
518.93	34780.36
519.10	34902.07
519.27	34864.62
519.45	35407.62
519.62	35447.41
519.79	35646.36
519.96	35529.33
520.14	35218.04
520.31	35541.03
520.48	35363.15
520.65	35246.13
520.83	36107.44
521.00	36140.21
521.17	36046.59
521.34	36219.79
521.52	36126.17
521.69	36219.79
521.86	36381.29
522.03	36554.49
522.20	36849.39
522.38	36540.44
522.55	36500.65
522.72	36388.31
522.89	36306.39
523.07	36769.82
523.24	36343.84
523.41	37034.30
523.58	36699.60
523.75	37490.70
523.92	37134.94
524.10	36847.05
524.27	37282.39
524.44	37418.14
524.61	37474.32
524.78	37118.56
524.96	37249.63
525.13	37670.92
525.30	37661.56
525.47	38033.71
525.64	37467.30
525.81	37790.29
525.98	37376.01
526.16	37525.81
526.33	37586.66
526.50	37902.64
526.67	36903.23
526.84	37766.88
527.01	37514.11
527.18	37926.04
527.36	38075.84
527.53	38565.01
527.70	38476.07
527.87	38506.49
528.04	38206.90
528.21	38604.80
528.38	38918.43
528.55	39070.56
528.72	39159.50
528.89	39255.46
529.07	39304.62
529.24	38909.07
529.41	38712.46
529.58	38878.64
529.75	38700.76
529.92	38990.98
530.09	38972.26
530.26	39229.72
530.43	39150.14
530.60	39072.90
530.77	39215.68
530.94	39838.26
531.11	38857.57
531.28	39672.08
531.46	39779.74
531.63	39739.96
531.80	39922.52
531.97	39576.12
532.14	39604.20
532.31	39246.10
532.48	39515.26
532.65	39861.66
532.82	39875.71
532.99	39716.55
533.16	39819.53
533.33	40023.16
533.50	40357.86
533.67	40165.93
533.84	39969.33
534.01	40053.59
534.18	39737.62
534.35	40385.94
534.52	40243.17
534.69	40509.99
534.86	40540.42
535.03	40655.11
535.20	41048.32
535.37	41186.41
535.54	41003.85
535.71	41015.55
535.88	40704.26
536.05	41053.00
536.22	40825.96
536.38	40573.19
536.55	40552.12
536.72	40889.16
536.89	40570.85
537.06	40882.14
537.23	41467.27
537.40	41172.36
537.57	41448.55
537.74	41265.99
537.91	41490.68
538.08	41284.71
538.25	41251.94
538.42	41642.81
538.59	41462.59
538.75	41146.62
538.92	41670.90
539.09	41109.17
539.26	41331.52
539.43	41411.10
539.60	41635.79
539.77	41329.18
539.94	41413.44
540.11	41097.47
540.28	41830.05
540.44	41787.92
540.61	41764.52
540.78	41652.17
540.95	41408.76
541.12	41687.28
541.29	41729.41
541.46	41848.78
541.62	41745.80
541.79	42223.26
541.96	41476.63
542.13	41998.57
542.30	41778.56
542.47	42117.94
542.63	41841.76
542.80	41764.52
542.97	42539.24
543.14	42710.10
543.31	42780.31
543.48	42632.86
543.64	43217.99
543.81	42777.97
543.98	42770.95
544.15	42745.20
544.32	43192.25
544.48	43426.30
544.65	43119.69
544.82	43222.67
544.99	42780.31
545.16	42703.07
545.32	43023.73
545.49	43716.53
545.66	43672.06
545.83	42911.38
546.00	43311.61
546.16	42899.68
546.33	43351.40
546.50	43248.42
546.67	43409.92
546.83	43201.61
547.00	42951.17
547.17	43072.88
547.34	43627.59
547.50	43302.25
547.67	43786.74
547.84	43606.52
548.00	43484.81
548.17	43875.68
548.34	43356.08
548.51	44027.82
548.67	43702.48
548.84	43782.06
549.01	44399.96
549.18	43805.47
549.34	43985.69
549.51	44074.63
549.68	43971.64
549.84	43997.39
550.01	44257.19
550.18	43768.02
550.34	43863.98
550.51	44041.86
550.68	44023.14
550.84	43826.53
551.01	44449.11
551.18	43899.09
551.34	44395.28
551.51	44404.64
551.68	44264.21
551.84	44144.84
552.01	44273.57
552.18	44526.35
552.34	43894.41
552.51	44341.45
552.68	44114.42
552.84	44481.88
553.01	44804.88
553.18	44154.21
553.34	44444.43
553.51	44533.37
553.67	44877.43
553.84	44992.12
554.01	44765.09
554.17	45111.49
554.34	44697.21
554.51	44774.45
554.67	44631.68
554.84	44779.13
555.00	44690.19
555.17	44619.97
555.33	44615.29
555.50	44896.16
555.67	44891.48
555.83	44568.48
556.00	44814.24
556.16	45043.61
556.33	45240.21
556.50	44596.57
556.66	44865.73
556.83	44524.01
556.99	45415.76
557.16	45455.54
557.32	45291.71
557.49	45027.23
557.65	44898.50
557.82	45125.53
557.98	45425.12
558.15	45212.13
558.32	45181.70
558.48	44933.60
558.65	45399.37
558.81	45078.72
558.98	45329.16
559.14	45195.74
559.31	44875.09
559.47	45092.76
559.64	45305.75
559.80	45254.26
559.97	45125.53
560.13	45118.51
560.30	45577.25
560.46	45214.47
560.63	45434.48
560.79	45752.79
560.96	45633.42
561.12	45333.84
561.29	45500.01
561.45	45310.43
561.61	45359.58
561.78	45427.46
561.94	45177.02
562.11	45165.32
562.27	45221.49
562.44	45179.36
562.60	45191.06
562.77	45904.93
562.93	45462.57
563.10	45710.66
563.26	45186.38
563.42	45797.26
563.59	45595.98
563.75	45846.41
563.92	46012.59
564.08	45818.33
564.24	45710.66
564.41	45497.67
564.57	46094.51
564.74	45488.31
564.90	45736.41
565.07	46024.29
565.23	45886.20
565.39	45776.20
565.56	45909.61
565.72	45408.73
565.88	45738.75
566.05	45432.14
566.21	45773.86
566.38	45666.19
566.54	45490.65
566.70	45673.21
566.87	46005.57
567.03	45745.77
567.19	46021.95
567.36	46185.79
567.52	45975.14
567.68	46227.92
567.85	46143.66
568.01	45855.78
568.17	45970.46
568.34	46045.36
568.50	46057.06
568.66	46113.23
568.83	45799.60
568.99	45603.00
569.15	45890.88
569.32	45794.92
569.48	45949.40
569.64	45951.74
569.81	46305.16
569.97	45478.95
570.13	46136.64
570.30	45572.57
570.46	45649.81
570.62	45375.97
570.78	45563.21
570.95	45769.18
571.11	45780.88
571.27	45497.67
571.43	45619.38
571.60	46176.43
571.76	46024.29
571.92	46143.66
572.09	46265.37
572.25	45923.65
572.41	46288.77
572.57	46316.86
572.74	46087.49
572.90	46216.22
573.06	46110.89
573.22	46146.00
573.38	46096.85
573.55	46136.64
573.71	46534.53
573.87	46108.55
574.03	46258.35
574.20	45603.00
574.36	45944.72
574.52	45989.19
574.68	46232.60
574.84	46059.40
575.01	45925.99
575.17	45947.06
575.33	45851.09
575.49	46459.63
575.65	46256.01
575.82	46028.98
575.98	45909.61
576.14	46197.49
576.30	46216.22
576.46	46082.81
576.62	45993.87
576.79	45752.79
576.95	46202.18
577.11	45865.14
577.27	46366.01
577.43	46230.26
577.59	45963.44
577.75	45710.66
577.92	45553.85
578.08	45883.86
578.24	45855.78
578.40	45858.12
578.56	46256.01
578.72	46270.05
578.88	46476.02
579.04	46326.22
579.21	45801.94
579.37	46033.66
579.53	46382.40
579.69	45701.30
579.85	45923.65
580.01	46071.10
580.17	46384.74
580.33	46127.28
580.49	45851.09
580.65	46026.63
580.82	45778.54
580.98	45935.35
581.14	46148.34
581.30	46265.37
581.46	46146.00
581.62	46185.79
581.78	46120.26
581.94	46361.33
582.10	46216.22
582.26	46190.47
582.42	46253.67
582.58	46564.96
582.74	46417.50
582.90	46614.11
583.06	46492.40
583.22	46550.91
583.38	46103.87
583.54	46857.52
583.70	46241.96
583.86	46579.00
584.02	46241.96
584.18	46461.97
584.34	46328.56
584.50	46082.81
584.66	46405.80
584.82	46007.91
584.98	46333.24
585.14	46253.67
585.30	46138.98
585.46	46487.72
585.62	45886.20
585.78	46141.32
585.94	45467.25
586.10	45954.08
586.26	45776.20
586.42	46291.12
586.58	46309.84
586.74	46614.11
586.90	46227.92
587.06	46347.29
587.22	46136.64
587.38	46485.38
587.54	46614.11
587.70	46602.41
587.86	46096.85
588.02	46253.67
588.18	46396.44
588.34	46253.67
588.49	45947.06
588.65	45364.26
588.81	45586.61
588.97	45488.31
589.13	45853.44
589.29	46010.25
589.45	46134.30
589.61	45984.51
589.77	46593.04
589.93	45780.88
