SpectraSuite Data File
++++++++++++++++++++++++++++++++++++
Date: Fri Oct 25 10:44:31 EDT 2013
User: price-jones
Dark Spectrum Present: No
Reference Spectrum Present: No
Number of Sampled Component Spectra: 1
Spectrometers: USB2+H05261
Integration Time (usec): 100000 (USB2+H05261)
Spectra Averaged: 1 (USB2+H05261)
Boxcar Smoothing: 0 (USB2+H05261)
Correct for Electrical Dark: No (USB2+H05261)
Strobe/Lamp Enabled: No (USB2+H05261)
Correct for Detector Non-linearity: No (USB2+H05261)
Correct for Stray Light: No (USB2+H05261)
Number of Pixels in Processed Spectrum: 2048
>>>>>Begin Processed Spectral Data<<<<<
365.73	107.66
365.92	107.66
366.12	107.66
366.32	25.75
366.52	16.38
366.72	37.45
366.91	30.43
367.11	32.77
367.31	0.00
367.51	14.04
367.70	32.77
367.90	0.00
368.10	56.17
368.30	35.11
368.49	0.00
368.69	74.90
368.89	4.68
369.09	18.72
369.28	124.05
369.48	53.83
369.68	128.73
369.87	84.26
370.07	114.69
370.27	154.48
370.47	257.46
370.66	400.23
370.86	388.53
371.06	428.32
371.25	451.72
371.45	337.04
371.65	461.09
371.84	442.36
372.04	341.72
372.24	414.27
372.44	381.51
372.63	585.13
372.83	503.22
373.03	479.81
373.22	440.02
373.42	489.17
373.62	486.83
373.81	477.47
374.01	538.32
374.21	533.64
374.40	533.64
374.60	575.77
374.79	521.94
374.99	540.66
375.19	578.11
375.38	580.45
375.58	535.98
375.78	645.99
375.97	601.52
376.17	566.41
376.37	575.77
376.56	580.45
376.76	568.75
376.95	557.05
377.15	624.92
377.35	638.97
377.54	685.78
377.74	599.18
377.93	638.97
378.13	650.67
378.33	645.99
378.52	685.78
378.72	636.63
378.91	571.09
379.11	631.94
379.31	613.22
379.50	608.54
379.70	674.07
379.89	655.35
380.09	638.97
380.28	643.65
380.48	629.60
380.68	601.52
380.87	610.88
381.07	669.39
381.26	711.52
381.46	699.82
381.65	744.29
381.85	669.39
382.04	711.52
382.24	716.20
382.43	664.71
382.63	601.52
382.83	617.90
383.02	681.10
383.22	697.48
383.41	676.41
383.61	732.59
383.80	697.48
384.00	730.25
384.19	737.27
384.39	718.54
384.58	763.01
384.78	786.42
384.97	674.07
385.17	779.40
385.36	699.82
385.56	737.27
385.75	704.50
385.95	849.61
386.14	809.83
386.34	716.20
386.53	784.08
386.72	786.42
386.92	889.40
387.11	875.36
387.31	816.85
387.50	798.12
387.70	767.70
387.89	837.91
388.09	777.06
388.28	809.83
388.48	798.12
388.67	844.93
388.86	882.38
389.06	807.48
389.25	882.38
389.45	882.38
389.64	884.72
389.84	968.98
390.03	880.04
390.22	943.24
390.42	905.79
390.61	870.68
390.81	940.90
391.00	987.71
391.19	938.55
391.39	1006.43
391.58	976.00
391.78	1013.45
391.97	1107.07
392.16	999.41
392.36	1090.69
392.55	952.60
392.75	945.58
392.94	912.81
393.13	954.94
393.33	922.17
393.52	940.90
393.71	1083.67
393.91	1029.84
394.10	1043.88
394.29	1160.91
394.49	1081.33
394.68	1048.56
394.88	1116.44
395.07	1078.99
395.26	1172.61
395.46	1153.88
395.65	1196.01
395.84	1100.05
396.04	1214.74
396.23	1184.31
396.42	1095.37
396.62	1078.99
396.81	1036.86
397.00	1177.29
397.19	1205.38
397.39	1259.21
397.58	1156.22
397.77	1270.91
397.97	1203.04
398.16	1282.61
398.35	1376.24
398.55	1345.81
398.74	1268.57
398.93	1366.87
399.12	1273.25
399.32	1343.47
399.51	1376.24
399.70	1409.00
399.90	1308.36
400.09	1500.28
400.28	1568.16
400.47	1479.22
400.67	1516.67
400.86	1486.24
401.05	1490.92
401.24	1526.03
401.44	1521.35
401.63	1551.78
401.82	1551.78
402.01	1556.46
402.21	1502.62
402.40	1636.03
402.59	1537.73
402.78	1598.59
402.97	1535.39
403.17	1636.03
403.36	1629.01
403.55	1657.10
403.74	1767.10
403.93	1652.42
404.13	1678.16
404.32	1671.14
404.51	1696.89
404.70	1671.14
404.89	1619.65
405.09	1736.68
405.28	1809.23
405.47	1764.76
405.66	1832.64
405.85	1839.66
406.05	1839.66
406.24	1774.13
406.43	1795.19
406.62	1921.58
406.81	1872.43
407.00	1886.47
407.20	1935.62
407.39	1870.09
407.58	1921.58
407.77	1975.41
407.96	1966.05
408.15	2064.35
408.34	2076.06
408.54	2036.27
408.73	2085.42
408.92	2069.03
409.11	2073.71
409.30	2127.55
409.49	2106.48
409.68	2092.44
409.87	2125.21
410.07	2207.13
410.26	2230.53
410.45	2195.42
410.64	2265.64
410.83	2202.44
411.02	2310.11
411.21	2370.96
411.40	2410.75
411.59	2424.80
411.78	2401.39
411.98	2368.62
412.17	2377.98
412.36	2352.24
412.55	2555.86
412.74	2544.16
412.93	2392.03
413.12	2480.97
413.31	2602.68
413.50	2523.10
413.69	2640.12
413.88	2583.95
414.07	2754.81
414.26	2712.68
414.45	2663.53
414.64	2520.76
414.83	2946.73
415.02	2810.98
415.22	2754.81
415.41	2897.58
415.60	2909.29
415.79	2867.16
415.98	2906.95
416.17	3012.27
416.36	2995.89
416.55	3005.25
416.74	3075.46
416.93	3012.27
417.12	3040.36
417.31	3075.46
417.50	3056.74
417.69	3227.60
417.88	3248.66
418.07	3166.74
418.26	3185.47
418.45	3229.94
418.64	3344.63
418.83	3323.56
419.02	3274.41
419.21	3290.79
419.39	3398.46
419.58	3262.71
419.77	3358.67
419.96	3468.67
420.15	3398.46
420.34	3433.57
420.53	3405.48
420.72	3669.96
420.91	3471.01
421.10	3361.01
421.29	3566.98
421.48	3513.14
421.67	3513.14
421.86	3433.57
422.05	3506.12
422.24	3456.97
422.43	3487.40
422.61	3571.66
422.80	3581.02
422.99	3606.77
423.18	3684.00
423.37	3604.42
423.56	3581.02
423.75	3700.39
423.94	3520.17
424.13	3557.61
424.32	3536.55
424.50	3637.19
424.69	3632.51
424.88	3702.73
425.07	3632.51
425.26	3538.89
425.45	3709.75
425.64	3583.36
425.83	3588.04
426.01	3838.48
426.20	3730.81
426.39	3651.24
426.58	3735.50
426.77	3686.34
426.96	3742.52
427.15	3684.00
427.33	3840.82
427.52	3676.98
427.71	3803.37
427.90	3901.67
428.09	3871.25
428.28	3934.44
428.46	3803.37
428.65	3826.78
428.84	3896.99
429.03	4065.51
429.22	3829.12
429.40	3866.56
429.59	3962.53
429.78	3693.37
429.97	3674.64
430.16	3782.31
430.34	3836.14
430.53	3922.74
430.72	3964.87
430.91	3988.27
431.10	4025.72
431.28	4112.32
431.47	4285.52
431.66	4264.46
431.85	4208.28
432.03	4311.27
432.22	4327.65
432.41	4243.39
432.60	4224.67
432.79	4245.73
432.97	4409.57
433.16	4447.02
433.35	4184.88
433.54	4290.20
433.72	4442.34
433.91	4395.53
434.10	4187.22
434.28	4428.29
434.47	4376.80
434.66	4589.79
434.85	4664.69
435.03	4414.25
435.22	4610.86
435.41	4837.89
435.59	4634.26
435.78	4706.82
435.97	4634.26
436.16	4674.05
436.34	4746.61
436.53	4681.07
436.72	4765.33
436.90	4531.28
437.09	4802.78
437.28	4624.90
437.46	4760.65
437.65	4638.94
437.84	4662.35
438.02	4849.59
438.21	4954.91
438.40	4786.40
438.58	4971.30
438.77	5100.03
438.96	5004.07
439.14	5149.18
439.33	5207.69
439.52	5313.02
439.70	5238.12
439.89	5383.23
440.08	5193.65
440.26	5315.36
440.45	5408.98
440.63	5380.89
440.82	5483.88
441.01	5495.58
441.19	5626.65
441.38	5619.63
441.57	5572.82
441.75	5666.44
441.94	5696.86
442.12	5767.08
442.31	5921.56
442.50	5959.00
442.68	5717.93
442.87	5764.74
443.05	5872.40
443.24	5928.58
443.43	5970.71
443.61	5930.92
443.80	6244.55
443.98	5902.83
444.17	5694.52
444.35	5970.71
444.54	6073.69
444.73	6038.58
444.91	6157.95
445.10	6092.41
445.28	5968.37
445.47	5973.05
445.65	5900.49
445.84	5841.98
446.02	6106.46
446.21	5973.05
446.39	6015.18
446.58	6162.63
446.77	6171.99
446.95	5811.55
447.14	6235.19
447.32	6298.38
447.51	6256.25
447.69	6122.84
447.88	6214.12
448.06	6167.31
448.25	6157.95
448.43	6333.49
448.62	6296.04
448.80	6179.01
448.99	6235.19
449.17	6270.30
449.36	6223.48
449.54	6368.60
449.73	6455.20
449.91	6794.58
450.10	6499.67
450.28	6836.70
450.46	6682.23
450.65	6647.12
450.83	6689.25
451.02	6511.37
451.20	6810.96
451.39	6602.65
451.57	6717.34
451.76	6534.78
451.94	6588.61
452.13	6682.23
452.31	6628.40
452.49	6633.08
452.68	6817.98
452.86	6771.17
453.05	6803.94
453.23	6789.89
453.42	6693.93
453.60	6761.81
453.78	6909.26
453.97	6923.30
454.15	6883.52
454.34	6649.46
454.52	6825.00
454.70	7049.69
454.89	6817.98
455.07	6878.83
455.26	6881.18
455.44	7103.53
455.62	7016.93
455.81	7126.93
455.99	7379.71
456.17	7199.49
456.36	7360.98
456.54	7155.02
456.73	7351.62
456.91	7634.83
457.09	7405.46
457.28	7658.23
457.46	7478.01
457.64	7445.24
457.83	7543.55
458.01	7569.29
458.19	7536.52
458.38	7496.74
458.56	7571.63
458.74	7625.47
458.93	7473.33
459.11	7695.68
459.29	7662.91
459.48	7756.54
459.66	7829.09
459.84	7782.28
460.03	7971.86
460.21	7644.19
460.39	7754.19
460.57	7861.86
460.76	8009.31
460.94	7962.50
461.12	7974.21
461.31	8056.12
461.49	7840.79
461.67	7915.69
461.85	8217.62
462.04	8177.83
462.22	8210.60
462.40	8210.60
462.59	8077.19
462.77	8234.00
462.95	8191.88
463.13	8142.72
463.32	8348.69
463.50	8306.56
463.68	8252.73
463.86	8393.16
464.05	8124.00
464.23	8133.36
464.41	8465.72
464.59	8226.98
464.78	8578.06
464.96	8152.09
465.14	8273.79
465.32	8676.37
465.50	8531.25
465.69	8500.83
465.87	8713.81
466.05	8334.65
466.23	8751.26
466.41	8402.52
466.60	8706.79
466.78	8458.70
466.96	8571.04
467.14	8779.35
467.32	8699.77
467.51	8784.03
467.69	8858.93
467.87	8613.17
468.05	8931.48
468.23	8748.92
468.41	8767.65
468.60	8982.98
468.78	8915.10
468.96	8870.63
469.14	8973.61
469.32	9231.07
469.50	8809.78
469.69	9083.62
469.87	9078.94
470.05	9298.95
470.23	9078.94
470.41	9116.39
470.59	9184.26
470.77	9055.53
470.95	9284.91
471.14	9577.47
471.32	9273.20
471.50	9404.27
471.68	9619.60
471.86	9694.50
472.04	9525.98
472.22	9708.54
472.40	9497.89
472.58	9717.90
472.77	9664.07
472.95	9914.51
473.13	10129.84
473.31	9877.06
473.49	9926.21
473.67	10001.11
473.85	10113.45
474.03	10186.01
474.21	10078.35
474.39	10225.80
474.57	10380.28
474.75	10164.95
474.93	10424.75
475.12	10244.52
475.30	10473.90
475.48	10354.53
475.66	10633.05
475.84	10738.38
476.02	10707.95
476.20	10761.78
476.38	10918.60
476.56	10902.22
476.74	10862.43
476.92	11012.22
477.10	10848.38
477.28	11049.67
477.46	11267.34
477.64	11386.71
477.82	11414.79
478.00	11707.36
478.18	11564.59
478.36	11665.23
478.54	12020.99
478.72	11906.31
478.90	11599.70
479.08	12112.27
479.26	12262.07
479.44	12142.70
479.62	12313.56
479.80	12395.48
479.98	12578.04
480.16	12578.04
480.34	12453.99
480.52	12858.90
480.70	12933.80
480.88	12840.18
481.06	12957.21
481.24	12781.67
481.41	13200.62
481.59	13472.12
481.77	13266.16
481.95	13322.33
482.13	13366.80
482.31	13521.27
482.49	13933.21
482.67	13954.27
482.85	13998.74
483.03	14040.87
483.21	14146.20
483.39	14401.32
483.57	14452.81
483.74	14576.86
483.92	14609.62
484.10	14731.33
484.28	14808.57
484.46	14881.13
484.64	15562.22
484.82	15016.88
485.00	15131.56
485.18	15206.46
485.35	15735.42
485.53	15307.10
485.71	15332.85
485.89	15449.88
486.07	15297.74
486.25	15735.42
486.43	15939.05
486.61	16067.78
486.78	16271.40
486.96	16498.44
487.14	16301.83
487.32	16505.46
487.50	16975.91
487.68	17032.08
487.85	17406.56
488.03	17231.02
488.21	17624.23
488.39	17462.74
488.57	17685.09
488.75	17806.80
488.92	18139.15
489.10	18080.64
489.28	18146.17
489.46	18469.17
489.64	18366.18
489.81	18602.58
489.99	18661.09
490.17	19108.13
490.35	19131.54
490.53	18967.70
490.70	19150.26
490.88	19412.40
491.06	19618.37
491.24	19346.87
491.41	19316.44
491.59	19599.65
491.77	19548.15
491.95	19616.03
492.13	19878.17
492.30	20257.34
492.48	20528.84
492.66	20554.58
492.84	20301.81
493.01	20868.22
493.19	20475.01
493.37	20783.96
493.54	21060.14
493.72	21240.36
493.90	21305.90
494.08	21362.07
494.25	21635.91
494.43	21914.44
494.61	21661.66
494.79	22246.79
494.96	21996.35
495.14	21893.37
495.32	22082.95
495.49	22267.86
495.67	22518.29
495.85	22684.47
496.02	22670.43
496.20	22689.15
496.38	23089.38
496.55	22937.25
496.73	23761.12
496.91	23616.01
497.09	23531.75
497.26	23674.52
497.44	23531.75
497.62	23700.26
497.79	24002.19
497.97	23967.09
498.14	23861.76
498.32	24135.60
498.50	24004.53
498.67	24727.76
498.85	24584.99
499.03	24613.07
499.20	24826.06
499.38	24645.84
499.56	24795.64
499.73	25050.75
499.91	24891.60
500.08	25088.20
500.26	24996.92
500.44	25132.67
500.61	25263.74
500.79	25282.47
500.97	25373.75
501.14	25645.25
501.32	25713.13
501.49	25535.24
501.67	25495.46
501.84	25790.36
502.02	25912.07
502.20	26120.38
502.37	26162.51
502.55	25881.64
502.72	26539.33
502.90	26546.36
503.07	26679.77
503.25	26632.96
503.43	26391.88
503.60	26836.58
503.78	26412.95
503.95	26693.81
504.13	27019.14
504.30	27159.58
504.48	26951.27
504.65	27316.39
504.83	27475.55
505.01	27861.74
505.18	27473.21
505.36	27531.72
505.53	27482.57
505.71	27978.76
505.88	27960.04
506.06	27559.81
506.23	28308.78
506.41	27864.08
506.58	28081.75
506.76	28112.17
506.93	28561.56
507.11	28327.50
507.28	28563.90
507.46	28446.87
507.63	28423.47
507.81	28678.58
507.98	28381.34
508.16	28737.10
508.33	29024.98
508.50	29127.97
508.68	29099.88
508.85	29640.54
509.03	29184.14
509.20	29755.23
509.38	29383.09
509.55	29666.29
509.73	29886.30
509.90	29806.72
510.08	29813.74
510.25	29886.30
510.42	30057.16
510.60	29766.93
510.77	29984.60
510.95	29898.00
511.12	30143.76
511.30	30253.76
511.47	30635.27
511.64	30347.39
511.82	30951.24
511.99	30698.47
512.17	30515.90
512.34	30487.82
512.51	30616.55
512.69	31084.65
512.86	30871.67
513.04	31442.76
513.21	31168.91
513.38	30871.67
513.56	30958.27
513.73	30998.06
513.90	31433.39
514.08	31538.72
514.25	31456.80
514.43	31374.88
514.60	31910.86
514.77	31667.45
514.95	31999.80
515.12	31859.37
515.29	32177.68
515.47	32013.85
515.64	31924.91
515.81	32048.96
515.99	32264.28
516.16	32030.23
516.33	31814.90
516.51	31903.84
516.68	31901.50
516.85	31915.54
517.03	32114.49
517.20	32109.81
517.37	32765.16
517.54	32552.17
517.72	32938.36
517.89	32746.44
518.06	32662.18
518.24	32510.04
518.41	32561.53
518.58	32931.34
518.75	33060.07
518.93	33013.26
519.10	33010.92
519.27	33521.15
519.45	32842.40
519.62	33654.56
519.79	33516.47
519.96	33851.17
520.14	33680.31
520.31	33682.65
520.48	33790.31
520.65	33689.67
520.83	34209.27
521.00	34352.04
521.17	34148.42
521.34	34443.32
521.52	34541.63
521.69	34808.45
521.86	34719.51
522.03	34309.91
522.20	34483.11
522.38	34773.34
522.55	34532.26
522.72	34960.58
522.89	34794.40
523.07	35101.01
523.24	34955.90
523.41	35065.91
523.58	34927.81
523.75	35283.58
523.92	35557.42
524.10	35597.21
524.27	35669.76
524.44	35721.26
524.61	35674.45
524.78	35693.17
524.96	36034.89
525.13	35828.92
525.30	35899.14
525.47	36184.68
525.64	36184.68
525.81	36355.54
525.98	35742.32
526.16	36184.68
526.33	35683.81
526.50	36025.53
526.67	35791.47
526.84	35959.99
527.01	35920.20
527.18	36336.82
527.36	36294.69
527.53	36587.25
527.70	36662.15
527.87	37027.28
528.04	36652.79
528.21	37118.56
528.38	36938.33
528.55	37233.24
528.72	36823.65
528.89	37413.46
529.07	37010.89
529.24	36896.20
529.41	37083.45
529.58	37191.11
529.75	36973.44
529.92	37214.52
530.09	37057.70
530.26	37713.05
530.43	37701.35
530.60	37610.07
530.77	37581.98
530.94	37317.50
531.11	37897.95
531.28	37661.56
531.46	37813.70
531.63	37869.87
531.80	38036.05
531.97	37729.44
532.14	37865.19
532.31	37530.49
532.48	38073.49
532.65	38153.07
532.82	37883.91
532.99	38155.41
533.16	38202.22
533.33	38373.08
533.50	38614.16
533.67	38539.26
533.84	38085.20
534.01	38209.25
534.18	38061.79
534.35	38719.48
534.52	38597.77
534.69	38719.48
534.86	38483.09
535.03	38246.69
535.20	39023.75
535.37	38974.60
535.54	39054.18
535.71	38808.42
535.88	39063.54
536.05	38983.96
536.22	39309.30
536.38	39175.89
536.55	38946.51
536.72	39157.16
536.89	38962.90
537.06	38799.06
537.23	39096.31
537.40	38785.02
537.57	39447.39
537.74	39367.81
537.91	39494.20
538.08	39931.88
538.25	39461.43
538.42	39496.54
538.59	39950.60
538.75	39379.51
538.92	39569.10
539.09	39800.81
539.26	39775.06
539.43	39576.12
539.60	39842.94
539.77	39388.88
539.94	40018.48
540.11	39665.06
540.28	40182.32
540.44	39742.30
540.61	39658.04
540.78	39693.15
540.95	39725.91
541.12	39913.16
541.29	40165.93
541.46	40044.23
541.62	40135.51
541.79	40449.14
541.96	39899.11
542.13	40079.33
542.30	40519.35
542.47	40531.06
542.63	40439.78
542.80	40449.14
542.97	40889.16
543.14	41160.66
543.31	40610.64
543.48	41008.53
543.64	41504.72
543.81	41514.08
543.98	41301.09
544.15	41333.86
544.32	41127.89
544.48	41565.57
544.65	40957.03
544.82	41530.47
544.99	41045.97
545.16	41095.13
545.32	41357.27
545.49	41694.30
545.66	41968.15
545.83	41738.77
546.00	42029.00
546.16	41759.84
546.33	41387.69
546.50	41366.63
546.67	41598.34
546.83	41729.41
547.00	41572.60
547.17	41703.67
547.34	41581.96
547.50	41588.98
547.67	42387.10
547.84	42057.09
548.00	42050.06
548.17	42223.26
548.34	42026.66
548.51	42265.39
548.67	42174.11
548.84	42286.46
549.01	42256.03
549.18	42113.26
549.34	41982.19
549.51	42492.43
549.68	42384.76
549.84	42473.70
550.01	42766.27
550.18	42246.67
550.34	42115.60
550.51	42651.58
550.68	42724.14
550.84	42195.18
551.01	42777.97
551.18	42555.62
551.34	42382.42
551.51	42859.89
551.68	42857.55
551.84	42862.23
552.01	42721.80
552.18	42632.86
552.34	42319.23
552.51	42560.30
552.68	42700.73
552.84	42740.52
553.01	43349.06
553.18	43173.52
553.34	42983.94
553.51	42728.82
553.67	42705.41
553.84	43086.92
554.01	42937.13
554.17	43028.41
554.34	43363.11
554.51	43288.21
554.67	43597.16
554.84	42967.55
555.00	43309.27
555.17	43089.26
555.33	43225.01
555.50	43292.89
555.67	43353.74
555.83	43522.26
556.00	43501.20
556.16	43732.91
556.33	43538.65
556.50	43412.26
556.66	43346.72
556.83	42939.47
556.99	43803.13
557.16	43349.06
557.32	43866.32
557.49	43751.63
557.65	43400.55
557.82	43419.28
557.98	43063.52
558.15	43171.18
558.32	43400.55
558.48	43210.97
558.65	43641.63
558.81	43489.49
558.98	43386.51
559.14	43763.34
559.31	43332.68
559.47	43854.62
559.64	43707.16
559.80	44069.95
559.97	43770.36
560.13	43913.13
560.30	43477.79
560.46	43756.32
560.63	44058.24
560.79	44294.64
560.96	44343.79
561.12	44243.15
561.29	44226.76
561.45	43863.98
561.61	43409.92
561.78	43861.64
561.94	43557.37
562.11	43849.94
562.27	44027.82
562.44	44051.22
562.60	44163.57
562.77	44053.56
562.93	43639.29
563.10	44299.32
563.26	43924.83
563.42	44154.21
563.59	43917.81
563.75	43976.33
563.92	44371.88
564.08	44046.54
564.24	44095.69
564.41	44128.46
564.57	43992.71
564.74	44203.36
564.90	44219.74
565.07	44315.70
565.23	44224.42
565.39	44521.67
565.56	44287.62
565.72	44589.55
565.88	44292.30
566.05	44236.12
566.21	44175.27
566.38	44556.78
566.54	44449.11
566.70	44397.62
566.87	44634.02
567.03	44334.43
567.19	44931.26
567.36	44655.08
567.52	44385.92
567.68	44568.48
567.85	44266.55
568.01	44296.98
568.17	43901.43
568.34	44692.53
568.50	44783.81
568.66	44619.97
568.83	44296.98
568.99	44275.91
569.15	44357.83
569.32	44891.48
569.48	44287.62
569.64	45102.12
569.81	44531.03
569.97	44931.26
570.13	44847.00
570.30	44500.61
570.46	44612.95
570.62	44016.11
570.78	44453.79
570.95	44591.89
571.11	44713.59
571.27	44453.79
571.43	44332.09
571.60	44715.93
571.76	44591.89
571.92	43992.71
572.09	44804.88
572.25	44570.82
572.41	44299.32
572.57	44542.74
572.74	45195.74
572.90	44385.92
573.06	45031.91
573.22	44629.34
573.38	44699.55
573.55	44868.07
573.71	44875.09
573.87	44744.02
574.03	44617.63
574.20	44790.83
574.36	44765.09
574.52	45287.03
574.68	44486.56
574.84	45055.31
575.01	44729.98
575.17	44531.03
575.33	44825.94
575.49	44568.48
575.65	44610.61
575.82	45090.42
575.98	44758.06
576.14	44891.48
576.30	44903.18
576.46	44949.99
576.62	44821.26
576.79	44863.39
576.95	44437.41
577.11	44769.77
577.27	44926.58
577.43	44755.72
577.59	44645.72
577.75	44816.58
577.92	44516.99
578.08	44526.35
578.24	44570.82
578.40	44697.21
578.56	44355.49
578.72	44442.09
578.88	45216.81
579.04	45008.50
579.21	44893.82
579.37	44790.83
579.53	44982.76
579.69	44252.51
579.85	44980.42
580.01	44524.01
580.17	44336.77
580.33	44769.77
580.49	44814.24
580.65	45226.17
580.82	44959.35
580.98	44369.54
581.14	44685.51
581.30	45214.47
581.46	45420.44
581.62	44940.63
581.78	44893.82
581.94	45064.67
582.10	44891.48
582.26	44879.77
582.42	45099.78
582.58	44898.50
582.74	44701.89
582.90	44999.14
583.06	45155.96
583.22	45050.63
583.38	44753.38
583.54	45165.32
583.70	44694.87
583.86	44928.92
584.02	44964.03
584.18	44758.06
584.34	44795.51
584.50	45052.97
584.66	44910.20
584.82	44362.51
584.98	44947.65
585.14	45045.95
585.30	44879.77
585.46	45247.24
585.62	44968.71
585.78	44839.98
585.94	44634.02
586.10	44907.86
586.26	45057.65
586.42	44975.73
586.58	45223.83
586.74	44884.45
586.90	44832.96
587.06	44549.76
587.22	44947.65
587.38	44786.15
587.54	44678.49
587.70	45043.61
587.86	45244.90
588.02	45221.49
588.18	45092.76
588.34	44762.75
588.49	45015.52
588.65	44676.15
588.81	44619.97
588.97	44999.14
589.13	44353.15
589.29	44832.96
589.45	44875.09
589.61	44914.88
589.77	44584.86
589.93	44947.65
590.08	45272.98
590.24	45516.40
