SpectraSuite Data File
++++++++++++++++++++++++++++++++++++
Date: Fri Oct 25 11:25:44 EDT 2013
User: price-jones
Dark Spectrum Present: No
Reference Spectrum Present: No
Number of Sampled Component Spectra: 1
Spectrometers: USB2+H05261
Integration Time (usec): 100000 (USB2+H05261)
Spectra Averaged: 1 (USB2+H05261)
Boxcar Smoothing: 0 (USB2+H05261)
Correct for Electrical Dark: No (USB2+H05261)
Strobe/Lamp Enabled: No (USB2+H05261)
Correct for Detector Non-linearity: No (USB2+H05261)
Correct for Stray Light: No (USB2+H05261)
Number of Pixels in Processed Spectrum: 2048
>>>>>Begin Processed Spectral Data<<<<<
365.73	257.46
365.92	257.46
366.12	257.46
366.32	173.20
366.52	187.24
366.72	194.26
366.91	217.67
367.11	145.11
367.31	112.35
367.51	110.01
367.70	133.41
367.90	177.88
368.10	135.75
368.30	194.26
368.49	133.41
368.69	124.05
368.89	110.01
369.09	170.86
369.28	201.29
369.48	119.37
369.68	196.60
369.87	154.48
370.07	154.48
370.27	290.23
370.47	285.55
370.66	585.13
370.86	657.69
371.06	681.10
371.25	671.73
371.45	716.20
371.65	725.57
371.84	692.80
372.04	690.46
372.24	688.12
372.44	781.74
372.63	786.42
372.83	702.16
373.03	791.10
373.22	746.63
373.42	823.87
373.62	805.14
373.81	791.10
374.01	814.51
374.21	880.04
374.40	823.87
374.60	847.27
374.79	861.32
374.99	826.21
375.19	877.70
375.38	917.49
375.58	823.87
375.78	814.51
375.97	826.21
376.17	889.40
376.37	919.83
376.56	894.08
376.76	931.53
376.95	915.15
377.15	842.59
377.35	880.04
377.54	896.43
377.74	924.51
377.93	968.98
378.13	978.34
378.33	943.24
378.52	898.77
378.72	973.66
378.91	870.68
379.11	929.19
379.31	976.00
379.50	947.92
379.70	997.07
379.89	954.94
380.09	983.02
380.28	912.81
380.48	938.55
380.68	863.66
380.87	922.17
381.07	1055.58
381.26	1111.75
381.46	959.62
381.65	1074.31
381.85	1078.99
382.04	1022.81
382.24	1104.73
382.43	1069.62
382.63	1053.24
382.83	1039.20
383.02	1090.69
383.22	1090.69
383.41	1151.54
383.61	1067.28
383.80	1118.78
384.00	1093.03
384.19	1181.97
384.39	1179.63
384.58	1121.12
384.78	1170.27
384.97	1226.44
385.17	1104.73
385.36	1114.10
385.56	1181.97
385.75	1177.29
385.95	1158.57
386.14	1268.57
386.34	1146.86
386.53	1160.91
386.72	1137.50
386.92	1270.91
387.11	1352.83
387.31	1231.12
387.50	1310.70
387.70	1205.38
387.89	1270.91
388.09	1284.95
388.28	1231.12
388.48	1331.76
388.67	1301.34
388.86	1306.02
389.06	1313.04
389.25	1336.45
389.45	1399.64
389.64	1399.64
389.84	1371.55
390.03	1343.47
390.22	1425.39
390.42	1373.89
390.61	1373.89
390.81	1411.34
391.00	1383.26
391.19	1432.41
391.39	1479.22
391.58	1406.66
391.78	1401.98
391.97	1511.99
392.16	1390.28
392.36	1451.13
392.55	1533.05
392.75	1640.72
392.94	1542.41
393.13	1465.18
393.33	1561.14
393.52	1554.12
393.71	1596.25
393.91	1607.95
394.10	1589.22
394.29	1621.99
394.49	1577.52
394.68	1692.21
394.88	1596.25
395.07	1743.70
395.26	1661.78
395.46	1739.02
395.65	1720.29
395.84	1703.91
396.04	1741.36
396.23	1720.29
396.42	1764.76
396.62	1708.59
396.81	1774.13
397.00	1706.25
397.19	1755.40
397.39	1832.64
397.58	1820.94
397.77	1792.85
397.97	1832.64
398.16	1914.56
398.35	1860.73
398.55	1891.15
398.74	1865.41
398.93	1952.01
399.12	1912.22
399.32	1886.47
399.51	1937.96
399.70	1947.33
399.90	1956.69
400.09	2005.84
400.28	1982.43
400.47	2003.50
400.67	2101.80
400.86	1970.73
401.05	1959.03
401.24	2076.06
401.44	2125.21
401.63	2052.65
401.82	2221.17
402.01	2087.76
402.21	2090.10
402.40	2209.47
402.59	2277.34
402.78	2146.27
402.97	2265.64
403.17	2200.10
403.36	2218.83
403.55	2237.55
403.74	2291.38
403.93	2249.25
404.13	2258.62
404.32	2335.85
404.51	2359.26
404.70	2354.58
404.89	2338.20
405.09	2551.18
405.28	2476.29
405.47	2462.24
405.66	2406.07
405.85	2516.08
406.05	2565.23
406.24	2656.51
406.43	2448.20
406.62	2548.84
406.81	2665.87
407.00	2530.12
407.20	2579.27
407.39	2597.99
407.58	2675.23
407.77	2712.68
407.96	2726.72
408.15	2754.81
408.34	2628.42
408.54	2759.49
408.73	2867.16
408.92	2902.26
409.11	2874.18
409.30	2825.03
409.49	2843.75
409.68	2839.07
409.87	2970.14
410.07	3016.95
410.26	3038.02
410.45	3009.93
410.64	3049.72
410.83	3054.40
411.02	3103.55
411.21	3103.55
411.40	3143.34
411.59	3176.11
411.78	3148.02
411.98	3248.66
412.17	3377.39
412.36	3297.81
412.55	3346.97
412.74	3255.69
412.93	3384.41
413.12	3290.79
413.31	3564.64
413.50	3384.41
413.69	3506.12
413.88	3618.47
414.07	3538.89
414.26	3599.74
414.45	3597.40
414.64	3681.66
414.83	3695.71
415.02	3794.01
415.22	3824.44
415.41	3896.99
415.60	3796.35
415.79	3868.91
415.98	3918.06
416.17	3969.55
416.36	3887.63
416.55	3861.88
416.74	4074.87
416.93	4088.92
417.12	4049.13
417.31	4009.34
417.50	4088.92
417.69	4257.43
417.88	4255.09
418.07	4215.30
418.26	4264.46
418.45	4315.95
418.64	4514.89
418.83	4482.13
419.02	4311.27
419.21	4566.39
419.39	4538.30
419.58	4444.68
419.77	4297.22
419.96	4575.75
420.15	4620.22
420.34	4505.53
420.53	4423.61
420.72	4741.93
420.91	4629.58
421.10	4744.27
421.29	4781.71
421.48	4854.27
421.67	4772.35
421.86	4814.48
422.05	4887.04
422.24	4875.34
422.43	4903.42
422.61	4975.98
422.80	4887.04
422.99	4959.60
423.18	5001.72
423.37	4858.95
423.56	4990.02
423.75	4851.93
423.94	4798.10
424.13	4711.50
424.32	4959.60
424.50	5163.22
424.69	5088.32
424.88	5085.98
425.07	4835.55
425.26	4863.63
425.45	4912.78
425.64	4847.25
425.83	4947.89
426.01	4978.32
426.20	5151.52
426.39	5064.92
426.58	4931.51
426.77	5060.24
426.96	5090.67
427.15	5069.60
427.33	5156.20
427.52	5163.22
427.71	5219.39
427.90	5102.37
428.09	5296.63
428.28	5462.81
428.46	5378.55
428.65	5249.82
428.84	5430.04
429.03	5376.21
429.22	5474.51
429.40	5497.92
429.59	5420.68
429.78	5165.56
429.97	5226.42
430.16	5434.72
430.34	5528.35
430.53	5626.65
430.72	5645.37
430.91	5518.98
431.10	5558.77
431.28	5785.80
431.47	5785.80
431.66	5942.62
431.85	5788.14
432.03	5764.74
432.22	5966.03
432.41	5949.64
432.60	5902.83
432.79	5928.58
432.97	5944.96
433.16	5973.05
433.35	5947.30
433.54	6279.66
433.72	6033.90
433.91	6097.10
434.10	6017.52
434.28	5956.66
434.47	6216.46
434.66	6225.82
434.85	6305.40
435.03	6209.44
435.22	6186.04
435.41	6394.34
435.59	6282.00
435.78	6485.62
435.97	6469.24
436.16	6487.96
436.34	6413.07
436.53	6534.78
436.72	6700.95
436.90	6356.90
437.09	6408.39
437.28	6399.02
437.46	6644.78
437.65	6726.70
437.84	6541.80
438.02	6738.40
438.21	6909.26
438.40	6789.89
438.58	6899.90
438.77	6984.16
438.96	6825.00
439.14	7133.95
439.33	7056.72
439.52	7124.59
439.70	7183.10
439.89	7239.28
440.08	7229.91
440.26	7215.87
440.45	7328.22
440.63	7604.40
440.82	7620.78
441.01	7368.01
441.19	7695.68
441.38	7733.13
441.57	7524.82
441.75	7681.64
441.94	8044.42
442.12	8018.68
442.31	7873.56
442.50	8067.83
442.68	7992.93
442.87	7992.93
443.05	8056.12
443.24	8299.54
443.43	8072.51
443.61	8056.12
443.80	8582.74
443.98	7873.56
444.17	7826.75
444.35	8093.57
444.54	8266.77
444.73	8355.71
444.91	8149.75
445.10	8271.45
445.28	8177.83
445.47	8194.22
445.65	8306.56
445.84	8341.67
446.02	8557.00
446.21	8446.99
446.39	8334.65
446.58	8528.91
446.77	8395.50
446.95	8168.47
447.14	8571.04
447.32	8615.51
447.51	8636.58
447.69	8514.87
447.88	8596.79
448.06	8353.37
448.25	8458.70
448.43	8500.83
448.62	8533.59
448.80	8358.05
448.99	8879.99
449.17	8762.97
449.36	8475.08
449.54	8793.39
449.73	8847.22
449.91	9008.72
450.10	8819.14
450.28	9151.49
450.46	9074.26
450.65	8870.63
450.83	9149.15
451.02	9167.88
451.20	9018.08
451.39	9062.55
451.57	9163.20
451.76	9198.31
451.94	9252.14
452.13	9217.03
452.31	9408.95
452.49	9135.11
452.68	9231.07
452.86	9390.23
453.05	9554.07
453.23	9453.42
453.42	9186.60
453.60	9640.67
453.78	9385.55
453.97	9472.15
454.15	9453.42
454.34	9577.47
454.52	9610.24
454.70	9516.62
454.89	9762.37
455.07	9769.40
455.26	9603.22
455.44	9863.02
455.62	9666.41
455.81	10043.24
455.99	9944.94
456.17	9877.06
456.36	10083.03
456.54	10118.14
456.73	9958.98
456.91	10445.81
457.09	10450.49
457.28	10464.54
457.46	10235.16
457.64	10544.11
457.83	10614.33
458.01	10567.52
458.19	10452.83
458.38	10368.57
458.56	10614.33
458.74	10707.95
458.93	10682.20
459.11	10626.03
459.29	10588.58
459.48	10600.29
459.66	10707.95
459.84	10988.82
460.03	10839.02
460.21	11108.18
460.39	11215.85
460.57	10925.62
460.76	11073.07
460.94	11375.00
461.12	11105.84
461.31	11042.65
461.49	11028.60
461.67	11026.26
461.85	11520.12
462.04	11159.67
462.22	11740.13
462.40	11445.22
462.59	11438.20
462.77	11655.87
462.95	11466.28
463.13	11686.29
463.32	11468.62
463.50	11726.08
463.68	11658.21
463.86	11707.36
464.05	11688.64
464.23	11679.27
464.41	11770.55
464.59	11616.08
464.78	12030.35
464.96	11934.39
465.14	11700.34
465.32	12056.10
465.50	12140.36
465.69	12091.21
465.87	12067.80
466.05	12093.55
466.23	11985.88
466.41	12351.01
466.60	12432.93
466.78	12063.12
466.96	12217.60
467.14	12262.07
467.32	12421.22
467.51	12475.06
467.69	12074.82
467.87	12538.25
468.05	12608.47
468.23	12594.42
468.41	12531.23
468.60	12421.22
468.78	12830.82
468.96	12589.74
469.14	12739.54
469.32	13142.11
469.50	12638.89
469.69	12980.61
469.87	13078.91
470.05	13135.09
470.23	13144.45
470.41	13069.55
470.59	13383.18
470.77	13289.56
470.95	13317.65
471.14	13362.12
471.32	13074.23
471.50	13736.60
471.68	13500.21
471.86	13544.68
472.04	13664.05
472.22	14127.47
472.40	13521.27
472.58	13898.10
472.77	13982.36
472.95	13860.65
473.13	14513.66
473.31	14024.49
473.49	14111.09
473.67	14052.58
473.85	14216.41
474.03	14443.45
474.21	14642.39
474.39	14728.99
474.57	14567.49
474.75	14874.10
474.93	14684.52
475.12	14839.00
475.30	15028.58
475.48	15061.35
475.66	15169.01
475.84	15382.00
476.02	15461.58
476.20	15192.42
476.38	15360.94
476.56	15662.86
476.74	15845.43
476.92	15939.05
477.10	15817.34
477.28	16252.68
477.46	16243.32
477.64	16243.32
477.82	16601.42
478.00	16748.87
478.18	16592.06
478.36	16847.18
478.54	17034.42
478.72	17252.09
478.90	17469.76
479.08	17598.49
479.26	17455.72
479.44	17472.10
479.62	17713.17
479.80	17954.25
479.98	18059.57
480.16	18359.16
480.34	18216.39
480.52	18558.11
480.70	18743.01
480.88	18569.81
481.06	18572.15
481.24	18684.50
481.41	18888.12
481.59	19073.03
481.77	19494.32
481.95	19276.65
482.13	19494.32
482.31	19571.56
482.49	20334.57
482.67	20004.56
482.85	20231.59
483.03	20861.19
483.21	20596.71
483.39	20697.36
483.57	20716.08
483.74	21425.26
483.92	21170.15
484.10	21263.77
484.28	21748.26
484.46	21907.41
484.64	22160.19
484.82	22108.70
485.00	22469.14
485.18	22504.25
485.35	22855.33
485.53	22670.43
485.71	23098.75
485.89	23274.29
486.07	23339.82
486.25	23307.05
486.43	23323.44
486.61	23824.31
486.78	23889.85
486.96	23852.40
487.14	24484.34
487.32	24343.91
487.50	24748.82
487.68	25032.03
487.85	25067.14
488.03	25329.28
488.21	25790.36
488.39	25570.35
488.57	25703.76
488.75	25965.90
488.92	26562.74
489.10	26586.15
489.28	26384.86
489.46	26796.79
489.64	26925.52
489.81	27269.58
489.99	27672.15
490.17	27351.50
490.35	27754.07
490.53	27868.76
490.70	28144.94
490.88	28266.65
491.06	28636.45
491.24	28467.94
491.41	28711.35
491.59	29095.20
491.77	29013.28
491.95	28870.51
492.13	29420.53
492.30	29762.25
492.48	29692.04
492.66	30015.03
492.84	30279.51
493.01	30543.99
493.19	30375.47
493.37	31321.05
493.54	31112.74
493.72	31269.56
493.90	31566.81
494.08	31810.22
494.25	31840.65
494.43	32030.23
494.61	31873.42
494.79	32479.61
494.96	32416.42
495.14	32547.49
495.32	32786.22
495.49	33074.11
495.67	32797.93
495.85	33474.34
496.02	33582.01
496.20	34003.30
496.38	33752.87
496.55	33832.44
496.73	34429.28
496.91	34703.12
497.09	34883.34
497.26	34988.67
497.44	34558.01
497.62	35377.20
497.79	35637.00
497.97	35002.71
498.14	35742.32
498.32	36182.34
498.50	35735.30
498.67	36315.75
498.85	36350.86
499.03	36364.90
499.20	36608.32
499.38	36723.01
499.56	37069.40
499.73	37132.60
499.91	37202.82
500.08	37855.82
500.26	37022.59
500.44	37507.08
500.61	37640.50
500.79	37738.80
500.97	37502.40
501.14	38389.47
501.32	38583.73
501.49	38314.57
501.67	38639.90
501.84	38576.71
502.02	38803.74
502.20	38878.64
502.37	38920.77
502.55	39342.06
502.72	39477.82
502.90	39517.60
503.07	39171.21
503.25	39625.27
503.43	39321.00
503.60	39887.41
503.78	40360.20
503.95	39957.63
504.13	40500.63
504.30	40847.03
504.48	40545.10
504.65	40999.16
504.83	41195.77
505.01	41078.74
505.18	40924.27
505.36	41326.84
505.53	40844.69
505.71	41628.77
505.88	41649.83
506.06	40973.42
506.23	41975.17
506.41	41443.87
506.58	41731.75
506.76	42106.24
506.93	42043.04
507.11	41944.74
507.28	42321.57
507.46	42426.89
507.63	42934.79
507.81	43023.73
507.98	42841.17
508.16	43023.73
508.33	43299.91
508.50	43098.62
508.68	43299.91
508.85	43718.87
509.03	43590.14
509.20	43936.54
509.38	43772.70
509.55	44208.04
509.73	44208.04
509.90	44271.23
510.08	44505.29
510.25	44240.81
510.42	44687.85
510.60	45181.70
510.77	45134.89
510.95	45294.05
511.12	44596.57
511.30	45010.84
511.47	45076.38
511.64	44961.69
511.82	45918.97
511.99	45375.97
512.17	45687.26
512.34	45612.36
512.51	46150.68
512.69	46225.58
512.86	45961.10
513.04	46536.87
513.21	46630.49
513.38	46681.98
513.56	46887.95
513.73	46677.30
513.90	46784.97
514.08	46595.38
514.25	47283.50
514.43	47026.04
514.60	47210.95
514.77	47250.74
514.95	47643.94
515.12	47234.35
515.29	47227.33
515.47	47688.42
515.64	48203.33
515.81	47739.91
515.99	48086.31
516.16	48332.06
516.33	48144.82
516.51	48271.21
516.68	48584.84
516.85	48545.05
517.03	48556.75
517.20	48725.27
517.37	48767.40
517.54	48926.56
517.72	48746.34
517.89	49174.66
518.06	49113.80
518.24	49130.19
518.41	48989.75
518.58	49219.13
518.75	49006.14
518.93	49514.03
519.10	48971.03
519.27	49731.70
519.45	49352.54
519.62	49773.83
519.79	49750.43
519.96	49734.04
520.14	50185.77
520.31	50075.76
520.48	50485.36
520.65	50103.85
520.83	50054.70
521.00	50466.63
521.17	50410.46
521.34	50248.96
521.52	50693.66
521.69	50471.31
521.86	50714.73
522.03	51072.83
522.20	51253.05
522.38	51320.93
522.55	51255.39
522.72	51110.28
522.89	51246.03
523.07	51423.91
523.24	51374.76
523.41	51552.64
523.58	51091.55
523.75	51550.30
523.92	51309.22
524.10	51388.80
524.27	51782.01
524.44	51966.91
524.61	52107.35
524.78	52189.27
524.96	52083.94
525.13	51732.86
525.30	52308.63
525.47	52207.99
525.64	52233.74
525.81	52514.60
525.98	52594.18
526.16	52530.98
526.33	52725.25
526.50	52935.90
526.67	52442.04
526.84	52495.88
527.01	52818.87
527.18	52512.26
527.36	52795.46
527.53	52971.00
527.70	53132.50
527.87	53109.10
528.04	53057.60
528.21	53478.90
528.38	53249.53
528.55	53441.45
528.72	53284.64
528.89	53460.18
529.07	53420.39
529.24	53317.40
529.41	53401.66
529.58	53624.01
529.75	53251.87
529.92	53558.48
530.09	53666.14
530.26	53785.51
530.43	53895.52
530.60	53668.48
530.77	53825.30
530.94	53872.11
531.11	53986.80
531.28	53982.12
531.46	54141.27
531.63	54248.94
531.80	54459.58
531.97	54160.00
532.14	54426.82
532.31	54148.29
532.48	54232.55
532.65	54581.29
532.82	54525.12
532.99	54534.48
533.16	54518.10
533.33	54670.23
533.50	54852.80
533.67	54585.97
533.84	54494.69
534.01	54824.71
534.18	54869.18
534.35	55058.76
534.52	54939.39
534.69	55152.38
534.86	54848.11
535.03	54808.32
535.20	55035.36
535.37	55208.56
535.54	55353.67
535.71	55407.50
535.88	55257.71
536.05	55508.14
536.22	55402.82
536.38	55257.71
536.55	55384.10
536.72	55395.80
536.89	55264.73
537.06	55449.63
537.23	55789.01
537.40	55545.59
537.57	55487.08
537.74	55561.98
537.91	55875.61
538.08	55767.94
538.25	55653.26
538.42	55725.81
538.59	55997.32
538.75	56027.74
538.92	55767.94
539.09	56149.45
539.26	56048.81
539.43	56083.92
539.60	56088.60
539.77	56086.26
539.94	56184.56
540.11	56240.73
540.28	56432.66
540.44	56369.46
540.61	56257.12
540.78	56170.52
540.95	56392.87
541.12	56439.68
541.29	56303.93
541.46	56322.65
541.62	56498.19
541.79	56591.81
541.96	56144.77
542.13	56470.11
542.30	56671.39
542.47	56669.05
542.63	56643.30
542.80	56753.31
542.97	56886.72
543.14	57085.67
543.31	56947.57
543.48	57261.21
543.64	57506.96
543.81	57226.10
543.98	57244.82
544.15	57165.24
544.32	57270.57
544.48	57530.37
544.65	57151.20
544.82	57474.20
544.99	57284.61
545.16	57261.21
545.32	57099.71
545.49	57572.50
545.66	57626.33
545.83	57471.85
546.00	57811.23
546.16	57551.43
546.33	57464.83
546.50	57429.72
546.67	57565.48
546.83	57478.88
547.00	57726.97
547.17	57389.94
547.34	57652.08
547.50	57764.42
547.67	58092.10
547.84	57853.36
548.00	58199.76
548.17	58035.92
548.34	58000.82
548.51	58028.90
548.67	58230.19
548.84	58061.67
549.01	57860.38
549.18	57939.96
549.34	58061.67
549.51	58241.89
549.68	58204.44
549.84	58384.66
550.01	58169.33
550.18	58183.38
550.34	58258.27
550.51	58253.59
550.68	58148.27
550.84	58094.44
551.01	58445.52
551.18	58209.12
551.34	58255.93
551.51	58391.68
551.68	58618.72
551.84	58532.12
552.01	58405.73
552.18	58642.12
552.34	58513.39
552.51	58768.51
552.68	58660.85
552.84	58557.86
553.01	58834.05
553.18	58501.69
553.34	58759.15
553.51	58717.02
553.67	58752.13
553.84	58805.96
554.01	58780.21
554.17	58834.05
554.34	58930.01
554.51	58691.27
554.67	58843.41
554.84	58707.66
555.00	58908.94
555.17	59014.27
555.33	58981.50
555.50	58946.39
555.67	58880.86
555.83	59063.42
556.00	59018.95
556.16	59288.11
556.33	59152.36
556.50	59049.38
556.66	59341.94
556.83	59112.57
556.99	59370.03
557.16	59140.66
557.32	59377.05
557.49	59538.55
557.65	59079.80
557.82	59234.28
557.98	59201.51
558.15	59152.36
558.32	59168.74
558.48	59267.05
558.65	59388.75
558.81	59442.59
558.98	59536.21
559.14	59412.16
559.31	59475.35
559.47	59545.57
559.64	59568.97
559.80	59550.25
559.97	59749.20
560.13	59477.69
560.30	59805.37
560.46	59611.10
560.63	59636.85
560.79	59657.91
560.96	59833.46
561.12	59798.35
561.29	59622.81
561.45	59737.49
561.61	59625.15
561.78	59814.73
561.94	59653.23
562.11	59686.00
562.27	59531.53
562.44	60065.17
562.60	59920.05
562.77	59728.13
562.93	59700.04
563.10	60011.34
563.26	59796.01
563.42	60086.23
563.59	59714.09
563.75	59838.14
563.92	60135.38
564.08	59686.00
564.24	59917.71
564.41	59980.91
564.57	60090.91
564.74	59971.55
564.90	60079.21
565.07	60027.72
565.23	59924.74
565.39	59992.61
565.56	59955.16
565.72	60128.36
565.88	60140.07
566.05	59913.03
566.21	60217.30
566.38	60147.09
566.54	59950.48
566.70	60310.92
566.87	60158.79
567.03	60030.06
567.19	60317.95
567.36	60165.81
567.52	60341.35
567.68	60582.43
567.85	60264.11
568.01	60317.95
568.17	60240.71
568.34	60261.77
568.50	60158.79
568.66	60275.82
568.83	60434.97
568.99	60186.88
569.15	60413.91
569.32	60247.73
569.48	60322.63
569.64	60441.99
569.81	60240.71
569.97	60313.26
570.13	60353.05
570.30	60252.41
570.46	60526.25
570.62	60390.50
570.78	60336.67
570.95	60556.68
571.11	60441.99
571.27	60486.46
571.43	60324.97
571.60	60376.46
571.76	60549.66
571.92	60444.33
572.09	60397.52
572.25	60397.52
572.41	60381.14
572.57	60388.16
572.74	60547.32
572.90	60491.15
573.06	60608.17
573.22	60514.55
573.38	60397.52
573.55	60638.60
573.71	60725.20
573.87	60764.99
574.03	60584.77
574.20	60552.00
574.36	60486.46
574.52	60603.49
574.68	60617.53
574.84	60811.80
575.01	60584.77
575.17	60636.26
575.33	60535.62
575.49	60680.73
575.65	60673.71
575.82	60753.29
575.98	60786.05
576.14	60725.20
576.30	60573.06
576.46	60650.30
576.62	60584.77
576.79	60591.79
576.95	60582.43
577.11	60645.62
577.27	60842.23
577.43	60736.90
577.59	60624.56
577.75	60622.22
577.92	60598.81
578.08	60610.51
578.24	60654.98
578.40	60807.12
578.56	60666.69
578.72	60617.53
578.88	60860.95
579.04	60797.76
579.21	60832.86
579.37	60856.27
579.53	60910.10
579.69	60750.94
579.85	60748.60
580.01	60680.73
580.17	60654.98
580.33	60793.07
580.49	60893.72
580.65	60893.72
580.82	60699.45
580.98	60802.44
581.14	60757.97
581.30	60905.42
581.46	60863.29
581.62	60807.12
581.78	60477.10
581.94	60851.59
582.10	60622.22
582.26	60701.79
582.42	60837.54
582.58	60865.63
582.74	60863.29
582.90	60729.88
583.06	60867.97
583.22	60809.46
583.38	60816.48
583.54	60994.36
583.70	60720.52
583.86	60985.00
584.02	60680.73
584.18	60853.93
584.34	60926.49
584.50	60959.25
584.66	60720.52
584.82	60891.38
584.98	61013.08
585.14	61261.18
585.30	60720.52
585.46	60952.23
585.62	60947.55
585.78	61022.45
585.94	60643.28
586.10	60928.83
586.26	60860.95
586.42	60982.66
586.58	60994.36
586.74	60968.61
586.90	61083.30
587.06	60842.23
587.22	61052.87
587.38	60853.93
587.54	61176.92
587.70	61116.07
587.86	60980.32
588.02	60973.30
588.18	61216.71
588.34	60947.55
588.49	61041.17
