SpectraSuite Data File
++++++++++++++++++++++++++++++++++++
Date: Fri Oct 25 11:25:20 EDT 2013
User: price-jones
Dark Spectrum Present: No
Reference Spectrum Present: No
Number of Sampled Component Spectra: 1
Spectrometers: USB2+H05261
Integration Time (usec): 100000 (USB2+H05261)
Spectra Averaged: 1 (USB2+H05261)
Boxcar Smoothing: 0 (USB2+H05261)
Correct for Electrical Dark: No (USB2+H05261)
Strobe/Lamp Enabled: No (USB2+H05261)
Correct for Detector Non-linearity: No (USB2+H05261)
Correct for Stray Light: No (USB2+H05261)
Number of Pixels in Processed Spectrum: 2048
>>>>>Begin Processed Spectral Data<<<<<
365.73	273.84
365.92	273.84
366.12	273.84
366.32	124.05
366.52	140.43
366.72	100.64
366.91	119.37
367.11	166.18
367.31	217.67
367.51	138.09
367.70	161.50
367.90	74.90
368.10	138.09
368.30	152.13
368.49	102.98
368.69	182.56
368.89	149.79
369.09	175.54
369.28	191.92
369.48	187.24
369.68	173.20
369.87	227.03
370.07	126.39
370.27	220.01
370.47	346.40
370.66	554.71
370.86	627.26
371.06	725.57
371.25	751.31
371.45	667.05
371.65	716.20
371.84	718.54
372.04	667.05
372.24	699.82
372.44	746.63
372.63	849.61
372.83	720.88
373.03	755.99
373.22	777.06
373.42	772.38
373.62	861.32
373.81	751.31
374.01	734.93
374.21	784.08
374.40	795.78
374.60	819.19
374.79	809.83
374.99	812.17
375.19	809.83
375.38	791.10
375.58	858.98
375.78	840.25
375.97	847.27
376.17	784.08
376.37	887.06
376.56	882.38
376.76	844.93
376.95	856.64
377.15	861.32
377.35	940.90
377.54	905.79
377.74	844.93
377.93	844.93
378.13	910.47
378.33	891.74
378.52	858.98
378.72	858.98
378.91	992.39
379.11	898.77
379.31	908.13
379.50	954.94
379.70	980.68
379.89	990.05
380.09	966.64
380.28	1015.79
380.48	999.41
380.68	954.94
380.87	1006.43
381.07	957.28
381.26	1036.86
381.46	1057.92
381.65	1041.54
381.85	1081.33
382.04	1039.20
382.24	1022.81
382.43	1046.22
382.63	1088.35
382.83	1078.99
383.02	1163.25
383.22	1111.75
383.41	985.37
383.61	1111.75
383.80	1167.93
384.00	1114.10
384.19	1160.91
384.39	1074.31
384.58	1186.65
384.78	1071.97
384.97	1181.97
385.17	1081.33
385.36	1036.86
385.56	1100.05
385.75	1226.44
385.95	1156.22
386.14	1198.35
386.34	1142.18
386.53	1210.06
386.72	1268.57
386.92	1207.72
387.11	1224.10
387.31	1224.10
387.50	1259.21
387.70	1210.06
387.89	1240.48
388.09	1193.67
388.28	1280.27
388.48	1277.93
388.67	1313.04
388.86	1343.47
389.06	1287.29
389.25	1299.00
389.45	1350.49
389.64	1226.44
389.84	1299.00
390.03	1345.81
390.22	1437.09
390.42	1345.81
390.61	1404.32
390.81	1378.58
391.00	1397.30
391.19	1394.96
391.39	1413.68
391.58	1413.68
391.78	1355.17
391.97	1465.18
392.16	1409.00
392.36	1621.99
392.55	1507.30
392.75	1511.99
392.94	1509.65
393.13	1437.09
393.33	1579.86
393.52	1568.16
393.71	1514.33
393.91	1586.88
394.10	1528.37
394.29	1528.37
394.49	1671.14
394.68	1687.53
394.88	1577.52
395.07	1621.99
395.26	1612.63
395.46	1661.78
395.65	1706.25
395.84	1680.50
396.04	1769.44
396.23	1724.97
396.42	1753.06
396.62	1771.79
396.81	1659.44
397.00	1849.02
397.19	1724.97
397.39	1764.76
397.58	1827.96
397.77	1830.30
397.97	1867.75
398.16	1802.21
398.35	1849.02
398.55	1895.83
398.74	1823.28
398.93	1980.09
399.12	1989.46
399.32	1909.88
399.51	1893.49
399.70	2017.54
399.90	1942.64
400.09	2029.24
400.28	2012.86
400.47	1963.71
400.67	2083.08
400.86	2150.95
401.05	2150.95
401.24	2209.47
401.44	2122.87
401.63	2085.42
401.82	2066.69
402.01	2085.42
402.21	2174.36
402.40	2181.38
402.59	2263.30
402.78	2083.08
402.97	2143.93
403.17	2157.97
403.36	2230.53
403.55	2267.98
403.74	2368.62
403.93	2401.39
404.13	2363.94
404.32	2328.83
404.51	2275.00
404.70	2375.64
404.89	2399.05
405.09	2420.11
405.28	2537.14
405.47	2450.54
405.66	2506.71
405.85	2499.69
406.05	2417.77
406.24	2375.64
406.43	2497.35
406.62	2644.81
406.81	2708.00
407.00	2513.74
407.20	2534.80
407.39	2509.05
407.58	2635.44
407.77	2518.42
407.96	2766.51
408.15	2700.98
408.34	2710.34
408.54	2729.06
408.73	2855.45
408.92	2815.66
409.11	2850.77
409.30	2920.99
409.49	2857.79
409.68	2899.92
409.87	2904.60
410.07	2958.44
410.26	2904.60
410.45	2949.08
410.64	3033.33
410.83	3019.29
411.02	3028.65
411.21	3094.19
411.40	3152.70
411.59	3150.36
411.78	3311.86
411.98	3159.72
412.17	3171.43
412.36	3239.30
412.55	3302.50
412.74	3344.63
412.93	3574.00
413.12	3391.44
413.31	3520.17
413.50	3349.31
413.69	3449.95
413.88	3637.19
414.07	3550.59
414.26	3499.10
414.45	3581.02
414.64	3599.74
414.83	3646.55
415.02	3768.26
415.22	3889.97
415.41	3873.59
415.60	3859.54
415.79	3861.88
415.98	3845.50
416.17	3950.82
416.36	3929.76
416.55	3997.64
416.74	4046.79
416.93	3997.64
417.12	4037.42
417.31	4159.13
417.50	4105.30
417.69	4102.96
417.88	4168.49
418.07	4231.69
418.26	4227.01
418.45	4451.70
418.64	4369.78
418.83	4503.19
419.02	4444.68
419.21	4552.34
419.39	4440.00
419.58	4524.26
419.77	4519.57
419.96	4613.20
420.15	4587.45
420.34	4573.41
420.53	4461.06
420.72	4709.16
420.91	4622.56
421.10	4760.65
421.29	4685.75
421.48	4641.28
421.67	4711.50
421.86	4786.40
422.05	4851.93
422.24	4699.80
422.43	4788.74
422.61	4849.59
422.80	4873.00
422.99	4924.49
423.18	4809.80
423.37	5032.15
423.56	4926.83
423.75	4901.08
423.94	4798.10
424.13	4592.13
424.32	4751.29
424.50	5004.07
424.69	5203.01
424.88	4999.38
425.07	4929.17
425.26	4748.95
425.45	4924.49
425.64	4912.78
425.83	4915.12
426.01	5006.41
426.20	5083.64
426.39	5053.22
426.58	4978.32
426.77	4997.04
426.96	5085.98
427.15	5062.58
427.33	5249.82
427.52	5228.76
427.71	5259.18
427.90	5226.42
428.09	5268.55
428.28	5423.02
428.46	5315.36
428.65	5338.76
428.84	5303.65
429.03	5514.30
429.22	5357.49
429.40	5362.17
429.59	5387.91
429.78	5177.26
429.97	5195.99
430.16	5490.90
430.34	5631.33
430.53	5504.94
430.72	5650.05
430.91	5568.13
431.10	5383.23
431.28	5607.92
431.47	5722.61
431.66	5680.48
431.85	5713.25
432.03	5825.59
432.22	5991.77
432.41	5940.28
432.60	5802.19
432.79	5895.81
432.97	6005.81
433.16	6052.63
433.35	5867.72
433.54	6069.01
433.72	6036.24
433.91	6031.56
434.10	6087.73
434.28	6148.59
434.47	6106.46
434.66	6092.41
434.85	6209.44
435.03	6272.64
435.22	6317.11
435.41	6516.05
435.59	6403.71
435.78	6520.73
435.97	6216.46
436.16	6232.85
436.34	6183.70
436.53	6352.21
436.72	6558.18
436.90	6284.34
437.09	6497.33
437.28	6597.97
437.46	6560.52
437.65	6443.49
437.84	6696.27
438.02	6593.29
438.21	6672.87
438.40	6579.25
438.58	6965.43
438.77	6949.05
438.96	6729.04
439.14	7220.55
439.33	6925.65
439.52	7040.33
439.70	7157.36
439.89	7199.49
440.08	7431.20
440.26	7375.03
440.45	7281.41
440.63	7297.79
440.82	7648.87
441.01	7412.48
441.19	7602.06
441.38	7620.78
441.57	7583.34
441.75	7719.09
441.94	7866.54
442.12	7840.79
442.31	7843.14
442.50	7934.42
442.68	7822.07
442.87	7964.84
443.05	8039.74
443.24	8091.23
443.43	8191.88
443.61	8201.24
443.80	8236.35
443.98	7969.52
444.17	7934.42
444.35	8205.92
444.54	8084.21
444.73	8152.09
444.91	8081.87
445.10	8128.68
445.28	8241.03
445.47	8212.94
445.65	8287.84
445.84	8243.37
446.02	8549.98
446.21	8374.44
446.39	8283.16
446.58	8407.20
446.77	8535.93
446.95	8304.22
447.14	8353.37
447.32	8514.87
447.51	8304.22
447.69	8421.25
447.88	8557.00
448.06	8444.65
448.25	8519.55
448.43	8468.06
448.62	8482.10
448.80	8482.10
448.99	8526.57
449.17	8517.21
449.36	8535.93
449.54	8730.20
449.73	8809.78
449.91	8697.43
450.10	8662.32
450.28	8901.06
450.46	8978.30
450.65	9039.15
450.83	8901.06
451.02	8849.57
451.20	9165.54
451.39	9050.85
451.57	9055.53
451.76	8875.31
451.94	8994.68
452.13	9305.97
452.31	9289.59
452.49	9219.37
452.68	9315.33
452.86	9343.42
453.05	9170.22
453.23	9312.99
453.42	9198.31
453.60	9142.13
453.78	9444.06
453.97	9451.08
454.15	9572.79
454.34	9589.17
454.52	9448.74
454.70	9851.31
454.89	9832.59
455.07	9764.72
455.26	9823.23
455.44	9860.68
455.62	9799.82
455.81	9874.72
455.99	9848.97
456.17	10071.33
456.36	9877.06
456.54	10073.67
456.73	9940.26
456.91	10291.34
457.09	10291.34
457.28	10356.87
457.46	10263.25
457.64	10380.28
457.83	10469.22
458.01	10415.38
458.19	10684.55
458.38	10314.74
458.56	10361.55
458.74	10424.75
458.93	10513.69
459.11	10757.10
459.29	10824.98
459.48	10689.23
459.66	10780.51
459.84	10923.28
460.03	10970.09
460.21	11070.73
460.39	10906.90
460.57	10883.49
460.76	11070.73
460.94	10930.30
461.12	10934.98
461.31	11131.59
461.49	11082.44
461.67	11215.85
461.85	11243.93
462.04	11126.91
462.22	11786.94
462.40	11400.75
462.59	11330.53
462.77	11283.72
462.95	11503.73
463.13	11627.78
463.32	11585.65
463.50	11646.51
463.68	11939.07
463.86	11667.57
464.05	11470.97
464.23	11641.82
464.41	12023.33
464.59	11492.03
464.78	11910.99
464.96	11922.69
465.14	11925.03
465.32	11946.09
465.50	11918.01
465.69	12011.63
465.87	11922.69
466.05	12107.59
466.23	11983.54
466.41	11920.35
466.60	12430.59
466.78	11995.25
466.96	12112.27
467.14	12285.47
467.32	12140.36
467.51	12463.35
467.69	12341.64
467.87	12383.77
468.05	12505.48
468.23	12250.36
468.41	12362.71
468.60	12573.36
468.78	12659.96
468.96	12706.77
469.14	12884.65
469.32	12975.93
469.50	12561.66
469.69	12933.80
469.87	13193.60
470.05	12978.27
470.23	13128.06
470.41	12760.60
470.59	12999.34
470.77	13130.41
470.95	13277.86
471.14	13317.65
471.32	12791.03
471.50	13366.80
471.68	13341.05
471.86	13610.22
472.04	13652.34
472.22	13729.58
472.40	13755.33
472.58	13680.43
472.77	13797.46
472.95	14064.28
473.13	14434.08
473.31	13792.78
473.49	14043.21
473.67	14012.79
473.85	14265.57
474.03	14614.30
474.21	14403.66
474.39	14752.40
474.57	14766.44
474.75	14707.93
474.93	14988.79
475.12	14637.71
475.30	15021.56
475.48	14831.97
475.66	15066.03
475.84	14902.19
476.02	15316.47
476.20	15300.08
476.38	15314.13
476.56	15786.91
476.74	15768.19
476.92	15789.25
477.10	15810.32
477.28	16020.97
477.46	15946.07
477.64	16262.04
477.82	16271.40
478.00	16755.90
478.18	16489.07
478.36	16938.46
478.54	17064.85
478.72	17078.89
478.90	17495.50
479.08	17067.19
479.26	17373.80
479.44	17390.18
479.62	17853.61
479.80	18001.06
479.98	18202.35
480.16	18546.40
480.34	18377.89
480.52	18352.14
480.70	18560.45
480.88	18478.53
481.06	18405.97
481.24	18698.54
481.41	18941.96
481.59	19026.21
481.77	19396.02
481.95	19393.68
482.13	19527.09
482.31	19576.24
482.49	20313.51
482.67	19957.75
482.85	20533.52
483.03	20556.93
483.21	20409.47
483.39	20603.74
483.57	20549.90
483.74	20849.49
483.92	21233.34
484.10	21092.91
484.28	21446.33
484.46	21846.56
484.64	22068.91
484.82	21724.85
485.00	22253.81
485.18	22553.40
485.35	22539.36
485.53	22403.61
485.71	22909.16
485.89	23159.60
486.07	23063.64
486.25	23386.63
486.43	23133.86
486.61	23646.43
486.78	23765.80
486.96	23695.58
487.14	24397.74
487.32	24175.39
487.50	24470.30
487.68	24915.00
487.85	24739.46
488.03	25282.47
488.21	25532.90
488.39	25511.84
488.57	26092.29
488.75	25862.92
488.92	26036.12
489.10	26139.10
489.28	26377.84
489.46	27068.30
489.64	26773.39
489.81	27454.48
489.99	27538.74
490.17	27887.48
490.35	27976.42
490.53	28044.30
490.70	28257.29
490.88	28121.54
491.06	28690.29
491.24	28409.42
491.41	28650.50
491.59	28877.53
491.77	29130.31
491.95	29212.23
492.13	29738.85
492.30	29453.30
492.48	29771.61
492.66	29668.63
492.84	29778.64
493.01	30522.93
493.19	30787.41
493.37	30284.19
493.54	30946.56
493.72	31152.53
493.90	31473.18
494.08	31683.83
494.25	32065.34
494.43	31817.24
494.61	32467.91
494.79	32397.70
494.96	31931.93
495.14	32472.59
495.32	32870.48
495.49	32666.86
495.67	32823.67
495.85	33366.68
496.02	33439.23
496.20	33837.12
496.38	33724.78
496.55	33713.08
496.73	34429.28
496.91	34190.55
497.09	34689.08
497.26	34789.72
497.44	34857.60
497.62	35054.20
497.79	35452.09
497.97	35257.83
498.14	35578.48
498.32	36205.75
498.50	36130.85
498.67	35964.67
498.85	36194.04
499.03	36259.58
499.20	36385.97
499.38	36898.55
499.56	36514.70
499.73	36343.84
499.91	36928.97
500.08	37202.82
500.26	37200.47
500.44	36498.31
500.61	37521.13
500.79	37179.41
500.97	37916.68
501.14	38295.85
501.32	37773.91
501.49	38110.94
501.67	38204.56
501.84	38597.77
502.02	38389.47
502.20	39016.73
502.37	39241.42
502.55	38829.49
502.72	38412.87
502.90	39108.01
503.07	39215.68
503.25	39395.90
503.43	39433.35
503.60	39707.19
503.78	39805.49
503.95	40243.17
504.13	40526.38
504.30	40271.26
504.48	39873.37
504.65	40336.79
504.83	40793.20
505.01	40715.96
505.18	40744.05
505.36	40882.14
505.53	40966.40
505.71	41324.50
505.88	41085.76
506.06	41357.27
506.23	41394.71
506.41	41371.31
506.58	41507.06
506.76	41656.85
506.93	42258.37
507.11	42096.88
507.28	42471.36
507.46	42459.66
507.63	42602.43
507.81	43002.66
507.98	42792.01
508.16	42742.86
508.33	43023.73
508.50	43124.37
508.68	43241.40
508.85	43665.03
509.03	43447.36
509.20	43173.52
509.38	43779.72
509.55	44313.36
509.73	44179.95
509.90	44301.66
510.08	44556.78
510.25	43943.56
510.42	44605.93
510.60	44676.15
510.77	44854.03
510.95	44942.97
511.12	44910.20
511.30	44507.63
511.47	45186.38
511.64	44891.48
511.82	45375.97
511.99	45528.10
512.17	45652.15
512.34	45392.35
512.51	45827.69
512.69	46036.00
512.86	46050.04
513.04	46169.41
513.21	46155.36
513.38	46370.69
513.56	46405.80
513.73	46326.22
513.90	46822.42
514.08	46333.24
514.25	46799.01
514.43	46995.62
514.60	47016.68
514.77	46934.76
514.95	47452.02
515.12	47028.38
515.29	46946.47
515.47	47779.70
515.64	47938.85
515.81	47580.75
515.99	47892.04
516.16	48189.29
516.33	48006.73
516.51	48046.52
516.68	48128.44
516.85	48306.32
517.03	48350.79
517.20	48626.97
517.37	48376.53
517.54	48205.67
517.72	48416.32
517.89	48495.90
518.06	48872.73
518.24	49050.61
518.41	48896.13
518.58	49076.35
518.75	48655.06
518.93	49256.57
519.10	49144.23
519.27	49228.49
519.45	49193.38
519.62	49581.91
519.79	49841.71
519.96	49563.18
520.14	49977.46
520.31	49902.56
520.48	50209.17
520.65	49937.67
520.83	50150.66
521.00	50291.09
521.17	49993.84
521.34	50581.32
521.52	50422.16
521.69	50752.18
521.86	50679.62
522.03	50937.08
522.20	50939.42
522.38	50946.44
522.55	51002.61
522.72	51065.81
522.89	51173.47
523.07	51470.72
523.24	51140.71
523.41	51718.82
523.58	50859.84
523.75	51590.09
523.92	51547.96
524.10	51683.71
524.27	51868.61
524.44	51938.83
524.61	51728.18
524.78	52126.07
524.96	51903.72
525.13	52076.92
525.30	51847.55
525.47	52193.95
525.64	52275.87
525.81	52704.18
525.98	52664.39
526.16	52589.50
526.33	52629.29
526.50	52547.37
526.67	52378.85
526.84	52341.40
527.01	52603.54
527.18	52832.91
527.36	52509.92
527.53	52650.35
527.70	53008.45
527.87	53137.18
528.04	52760.36
528.21	52999.09
528.38	53162.93
528.55	53162.93
528.72	53263.57
528.89	53570.18
529.07	53183.99
529.24	53118.46
529.41	53258.89
529.58	53333.79
529.75	53352.51
529.92	53446.13
530.09	53626.35
530.26	53722.32
530.43	53790.19
530.60	53722.32
530.77	53944.67
530.94	53886.15
531.11	53698.91
531.28	53687.21
531.46	53947.01
531.63	54059.35
531.80	54110.85
531.97	54026.59
532.14	54136.59
532.31	54080.42
532.48	54370.64
532.65	54754.49
532.82	54127.23
532.99	54490.01
533.16	54440.86
533.33	54733.43
533.50	54838.75
533.67	54574.27
533.84	54436.18
534.01	54698.32
534.18	54635.13
534.35	55241.32
534.52	54770.88
534.69	55051.74
534.86	55037.70
535.03	54775.56
535.20	54880.88
535.37	54981.52
535.54	55243.66
535.71	55222.60
535.88	55210.90
536.05	55253.03
536.22	55264.73
536.38	55494.10
536.55	55449.63
536.72	55358.35
536.89	55370.05
537.06	55475.38
537.23	55295.16
537.40	55524.53
537.57	55386.44
537.74	55519.85
537.91	55606.45
538.08	55632.19
538.25	55554.96
538.42	55702.41
538.59	56006.68
538.75	55470.70
538.92	55927.10
539.09	56034.77
539.26	55959.87
539.43	55737.52
539.60	55880.29
539.77	56062.85
539.94	56395.21
540.11	55964.55
540.28	56322.65
540.44	56149.45
540.61	56289.88
540.78	56088.60
540.95	56409.25
541.12	56224.35
541.29	56238.39
541.46	56182.22
541.62	56332.01
541.79	56245.41
541.96	56095.62
542.13	56350.74
542.30	56378.82
542.47	56807.14
542.63	56704.16
542.80	56652.67
542.97	56659.69
543.14	57038.86
543.31	56989.70
543.48	56823.53
543.64	57361.85
543.81	57354.83
543.98	56870.34
544.15	57172.27
544.32	57076.30
544.48	57429.72
544.65	56900.76
544.82	57366.53
544.99	57102.05
545.16	57088.01
545.32	57392.28
545.49	57492.92
545.66	57680.16
545.83	57296.31
546.00	57425.04
546.16	57495.26
546.33	57242.48
546.50	57352.49
546.67	57506.96
546.83	57324.40
547.00	57563.14
547.17	57497.60
547.34	57457.81
547.50	57968.05
547.67	57822.93
547.84	57719.95
548.00	57932.94
548.17	58106.14
548.34	57757.40
548.51	58073.37
548.67	57895.49
548.84	58131.89
549.01	57982.09
549.18	58035.92
549.34	58089.76
549.51	57925.92
549.68	58038.26
549.84	58127.20
550.01	58075.71
550.18	57982.09
550.34	58106.14
550.51	58375.30
550.68	58174.02
550.84	57937.62
551.01	58578.93
551.18	58342.53
551.34	58436.16
551.51	58307.43
551.68	58319.13
551.84	58251.25
552.01	58277.00
552.18	58454.88
552.34	58464.24
552.51	58508.71
552.68	58403.39
552.84	58592.97
553.01	58651.48
553.18	58473.60
553.34	58932.35
553.51	58394.03
553.67	58684.25
553.84	58820.00
554.01	58604.67
554.17	58857.45
554.34	58740.42
554.51	58602.33
554.67	58906.60
554.84	58841.07
555.00	58670.21
555.17	58862.13
555.33	58890.22
555.50	58710.00
555.67	58592.97
555.83	58553.18
556.00	58747.45
556.16	59222.58
556.33	58808.30
556.50	59028.31
556.66	59309.18
556.83	58717.02
556.99	59175.76
557.16	59203.85
557.32	59334.92
557.49	59196.83
557.65	59082.14
557.82	58953.41
557.98	59302.15
558.15	59262.36
558.32	59451.95
558.48	59306.83
558.65	59243.64
558.81	59332.58
558.98	59192.15
559.14	59400.46
559.31	59447.27
559.47	59269.39
559.64	59444.93
559.80	59360.67
559.97	59590.04
560.13	59355.99
560.30	59512.80
560.46	59604.08
560.63	59840.48
560.79	59625.15
560.96	59859.20
561.12	59566.63
561.29	59545.57
561.45	59538.55
561.61	59416.84
561.78	59585.36
561.94	59583.02
562.11	59597.06
562.27	59597.06
562.44	59494.08
562.60	59884.95
562.77	59702.38
562.93	59774.94
563.10	59917.71
563.26	59620.47
563.42	60009.00
563.59	59688.34
563.75	59678.98
563.92	59927.08
564.08	59840.48
564.24	59922.40
564.41	60020.70
564.57	59817.07
564.74	59973.89
564.90	60065.17
565.07	59980.91
565.23	59805.37
565.39	59856.86
565.56	59980.91
565.72	59999.63
565.88	60023.04
566.05	59901.33
566.21	59826.43
566.38	60013.68
566.54	60128.36
566.70	60130.70
566.87	60247.73
567.03	60119.00
567.19	59948.14
567.36	60030.06
567.52	59997.29
567.68	60418.59
567.85	60093.25
568.01	60282.84
568.17	60193.90
568.34	60322.63
568.50	60055.81
568.66	60109.64
568.83	60163.47
568.99	60189.22
569.15	60226.66
569.32	60303.90
569.48	60313.26
569.64	60317.95
569.81	60498.17
569.97	60280.50
570.13	60427.95
570.30	60090.91
570.46	60217.30
570.62	60278.16
570.78	60406.89
570.95	60184.54
571.11	60376.46
571.27	60334.33
571.43	60294.54
571.60	60402.21
571.76	60369.44
571.92	60231.35
572.09	60324.97
572.25	60331.99
572.41	60353.05
572.57	60285.18
572.74	60645.62
572.90	60519.23
573.06	60322.63
573.22	60432.63
573.38	60357.74
573.55	60523.91
573.71	60647.96
573.87	60481.78
574.03	60193.90
574.20	60404.55
574.36	60378.80
574.52	60580.09
574.68	60317.95
574.84	60643.28
575.01	60458.38
575.17	60406.89
575.33	60437.31
575.49	60423.27
575.65	60629.24
575.82	60793.07
575.98	60526.25
576.14	60626.90
576.30	60671.37
576.46	60601.15
576.62	60594.13
576.79	60640.94
576.95	60451.36
577.11	60404.55
577.27	60678.39
577.43	60669.03
577.59	60493.49
577.75	60521.57
577.92	60509.87
578.08	60626.90
578.24	60722.86
578.40	60622.22
578.56	60706.47
578.72	60720.52
578.88	60928.83
579.04	60762.65
579.21	60554.34
579.37	60727.54
579.53	60917.12
579.69	60341.35
579.85	60788.39
580.01	60722.86
580.17	60575.40
580.33	60692.43
580.49	60959.25
580.65	60823.50
580.82	60697.11
580.98	60619.88
581.14	60610.51
581.30	60907.76
581.46	60748.60
581.62	60797.76
581.78	60544.98
581.94	60851.59
582.10	60673.71
582.26	60575.40
582.42	60669.03
582.58	60638.60
582.74	60556.68
582.90	60704.13
583.06	60633.92
583.22	60596.47
583.38	60615.19
583.54	60694.77
583.70	60865.63
583.86	60666.69
584.02	60640.94
584.18	60867.97
584.34	60720.52
584.50	60643.28
584.66	60809.46
584.82	60676.05
584.98	60804.78
585.14	60914.78
585.30	60652.64
585.46	60809.46
585.62	60767.33
585.78	60783.71
585.94	60589.45
586.10	60849.25
586.26	60743.92
586.42	60814.14
586.58	60877.33
586.74	60933.51
586.90	60732.22
587.06	60722.86
587.22	60874.99
587.38	60828.18
587.54	60966.27
587.70	60732.22
587.86	60858.61
588.02	60622.22
588.18	61055.21
588.34	60844.57
588.49	60837.54
