SpectraSuite Data File
++++++++++++++++++++++++++++++++++++
Date: Fri Oct 25 11:34:46 EDT 2013
User: price-jones
Dark Spectrum Present: No
Reference Spectrum Present: No
Number of Sampled Component Spectra: 1
Spectrometers: USB2+H05261
Integration Time (usec): 100000 (USB2+H05261)
Spectra Averaged: 1 (USB2+H05261)
Boxcar Smoothing: 0 (USB2+H05261)
Correct for Electrical Dark: No (USB2+H05261)
Strobe/Lamp Enabled: No (USB2+H05261)
Correct for Detector Non-linearity: No (USB2+H05261)
Correct for Stray Light: No (USB2+H05261)
Number of Pixels in Processed Spectrum: 2048
>>>>>Begin Processed Spectral Data<<<<<
365.73	283.20
365.92	283.20
366.12	283.20
366.32	234.05
366.52	184.90
366.72	142.77
366.91	234.05
367.11	222.35
367.31	152.13
367.51	145.11
367.70	119.37
367.90	191.92
368.10	154.48
368.30	245.76
368.49	140.43
368.69	161.50
368.89	198.95
369.09	131.07
369.28	196.60
369.48	124.05
369.68	269.16
369.87	292.57
370.07	224.69
370.27	255.12
370.47	365.12
370.66	444.70
370.86	554.71
371.06	538.32
371.25	533.64
371.45	564.07
371.65	498.53
371.84	533.64
372.04	547.69
372.24	493.85
372.44	636.63
372.63	592.16
372.83	603.86
373.03	582.79
373.22	552.37
373.42	596.84
373.62	564.07
373.81	587.47
374.01	603.86
374.21	678.76
374.40	650.67
374.60	657.69
374.79	674.07
374.99	662.37
375.19	667.05
375.38	610.88
375.58	641.31
375.78	692.80
375.97	692.80
376.17	688.12
376.37	678.76
376.56	683.44
376.76	641.31
376.95	575.77
377.15	697.48
377.35	681.10
377.54	629.60
377.74	650.67
377.93	678.76
378.13	620.24
378.33	664.71
378.52	730.25
378.72	608.54
378.91	748.97
379.11	678.76
379.31	711.52
379.50	716.20
379.70	763.01
379.89	723.23
380.09	688.12
380.28	716.20
380.48	692.80
380.68	676.41
380.87	695.14
381.07	674.07
381.26	753.65
381.46	741.95
381.65	678.76
381.85	805.14
382.04	676.41
382.24	770.04
382.43	791.10
382.63	760.67
382.83	781.74
383.02	812.17
383.22	741.95
383.41	716.20
383.61	779.40
383.80	814.51
384.00	765.36
384.19	711.52
384.39	821.53
384.58	805.14
384.78	844.93
384.97	737.27
385.17	765.36
385.36	734.93
385.56	861.32
385.75	802.80
385.95	777.06
386.14	800.46
386.34	826.21
386.53	926.85
386.72	863.66
386.92	835.57
387.11	779.40
387.31	947.92
387.50	800.46
387.70	823.87
387.89	844.93
388.09	833.23
388.28	891.74
388.48	866.00
388.67	847.27
388.86	940.90
389.06	828.55
389.25	875.36
389.45	887.06
389.64	954.94
389.84	959.62
390.03	964.30
390.22	910.47
390.42	919.83
390.61	938.55
390.81	903.45
391.00	964.30
391.19	922.17
391.39	992.39
391.58	1011.11
391.78	959.62
391.97	994.73
392.16	929.19
392.36	999.41
392.55	964.30
392.75	1027.50
392.94	1015.79
393.13	999.41
393.33	1046.22
393.52	1081.33
393.71	1055.58
393.91	1050.90
394.10	1025.15
394.29	1013.45
394.49	1004.09
394.68	1083.67
394.88	1118.78
395.07	1107.07
395.26	1064.94
395.46	1055.58
395.65	1107.07
395.84	1165.59
396.04	1177.29
396.23	1149.20
396.42	1090.69
396.62	1170.27
396.81	1069.62
397.00	1151.54
397.19	1144.52
397.39	1263.89
397.58	1221.76
397.77	1263.89
397.97	1114.10
398.16	1205.38
398.35	1268.57
398.55	1137.50
398.74	1170.27
398.93	1336.45
399.12	1256.87
399.32	1315.38
399.51	1287.29
399.70	1249.85
399.90	1231.12
400.09	1219.42
400.28	1287.29
400.47	1320.06
400.67	1268.57
400.86	1366.87
401.05	1291.98
401.24	1301.34
401.44	1453.47
401.63	1406.66
401.82	1357.51
402.01	1458.15
402.21	1399.64
402.40	1327.08
402.59	1397.30
402.78	1387.94
402.97	1411.34
403.17	1472.20
403.36	1497.94
403.55	1401.98
403.74	1481.56
403.93	1504.96
404.13	1474.54
404.32	1537.73
404.51	1483.90
404.70	1600.93
404.89	1542.41
405.09	1572.84
405.28	1624.33
405.47	1603.27
405.66	1551.78
405.85	1661.78
406.05	1624.33
406.24	1675.82
406.43	1535.39
406.62	1746.04
406.81	1699.23
407.00	1685.19
407.20	1722.63
407.39	1680.50
407.58	1701.57
407.77	1736.68
407.96	1785.83
408.15	1804.55
408.34	1727.32
408.54	1851.36
408.73	1886.47
408.92	1750.72
409.11	1863.07
409.30	1912.22
409.49	1865.41
409.68	1926.26
409.87	1884.13
410.07	1940.30
410.26	1900.52
410.45	1952.01
410.64	1989.46
410.83	2139.25
411.02	1961.37
411.21	2010.52
411.40	1952.01
411.59	2125.21
411.78	2057.33
411.98	2057.33
412.17	2153.29
412.36	2246.91
412.55	2155.63
412.74	2129.89
412.93	2272.66
413.12	2207.13
413.31	2221.17
413.50	2270.32
413.69	2363.94
413.88	2349.90
414.07	2321.81
414.26	2342.88
414.45	2403.73
414.64	2333.51
414.83	2565.23
415.02	2420.11
415.22	2558.21
415.41	2619.06
415.60	2569.91
415.79	2518.42
415.98	2586.29
416.17	2633.10
416.36	2633.10
416.55	2658.85
416.74	2572.25
416.93	2689.28
417.12	2860.13
417.31	2745.45
417.50	2792.26
417.69	2761.83
417.88	2794.60
418.07	2602.68
418.26	2726.72
418.45	2899.92
418.64	2836.73
418.83	3038.02
419.02	2928.01
419.21	2970.14
419.39	2963.12
419.58	2960.78
419.77	2850.77
419.96	3030.99
420.15	2993.55
420.34	3059.08
420.53	3049.72
420.72	3021.63
420.91	3012.27
421.10	3063.76
421.29	3059.08
421.48	2913.97
421.67	3136.32
421.86	3047.38
422.05	3150.36
422.24	3066.10
422.43	3169.09
422.61	3234.62
422.80	3272.07
422.99	3126.96
423.18	3243.98
423.37	3370.37
423.56	3309.52
423.75	3246.32
423.94	3075.46
424.13	3000.57
424.32	3222.92
424.50	3251.00
424.69	3442.93
424.88	3260.37
425.07	3339.94
425.26	3286.11
425.45	3222.92
425.64	3126.96
425.83	3183.13
426.01	3232.28
426.20	3194.83
426.39	3321.22
426.58	3246.32
426.77	3349.31
426.96	3419.52
427.15	3414.84
427.33	3407.82
427.52	3368.03
427.71	3433.57
427.90	3471.01
428.09	3492.08
428.28	3424.20
428.46	3304.84
428.65	3581.02
428.84	3627.83
429.03	3686.34
429.22	3389.10
429.40	3499.10
429.59	3609.11
429.78	3566.98
429.97	3391.44
430.16	3620.81
430.34	3864.22
430.53	3581.02
430.72	3782.31
430.91	3730.81
431.10	3609.11
431.28	3728.47
431.47	3861.88
431.66	3777.62
431.85	3873.59
432.03	3747.20
432.22	3810.39
432.41	3779.97
432.60	3833.80
432.79	3964.87
432.97	3896.99
433.16	3822.09
433.35	3925.08
433.54	3936.78
433.72	3911.04
433.91	3920.40
434.10	3999.98
434.28	3985.93
434.47	4063.17
434.66	3864.22
434.85	3887.63
435.03	4236.37
435.22	4011.68
435.41	4138.07
435.59	4044.45
435.78	4154.45
435.97	4163.81
436.16	4114.66
436.34	4152.11
436.53	4212.96
436.72	4362.76
436.90	4194.24
437.09	4191.90
437.28	4259.78
437.46	4234.03
437.65	4355.74
437.84	4358.08
438.02	4344.03
438.21	4311.27
438.40	4414.25
438.58	4505.53
438.77	4662.35
438.96	4341.69
439.14	4648.30
439.33	4533.62
439.52	4671.71
439.70	4610.86
439.89	4854.27
440.08	4816.82
440.26	4774.69
440.45	4655.33
440.63	4760.65
440.82	4709.16
441.01	4744.27
441.19	4894.06
441.38	4908.10
441.57	4961.94
441.75	4816.82
441.94	5090.67
442.12	5032.15
442.31	5123.43
442.50	5078.96
442.68	5039.17
442.87	5050.88
443.05	4997.04
443.24	5338.76
443.43	5165.56
443.61	5266.21
443.80	5514.30
443.98	5277.91
444.17	5036.83
444.35	5378.55
444.54	5308.34
444.73	5275.57
444.91	5355.15
445.10	5416.00
445.28	5390.25
445.47	5165.56
445.65	5315.36
445.84	5291.95
446.02	5322.38
446.21	5184.29
446.39	5406.64
446.58	5364.51
446.77	5359.83
446.95	5151.52
447.14	5547.07
447.32	5474.51
447.51	5383.23
447.69	5411.32
447.88	5338.76
448.06	5549.41
448.25	5521.32
448.43	5364.51
448.62	5348.12
448.80	5479.19
448.99	5614.95
449.17	5771.76
449.36	5401.96
449.54	5551.75
449.73	5870.06
449.91	5746.02
450.10	5722.61
450.28	5727.29
450.46	5750.70
450.65	5729.63
450.83	5816.23
451.02	5664.10
451.20	5926.24
451.39	5863.04
451.57	5638.35
451.76	5631.33
451.94	5947.30
452.13	6022.20
452.31	5877.09
452.49	5898.15
452.68	5935.60
452.86	5914.53
453.05	5991.77
453.23	5900.49
453.42	5973.05
453.60	5973.05
453.78	6064.33
453.97	5982.41
454.15	5877.09
454.34	5951.98
454.52	6132.20
454.70	6228.17
454.89	6218.80
455.07	6221.14
455.26	6139.23
455.44	6319.45
455.62	6223.48
455.81	6401.37
455.99	6277.32
456.17	6600.31
456.36	6331.15
456.54	6384.98
456.73	6373.28
456.91	6757.13
457.09	6682.23
457.28	6764.15
457.46	6574.56
457.64	6710.32
457.83	6686.91
458.01	6532.44
458.19	6686.91
458.38	6604.99
458.56	6855.43
458.74	6619.04
458.93	6827.34
459.11	6876.49
459.29	6806.28
459.48	6932.67
459.66	6803.94
459.84	6839.05
460.03	6902.24
460.21	7115.23
460.39	7091.82
460.57	7052.03
460.76	7152.68
460.94	7096.50
461.12	7075.44
461.31	7052.03
461.49	6965.43
461.67	7056.72
461.85	7229.91
462.04	7220.55
462.22	7346.94
462.40	7180.76
462.59	7351.62
462.77	7030.97
462.95	7302.47
463.13	7463.97
463.32	7435.88
463.50	7592.70
463.68	7630.15
463.86	7447.58
464.05	7288.43
464.23	7522.48
464.41	7508.44
464.59	7255.66
464.78	7555.25
464.96	7613.76
465.14	7644.19
465.32	7660.57
465.50	7552.91
465.69	7669.94
465.87	7793.98
466.05	7641.85
466.23	7660.57
466.41	7733.13
466.60	7719.09
466.78	7405.46
466.96	7765.90
467.14	7782.28
467.32	7995.27
467.51	7892.29
467.69	7756.54
467.87	7644.19
468.05	8018.68
468.23	7779.94
468.41	7793.98
468.60	7901.65
468.78	7976.55
468.96	7768.24
469.14	8255.07
469.32	8156.77
469.50	7976.55
469.69	8021.02
469.87	8184.85
470.05	8159.11
470.23	8226.98
470.41	8245.71
470.59	8524.23
470.77	8329.97
470.95	8458.70
471.14	8566.36
471.32	8287.84
471.50	8533.59
471.68	8489.12
471.86	8533.59
472.04	8627.21
472.22	8648.28
472.40	8641.26
472.58	8690.41
472.77	8650.62
472.95	8868.29
473.13	9095.32
473.31	8542.96
473.49	9046.17
473.67	9057.87
473.85	9097.66
474.03	9394.91
474.21	8917.44
474.39	9188.94
474.57	9254.48
474.75	9518.96
474.93	9322.35
475.12	9364.48
475.30	9612.58
475.48	9514.28
475.66	9497.89
475.84	9678.12
476.02	9568.11
476.20	9661.73
476.38	9827.91
476.56	10120.48
476.74	10094.73
476.92	10031.54
477.10	9914.51
477.28	9973.02
477.46	10059.62
477.64	10115.80
477.82	10303.04
478.00	10431.77
478.18	10380.28
478.36	10525.39
478.54	10672.84
478.72	10569.86
478.90	11037.97
479.08	10949.03
479.26	11162.01
479.44	10860.09
479.62	10944.34
479.80	11145.63
479.98	11260.32
480.16	11548.20
480.34	11599.70
480.52	11793.96
480.70	11836.09
480.88	11580.97
481.06	11562.25
481.24	11765.87
481.41	11889.92
481.59	11969.50
481.77	12154.40
481.95	12182.49
482.13	12390.80
482.31	12121.63
482.49	12390.80
482.67	12549.95
482.85	12767.62
483.03	12842.52
483.21	12975.93
483.39	13341.05
483.57	12978.27
483.74	13158.49
483.92	13315.31
484.10	13167.85
484.28	13511.91
484.46	13607.87
484.64	13895.76
484.82	13678.09
485.00	13722.56
485.18	13940.23
485.35	14321.74
485.53	14113.43
485.71	14462.17
485.89	14487.92
486.07	14382.59
486.25	14499.62
486.43	14473.87
486.61	14558.13
486.78	14640.05
486.96	14710.27
487.14	15330.51
487.32	15220.50
487.50	15257.95
487.68	15480.30
487.85	15513.07
488.03	15857.13
488.21	15798.62
488.39	16006.92
488.57	16395.45
488.75	16222.25
488.92	16219.91
489.10	16711.42
489.28	16650.57
489.46	16510.14
489.64	16940.80
489.81	16882.28
489.99	16996.97
490.17	17008.67
490.35	17497.84
490.53	16992.29
490.70	17404.22
490.88	17675.73
491.06	17706.15
491.24	18043.19
491.41	17972.97
491.59	18104.04
491.77	17942.55
491.95	17905.10
492.13	18277.24
492.30	18412.99
492.48	18523.00
492.66	18878.76
492.84	18686.84
493.01	19070.68
493.19	18768.76
493.37	19044.94
493.54	18944.30
493.72	19459.21
493.90	19164.31
494.08	19644.12
494.25	19721.35
494.43	19751.78
494.61	19665.18
494.79	20009.24
494.96	19887.53
495.14	20044.35
495.32	20280.74
495.49	20367.34
495.67	20486.71
495.85	20685.65
496.02	20975.88
496.20	20999.29
496.38	21493.14
496.55	20924.39
496.73	21362.07
496.91	21188.87
497.09	21345.69
497.26	21769.32
497.44	21357.39
497.62	21956.57
497.79	22008.06
497.97	21703.79
498.14	22022.10
498.32	22352.12
498.50	22075.93
498.67	22515.95
498.85	22410.63
499.03	22691.49
499.20	22455.10
499.38	22902.14
499.56	22878.74
499.73	23084.70
499.91	23002.78
500.08	23201.73
500.26	23283.65
500.44	23524.72
500.61	23442.81
500.79	23356.21
500.97	23580.90
501.14	23892.19
501.32	23730.69
501.49	23580.90
501.67	23592.60
501.84	23889.85
502.02	24013.90
502.20	23955.38
502.37	24498.39
502.55	24119.22
502.72	24311.14
502.90	24402.43
503.07	24245.61
503.25	24336.89
503.43	24634.14
503.60	24723.08
503.78	25010.96
503.95	24634.14
504.13	24959.47
504.30	25120.97
504.48	24823.72
504.65	25331.62
504.83	25539.93
505.01	25392.47
505.18	25544.61
505.36	25530.56
505.53	25572.69
505.71	25680.36
505.88	25989.31
506.06	25706.10
506.23	25809.09
506.41	25568.01
506.58	26054.84
506.76	26045.48
506.93	26349.75
507.11	26499.55
507.28	26459.76
507.46	26593.17
507.63	26473.80
507.81	26946.59
507.98	26565.08
508.16	26838.92
508.33	26944.25
508.50	26888.07
508.68	26991.06
508.85	27154.90
509.03	27185.32
509.20	27292.99
509.38	27632.36
509.55	27875.78
509.73	27646.41
509.90	27576.19
510.08	27288.31
510.25	27704.92
510.42	27873.44
510.60	27840.67
510.77	27704.92
510.95	28264.31
511.12	27976.42
511.30	28301.76
511.47	28166.01
511.64	28332.18
511.82	28533.47
511.99	28439.85
512.17	28657.52
512.34	28671.56
512.51	28959.45
512.69	28952.43
512.86	28996.90
513.04	29259.04
513.21	29200.52
513.38	29312.87
513.56	29216.91
513.73	29549.26
513.90	29228.61
514.08	29266.06
514.25	29465.00
514.43	29724.80
514.60	29324.57
514.77	29544.58
514.95	30211.64
515.12	29841.83
515.29	30045.46
515.47	30213.98
515.64	30270.15
515.81	29729.48
515.99	30389.52
516.16	30455.05
516.33	29951.84
516.51	30754.64
516.68	30408.24
516.85	30768.68
517.03	30457.39
517.20	30663.36
517.37	30932.52
517.54	30871.67
517.72	30623.57
517.89	30852.94
518.06	30986.35
518.24	31232.11
518.41	30913.80
518.58	30993.37
518.75	30925.50
518.93	31201.68
519.10	31065.93
519.27	31147.85
519.45	31470.84
519.62	31789.16
519.79	31611.28
519.96	31817.24
520.14	31782.13
520.31	31845.33
520.48	31665.11
520.65	32105.13
520.83	32128.53
521.00	32177.68
521.17	32275.99
521.34	32491.32
521.52	32893.89
521.69	32505.36
521.86	32638.77
522.03	33048.36
522.20	32617.71
522.38	33160.71
522.55	32697.28
522.72	32524.08
522.89	32973.47
523.07	33036.66
523.24	32837.72
523.41	33062.41
523.58	33001.55
523.75	33247.31
523.92	33228.59
524.10	33244.97
524.27	33273.06
524.44	33797.34
524.61	33441.57
524.78	33347.95
524.96	33532.86
525.13	33766.91
525.30	34225.65
525.47	34298.21
525.64	33947.13
525.81	33919.04
525.98	34288.85
526.16	34197.57
526.33	34195.23
526.50	34277.15
526.67	33965.85
526.84	34338.00
527.01	34010.32
527.18	34529.92
527.36	34625.89
527.53	34712.49
527.70	34679.72
527.87	34965.26
528.04	34499.50
528.21	34911.43
528.38	34625.89
528.55	35393.58
528.72	35007.39
528.89	35035.48
529.07	35166.55
529.24	34960.58
529.41	35707.21
529.58	34927.81
529.75	35487.20
529.92	35271.87
530.09	35454.44
530.26	35433.37
530.43	35267.19
530.60	35517.63
530.77	35372.52
530.94	35538.69
531.11	35618.27
531.28	35562.10
531.46	35959.99
531.63	36280.64
531.80	35414.65
531.97	35871.05
532.14	35688.49
532.31	35590.19
532.48	36243.20
532.65	36149.57
532.82	36030.21
532.99	36222.13
533.16	35772.75
533.33	36423.42
533.50	36404.69
533.67	36507.68
533.84	36388.31
534.01	36273.62
534.18	36561.51
534.35	36486.61
534.52	37036.64
534.69	37308.14
534.86	36975.78
535.03	36807.26
535.20	36584.91
535.37	37373.67
535.54	37099.83
535.71	36900.89
535.88	37291.76
536.05	37209.84
536.22	37436.87
536.38	37137.28
536.55	37326.86
536.72	37415.80
536.89	37581.98
537.06	37642.84
537.23	37422.83
537.40	37343.25
537.57	37134.94
537.74	37455.59
537.91	37488.36
538.08	37570.28
538.25	37584.32
538.42	37790.29
538.59	37560.92
538.75	37982.21
538.92	38099.24
539.09	38567.35
539.26	38220.95
539.43	38405.85
539.60	38469.04
539.77	38593.09
539.94	37818.38
540.11	38492.45
540.28	38433.94
540.44	38543.94
540.61	38440.96
540.78	38286.48
540.95	38548.62
541.12	38398.83
541.29	38623.52
541.46	38494.79
541.62	38607.14
541.79	38899.70
541.96	38485.43
542.13	38253.72
542.30	38403.51
542.47	38621.18
542.63	38520.54
542.80	39281.21
542.97	39150.14
543.14	39508.24
543.31	39548.03
543.48	39496.54
543.64	39690.80
543.81	39545.69
543.98	39339.72
544.15	39297.59
544.32	39737.62
544.48	39885.07
544.65	40037.20
544.82	39686.12
544.99	39526.97
545.16	39915.50
545.32	39758.68
545.49	40102.74
545.66	39711.87
545.83	40013.80
546.00	40142.53
546.16	39889.75
546.33	39971.67
546.50	39611.23
546.67	40100.40
546.83	39908.47
547.00	40313.39
547.17	39971.67
547.34	39976.35
547.50	40498.29
547.67	40755.75
547.84	40074.65
548.00	40488.93
548.17	40950.01
548.34	41048.32
548.51	40973.42
548.67	40687.87
548.84	40526.38
549.01	40212.74
549.18	40685.53
549.34	40678.51
549.51	40933.63
549.68	41200.45
549.84	40802.56
550.01	41015.55
550.18	40711.28
550.34	40713.62
550.51	40641.06
550.68	41326.84
550.84	40879.80
551.01	41153.64
551.18	40727.66
551.34	40830.65
551.51	41205.13
551.68	41769.20
551.84	41289.39
552.01	41216.83
552.18	40863.41
552.34	41237.90
552.51	41446.21
552.68	41462.59
552.84	41570.25
553.01	41062.36
553.18	41265.99
553.34	41867.50
553.51	41401.74
553.67	41820.69
553.84	42176.45
554.01	41923.68
554.17	41916.65
554.34	42190.50
554.51	41792.61
554.67	41659.20
554.84	41853.46
555.00	42010.28
555.17	41823.03
555.33	42213.90
555.50	42014.96
555.67	42164.75
555.83	42117.94
556.00	42115.60
556.16	42731.16
556.33	42129.64
556.50	42061.77
556.66	42469.02
556.83	41998.57
556.99	42410.51
557.16	42316.89
557.32	42621.16
557.49	42391.78
557.65	41839.42
557.82	42536.90
557.98	42457.32
558.15	42478.38
558.32	42602.43
558.48	42384.76
558.65	42653.92
558.81	42604.77
558.98	42639.88
559.14	42579.03
559.31	42728.82
559.47	42930.11
559.64	42948.83
559.80	42754.57
559.97	42590.73
560.13	42555.62
560.30	42967.55
560.46	42827.12
560.63	42979.26
560.79	42674.99
560.96	43126.71
561.12	42913.72
561.29	43232.04
561.45	43358.42
561.61	43037.77
561.78	43126.71
561.94	43126.71
562.11	42955.85
562.27	43147.78
562.44	43056.50
562.60	43576.09
562.77	43356.08
562.93	42766.27
563.10	43086.92
563.26	43068.20
563.42	43676.74
563.59	43330.34
563.75	43262.46
563.92	43447.36
564.08	43122.03
564.24	43421.62
564.41	43412.26
564.57	43763.34
564.74	43374.81
564.90	43330.34
565.07	43416.94
565.23	43351.40
565.39	43161.82
565.56	43653.33
565.72	43578.43
565.88	43901.43
566.05	44009.09
566.21	43653.33
566.38	43723.55
566.54	43248.42
566.70	43552.69
566.87	44046.54
567.03	43791.42
567.19	43842.92
567.36	44046.54
567.52	43594.82
567.68	44030.16
567.85	44004.41
568.01	43800.79
568.17	43835.89
568.34	43667.37
568.50	43821.85
568.66	43473.11
568.83	44060.58
568.99	43805.47
569.15	44189.31
569.32	43620.56
569.48	43945.90
569.64	44383.58
569.81	44074.63
569.97	43948.24
570.13	44062.93
570.30	43611.20
570.46	43995.05
570.62	43643.97
570.78	43800.79
570.95	44369.54
571.11	43992.71
571.27	43590.14
571.43	43894.41
571.60	43761.00
571.76	43716.53
571.92	44065.27
572.09	43805.47
572.25	43983.35
572.41	44130.80
572.57	44137.82
572.74	43920.15
572.90	44060.58
573.06	44215.06
573.22	44212.72
573.38	44182.29
573.55	44299.32
573.71	44573.16
573.87	44332.09
574.03	44360.17
574.20	44720.62
574.36	44011.43
574.52	43896.75
574.68	44144.84
574.84	44339.11
575.01	44589.55
575.17	44402.30
575.33	44194.00
575.49	44233.78
575.65	44392.94
575.82	44224.42
575.98	43952.92
576.14	44257.19
576.30	44830.62
576.46	44655.08
576.62	44154.21
576.79	44495.92
576.95	43732.91
577.11	44261.87
577.27	43899.09
577.43	44505.29
577.59	44425.71
577.75	44392.94
577.92	44140.16
578.08	44449.11
578.24	44467.84
578.40	44968.71
578.56	44903.18
578.72	44299.32
578.88	44512.31
579.04	44114.42
579.21	44406.98
579.37	44521.67
579.53	44306.34
579.69	44006.75
579.85	44357.83
580.01	44947.65
580.17	44708.91
580.33	44526.35
580.49	44715.93
580.65	44638.70
580.82	44507.63
580.98	44423.37
581.14	44268.89
581.30	44779.13
581.46	44172.93
581.62	44685.51
581.78	44385.92
581.94	44266.55
582.10	44732.32
582.26	44605.93
582.42	44580.18
582.58	44711.25
582.74	44582.52
582.90	44266.55
583.06	44844.66
583.22	44421.03
583.38	44921.90
583.54	44598.91
583.70	44713.59
583.86	44870.41
584.02	44851.69
584.18	45244.90
584.34	44886.79
584.50	44828.28
584.66	44903.18
584.82	45015.52
584.98	45120.85
585.14	44638.70
585.30	44446.77
585.46	44851.69
585.62	44832.96
585.78	44552.10
585.94	44842.32
586.10	44535.71
586.26	44301.66
586.42	44687.85
586.58	44870.41
586.74	44598.91
586.90	44402.30
587.06	44811.90
587.22	44765.09
587.38	44304.00
587.54	44978.07
587.70	44947.65
587.86	44673.81
588.02	44741.68
588.18	45116.17
588.34	44854.03
588.49	44708.91
588.65	44839.98
588.81	44683.17
588.97	44559.12
589.13	44877.43
589.29	44788.49
589.45	44968.71
589.61	44886.79
589.77	45177.02
589.93	45088.08
590.08	44783.81
590.24	45230.85
