SpectraSuite Data File
++++++++++++++++++++++++++++++++++++
Date: Fri Oct 25 10:47:53 EDT 2013
User: price-jones
Dark Spectrum Present: No
Reference Spectrum Present: No
Number of Sampled Component Spectra: 1
Spectrometers: USB2+H05261
Integration Time (usec): 100000 (USB2+H05261)
Spectra Averaged: 1 (USB2+H05261)
Boxcar Smoothing: 0 (USB2+H05261)
Correct for Electrical Dark: No (USB2+H05261)
Strobe/Lamp Enabled: No (USB2+H05261)
Correct for Detector Non-linearity: No (USB2+H05261)
Correct for Stray Light: No (USB2+H05261)
Number of Pixels in Processed Spectrum: 2048
>>>>>Begin Processed Spectral Data<<<<<
365.73	166.18
365.92	166.18
366.12	166.18
366.32	49.15
366.52	28.09
366.72	65.54
366.91	81.92
367.11	39.79
367.31	46.81
367.51	37.45
367.70	4.68
367.90	56.17
368.10	37.45
368.30	35.11
368.49	44.47
368.69	37.45
368.89	51.49
369.09	81.92
369.28	72.56
369.48	51.49
369.68	74.90
369.87	93.62
370.07	88.94
370.27	88.94
370.47	166.18
370.66	360.44
370.86	428.32
371.06	383.85
371.25	416.62
371.45	423.64
371.65	472.79
371.84	440.02
372.04	468.11
372.24	482.15
372.44	458.74
372.63	533.64
372.83	498.53
373.03	489.17
373.22	510.24
373.42	493.85
373.62	486.83
373.81	479.81
374.01	582.79
374.21	564.07
374.40	535.98
374.60	669.39
374.79	531.30
374.99	543.00
375.19	655.35
375.38	615.56
375.58	587.47
375.78	512.58
375.97	671.73
376.17	634.29
376.37	627.26
376.56	650.67
376.76	669.39
376.95	547.69
377.15	573.43
377.35	573.43
377.54	603.86
377.74	669.39
377.93	561.73
378.13	622.58
378.33	603.86
378.52	599.18
378.72	631.94
378.91	678.76
379.11	608.54
379.31	606.20
379.50	667.05
379.70	622.58
379.89	683.44
380.09	688.12
380.28	643.65
380.48	685.78
380.68	709.18
380.87	718.54
381.07	629.60
381.26	688.12
381.46	638.97
381.65	678.76
381.85	667.05
382.04	688.12
382.24	688.12
382.43	732.59
382.63	737.27
382.83	683.44
383.02	676.41
383.22	713.86
383.41	636.63
383.61	755.99
383.80	688.12
384.00	685.78
384.19	685.78
384.39	819.19
384.58	802.80
384.78	720.88
384.97	779.40
385.17	793.44
385.36	713.86
385.56	692.80
385.75	706.84
385.95	835.57
386.14	819.19
386.34	685.78
386.53	800.46
386.72	767.70
386.92	835.57
387.11	861.32
387.31	861.32
387.50	823.87
387.70	802.80
387.89	791.10
388.09	800.46
388.28	861.32
388.48	809.83
388.67	863.66
388.86	915.15
389.06	884.72
389.25	861.32
389.45	910.47
389.64	866.00
389.84	957.28
390.03	837.91
390.22	961.96
390.42	891.74
390.61	1001.75
390.81	929.19
391.00	863.66
391.19	1001.75
391.39	964.30
391.58	887.06
391.78	954.94
391.97	971.32
392.16	978.34
392.36	1025.15
392.55	910.47
392.75	1083.67
392.94	938.55
393.13	973.66
393.33	959.62
393.52	983.02
393.71	1090.69
393.91	1088.35
394.10	980.68
394.29	973.66
394.49	1128.14
394.68	1020.47
394.88	1086.01
395.07	1214.74
395.26	1165.59
395.46	1116.44
395.65	1090.69
395.84	1181.97
396.04	1179.63
396.23	1132.82
396.42	1088.35
396.62	1170.27
396.81	1181.97
397.00	1137.50
397.19	1137.50
397.39	1200.69
397.58	1151.54
397.77	1296.66
397.97	1268.57
398.16	1240.48
398.35	1299.00
398.55	1282.61
398.74	1296.66
398.93	1212.40
399.12	1252.19
399.32	1303.68
399.51	1378.58
399.70	1533.05
399.90	1371.55
400.09	1341.13
400.28	1352.83
400.47	1338.79
400.67	1455.81
400.86	1462.83
401.05	1373.89
401.24	1549.43
401.44	1537.73
401.63	1488.58
401.82	1591.56
402.01	1547.09
402.21	1582.20
402.40	1626.67
402.59	1537.73
402.78	1537.73
402.97	1507.30
403.17	1572.84
403.36	1605.61
403.55	1614.97
403.74	1643.06
403.93	1621.99
404.13	1708.59
404.32	1631.35
404.51	1612.63
404.70	1671.14
404.89	1689.87
405.09	1746.04
405.28	1764.76
405.47	1659.44
405.66	1708.59
405.85	1750.72
406.05	1652.42
406.24	1762.42
406.43	1806.89
406.62	1806.89
406.81	1872.43
407.00	1771.79
407.20	1799.87
407.39	1790.51
407.58	1874.77
407.77	1865.41
407.96	1996.48
408.15	1914.56
408.34	2073.71
408.54	1996.48
408.73	1919.24
408.92	1977.75
409.11	2073.71
409.30	2092.44
409.49	2132.23
409.68	1980.09
409.87	2071.37
410.07	2186.06
410.26	1996.48
410.45	2064.35
410.64	2230.53
410.83	2221.17
411.02	2188.40
411.21	2200.10
411.40	2326.49
411.59	2305.43
411.78	2340.54
411.98	2136.91
412.17	2349.90
412.36	2289.04
412.55	2377.98
412.74	2504.37
412.93	2492.67
413.12	2359.26
413.31	2499.69
413.50	2532.46
413.69	2581.61
413.88	2452.88
414.07	2616.72
414.26	2502.03
414.45	2670.55
414.64	2612.04
414.83	2806.30
415.02	2717.36
415.22	2832.05
415.41	2820.35
415.60	2668.21
415.79	2789.92
415.98	3000.57
416.17	2958.44
416.36	2878.86
416.55	2810.98
416.74	2775.88
416.93	2892.90
417.12	2972.48
417.31	3000.57
417.50	2953.76
417.69	3016.95
417.88	3047.38
418.07	2979.50
418.26	3080.14
418.45	3096.53
418.64	3143.34
418.83	3101.21
419.02	3159.72
419.21	3162.06
419.39	3255.69
419.58	3197.17
419.77	3159.72
419.96	3080.14
420.15	3276.75
420.34	3260.37
420.53	3295.47
420.72	3321.22
420.91	3417.18
421.10	3459.31
421.29	3412.50
421.48	3559.95
421.67	3510.80
421.86	3494.42
422.05	3351.65
422.24	3377.39
422.43	3361.01
422.61	3440.59
422.80	3574.00
422.99	3323.56
423.18	3520.17
423.37	3609.11
423.56	3588.04
423.75	3578.68
423.94	3569.32
424.13	3288.45
424.32	3438.25
424.50	3665.28
424.69	3559.95
424.88	3543.57
425.07	3421.86
425.26	3412.50
425.45	3592.72
425.64	3433.57
425.83	3576.34
426.01	3623.15
426.20	3506.12
426.39	3604.42
426.58	3609.11
426.77	3611.45
426.96	3569.32
427.15	3655.92
427.33	3644.21
427.52	3646.55
427.71	3625.49
427.90	3744.86
428.09	3634.85
428.28	3707.41
428.46	3754.22
428.65	3871.25
428.84	3932.10
429.03	3920.40
429.22	3728.47
429.40	3754.22
429.59	3868.91
429.78	3723.79
429.97	3681.66
430.16	3758.90
430.34	3857.20
430.53	3826.78
430.72	3857.20
430.91	4077.21
431.10	3904.01
431.28	4002.32
431.47	4035.08
431.66	4156.79
431.85	4107.64
432.03	4100.62
432.22	4257.43
432.41	4215.30
432.60	4128.70
432.79	4255.09
432.97	4205.94
433.16	4334.67
433.35	4191.90
433.54	4208.28
433.72	4262.12
433.91	4276.16
434.10	4318.29
434.28	4271.48
434.47	4339.35
434.66	4482.13
434.85	4456.38
435.03	4458.72
435.22	4404.89
435.41	4505.53
435.59	4533.62
435.78	4503.19
435.97	4629.58
436.16	4559.36
436.34	4603.83
436.53	4470.42
436.72	4634.26
436.90	4475.10
437.09	4608.51
437.28	4557.02
437.46	4667.03
437.65	4762.99
437.84	4648.30
438.02	4755.97
438.21	4718.52
438.40	4554.68
438.58	4800.44
438.77	4968.96
438.96	4917.47
439.14	5064.92
439.33	5167.90
439.52	5085.98
439.70	5224.08
439.89	4959.60
440.08	5069.60
440.26	5212.37
440.45	5210.03
440.63	5158.54
440.82	5481.53
441.01	5315.36
441.19	5401.96
441.38	5486.22
441.57	5425.36
441.75	5474.51
441.94	5617.29
442.12	5673.46
442.31	5535.37
442.50	5600.90
442.68	5598.56
442.87	5851.34
443.05	5668.78
443.24	5654.73
443.43	5783.46
443.61	5806.87
443.80	5935.60
443.98	5696.86
444.17	5607.92
444.35	5849.00
444.54	5888.79
444.73	5980.07
444.91	5834.96
445.10	5977.73
445.28	5706.23
445.47	5809.21
445.65	5736.65
445.84	5907.51
446.02	5980.07
446.21	5907.51
446.39	5954.32
446.58	5968.37
446.77	6033.90
446.95	5912.19
447.14	6050.28
447.32	6038.58
447.51	5832.62
447.69	5799.85
447.88	6040.92
448.06	5968.37
448.25	6036.24
448.43	6129.86
448.62	5919.21
448.80	6024.54
448.99	5982.41
449.17	6237.53
449.36	6024.54
449.54	6160.29
449.73	6399.02
449.91	6286.68
450.10	6312.42
450.28	6228.17
450.46	6319.45
450.65	6338.17
450.83	6574.56
451.02	6328.81
451.20	6619.04
451.39	6567.54
451.57	6361.58
451.76	6345.19
451.94	6478.60
452.13	6394.34
452.31	6640.10
452.49	6441.15
452.68	6413.07
452.86	6715.00
453.05	6565.20
453.23	6602.65
453.42	6562.86
453.60	6626.06
453.78	6558.18
453.97	6619.04
454.15	6761.81
454.34	6672.87
454.52	6658.82
454.70	6906.92
454.89	6850.75
455.07	6913.94
455.26	6857.77
455.44	6939.69
455.62	6874.15
455.81	6855.43
455.99	7037.99
456.17	7033.31
456.36	7150.34
456.54	7061.40
456.73	7192.47
456.91	7201.83
457.09	7236.94
457.28	7370.35
457.46	7089.48
457.64	7307.15
457.83	7349.28
458.01	7098.84
458.19	7421.84
458.38	7400.77
458.56	7358.64
458.74	7400.77
458.93	7470.99
459.11	7363.33
459.29	7492.05
459.48	7534.18
459.66	7400.77
459.84	7506.10
460.03	7770.58
460.21	7576.31
460.39	7602.06
460.57	7700.36
460.76	7698.02
460.94	7789.30
461.12	7730.79
461.31	7548.23
461.49	7681.64
461.67	7801.01
461.85	7997.61
462.04	7892.29
462.22	8428.27
462.40	8053.78
462.59	7878.24
462.77	7992.93
462.95	7964.84
463.13	8079.53
463.32	8102.93
463.50	8154.43
463.68	8168.47
463.86	8175.49
464.05	8011.65
464.23	7962.50
464.41	8067.83
464.59	7953.14
464.78	8077.19
464.96	8287.84
465.14	8095.91
465.32	8226.98
465.50	8381.46
465.69	8425.93
465.87	8255.07
466.05	8468.06
466.23	8308.90
466.41	8215.28
466.60	8461.04
466.78	8273.79
466.96	8344.01
467.14	8159.11
467.32	8540.61
467.51	8489.12
467.69	8369.76
467.87	8514.87
468.05	8557.00
468.23	8557.00
468.41	8650.62
468.60	8587.43
468.78	8573.38
468.96	8645.94
469.14	8767.65
469.32	8713.81
469.50	8702.11
469.69	8950.21
469.87	9029.79
470.05	8922.12
470.23	8992.34
470.41	9018.08
470.59	9104.68
470.77	8957.23
470.95	9004.04
471.14	9301.29
471.32	9022.77
471.50	9352.78
471.68	9277.88
471.86	9214.69
472.04	9158.52
472.22	9565.77
472.40	9247.46
472.58	9476.83
472.77	9401.93
472.95	9530.66
473.13	9877.06
473.31	9584.49
473.49	9537.68
473.67	9710.88
473.85	9736.63
474.03	9919.19
474.21	9816.21
474.39	10054.94
474.57	9832.59
474.75	10141.54
474.93	10115.80
475.12	10068.98
475.30	10312.40
475.48	10113.45
475.66	10527.73
475.84	10242.18
476.02	10326.44
476.20	10230.48
476.38	10476.24
476.56	10759.44
476.74	10815.62
476.92	10691.57
477.10	10890.51
477.28	10792.21
477.46	10965.41
477.64	11115.20
477.82	11204.14
478.00	11375.00
478.18	11302.45
478.36	11410.11
478.54	11559.91
478.72	11580.97
478.90	11674.59
479.08	11978.86
479.26	12020.99
479.44	11861.84
479.62	11850.13
479.80	12189.51
479.98	12091.21
480.16	12367.39
480.34	12397.82
480.52	12423.56
480.70	12393.14
480.88	12538.25
481.06	12622.51
481.24	12662.30
481.41	12943.16
481.59	12999.34
481.77	13046.15
481.95	13228.71
482.13	13043.81
482.31	13317.65
482.49	13415.95
482.67	13633.62
482.85	13600.85
483.03	13525.96
483.21	13834.91
483.39	14080.66
483.57	13982.36
483.74	14120.45
483.92	14338.12
484.10	14328.76
484.28	14338.12
484.46	14630.69
484.64	14892.83
484.82	14434.08
485.00	14941.98
485.18	15096.46
485.35	15005.17
485.53	14946.66
485.71	15136.24
485.89	15293.06
486.07	15353.91
486.25	15332.85
486.43	15541.16
486.61	15632.44
486.78	16013.95
486.96	16065.44
487.14	16306.51
487.32	16105.23
487.50	16346.30
487.68	16596.74
487.85	16851.86
488.03	16982.93
488.21	17139.74
488.39	16989.95
488.57	17015.69
488.75	17392.52
488.92	17624.23
489.10	17638.28
489.28	17647.64
489.46	17811.48
489.64	18085.32
489.81	18377.89
489.99	18361.50
490.17	18256.18
490.35	18883.44
490.53	18647.05
490.70	18864.72
490.88	19000.47
491.06	19096.43
491.24	18944.30
491.41	19232.18
491.59	18986.43
491.77	19089.41
491.95	19232.18
492.13	19620.71
492.30	19805.61
492.48	20056.05
492.66	20112.22
492.84	20154.35
493.01	20339.26
493.19	20187.12
493.37	20397.77
493.54	20467.98
493.72	20702.04
493.90	20657.57
494.08	21170.15
494.25	20814.38
494.43	21003.97
494.61	21603.14
494.79	21352.71
494.96	21371.43
495.14	21668.68
495.32	21907.41
495.49	21654.64
495.67	22001.04
495.85	22111.04
496.02	22197.64
496.20	22185.94
496.38	22342.75
496.55	22490.21
496.73	22981.72
496.91	22761.71
497.09	23150.24
497.26	22836.61
497.44	22750.01
497.62	23129.17
497.79	23503.66
497.97	23077.68
498.14	23349.18
498.32	23695.58
498.50	23241.52
498.67	23889.85
498.85	23735.37
499.03	24287.74
499.20	24046.66
499.38	24170.71
499.56	24238.59
499.73	24294.76
499.91	24226.89
500.08	24479.66
500.26	24290.08
500.44	24615.41
500.61	24779.25
500.79	25043.73
500.97	25036.71
501.14	25071.82
501.32	24987.56
501.49	25090.54
501.67	25408.86
501.84	25090.54
502.02	25467.37
502.20	25500.14
502.37	25378.43
502.55	25504.82
502.72	26155.49
502.90	25734.19
503.07	25511.84
503.25	26141.44
503.43	25935.48
503.60	26267.83
503.78	26316.98
503.95	26160.17
504.13	26354.43
504.30	26508.91
504.48	26698.49
504.65	26909.14
504.83	26876.37
505.01	27246.18
505.18	26930.20
505.36	27194.68
505.53	27063.61
505.71	27417.04
505.88	27342.14
506.06	27119.79
506.23	27239.15
506.41	27290.65
506.58	27627.68
506.76	27683.86
506.93	27955.36
507.11	27541.08
507.28	28198.77
507.46	27721.30
507.63	27700.24
507.81	28009.19
507.98	28210.48
508.16	28271.33
508.33	28301.76
508.50	28531.13
508.68	28713.69
508.85	28819.02
509.03	28617.73
509.20	28868.17
509.38	28875.19
509.55	29158.39
509.73	29305.85
509.90	29027.32
510.08	28996.90
510.25	29439.26
510.42	29216.91
510.60	29441.60
510.77	29490.75
510.95	29722.46
511.12	29511.81
511.30	30108.65
511.47	29970.56
511.64	30054.82
511.82	30012.69
511.99	30068.86
512.17	30045.46
512.34	30103.97
512.51	30150.78
512.69	30073.54
512.86	30333.34
513.04	31049.55
513.21	30593.14
513.38	30398.88
513.56	30471.43
513.73	30471.43
513.90	31269.56
514.08	30869.33
514.25	30775.70
514.43	30888.05
514.60	30663.36
514.77	31325.73
514.95	31433.39
515.12	31377.22
515.29	31248.49
515.47	31796.18
515.64	31585.53
515.81	31667.45
515.99	31405.31
516.16	31826.60
516.33	31709.58
516.51	31878.10
516.68	31740.00
516.85	31735.32
517.03	31833.63
517.20	31927.25
517.37	32091.09
517.54	32353.23
517.72	32191.73
517.89	31789.16
518.06	32519.40
518.24	32268.97
518.41	32187.05
518.58	32446.85
518.75	32320.46
518.93	32418.76
519.10	32872.82
519.27	32938.36
519.45	33277.74
519.62	32823.67
519.79	33153.69
519.96	33579.67
520.14	33467.32
520.31	33439.23
520.48	33401.79
520.65	33572.64
520.83	33439.23
521.00	33563.28
521.17	33493.07
521.34	33333.91
521.52	33869.89
521.69	33862.87
521.86	34005.64
522.03	33926.07
522.20	33933.09
522.38	34188.21
522.55	34263.10
522.72	34319.28
522.89	34281.83
523.07	34183.52
523.24	34431.62
523.41	34485.45
523.58	34665.67
523.75	35204.00
523.92	34852.92
524.10	34845.90
524.27	34965.26
524.44	34993.35
524.61	34787.38
524.78	35108.04
524.96	35412.31
525.13	34792.06
525.30	35981.06
525.47	35681.47
525.64	35571.46
525.81	35508.27
525.98	35468.48
526.16	35248.47
526.33	35122.08
526.50	35974.03
526.67	35328.05
526.84	35442.73
527.01	35952.97
527.18	35510.61
527.36	36051.27
527.53	36222.13
527.70	36287.67
527.87	36191.70
528.04	35981.06
528.21	36294.69
528.38	35948.29
528.55	35824.24
528.72	36467.89
528.89	36643.43
529.07	36498.31
529.24	36655.13
529.41	36706.62
529.58	36580.23
529.75	36137.87
529.92	36697.26
530.09	37106.85
530.26	37057.70
530.43	36994.51
530.60	37116.22
530.77	37141.96
530.94	37572.62
531.11	37322.18
531.28	37055.36
531.46	37263.67
531.63	37514.11
531.80	36992.17
531.97	37184.09
532.14	37226.22
532.31	37151.32
532.48	37439.21
532.65	37457.93
532.82	37696.67
532.99	37558.58
533.16	37392.40
533.33	37813.70
533.50	37750.50
533.67	37624.11
533.84	37682.62
534.01	37532.83
534.18	37766.88
534.35	38202.22
534.52	38155.41
534.69	38108.60
534.86	38389.47
535.03	38302.87
535.20	38431.60
535.37	38572.03
535.54	39014.39
535.71	37942.42
535.88	38452.66
536.05	38637.56
536.22	38735.87
536.38	38892.68
536.55	38382.45
536.72	38775.66
536.89	38712.46
537.06	38485.43
537.23	38857.57
537.40	38766.29
537.57	38567.35
537.74	38714.80
537.91	39061.20
538.08	39021.41
538.25	38925.45
538.42	39185.25
538.59	39299.94
538.75	39182.91
538.92	39306.96
539.09	39374.83
539.26	39601.86
539.43	39229.72
539.60	39398.24
539.77	39091.63
539.94	39613.57
540.11	39372.49
540.28	39597.18
540.44	39737.62
540.61	39372.49
540.78	39564.42
540.95	39395.90
541.12	39552.71
541.29	39770.38
541.46	39576.12
541.62	39690.80
541.79	40060.61
541.96	39611.23
542.13	39552.71
542.30	39377.17
542.47	40121.46
542.63	39931.88
542.80	40079.33
542.97	40315.73
543.14	40561.48
543.31	40493.61
543.48	40353.18
543.64	40882.14
543.81	40863.41
543.98	40779.15
544.15	40580.21
544.32	40797.88
544.48	41137.26
544.65	40804.90
544.82	40612.98
544.99	40538.08
545.16	40856.39
545.32	40947.67
545.49	41184.07
545.66	41120.87
545.83	41628.77
546.00	41486.00
546.16	40692.55
546.33	40758.09
546.50	40456.16
546.67	41188.75
546.83	40683.19
547.00	41172.36
547.17	40861.07
547.34	41247.26
547.50	41277.69
547.67	41684.94
547.84	41329.18
548.00	41603.02
548.17	41493.02
548.34	41354.93
548.51	41806.65
548.67	41783.24
548.84	41787.92
549.01	41825.37
549.18	41291.73
549.34	42050.06
549.51	41808.99
549.68	42192.84
549.84	42045.38
550.01	42007.94
550.18	41872.18
550.34	41811.33
550.51	41954.10
550.68	42047.72
550.84	41689.62
551.01	41998.57
551.18	41965.81
551.34	41830.05
551.51	41958.78
551.68	42195.18
551.84	42220.92
552.01	41860.48
552.18	42230.29
552.34	42335.61
552.51	42253.69
552.68	42738.18
552.84	42906.70
553.01	42588.39
553.18	42370.72
553.34	42679.67
553.51	42164.75
553.67	42363.70
553.84	42878.61
554.01	42927.77
554.17	43019.05
554.34	43138.41
554.51	42909.04
554.67	42770.95
554.84	42651.58
555.00	42777.97
555.17	42625.84
555.33	42834.14
555.50	42686.69
555.67	42997.98
555.83	42848.19
556.00	42953.51
556.16	43775.04
556.33	43292.89
556.50	43194.59
556.66	42934.79
556.83	42859.89
556.99	43075.22
557.16	43332.68
557.32	42878.61
557.49	43089.26
557.65	42871.59
557.82	43023.73
557.98	43201.61
558.15	42974.58
558.32	43491.83
558.48	43201.61
558.65	43009.68
558.81	43543.33
558.98	43232.04
559.14	43398.21
559.31	42974.58
559.47	43966.96
559.64	43735.25
559.80	43686.10
559.97	43164.16
560.13	43180.54
560.30	43044.79
560.46	43700.14
560.63	43302.25
560.79	43746.95
560.96	44299.32
561.12	43737.59
561.29	43751.63
561.45	43976.33
561.61	43796.10
561.78	43318.64
561.94	43669.72
562.11	44196.34
562.27	43335.02
562.44	43803.13
562.60	44002.07
562.77	44016.11
562.93	43807.81
563.10	43995.05
563.26	43562.05
563.42	43985.69
563.59	43957.60
563.75	43796.10
563.92	43793.76
564.08	43828.87
564.24	44182.29
564.41	44451.45
564.57	44002.07
564.74	43920.15
564.90	43889.73
565.07	43952.92
565.23	43714.19
565.39	43969.30
565.56	43964.62
565.72	43690.78
565.88	44121.44
566.05	44236.12
566.21	44081.65
566.38	43866.32
566.54	44083.99
566.70	44406.98
566.87	44212.72
567.03	43976.33
567.19	44493.58
567.36	44147.18
567.52	44261.87
567.68	44428.05
567.85	44442.09
568.01	44437.41
568.17	44346.13
568.34	44432.73
568.50	44329.75
568.66	44161.23
568.83	44091.01
568.99	43873.34
569.15	44666.78
569.32	44502.95
569.48	44041.86
569.64	44577.84
569.81	44495.92
569.97	44421.03
570.13	44271.23
570.30	44388.26
570.46	44261.87
570.62	44240.81
570.78	43973.98
570.95	44313.36
571.11	44722.96
571.27	44304.00
571.43	44402.30
571.60	44406.98
571.76	44259.53
571.92	44479.54
572.09	44409.32
572.25	44236.12
572.41	44149.53
572.57	44617.63
572.74	45268.30
572.90	44896.16
573.06	44332.09
573.22	44760.40
573.38	44156.55
573.55	44304.00
573.71	44296.98
573.87	44449.11
574.03	44488.90
574.20	44414.01
574.36	44432.73
574.52	44378.90
574.68	44484.22
574.84	44577.84
575.01	44322.72
575.17	44612.95
575.33	44275.91
575.49	44048.88
575.65	44720.62
575.82	44540.39
575.98	44673.81
576.14	44671.46
576.30	44444.43
576.46	44655.08
576.62	44580.18
576.79	44872.75
576.95	43746.95
577.11	44928.92
577.27	44311.02
577.43	44802.53
577.59	44559.12
577.75	44156.55
577.92	44474.86
578.08	44044.20
578.24	44329.75
578.40	44568.48
578.56	44556.78
578.72	44425.71
578.88	44383.58
579.04	44559.12
579.21	44629.34
579.37	44219.74
579.53	44547.42
579.69	44205.70
579.85	44224.42
580.01	44718.28
580.17	44629.34
580.33	44601.25
580.49	44711.25
580.65	44479.54
580.82	44610.61
580.98	44542.74
581.14	45050.63
581.30	45038.93
581.46	44884.45
581.62	44835.30
581.78	44727.64
581.94	44832.96
582.10	45006.16
582.26	45036.59
582.42	44406.98
582.58	44945.31
582.74	44423.37
582.90	44816.58
583.06	45240.21
583.22	44821.26
583.38	44884.45
583.54	44912.54
583.70	44540.39
583.86	44865.73
584.02	44304.00
584.18	44559.12
584.34	44512.31
584.50	44725.30
584.66	44505.29
584.82	44673.81
584.98	45352.56
585.14	45148.93
585.30	44353.15
585.46	44435.07
585.62	44678.49
585.78	44542.74
585.94	44348.47
586.10	44439.75
586.26	44788.49
586.42	45083.40
586.58	44938.29
586.74	45146.59
586.90	44746.36
587.06	44392.94
587.22	45006.16
587.38	44744.02
587.54	44945.31
587.70	45141.91
587.86	44910.20
588.02	45109.14
588.18	44839.98
588.34	44556.78
588.49	44589.55
588.65	44442.09
588.81	44376.56
588.97	44676.15
589.13	44697.21
589.29	44725.30
589.45	45303.41
589.61	45181.70
589.77	45626.40
589.93	45127.87
590.08	45528.10
590.24	45242.56
