SpectraSuite Data File
++++++++++++++++++++++++++++++++++++
Date: Fri Oct 25 11:33:25 EDT 2013
User: price-jones
Dark Spectrum Present: No
Reference Spectrum Present: No
Number of Sampled Component Spectra: 1
Spectrometers: USB2+H05261
Integration Time (usec): 100000 (USB2+H05261)
Spectra Averaged: 1 (USB2+H05261)
Boxcar Smoothing: 0 (USB2+H05261)
Correct for Electrical Dark: No (USB2+H05261)
Strobe/Lamp Enabled: No (USB2+H05261)
Correct for Detector Non-linearity: No (USB2+H05261)
Correct for Stray Light: No (USB2+H05261)
Number of Pixels in Processed Spectrum: 2048
>>>>>Begin Processed Spectral Data<<<<<
365.73	292.57
365.92	292.57
366.12	292.57
366.32	229.37
366.52	161.50
366.72	236.39
366.91	163.84
367.11	189.58
367.31	88.94
367.51	175.54
367.70	201.29
367.90	208.31
368.10	182.56
368.30	170.86
368.49	236.39
368.69	238.73
368.89	259.80
369.09	215.33
369.28	203.63
369.48	107.66
369.68	135.75
369.87	210.65
370.07	175.54
370.27	297.25
370.47	358.10
370.66	397.89
370.86	521.94
371.06	585.13
371.25	578.11
371.45	636.63
371.65	587.47
371.84	498.53
372.04	512.58
372.24	510.24
372.44	531.30
372.63	596.84
372.83	575.77
373.03	655.35
373.22	608.54
373.42	594.50
373.62	580.45
373.81	592.16
374.01	664.71
374.21	627.26
374.40	645.99
374.60	638.97
374.79	683.44
374.99	587.47
375.19	645.99
375.38	676.41
375.58	674.07
375.78	653.01
375.97	622.58
376.17	720.88
376.37	596.84
376.56	685.78
376.76	631.94
376.95	627.26
377.15	706.84
377.35	681.10
377.54	662.37
377.74	662.37
377.93	622.58
378.13	690.46
378.33	763.01
378.52	706.84
378.72	760.67
378.91	767.70
379.11	674.07
379.31	711.52
379.50	678.76
379.70	840.25
379.89	798.12
380.09	748.97
380.28	631.94
380.48	753.65
380.68	774.72
380.87	765.36
381.07	739.61
381.26	765.36
381.46	772.38
381.65	779.40
381.85	753.65
382.04	767.70
382.24	777.06
382.43	711.52
382.63	807.48
382.83	791.10
383.02	830.89
383.22	786.42
383.41	812.17
383.61	781.74
383.80	798.12
384.00	732.59
384.19	837.91
384.39	802.80
384.58	816.85
384.78	877.70
384.97	842.59
385.17	807.48
385.36	795.78
385.56	866.00
385.75	819.19
385.95	889.40
386.14	870.68
386.34	896.43
386.53	816.85
386.72	844.93
386.92	854.30
387.11	880.04
387.31	898.77
387.50	896.43
387.70	929.19
387.89	908.13
388.09	964.30
388.28	915.15
388.48	905.79
388.67	976.00
388.86	866.00
389.06	912.81
389.25	957.28
389.45	1013.45
389.64	985.37
389.84	954.94
390.03	947.92
390.22	905.79
390.42	968.98
390.61	968.98
390.81	898.77
391.00	1020.47
391.19	947.92
391.39	1041.54
391.58	1048.56
391.78	973.66
391.97	1083.67
392.16	1081.33
392.36	1050.90
392.55	990.05
392.75	1048.56
392.94	1088.35
393.13	1041.54
393.33	1055.58
393.52	1036.86
393.71	1062.60
393.91	1128.14
394.10	1146.86
394.29	1149.20
394.49	1104.73
394.68	1046.22
394.88	1177.29
395.07	1078.99
395.26	1242.82
395.46	1153.88
395.65	1186.65
395.84	1212.40
396.04	1135.16
396.23	1214.74
396.42	1167.93
396.62	1266.23
396.81	1198.35
397.00	1156.22
397.19	1252.19
397.39	1301.34
397.58	1280.27
397.77	1261.55
397.97	1170.27
398.16	1327.08
398.35	1348.15
398.55	1226.44
398.74	1306.02
398.93	1345.81
399.12	1336.45
399.32	1205.38
399.51	1404.32
399.70	1327.08
399.90	1320.06
400.09	1362.19
400.28	1301.34
400.47	1448.79
400.67	1376.24
400.86	1444.11
401.05	1406.66
401.24	1453.47
401.44	1474.54
401.63	1472.20
401.82	1441.77
402.01	1441.77
402.21	1526.03
402.40	1500.28
402.59	1509.65
402.78	1495.60
402.97	1565.82
403.17	1540.07
403.36	1579.86
403.55	1472.20
403.74	1631.35
403.93	1640.72
404.13	1694.55
404.32	1610.29
404.51	1598.59
404.70	1671.14
404.89	1682.85
405.09	1727.32
405.28	1624.33
405.47	1724.97
405.66	1788.17
405.85	1687.53
406.05	1619.65
406.24	1792.85
406.43	1713.27
406.62	1825.62
406.81	1827.96
407.00	1764.76
407.20	1715.61
407.39	1757.74
407.58	1792.85
407.77	1935.62
407.96	1916.90
408.15	1998.82
408.34	1926.26
408.54	1877.11
408.73	1909.88
408.92	1895.83
409.11	2043.29
409.30	1923.92
409.49	1912.22
409.68	2001.16
409.87	2033.93
410.07	2019.88
410.26	2059.67
410.45	2045.63
410.64	2108.82
410.83	2139.25
411.02	2153.29
411.21	2167.34
411.40	2150.95
411.59	2118.18
411.78	2172.02
411.98	2129.89
412.17	2415.43
412.36	2242.23
412.55	2331.17
412.74	2352.24
412.93	2223.51
413.12	2370.96
413.31	2502.03
413.50	2483.31
413.69	2389.69
413.88	2469.27
414.07	2497.35
414.26	2478.63
414.45	2530.12
414.64	2605.02
414.83	2640.12
415.02	2670.55
415.22	2562.89
415.41	2626.08
415.60	2719.70
415.79	2738.43
415.98	2708.00
416.17	2731.41
416.36	2743.11
416.55	2672.89
416.74	2768.85
416.93	2766.51
417.12	2789.92
417.31	2920.99
417.50	2906.95
417.69	2885.88
417.88	3035.67
418.07	2960.78
418.26	3023.97
418.45	3012.27
418.64	3075.46
418.83	3009.93
419.02	3145.68
419.21	3152.70
419.39	3131.64
419.58	3129.30
419.77	3108.23
419.96	3255.69
420.15	3185.47
420.34	3152.70
420.53	3155.04
420.72	3143.34
420.91	3353.99
421.10	3279.09
421.29	3382.07
421.48	3232.28
421.67	3431.23
421.86	3445.27
422.05	3323.56
422.24	3295.47
422.43	3267.39
422.61	3304.84
422.80	3265.05
422.99	3372.71
423.18	3349.31
423.37	3466.33
423.56	3445.27
423.75	3391.44
423.94	3255.69
424.13	3094.19
424.32	3178.45
424.50	3403.14
424.69	3449.95
424.88	3529.53
425.07	3496.76
425.26	3349.31
425.45	3407.82
425.64	3393.78
425.83	3361.01
426.01	3482.72
426.20	3466.33
426.39	3485.06
426.58	3543.57
426.77	3576.34
426.96	3592.72
427.15	3569.32
427.33	3534.21
427.52	3590.38
427.71	3763.58
427.90	3632.51
428.09	3520.17
428.28	3749.54
428.46	3637.19
428.65	3662.94
428.84	3843.16
429.03	3911.04
429.22	3728.47
429.40	3840.82
429.59	3744.86
429.78	3768.26
429.97	3723.79
430.16	3737.84
430.34	3880.61
430.53	3882.95
430.72	3974.23
430.91	3918.06
431.10	3812.73
431.28	3974.23
431.47	4002.32
431.66	4018.70
431.85	3904.01
432.03	4098.28
432.22	4086.58
432.41	4175.52
432.60	4023.38
432.79	4117.00
432.97	3964.87
433.16	4117.00
433.35	4109.98
433.54	4138.07
433.72	4198.92
433.91	4264.46
434.10	4308.93
434.28	4182.54
434.47	4152.11
434.66	4308.93
434.85	4264.46
435.03	4180.20
435.22	4278.50
435.41	4477.44
435.59	4538.30
435.78	4498.51
435.97	4444.68
436.16	4320.63
436.34	4311.27
436.53	4503.19
436.72	4643.62
436.90	4414.25
437.09	4447.02
437.28	4388.50
437.46	4660.01
437.65	4660.01
437.84	4784.06
438.02	4564.04
438.21	4645.96
438.40	4631.92
438.58	4819.16
438.77	4880.02
438.96	4737.24
439.14	4851.93
439.33	4835.55
439.52	4924.49
439.70	4819.16
439.89	4968.96
440.08	4945.55
440.26	5018.11
440.45	5069.60
440.63	5081.30
440.82	5270.89
441.01	5221.74
441.19	5394.93
441.38	5327.06
441.57	5408.98
441.75	5434.72
441.94	5479.19
442.12	5472.17
442.31	5411.32
442.50	5387.91
442.68	5301.31
442.87	5621.97
443.05	5444.09
443.24	5589.20
443.43	5589.20
443.61	5678.14
443.80	5856.02
443.98	5504.94
444.17	5518.98
444.35	5600.90
444.54	5497.92
444.73	5781.12
444.91	5776.44
445.10	5607.92
445.28	5612.60
445.47	5680.48
445.65	5561.11
445.84	5682.82
446.02	5750.70
446.21	5830.27
446.39	5844.32
446.58	5877.09
446.77	5785.80
446.95	5727.29
447.14	5837.30
447.32	5825.59
447.51	5776.44
447.69	5734.31
447.88	5788.14
448.06	5825.59
448.25	5844.32
448.43	5689.84
448.62	5849.00
448.80	5839.64
448.99	5856.02
449.17	5968.37
449.36	5963.68
449.54	6127.52
449.73	6169.65
449.91	6150.93
450.10	6057.31
450.28	6029.22
450.46	6260.93
450.65	6122.84
450.83	6197.74
451.02	6195.40
451.20	6232.85
451.39	6211.78
451.57	6190.72
451.76	6113.48
451.94	6513.71
452.13	6427.11
452.31	6326.47
452.49	6132.20
452.68	6162.63
452.86	6345.19
453.05	6565.20
453.23	6403.71
453.42	6466.90
453.60	6370.94
453.78	6436.47
453.97	6581.59
454.15	6579.25
454.34	6284.34
454.52	6604.99
454.70	6544.14
454.89	6562.86
455.07	6670.53
455.26	6668.19
455.44	6700.95
455.62	6642.44
455.81	6757.13
455.99	6787.55
456.17	6813.30
456.36	6773.51
456.54	6740.74
456.73	6991.18
456.91	7152.68
457.09	7005.22
457.28	7194.81
457.46	7007.56
457.64	7087.14
457.83	6993.52
458.01	7056.72
458.19	7358.64
458.38	7148.00
458.56	7295.45
458.74	7190.13
458.93	6995.86
459.11	7187.79
459.29	7213.53
459.48	7342.26
459.66	7229.91
459.84	7339.92
460.03	7433.54
460.21	7295.45
460.39	7297.79
460.57	7435.88
460.76	7520.14
460.94	7527.16
461.12	7445.24
461.31	7712.07
461.49	7447.58
461.67	7562.27
461.85	7850.16
462.04	7445.24
462.22	8152.09
462.40	7974.21
462.59	7742.49
462.77	7695.68
462.95	7777.60
463.13	7770.58
463.32	7798.66
463.50	8107.62
463.68	7808.03
463.86	7894.63
464.05	7803.35
464.23	7829.09
464.41	8042.08
464.59	7901.65
464.78	7964.84
464.96	8105.28
465.14	8002.29
465.32	8124.00
465.50	8133.36
465.69	8203.58
465.87	8070.17
466.05	8044.42
466.23	8138.04
466.41	8285.50
466.60	8332.31
466.78	8180.17
466.96	8409.54
467.14	8231.66
467.32	8327.63
467.51	8411.89
467.69	8245.71
467.87	8404.86
468.05	8606.15
468.23	8423.59
468.41	8425.93
468.60	8425.93
468.78	8559.34
468.96	8301.88
469.14	8491.46
469.32	8547.64
469.50	8372.10
469.69	8711.47
469.87	8758.28
470.05	8748.92
470.23	8887.01
470.41	8795.73
470.59	8870.63
470.77	8901.06
470.95	8861.27
471.14	8968.93
471.32	8580.40
471.50	9097.66
471.68	9011.06
471.86	9001.70
472.04	9212.35
472.22	9420.66
472.40	9057.87
472.58	9174.90
472.77	9327.03
472.95	9502.58
473.13	9731.95
473.31	9303.63
473.49	9341.08
473.67	9488.53
473.85	9687.48
474.03	9806.84
474.21	9678.12
474.39	9753.01
474.57	9795.14
474.75	10127.50
474.93	10171.97
475.12	9987.07
475.30	10162.61
475.48	10200.05
475.66	10286.65
475.84	10314.74
476.02	10377.94
476.20	10319.42
476.38	10408.36
476.56	10719.65
476.74	10654.12
476.92	10658.80
477.10	10633.05
477.28	10869.45
477.46	10527.73
477.64	10946.69
477.82	10857.75
478.00	11477.99
478.18	11152.65
478.36	11220.53
478.54	11414.79
478.72	11379.68
478.90	11276.70
479.08	11679.27
479.26	11681.61
479.44	11932.05
479.62	11901.62
479.80	11908.65
479.98	12049.08
480.16	12210.57
480.34	12170.79
480.52	12425.90
480.70	12376.75
480.88	12327.60
481.06	12346.33
481.24	12355.69
481.41	12664.64
481.59	12886.99
481.77	12819.11
481.95	12886.99
482.13	13060.19
482.31	13104.66
482.49	13509.57
482.67	13142.11
482.85	13537.66
483.03	13685.11
483.21	13584.47
483.39	13788.10
483.57	13743.63
483.74	13975.34
483.92	14148.54
484.10	13928.53
484.28	14396.64
484.46	14595.58
484.64	14902.19
484.82	14387.27
485.00	14733.67
485.18	15389.02
485.35	15131.56
485.53	15192.42
485.71	15295.40
485.89	15712.02
486.07	15356.25
486.25	15667.55
486.43	15557.54
486.61	15892.24
486.78	15756.49
486.96	15988.20
487.14	16016.29
487.32	16503.12
487.50	16276.09
487.68	16479.71
487.85	16685.68
488.03	16608.44
488.21	16828.45
488.39	17156.13
488.57	17240.39
488.75	17357.41
488.92	17493.16
489.10	17495.50
489.28	17774.03
489.46	17989.36
489.64	17902.76
489.81	18324.05
489.99	18452.78
490.17	18342.78
490.35	18471.51
490.53	18441.08
490.70	18981.74
490.88	18614.28
491.06	18668.11
491.24	19068.34
491.41	18972.38
491.59	19267.29
491.77	19407.72
491.95	19672.20
492.13	19873.49
492.30	19709.65
492.48	19910.94
492.66	20032.65
492.84	20095.84
493.01	20180.10
493.19	20194.14
493.37	20393.09
493.54	20362.66
493.72	20655.23
493.90	21006.31
494.08	21048.44
494.25	21125.68
494.43	21074.18
494.61	21343.35
494.79	21390.16
494.96	21216.96
495.14	21509.52
495.32	21561.02
495.49	22015.08
495.67	21881.67
495.85	22267.86
496.02	22520.63
496.20	22214.02
496.38	22431.69
496.55	22682.13
496.73	23388.97
496.91	22707.88
497.09	23035.55
497.26	23054.28
497.44	23206.41
497.62	23143.22
497.79	23810.27
497.97	23421.74
498.14	23999.85
498.32	24009.22
498.50	23819.63
498.67	24013.90
498.85	24212.84
499.03	24257.31
499.20	24217.52
499.38	24446.90
499.56	24545.20
499.73	24521.79
499.91	24589.67
500.08	24687.97
500.26	24638.82
500.44	24971.18
500.61	25081.18
500.79	24826.06
500.97	24882.24
501.14	25509.50
501.32	25671.00
501.49	25434.60
501.67	25830.15
501.84	25902.71
502.02	25970.58
502.20	25886.32
502.37	25916.75
502.55	25951.86
502.72	26003.35
502.90	25942.50
503.07	26277.19
503.25	26298.26
503.43	26328.69
503.60	26497.20
503.78	26370.82
503.95	26373.16
504.13	26331.03
504.30	27154.90
504.48	26588.49
504.65	27028.51
504.83	27463.85
505.01	27344.48
505.18	27454.48
505.36	27484.91
505.53	27508.32
505.71	27393.63
505.88	27850.03
506.06	27318.73
506.23	27992.81
506.41	27496.61
506.58	27946.00
506.76	28091.11
506.93	28325.16
507.11	28332.18
507.28	28371.97
507.46	28161.33
507.63	28479.64
507.81	28416.44
507.98	28254.95
508.16	28610.71
508.33	28849.44
508.50	28580.28
508.68	28882.21
508.85	29317.55
509.03	29062.43
509.20	29287.12
509.38	29780.98
509.55	29177.12
509.73	29582.03
509.90	29635.86
510.08	29820.77
510.25	29834.81
510.42	29851.19
510.60	29848.85
510.77	29827.79
510.95	30387.18
511.12	30213.98
511.30	29879.28
511.47	30525.27
511.64	30239.72
511.82	30656.34
511.99	30581.44
512.17	30525.27
512.34	30642.29
512.51	31075.29
512.69	30808.47
512.86	31070.61
513.04	30866.98
513.21	31124.44
513.38	31302.32
513.56	31611.28
513.73	31180.62
513.90	31840.65
514.08	31314.03
514.25	31536.38
514.43	31756.39
514.60	32327.48
514.77	31814.90
514.95	31920.23
515.12	31889.80
515.29	31765.75
515.47	32077.04
515.64	32439.82
515.81	31819.58
515.99	31945.97
516.16	32570.90
516.33	32456.21
516.51	32645.79
516.68	32334.50
516.85	32706.65
517.03	32814.31
517.20	32954.74
517.37	32706.65
517.54	32954.74
517.72	32790.91
517.89	33277.74
518.06	33235.61
518.24	33226.24
518.41	33137.30
518.58	33427.53
518.75	33221.56
518.93	33333.91
519.10	33310.50
519.27	33544.56
519.45	33963.51
519.62	33961.17
519.79	33497.75
519.96	33659.24
520.14	34110.97
520.31	34117.99
520.48	34192.89
520.65	34242.04
520.83	34394.17
521.00	34609.50
521.17	34213.95
521.34	34157.78
521.52	34827.17
521.69	34691.42
521.86	35009.73
522.03	35321.02
522.20	35199.32
522.38	35442.73
522.55	35260.17
522.72	35257.83
522.89	34817.81
523.07	35597.21
523.24	35468.48
523.41	35587.85
523.58	35620.61
523.75	35775.09
523.92	35590.19
524.10	35882.75
524.27	35725.94
524.44	35807.86
524.61	36011.48
524.78	36109.78
524.96	35676.79
525.13	36601.30
525.30	36280.64
525.47	36804.92
525.64	36147.23
525.81	36378.95
525.98	36746.41
526.16	36292.35
526.33	36329.80
526.50	36715.98
526.67	36772.16
526.84	36641.09
527.01	36680.88
527.18	37083.45
527.36	37170.05
527.53	37120.90
527.70	37207.50
527.87	37273.03
528.04	37275.37
528.21	37804.33
528.38	37546.87
528.55	37518.79
528.72	37216.86
528.89	37284.73
529.07	37256.65
529.24	37158.34
529.41	38050.09
529.58	37621.77
529.75	37516.45
529.92	37912.00
530.09	37715.39
530.26	37778.59
530.43	38220.95
530.60	37406.44
530.77	37596.03
530.94	38057.11
531.11	38473.73
531.28	38132.01
531.46	38206.90
531.63	38321.59
531.80	38031.36
531.97	38469.04
532.14	38300.53
532.31	38635.22
532.48	38642.24
532.65	38993.32
532.82	38700.76
532.99	38869.28
533.16	38761.61
533.33	39030.77
533.50	39323.34
533.67	39014.39
533.84	38572.03
534.01	39033.11
534.18	39218.02
534.35	39524.63
534.52	39035.45
534.69	39875.71
534.86	39494.20
535.03	39175.89
535.20	39714.21
535.37	39988.05
535.54	39854.64
535.71	39557.39
535.88	39793.79
536.05	40004.44
536.22	39896.77
536.38	40154.23
536.55	39856.98
536.72	39906.13
536.89	39723.57
537.06	39847.62
537.23	40329.77
537.40	40243.17
537.57	39903.79
537.74	40189.34
537.91	39966.99
538.08	40304.02
538.25	40245.51
538.42	40163.59
538.59	40713.62
538.75	40374.24
538.92	40727.66
539.09	40610.64
539.26	40790.86
539.43	40563.82
539.60	40872.78
539.77	40828.30
539.94	41038.95
540.11	40861.07
540.28	40879.80
540.44	40893.84
540.61	41088.10
540.78	41022.57
540.95	41223.86
541.12	40779.15
541.29	40865.75
541.46	41532.81
541.62	41322.16
541.79	41188.75
541.96	41322.16
542.13	41317.48
542.30	41134.92
542.47	41886.23
542.63	41387.69
542.80	41521.10
542.97	41914.31
543.14	42220.92
543.31	42101.56
543.48	41881.55
543.64	42054.75
543.81	42265.39
543.98	42281.78
544.15	42139.00
544.32	42464.34
544.48	42600.09
544.65	42576.69
544.82	42660.94
544.99	42431.57
545.16	42520.51
545.32	42281.78
545.49	42323.91
545.66	43000.32
545.83	42845.85
546.00	43037.77
546.16	42763.93
546.33	42698.39
546.50	42572.00
546.67	43117.35
546.83	42686.69
547.00	42953.51
547.17	43089.26
547.34	43098.62
547.50	43012.02
547.67	43313.95
547.84	43356.08
548.00	43426.30
548.17	43299.91
548.34	43065.86
548.51	44067.61
548.67	43311.61
548.84	43655.67
549.01	43278.85
549.18	43480.13
549.34	44011.43
549.51	43758.66
549.68	43819.51
549.84	43697.80
550.01	44229.10
550.18	43721.21
550.34	43990.37
550.51	44137.82
550.68	44098.03
550.84	43615.88
551.01	44161.23
551.18	43901.43
551.34	43821.85
551.51	44053.56
551.68	43791.42
551.84	44100.37
552.01	43793.76
552.18	44128.46
552.34	44065.27
552.51	44364.85
552.68	44208.04
552.84	43922.49
553.01	44729.98
553.18	44311.02
553.34	44357.83
553.51	44561.46
553.67	44596.57
553.84	44629.34
554.01	44722.96
554.17	44615.29
554.34	44334.43
554.51	44481.88
554.67	45076.38
554.84	44996.80
555.00	44797.85
555.17	44502.95
555.33	45120.85
555.50	44531.03
555.67	45064.67
555.83	44863.39
556.00	45003.82
556.16	45579.59
556.33	45329.16
556.50	45041.27
556.66	45310.43
556.83	44814.24
556.99	45446.18
557.16	45312.77
557.32	45434.48
557.49	45542.14
557.65	44807.22
557.82	45565.55
557.98	45289.37
558.15	45401.71
558.32	45380.65
558.48	45177.02
558.65	45317.45
558.81	45401.71
558.98	45235.53
559.14	45574.91
559.31	45888.54
559.47	45668.53
559.64	45336.18
559.80	45776.20
559.97	45553.85
560.13	45343.20
560.30	45750.45
560.46	45844.07
560.63	46033.66
560.79	45612.36
560.96	46237.28
561.12	45881.52
561.29	45823.01
561.45	46330.90
561.61	45638.11
561.78	45783.22
561.94	45916.63
562.11	46005.57
562.27	46024.29
562.44	45799.60
562.60	46274.73
562.77	45923.65
562.93	46307.50
563.10	46555.60
563.26	46155.36
563.42	46298.14
563.59	46096.85
563.75	45970.46
563.92	46370.69
564.08	46213.88
564.24	46368.35
564.41	46178.77
564.57	46232.60
564.74	46571.98
564.90	46036.00
565.07	46569.64
565.23	46396.44
565.39	46305.16
565.56	46478.36
565.72	46202.18
565.88	46876.25
566.05	46288.77
566.21	46183.45
566.38	46412.82
566.54	46452.61
566.70	46218.56
566.87	46267.71
567.03	46096.85
567.19	47171.16
567.36	46548.57
567.52	46438.57
567.68	46787.31
567.85	47114.98
568.01	46904.34
568.17	46712.41
568.34	47044.77
568.50	46770.93
568.66	46436.23
568.83	46885.61
568.99	46483.04
569.15	47302.23
569.32	46590.70
569.48	46892.63
569.64	47070.51
569.81	46969.87
569.97	46777.95
570.13	47129.03
570.30	46513.47
570.46	47063.49
570.62	46979.23
570.78	46838.80
570.95	47295.21
571.11	47164.14
571.27	46344.95
571.43	47028.38
571.60	47012.00
571.76	46892.63
571.92	46916.04
572.09	46789.65
572.25	47140.73
572.41	46880.93
572.57	47028.38
572.74	47737.57
572.90	47161.79
573.06	47260.10
573.22	47395.85
573.38	47416.91
573.55	47215.63
573.71	47533.94
573.87	46878.59
574.03	47407.55
574.20	47501.17
574.36	47288.18
574.52	47327.97
574.68	47028.38
574.84	47288.18
575.01	47168.82
575.17	47002.64
575.33	47285.84
575.49	47129.03
575.65	47260.10
575.82	47391.17
575.98	46831.78
576.14	47185.20
576.30	47461.38
576.46	47351.38
576.62	47072.85
576.79	47239.03
576.95	47049.45
577.11	47061.15
577.27	47124.35
577.43	47161.79
577.59	47299.89
577.75	47522.24
577.92	46916.04
578.08	47543.30
578.24	47395.85
578.40	47337.33
578.56	47295.21
578.72	47196.90
578.88	47519.90
579.04	47248.39
579.21	47236.69
579.37	47253.08
579.53	47494.15
579.69	47665.01
579.85	47075.19
580.01	47547.98
580.17	47419.25
580.33	47594.79
580.49	47000.30
580.65	47519.90
580.82	47309.25
580.98	47166.48
581.14	47009.66
581.30	47620.54
581.46	47054.13
581.62	47337.33
581.78	47309.25
581.94	47662.67
582.10	47150.09
582.26	48179.93
582.42	47543.30
582.58	47538.62
582.74	47669.69
582.90	47346.70
583.06	47831.19
583.22	46866.89
583.38	47299.89
583.54	47583.09
583.70	47885.02
583.86	47398.19
584.02	47515.22
584.18	47737.57
584.34	47643.94
584.50	47688.42
584.66	47192.22
584.82	47887.36
584.98	47915.45
585.14	47819.49
585.30	47332.65
585.46	47662.67
585.62	47309.25
585.78	47831.19
585.94	47112.64
586.10	47798.42
586.26	47580.75
586.42	47681.39
586.58	47931.83
586.74	47711.82
586.90	47381.80
587.06	47646.29
587.22	47756.29
587.38	47594.79
587.54	47503.51
587.70	47709.48
587.86	47704.80
588.02	47583.09
588.18	47590.11
588.34	47564.37
588.49	47569.05
588.65	47463.72
588.81	47688.42
588.97	47913.11
589.13	47573.73
589.29	47866.30
589.45	47824.17
589.61	47971.62
589.77	47924.81
589.93	47758.63
