SpectraSuite Data File
++++++++++++++++++++++++++++++++++++
Date: Fri Oct 25 11:24:09 EDT 2013
User: price-jones
Dark Spectrum Present: No
Reference Spectrum Present: No
Number of Sampled Component Spectra: 1
Spectrometers: USB2+H05261
Integration Time (usec): 100000 (USB2+H05261)
Spectra Averaged: 1 (USB2+H05261)
Boxcar Smoothing: 0 (USB2+H05261)
Correct for Electrical Dark: No (USB2+H05261)
Strobe/Lamp Enabled: No (USB2+H05261)
Correct for Detector Non-linearity: No (USB2+H05261)
Correct for Stray Light: No (USB2+H05261)
Number of Pixels in Processed Spectrum: 2048
>>>>>Begin Processed Spectral Data<<<<<
365.73	262.14
365.92	262.14
366.12	262.14
366.32	138.09
366.52	131.07
366.72	154.48
366.91	100.64
367.11	100.64
367.31	56.17
367.51	180.22
367.70	16.38
367.90	124.05
368.10	117.03
368.30	114.69
368.49	152.13
368.69	128.73
368.89	121.71
369.09	189.58
369.28	149.79
369.48	201.29
369.68	126.39
369.87	145.11
370.07	250.44
370.27	273.84
370.47	311.29
370.66	557.05
370.86	629.60
371.06	711.52
371.25	723.23
371.45	695.14
371.65	746.63
371.84	688.12
372.04	678.76
372.24	690.46
372.44	741.95
372.63	748.97
372.83	741.95
373.03	784.08
373.22	699.82
373.42	791.10
373.62	805.14
373.81	802.80
374.01	826.21
374.21	784.08
374.40	763.01
374.60	938.55
374.79	798.12
374.99	821.53
375.19	833.23
375.38	777.06
375.58	802.80
375.78	903.45
375.97	847.27
376.17	816.85
376.37	863.66
376.56	882.38
376.76	784.08
376.95	854.30
377.15	798.12
377.35	826.21
377.54	880.04
377.74	894.08
377.93	851.96
378.13	912.81
378.33	917.49
378.52	875.36
378.72	922.17
378.91	896.43
379.11	896.43
379.31	908.13
379.50	884.72
379.70	889.40
379.89	976.00
380.09	1004.09
380.28	954.94
380.48	997.07
380.68	976.00
380.87	1022.81
381.07	978.34
381.26	1064.94
381.46	1025.15
381.65	1020.47
381.85	1057.92
382.04	968.98
382.24	1104.73
382.43	1008.77
382.63	1046.22
382.83	1116.44
383.02	1153.88
383.22	1107.07
383.41	992.39
383.61	1053.24
383.80	1170.27
384.00	1104.73
384.19	1090.69
384.39	1158.57
384.58	1116.44
384.78	1083.67
384.97	1167.93
385.17	1135.16
385.36	1142.18
385.56	1149.20
385.75	1226.44
385.95	1181.97
386.14	1289.64
386.34	1226.44
386.53	1263.89
386.72	1177.29
386.92	1301.34
387.11	1167.93
387.31	1266.23
387.50	1233.46
387.70	1217.08
387.89	1291.98
388.09	1247.51
388.28	1266.23
388.48	1284.95
388.67	1341.13
388.86	1289.64
389.06	1231.12
389.25	1376.24
389.45	1385.60
389.64	1310.70
389.84	1406.66
390.03	1371.55
390.22	1348.15
390.42	1401.98
390.61	1348.15
390.81	1299.00
391.00	1409.00
391.19	1401.98
391.39	1439.43
391.58	1490.92
391.78	1467.52
391.97	1528.37
392.16	1502.62
392.36	1488.58
392.55	1472.20
392.75	1582.20
392.94	1563.48
393.13	1671.14
393.33	1586.88
393.52	1521.35
393.71	1528.37
393.91	1591.56
394.10	1645.40
394.29	1544.75
394.49	1636.03
394.68	1734.34
394.88	1626.67
395.07	1640.72
395.26	1647.74
395.46	1703.91
395.65	1750.72
395.84	1675.82
396.04	1785.83
396.23	1753.06
396.42	1753.06
396.62	1750.72
396.81	1858.39
397.00	1776.47
397.19	1839.66
397.39	1781.15
397.58	1809.23
397.77	1888.81
397.97	1886.47
398.16	1750.72
398.35	1940.30
398.55	1849.02
398.74	1863.07
398.93	1952.01
399.12	1980.09
399.32	1909.88
399.51	1963.71
399.70	2015.20
399.90	1842.00
400.09	2073.71
400.28	2111.16
400.47	2043.29
400.67	2118.18
400.86	2017.54
401.05	2043.29
401.24	2106.48
401.44	2083.08
401.63	2162.66
401.82	2115.84
402.01	2186.06
402.21	2062.01
402.40	2143.93
402.59	2183.72
402.78	2132.23
402.97	2225.85
403.17	2363.94
403.36	2282.02
403.55	2293.72
403.74	2356.92
403.93	2342.88
404.13	2340.54
404.32	2478.63
404.51	2328.83
404.70	2415.43
404.89	2392.03
405.09	2466.92
405.28	2478.63
405.47	2480.97
405.66	2567.57
405.85	2516.08
406.05	2583.95
406.24	2551.18
406.43	2644.81
406.62	2626.08
406.81	2651.83
407.00	2626.08
407.20	2569.91
407.39	2623.74
407.58	2700.98
407.77	2722.04
407.96	2750.13
408.15	2724.38
408.34	2768.85
408.54	2789.92
408.73	2878.86
408.92	2792.26
409.11	2928.01
409.30	2876.52
409.49	2949.08
409.68	2916.31
409.87	3042.70
410.07	2977.16
410.26	2951.42
410.45	3005.25
410.64	3087.17
410.83	3087.17
411.02	3208.87
411.21	3204.19
411.40	3122.27
411.59	3265.05
411.78	3190.15
411.98	3187.81
412.17	3304.84
412.36	3335.26
412.55	3342.28
412.74	3389.10
412.93	3384.41
413.12	3529.53
413.31	3625.49
413.50	3461.65
413.69	3588.04
413.88	3616.13
414.07	3552.93
414.26	3648.90
414.45	3658.26
414.64	3761.24
414.83	3658.26
415.02	3709.75
415.22	3819.75
415.41	3810.39
415.60	3880.61
415.79	3878.27
415.98	3960.19
416.17	4023.38
416.36	3826.78
416.55	4032.74
416.74	4149.77
416.93	4138.07
417.12	4084.23
417.31	4353.40
417.50	4163.81
417.69	4252.75
417.88	4191.90
418.07	4341.69
418.26	4322.97
418.45	4337.01
418.64	4472.76
418.83	4449.36
419.02	4440.00
419.21	4507.87
419.39	4718.52
419.58	4617.88
419.77	4456.38
419.96	4559.36
420.15	4484.47
420.34	4461.06
420.53	4540.64
420.72	4741.93
420.91	4840.23
421.10	4812.14
421.29	4777.03
421.48	4744.27
421.67	4798.10
421.86	4812.14
422.05	4985.34
422.24	4746.61
422.43	4865.97
422.61	4903.42
422.80	5020.45
422.99	4992.36
423.18	5085.98
423.37	5081.30
423.56	5008.75
423.75	5006.41
423.94	4833.21
424.13	4599.15
424.32	4732.56
424.50	4896.40
424.69	5102.37
424.88	5069.60
425.07	4961.94
425.26	5064.92
425.45	4856.61
425.64	5034.49
425.83	4929.17
426.01	5025.13
426.20	5078.96
426.39	5015.77
426.58	5006.41
426.77	4936.19
426.96	5177.26
427.15	5156.20
427.33	5231.10
427.52	5270.89
427.71	5308.34
427.90	5153.86
428.09	5451.11
428.28	5362.17
428.46	5322.38
428.65	5221.74
428.84	5680.48
429.03	5600.90
429.22	5378.55
429.40	5486.22
429.59	5446.43
429.78	5240.46
429.97	5397.28
430.16	5511.96
430.34	5647.71
430.53	5804.53
430.72	5703.89
430.91	5671.12
431.10	5570.48
431.28	5685.16
431.47	5706.23
431.66	5802.19
431.85	5823.25
432.03	5837.30
432.22	5959.00
432.41	5806.87
432.60	5900.49
432.79	5977.73
432.97	6094.76
433.16	6064.33
433.35	6012.84
433.54	6183.70
433.72	6157.95
433.91	6104.12
434.10	6118.16
434.28	6169.65
434.47	6197.74
434.66	6324.13
434.85	6251.57
435.03	6260.93
435.22	6457.54
435.41	6612.01
435.59	6616.69
435.78	6478.60
435.97	6553.50
436.16	6457.54
436.34	6448.18
436.53	6450.52
436.72	6483.28
436.90	6541.80
437.09	6567.54
437.28	6413.07
437.46	6555.84
437.65	6583.93
437.84	6918.62
438.02	6651.80
438.21	6696.27
438.40	6796.92
438.58	7005.22
438.77	7052.03
438.96	7124.59
439.14	7150.34
439.33	7265.02
439.52	7213.53
439.70	7204.17
439.89	7368.01
440.08	7588.02
440.26	7578.65
440.45	7377.37
440.63	7398.43
440.82	7536.52
441.01	7503.76
441.19	7578.65
441.38	7777.60
441.57	7768.24
441.75	8060.80
441.94	7927.39
442.12	7791.64
442.31	7922.71
442.50	8006.97
442.68	7908.67
442.87	8039.74
443.05	8018.68
443.24	8393.16
443.43	8142.72
443.61	8163.79
443.80	8313.58
443.98	8039.74
444.17	7913.35
444.35	8276.13
444.54	8435.29
444.73	8418.91
444.91	8266.77
445.10	8531.25
445.28	8229.32
445.47	8308.90
445.65	8538.27
445.84	8365.07
446.02	8446.99
446.21	8280.82
446.39	8353.37
446.58	8519.55
446.77	8533.59
446.95	8236.35
447.14	8428.27
447.32	8456.36
447.51	8383.80
447.69	8566.36
447.88	8407.20
448.06	8622.53
448.25	8667.00
448.43	8599.13
448.62	8615.51
448.80	8711.47
448.99	8917.44
449.17	8631.90
449.36	8535.93
449.54	8795.73
449.73	9043.83
449.91	9074.26
450.10	9027.45
450.28	9144.47
450.46	9039.15
450.65	9064.89
450.83	9235.75
451.02	9076.60
451.20	9050.85
451.39	9226.39
451.57	9156.18
451.76	9018.08
451.94	9308.31
452.13	9497.89
452.31	9305.97
452.49	9287.25
452.68	9544.70
452.86	9493.21
453.05	9350.44
453.23	9722.59
453.42	9495.55
453.60	9430.02
453.78	9518.96
453.97	9605.56
454.15	9554.07
454.34	9490.87
454.52	9834.93
454.70	9703.86
454.89	9668.75
455.07	9706.20
455.26	9942.60
455.44	9994.09
455.62	9984.73
455.81	9818.55
455.99	10143.88
456.17	10148.56
456.36	10230.48
456.54	10043.24
456.73	10328.78
456.91	10520.71
457.09	10413.04
457.28	10658.80
457.46	10427.09
457.64	10567.52
457.83	10511.35
458.01	10509.01
458.19	10846.04
458.38	10532.41
458.56	10750.08
458.74	10860.09
458.93	10817.96
459.11	10836.68
459.29	10878.81
459.48	10949.03
459.66	10764.12
459.84	10721.99
460.03	11126.91
460.21	11208.83
460.39	11049.67
460.57	11185.42
460.76	10862.43
460.94	11215.85
461.12	11269.68
461.31	11054.35
461.49	11115.20
461.67	11080.10
461.85	11559.91
462.04	11613.74
462.22	11864.18
462.40	11492.03
462.59	11466.28
462.77	11562.25
462.95	11742.47
463.13	11573.95
463.32	11562.25
463.50	12072.48
463.68	11861.84
463.86	11782.26
464.05	11480.33
464.23	11749.49
464.41	12081.85
464.59	11674.59
464.78	12201.21
464.96	12002.27
465.14	11901.62
465.32	12140.36
465.50	12156.74
465.69	12226.96
465.87	12273.77
466.05	12243.34
466.23	12287.81
466.41	12383.77
466.60	12786.35
466.78	12451.65
466.96	12318.24
467.14	12458.67
467.32	12285.47
467.51	12723.15
467.69	12201.21
467.87	12437.61
468.05	12571.02
468.23	12456.33
468.41	12299.52
468.60	12517.18
468.78	12894.01
468.96	12479.74
469.14	12936.14
469.32	13205.30
469.50	12681.02
469.69	13104.66
469.87	13083.59
470.05	13261.48
470.23	13207.64
470.41	13238.07
470.59	13451.06
470.77	13282.54
470.95	13296.58
471.14	13654.69
471.32	13263.82
471.50	13570.43
471.68	13631.28
471.86	13731.92
472.04	13848.95
472.22	13987.04
472.40	13724.90
472.58	13816.18
472.77	13895.76
472.95	14270.25
473.13	14651.75
473.31	13942.57
473.49	14071.30
473.67	14005.77
473.85	14452.81
474.03	14537.07
474.21	14808.57
474.39	14904.53
474.57	14698.56
474.75	14768.78
474.93	15161.99
475.12	14883.47
475.30	15042.62
475.48	15030.92
475.66	15012.20
475.84	15286.04
476.02	15597.33
476.20	15459.24
476.38	15578.61
476.56	15999.90
476.74	16016.29
476.92	15901.60
477.10	16100.55
477.28	16163.74
477.46	16161.40
477.64	16472.69
477.82	16510.14
478.00	17336.35
478.18	16893.99
478.36	16858.88
478.54	17303.58
478.72	17114.00
478.90	17474.44
479.08	17331.67
479.26	17727.22
479.44	17577.42
479.62	17930.84
479.80	18162.56
479.98	18300.65
480.16	18609.60
480.34	18288.95
480.52	18551.09
480.70	18604.92
480.88	18597.90
481.06	18822.59
481.24	18773.44
481.41	19374.95
481.59	19676.88
481.77	19660.50
481.95	19625.39
482.13	19683.91
482.31	19915.62
482.49	20421.17
482.67	20339.26
482.85	20524.16
483.03	20624.80
483.21	20924.39
483.39	20863.54
483.57	20739.49
483.74	21240.36
483.92	21598.46
484.10	21535.27
484.28	21881.67
484.46	22162.53
484.64	22459.78
484.82	22073.59
485.00	22251.47
485.18	23126.83
485.35	22977.04
485.53	22827.24
485.71	23218.11
485.89	23592.60
486.07	23491.96
486.25	23578.56
486.43	23700.26
486.61	23913.25
486.78	24079.43
486.96	24409.45
487.14	24769.89
487.32	24620.10
487.50	25109.27
487.68	25167.78
487.85	25340.98
488.03	25617.16
488.21	25942.50
488.39	25799.73
488.57	26185.91
488.75	26181.23
488.92	26251.45
489.10	26838.92
489.28	26806.16
489.46	27608.96
489.64	27412.35
489.81	28081.75
489.99	27573.85
490.17	27988.13
490.35	28112.17
490.53	28486.66
490.70	28521.77
490.88	28435.17
491.06	29024.98
491.24	29046.05
491.41	29301.17
491.59	29207.55
491.77	29481.39
491.95	29713.10
492.13	30199.93
492.30	30195.25
492.48	30560.37
492.66	30249.08
492.84	30731.23
493.01	30822.51
493.19	30628.25
493.37	30855.28
493.54	31325.73
493.72	31618.30
493.90	31835.97
494.08	31634.68
494.25	32395.35
494.43	32196.41
494.61	32795.59
494.79	32879.85
494.96	32591.96
495.14	32966.45
495.32	33268.37
495.49	33352.63
495.67	33546.90
495.85	33663.93
496.02	33933.09
496.20	34316.93
496.38	34235.02
496.55	34185.86
496.73	34955.90
496.91	34419.92
497.09	34862.28
497.26	35281.24
497.44	34899.73
497.62	35311.66
497.79	35952.97
497.97	35461.46
498.14	36339.16
498.32	36374.27
498.50	36158.94
498.67	36753.43
498.85	36573.21
499.03	36577.89
499.20	36790.88
499.38	37258.99
499.56	36982.80
499.73	37443.89
499.91	37806.67
500.08	38195.20
500.26	37376.01
500.44	37893.27
500.61	38068.81
500.79	37827.74
500.97	38646.93
501.14	38773.31
501.32	38618.84
501.49	38728.84
501.67	38785.02
501.84	39318.66
502.02	38937.15
502.20	39058.86
502.37	39271.85
502.55	39571.44
502.72	39435.69
502.90	39763.36
503.07	39899.11
503.25	40086.36
503.43	39913.16
503.60	40128.48
503.78	40383.60
503.95	40259.55
504.13	40629.36
504.30	40502.97
504.48	40912.56
504.65	40329.77
504.83	41476.63
505.01	41598.34
505.18	41254.28
505.36	41832.39
505.53	41560.89
505.71	41921.34
505.88	42192.84
506.06	41570.25
506.23	42085.17
506.41	41720.05
506.58	42251.35
506.76	42644.56
506.93	42995.64
507.11	42462.00
507.28	43028.41
507.46	42909.04
507.63	43044.79
507.81	43339.70
507.98	43068.20
508.16	43147.78
508.33	43686.10
508.50	43501.20
508.68	43428.64
508.85	44275.91
509.03	43784.40
509.20	44086.33
509.38	44294.64
509.55	44907.86
509.73	44516.99
509.90	44418.69
510.08	44746.36
510.25	44222.08
510.42	45083.40
510.60	45118.51
510.77	45350.22
510.95	45867.48
511.12	44912.54
511.30	45614.70
511.47	45579.59
511.64	46206.86
511.82	46181.11
511.99	46143.66
512.17	46213.88
512.34	46068.76
512.51	46293.46
512.69	46848.16
512.86	46602.41
513.04	46803.69
513.21	46782.63
513.38	47112.64
513.56	47166.48
513.73	47002.64
513.90	46979.23
514.08	47360.74
514.25	47622.88
514.43	47522.24
514.60	47468.40
514.77	47398.19
514.95	48069.92
515.12	47487.13
515.29	47980.98
515.47	47992.68
515.64	48587.18
515.81	48205.67
515.99	48493.56
516.16	48652.72
516.33	48582.50
516.51	48828.26
516.68	48615.27
516.85	48505.26
517.03	49029.54
517.20	48959.33
517.37	48954.64
517.54	49139.55
517.72	49357.22
517.89	49563.18
518.06	49712.98
518.24	49090.40
518.41	49083.37
518.58	49448.50
518.75	49530.42
518.93	49626.38
519.10	49441.48
519.27	49757.45
519.45	49783.19
519.62	50007.89
519.79	50628.13
519.96	50155.34
520.14	50380.03
520.31	50380.03
520.48	50745.15
520.65	50405.78
520.83	50768.56
521.00	51147.73
521.17	50534.51
521.34	50649.19
521.52	51426.25
521.69	51124.32
521.86	51311.56
522.03	51831.16
522.20	51505.83
522.38	51772.65
522.55	51477.74
522.72	51487.10
522.89	51641.58
523.07	51746.90
523.24	51695.41
523.41	52133.09
523.58	51444.98
523.75	52130.75
523.92	51969.26
524.10	52013.73
524.27	52369.49
524.44	52193.95
524.61	52161.18
524.78	52329.70
524.96	52559.07
525.13	52535.66
525.30	52739.29
525.47	52800.15
525.64	52530.98
525.81	52664.39
525.98	52905.47
526.16	52612.90
526.33	52877.38
526.50	53083.35
526.67	52886.74
526.84	53165.27
527.01	52921.85
527.18	52928.87
527.36	53221.44
527.53	53020.16
527.70	53705.93
527.87	53235.48
528.04	53411.02
528.21	53450.81
528.38	53434.43
528.55	53521.03
528.72	53429.75
528.89	53822.96
529.07	53631.04
529.24	53567.84
529.41	53708.27
529.58	53822.96
529.75	53879.13
529.92	53841.68
530.09	54099.14
530.26	54042.97
530.43	54211.49
530.60	54246.60
530.77	54237.23
530.94	54307.45
531.11	54101.48
531.28	54482.99
531.46	54202.13
531.63	54316.81
531.80	54244.26
531.97	54817.69
532.14	54658.53
532.31	54777.90
532.48	54813.01
532.65	54693.64
532.82	54721.72
532.99	54487.67
533.16	54887.90
533.33	54965.14
533.50	55103.23
533.67	55023.65
533.84	54885.56
534.01	54904.29
534.18	55152.38
534.35	55643.90
534.52	55145.36
534.69	55229.62
534.86	55519.85
535.03	55529.21
535.20	55220.26
535.37	55353.67
535.54	55779.65
535.71	55157.06
535.88	55388.78
536.05	55796.03
536.22	55835.82
536.38	55887.31
536.55	55622.83
536.72	55697.73
536.89	55693.05
537.06	55789.01
537.23	55962.21
537.40	55828.80
537.57	55632.19
537.74	56053.49
537.91	56133.07
538.08	56123.71
538.25	55814.76
538.42	56165.84
538.59	56186.90
538.75	55992.64
538.92	56226.69
539.09	56294.56
539.26	56285.20
539.43	56133.07
539.60	56753.31
539.77	56355.42
539.94	56563.73
540.11	56350.74
540.28	56481.81
540.44	56568.41
540.61	56566.07
540.78	56507.55
540.95	56294.56
541.12	56397.55
541.29	56739.27
541.46	56617.56
541.62	56680.75
541.79	56917.15
541.96	56409.25
542.13	56844.59
542.30	56704.16
542.47	56823.53
542.63	57048.22
542.80	56987.36
542.97	56942.89
543.14	57209.71
543.31	57102.05
543.48	57258.87
543.64	57694.21
543.81	57382.91
543.98	57478.88
544.15	57420.36
544.32	57336.10
544.48	57556.11
544.65	57584.20
544.82	57478.88
544.99	57511.64
545.16	57380.57
545.32	57464.83
545.49	57822.93
545.66	57904.85
545.83	57785.49
546.00	57977.41
546.16	57649.74
546.33	57591.22
546.50	57518.67
546.67	58059.33
546.83	57640.37
547.00	57975.07
547.17	57766.76
547.34	58010.18
547.50	57811.23
547.67	58145.93
547.84	58092.10
548.00	58174.02
548.17	58480.63
548.34	58277.00
548.51	58237.21
548.67	58459.56
548.84	58190.40
549.01	57932.94
549.18	58171.67
549.34	58389.34
549.51	58550.84
549.68	58438.50
549.84	58394.03
550.01	58419.77
550.18	58277.00
550.34	58440.84
550.51	58571.91
550.68	58639.78
550.84	58136.57
551.01	58705.32
551.18	58536.80
551.34	58651.48
551.51	58693.61
551.68	58658.51
551.84	58548.50
552.01	58529.78
552.18	58724.04
552.34	58585.95
552.51	58930.01
552.68	58501.69
552.84	58731.06
553.01	58866.81
553.18	58848.09
553.34	59196.83
553.51	58890.22
553.67	59021.29
553.84	59194.49
554.01	59178.10
554.17	59117.25
554.34	59032.99
554.51	59103.21
554.67	59110.23
554.84	59000.22
555.00	59110.23
555.17	58974.48
555.33	59447.27
555.50	59089.16
555.67	59056.40
555.83	59086.82
556.00	59339.60
556.16	59227.26
556.33	59442.59
556.50	59297.47
556.66	59412.16
556.83	59311.52
556.99	59491.74
557.16	59632.17
557.32	59613.44
557.49	59791.33
557.65	59384.07
557.82	59381.73
557.98	59309.18
558.15	59470.67
558.32	59683.66
558.48	59475.35
558.65	59620.47
558.81	59704.73
558.98	59913.03
559.14	59620.47
559.31	59817.07
559.47	59798.35
559.64	59868.56
559.80	59800.69
559.97	59873.24
560.13	59646.21
560.30	59978.57
560.46	59770.26
560.63	59992.61
560.79	60060.49
560.96	60032.40
561.12	60048.78
561.29	59842.82
561.45	60006.65
561.61	60072.19
561.78	59753.88
561.94	59943.46
562.11	59887.29
562.27	60025.38
562.44	60013.68
562.60	60161.13
562.77	60214.96
562.93	59882.61
563.10	59934.10
563.26	60102.62
563.42	60310.92
563.59	60095.60
563.75	60013.68
563.92	60172.83
564.08	60058.15
564.24	60296.88
564.41	60287.52
564.57	60163.47
564.74	60364.76
564.90	60229.01
565.07	60292.20
565.23	60025.38
565.39	60193.90
565.56	60142.41
565.72	60189.22
565.88	60217.30
566.05	60266.45
566.21	60327.31
566.38	60327.31
566.54	60383.48
566.70	60390.50
566.87	60385.82
567.03	60261.77
567.19	60530.93
567.36	60521.57
567.52	60470.08
567.68	60708.82
567.85	60460.72
568.01	60500.51
568.17	60397.52
568.34	60589.45
568.50	60617.53
568.66	60427.95
568.83	60479.44
568.99	60598.81
569.15	60535.62
569.32	60437.31
569.48	60673.71
569.64	60764.99
569.81	60493.49
569.97	60535.62
570.13	60528.59
570.30	60505.19
570.46	60498.17
570.62	60472.42
570.78	60598.81
570.95	60669.03
571.11	60734.56
571.27	60498.17
571.43	60446.68
571.60	60779.03
571.76	60755.63
571.92	60530.93
572.09	60800.10
572.25	60793.07
572.41	60905.42
572.57	60849.25
572.74	60720.52
572.90	60671.37
573.06	60673.71
573.22	60727.54
573.38	60790.73
573.55	60783.71
573.71	61024.79
573.87	60643.28
574.03	60423.27
574.20	60846.91
574.36	60825.84
574.52	60750.94
574.68	60708.82
574.84	60919.46
575.01	60985.00
575.17	60687.75
575.33	60683.07
575.49	60938.19
575.65	60921.80
575.82	61071.60
575.98	60816.48
576.14	61048.19
576.30	60825.84
576.46	60853.93
576.62	60949.89
576.79	60718.18
576.95	60786.05
577.11	60830.52
577.27	60896.06
577.43	60755.63
577.59	60753.29
577.75	60676.05
577.92	60933.51
578.08	60935.85
578.24	60938.19
578.40	61139.47
578.56	61069.26
578.72	60882.02
578.88	61183.94
579.04	61176.92
579.21	61113.73
579.37	60954.57
579.53	60921.80
579.69	60715.84
579.85	60870.31
580.01	61038.83
580.17	60900.74
580.33	60982.66
580.49	61001.38
580.65	61020.11
580.82	61062.24
580.98	61008.40
581.14	60956.91
581.30	61059.90
581.46	61071.60
581.62	61197.99
581.78	60804.78
581.94	61050.53
582.10	61015.43
582.26	61209.69
582.42	60811.80
582.58	61078.62
582.74	60938.19
582.90	61113.73
583.06	61102.03
583.22	61017.77
583.38	60987.34
583.54	61080.96
583.70	61055.21
583.86	61109.05
584.02	61069.26
584.18	61214.37
584.34	61375.87
584.50	61069.26
584.66	61041.17
584.82	60851.59
584.98	61347.78
585.14	61132.45
585.30	60994.36
585.46	61127.77
585.62	61102.03
585.78	61123.09
585.94	61155.86
586.10	61127.77
586.26	61050.53
586.42	61216.71
586.58	61272.88
586.74	61303.31
586.90	60970.96
587.06	61069.26
587.22	61179.26
587.38	61162.88
587.54	61223.73
587.70	61429.70
587.86	61394.59
588.02	61326.72
588.18	61228.41
588.34	61139.47
588.49	61090.32
