SpectraSuite Data File
++++++++++++++++++++++++++++++++++++
Date: Fri Oct 25 10:43:45 EDT 2013
User: price-jones
Dark Spectrum Present: No
Reference Spectrum Present: No
Number of Sampled Component Spectra: 1
Spectrometers: USB2+H05261
Integration Time (usec): 100000 (USB2+H05261)
Spectra Averaged: 1 (USB2+H05261)
Boxcar Smoothing: 0 (USB2+H05261)
Correct for Electrical Dark: No (USB2+H05261)
Strobe/Lamp Enabled: No (USB2+H05261)
Correct for Detector Non-linearity: No (USB2+H05261)
Correct for Stray Light: No (USB2+H05261)
Number of Pixels in Processed Spectrum: 2048
>>>>>Begin Processed Spectral Data<<<<<
365.73	159.16
365.92	159.16
366.12	159.16
366.32	72.56
366.52	49.15
366.72	32.77
366.91	56.17
367.11	21.06
367.31	7.02
367.51	9.36
367.70	49.15
367.90	63.19
368.10	0.00
368.30	84.26
368.49	0.00
368.69	81.92
368.89	65.54
369.09	32.77
369.28	74.90
369.48	42.13
369.68	53.83
369.87	51.49
370.07	121.71
370.27	70.22
370.47	173.20
370.66	367.46
370.86	376.83
371.06	442.36
371.25	407.25
371.45	500.87
371.65	411.93
371.84	407.25
372.04	440.02
372.24	418.96
372.44	519.60
372.63	407.25
372.83	533.64
373.03	482.15
373.22	559.39
373.42	369.80
373.62	503.22
373.81	543.00
374.01	601.52
374.21	578.11
374.40	615.56
374.60	606.20
374.79	631.94
374.99	554.71
375.19	571.09
375.38	660.03
375.58	601.52
375.78	601.52
375.97	578.11
376.17	678.76
376.37	613.22
376.56	657.69
376.76	571.09
376.95	580.45
377.15	634.29
377.35	592.16
377.54	603.86
377.74	587.47
377.93	610.88
378.13	685.78
378.33	641.31
378.52	559.39
378.72	622.58
378.91	685.78
379.11	568.75
379.31	671.73
379.50	596.84
379.70	624.92
379.89	685.78
380.09	641.31
380.28	603.86
380.48	641.31
380.68	699.82
380.87	664.71
381.07	788.76
381.26	774.72
381.46	744.29
381.65	713.86
381.85	781.74
382.04	730.25
382.24	702.16
382.43	657.69
382.63	713.86
382.83	685.78
383.02	662.37
383.22	713.86
383.41	763.01
383.61	711.52
383.80	807.48
384.00	786.42
384.19	737.27
384.39	770.04
384.58	805.14
384.78	814.51
384.97	770.04
385.17	760.67
385.36	760.67
385.56	758.33
385.75	830.89
385.95	723.23
386.14	856.64
386.34	833.23
386.53	891.74
386.72	814.51
386.92	866.00
387.11	854.30
387.31	908.13
387.50	828.55
387.70	840.25
387.89	896.43
388.09	887.06
388.28	901.11
388.48	952.60
388.67	873.02
388.86	917.49
389.06	924.51
389.25	1006.43
389.45	1090.69
389.64	922.17
389.84	968.98
390.03	976.00
390.22	968.98
390.42	1043.88
390.61	926.85
390.81	1001.75
391.00	994.73
391.19	1034.52
391.39	1046.22
391.58	1078.99
391.78	1095.37
391.97	966.64
392.16	1034.52
392.36	1071.97
392.55	985.37
392.75	1032.18
392.94	950.26
393.13	1043.88
393.33	961.96
393.52	999.41
393.71	1125.80
393.91	1076.65
394.10	1128.14
394.29	1135.16
394.49	1149.20
394.68	1165.59
394.88	1144.52
395.07	1263.89
395.26	1128.14
395.46	1210.06
395.65	1226.44
395.84	1287.29
396.04	1181.97
396.23	1193.67
396.42	1104.73
396.62	1153.88
396.81	1228.78
397.00	1188.99
397.19	1254.53
397.39	1327.08
397.58	1341.13
397.77	1439.43
397.97	1441.77
398.16	1404.32
398.35	1420.71
398.55	1425.39
398.74	1413.68
398.93	1547.09
399.12	1441.77
399.32	1516.67
399.51	1476.88
399.70	1577.52
399.90	1495.60
400.09	1516.67
400.28	1603.27
400.47	1565.82
400.67	1600.93
400.86	1657.10
401.05	1631.35
401.24	1652.42
401.44	1614.97
401.63	1708.59
401.82	1584.54
402.01	1621.99
402.21	1692.21
402.40	1675.82
402.59	1750.72
402.78	1743.70
402.97	1575.18
403.17	1671.14
403.36	1757.74
403.55	1734.34
403.74	1914.56
403.93	1820.94
404.13	1952.01
404.32	1825.62
404.51	1842.00
404.70	1844.34
404.89	1877.11
405.09	1928.60
405.28	1933.28
405.47	1975.41
405.66	1870.09
405.85	1956.69
406.05	1895.83
406.24	1926.26
406.43	1980.09
406.62	2064.35
406.81	2179.04
407.00	2024.56
407.20	1888.81
407.39	2092.44
407.58	2054.99
407.77	2157.97
407.96	2134.57
408.15	2193.08
408.34	2139.25
408.54	2305.43
408.73	2275.00
408.92	2279.68
409.11	2324.15
409.30	2345.22
409.49	2218.83
409.68	2157.97
409.87	2200.10
410.07	2361.60
410.26	2324.15
410.45	2312.45
410.64	2394.37
410.83	2396.71
411.02	2464.58
411.21	2565.23
411.40	2450.54
411.59	2609.70
411.78	2567.57
411.98	2597.99
412.17	2572.25
412.36	2628.42
412.55	2619.06
412.74	2724.38
412.93	2703.32
413.12	2551.18
413.31	2897.58
413.50	2771.19
413.69	2759.49
413.88	2920.99
414.07	2843.75
414.26	2885.88
414.45	2876.52
414.64	2958.44
414.83	2944.39
415.02	3166.74
415.22	3028.65
415.41	3019.29
415.60	2967.80
415.79	3103.55
415.98	3208.87
416.17	3155.04
416.36	3229.94
416.55	3178.45
416.74	3169.09
416.93	3183.13
417.12	3274.41
417.31	3295.47
417.50	3218.24
417.69	3353.99
417.88	3346.97
418.07	3346.97
418.26	3466.33
418.45	3473.36
418.64	3550.59
418.83	3538.89
419.02	3478.04
419.21	3431.23
419.39	3447.61
419.58	3459.31
419.77	3569.32
419.96	3541.23
420.15	3728.47
420.34	3747.20
420.53	3700.39
420.72	3597.40
420.91	3730.81
421.10	3702.73
421.29	3859.54
421.48	3618.47
421.67	3770.60
421.86	3679.32
422.05	3744.86
422.24	3702.73
422.43	3772.94
422.61	3775.28
422.80	3836.14
422.99	3847.84
423.18	3941.46
423.37	4002.32
423.56	3896.99
423.75	3878.27
423.94	3868.91
424.13	3545.91
424.32	3658.26
424.50	3889.97
424.69	3957.85
424.88	3922.74
425.07	3779.97
425.26	3784.65
425.45	3871.25
425.64	3784.65
425.83	3915.72
426.01	3976.57
426.20	3871.25
426.39	3983.59
426.58	3845.50
426.77	3857.20
426.96	4025.72
427.15	4044.45
427.33	4067.85
427.52	3995.29
427.71	3922.74
427.90	4021.04
428.09	3971.89
428.28	4067.85
428.46	4074.87
428.65	4086.58
428.84	4161.47
429.03	4252.75
429.22	4114.66
429.40	4088.92
429.59	4161.47
429.78	3960.19
429.97	3871.25
430.16	3983.59
430.34	4109.98
430.53	4149.77
430.72	4173.18
430.91	4138.07
431.10	4337.01
431.28	4344.03
431.47	4564.04
431.66	4564.04
431.85	4348.72
432.03	4596.81
432.22	4606.17
432.41	4550.00
432.60	4664.69
432.79	4608.51
432.97	4814.48
433.16	4734.90
433.35	4620.22
433.54	4599.15
433.72	4678.73
433.91	4648.30
434.10	4697.46
434.28	4842.57
434.47	4660.01
434.66	4917.47
434.85	4945.55
435.03	4849.59
435.22	4786.40
435.41	5062.58
435.59	4940.87
435.78	4894.06
435.97	4990.02
436.16	5039.17
436.34	5071.94
436.53	5027.47
436.72	5280.25
436.90	4966.62
437.09	5008.75
437.28	5055.56
437.46	5172.58
437.65	5226.42
437.84	5078.96
438.02	5093.01
438.21	4966.62
438.40	5027.47
438.58	5280.25
438.77	5254.50
438.96	5549.41
439.14	5490.90
439.33	5425.36
439.52	5462.81
439.70	5462.81
439.89	5617.29
440.08	5500.26
440.26	5497.92
440.45	5657.07
440.63	5746.02
440.82	5905.17
441.01	5771.76
441.19	6040.92
441.38	6111.14
441.57	5916.87
441.75	5935.60
441.94	6127.52
442.12	6118.16
442.31	6265.61
442.50	6256.25
442.68	6228.17
442.87	6090.07
443.05	6286.68
443.24	6417.75
443.43	6356.90
443.61	6321.79
443.80	6520.73
443.98	6279.66
444.17	6277.32
444.35	6406.05
444.54	6555.84
444.73	6506.69
444.91	6560.52
445.10	6480.94
445.28	6373.28
445.47	6408.39
445.65	6429.45
445.84	6399.02
446.02	6399.02
446.21	6506.69
446.39	6408.39
446.58	6626.06
446.77	6539.46
446.95	6424.77
447.14	6715.00
447.32	6782.87
447.51	6438.81
447.69	6548.82
447.88	6579.25
448.06	6562.86
448.25	6483.28
448.43	6640.10
448.62	6736.06
448.80	6583.93
448.99	6654.14
449.17	6785.21
449.36	6597.97
449.54	6698.61
449.73	6899.90
449.91	7007.56
450.10	7157.36
450.28	7087.14
450.46	7002.88
450.65	7133.95
450.83	7377.37
451.02	7087.14
451.20	7122.25
451.39	7295.45
451.57	7250.98
451.76	6967.77
451.94	7211.19
452.13	7194.81
452.31	7145.66
452.49	7019.27
452.68	7255.66
452.86	7164.38
453.05	7166.72
453.23	7316.51
453.42	7246.30
453.60	7407.80
453.78	7243.96
453.97	7246.30
454.15	7368.01
454.34	7201.83
454.52	7260.34
454.70	7475.67
454.89	7403.11
455.07	7473.33
455.26	7449.93
455.44	7555.25
455.62	7623.12
455.81	7632.49
455.99	7410.14
456.17	7585.68
456.36	7801.01
456.54	7791.64
456.73	7889.95
456.91	7981.23
457.09	7955.48
457.28	8074.85
457.46	7906.33
457.64	8093.57
457.83	7981.23
458.01	7957.82
458.19	7967.18
458.38	7932.08
458.56	8105.28
458.74	8163.79
458.93	7985.91
459.11	8175.49
459.29	8091.23
459.48	8252.73
459.66	8271.45
459.84	8287.84
460.03	8339.33
460.21	8278.47
460.39	8463.38
460.57	8355.71
460.76	8446.99
460.94	8414.23
461.12	8524.23
461.31	8500.83
461.49	8411.89
461.67	8456.36
461.85	8751.26
462.04	8826.16
462.22	9312.99
462.40	8840.20
462.59	8744.24
462.77	8889.35
462.95	8975.95
463.13	8800.41
463.32	8730.20
463.50	8669.34
463.68	8877.65
463.86	9067.24
464.05	8945.53
464.23	8936.17
464.41	9060.21
464.59	9100.00
464.78	9118.73
464.96	8966.59
465.14	8685.73
465.32	9090.64
465.50	9158.52
465.69	9034.47
465.87	9020.42
466.05	9015.74
466.23	8870.63
466.41	8933.82
466.60	9142.13
466.78	9071.92
466.96	9224.05
467.14	9156.18
467.32	9254.48
467.51	9390.23
467.69	9041.49
467.87	9226.39
468.05	9563.43
468.23	9217.03
468.41	9149.15
468.60	9392.57
468.78	9366.82
468.96	9305.97
469.14	9427.68
469.32	9795.14
469.50	9235.75
469.69	9488.53
469.87	9664.07
470.05	9687.48
470.23	9741.31
470.41	9584.49
470.59	9942.60
470.77	9624.28
470.95	9767.06
471.14	9785.78
471.32	9703.86
471.50	10272.61
471.68	9998.77
471.86	10253.89
472.04	10368.57
472.22	10401.34
472.40	10345.17
472.58	10022.17
472.77	10328.78
472.95	10429.43
473.13	10934.98
473.31	10530.07
473.49	10225.80
473.67	10548.79
473.85	10539.43
474.03	10644.76
474.21	10913.92
474.39	10888.17
474.57	11035.63
474.75	10979.45
474.93	10869.45
475.12	11180.74
475.30	11052.01
475.48	10874.13
475.66	11112.86
475.84	11375.00
476.02	11351.60
476.20	11360.96
476.38	11311.81
476.56	11892.26
476.74	11550.54
476.92	11618.42
477.10	11580.97
477.28	11922.69
477.46	11913.33
477.64	11927.37
477.82	12011.63
478.00	12379.09
478.18	12535.91
478.36	12278.45
478.54	12390.80
478.72	12496.12
478.90	12664.64
479.08	12805.07
479.26	12936.14
479.44	12910.40
479.62	13146.79
479.80	13221.69
479.98	13329.35
480.16	13415.95
480.34	13308.29
480.52	13479.15
480.70	13610.22
480.88	13593.83
481.06	13678.09
481.24	13666.39
481.41	13902.78
481.59	14022.15
481.77	14225.78
481.95	14258.54
482.13	14258.54
482.31	14518.34
482.49	14820.27
482.67	14824.95
482.85	14853.04
483.03	14892.83
483.21	14773.46
483.39	15239.23
483.57	14913.89
483.74	15325.83
483.92	15379.66
484.10	15311.78
484.28	15625.42
484.46	15875.85
484.64	16304.17
484.82	15822.02
485.00	16077.14
485.18	16042.03
485.35	16463.33
485.53	15824.36
485.71	15803.30
485.89	16180.12
486.07	16229.27
486.25	16423.54
486.43	16475.03
486.61	16603.76
486.78	16896.33
486.96	17128.04
487.14	17298.90
487.32	17357.41
487.50	18024.47
487.68	17696.79
487.85	17923.82
488.03	18218.73
488.21	18452.78
488.39	18295.97
488.57	18616.62
488.75	18618.96
488.92	18906.85
489.10	19073.03
489.28	19267.29
489.46	19386.66
489.64	19440.49
489.81	20093.50
489.99	19974.13
490.17	20226.91
490.35	20032.65
490.53	19983.49
490.70	19796.25
490.88	20201.16
491.06	20350.96
491.24	20269.04
491.41	20535.86
491.59	20549.90
491.77	20680.97
491.95	20755.87
492.13	21120.99
492.30	21130.36
492.48	21465.05
492.66	21788.05
492.84	21617.19
493.01	21830.18
493.19	21774.00
493.37	21642.93
493.54	21914.44
493.72	22534.68
493.90	22169.55
494.08	22696.17
494.25	22761.71
494.43	23009.81
494.61	23281.31
494.79	22979.38
494.96	23281.31
495.14	23194.71
495.32	23218.11
495.49	23381.95
495.67	23571.54
495.85	23627.71
496.02	23878.15
496.20	24030.28
496.38	24154.33
496.55	24524.13
496.73	24765.21
496.91	24449.24
497.09	24622.44
497.26	24830.74
497.44	24830.74
497.62	24929.05
497.79	25083.52
497.97	24971.18
498.14	25226.29
498.32	25453.33
498.50	25788.02
498.67	25764.62
498.85	25881.64
499.03	25656.95
499.20	25818.45
499.38	25841.85
499.56	25717.81
499.73	26473.80
499.91	26185.91
500.08	26195.28
500.26	25928.45
500.44	26169.53
500.61	26478.48
500.79	26263.15
500.97	26321.66
501.14	26747.64
501.32	26644.66
501.49	26944.25
501.67	27014.46
501.84	27164.26
502.02	27384.27
502.20	27477.89
502.37	27580.87
502.55	27590.24
502.72	27281.28
502.90	27693.22
503.07	27585.55
503.25	27637.05
503.43	27796.20
503.60	27859.40
503.78	27814.93
503.95	27838.33
504.13	27953.02
504.30	28297.08
504.48	28210.48
504.65	28643.48
504.83	28797.95
505.01	28978.17
505.18	28922.00
505.36	28982.85
505.53	28753.48
505.71	29362.02
505.88	29429.90
506.06	28678.58
506.23	29219.25
506.41	29167.76
506.58	29528.20
506.76	29399.47
506.93	29614.80
507.11	29996.31
507.28	29432.24
507.46	29680.33
507.63	29539.90
507.81	29727.14
507.98	29748.21
508.16	29820.77
508.33	30288.87
508.50	30204.61
508.68	30443.35
508.85	30480.80
509.03	30623.57
509.20	30508.88
509.38	30752.30
509.55	30766.34
509.73	30611.87
509.90	31133.81
510.08	30972.31
510.25	31482.55
510.42	31112.74
510.60	31620.64
510.77	31667.45
510.95	31952.99
511.12	31414.67
511.30	31536.38
511.47	32137.90
511.64	32048.96
511.82	32004.49
511.99	32039.59
512.17	32088.74
512.34	31697.88
512.51	32156.62
512.69	32245.56
512.86	32292.37
513.04	32404.72
513.21	32205.77
513.38	32470.25
513.56	32769.84
513.73	32488.98
513.90	32360.25
514.08	32589.62
514.25	32790.91
514.43	32346.20
514.60	33010.92
514.77	33221.56
514.95	33441.57
515.12	33104.54
515.29	33249.65
515.47	33865.21
515.64	33926.07
515.81	33502.43
515.99	33523.49
516.16	33172.41
516.33	33390.08
516.51	33497.75
516.68	32769.84
516.85	32701.96
517.03	33523.49
517.20	33474.34
517.37	33897.98
517.54	34017.35
517.72	33694.35
517.89	33553.92
518.06	33654.56
518.24	33895.64
518.41	33928.41
518.58	33933.09
518.75	34164.80
518.93	34162.46
519.10	34082.88
519.27	34593.12
519.45	34387.15
519.62	34972.28
519.79	34771.00
519.96	34998.03
520.14	34958.24
520.31	34574.39
520.48	35166.55
520.65	35250.81
520.83	35182.93
521.00	35571.46
521.17	35601.89
521.34	35730.62
521.52	35835.94
521.69	35754.02
521.86	35681.47
522.03	35793.81
522.20	35669.76
522.38	36236.17
522.55	35868.71
522.72	35604.23
522.89	36467.89
523.07	36498.31
523.24	35985.74
523.41	36453.84
523.58	36598.96
523.75	37230.90
523.92	36620.02
524.10	36811.95
524.27	36744.07
524.44	36793.22
524.61	36872.80
524.78	37071.75
524.96	37376.01
525.13	37090.47
525.30	37481.34
525.47	36790.88
525.64	37249.63
525.81	37450.91
525.98	37268.35
526.16	37064.72
526.33	36875.14
526.50	36996.85
526.67	36844.71
526.84	36966.42
527.01	37092.81
527.18	37731.78
527.36	37900.29
527.53	37614.75
527.70	38270.10
527.87	38066.47
528.04	38024.34
528.21	38347.34
528.38	38354.36
528.55	38866.94
528.72	38181.16
528.89	38969.92
529.07	38333.29
529.24	38204.56
529.41	38667.99
529.58	38162.43
529.75	37921.36
529.92	39054.18
530.09	39246.10
530.26	38925.45
530.43	38955.88
530.60	38618.84
530.77	39131.42
530.94	39138.44
531.11	38656.29
531.28	39051.84
531.46	39356.11
531.63	38691.40
531.80	39356.11
531.97	39047.16
532.14	38969.92
532.31	38801.40
532.48	38742.89
532.65	39468.45
532.82	39220.36
532.99	39196.95
533.16	39295.25
533.33	39903.79
533.50	39548.03
533.67	39573.78
533.84	39281.21
534.01	39772.72
534.18	39442.71
534.35	40294.66
534.52	39770.38
534.69	39819.53
534.86	39915.50
535.03	40048.91
535.20	40388.28
535.37	40329.77
535.54	40498.29
535.71	40023.16
535.88	40390.62
536.05	40486.59
536.22	40329.77
536.38	40776.81
536.55	40072.31
536.72	40416.37
536.89	39974.01
537.06	40308.71
537.23	40678.51
537.40	40701.92
537.57	40561.48
537.74	40847.03
537.91	41041.29
538.08	41034.27
538.25	40622.34
538.42	41106.83
538.59	40870.43
538.75	40507.65
538.92	40697.24
539.09	40804.90
539.26	41078.74
539.43	40865.75
539.60	40835.33
539.77	40947.67
539.94	41228.54
540.11	41081.08
540.28	41551.53
540.44	41022.57
540.61	41155.98
540.78	41184.07
540.95	41195.77
541.12	41207.47
541.29	41401.74
541.46	41682.60
541.62	41364.29
541.79	41535.15
541.96	41319.82
542.13	41675.58
542.30	41502.38
542.47	41242.58
542.63	41265.99
542.80	41706.01
542.97	42057.09
543.14	42167.09
543.31	41956.44
543.48	42241.99
543.64	42146.03
543.81	42911.38
543.98	41895.59
544.15	42284.12
544.32	42864.57
544.48	42794.36
544.65	42890.32
544.82	42712.44
544.99	42440.93
545.16	42670.31
545.32	42422.21
545.49	43267.14
545.66	43107.99
545.83	42459.66
546.00	43089.26
546.16	42944.15
546.33	42497.11
546.50	42763.93
546.67	42607.11
546.83	42698.39
547.00	43023.73
547.17	42410.51
547.34	43005.00
547.50	42890.32
547.67	43023.73
547.84	43079.90
548.00	43346.72
548.17	43421.62
548.34	42934.79
548.51	44002.07
548.67	43398.21
548.84	43381.83
549.01	42927.77
549.18	43295.23
549.34	43430.98
549.51	43419.28
549.68	43639.29
549.84	43107.99
550.01	43608.86
550.18	43512.90
550.34	43470.77
550.51	43540.99
550.68	43665.03
550.84	42869.25
551.01	43658.01
551.18	43683.76
551.34	43672.06
551.51	43938.88
551.68	43519.92
551.84	43894.41
552.01	43646.31
552.18	44011.43
552.34	43700.14
552.51	44280.60
552.68	43959.94
552.84	43955.26
553.01	44315.70
553.18	44060.58
553.34	44381.24
553.51	43805.47
553.67	44023.14
553.84	44414.01
554.01	44381.24
554.17	44203.36
554.34	44348.47
554.51	44121.44
554.67	44519.33
554.84	44355.49
555.00	43992.71
555.17	44435.07
555.33	44406.98
555.50	44428.05
555.67	44554.44
555.83	44243.15
556.00	44556.78
556.16	45247.24
556.33	44409.32
556.50	44512.31
556.66	44655.08
556.83	44296.98
556.99	44961.69
557.16	44713.59
557.32	44755.72
557.49	44847.00
557.65	44341.45
557.82	44659.76
557.98	44722.96
558.15	44751.04
558.32	44708.91
558.48	44538.05
558.65	44247.83
558.81	44439.75
558.98	44760.40
559.14	44411.67
559.31	44783.81
559.47	44786.15
559.64	44832.96
559.80	44849.35
559.97	44748.70
560.13	44591.89
560.30	45193.40
560.46	45069.36
560.63	45457.88
560.79	44987.44
560.96	45869.82
561.12	45045.95
561.29	45022.54
561.45	44809.56
561.61	45195.74
561.78	44921.90
561.94	44636.36
562.11	44788.49
562.27	45111.49
562.44	45055.31
562.60	45198.09
562.77	45102.12
562.93	44664.44
563.10	45350.22
563.26	44942.97
563.42	45474.27
563.59	45155.96
563.75	45258.94
563.92	45429.80
564.08	45074.04
564.24	45584.27
564.41	45144.25
564.57	45392.35
564.74	44814.24
564.90	45359.58
565.07	45329.16
565.23	45720.02
565.39	45167.66
565.56	45408.73
565.72	44952.33
565.88	45352.56
566.05	45186.38
566.21	45092.76
566.38	45179.36
566.54	45448.52
566.70	45649.81
566.87	46138.98
567.03	45507.04
567.19	45827.69
567.36	45181.70
567.52	45504.70
567.68	45427.46
567.85	45162.98
568.01	45528.10
568.17	45404.05
568.34	45928.33
568.50	45654.49
568.66	45331.50
568.83	45296.39
568.99	45312.77
569.15	45069.36
569.32	45567.89
569.48	45336.18
569.64	45502.35
569.81	45368.94
569.97	45663.85
570.13	45504.70
570.30	45469.59
570.46	45167.66
570.62	45256.60
570.78	44858.71
570.95	45120.85
571.11	45340.86
571.27	45448.52
571.43	44933.60
571.60	45872.16
571.76	45741.09
571.92	45429.80
572.09	45420.44
572.25	45813.65
572.41	46021.95
572.57	45478.95
572.74	46237.28
572.90	46061.74
573.06	46021.95
573.22	45954.08
573.38	45911.95
573.55	45535.12
573.71	45855.78
573.87	45722.37
574.03	45935.35
574.20	45787.90
574.36	45600.66
574.52	45764.49
574.68	45703.64
574.84	45846.41
575.01	45631.08
575.17	45539.80
575.33	45333.84
575.49	45448.52
575.65	46103.87
575.82	45624.06
575.98	45659.17
576.14	45715.34
576.30	45830.03
576.46	45897.91
576.62	45158.30
576.79	45177.02
576.95	45294.05
577.11	45696.62
577.27	45801.94
577.43	45415.76
577.59	45666.19
577.75	45546.82
577.92	45373.63
578.08	45095.10
578.24	45537.46
578.40	45488.31
578.56	46101.53
578.72	45869.82
578.88	45954.08
579.04	46021.95
579.21	45523.42
579.37	45537.46
579.53	45696.62
579.69	45860.46
579.85	45785.56
580.01	45862.80
580.17	45888.54
580.33	45586.61
580.49	46094.51
580.65	45621.72
580.82	45668.53
580.98	45778.54
581.14	45872.16
581.30	45579.59
581.46	45872.16
581.62	45600.66
581.78	45965.78
581.94	45968.12
582.10	46195.15
582.26	46033.66
582.42	45708.32
582.58	45914.29
582.74	45619.38
582.90	45642.79
583.06	45855.78
583.22	45830.03
583.38	45832.37
583.54	46007.91
583.70	46010.25
583.86	46059.40
584.02	45691.94
584.18	46085.15
584.34	45808.96
584.50	45668.53
584.66	45893.22
584.82	45577.25
584.98	46384.74
585.14	45890.88
585.30	45801.94
585.46	45546.82
585.62	45394.69
585.78	45911.95
585.94	46031.32
586.10	45560.87
586.26	45418.10
586.42	46316.86
586.58	46021.95
586.74	45659.17
586.90	45895.56
587.06	45666.19
587.22	45935.35
587.38	45867.48
587.54	45881.52
587.70	46162.39
587.86	46220.90
588.02	46066.42
588.18	46036.00
588.34	45846.41
588.49	45469.59
588.65	45034.25
588.81	45418.10
588.97	45872.16
589.13	45502.35
589.29	45811.31
589.45	45436.82
589.61	46057.06
589.77	46129.62
589.93	46052.38
590.08	45813.65
