SpectraSuite Data File
++++++++++++++++++++++++++++++++++++
Date: Fri Oct 25 10:48:09 EDT 2013
User: price-jones
Dark Spectrum Present: No
Reference Spectrum Present: No
Number of Sampled Component Spectra: 1
Spectrometers: USB2+H05261
Integration Time (usec): 100000 (USB2+H05261)
Spectra Averaged: 1 (USB2+H05261)
Boxcar Smoothing: 0 (USB2+H05261)
Correct for Electrical Dark: No (USB2+H05261)
Strobe/Lamp Enabled: No (USB2+H05261)
Correct for Detector Non-linearity: No (USB2+H05261)
Correct for Stray Light: No (USB2+H05261)
Number of Pixels in Processed Spectrum: 2048
>>>>>Begin Processed Spectral Data<<<<<
365.73	65.54
365.92	65.54
366.12	65.54
366.32	32.77
366.52	93.62
366.72	56.17
366.91	0.00
367.11	14.04
367.31	39.79
367.51	7.02
367.70	56.17
367.90	84.26
368.10	4.68
368.30	28.09
368.49	56.17
368.69	0.00
368.89	0.00
369.09	0.00
369.28	105.32
369.48	23.41
369.68	79.58
369.87	60.85
370.07	95.96
370.27	142.77
370.47	248.10
370.66	411.93
370.86	510.24
371.06	379.17
371.25	451.72
371.45	421.30
371.65	461.09
371.84	500.87
372.04	465.77
372.24	510.24
372.44	470.45
372.63	505.56
372.83	521.94
373.03	538.32
373.22	444.70
373.42	531.30
373.62	571.09
373.81	535.98
374.01	533.64
374.21	561.73
374.40	550.03
374.60	603.86
374.79	587.47
374.99	559.39
375.19	603.86
375.38	657.69
375.58	573.43
375.78	653.01
375.97	594.50
376.17	599.18
376.37	535.98
376.56	582.79
376.76	526.62
376.95	561.73
377.15	662.37
377.35	592.16
377.54	624.92
377.74	610.88
377.93	571.09
378.13	641.31
378.33	624.92
378.52	624.92
378.72	653.01
378.91	610.88
379.11	641.31
379.31	660.03
379.50	535.98
379.70	657.69
379.89	669.39
380.09	676.41
380.28	648.33
380.48	713.86
380.68	641.31
380.87	627.26
381.07	678.76
381.26	723.23
381.46	669.39
381.65	620.24
381.85	655.35
382.04	683.44
382.24	674.07
382.43	648.33
382.63	697.48
382.83	676.41
383.02	690.46
383.22	657.69
383.41	655.35
383.61	730.25
383.80	758.33
384.00	777.06
384.19	732.59
384.39	781.74
384.58	763.01
384.78	821.53
384.97	770.04
385.17	744.29
385.36	774.72
385.56	837.91
385.75	720.88
385.95	791.10
386.14	772.38
386.34	744.29
386.53	800.46
386.72	727.91
386.92	835.57
387.11	814.51
387.31	772.38
387.50	704.50
387.70	732.59
387.89	807.48
388.09	849.61
388.28	732.59
388.48	856.64
388.67	922.17
388.86	863.66
389.06	891.74
389.25	826.21
389.45	901.11
389.64	933.87
389.84	954.94
390.03	919.83
390.22	929.19
390.42	877.70
390.61	851.96
390.81	826.21
391.00	912.81
391.19	919.83
391.39	903.45
391.58	980.68
391.78	976.00
391.97	1013.45
392.16	917.49
392.36	1036.86
392.55	994.73
392.75	880.04
392.94	929.19
393.13	919.83
393.33	994.73
393.52	1039.20
393.71	1095.37
393.91	961.96
394.10	973.66
394.29	1025.15
394.49	1022.81
394.68	1090.69
394.88	1104.73
395.07	1146.86
395.26	1123.46
395.46	1036.86
395.65	1121.12
395.84	1043.88
396.04	1123.46
396.23	1088.35
396.42	1165.59
396.62	1069.62
396.81	1158.57
397.00	1146.86
397.19	1200.69
397.39	1205.38
397.58	1275.59
397.77	1153.88
397.97	1174.95
398.16	1191.33
398.35	1245.16
398.55	1242.82
398.74	1268.57
398.93	1287.29
399.12	1299.00
399.32	1352.83
399.51	1210.06
399.70	1380.92
399.90	1432.41
400.09	1390.28
400.28	1434.75
400.47	1373.89
400.67	1439.43
400.86	1369.21
401.05	1394.96
401.24	1570.50
401.44	1500.28
401.63	1528.37
401.82	1423.05
402.01	1406.66
402.21	1528.37
402.40	1497.94
402.59	1575.18
402.78	1486.24
402.97	1561.14
403.17	1636.03
403.36	1556.46
403.55	1544.75
403.74	1589.22
403.93	1605.61
404.13	1614.97
404.32	1650.08
404.51	1631.35
404.70	1678.16
404.89	1619.65
405.09	1790.51
405.28	1631.35
405.47	1715.61
405.66	1776.47
405.85	1778.81
406.05	1673.48
406.24	1666.46
406.43	1769.44
406.62	1851.36
406.81	1790.51
407.00	1774.13
407.20	1673.48
407.39	1809.23
407.58	1715.61
407.77	1834.98
407.96	1895.83
408.15	1900.52
408.34	1905.20
408.54	1982.43
408.73	1994.14
408.92	1980.09
409.11	1968.39
409.30	2153.29
409.49	1982.43
409.68	2017.54
409.87	2087.76
410.07	1989.46
410.26	1994.14
410.45	2169.68
410.64	2080.74
410.83	2181.38
411.02	2134.57
411.21	2232.87
411.40	2186.06
411.59	2256.28
411.78	2286.70
411.98	2284.36
412.17	2282.02
412.36	2326.49
412.55	2342.88
412.74	2300.75
412.93	2385.01
413.12	2321.81
413.31	2487.99
413.50	2452.88
413.69	2401.39
413.88	2558.21
414.07	2422.45
414.26	2553.52
414.45	2553.52
414.64	2595.65
414.83	2649.49
415.02	2560.55
415.22	2654.17
415.41	2750.13
415.60	2773.53
415.79	2822.69
415.98	2782.90
416.17	2885.88
416.36	2675.23
416.55	2949.08
416.74	2796.94
416.93	2775.88
417.12	2895.24
417.31	2850.77
417.50	2857.79
417.69	3042.70
417.88	2928.01
418.07	2972.48
418.26	3014.61
418.45	3063.76
418.64	3173.77
418.83	3082.49
419.02	3129.30
419.21	3075.46
419.39	3089.51
419.58	3080.14
419.77	3112.91
419.96	3157.38
420.15	3112.91
420.34	3220.58
420.53	3248.66
420.72	3297.81
420.91	3288.45
421.10	3431.23
421.29	3325.90
421.48	3346.97
421.67	3393.78
421.86	3358.67
422.05	3365.69
422.24	3361.01
422.43	3419.52
422.61	3403.14
422.80	3424.20
422.99	3321.22
423.18	3431.23
423.37	3466.33
423.56	3510.80
423.75	3557.61
423.94	3288.45
424.13	3260.37
424.32	3208.87
424.50	3454.63
424.69	3442.93
424.88	3471.01
425.07	3438.25
425.26	3487.40
425.45	3410.16
425.64	3456.97
425.83	3487.40
426.01	3510.80
426.20	3471.01
426.39	3417.18
426.58	3503.78
426.77	3466.33
426.96	3468.67
427.15	3541.23
427.33	3569.32
427.52	3597.40
427.71	3684.00
427.90	3651.24
428.09	3599.74
428.28	3702.73
428.46	3733.15
428.65	3747.20
428.84	3885.29
429.03	3660.60
429.22	3639.53
429.40	3805.71
429.59	3721.45
429.78	3698.05
429.97	3501.44
430.16	3660.60
430.34	3684.00
430.53	3810.39
430.72	3840.82
430.91	3824.44
431.10	3911.04
431.28	3936.78
431.47	4004.66
431.66	4016.36
431.85	3985.93
432.03	4109.98
432.22	4173.18
432.41	4098.28
432.60	4077.21
432.79	4212.96
432.97	4301.90
433.16	4135.73
433.35	4234.03
433.54	4208.28
433.72	4266.80
433.91	4236.37
434.10	4222.33
434.28	4259.78
434.47	4287.86
434.66	4318.29
434.85	4245.73
435.03	4461.06
435.22	4304.25
435.41	4564.04
435.59	4538.30
435.78	4500.85
435.97	4631.92
436.16	4573.41
436.34	4432.97
436.53	4559.36
436.72	4741.93
436.90	4449.36
437.09	4641.28
437.28	4571.07
437.46	4564.04
437.65	4603.83
437.84	4781.71
438.02	4613.20
438.21	4692.77
438.40	4622.56
438.58	4765.33
438.77	4748.95
438.96	4875.34
439.14	4917.47
439.33	4905.76
439.52	5050.88
439.70	4933.85
439.89	5067.26
440.08	5008.75
440.26	5083.64
440.45	5067.26
440.63	5177.26
440.82	5301.31
441.01	5132.79
441.19	5238.12
441.38	5500.26
441.57	5359.83
441.75	5352.81
441.94	5511.96
442.12	5352.81
442.31	5746.02
442.50	5610.26
442.68	5584.52
442.87	5584.52
443.05	5692.18
443.24	5624.31
443.43	5591.54
443.61	5706.23
443.80	5783.46
443.98	5516.64
444.17	5633.67
444.35	5738.99
444.54	5832.62
444.73	5659.42
444.91	5827.93
445.10	5720.27
445.28	5734.31
445.47	5605.58
445.65	5788.14
445.84	5851.34
446.02	5867.72
446.21	5881.77
446.39	5731.97
446.58	5991.77
446.77	5863.04
446.95	5781.12
447.14	5795.17
447.32	6045.60
447.51	5823.25
447.69	5790.49
447.88	5839.64
448.06	6040.92
448.25	5692.18
448.43	5937.94
448.62	5750.70
448.80	6008.16
448.99	6024.54
449.17	6141.57
449.36	5905.17
449.54	6200.08
449.73	6263.27
449.91	6150.93
450.10	6193.06
450.28	6225.82
450.46	6272.64
450.65	6225.82
450.83	6258.59
451.02	6031.56
451.20	6349.87
451.39	6445.84
451.57	6289.02
451.76	6284.34
451.94	6504.35
452.13	6300.72
452.31	6377.96
452.49	6230.51
452.68	6333.49
452.86	6349.87
453.05	6445.84
453.23	6459.88
453.42	6382.64
453.60	6494.99
453.78	6464.56
453.97	6595.63
454.15	6537.12
454.34	6509.03
454.52	6796.92
454.70	6581.59
454.89	6794.58
455.07	6562.86
455.26	6745.42
455.44	6799.26
455.62	6736.06
455.81	6705.63
455.99	6991.18
456.17	6878.83
456.36	6885.86
456.54	7047.35
456.73	7068.42
456.91	7129.27
457.09	7110.55
457.28	7328.22
457.46	6930.33
457.64	7131.61
457.83	7194.81
458.01	7009.90
458.19	7304.81
458.38	7098.84
458.56	7330.56
458.74	7098.84
458.93	7297.79
459.11	7351.62
459.29	7262.68
459.48	7412.48
459.66	7325.88
459.84	7389.07
460.03	7529.50
460.21	7510.78
460.39	7513.12
460.57	7440.56
460.76	7339.92
460.94	7653.55
461.12	7618.44
461.31	7503.76
461.49	7730.79
461.67	7573.97
461.85	7861.86
462.04	7712.07
462.22	8163.79
462.40	7906.33
462.59	7960.16
462.77	7850.16
462.95	7854.84
463.13	7786.96
463.32	7782.28
463.50	7964.84
463.68	8182.51
463.86	7892.29
464.05	7826.75
464.23	8037.40
464.41	8109.96
464.59	8025.70
464.78	8205.92
464.96	8002.29
465.14	8053.78
465.32	8058.46
465.50	8009.31
465.69	8163.79
465.87	8248.05
466.05	8166.13
466.23	8175.49
466.41	8280.82
466.60	8393.16
466.78	8159.11
466.96	8212.94
467.14	8306.56
467.32	8234.00
467.51	8514.87
467.69	8184.85
467.87	8451.67
468.05	8547.64
468.23	8177.83
468.41	8486.78
468.60	8578.06
468.78	8578.06
468.96	8463.38
469.14	8727.86
469.32	8681.05
469.50	8465.72
469.69	8688.07
469.87	8791.05
470.05	8755.94
470.23	8971.27
470.41	8847.22
470.59	8924.46
470.77	8828.50
470.95	8936.17
471.14	8968.93
471.32	8685.73
471.50	9095.32
471.68	9076.60
471.86	9240.44
472.04	9294.27
472.22	9284.91
472.40	9247.46
472.58	9170.22
472.77	9394.91
472.95	9301.29
473.13	9591.52
473.31	9343.42
473.49	9460.45
473.67	9551.73
473.85	9542.36
474.03	9858.34
474.21	9635.99
474.39	9811.53
474.57	9696.84
474.75	9921.53
474.93	9905.15
475.12	10008.13
475.30	10113.45
475.48	9860.68
475.66	10176.65
475.84	10108.77
476.02	10239.84
476.20	10171.97
476.38	10464.54
476.56	10670.50
476.74	10581.56
476.92	10494.96
477.10	10429.43
477.28	10853.06
477.46	10956.05
477.64	11101.16
477.82	10934.98
478.00	11133.93
478.18	11300.11
478.36	11307.13
478.54	11358.62
478.72	11222.87
478.90	11555.22
479.08	11873.54
479.26	11676.93
479.44	11885.24
479.62	11936.73
479.80	11913.33
479.98	11983.54
480.16	12421.22
480.34	12112.27
480.52	12404.84
480.70	12259.73
480.88	12226.96
481.06	12056.10
481.24	12582.72
481.41	12685.70
481.59	12884.65
481.77	12987.63
481.95	13020.40
482.13	12854.22
482.31	13027.42
482.49	13226.37
482.67	13294.24
482.85	13399.57
483.03	13706.18
483.21	13633.62
483.39	13935.55
483.57	13696.82
483.74	13823.20
483.92	13900.44
484.10	14092.37
484.28	14321.74
484.46	14375.57
484.64	14656.43
484.82	14267.91
485.00	14682.18
485.18	14897.51
485.35	15054.33
485.53	15035.60
485.71	14721.97
485.89	15407.75
486.07	15049.64
486.25	15342.21
486.43	15211.14
486.61	15522.43
486.78	15641.80
486.96	15599.67
487.14	16126.29
487.32	15950.75
487.50	16343.96
487.68	16250.34
487.85	16313.53
488.03	16578.01
488.21	16451.63
488.39	16762.92
488.57	17041.44
488.75	16823.77
488.92	17415.93
489.10	17362.09
489.28	17539.97
489.46	17818.50
489.64	17905.10
489.81	18270.22
489.99	18115.75
490.17	18270.22
490.35	18253.84
490.53	18202.35
490.70	18501.93
490.88	18513.64
491.06	19101.11
491.24	18743.01
491.41	19080.05
491.59	18878.76
491.77	19075.37
491.95	19007.49
492.13	19407.72
492.30	19365.59
492.48	19627.73
492.66	19726.04
492.84	19735.40
493.01	19882.85
493.19	20046.69
493.37	20100.52
493.54	20262.02
493.72	20519.48
493.90	20706.72
494.08	20704.38
494.25	20821.41
494.43	20872.90
494.61	21083.55
494.79	21149.08
494.96	21277.81
495.14	21151.42
495.32	21418.24
495.49	21633.57
495.67	21563.36
495.85	21687.40
496.02	22052.53
496.20	22223.39
496.38	22031.46
496.55	22005.72
496.73	22761.71
496.91	22602.55
497.09	22434.03
497.26	22487.87
497.44	22719.58
497.62	22752.35
497.79	23082.36
497.97	22986.40
498.14	23367.91
498.32	23506.00
498.50	23391.31
498.67	23594.94
498.85	23716.65
499.03	23538.77
499.20	23578.56
499.38	23772.82
499.56	24166.03
499.73	24329.87
499.91	24245.61
500.08	24119.22
500.26	24276.04
500.44	24395.40
500.61	24482.00
500.79	24322.85
500.97	24446.90
501.14	25015.65
501.32	24592.01
501.49	24999.26
501.67	24975.86
501.84	25109.27
502.02	25113.95
502.20	25181.82
502.37	25486.09
502.55	25458.01
502.72	25537.59
502.90	25572.69
503.07	25287.15
503.25	25790.36
503.43	25617.16
503.60	26169.53
503.78	26284.22
503.95	25951.86
504.13	25954.20
504.30	26518.27
504.48	26164.85
504.65	26331.03
504.83	26792.11
505.01	26635.30
505.18	26511.25
505.36	27197.02
505.53	26913.82
505.71	26705.51
505.88	27023.83
506.06	26869.35
506.23	27206.39
506.41	27119.79
506.58	27037.87
506.76	27407.67
506.93	27644.07
507.11	27597.26
507.28	27709.60
507.46	27363.20
507.63	27407.67
507.81	27714.28
507.98	27709.60
508.16	27936.63
508.33	27988.13
508.50	27906.21
508.68	28137.92
508.85	28308.78
509.03	28315.80
509.20	28273.67
509.38	29015.62
509.55	29020.30
509.73	28692.63
509.90	28896.25
510.08	28657.52
510.25	28891.57
510.42	28762.84
510.60	29228.61
510.77	28737.10
510.95	29659.27
511.12	29401.81
511.30	29259.04
511.47	29685.01
511.64	29610.12
511.82	29558.63
511.99	29832.47
512.17	29956.52
512.34	29752.89
512.51	30047.80
512.69	30029.07
512.86	30396.54
513.04	30508.88
513.21	30410.58
513.38	29977.58
513.56	30583.78
513.73	30590.80
513.90	30497.18
514.08	30384.83
514.25	30686.76
514.43	30658.68
514.60	30838.90
514.77	30672.72
514.95	31211.04
515.12	30539.31
515.29	31431.05
515.47	31379.56
515.64	31571.49
515.81	31082.31
515.99	31218.07
516.16	31545.74
516.33	30888.05
516.51	31349.14
516.68	31503.61
516.85	31372.54
517.03	31573.83
517.20	31681.49
517.37	31372.54
517.54	31798.52
517.72	32168.32
517.89	31826.60
518.06	31749.37
518.24	31831.29
518.41	31838.31
518.58	32247.90
518.75	32088.74
518.93	32940.70
519.10	32500.68
519.27	32432.80
519.45	32231.52
519.62	32940.70
519.79	32989.85
519.96	33132.62
520.14	32959.42
520.31	32671.54
520.48	33500.09
520.65	32818.99
520.83	33738.82
521.00	33493.07
521.17	33034.32
521.34	33731.80
521.52	33572.64
521.69	34010.32
521.86	33687.33
522.03	33750.52
522.20	33525.83
522.38	33984.58
522.55	34171.82
522.72	33961.17
522.89	33596.05
523.07	34003.30
523.24	33949.47
523.41	34061.82
523.58	34277.15
523.75	34518.22
523.92	34377.79
524.10	34450.35
524.27	34539.29
524.44	34817.81
524.61	34733.55
524.78	34403.53
524.96	35051.86
525.13	35147.82
525.30	35229.74
525.47	35325.71
525.64	34881.00
525.81	34932.50
525.98	35215.70
526.16	34902.07
526.33	34974.63
526.50	35395.92
526.67	34525.24
526.84	35157.19
527.01	35079.95
527.18	35433.37
527.36	35431.03
527.53	35552.74
527.70	36240.86
527.87	36271.28
528.04	35438.05
528.21	36058.29
528.38	35873.39
528.55	36259.58
528.72	35892.12
528.89	36149.57
529.07	35833.60
529.24	35796.15
529.41	36271.28
529.58	35849.99
529.75	36198.73
529.92	36587.25
530.09	36671.51
530.26	36491.29
530.43	36940.68
530.60	36233.83
530.77	36397.67
530.94	36765.14
531.11	36706.62
531.28	36641.09
531.46	36947.70
531.63	36697.26
531.80	36804.92
531.97	36872.80
532.14	36708.96
532.31	36210.43
532.48	37010.89
532.65	37280.05
532.82	36868.12
532.99	37212.18
533.16	37074.09
533.33	37277.71
533.50	37799.65
533.67	37469.64
533.84	37310.48
534.01	37647.52
534.18	37528.15
534.35	37797.31
534.52	37532.83
534.69	37809.01
534.86	37879.23
535.03	37752.84
535.20	37902.64
535.37	38031.36
535.54	38122.65
535.71	38017.32
535.88	38010.30
536.05	38089.88
536.22	38267.76
536.38	38216.27
536.55	38307.55
536.72	38115.62
536.89	38124.99
537.06	38124.99
537.23	38274.78
537.40	38487.77
537.57	38436.28
537.74	38356.70
537.91	38660.97
538.08	38789.70
538.25	38146.05
538.42	38485.43
538.59	38958.22
538.75	38436.28
538.92	38415.21
539.09	38595.43
539.26	38998.01
539.43	39402.92
539.60	38880.98
539.77	38609.48
539.94	39349.09
540.11	38789.70
540.28	39292.91
540.44	39007.37
540.61	39138.44
540.78	39070.56
540.95	39365.47
541.12	39178.23
541.29	39117.37
541.46	39147.80
541.62	39548.03
541.79	39746.98
541.96	39065.88
542.13	39643.99
542.30	39683.78
542.47	39702.51
542.63	39328.02
542.80	39751.66
542.97	39859.32
543.14	40231.47
543.31	39924.86
543.48	40332.11
543.64	40573.19
543.81	40086.36
543.98	40275.94
544.15	39920.18
544.32	40545.10
544.48	40479.57
544.65	40662.13
544.82	40486.59
544.99	39962.31
545.16	40156.57
545.32	39962.31
545.49	40905.54
545.66	40666.81
545.83	40655.11
546.00	40676.17
546.16	41006.19
546.33	40720.64
546.50	40725.32
546.67	40753.41
546.83	40610.64
547.00	40870.43
547.17	40893.84
547.34	41132.57
547.50	41139.60
547.67	41347.90
547.84	41233.22
548.00	41481.31
548.17	41404.08
548.34	41111.51
548.51	41455.57
548.67	41666.22
548.84	41759.84
549.01	41425.14
549.18	41621.75
549.34	41383.01
549.51	41486.00
549.68	41556.21
549.84	41633.45
550.01	41680.26
550.18	41493.02
550.34	41748.14
550.51	41200.45
550.68	41471.95
550.84	41319.82
551.01	41965.81
551.18	42012.62
551.34	41371.31
551.51	41804.31
551.68	41951.76
551.84	41933.04
552.01	41874.52
552.18	41970.49
552.34	41596.00
552.51	42230.29
552.68	42087.51
552.84	42113.26
553.01	42394.12
553.18	42445.62
553.34	41951.76
553.51	42270.08
553.67	42127.30
553.84	42141.35
554.01	42391.78
554.17	42382.42
554.34	42543.92
554.51	42445.62
554.67	42586.05
554.84	42462.00
555.00	42464.34
555.17	42270.08
555.33	42611.79
555.50	42394.12
555.67	42682.01
555.83	42492.43
556.00	42656.26
556.16	43098.62
556.33	42925.42
556.50	42588.39
556.66	42806.06
556.83	42632.86
556.99	43274.16
557.16	42777.97
557.32	42951.17
557.49	43112.67
557.65	42520.51
557.82	42770.95
557.98	42869.25
558.15	43072.88
558.32	43138.41
558.48	42899.68
558.65	42920.74
558.81	42738.18
558.98	42768.61
559.14	43196.93
559.31	42682.01
559.47	43217.99
559.64	43782.06
559.80	43269.48
559.97	43009.68
560.13	43192.25
560.30	43168.84
560.46	43217.99
560.63	43136.07
560.79	43470.77
560.96	43737.59
561.12	43409.92
561.29	43395.87
561.45	43182.88
561.61	43349.06
561.78	43533.96
561.94	43264.80
562.11	42948.83
562.27	43203.95
562.44	43646.31
562.60	43971.64
562.77	43746.95
562.93	43557.37
563.10	43674.40
563.26	43056.50
563.42	43641.63
563.59	43269.48
563.75	43489.49
563.92	43445.02
564.08	43414.60
564.24	43606.52
564.41	43782.06
564.57	43873.34
564.74	43124.37
564.90	43700.14
565.07	43625.25
565.23	43800.79
565.39	43955.26
565.56	43765.68
565.72	43576.09
565.88	43580.78
566.05	43571.41
566.21	43552.69
566.38	43297.57
566.54	43667.37
566.70	43955.26
566.87	44233.78
567.03	43966.96
567.19	44329.75
567.36	43882.70
567.52	43489.49
567.68	44055.90
567.85	43615.88
568.01	43922.49
568.17	43812.49
568.34	43903.77
568.50	44037.18
568.66	43784.40
568.83	43875.68
568.99	43475.45
569.15	43927.17
569.32	44009.09
569.48	43545.67
569.64	43814.83
569.81	43910.79
569.97	43749.29
570.13	43913.13
570.30	43854.62
570.46	44116.76
570.62	44067.61
570.78	43571.41
570.95	43798.44
571.11	43929.51
571.27	43955.26
571.43	43981.01
571.60	43849.94
571.76	44126.12
571.92	43955.26
572.09	44116.76
572.25	44395.28
572.41	43882.70
572.57	44079.31
572.74	44512.31
572.90	44170.59
573.06	44194.00
573.22	44474.86
573.38	44236.12
573.55	43871.00
573.71	44030.16
573.87	44013.77
574.03	43899.09
574.20	44540.39
574.36	44488.90
574.52	44219.74
574.68	44107.40
574.84	44048.88
575.01	44119.10
575.17	44292.30
575.33	43737.59
575.49	44023.14
575.65	44458.48
575.82	44711.25
575.98	43807.81
576.14	44800.19
576.30	44236.12
576.46	43976.33
576.62	44175.27
576.79	44395.28
576.95	44402.30
577.11	44018.46
577.27	44430.39
577.43	44259.53
577.59	44205.70
577.75	44116.76
577.92	43786.74
578.08	43859.30
578.24	43849.94
578.40	44161.23
578.56	44121.44
578.72	44334.43
578.88	44339.11
579.04	44549.76
579.21	43920.15
579.37	44266.55
579.53	44189.31
579.69	44105.06
579.85	44591.89
580.01	44069.95
580.17	44301.66
580.33	44568.48
580.49	44666.78
580.65	44444.43
580.82	44912.54
580.98	44289.96
581.14	44519.33
581.30	44676.15
581.46	44327.41
581.62	44325.07
581.78	44687.85
581.94	44893.82
582.10	44184.63
582.26	44832.96
582.42	44594.23
582.58	44376.56
582.74	44669.12
582.90	44474.86
583.06	44411.67
583.22	44423.37
583.38	44589.55
583.54	44472.52
583.70	44112.08
583.86	44289.96
584.02	43784.40
584.18	44336.77
584.34	44666.78
584.50	44348.47
584.66	44058.24
584.82	44032.50
584.98	44399.96
585.14	44538.05
585.30	44481.88
585.46	44580.18
585.62	44563.80
585.78	44353.15
585.94	44299.32
586.10	44098.03
586.26	43969.30
586.42	44243.15
586.58	44507.63
586.74	44325.07
586.90	44123.78
587.06	44488.90
587.22	44582.52
587.38	44243.15
587.54	44725.30
587.70	44577.84
587.86	44715.93
588.02	44556.78
588.18	44760.40
588.34	44215.06
588.49	44194.00
588.65	44481.88
588.81	44608.27
588.97	44285.28
589.13	44589.55
589.29	44603.59
589.45	44896.16
589.61	44889.13
589.77	44676.15
589.93	44374.22
590.08	44662.10
590.24	44601.25
590.40	44327.41
