SpectraSuite Data File
++++++++++++++++++++++++++++++++++++
Date: Fri Oct 25 10:43:51 EDT 2013
User: price-jones
Dark Spectrum Present: No
Reference Spectrum Present: No
Number of Sampled Component Spectra: 1
Spectrometers: USB2+H05261
Integration Time (usec): 100000 (USB2+H05261)
Spectra Averaged: 1 (USB2+H05261)
Boxcar Smoothing: 0 (USB2+H05261)
Correct for Electrical Dark: No (USB2+H05261)
Strobe/Lamp Enabled: No (USB2+H05261)
Correct for Detector Non-linearity: No (USB2+H05261)
Correct for Stray Light: No (USB2+H05261)
Number of Pixels in Processed Spectrum: 2048
>>>>>Begin Processed Spectral Data<<<<<
365.73	152.13
365.92	152.13
366.12	152.13
366.32	65.54
366.52	18.72
366.72	44.47
366.91	86.60
367.11	18.72
367.31	21.06
367.51	60.85
367.70	79.58
367.90	53.83
368.10	0.00
368.30	51.49
368.49	7.02
368.69	18.72
368.89	51.49
369.09	14.04
369.28	37.45
369.48	35.11
369.68	72.56
369.87	117.03
370.07	117.03
370.27	173.20
370.47	255.12
370.66	327.68
370.86	390.87
371.06	433.00
371.25	477.47
371.45	437.68
371.65	484.49
371.84	514.92
372.04	475.13
372.24	465.77
372.44	447.04
372.63	535.98
372.83	425.98
373.03	503.22
373.22	507.90
373.42	491.51
373.62	624.92
373.81	482.15
374.01	540.66
374.21	552.37
374.40	601.52
374.60	535.98
374.79	557.05
374.99	599.18
375.19	531.30
375.38	624.92
375.58	543.00
375.78	599.18
375.97	624.92
376.17	601.52
376.37	599.18
376.56	671.73
376.76	599.18
376.95	596.84
377.15	566.41
377.35	702.16
377.54	568.75
377.74	636.63
377.93	622.58
378.13	608.54
378.33	716.20
378.52	543.00
378.72	606.20
378.91	613.22
379.11	578.11
379.31	601.52
379.50	662.37
379.70	709.18
379.89	699.82
380.09	751.31
380.28	669.39
380.48	653.01
380.68	674.07
380.87	655.35
381.07	634.29
381.26	732.59
381.46	699.82
381.65	720.88
381.85	767.70
382.04	674.07
382.24	711.52
382.43	657.69
382.63	653.01
382.83	634.29
383.02	662.37
383.22	664.71
383.41	709.18
383.61	786.42
383.80	779.40
384.00	854.30
384.19	737.27
384.39	800.46
384.58	788.76
384.78	844.93
384.97	856.64
385.17	767.70
385.36	739.61
385.56	854.30
385.75	788.76
385.95	858.98
386.14	826.21
386.34	896.43
386.53	877.70
386.72	856.64
386.92	861.32
387.11	840.25
387.31	917.49
387.50	800.46
387.70	884.72
387.89	964.30
388.09	849.61
388.28	880.04
388.48	919.83
388.67	915.15
388.86	901.11
389.06	976.00
389.25	936.21
389.45	978.34
389.64	866.00
389.84	999.41
390.03	938.55
390.22	1020.47
390.42	947.92
390.61	1053.24
390.81	1088.35
391.00	1048.56
391.19	1083.67
391.39	1095.37
391.58	1076.65
391.78	1039.20
391.97	1109.41
392.16	1107.07
392.36	1053.24
392.55	1057.92
392.75	1008.77
392.94	1020.47
393.13	957.28
393.33	1011.11
393.52	1055.58
393.71	1022.81
393.91	1060.26
394.10	1186.65
394.29	1111.75
394.49	1231.12
394.68	1249.85
394.88	1217.08
395.07	1247.51
395.26	1287.29
395.46	1207.72
395.65	1270.91
395.84	1308.36
396.04	1266.23
396.23	1294.32
396.42	1231.12
396.62	1188.99
396.81	1151.54
397.00	1252.19
397.19	1291.98
397.39	1294.32
397.58	1322.40
397.77	1460.49
397.97	1430.07
398.16	1453.47
398.35	1409.00
398.55	1448.79
398.74	1544.75
398.93	1446.45
399.12	1504.96
399.32	1509.65
399.51	1479.22
399.70	1565.82
399.90	1514.33
400.09	1521.35
400.28	1547.09
400.47	1582.20
400.67	1680.50
400.86	1638.38
401.05	1647.74
401.24	1757.74
401.44	1682.85
401.63	1750.72
401.82	1734.34
402.01	1748.38
402.21	1746.04
402.40	1753.06
402.59	1668.80
402.78	1811.57
402.97	1694.55
403.17	1837.32
403.36	1797.53
403.55	1778.81
403.74	1888.81
403.93	1825.62
404.13	1926.26
404.32	1916.90
404.51	1916.90
404.70	1881.79
404.89	1956.69
405.09	1994.14
405.28	1994.14
405.47	2038.61
405.66	1846.68
405.85	1996.48
406.05	1994.14
406.24	2010.52
406.43	1968.39
406.62	2031.58
406.81	2127.55
407.00	2059.67
407.20	2038.61
407.39	2054.99
407.58	2097.12
407.77	2134.57
407.96	2286.70
408.15	2162.66
408.34	2228.19
408.54	2216.49
408.73	2272.66
408.92	2408.41
409.11	2312.45
409.30	2431.82
409.49	2282.02
409.68	2342.88
409.87	2265.64
410.07	2380.32
410.26	2450.54
410.45	2415.43
410.64	2370.96
410.83	2469.27
411.02	2562.89
411.21	2684.59
411.40	2558.21
411.59	2593.31
411.78	2541.82
411.98	2626.08
412.17	2668.21
412.36	2691.62
412.55	2626.08
412.74	2726.72
412.93	2796.94
413.12	2747.79
413.31	2794.60
413.50	2841.41
413.69	2738.43
413.88	2979.50
414.07	3012.27
414.26	2871.84
414.45	2972.48
414.64	2972.48
414.83	2986.52
415.02	3091.85
415.22	3155.04
415.41	3000.57
415.60	3105.89
415.79	3077.80
415.98	3155.04
416.17	3304.84
416.36	3269.73
416.55	3192.49
416.74	3131.64
416.93	3325.90
417.12	3286.11
417.31	3459.31
417.50	3332.92
417.69	3353.99
417.88	3382.07
418.07	3442.93
418.26	3361.01
418.45	3459.31
418.64	3653.58
418.83	3538.89
419.02	3616.13
419.21	3566.98
419.39	3669.96
419.58	3585.70
419.77	3578.68
419.96	3620.81
420.15	3728.47
420.34	3655.92
420.53	3747.20
420.72	3756.56
420.91	3857.20
421.10	3789.33
421.29	3864.22
421.48	3861.88
421.67	3854.86
421.86	3782.31
422.05	3852.52
422.24	3798.69
422.43	3768.26
422.61	3772.94
422.80	3934.44
422.99	3857.20
423.18	3934.44
423.37	3964.87
423.56	3880.61
423.75	3857.20
423.94	3887.63
424.13	3857.20
424.32	3728.47
424.50	4035.08
424.69	4014.02
424.88	4011.68
425.07	3866.56
425.26	3911.04
425.45	3899.33
425.64	4007.00
425.83	3995.29
426.01	4152.11
426.20	3983.59
426.39	4002.32
426.58	3901.67
426.77	3885.29
426.96	4126.36
427.15	3885.29
427.33	4028.06
427.52	3962.53
427.71	4182.54
427.90	4102.96
428.09	4217.65
428.28	4131.05
428.46	4248.07
428.65	4168.49
428.84	4409.57
429.03	4266.80
429.22	4093.60
429.40	4119.34
429.59	3983.59
429.78	4009.34
429.97	3978.91
430.16	4070.19
430.34	4145.09
430.53	4201.26
430.72	4276.16
430.91	4339.35
431.10	4257.43
431.28	4512.55
431.47	4606.17
431.66	4720.86
431.85	4557.02
432.03	4720.86
432.22	4765.33
432.41	4627.24
432.60	4762.99
432.79	4699.80
432.97	4851.93
433.16	4741.93
433.35	4748.95
433.54	4744.27
433.72	4791.08
433.91	4751.29
434.10	4669.37
434.28	4823.84
434.47	4812.14
434.66	4814.48
434.85	4933.85
435.03	4936.19
435.22	5034.49
435.41	5149.18
435.59	5102.37
435.78	5158.54
435.97	5085.98
436.16	5226.42
436.34	5062.58
436.53	5193.65
436.72	5217.05
436.90	5107.05
437.09	5149.18
437.28	5217.05
437.46	5235.78
437.65	5259.18
437.84	5240.46
438.02	5083.64
438.21	5268.55
438.40	5238.12
438.58	5495.58
438.77	5399.62
438.96	5284.93
439.14	5446.43
439.33	5495.58
439.52	5863.04
439.70	5706.23
439.89	5650.05
440.08	5446.43
440.26	5619.63
440.45	5671.12
440.63	5872.40
440.82	5942.62
441.01	5818.57
441.19	6059.65
441.38	6106.46
441.57	6251.57
441.75	6115.82
441.94	6319.45
442.12	6377.96
442.31	6490.31
442.50	6286.68
442.68	6284.34
442.87	6396.68
443.05	6413.07
443.24	6677.55
443.43	6321.79
443.61	6504.35
443.80	6689.25
443.98	6464.56
444.17	6235.19
444.35	6551.16
444.54	6731.38
444.73	6623.72
444.91	6490.31
445.10	6572.22
445.28	6438.81
445.47	6359.24
445.65	6530.09
445.84	6595.63
446.02	6497.33
446.21	6544.14
446.39	6691.59
446.58	6698.61
446.77	6712.66
446.95	6471.58
447.14	6651.80
447.32	6614.35
447.51	6729.04
447.69	6679.89
447.88	6722.02
448.06	6595.63
448.25	6745.42
448.43	6719.68
448.62	6705.63
448.80	6712.66
448.99	6981.82
449.17	6904.58
449.36	6829.68
449.54	6925.65
449.73	7124.59
449.91	6930.33
450.10	7169.06
450.28	7274.38
450.46	7314.17
450.65	7080.12
450.83	7276.73
451.02	7112.89
451.20	7335.24
451.39	7162.04
451.57	7272.04
451.76	7190.13
451.94	7344.60
452.13	7164.38
452.31	7080.12
452.49	7152.68
452.68	7330.56
452.86	7178.42
453.05	7351.62
453.23	7522.48
453.42	7447.58
453.60	7236.94
453.78	7363.33
453.97	7473.33
454.15	7552.91
454.34	7597.38
454.52	7492.05
454.70	7564.61
454.89	7719.09
455.07	7637.17
455.26	7672.28
455.44	7772.92
455.62	7859.52
455.81	7756.54
455.99	7667.60
456.17	7789.30
456.36	7707.38
456.54	7852.50
456.73	8037.40
456.91	7901.65
457.09	8259.75
457.28	8315.92
457.46	8018.68
457.64	8025.70
457.83	8102.93
458.01	8147.40
458.19	8140.38
458.38	8049.10
458.56	8245.71
458.74	8332.31
458.93	8257.41
459.11	8297.20
459.29	8318.26
459.48	8390.82
459.66	8421.25
459.84	8545.30
460.03	8463.38
460.21	8409.54
460.39	8418.91
460.57	8573.38
460.76	8585.08
460.94	8655.30
461.12	8627.21
461.31	8669.34
461.49	8641.26
461.67	8643.60
461.85	8896.38
462.04	8840.20
462.22	9132.77
462.40	8936.17
462.59	8950.21
462.77	8828.50
462.95	8957.23
463.13	9125.75
463.32	8858.93
463.50	9188.94
463.68	8959.57
463.86	9118.73
464.05	8734.88
464.23	8931.48
464.41	8917.44
464.59	8798.07
464.78	9156.18
464.96	9193.62
465.14	9013.40
465.32	9320.01
465.50	9296.61
465.69	9280.22
465.87	9394.91
466.05	9315.33
466.23	9291.93
466.41	9245.12
466.60	9413.63
466.78	8931.48
466.96	9224.05
467.14	9261.50
467.32	9380.87
467.51	9668.75
467.69	9212.35
467.87	9418.32
468.05	9474.49
468.23	9329.38
468.41	9355.12
468.60	9689.82
468.78	9432.36
468.96	9610.24
469.14	9547.05
469.32	9811.53
469.50	9322.35
469.69	9785.78
469.87	9891.10
470.05	9785.78
470.23	9919.19
470.41	9710.88
470.59	9844.29
470.77	9844.29
470.95	9923.87
471.14	10071.33
471.32	10174.31
471.50	10274.95
471.68	10338.15
471.86	10251.55
472.04	10375.59
472.22	10511.35
472.40	10520.71
472.58	10441.13
472.77	10593.26
472.95	10555.82
473.13	10902.22
473.31	10609.65
473.49	10827.32
473.67	10663.48
473.85	10860.09
474.03	11019.24
474.21	10934.98
474.39	10991.16
474.57	11108.18
474.75	11021.58
474.93	11173.72
475.12	11063.71
475.30	11335.21
475.48	11213.51
475.66	11480.33
475.84	11318.83
476.02	11300.11
476.20	11531.82
476.38	11681.61
476.56	11967.16
476.74	11868.86
476.92	11866.52
477.10	11976.52
477.28	12088.87
477.46	12226.96
477.64	12088.87
477.82	12381.43
478.00	12475.06
478.18	12517.18
478.36	12622.51
478.54	12903.37
478.72	12936.14
478.90	12896.35
479.08	13043.81
479.26	13144.45
479.44	13254.45
479.62	13444.04
479.80	13334.03
479.98	13327.01
480.16	13762.35
480.34	13654.69
480.52	13760.01
480.70	13806.82
480.88	13741.29
481.06	14122.79
481.24	14106.41
481.41	14328.76
481.59	14534.73
481.77	14251.52
481.95	14555.79
482.13	14476.21
482.31	14487.92
482.49	14874.10
482.67	14958.36
482.85	14972.41
483.03	15152.63
483.21	15248.59
483.39	15456.90
483.57	15403.07
483.74	15433.49
483.92	15559.88
484.10	15468.60
484.28	15934.37
484.46	16198.85
484.64	16177.78
484.82	16177.78
485.00	16095.86
485.18	16355.66
485.35	16800.37
485.53	16411.84
485.71	16594.40
485.89	16269.06
486.07	16236.30
486.25	16779.30
486.43	16819.09
486.61	17207.62
486.78	17465.08
486.96	17596.15
487.14	17750.62
487.32	17626.57
487.50	18045.53
487.68	18373.21
487.85	18450.44
488.03	18537.04
488.21	18583.85
488.39	18607.26
488.57	18609.60
488.75	18515.98
488.92	19396.02
489.10	19459.21
489.28	19297.72
489.46	19920.30
489.64	19697.95
489.81	20042.01
489.99	20100.52
490.17	20287.76
490.35	20168.40
490.53	20467.98
490.70	20505.43
490.88	20411.81
491.06	21006.31
491.24	21022.69
491.41	20812.04
491.59	20814.38
491.77	20650.55
491.95	21270.79
492.13	21373.77
492.30	21481.44
492.48	21748.26
492.66	21778.68
492.84	21916.78
493.01	22466.80
493.19	22160.19
493.37	22288.92
493.54	22314.67
493.72	22579.15
493.90	22609.58
494.08	23080.02
494.25	23054.28
494.43	23302.37
494.61	23314.08
494.79	23534.09
494.96	23377.27
495.14	23534.09
495.32	24100.50
495.49	23599.62
495.67	23910.91
495.85	24376.68
496.02	24168.37
496.20	24423.49
496.38	23978.79
496.55	24425.83
496.73	25331.62
496.91	24943.09
497.09	25179.48
497.26	25015.65
497.44	24982.88
497.62	25436.94
497.79	25207.57
497.97	25170.12
498.14	25678.02
498.32	25584.40
498.50	25734.19
498.67	25881.64
498.85	25830.15
499.03	26457.42
499.20	25944.84
499.38	26384.86
499.56	26539.33
499.73	26618.91
499.91	26611.89
500.08	26817.86
500.26	26522.95
500.44	26843.60
500.61	26735.94
500.79	26476.14
500.97	27274.26
501.14	26946.59
501.32	27227.45
501.49	27248.52
501.67	27225.11
501.84	27538.74
502.02	27615.98
502.20	27779.82
502.37	27992.81
502.55	28027.92
502.72	28037.28
502.90	28063.02
503.07	28168.35
503.25	28231.54
503.43	28266.65
503.60	27920.25
503.78	28161.33
503.95	28528.79
504.13	28842.42
504.30	28500.70
504.48	28975.83
504.65	29006.26
504.83	29446.28
505.01	29509.47
505.18	29048.39
505.36	29738.85
505.53	29457.98
505.71	29762.25
505.88	29919.07
506.06	29462.66
506.23	29900.34
506.41	29788.00
506.58	29820.77
506.76	30005.67
506.93	29813.74
507.11	30129.72
507.28	30206.95
507.46	29694.38
507.63	30181.21
507.81	30288.87
507.98	30450.37
508.16	30574.42
508.33	30735.92
508.50	30450.37
508.68	30988.69
508.85	31159.55
509.03	30738.26
509.20	31175.94
509.38	31103.38
509.55	31501.27
509.73	31529.36
509.90	31681.49
510.08	31367.86
510.25	31578.51
510.42	31527.02
510.60	32081.72
510.77	31957.67
510.95	32322.80
511.12	32039.59
511.30	32144.92
511.47	32423.44
511.64	32823.67
511.82	32683.24
511.99	32699.62
512.17	32404.72
512.34	32575.58
512.51	32699.62
512.69	32589.62
512.86	32591.96
513.04	33251.99
513.21	32718.35
513.38	32919.63
513.56	33010.92
513.73	32999.21
513.90	33301.14
514.08	33280.08
514.25	33308.16
514.43	33172.41
514.60	33659.24
514.77	33415.83
514.95	33795.00
515.12	33883.94
515.29	33790.31
515.47	34162.46
515.64	33823.08
515.81	34026.71
515.99	34260.76
516.16	33897.98
516.33	33809.04
516.51	33596.05
516.68	33500.09
516.85	33364.34
517.03	33254.33
517.20	34220.97
517.37	34106.29
517.54	34398.85
517.72	34052.45
517.89	33993.94
518.06	34033.73
518.24	34359.06
518.41	34352.04
518.58	34876.32
518.75	34834.19
518.93	34946.54
519.10	34991.01
519.27	34965.26
519.45	35204.00
519.62	35290.60
519.79	35482.52
519.96	35484.86
520.14	35192.30
520.31	35143.14
520.48	35557.42
520.65	35611.25
520.83	35775.09
521.00	36140.21
521.17	35983.40
521.34	36023.19
521.52	36423.42
521.69	36140.21
521.86	36070.00
522.03	36374.27
522.20	36575.55
522.38	36713.64
522.55	36517.04
522.72	36418.74
522.89	36491.29
523.07	36556.83
523.24	36488.95
523.41	37439.21
523.58	36896.20
523.75	37296.44
523.92	37455.59
524.10	37303.46
524.27	37296.44
524.44	37322.18
524.61	37696.67
524.78	37645.18
524.96	37743.48
525.13	37556.24
525.30	37661.56
525.47	37998.60
525.64	37771.57
525.81	38050.09
525.98	37450.91
526.16	37062.38
526.33	37163.03
526.50	37738.80
526.67	37249.63
526.84	37219.20
527.01	37205.16
527.18	38005.62
527.36	37848.80
527.53	38712.46
527.70	38810.76
527.87	38375.42
528.04	38164.78
528.21	38424.57
528.38	38677.35
528.55	38969.92
528.72	38555.64
528.89	39421.64
529.07	38740.55
529.24	38300.53
529.41	38895.02
529.58	39044.82
529.75	38370.74
529.92	39318.66
530.09	39395.90
530.26	39185.25
530.43	39351.43
530.60	39077.58
530.77	39545.69
530.94	39597.18
531.11	39262.49
531.28	39622.93
531.46	40027.84
531.63	39491.86
531.80	39557.39
531.97	39763.36
532.14	39494.20
532.31	39452.07
532.48	39840.60
532.65	39840.60
532.82	39402.92
532.99	39859.32
533.16	39826.56
533.33	39821.87
533.50	40210.40
533.67	39721.23
533.84	39763.36
534.01	39974.01
534.18	39634.63
534.35	40456.16
534.52	40189.34
534.69	40191.68
534.86	40793.20
535.03	40767.45
535.20	40926.61
535.37	40664.47
535.54	40891.50
535.71	40432.75
535.88	40133.17
536.05	40896.18
536.22	40720.64
536.38	40865.75
536.55	40488.93
536.72	40505.31
536.89	40662.13
537.06	40868.09
537.23	41247.26
537.40	41439.18
537.57	40982.78
537.74	41357.27
537.91	41558.55
538.08	41289.39
538.25	41432.16
538.42	41413.44
538.59	41368.97
538.75	41242.58
538.92	41127.89
539.09	41778.56
539.26	41469.61
539.43	41509.40
539.60	41397.06
539.77	41240.24
539.94	41610.04
540.11	41043.63
540.28	41710.69
540.44	41874.52
540.61	41544.51
540.78	41614.72
540.95	41830.05
541.12	41701.32
541.29	41642.81
541.46	41937.72
541.62	42560.30
541.79	41951.76
541.96	42071.13
542.13	42141.35
542.30	41972.83
542.47	41783.24
542.63	41961.12
542.80	42440.93
542.97	42831.80
543.14	42820.10
543.31	42738.18
543.48	42534.56
543.64	43302.25
543.81	43430.98
543.98	42890.32
544.15	42569.66
544.32	43075.22
544.48	43552.69
544.65	43428.64
544.82	43089.26
544.99	42700.73
545.16	43250.76
545.32	42754.57
545.49	43391.19
545.66	43159.48
545.83	43468.43
546.00	43409.92
546.16	43522.26
546.33	43440.34
546.50	42934.79
546.67	43690.78
546.83	43044.79
547.00	43229.69
547.17	43103.31
547.34	43328.00
547.50	43131.39
547.67	43871.00
547.84	43372.47
548.00	43826.53
548.17	43559.71
548.34	44013.77
548.51	44219.74
548.67	44142.50
548.84	43676.74
549.01	43484.81
549.18	43536.30
549.34	43950.58
549.51	44072.29
549.68	44245.49
549.84	44030.16
550.01	44346.13
550.18	44142.50
550.34	43997.39
550.51	43941.22
550.68	44130.80
550.84	43871.00
551.01	44367.20
551.18	43995.05
551.34	44034.84
551.51	44472.52
551.68	44903.18
551.84	44643.38
552.01	44060.58
552.18	44729.98
552.34	44140.16
552.51	44289.96
552.68	44655.08
552.84	44774.45
553.01	44404.64
553.18	44289.96
553.34	44917.22
553.51	44268.89
553.67	44561.46
553.84	45289.37
554.01	44910.20
554.17	45109.14
554.34	45083.40
554.51	45193.40
554.67	44940.63
554.84	44708.91
555.00	44722.96
555.17	44809.56
555.33	44818.92
555.50	44816.58
555.67	45116.17
555.83	44751.04
556.00	44945.31
556.16	45429.80
556.33	44961.69
556.50	44825.94
556.66	44896.16
556.83	44556.78
556.99	45212.13
557.16	45235.53
557.32	45577.25
557.49	45275.32
557.65	45312.77
557.82	45558.53
557.98	45085.74
558.15	45165.32
558.32	45696.62
558.48	44776.79
558.65	44870.41
558.81	45181.70
558.98	44900.84
559.14	45242.56
559.31	45244.90
559.47	45162.98
559.64	45427.46
559.80	45373.63
559.97	45078.72
560.13	45392.35
560.30	45397.03
560.46	45579.59
560.63	45359.58
560.79	45680.24
560.96	45834.71
561.12	45514.06
561.29	45209.79
561.45	45373.63
561.61	45284.68
561.78	45326.81
561.94	45464.91
562.11	45411.07
562.27	45284.68
562.44	45757.47
562.60	45874.50
562.77	45750.45
562.93	45439.16
563.10	46136.64
563.26	45050.63
563.42	46141.32
563.59	45853.44
563.75	45743.43
563.92	46188.13
564.08	45642.79
564.24	46426.87
564.41	45820.67
564.57	45888.54
564.74	45820.67
564.90	45621.72
565.07	45659.17
565.23	45890.88
565.39	45888.54
565.56	46258.35
565.72	45406.39
565.88	45825.35
566.05	45710.66
566.21	45471.93
566.38	45963.44
566.54	45834.71
566.70	46131.96
566.87	46181.11
567.03	45951.74
567.19	46206.86
567.36	45907.27
567.52	45951.74
567.68	46218.56
567.85	45844.07
568.01	45694.28
568.17	46036.00
568.34	46110.89
568.50	46707.73
568.66	45872.16
568.83	46185.79
568.99	45385.33
569.15	45734.07
569.32	45844.07
569.48	45635.77
569.64	46141.32
569.81	45736.41
569.97	46073.45
570.13	45837.05
570.30	45406.39
570.46	45949.40
570.62	46017.27
570.78	45509.38
570.95	45591.30
571.11	46061.74
571.27	45862.80
571.43	45755.13
571.60	46012.59
571.76	46183.45
571.92	45916.63
572.09	46120.26
572.25	45806.62
572.41	45617.04
572.57	46117.92
572.74	46520.49
572.90	45881.52
573.06	45703.64
573.22	46457.29
573.38	46223.24
573.55	46021.95
573.71	46178.77
573.87	46260.69
574.03	46026.63
574.20	45797.26
574.36	46082.81
574.52	46267.71
574.68	46298.14
574.84	46038.34
575.01	46078.13
575.17	45902.59
575.33	45727.05
575.49	45586.61
575.65	46267.71
575.82	46043.02
575.98	46150.68
576.14	46347.29
576.30	46305.16
576.46	46181.11
576.62	46094.51
576.79	46251.33
576.95	45961.10
577.11	46178.77
577.27	46375.37
577.43	46305.16
577.59	46036.00
577.75	46110.89
577.92	45368.94
578.08	45612.36
578.24	45471.93
578.40	45935.35
578.56	46419.84
578.72	46293.46
578.88	46251.33
579.04	46206.86
579.21	46162.39
579.37	46066.42
579.53	46335.59
579.69	45984.51
579.85	46178.77
580.01	46323.88
580.17	45888.54
580.33	45900.25
580.49	46461.97
580.65	46265.37
580.82	45956.42
580.98	46080.47
581.14	45963.44
581.30	46419.84
581.46	46110.89
581.62	45998.55
581.78	46129.62
581.94	46918.38
582.10	46073.45
582.26	46227.92
582.42	46017.27
582.58	46087.49
582.74	46122.60
582.90	46445.59
583.06	46204.52
583.22	46618.79
583.38	46550.91
583.54	46340.27
583.70	46108.55
583.86	46745.18
584.02	46302.82
584.18	45909.61
584.34	46223.24
584.50	46176.43
584.66	46141.32
584.82	46150.68
584.98	46405.80
585.14	46281.75
585.30	45820.67
585.46	46265.37
585.62	45745.77
585.78	45984.51
585.94	46094.51
586.10	46019.61
586.26	45951.74
586.42	46649.22
586.58	46726.46
586.74	46649.22
586.90	46756.88
587.06	46534.53
587.22	46286.43
587.38	46183.45
587.54	46295.80
587.70	46361.33
587.86	46078.13
588.02	46630.49
588.18	46564.96
588.34	46234.94
588.49	45727.05
588.65	45804.28
588.81	46146.00
588.97	46082.81
589.13	45808.96
589.29	46539.21
589.45	45769.18
589.61	46052.38
589.77	46700.71
589.93	46181.11
