SpectraSuite Data File
++++++++++++++++++++++++++++++++++++
Date: Fri Oct 25 11:22:57 EDT 2013
User: price-jones
Dark Spectrum Present: No
Reference Spectrum Present: No
Number of Sampled Component Spectra: 1
Spectrometers: USB2+H05261
Integration Time (usec): 100000 (USB2+H05261)
Spectra Averaged: 1 (USB2+H05261)
Boxcar Smoothing: 0 (USB2+H05261)
Correct for Electrical Dark: No (USB2+H05261)
Strobe/Lamp Enabled: No (USB2+H05261)
Correct for Detector Non-linearity: No (USB2+H05261)
Correct for Stray Light: No (USB2+H05261)
Number of Pixels in Processed Spectrum: 2048
>>>>>Begin Processed Spectral Data<<<<<
365.73	243.42
365.92	243.42
366.12	243.42
366.32	168.52
366.52	180.22
366.72	112.35
366.91	117.03
367.11	138.09
367.31	133.41
367.51	135.75
367.70	187.24
367.90	121.71
368.10	105.32
368.30	119.37
368.49	210.65
368.69	100.64
368.89	124.05
369.09	131.07
369.28	154.48
369.48	212.99
369.68	128.73
369.87	138.09
370.07	147.45
370.27	161.50
370.47	339.38
370.66	578.11
370.86	580.45
371.06	613.22
371.25	620.24
371.45	648.33
371.65	711.52
371.84	627.26
372.04	683.44
372.24	676.41
372.44	753.65
372.63	720.88
372.83	737.27
373.03	753.65
373.22	720.88
373.42	770.04
373.62	744.29
373.81	758.33
374.01	802.80
374.21	683.44
374.40	765.36
374.60	894.08
374.79	802.80
374.99	819.19
375.19	847.27
375.38	833.23
375.58	816.85
375.78	919.83
375.97	919.83
376.17	884.72
376.37	821.53
376.56	854.30
376.76	875.36
376.95	840.25
377.15	891.74
377.35	889.40
377.54	896.43
377.74	835.57
377.93	870.68
378.13	933.87
378.33	884.72
378.52	910.47
378.72	983.02
378.91	786.42
379.11	877.70
379.31	931.53
379.50	851.96
379.70	1001.75
379.89	943.24
380.09	1011.11
380.28	933.87
380.48	992.39
380.68	1067.28
380.87	973.66
381.07	994.73
381.26	1055.58
381.46	924.51
381.65	1006.43
381.85	1090.69
382.04	1095.37
382.24	1013.45
382.43	1130.48
382.63	1041.54
382.83	1022.81
383.02	1064.94
383.22	1088.35
383.41	1078.99
383.61	1057.92
383.80	1060.26
384.00	1179.63
384.19	1102.39
384.39	1039.20
384.58	1050.90
384.78	1165.59
384.97	1135.16
385.17	1193.67
385.36	1151.54
385.56	1174.95
385.75	1149.20
385.95	1217.08
386.14	1128.14
386.34	1186.65
386.53	1263.89
386.72	1224.10
386.92	1186.65
387.11	1294.32
387.31	1249.85
387.50	1238.14
387.70	1277.93
387.89	1179.63
388.09	1282.61
388.28	1263.89
388.48	1268.57
388.67	1366.87
388.86	1256.87
389.06	1226.44
389.25	1394.96
389.45	1366.87
389.64	1266.23
389.84	1355.17
390.03	1350.49
390.22	1420.71
390.42	1336.45
390.61	1383.26
390.81	1446.45
391.00	1413.68
391.19	1376.24
391.39	1451.13
391.58	1448.79
391.78	1509.65
391.97	1437.09
392.16	1476.88
392.36	1444.11
392.55	1500.28
392.75	1472.20
392.94	1451.13
393.13	1481.56
393.33	1598.59
393.52	1563.48
393.71	1577.52
393.91	1579.86
394.10	1565.82
394.29	1586.88
394.49	1643.06
394.68	1687.53
394.88	1687.53
395.07	1668.80
395.26	1678.16
395.46	1664.12
395.65	1736.68
395.84	1727.32
396.04	1813.92
396.23	1767.10
396.42	1832.64
396.62	1739.02
396.81	1790.51
397.00	1811.57
397.19	1886.47
397.39	1837.32
397.58	1895.83
397.77	1818.60
397.97	1818.60
398.16	1900.52
398.35	1919.24
398.55	2022.22
398.74	1926.26
398.93	1872.43
399.12	1809.23
399.32	1949.67
399.51	1940.30
399.70	1928.60
399.90	1970.73
400.09	1987.11
400.28	2022.22
400.47	1982.43
400.67	2026.90
400.86	2033.93
401.05	2045.63
401.24	2172.02
401.44	2223.51
401.63	2127.55
401.82	2148.61
402.01	1966.05
402.21	2197.76
402.40	2216.49
402.59	2251.60
402.78	2246.91
402.97	2134.57
403.17	2230.53
403.36	2272.66
403.55	2289.04
403.74	2272.66
403.93	2307.77
404.13	2382.67
404.32	2403.73
404.51	2413.09
404.70	2471.61
404.89	2380.32
405.09	2555.86
405.28	2385.01
405.47	2434.16
405.66	2567.57
405.85	2532.46
406.05	2567.57
406.24	2511.39
406.43	2537.14
406.62	2485.65
406.81	2712.68
407.00	2476.29
407.20	2663.53
407.39	2541.82
407.58	2696.30
407.77	2736.09
407.96	2726.72
408.15	2757.15
408.34	2740.77
408.54	2792.26
408.73	2785.24
408.92	2794.60
409.11	2782.90
409.30	2834.39
409.49	2825.03
409.68	2881.20
409.87	2885.88
410.07	2939.71
410.26	3073.12
410.45	2881.20
410.64	3054.40
410.83	3047.38
411.02	3150.36
411.21	3112.91
411.40	3119.93
411.59	3262.71
411.78	3260.37
411.98	3215.90
412.17	3300.16
412.36	3403.14
412.55	3346.97
412.74	3442.93
412.93	3520.17
413.12	3482.72
413.31	3623.15
413.50	3403.14
413.69	3468.67
413.88	3562.30
414.07	3623.15
414.26	3599.74
414.45	3576.34
414.64	3637.19
414.83	3754.22
415.02	3728.47
415.22	3871.25
415.41	3936.78
415.60	3913.38
415.79	3932.10
415.98	3901.67
416.17	4039.76
416.36	3896.99
416.55	3936.78
416.74	4060.83
416.93	4098.28
417.12	4245.73
417.31	4201.26
417.50	4109.98
417.69	4332.33
417.88	4262.12
418.07	4271.48
418.26	4227.01
418.45	4379.14
418.64	4554.68
418.83	4472.76
419.02	4388.50
419.21	4449.36
419.39	4465.74
419.58	4524.26
419.77	4486.81
419.96	4662.35
420.15	4519.57
420.34	4610.86
420.53	4620.22
420.72	4788.74
420.91	4711.50
421.10	4727.88
421.29	4802.78
421.48	4737.24
421.67	4858.95
421.86	4791.08
422.05	4807.46
422.24	4884.70
422.43	4992.36
422.61	4891.72
422.80	4973.64
422.99	4765.33
423.18	5018.11
423.37	4968.96
423.56	4908.10
423.75	4884.70
423.94	5004.07
424.13	4582.77
424.32	4753.63
424.50	4931.51
424.69	5100.03
424.88	5004.07
425.07	4947.89
425.26	4990.02
425.45	5064.92
425.64	5013.43
425.83	4952.57
426.01	5116.41
426.20	5018.11
426.39	5093.01
426.58	5008.75
426.77	5039.17
426.96	5207.69
427.15	5268.55
427.33	5254.50
427.52	5245.14
427.71	5151.52
427.90	5298.97
428.09	5322.38
428.28	5313.02
428.46	5434.72
428.65	5315.36
428.84	5563.45
429.03	5472.17
429.22	5277.91
429.40	5448.77
429.59	5334.08
429.78	5282.59
429.97	5324.72
430.16	5533.03
430.34	5584.52
430.53	5603.24
430.72	5659.42
430.91	5624.31
431.10	5706.23
431.28	5806.87
431.47	5846.66
431.66	5872.40
431.85	5724.95
432.03	5891.13
432.22	6167.31
432.41	5839.64
432.60	5769.42
432.79	5888.79
432.97	6022.20
433.16	6092.41
433.35	5982.41
433.54	6120.50
433.72	6106.46
433.91	6186.04
434.10	6134.54
434.28	6106.46
434.47	6274.98
434.66	6214.12
434.85	6354.55
435.03	6305.40
435.22	6228.17
435.41	6480.94
435.59	6459.88
435.78	6408.39
435.97	6712.66
436.16	6506.69
436.34	6356.90
436.53	6471.58
436.72	6616.69
436.90	6551.16
437.09	6911.60
437.28	6326.47
437.46	6642.44
437.65	6562.86
437.84	6684.57
438.02	6722.02
438.21	6682.23
438.40	6782.87
438.58	6972.46
438.77	7206.51
438.96	6998.20
439.14	7002.88
439.33	7173.74
439.52	7325.88
439.70	7262.68
439.89	7452.27
440.08	7487.37
440.26	7302.47
440.45	7321.20
440.63	7463.97
440.82	7698.02
441.01	7550.57
441.19	7520.14
441.38	7714.41
441.57	7665.25
441.75	7854.84
441.94	7871.22
442.12	7714.41
442.31	8208.26
442.50	7906.33
442.68	8074.85
442.87	8067.83
443.05	8058.46
443.24	8234.00
443.43	8252.73
443.61	8271.45
443.80	8521.89
443.98	8032.72
444.17	7875.90
444.35	8138.04
444.54	8308.90
444.73	8222.30
444.91	8327.63
445.10	8540.61
445.28	8395.50
445.47	8344.01
445.65	8276.13
445.84	8393.16
446.02	8226.98
446.21	8482.10
446.39	8503.17
446.58	8512.53
446.77	8395.50
446.95	8285.50
447.14	8540.61
447.32	8549.98
447.51	8519.55
447.69	8507.85
447.88	8505.51
448.06	8376.78
448.25	8568.70
448.43	8744.24
448.62	8655.30
448.80	8545.30
448.99	8552.32
449.17	8875.31
449.36	8629.56
449.54	8891.70
449.73	8997.02
449.91	8919.78
450.10	9036.81
450.28	9163.20
450.46	9153.84
450.65	9100.00
450.83	9041.49
451.02	9018.08
451.20	9287.25
451.39	9327.03
451.57	9212.35
451.76	9149.15
451.94	9256.82
452.13	9327.03
452.31	9453.42
452.49	9135.11
452.68	9680.46
452.86	9240.44
453.05	9352.78
453.23	9530.66
453.42	9430.02
453.60	9472.15
453.78	9385.55
453.97	9373.85
454.15	9448.74
454.34	9617.26
454.52	9743.65
454.70	9830.25
454.89	9729.61
455.07	9717.90
455.26	10003.45
455.44	10150.90
455.62	9989.41
455.81	10026.86
455.99	10197.71
456.17	9961.32
456.36	10174.31
456.54	10242.18
456.73	10289.00
456.91	10525.39
457.09	10324.10
457.28	10705.61
457.46	10466.88
457.64	10644.76
457.83	10740.72
458.01	10487.94
458.19	10698.59
458.38	10693.91
458.56	10850.72
458.74	10747.74
458.93	10736.04
459.11	10909.24
459.29	10899.87
459.48	10663.48
459.66	10930.30
459.84	10916.26
460.03	11311.81
460.21	11009.88
460.39	11136.27
460.57	11225.21
460.76	11229.89
460.94	11211.17
461.12	11126.91
461.31	11412.45
461.49	11262.66
461.67	11232.23
461.85	11403.09
462.04	11559.91
462.22	11880.56
462.40	11641.82
462.59	11515.44
462.77	11599.70
462.95	11538.84
463.13	11702.68
463.32	11459.26
463.50	11896.94
463.68	11784.60
463.86	11805.66
464.05	11571.61
464.23	11730.76
464.41	11768.21
464.59	11927.37
464.78	12198.87
464.96	12077.16
465.14	12072.48
465.32	12002.27
465.50	12250.36
465.69	12395.48
465.87	12449.31
466.05	12016.31
466.23	12250.36
466.41	12388.46
466.60	12571.02
466.78	12390.80
466.96	12395.48
467.14	12112.27
467.32	12388.46
467.51	12671.66
467.69	12255.04
467.87	12482.08
468.05	12571.02
468.23	12463.35
468.41	12610.81
468.60	12751.24
468.78	12940.82
468.96	12739.54
469.14	12959.55
469.32	12994.65
469.50	12734.85
469.69	13259.13
469.87	13092.96
470.05	13109.34
470.23	13228.71
470.41	13247.43
470.59	13275.52
470.77	13181.90
470.95	13444.04
471.14	13544.68
471.32	13289.56
471.50	13678.09
471.68	13469.78
471.86	13586.81
472.04	13738.94
472.22	14008.11
472.40	13783.41
472.58	13837.25
472.77	14085.34
472.95	14260.88
473.13	14710.27
473.31	14122.79
473.49	14413.02
473.67	14403.66
473.85	14471.53
474.03	14831.97
474.21	14726.65
474.39	14806.23
474.57	14483.24
474.75	14684.52
474.93	15335.19
475.12	15131.56
475.30	15105.82
475.48	15260.29
475.66	15255.61
475.84	15147.95
476.02	15426.47
476.20	15522.43
476.38	15939.05
476.56	16343.96
476.74	16079.48
476.92	15964.79
477.10	15985.86
477.28	16346.30
477.46	16304.17
477.64	16507.80
477.82	16765.26
478.00	16931.44
478.18	16835.47
478.36	17289.54
478.54	17277.83
478.72	17090.59
478.90	17415.93
479.08	17886.37
479.26	17893.40
479.44	17701.47
479.62	18033.83
479.80	18082.98
479.98	18338.10
480.16	18726.63
480.34	18324.05
480.52	18679.82
480.70	18651.73
480.88	18567.47
481.06	19005.15
481.24	18855.36
481.41	19358.57
481.59	19768.16
481.77	19445.17
481.95	19419.42
482.13	19997.54
482.31	19962.43
482.49	20240.95
482.67	20545.22
482.85	20594.37
483.03	20713.74
483.21	20957.16
483.39	20999.29
483.57	20854.17
483.74	21231.00
483.92	21303.56
484.10	21247.38
484.28	21673.36
484.46	22279.56
484.64	22478.50
484.82	22253.81
485.00	22532.34
485.18	23164.28
485.35	23000.44
485.53	23131.51
485.71	23386.63
485.89	23580.90
486.07	23363.23
486.25	23557.49
486.43	23819.63
486.61	23850.06
486.78	24112.20
486.96	24706.70
487.14	24587.33
487.32	24730.10
487.50	24961.81
487.68	25123.31
487.85	25355.02
488.03	25514.18
488.21	25883.98
488.39	26101.65
488.57	26057.18
488.75	26214.00
488.92	26841.26
489.10	26841.26
489.28	26707.85
489.46	27187.66
489.64	27070.64
489.81	27599.60
489.99	27992.81
490.17	28025.57
490.35	28222.18
490.53	28386.02
490.70	28795.61
490.88	28584.96
491.06	29001.58
491.24	29457.98
491.41	29413.51
491.59	29383.09
491.77	29511.81
491.95	29710.76
492.13	29738.85
492.30	30284.19
492.48	30504.20
492.66	30508.88
492.84	30534.63
493.01	31016.78
493.19	30698.47
493.37	31105.72
493.54	31264.88
493.72	31761.07
493.90	31833.63
494.08	32100.45
494.25	32259.60
494.43	32032.57
494.61	32446.85
494.79	32826.01
494.96	32947.72
495.14	33153.69
495.32	33376.04
495.49	33249.65
495.67	33640.52
495.85	33715.42
496.02	33940.11
496.20	34146.08
496.38	34419.92
496.55	34771.00
496.73	34902.07
496.91	34717.17
497.09	34581.42
497.26	35126.76
497.44	35178.25
497.62	35604.23
497.79	35924.88
497.97	35903.82
498.14	36341.50
498.32	36308.73
498.50	36226.81
498.67	36591.94
498.85	36800.24
499.03	36708.96
499.20	36596.62
499.38	36931.31
499.56	37488.36
499.73	37200.47
499.91	37289.42
500.08	38284.14
500.26	37722.41
500.44	38096.90
500.61	38178.82
500.79	38115.62
500.97	38574.37
501.14	38721.82
501.32	38827.15
501.49	38738.21
501.67	38738.21
501.84	39339.72
502.02	39014.39
502.20	39636.97
502.37	39688.46
502.55	39501.22
502.72	39688.46
502.90	39346.75
503.07	40147.21
503.25	40023.16
503.43	39896.77
503.60	40091.04
503.78	40900.86
503.95	40488.93
504.13	40772.13
504.30	41130.23
504.48	40858.73
504.65	40954.69
504.83	40711.28
505.01	41570.25
505.18	41743.45
505.36	41830.05
505.53	41750.48
505.71	41963.46
505.88	42066.45
506.06	41635.79
506.23	42366.04
506.41	42192.84
506.58	42682.01
506.76	42302.84
506.93	43016.71
507.11	42595.41
507.28	43033.09
507.46	42962.87
507.63	43138.41
507.81	43447.36
507.98	43449.70
508.16	43491.83
508.33	43746.95
508.50	43662.69
508.68	43508.22
508.85	44322.72
509.03	44025.48
509.20	43906.11
509.38	44369.54
509.55	44926.58
509.73	44444.43
509.90	44823.60
510.08	45031.91
510.25	45120.85
510.42	44683.17
510.60	45198.09
510.77	45783.22
510.95	45736.41
511.12	45366.60
511.30	45626.40
511.47	45666.19
511.64	45970.46
511.82	46138.98
511.99	46075.79
512.17	46401.12
512.34	46082.81
512.51	46284.09
512.69	46742.84
512.86	46574.32
513.04	46752.20
513.21	47058.81
513.38	47091.58
513.56	47133.71
513.73	46944.12
513.90	46806.03
514.08	47250.74
514.25	47241.37
514.43	47763.31
514.60	47995.03
514.77	47611.18
514.95	47634.58
515.12	47669.69
515.29	47737.57
515.47	47934.17
515.64	48512.28
515.81	48189.29
515.99	48519.31
516.16	48484.20
516.33	48622.29
516.51	49064.65
516.68	48804.85
516.85	48526.33
517.03	49095.08
517.20	49450.84
517.37	49045.93
517.54	49186.36
517.72	49144.23
517.89	49265.94
518.06	49184.02
518.24	49411.05
518.41	49485.95
518.58	49607.65
518.75	49642.76
518.93	49794.90
519.10	49787.88
519.27	49830.01
519.45	50153.00
519.62	50227.90
519.79	50192.79
519.96	50213.85
520.14	50419.82
520.31	50534.51
520.48	50604.72
520.65	50536.85
520.83	50974.53
521.00	50939.42
521.17	50775.58
521.34	50988.57
521.52	51433.27
521.69	51070.49
521.86	51339.65
522.03	51419.23
522.20	51847.55
522.38	51938.83
522.55	51494.13
522.72	51873.29
522.89	51723.50
523.07	51828.82
523.24	51585.41
523.41	51690.73
523.58	51669.67
523.75	52203.31
523.92	51910.74
524.10	52467.79
524.27	52409.28
524.44	52088.62
524.61	52416.30
524.78	52388.21
524.96	52540.35
525.13	52530.98
525.30	52849.30
525.47	52996.75
525.64	52554.39
525.81	52767.38
525.98	53052.92
526.16	52514.60
526.33	52783.76
526.50	53205.06
526.67	52975.69
526.84	53120.80
527.01	53256.55
527.18	53183.99
527.36	53401.66
527.53	53343.15
527.70	53670.82
527.87	53502.31
528.04	53336.13
528.21	53787.85
528.38	53577.20
528.55	53717.64
528.72	53521.03
528.89	53771.47
529.07	53708.27
529.24	53701.25
529.41	54012.54
529.58	54007.86
529.75	53820.62
529.92	54054.67
530.09	54174.04
530.26	54262.98
530.43	54155.32
530.60	53937.65
530.77	54171.70
530.94	54672.57
531.11	54099.14
531.28	54639.81
531.46	54499.37
531.63	54518.10
531.80	54335.54
531.97	54693.64
532.14	54932.37
532.31	54529.80
532.48	54983.86
532.65	55035.36
532.82	54590.66
532.99	54784.92
533.16	54798.96
533.33	54918.33
533.50	55295.16
533.67	55105.57
533.84	54843.43
534.01	54857.48
534.18	54944.08
534.35	55547.93
534.52	55323.24
534.69	55564.32
534.86	55468.36
535.03	55238.98
535.20	55386.44
535.37	55451.97
535.54	55643.90
535.71	55199.19
535.88	55723.47
536.05	55590.06
536.22	55606.45
536.38	55746.88
536.55	55941.14
536.72	55899.01
536.89	55807.73
537.06	55611.13
537.23	56027.74
537.40	55760.92
537.57	55861.57
537.74	56053.49
537.91	56116.68
538.08	56154.13
538.25	55899.01
538.42	56074.55
538.59	56519.26
538.75	56200.94
538.92	56280.52
539.09	56346.06
539.26	56542.66
539.43	56196.26
539.60	56189.24
539.77	56315.63
539.94	56502.87
540.11	56413.93
540.28	56451.38
540.44	56594.15
540.61	56418.61
540.78	56666.71
540.95	56442.02
541.12	56664.37
541.29	56949.92
541.46	56823.53
541.62	57219.08
541.79	56722.88
541.96	56647.99
542.13	56767.35
542.30	56942.89
542.47	57083.33
542.63	57062.26
542.80	57233.12
542.97	57155.88
543.14	57422.70
543.31	57471.85
543.48	57509.30
543.64	57535.05
543.81	57469.51
543.98	57347.81
544.15	57476.54
544.32	57769.10
544.48	57815.91
544.65	57394.62
544.82	57633.35
544.99	57485.90
545.16	57694.21
545.32	57553.77
545.49	57708.25
545.66	57780.81
545.83	57696.55
546.00	57984.43
546.16	57738.68
546.33	57558.45
546.50	57626.33
546.67	57780.81
546.83	57537.39
547.00	57757.40
547.17	57696.55
547.34	57909.53
547.50	58131.89
547.67	58185.72
547.84	58260.62
548.00	58134.23
548.17	58499.35
548.34	58213.80
548.51	58583.61
548.67	58398.71
548.84	58031.24
549.01	58340.19
549.18	58162.31
549.34	58391.68
549.51	58504.03
549.68	58288.70
549.84	58506.37
550.01	58616.38
550.18	58473.60
550.34	58604.67
550.51	58726.38
550.68	58616.38
550.84	58464.24
551.01	58733.40
551.18	58820.00
551.34	58747.45
551.51	58777.87
551.68	58745.11
551.84	58768.51
552.01	58731.06
552.18	59166.40
552.34	58504.03
552.51	58937.03
552.68	58927.67
552.84	58894.90
553.01	58932.35
553.18	59063.42
553.34	59117.25
553.51	58820.00
553.67	59096.19
553.84	59068.10
554.01	59217.89
554.17	59203.85
554.34	59117.25
554.51	59325.56
554.67	59171.08
554.84	59002.56
555.00	59192.15
555.17	59103.21
555.33	59199.17
555.50	59030.65
555.67	59320.88
555.83	59269.39
556.00	59297.47
556.16	59728.13
556.33	59531.53
556.50	59618.13
556.66	59512.80
556.83	59304.49
556.99	59381.73
557.16	59571.32
557.32	59601.74
557.49	59753.88
557.65	59510.46
557.82	59318.54
557.98	59508.12
558.15	59566.63
558.32	59674.30
558.48	59585.36
558.65	59737.49
558.81	59737.49
558.98	59664.94
559.14	59693.02
559.31	59920.05
559.47	59854.52
559.64	59681.32
559.80	59877.93
559.97	59945.80
560.13	59756.22
560.30	59889.63
560.46	60034.74
560.63	59807.71
560.79	59889.63
560.96	60116.66
561.12	60009.00
561.29	60072.19
561.45	59957.50
561.61	59910.69
561.78	60020.70
561.94	60093.25
562.11	60102.62
562.27	60107.30
562.44	60030.06
562.60	60182.19
562.77	60060.49
562.93	59873.24
563.10	60343.69
563.26	60168.15
563.42	60432.63
563.59	60135.38
563.75	60203.26
563.92	60296.88
564.08	60250.07
564.24	60346.03
564.41	60240.71
564.57	60381.14
564.74	60257.09
564.90	60177.51
565.07	60196.24
565.23	60278.16
565.39	60308.58
565.56	60362.42
565.72	60121.34
565.88	60353.05
566.05	60114.32
566.21	60369.44
566.38	60430.29
566.54	60594.13
566.70	60502.85
566.87	60638.60
567.03	60411.57
567.19	60809.46
567.36	60521.57
567.52	60264.11
567.68	60654.98
567.85	60509.87
568.01	60650.30
568.17	60486.46
568.34	60587.11
568.50	60418.59
568.66	60535.62
568.83	60486.46
568.99	60339.01
569.15	60451.36
569.32	60603.49
569.48	60685.41
569.64	60561.36
569.81	60598.81
569.97	60519.23
570.13	60757.97
570.30	60788.39
570.46	60540.30
570.62	60610.51
570.78	60608.17
570.95	60465.40
571.11	60748.60
571.27	60645.62
571.43	60694.77
571.60	60945.21
571.76	60753.29
571.92	60671.37
572.09	60832.86
572.25	60664.35
572.41	60699.45
572.57	60736.90
572.74	60853.93
572.90	60736.90
573.06	60795.42
573.22	60790.73
573.38	60786.05
573.55	60711.16
573.71	60966.27
573.87	60781.37
574.03	60884.36
574.20	60928.83
574.36	60970.96
574.52	60865.63
574.68	60898.40
574.84	61162.88
575.01	60994.36
575.17	60858.61
575.33	60872.65
575.49	60865.63
575.65	60900.74
575.82	61076.28
575.98	60839.89
576.14	61111.39
576.30	60933.51
576.46	60804.78
576.62	60837.54
576.79	60921.80
576.95	60982.66
577.11	60992.02
577.27	60837.54
577.43	60973.30
577.59	60755.63
577.75	60856.27
577.92	60949.89
578.08	61050.53
578.24	60872.65
578.40	61109.05
578.56	61244.80
578.72	61123.09
578.88	61286.93
579.04	61183.94
579.21	60999.04
579.37	61062.24
579.53	61284.59
579.69	61109.05
579.85	61052.87
580.01	61176.92
580.17	60992.02
580.33	61200.33
580.49	61165.22
580.65	61090.32
580.82	61090.32
580.98	60856.27
581.14	61066.92
581.30	61113.73
581.46	60853.93
581.62	61036.49
581.78	60968.61
581.94	61190.97
582.10	61151.18
582.26	61071.60
582.42	61162.88
582.58	61083.30
582.74	61261.18
582.90	61055.21
583.06	60919.46
583.22	60970.96
583.38	61104.37
583.54	61048.19
583.70	61158.20
583.86	61125.43
584.02	60931.17
584.18	61048.19
584.34	61006.06
584.50	61139.47
584.66	60914.78
584.82	61027.13
584.98	61249.48
585.14	61083.30
585.30	60874.99
585.46	61212.03
585.62	61237.78
585.78	61291.61
585.94	61102.03
586.10	61160.54
586.26	61144.16
586.42	61242.46
586.58	61207.35
586.74	61293.95
586.90	61176.92
587.06	61087.98
587.22	61165.22
587.38	61270.54
587.54	61347.78
587.70	61453.11
587.86	61106.71
588.02	61385.23
588.18	61329.06
588.34	61160.54
