SpectraSuite Data File
++++++++++++++++++++++++++++++++++++
Date: Fri Oct 25 11:22:53 EDT 2013
User: price-jones
Dark Spectrum Present: No
Reference Spectrum Present: No
Number of Sampled Component Spectra: 1
Spectrometers: USB2+H05261
Integration Time (usec): 100000 (USB2+H05261)
Spectra Averaged: 1 (USB2+H05261)
Boxcar Smoothing: 0 (USB2+H05261)
Correct for Electrical Dark: No (USB2+H05261)
Strobe/Lamp Enabled: No (USB2+H05261)
Correct for Detector Non-linearity: No (USB2+H05261)
Correct for Stray Light: No (USB2+H05261)
Number of Pixels in Processed Spectrum: 2048
>>>>>Begin Processed Spectral Data<<<<<
365.73	238.73
365.92	238.73
366.12	238.73
366.32	138.09
366.52	215.33
366.72	205.97
366.91	93.62
367.11	32.77
367.31	95.96
367.51	154.48
367.70	119.37
367.90	163.84
368.10	114.69
368.30	114.69
368.49	112.35
368.69	147.45
368.89	84.26
369.09	147.45
369.28	140.43
369.48	138.09
369.68	149.79
369.87	198.95
370.07	128.73
370.27	187.24
370.47	313.63
370.66	550.03
370.86	599.18
371.06	624.92
371.25	732.59
371.45	622.58
371.65	706.84
371.84	648.33
372.04	685.78
372.24	748.97
372.44	741.95
372.63	732.59
372.83	791.10
373.03	732.59
373.22	774.72
373.42	737.27
373.62	699.82
373.81	781.74
374.01	856.64
374.21	807.48
374.40	800.46
374.60	894.08
374.79	753.65
374.99	858.98
375.19	842.59
375.38	835.57
375.58	842.59
375.78	943.24
375.97	807.48
376.17	997.07
376.37	849.61
376.56	868.34
376.76	849.61
376.95	896.43
377.15	968.98
377.35	844.93
377.54	875.36
377.74	903.45
377.93	894.08
378.13	912.81
378.33	997.07
378.52	978.34
378.72	915.15
378.91	943.24
379.11	931.53
379.31	971.32
379.50	947.92
379.70	917.49
379.89	929.19
380.09	903.45
380.28	1006.43
380.48	1046.22
380.68	1018.13
380.87	959.62
381.07	978.34
381.26	1015.79
381.46	964.30
381.65	985.37
381.85	987.71
382.04	983.02
382.24	1116.44
382.43	1069.62
382.63	1050.90
382.83	1165.59
383.02	1081.33
383.22	1132.82
383.41	1111.75
383.61	1060.26
383.80	1144.52
384.00	1132.82
384.19	1060.26
384.39	1184.31
384.58	1093.03
384.78	1142.18
384.97	1118.78
385.17	1109.41
385.36	1256.87
385.56	1111.75
385.75	1219.42
385.95	1167.93
386.14	1064.94
386.34	1142.18
386.53	1146.86
386.72	1242.82
386.92	1181.97
387.11	1146.86
387.31	1320.06
387.50	1249.85
387.70	1240.48
387.89	1301.34
388.09	1261.55
388.28	1181.97
388.48	1310.70
388.67	1460.49
388.86	1331.76
389.06	1259.21
389.25	1287.29
389.45	1329.42
389.64	1394.96
389.84	1308.36
390.03	1441.77
390.22	1369.21
390.42	1369.21
390.61	1310.70
390.81	1313.04
391.00	1455.81
391.19	1392.62
391.39	1469.86
391.58	1462.83
391.78	1448.79
391.97	1479.22
392.16	1526.03
392.36	1483.90
392.55	1549.43
392.75	1586.88
392.94	1561.14
393.13	1519.01
393.33	1514.33
393.52	1582.20
393.71	1565.82
393.91	1621.99
394.10	1591.56
394.29	1554.12
394.49	1636.03
394.68	1785.83
394.88	1640.72
395.07	1729.66
395.26	1694.55
395.46	1699.23
395.65	1769.44
395.84	1706.25
396.04	1806.89
396.23	1659.44
396.42	1729.66
396.62	1863.07
396.81	1802.21
397.00	1813.92
397.19	1764.76
397.39	1818.60
397.58	1858.39
397.77	1830.30
397.97	1797.53
398.16	1877.11
398.35	1851.36
398.55	1874.77
398.74	1888.81
398.93	1919.24
399.12	1888.81
399.32	1905.20
399.51	1898.17
399.70	1977.75
399.90	1914.56
400.09	1909.88
400.28	2099.46
400.47	1973.07
400.67	2024.56
400.86	2143.93
401.05	2167.34
401.24	2106.48
401.44	2237.55
401.63	2008.18
401.82	2202.44
402.01	2228.19
402.21	2101.80
402.40	2169.68
402.59	2134.57
402.78	2223.51
402.97	2270.32
403.17	2338.20
403.36	2298.41
403.55	2385.01
403.74	2450.54
403.93	2392.03
404.13	2377.98
404.32	2434.16
404.51	2345.22
404.70	2401.39
404.89	2502.03
405.09	2480.97
405.28	2560.55
405.47	2541.82
405.66	2581.61
405.85	2588.63
406.05	2375.64
406.24	2581.61
406.43	2513.74
406.62	2623.74
406.81	2693.96
407.00	2705.66
407.20	2520.76
407.39	2518.42
407.58	2703.32
407.77	2846.09
407.96	2729.06
408.15	2789.92
408.34	2757.15
408.54	2944.39
408.73	2853.11
408.92	2710.34
409.11	2810.98
409.30	2862.48
409.49	2932.69
409.68	3070.78
409.87	2871.84
410.07	2974.82
410.26	3038.02
410.45	3101.21
410.64	3143.34
410.83	3084.83
411.02	3286.11
411.21	3173.77
411.40	3241.64
411.59	3192.49
411.78	3199.51
411.98	3208.87
412.17	3339.94
412.36	3283.77
412.55	3349.31
412.74	3332.92
412.93	3466.33
413.12	3433.57
413.31	3496.76
413.50	3623.15
413.69	3503.78
413.88	3698.05
414.07	3651.24
414.26	3599.74
414.45	3698.05
414.64	3564.64
414.83	3801.03
415.02	3791.67
415.22	3887.63
415.41	3852.52
415.60	3943.80
415.79	3805.71
415.98	3939.12
416.17	3992.95
416.36	4011.68
416.55	4021.04
416.74	4046.79
416.93	4086.58
417.12	4077.21
417.31	4187.22
417.50	4201.26
417.69	4344.03
417.88	4407.23
418.07	4351.06
418.26	4430.63
418.45	4418.93
418.64	4613.20
418.83	4414.25
419.02	4432.97
419.21	4552.34
419.39	4526.60
419.58	4596.81
419.77	4400.21
419.96	4564.04
420.15	4692.77
420.34	4568.73
420.53	4629.58
420.72	4695.11
420.91	4823.84
421.10	4821.50
421.29	4882.36
421.48	4692.77
421.67	4765.33
421.86	4713.84
422.05	4786.40
422.24	4772.35
422.43	4781.71
422.61	4901.08
422.80	5078.96
422.99	5090.67
423.18	4931.51
423.37	4978.32
423.56	5029.81
423.75	4908.10
423.94	4856.61
424.13	4685.75
424.32	4861.29
424.50	4975.98
424.69	5048.54
424.88	5135.14
425.07	4908.10
425.26	4997.04
425.45	5008.75
425.64	4926.83
425.83	5004.07
426.01	5144.50
426.20	5071.94
426.39	5088.32
426.58	4924.49
426.77	4975.98
426.96	5057.90
427.15	5336.42
427.33	5259.18
427.52	5383.23
427.71	5268.55
427.90	5359.83
428.09	5418.34
428.28	5547.07
428.46	5341.10
428.65	5294.29
428.84	5572.82
429.03	5549.41
429.22	5387.91
429.40	5589.20
429.59	5577.50
429.78	5408.98
429.97	5336.42
430.16	5696.86
430.34	5633.67
430.53	5558.77
430.72	5640.69
430.91	5617.29
431.10	5591.54
431.28	5729.63
431.47	5846.66
431.66	5893.47
431.85	5778.78
432.03	5975.39
432.22	5977.73
432.41	5977.73
432.60	5921.56
432.79	5846.66
432.97	5984.75
433.16	6101.78
433.35	6001.13
433.54	6076.03
433.72	6176.67
433.91	6284.34
434.10	6024.54
434.28	6169.65
434.47	6270.30
434.66	6289.02
434.85	6246.89
435.03	6293.70
435.22	6396.68
435.41	6413.07
435.59	6392.00
435.78	6532.44
435.97	6565.20
436.16	6567.54
436.34	6392.00
436.53	6539.46
436.72	6799.26
436.90	6494.99
437.09	6487.96
437.28	6520.73
437.46	6581.59
437.65	6820.32
437.84	6820.32
438.02	6808.62
438.21	6750.10
438.40	6815.64
438.58	7108.21
438.77	7110.55
438.96	6867.13
439.14	7234.60
439.33	7339.92
439.52	7103.53
439.70	7407.80
439.89	7314.17
440.08	7440.56
440.26	7360.98
440.45	7578.65
440.63	7602.06
440.82	7564.61
441.01	7524.82
441.19	7758.88
441.38	7686.32
441.57	7880.58
441.75	7948.46
441.94	8088.89
442.12	8070.17
442.31	8070.17
442.50	8116.98
442.68	7997.61
442.87	8201.24
443.05	8358.05
443.24	8496.14
443.43	7976.55
443.61	8140.38
443.80	8552.32
443.98	8121.66
444.17	7967.18
444.35	8374.44
444.54	8507.85
444.73	8229.32
444.91	8383.80
445.10	8393.16
445.28	8477.42
445.47	8278.47
445.65	8407.20
445.84	8454.02
446.02	8636.58
446.21	8610.83
446.39	8320.60
446.58	8585.08
446.77	8285.50
446.95	8381.46
447.14	8545.30
447.32	8580.40
447.51	8699.77
447.69	8638.92
447.88	8643.60
448.06	8451.67
448.25	8496.14
448.43	8566.36
448.62	8650.62
448.80	8674.03
448.99	8720.84
449.17	8840.20
449.36	8865.95
449.54	8912.76
449.73	9231.07
449.91	9088.30
450.10	9062.55
450.28	9071.92
450.46	9057.87
450.65	9036.81
450.83	8985.32
451.02	9291.93
451.20	9214.69
451.39	9224.05
451.57	9280.22
451.76	9125.75
451.94	9469.81
452.13	9352.78
452.31	9207.67
452.49	9415.98
452.68	9399.59
452.86	9425.34
453.05	9523.64
453.23	9500.23
453.42	9355.12
453.60	9387.89
453.78	9792.80
453.97	9617.26
454.15	9631.30
454.34	9706.20
454.52	9699.18
454.70	9694.50
454.89	9898.13
455.07	9762.37
455.26	9825.57
455.44	9963.66
455.62	9989.41
455.81	9973.02
455.99	10061.96
456.17	10033.88
456.36	10080.69
456.54	10331.12
456.73	10228.14
456.91	10485.60
457.09	10497.30
457.28	10583.90
457.46	10277.29
457.64	10574.54
457.83	10441.13
458.01	10178.99
458.19	10654.12
458.38	10661.14
458.56	11136.27
458.74	10731.36
458.93	10761.78
459.11	10724.33
459.29	10829.66
459.48	11082.44
459.66	10986.47
459.84	11117.54
460.03	11185.42
460.21	11096.48
460.39	11229.89
460.57	11009.88
460.76	11281.38
460.94	11426.50
461.12	11492.03
461.31	11255.64
461.49	11414.79
461.67	11440.54
461.85	11571.61
462.04	11456.92
462.22	11901.62
462.40	11461.60
462.59	11564.59
462.77	11604.38
462.95	11658.21
463.13	11606.72
463.32	11660.55
463.50	11800.98
463.68	11925.03
463.86	12018.65
464.05	12016.31
464.23	11765.87
464.41	11978.86
464.59	11808.00
464.78	12292.49
464.96	12147.38
465.14	11960.14
465.32	12358.03
465.50	12194.19
465.69	12208.23
465.87	12224.62
466.05	12407.18
466.23	12346.33
466.41	12311.22
466.60	12643.57
466.78	12346.33
466.96	12531.23
467.14	12477.40
467.32	12442.29
467.51	12624.85
467.69	12491.44
467.87	12671.66
468.05	12552.29
468.23	12482.08
468.41	12617.83
468.60	12692.73
468.78	12891.67
468.96	12549.95
469.14	12931.46
469.32	13209.98
469.50	12671.66
469.69	13011.04
469.87	13294.24
470.05	13118.70
470.23	13364.46
470.41	13537.66
470.59	13788.10
470.77	13404.25
470.95	13497.87
471.14	13884.06
471.32	13575.11
471.50	13748.31
471.68	13619.58
471.86	13884.06
472.04	13797.46
472.22	14171.94
472.40	13804.48
472.58	13839.59
472.77	14169.60
472.95	14036.19
473.13	14738.35
473.31	14363.87
473.49	14200.03
473.67	14342.80
473.85	14480.89
474.03	14618.99
474.21	14616.65
474.39	14923.26
474.57	15019.22
474.75	15115.18
474.93	15433.49
475.12	15075.39
475.30	15372.64
475.48	15269.66
475.66	15391.36
475.84	15325.83
476.02	15414.77
476.20	15424.13
476.38	15520.09
476.56	16425.88
476.74	16404.81
476.92	16065.44
477.10	15915.64
477.28	16313.53
477.46	16348.64
477.64	16540.57
477.82	16826.11
478.00	17338.69
478.18	16915.05
478.36	17245.07
478.54	17280.18
478.72	17308.26
478.90	17624.23
479.08	17783.39
479.26	18033.83
479.44	17865.31
479.62	18038.51
479.80	18125.11
479.98	18239.79
480.16	18679.82
480.34	18415.34
480.52	18691.52
480.70	18679.82
480.88	18501.93
481.06	18948.98
481.24	19281.33
481.41	19173.67
481.59	19730.72
481.77	19491.98
481.95	19866.47
482.13	19843.06
482.31	19871.15
482.49	20432.88
482.67	20465.64
482.85	20812.04
483.03	20631.82
483.21	21039.08
483.39	21006.31
483.57	21111.63
483.74	21373.77
483.92	21507.18
484.10	21605.49
484.28	22057.21
484.46	21963.59
484.64	22494.89
484.82	22094.66
485.00	22670.43
485.18	22937.25
485.35	23080.02
485.53	23208.75
485.71	23374.93
485.89	23674.52
486.07	23747.08
486.25	23775.16
486.43	24173.05
486.61	24112.20
486.78	24180.07
486.96	24343.91
487.14	24643.50
487.32	25081.18
487.50	24861.17
487.68	25364.39
487.85	25640.57
488.03	25687.38
488.21	26153.15
488.39	25900.37
488.57	26181.23
488.75	26281.88
488.92	26874.03
489.10	27248.52
489.28	26813.18
489.46	27349.16
489.64	27297.67
489.81	27875.78
489.99	27871.10
490.17	28053.66
490.35	28268.99
490.53	28215.16
490.70	28802.63
490.88	28652.84
491.06	29230.95
491.24	29181.80
491.41	29347.98
491.59	29572.67
491.77	29600.76
491.95	29682.67
492.13	30141.42
492.30	29968.22
492.48	30799.11
492.66	30742.94
492.84	30719.53
493.01	30831.88
493.19	30850.60
493.37	31239.13
493.54	31873.42
493.72	31693.19
493.90	31945.97
494.08	32187.05
494.25	32371.95
494.43	32304.07
494.61	32575.58
494.79	32917.29
494.96	32971.13
495.14	33071.77
495.32	33710.74
495.49	33523.49
495.67	33757.55
495.85	33614.77
496.02	34270.12
496.20	34349.70
496.38	34150.76
496.55	34644.61
496.73	35306.98
496.91	34693.76
497.09	35356.13
497.26	35047.18
497.44	35126.76
497.62	35562.10
497.79	36048.93
497.97	35782.11
498.14	36095.74
498.32	36648.11
498.50	36664.49
498.67	36561.51
498.85	36477.25
499.03	37046.00
499.20	37046.00
499.38	37216.86
499.56	37586.66
499.73	37397.08
499.91	37500.06
500.08	37881.57
500.26	37912.00
500.44	38153.07
500.61	38136.69
500.79	37933.06
500.97	38726.50
501.14	39433.35
501.32	39185.25
501.49	39054.18
501.67	39173.55
501.84	39178.23
502.02	39365.47
502.20	39346.75
502.37	39283.55
502.55	39758.68
502.72	39873.37
502.90	39728.25
503.07	39732.93
503.25	40439.78
503.43	39971.67
503.60	40683.19
503.78	40893.84
503.95	40594.25
504.13	40769.79
504.30	41394.71
504.48	40814.26
504.65	40992.14
504.83	41099.81
505.01	41694.30
505.18	41574.94
505.36	41935.38
505.53	41652.17
505.71	42010.28
505.88	41757.50
506.06	41916.65
506.23	42672.65
506.41	42054.75
506.58	42536.90
506.76	42607.11
506.93	42836.48
507.11	42579.03
507.28	42871.59
507.46	43290.55
507.63	43519.92
507.81	43342.04
507.98	43100.97
508.16	43309.27
508.33	43477.79
508.50	43859.30
508.68	44383.58
508.85	44818.92
509.03	44484.22
509.20	44500.61
509.38	44734.66
509.55	44662.10
509.73	44758.06
509.90	44802.53
510.08	44947.65
510.25	44795.51
510.42	44669.12
510.60	45340.86
510.77	45811.31
510.95	45837.05
511.12	45336.18
511.30	45841.73
511.47	46017.27
511.64	45933.01
511.82	46211.54
511.99	46209.20
512.17	46569.64
512.34	46288.77
512.51	46960.51
512.69	46506.44
512.86	46459.63
513.04	47253.08
513.21	46644.54
513.38	46738.16
513.56	47388.83
513.73	47365.42
513.90	47550.32
514.08	47641.60
514.25	47983.32
514.43	47393.51
514.60	48318.02
514.77	47367.76
514.95	48240.78
515.12	47929.49
515.29	47803.10
515.47	48456.11
515.64	48346.11
515.81	48346.11
515.99	48854.00
516.16	48699.53
516.33	49048.27
516.51	48994.43
516.68	49055.29
516.85	48739.32
517.03	49251.89
517.20	49188.70
517.37	48949.96
517.54	49020.18
517.72	49467.22
517.89	49359.56
518.06	49902.56
518.24	49808.94
518.41	49535.10
518.58	50071.08
518.75	49808.94
518.93	50286.41
519.10	49778.51
519.27	50209.17
519.45	50007.89
519.62	50223.22
519.79	50368.33
519.96	50092.15
520.14	50403.44
520.31	50270.03
520.48	50796.65
520.65	50927.72
520.83	50930.06
521.00	51121.98
521.17	50944.10
521.34	51222.62
521.52	51030.70
521.69	51370.08
521.86	51540.94
522.03	51536.26
522.20	51510.51
522.38	51786.69
522.55	51803.08
522.72	51690.73
522.89	51636.90
523.07	51978.62
523.24	51941.17
523.41	52154.16
523.58	52086.28
523.75	52261.82
523.92	52231.40
524.10	52088.62
524.27	52505.24
524.44	52713.55
524.61	52449.06
524.78	52587.16
524.96	52722.91
525.13	52582.48
525.30	52416.30
525.47	52795.46
525.64	52605.88
525.81	52875.04
525.98	52851.64
526.16	53076.33
526.33	53076.33
526.50	53312.72
526.67	53055.26
526.84	53284.64
527.01	53226.12
527.18	53041.22
527.36	53176.97
527.53	53375.92
527.70	53780.83
527.87	53668.48
528.04	53415.71
528.21	53521.03
528.38	53497.62
528.55	53851.05
528.72	53682.53
528.89	53886.15
529.07	53787.85
529.24	53682.53
529.41	54185.74
529.58	53759.76
529.75	53897.86
529.92	54005.52
530.09	54167.02
530.26	54216.17
530.43	54106.16
530.60	53832.32
530.77	54108.50
530.94	54424.48
531.11	54307.45
531.28	54478.31
531.46	54487.67
531.63	54775.56
531.80	54485.33
531.97	54693.64
532.14	54866.84
532.31	54852.80
532.48	54939.39
532.65	54892.58
532.82	54890.24
532.99	55051.74
533.16	54965.14
533.33	55068.12
533.50	55150.04
533.67	54911.31
533.84	55231.96
534.01	55196.85
534.18	55145.36
534.35	55529.21
534.52	55175.79
534.69	55753.90
534.86	55538.57
535.03	55281.11
535.20	55505.80
535.37	55585.38
535.54	55779.65
535.71	55412.18
535.88	55463.67
536.05	55693.05
536.22	55931.78
536.38	55899.01
536.55	55978.59
536.72	55519.85
536.89	55873.27
537.06	55983.27
537.23	55952.85
537.40	55608.79
537.57	56086.26
537.74	56198.60
537.91	56224.35
538.08	56317.97
538.25	56093.28
538.42	56104.98
538.59	56502.87
538.75	56261.80
538.92	56184.56
539.09	56570.75
539.26	56114.34
539.43	56236.05
539.60	56479.47
539.77	56275.84
539.94	56608.20
540.11	56507.55
540.28	56781.40
540.44	56713.52
540.61	56722.88
540.78	56814.16
540.95	56928.85
541.12	56645.65
541.29	56647.99
541.46	56968.64
541.62	56727.56
541.79	56858.63
541.96	56718.20
542.13	56694.80
542.30	56842.25
542.47	57106.73
542.63	56982.68
542.80	57268.23
542.97	57303.34
543.14	57422.70
543.31	57254.18
543.48	57249.50
543.64	57556.11
543.81	57764.42
543.98	57525.69
544.15	57371.21
544.32	57609.95
544.48	57745.70
544.65	57518.67
544.82	57806.55
544.99	57457.81
545.16	57829.96
545.32	57546.75
545.49	58052.31
545.66	57909.53
545.83	57956.35
546.00	57918.90
546.16	57961.03
546.33	57902.51
546.50	57602.92
546.67	57909.53
546.83	57855.70
547.00	58066.35
547.17	58000.82
547.34	58150.61
547.50	58152.95
547.67	58181.04
547.84	58152.95
548.00	58396.37
548.17	58262.96
548.34	58351.90
548.51	58422.11
548.67	58461.90
548.84	58403.39
549.01	58417.43
549.18	58291.04
549.34	58419.77
549.51	58721.70
549.68	58550.84
549.84	58557.86
550.01	58581.27
550.18	58513.39
550.34	58747.45
550.51	59000.22
550.68	58894.90
550.84	58515.73
551.01	58773.19
551.18	58784.90
551.34	58862.13
551.51	58712.34
551.68	58763.83
551.84	59044.69
552.01	58642.12
552.18	59199.17
552.34	58817.66
552.51	59004.91
552.68	58899.58
552.84	58869.15
553.01	59100.87
553.18	59082.14
553.34	59180.45
553.51	58892.56
553.67	58958.09
553.84	58979.16
554.01	59264.70
554.17	59388.75
554.34	59178.10
554.51	59157.04
554.67	59199.17
554.84	59313.86
555.00	59241.30
555.17	59189.81
555.33	59245.98
555.50	59262.36
555.67	59145.34
555.83	59292.79
556.00	59505.78
556.16	59613.44
556.33	59578.34
556.50	59622.81
556.66	59503.44
556.83	59353.65
556.99	59767.92
557.16	59796.01
557.32	59859.20
557.49	59650.89
557.65	59501.10
557.82	59449.61
557.98	59597.06
558.15	59721.11
558.32	59702.38
558.48	59531.53
558.65	59578.34
558.81	59707.07
558.98	59840.48
559.14	59627.49
559.31	59800.69
559.47	59969.21
559.64	60097.94
559.80	59936.44
559.97	60055.81
560.13	59807.71
560.30	59931.76
560.46	60060.49
560.63	59950.48
560.79	59943.46
560.96	59896.65
561.12	60133.04
561.29	59957.50
561.45	60142.41
561.61	60088.57
561.78	60116.66
561.94	59845.16
562.11	59969.21
562.27	60097.94
562.44	60121.34
562.60	60294.54
562.77	60266.45
562.93	60001.97
563.10	60121.34
563.26	60142.41
563.42	60418.59
563.59	60320.29
563.75	60355.39
563.92	60331.99
564.08	60292.20
564.24	60472.42
564.41	60149.43
564.57	60430.29
564.74	60460.72
564.90	60528.59
565.07	60418.59
565.23	60357.74
565.39	60350.71
565.56	60240.71
565.72	60367.10
565.88	60472.42
566.05	60275.82
566.21	60388.16
566.38	60542.64
566.54	60617.53
566.70	60580.09
566.87	60832.86
567.03	60378.80
567.19	60797.76
567.36	60615.19
567.52	60573.06
567.68	60683.07
567.85	60603.49
568.01	60736.90
568.17	60699.45
568.34	60671.37
568.50	60479.44
568.66	60645.62
568.83	60633.92
568.99	60472.42
569.15	60444.33
569.32	60882.02
569.48	60685.41
569.64	60739.24
569.81	60760.31
569.97	60743.92
570.13	60680.73
570.30	60535.62
570.46	60804.78
570.62	60973.30
570.78	60727.54
570.95	60788.39
571.11	60797.76
571.27	60842.23
571.43	60842.23
571.60	61106.71
571.76	60877.33
571.92	60800.10
572.09	60814.14
572.25	60870.31
572.41	60818.82
572.57	60662.00
572.74	61076.28
572.90	60760.31
573.06	60870.31
573.22	60874.99
573.38	60898.40
573.55	60764.99
573.71	61174.58
573.87	60842.23
574.03	60673.71
574.20	60947.55
574.36	60837.54
574.52	60914.78
574.68	60926.49
574.84	61052.87
575.01	60743.92
575.17	61034.15
575.33	60968.61
575.49	60807.12
575.65	60898.40
575.82	61029.47
575.98	61109.05
576.14	61123.09
576.30	61151.18
576.46	60949.89
576.62	61160.54
576.79	61104.37
576.95	60853.93
577.11	60977.98
577.27	61085.64
577.43	61059.90
577.59	61006.06
577.75	60940.53
577.92	60893.72
578.08	60884.36
578.24	61092.66
578.40	61141.81
578.56	61216.71
578.72	61118.41
578.88	61200.33
579.04	61249.48
579.21	61125.43
579.37	60970.96
579.53	61113.73
579.69	60762.65
579.85	61125.43
580.01	60975.64
580.17	60924.14
580.33	61057.56
580.49	61167.56
580.65	61029.47
580.82	60947.55
580.98	60867.97
581.14	61050.53
581.30	61076.28
581.46	61247.14
581.62	61197.99
581.78	61123.09
581.94	61116.07
582.10	61003.72
582.26	61034.15
582.42	61167.56
582.58	61289.27
582.74	61200.33
582.90	61190.97
583.06	61090.32
583.22	61125.43
583.38	61183.94
583.54	61219.05
583.70	61275.22
583.86	61230.75
584.02	61160.54
584.18	61413.32
584.34	61254.16
584.50	61275.22
584.66	61102.03
584.82	60996.70
584.98	61375.87
585.14	61139.47
585.30	61109.05
585.46	61160.54
585.62	61366.51
585.78	61298.63
585.94	61043.51
586.10	61240.12
586.26	61146.50
586.42	61207.35
586.58	61401.61
586.74	61242.46
586.90	61083.30
587.06	61144.16
587.22	61329.06
587.38	61258.84
587.54	61502.26
587.70	61499.92
587.86	61244.80
588.02	61392.25
588.18	61432.04
588.34	61366.51
588.49	61293.95
