SpectraSuite Data File
++++++++++++++++++++++++++++++++++++
Date: Fri Oct 25 11:34:04 EDT 2013
User: price-jones
Dark Spectrum Present: No
Reference Spectrum Present: No
Number of Sampled Component Spectra: 1
Spectrometers: USB2+H05261
Integration Time (usec): 100000 (USB2+H05261)
Spectra Averaged: 1 (USB2+H05261)
Boxcar Smoothing: 0 (USB2+H05261)
Correct for Electrical Dark: No (USB2+H05261)
Strobe/Lamp Enabled: No (USB2+H05261)
Correct for Detector Non-linearity: No (USB2+H05261)
Correct for Stray Light: No (USB2+H05261)
Number of Pixels in Processed Spectrum: 2048
>>>>>Begin Processed Spectral Data<<<<<
365.73	292.57
365.92	292.57
366.12	292.57
366.32	203.63
366.52	224.69
366.72	208.31
366.91	168.52
367.11	168.52
367.31	147.45
367.51	173.20
367.70	140.43
367.90	180.22
368.10	107.66
368.30	224.69
368.49	156.82
368.69	259.80
368.89	224.69
369.09	194.26
369.28	224.69
369.48	203.63
369.68	220.01
369.87	201.29
370.07	220.01
370.27	271.50
370.47	318.31
370.66	456.40
370.86	468.11
371.06	543.00
371.25	648.33
371.45	535.98
371.65	543.00
371.84	540.66
372.04	489.17
372.24	603.86
372.44	596.84
372.63	564.07
372.83	564.07
373.03	585.13
373.22	561.73
373.42	596.84
373.62	683.44
373.81	610.88
374.01	650.67
374.21	543.00
374.40	636.63
374.60	674.07
374.79	667.05
374.99	681.10
375.19	643.65
375.38	695.14
375.58	610.88
375.78	716.20
375.97	690.46
376.17	718.54
376.37	732.59
376.56	638.97
376.76	678.76
376.95	627.26
377.15	695.14
377.35	592.16
377.54	713.86
377.74	655.35
377.93	676.41
378.13	779.40
378.33	681.10
378.52	697.48
378.72	608.54
378.91	683.44
379.11	664.71
379.31	664.71
379.50	695.14
379.70	779.40
379.89	727.91
380.09	711.52
380.28	725.57
380.48	755.99
380.68	718.54
380.87	695.14
381.07	807.48
381.26	727.91
381.46	711.52
381.65	793.44
381.85	739.61
382.04	746.63
382.24	798.12
382.43	781.74
382.63	791.10
382.83	765.36
383.02	767.70
383.22	880.04
383.41	741.95
383.61	819.19
383.80	849.61
384.00	777.06
384.19	821.53
384.39	821.53
384.58	802.80
384.78	835.57
384.97	805.14
385.17	809.83
385.36	840.25
385.56	933.87
385.75	809.83
385.95	821.53
386.14	882.38
386.34	863.66
386.53	835.57
386.72	809.83
386.92	847.27
387.11	898.77
387.31	863.66
387.50	882.38
387.70	884.72
387.89	912.81
388.09	898.77
388.28	924.51
388.48	924.51
388.67	915.15
388.86	889.40
389.06	966.64
389.25	992.39
389.45	884.72
389.64	884.72
389.84	983.02
390.03	1004.09
390.22	978.34
390.42	922.17
390.61	891.74
390.81	851.96
391.00	926.85
391.19	990.05
391.39	1032.18
391.58	959.62
391.78	931.53
391.97	978.34
392.16	1039.20
392.36	1071.97
392.55	1118.78
392.75	1053.24
392.94	945.58
393.13	1057.92
393.33	1004.09
393.52	1100.05
393.71	1144.52
393.91	1025.15
394.10	1062.60
394.29	1090.69
394.49	1015.79
394.68	1139.84
394.88	1029.84
395.07	1121.12
395.26	1114.10
395.46	1102.39
395.65	1069.62
395.84	1163.25
396.04	1249.85
396.23	1151.54
396.42	1107.07
396.62	1188.99
396.81	1256.87
397.00	1184.31
397.19	1130.48
397.39	1214.74
397.58	1158.57
397.77	1153.88
397.97	1219.42
398.16	1282.61
398.35	1296.66
398.55	1153.88
398.74	1226.44
398.93	1203.04
399.12	1327.08
399.32	1294.32
399.51	1359.85
399.70	1289.64
399.90	1331.76
400.09	1397.30
400.28	1322.40
400.47	1320.06
400.67	1350.49
400.86	1299.00
401.05	1418.36
401.24	1345.81
401.44	1502.62
401.63	1425.39
401.82	1369.21
402.01	1462.83
402.21	1416.02
402.40	1483.90
402.59	1444.11
402.78	1462.83
402.97	1535.39
403.17	1547.09
403.36	1462.83
403.55	1603.27
403.74	1577.52
403.93	1591.56
404.13	1533.05
404.32	1610.29
404.51	1603.27
404.70	1591.56
404.89	1575.18
405.09	1722.63
405.28	1694.55
405.47	1624.33
405.66	1713.27
405.85	1696.89
406.05	1734.34
406.24	1706.25
406.43	1614.97
406.62	1816.26
406.81	1844.34
407.00	1764.76
407.20	1694.55
407.39	1753.06
407.58	1792.85
407.77	1898.17
407.96	1954.35
408.15	1849.02
408.34	1818.60
408.54	1940.30
408.73	1973.07
408.92	1909.88
409.11	1998.82
409.30	1940.30
409.49	1980.09
409.68	1961.37
409.87	1991.80
410.07	2040.95
410.26	1928.60
410.45	2012.86
410.64	2038.61
410.83	2193.08
411.02	2118.18
411.21	2172.02
411.40	2118.18
411.59	2113.50
411.78	2169.68
411.98	2150.95
412.17	2275.00
412.36	2263.30
412.55	2188.40
412.74	2342.88
412.93	2298.41
413.12	2204.78
413.31	2326.49
413.50	2300.75
413.69	2347.56
413.88	2293.72
414.07	2331.17
414.26	2413.09
414.45	2319.47
414.64	2377.98
414.83	2509.05
415.02	2537.14
415.22	2612.04
415.41	2619.06
415.60	2581.61
415.79	2621.40
415.98	2609.70
416.17	2726.72
416.36	2736.09
416.55	2740.77
416.74	2780.56
416.93	2757.15
417.12	2759.49
417.31	2935.03
417.50	2867.16
417.69	2916.31
417.88	2930.35
418.07	2867.16
418.26	2909.29
418.45	2988.86
418.64	3094.19
418.83	3007.59
419.02	3056.74
419.21	3098.87
419.39	2911.63
419.58	3124.62
419.77	3059.08
419.96	3152.70
420.15	3171.43
420.34	3110.57
420.53	3173.77
420.72	3162.06
420.91	3208.87
421.10	3131.64
421.29	3094.19
421.48	3220.58
421.67	3288.45
421.86	3187.81
422.05	3262.71
422.24	3201.85
422.43	3267.39
422.61	3265.05
422.80	3236.96
422.99	3449.95
423.18	3363.35
423.37	3365.69
423.56	3295.47
423.75	3267.39
423.94	3323.56
424.13	3141.00
424.32	3115.25
424.50	3363.35
424.69	3391.44
424.88	3332.92
425.07	3248.66
425.26	3300.16
425.45	3449.95
425.64	3318.88
425.83	3398.46
426.01	3405.48
426.20	3407.82
426.39	3414.84
426.58	3398.46
426.77	3346.97
426.96	3562.30
427.15	3403.14
427.33	3534.21
427.52	3531.87
427.71	3541.23
427.90	3571.66
428.09	3609.11
428.28	3609.11
428.46	3613.79
428.65	3709.75
428.84	3702.73
429.03	3576.34
429.22	3679.32
429.40	3698.05
429.59	3815.07
429.78	3585.70
429.97	3588.04
430.16	3817.41
430.34	3634.85
430.53	3833.80
430.72	3761.24
430.91	3740.18
431.10	3744.86
431.28	3901.67
431.47	3936.78
431.66	3906.35
431.85	4072.53
432.03	3974.23
432.22	3948.48
432.41	3868.91
432.60	3941.46
432.79	3997.64
432.97	4156.79
433.16	4184.88
433.35	4147.43
433.54	4149.77
433.72	4142.75
433.91	4119.34
434.10	4222.33
434.28	4227.01
434.47	4168.49
434.66	4250.41
434.85	4238.71
435.03	4346.37
435.22	4341.69
435.41	4376.80
435.59	4322.97
435.78	4360.42
435.97	4257.43
436.16	4262.12
436.34	4290.20
436.53	4517.23
436.72	4374.46
436.90	4271.48
437.09	4442.34
437.28	4287.86
437.46	4360.42
437.65	4308.93
437.84	4437.66
438.02	4535.96
438.21	4554.68
438.40	4437.66
438.58	4638.94
438.77	4716.18
438.96	4554.68
439.14	4854.27
439.33	4971.30
439.52	4802.78
439.70	4849.59
439.89	4814.48
440.08	4961.94
440.26	4990.02
440.45	4959.60
440.63	4985.34
440.82	5193.65
441.01	4898.74
441.19	5228.76
441.38	5203.01
441.57	5083.64
441.75	5214.71
441.94	5163.22
442.12	5137.48
442.31	5259.18
442.50	5254.50
442.68	5268.55
442.87	5291.95
443.05	5383.23
443.24	5465.15
443.43	5479.19
443.61	5467.49
443.80	5636.01
443.98	5338.76
444.17	5334.08
444.35	5394.93
444.54	5521.32
444.73	5453.45
444.91	5472.17
445.10	5444.09
445.28	5600.90
445.47	5551.75
445.65	5650.05
445.84	5703.89
446.02	5537.71
446.21	5530.69
446.39	5605.58
446.58	5647.71
446.77	5582.18
446.95	5345.78
447.14	5603.24
447.32	5762.40
447.51	5713.25
447.69	5582.18
447.88	5647.71
448.06	5671.12
448.25	5607.92
448.43	5657.07
448.62	5832.62
448.80	5820.91
448.99	5816.23
449.17	5813.89
449.36	5753.04
449.54	5818.57
449.73	5987.09
449.91	6061.99
450.10	5879.43
450.28	6148.59
450.46	6127.52
450.65	5970.71
450.83	6080.71
451.02	5888.79
451.20	6059.65
451.39	6171.99
451.57	6092.41
451.76	6010.50
451.94	6045.60
452.13	6253.91
452.31	6061.99
452.49	6029.22
452.68	6221.14
452.86	6270.30
453.05	6282.00
453.23	6300.72
453.42	6319.45
453.60	6164.97
453.78	6466.90
453.97	6380.30
454.15	6317.11
454.34	6155.61
454.52	6455.20
454.70	6497.33
454.89	6502.01
455.07	6537.12
455.26	6614.35
455.44	6640.10
455.62	6717.34
455.81	6590.95
455.99	6558.18
456.17	6703.29
456.36	6696.27
456.54	6647.12
456.73	6754.79
456.91	6927.99
457.09	6913.94
457.28	6822.66
457.46	6736.06
457.64	7054.37
457.83	6918.62
458.01	6768.83
458.19	7021.61
458.38	6998.20
458.56	7059.06
458.74	6995.86
458.93	7002.88
459.11	7171.40
459.29	7145.66
459.48	7115.23
459.66	7152.68
459.84	6988.84
460.03	7358.64
460.21	7241.62
460.39	7159.70
460.57	7232.26
460.76	7311.83
460.94	7419.50
461.12	7325.88
461.31	7410.14
461.49	7260.34
461.67	7499.08
461.85	7581.00
462.04	7286.09
462.22	7819.73
462.40	7559.93
462.59	7517.80
462.77	7597.38
462.95	7679.30
463.13	7667.60
463.32	7648.87
463.50	7501.42
463.68	7707.38
463.86	7763.56
464.05	7588.02
464.23	7698.02
464.41	7815.05
464.59	7623.12
464.78	7981.23
464.96	7857.18
465.14	7866.54
465.32	8093.57
465.50	7927.39
465.69	7819.73
465.87	8091.23
466.05	7803.35
466.23	8018.68
466.41	8011.65
466.60	8241.03
466.78	8142.72
466.96	8201.24
467.14	8121.66
467.32	8098.25
467.51	8400.18
467.69	7941.44
467.87	8128.68
468.05	8217.62
468.23	8271.45
468.41	8030.38
468.60	8222.30
468.78	8245.71
468.96	8226.98
469.14	8510.19
469.32	8528.91
469.50	8187.19
469.69	8479.76
469.87	8554.66
470.05	8491.46
470.23	8489.12
470.41	8566.36
470.59	8617.85
470.77	8779.35
470.95	8664.66
471.14	8863.61
471.32	8690.41
471.50	8751.26
471.68	8809.78
471.86	8929.14
472.04	9036.81
472.22	9104.68
472.40	8800.41
472.58	8964.25
472.77	9083.62
472.95	9039.15
473.13	9511.94
473.31	9231.07
473.49	9434.70
473.67	9437.04
473.85	9291.93
474.03	9516.62
474.21	9708.54
474.39	9610.24
474.57	9533.00
474.75	9781.10
474.93	9628.96
475.12	9591.52
475.30	9633.64
475.48	9767.06
475.66	9841.95
475.84	9846.63
476.02	10286.65
476.20	10022.17
476.38	10146.22
476.56	10324.10
476.74	10216.44
476.92	10253.89
477.10	10319.42
477.28	10410.70
477.46	10420.06
477.64	10551.14
477.82	10686.89
478.00	10995.84
478.18	10902.22
478.36	11049.67
478.54	11307.13
478.72	11014.56
478.90	11154.99
479.08	11239.25
479.26	11494.37
479.44	11227.55
479.62	11398.41
479.80	11496.71
479.98	11786.94
480.16	12060.78
480.34	11709.70
480.52	11962.48
480.70	12121.63
480.88	11889.92
481.06	12025.67
481.24	12393.14
481.41	12465.69
481.59	12594.42
481.77	12732.51
481.95	12664.64
482.13	12872.95
482.31	12781.67
482.49	13125.72
482.67	13128.06
482.85	13027.42
483.03	13373.82
483.21	13458.08
483.39	13593.83
483.57	13448.72
483.74	13521.27
483.92	13844.27
484.10	13657.03
484.28	13657.03
484.46	14464.51
484.64	14352.16
484.82	14146.20
485.00	14277.27
485.18	14497.28
485.35	14539.41
485.53	14345.14
485.71	14979.43
485.89	14984.11
486.07	15133.90
486.25	15253.27
486.43	15187.74
486.61	15351.57
486.78	15669.89
486.96	15817.34
487.14	15815.00
487.32	15810.32
487.50	15861.81
487.68	16393.11
487.85	16098.20
488.03	16236.30
488.21	16690.36
488.39	16865.90
488.57	16877.60
488.75	16634.19
488.92	16964.20
489.10	17137.40
489.28	17256.77
489.46	17338.69
489.64	17341.03
489.81	17441.67
489.99	17834.88
490.17	17762.33
490.35	18019.78
490.53	18090.00
490.70	18176.60
490.88	18047.87
491.06	18471.51
491.24	18740.67
491.41	18469.17
491.59	18820.25
491.77	18920.89
491.95	18862.38
492.13	18986.43
492.30	19246.23
492.48	19164.31
492.66	19370.27
492.84	19325.80
493.01	19484.96
493.19	19688.59
493.37	19880.51
493.54	19894.55
493.72	20238.61
493.90	20119.24
494.08	20350.96
494.25	20393.09
494.43	20425.86
494.61	20933.75
494.79	21029.71
494.96	20842.47
495.14	20931.41
495.32	21310.58
495.49	21015.67
495.67	21254.40
495.85	21626.55
496.02	21661.66
496.20	21947.20
496.38	21914.44
496.55	22176.58
496.73	22434.03
496.91	22256.15
497.09	22572.13
497.26	22192.96
497.44	22464.46
497.62	22558.08
497.79	23398.34
497.97	22679.79
498.14	23131.51
498.32	23342.16
498.50	23477.91
498.67	23197.05
498.85	23283.65
499.03	23520.04
499.20	23901.55
499.38	23763.46
499.56	23775.16
499.73	23939.00
499.91	24006.87
500.08	24135.60
500.26	24009.22
500.44	24126.24
500.61	23976.45
500.79	24390.72
500.97	24528.81
501.14	24479.66
501.32	24903.30
501.49	24781.59
501.67	24755.85
501.84	24994.58
502.02	24889.26
502.20	25015.65
502.37	25380.77
502.55	24982.88
502.72	25331.62
502.90	25298.85
503.07	25359.70
503.25	25348.00
503.43	25652.27
503.60	25947.18
503.78	25638.23
503.95	25699.08
504.13	26204.64
504.30	26307.62
504.48	25923.77
504.65	26410.60
504.83	26410.60
505.01	26834.24
505.18	26752.32
505.36	27063.61
505.53	26902.12
505.71	26338.05
505.88	26752.32
506.06	26588.49
506.23	27159.58
506.41	26834.24
506.58	26937.23
506.76	27388.95
506.93	27861.74
507.11	27365.54
507.28	27559.81
507.46	27410.01
507.63	27960.04
507.81	27672.15
507.98	27674.49
508.16	27573.85
508.33	27838.33
508.50	28268.99
508.68	28144.94
508.85	27955.36
509.03	27999.83
509.20	28357.93
509.38	28765.18
509.55	28699.65
509.73	28781.57
509.90	28907.96
510.08	28961.79
510.25	28842.42
510.42	29156.05
510.60	29069.45
510.77	29429.90
510.95	29497.77
511.12	29212.23
511.30	29481.39
511.47	29502.45
511.64	29448.62
511.82	29607.78
511.99	29652.25
512.17	30073.54
512.34	30169.51
512.51	30022.05
512.69	29963.54
512.86	30293.55
513.04	30073.54
513.21	30321.64
513.38	30389.52
513.56	30918.48
513.73	30686.76
513.90	30656.34
514.08	30368.45
514.25	30869.33
514.43	30944.22
514.60	30953.58
514.77	30878.69
514.95	31103.38
515.12	30890.39
515.29	30951.24
515.47	31536.38
515.64	31044.87
515.81	30934.86
515.99	31707.24
516.16	31995.12
516.33	31480.21
516.51	31889.80
516.68	31756.39
516.85	31915.54
517.03	31695.53
517.20	32133.21
517.37	31910.86
517.54	32016.19
517.72	32140.24
517.89	32540.47
518.06	32271.31
518.24	32357.91
518.41	32170.66
518.58	32343.86
518.75	32535.79
518.93	32720.69
519.10	32641.11
519.27	32765.16
519.45	32608.34
519.62	32842.40
519.79	33130.28
519.96	32561.53
520.14	32870.48
520.31	32940.70
520.48	33415.83
520.65	33429.87
520.83	33563.28
521.00	34012.66
521.17	33441.57
521.34	33998.62
521.52	33464.98
521.69	33708.40
521.86	33874.57
522.03	34286.51
522.20	34134.37
522.38	34253.74
522.55	34305.23
522.72	34146.08
522.89	34565.03
523.07	34705.46
523.24	34787.38
523.41	34841.21
523.58	34342.68
523.75	35047.18
523.92	34286.51
524.10	34522.90
524.27	34806.11
524.44	35056.54
524.61	34855.26
524.78	35199.32
524.96	35133.78
525.13	35377.20
525.30	35281.24
525.47	35667.42
525.64	35524.65
525.81	35147.82
525.98	35634.66
526.16	35381.88
526.33	35604.23
526.50	36098.08
526.67	36109.78
526.84	35997.44
527.01	35770.41
527.18	35519.97
527.36	35655.72
527.53	35967.01
527.70	36428.10
527.87	36428.10
528.04	36411.71
528.21	36250.22
528.38	36573.21
528.55	36465.55
528.72	36460.87
528.89	36591.94
529.07	36591.94
529.24	36458.52
529.41	37034.30
529.58	36238.51
529.75	36762.79
529.92	36744.07
530.09	37064.72
530.26	37038.98
530.43	36807.26
530.60	37237.92
530.77	36608.32
530.94	36769.82
531.11	37156.00
531.28	37338.57
531.46	37340.91
531.63	37123.24
531.80	37577.30
531.97	37509.43
532.14	37226.22
532.31	37844.12
532.48	37439.21
532.65	37729.44
532.82	37958.81
532.99	37869.87
533.16	37979.87
533.33	38136.69
533.50	38464.36
533.67	37792.63
533.84	37851.14
534.01	38356.70
534.18	37886.25
534.35	38396.49
534.52	38330.95
534.69	38169.46
534.86	38621.18
535.03	37858.17
535.20	38745.23
535.37	38665.65
535.54	38555.64
535.71	38892.68
535.88	38794.38
536.05	38962.90
536.22	38714.80
536.38	38955.88
536.55	39105.67
536.72	38808.42
536.89	38452.66
537.06	38930.13
537.23	39665.06
537.40	38888.00
537.57	39065.88
537.74	38742.89
537.91	39353.77
538.08	39505.90
538.25	38876.30
538.42	39377.17
538.59	39564.42
538.75	39288.23
538.92	39653.36
539.09	39800.81
539.26	40184.66
539.43	39555.05
539.60	39838.26
539.77	39555.05
539.94	39981.03
540.11	40175.30
540.28	39950.60
540.44	40037.20
540.61	39821.87
540.78	39995.07
540.95	40016.14
541.12	39910.82
541.29	39903.79
541.46	40219.77
541.62	40123.80
541.79	40535.74
541.96	40238.49
542.13	40222.11
542.30	40179.98
542.47	40648.08
542.63	40825.96
542.80	40865.75
542.97	41301.09
543.14	41008.53
543.31	40985.12
543.48	40832.99
543.64	41237.90
543.81	41624.09
543.98	41151.30
544.15	41453.23
544.32	41076.40
544.48	41635.79
544.65	41329.18
544.82	41514.08
544.99	41017.89
545.16	41724.73
545.32	41607.70
545.49	41455.57
545.66	41766.86
545.83	41713.03
546.00	42230.29
546.16	41691.96
546.33	41666.22
546.50	41752.82
546.67	41869.84
546.83	41364.29
547.00	42036.02
547.17	41968.15
547.34	41902.61
547.50	42377.74
547.67	42136.66
547.84	41958.78
548.00	41942.40
548.17	42155.39
548.34	42480.72
548.51	42663.28
548.67	42611.79
548.84	42560.30
549.01	42607.11
549.18	42155.39
549.34	42143.69
549.51	42679.67
549.68	42356.67
549.84	42459.66
550.01	42707.76
550.18	42323.91
550.34	42674.99
550.51	43037.77
550.68	43159.48
550.84	42752.23
551.01	43072.88
551.18	42658.60
551.34	42623.50
551.51	42904.36
551.68	42801.38
551.84	42789.67
552.01	42696.05
552.18	43484.81
552.34	43136.07
552.51	43407.58
552.68	42923.08
552.84	43580.78
553.01	43115.01
553.18	42974.58
553.34	43922.49
553.51	43325.66
553.67	43498.86
553.84	44041.86
554.01	43262.46
554.17	43625.25
554.34	43938.88
554.51	43569.07
554.67	44170.59
554.84	43903.77
555.00	43669.72
555.17	43487.15
555.33	43566.73
555.50	43594.82
555.67	43739.93
555.83	43810.15
556.00	44158.89
556.16	44524.01
556.33	44327.41
556.50	44224.42
556.66	44458.48
556.83	43941.22
556.99	44589.55
557.16	44196.34
557.32	44259.53
557.49	43995.05
557.65	44343.79
557.82	44425.71
557.98	44196.34
558.15	44699.55
558.32	44170.59
558.48	44215.06
558.65	44399.96
558.81	44470.18
558.98	44334.43
559.14	44137.82
559.31	44369.54
559.47	44334.43
559.64	44800.19
559.80	44425.71
559.97	44364.85
560.13	44875.09
560.30	44154.21
560.46	44931.26
560.63	44746.36
560.79	44903.18
560.96	45057.65
561.12	44797.85
561.29	44828.28
561.45	44989.78
561.61	44650.40
561.78	44856.37
561.94	44402.30
562.11	44816.58
562.27	44509.97
562.44	44832.96
562.60	45469.59
562.77	44942.97
562.93	44650.40
563.10	45347.88
563.26	45059.99
563.42	45076.38
563.59	45092.76
563.75	44975.73
563.92	45207.45
564.08	44839.98
564.24	45132.55
564.41	45237.87
564.57	44966.37
564.74	45104.46
564.90	44907.86
565.07	44907.86
565.23	45551.51
565.39	45275.32
565.56	44912.54
565.72	45088.08
565.88	45443.84
566.05	45277.66
566.21	45476.61
566.38	45411.07
566.54	45078.72
566.70	45429.80
566.87	45361.92
567.03	45502.35
567.19	45422.78
567.36	45872.16
567.52	45378.31
567.68	46199.83
567.85	45701.30
568.01	46099.19
568.17	45390.01
568.34	45476.61
568.50	45595.98
568.66	45846.41
568.83	45099.78
568.99	45794.92
569.15	45890.88
569.32	45336.18
569.48	45151.27
569.64	46176.43
569.81	45766.84
569.97	45633.42
570.13	46040.68
570.30	45567.89
570.46	45607.68
570.62	45982.16
570.78	45996.21
570.95	46064.08
571.11	46422.19
571.27	45715.34
571.43	45574.91
571.60	46068.76
571.76	45879.18
571.92	46028.98
572.09	45736.41
572.25	45801.94
572.41	45729.39
572.57	45963.44
572.74	46487.72
572.90	45918.97
573.06	46358.99
573.22	45773.86
573.38	46164.73
573.55	46061.74
573.71	46227.92
573.87	46117.92
574.03	45923.65
574.20	46349.63
574.36	46279.41
574.52	46085.15
574.68	45907.27
574.84	46211.54
575.01	46103.87
575.17	46234.94
575.33	46241.96
575.49	45631.08
575.65	46511.13
575.82	46253.67
575.98	46398.78
576.14	46258.35
576.30	46138.98
576.46	46396.44
576.62	46394.10
576.79	45914.29
576.95	46007.91
577.11	45972.80
577.27	46337.93
577.43	45787.90
577.59	46096.85
577.75	45762.15
577.92	45748.11
578.08	46564.96
578.24	46218.56
578.40	46291.12
578.56	46356.65
578.72	46117.92
578.88	46630.49
579.04	46274.73
579.21	46129.62
579.37	46485.38
579.53	46260.69
579.69	46174.09
579.85	45979.82
580.01	46459.63
580.17	46415.16
580.33	46611.77
580.49	46827.10
580.65	46113.23
580.82	46658.58
580.98	46368.35
581.14	46000.89
581.30	46541.55
581.46	46169.41
581.62	46272.39
581.78	46010.25
581.94	46539.21
582.10	46417.50
582.26	46288.77
582.42	46515.81
582.58	46550.91
582.74	46319.20
582.90	46403.46
583.06	46511.13
583.22	46721.77
583.38	46780.29
583.54	46791.99
583.70	46387.08
583.86	46344.95
584.02	46621.13
584.18	46859.87
584.34	46965.19
584.50	46829.44
584.66	46871.57
584.82	46469.00
584.98	47210.95
585.14	46911.36
585.30	46333.24
585.46	46604.75
585.62	46092.17
585.78	46761.56
585.94	46340.27
586.10	46595.38
586.26	46230.26
586.42	46309.84
586.58	46557.94
586.74	46534.53
586.90	46546.23
587.06	46649.22
587.22	46733.48
587.38	46412.82
587.54	46433.89
587.70	46677.30
587.86	46777.95
588.02	46618.79
588.18	46436.23
588.34	46490.06
588.49	46335.59
588.65	46410.48
588.81	46464.32
588.97	46597.73
589.13	46181.11
589.29	46892.63
589.45	46454.95
589.61	46574.32
589.77	47037.75
589.93	46672.62
590.08	46787.31
