SpectraSuite Data File
++++++++++++++++++++++++++++++++++++
Date: Fri Oct 25 11:22:44 EDT 2013
User: price-jones
Dark Spectrum Present: No
Reference Spectrum Present: No
Number of Sampled Component Spectra: 1
Spectrometers: USB2+H05261
Integration Time (usec): 100000 (USB2+H05261)
Spectra Averaged: 1 (USB2+H05261)
Boxcar Smoothing: 0 (USB2+H05261)
Correct for Electrical Dark: No (USB2+H05261)
Strobe/Lamp Enabled: No (USB2+H05261)
Correct for Detector Non-linearity: No (USB2+H05261)
Correct for Stray Light: No (USB2+H05261)
Number of Pixels in Processed Spectrum: 2048
>>>>>Begin Processed Spectral Data<<<<<
365.73	238.73
365.92	238.73
366.12	238.73
366.32	152.13
366.52	131.07
366.72	98.30
366.91	117.03
367.11	98.30
367.31	79.58
367.51	133.41
367.70	93.62
367.90	138.09
368.10	135.75
368.30	63.19
368.49	95.96
368.69	194.26
368.89	110.01
369.09	128.73
369.28	173.20
369.48	187.24
369.68	203.63
369.87	196.60
370.07	173.20
370.27	163.84
370.47	271.50
370.66	578.11
370.86	667.05
371.06	688.12
371.25	608.54
371.45	697.48
371.65	709.18
371.84	629.60
372.04	699.82
372.24	685.78
372.44	650.67
372.63	695.14
372.83	718.54
373.03	727.91
373.22	795.78
373.42	802.80
373.62	753.65
373.81	819.19
374.01	870.68
374.21	741.95
374.40	784.08
374.60	835.57
374.79	816.85
374.99	837.91
375.19	828.55
375.38	891.74
375.58	884.72
375.78	887.06
375.97	985.37
376.17	823.87
376.37	882.38
376.56	875.36
376.76	894.08
376.95	945.58
377.15	896.43
377.35	968.98
377.54	976.00
377.74	947.92
377.93	847.27
378.13	814.51
378.33	952.60
378.52	875.36
378.72	933.87
378.91	880.04
379.11	912.81
379.31	983.02
379.50	889.40
379.70	917.49
379.89	971.32
380.09	952.60
380.28	985.37
380.48	938.55
380.68	973.66
380.87	987.71
381.07	1008.77
381.26	1062.60
381.46	1029.84
381.65	973.66
381.85	1041.54
382.04	1050.90
382.24	1114.10
382.43	1078.99
382.63	1034.52
382.83	1069.62
383.02	1088.35
383.22	1100.05
383.41	1104.73
383.61	1116.44
383.80	1109.41
384.00	1116.44
384.19	1088.35
384.39	1132.82
384.58	1090.69
384.78	1128.14
384.97	1158.57
385.17	1088.35
385.36	1153.88
385.56	1095.37
385.75	1200.69
385.95	1174.95
386.14	1177.29
386.34	1181.97
386.53	1160.91
386.72	1179.63
386.92	1266.23
387.11	1191.33
387.31	1345.81
387.50	1214.74
387.70	1294.32
387.89	1291.98
388.09	1186.65
388.28	1193.67
388.48	1256.87
388.67	1364.53
388.86	1341.13
389.06	1240.48
389.25	1299.00
389.45	1446.45
389.64	1352.83
389.84	1392.62
390.03	1315.38
390.22	1390.28
390.42	1423.05
390.61	1331.76
390.81	1432.41
391.00	1439.43
391.19	1418.36
391.39	1376.24
391.58	1460.49
391.78	1497.94
391.97	1526.03
392.16	1432.41
392.36	1451.13
392.55	1504.96
392.75	1528.37
392.94	1582.20
393.13	1659.44
393.33	1547.09
393.52	1654.76
393.71	1565.82
393.91	1645.40
394.10	1586.88
394.29	1607.95
394.49	1640.72
394.68	1603.27
394.88	1614.97
395.07	1568.16
395.26	1682.85
395.46	1671.14
395.65	1647.74
395.84	1696.89
396.04	1823.28
396.23	1692.21
396.42	1689.87
396.62	1701.57
396.81	1776.47
397.00	1762.42
397.19	1783.49
397.39	1741.36
397.58	1783.49
397.77	1675.82
397.97	1842.00
398.16	1881.79
398.35	1872.43
398.55	1954.35
398.74	1914.56
398.93	1956.69
399.12	1930.94
399.32	2008.18
399.51	1940.30
399.70	1984.77
399.90	1996.48
400.09	2052.65
400.28	1923.92
400.47	2059.67
400.67	2043.29
400.86	2157.97
401.05	2087.76
401.24	2083.08
401.44	2090.10
401.63	2183.72
401.82	2172.02
402.01	2153.29
402.21	2153.29
402.40	2155.63
402.59	2251.60
402.78	2195.42
402.97	2162.66
403.17	2338.20
403.36	2406.07
403.55	2408.41
403.74	2197.76
403.93	2303.09
404.13	2368.62
404.32	2319.47
404.51	2326.49
404.70	2420.11
404.89	2490.33
405.09	2504.37
405.28	2466.92
405.47	2399.05
405.66	2469.27
405.85	2581.61
406.05	2612.04
406.24	2513.74
406.43	2647.15
406.62	2661.19
406.81	2621.40
407.00	2649.49
407.20	2609.70
407.39	2583.95
407.58	2677.57
407.77	2693.96
407.96	2902.26
408.15	2766.51
408.34	2747.79
408.54	2848.43
408.73	2780.56
408.92	2722.04
409.11	2820.35
409.30	2958.44
409.49	2951.42
409.68	3091.85
409.87	2988.86
410.07	2986.52
410.26	2970.14
410.45	2876.52
410.64	3049.72
410.83	3068.44
411.02	3169.09
411.21	3269.73
411.40	3204.19
411.59	3246.32
411.78	3131.64
411.98	3185.47
412.17	3269.73
412.36	3368.03
412.55	3393.78
412.74	3456.97
412.93	3335.26
413.12	3286.11
413.31	3522.51
413.50	3447.61
413.69	3433.57
413.88	3564.64
414.07	3599.74
414.26	3595.06
414.45	3698.05
414.64	3730.81
414.83	3616.13
415.02	3946.14
415.22	3878.27
415.41	4046.79
415.60	3843.16
415.79	3929.76
415.98	3978.91
416.17	4051.47
416.36	3904.01
416.55	3983.59
416.74	3992.95
416.93	4014.02
417.12	4004.66
417.31	4109.98
417.50	4161.47
417.69	4327.65
417.88	4124.02
418.07	4224.67
418.26	4238.71
418.45	4395.53
418.64	4358.08
418.83	4468.08
419.02	4477.44
419.21	4470.42
419.39	4634.26
419.58	4423.61
419.77	4662.35
419.96	4542.98
420.15	4660.01
420.34	4559.36
420.53	4814.48
420.72	4737.24
420.91	4774.69
421.10	4723.20
421.29	4800.44
421.48	4816.82
421.67	4655.33
421.86	4814.48
422.05	4880.02
422.24	4823.84
422.43	4865.97
422.61	4784.06
422.80	5001.72
422.99	4868.31
423.18	4919.81
423.37	5050.88
423.56	5032.15
423.75	4882.36
423.94	4915.12
424.13	4638.94
424.32	4755.97
424.50	4931.51
424.69	5109.39
424.88	5235.78
425.07	4926.83
425.26	4966.62
425.45	4908.10
425.64	4891.72
425.83	5053.22
426.01	5111.73
426.20	5121.09
426.39	5135.14
426.58	4975.98
426.77	5090.67
426.96	5067.26
427.15	5116.41
427.33	5327.06
427.52	5177.26
427.71	5247.48
427.90	5296.63
428.09	5151.52
428.28	5373.87
428.46	5308.34
428.65	5362.17
428.84	5537.71
429.03	5542.39
429.22	5481.53
429.40	5444.09
429.59	5451.11
429.78	5336.42
429.97	5261.52
430.16	5589.20
430.34	5582.18
430.53	5694.52
430.72	5680.48
430.91	5710.91
431.10	5687.50
431.28	5813.89
431.47	5647.71
431.66	5825.59
431.85	5879.43
432.03	5902.83
432.22	6209.44
432.41	5907.51
432.60	5989.43
432.79	6104.12
432.97	5926.24
433.16	6139.23
433.35	5940.28
433.54	6179.01
433.72	6265.61
433.91	6239.87
434.10	6162.63
434.28	6043.26
434.47	6164.97
434.66	6445.84
434.85	6310.08
435.03	6326.47
435.22	6345.19
435.41	6469.24
435.59	6504.35
435.78	6375.62
435.97	6530.09
436.16	6246.89
436.34	6506.69
436.53	6370.94
436.72	6796.92
436.90	6452.86
437.09	6593.29
437.28	6487.96
437.46	6747.76
437.65	6691.59
437.84	6871.81
438.02	6874.15
438.21	6761.81
438.40	6686.91
438.58	6951.39
438.77	7077.78
438.96	6981.82
439.14	7213.53
439.33	7243.96
439.52	7269.70
439.70	7358.64
439.89	7555.25
440.08	7332.90
440.26	7384.39
440.45	7295.45
440.63	7581.00
440.82	7536.52
441.01	7520.14
441.19	7508.44
441.38	7669.94
441.57	7808.03
441.75	7871.22
441.94	8095.91
442.12	7922.71
442.31	8175.49
442.50	7967.18
442.68	8107.62
442.87	7833.77
443.05	8170.81
443.24	8229.32
443.43	8355.71
443.61	8344.01
443.80	8505.51
443.98	8135.70
444.17	7829.09
444.35	8135.70
444.54	8505.51
444.73	8205.92
444.91	8421.25
445.10	8535.93
445.28	8304.22
445.47	8437.63
445.65	8442.31
445.84	8629.56
446.02	8662.32
446.21	8517.21
446.39	8500.83
446.58	8638.92
446.77	8454.02
446.95	8376.78
447.14	8503.17
447.32	8542.96
447.51	8430.61
447.69	8510.19
447.88	8638.92
448.06	8650.62
448.25	8444.65
448.43	8601.47
448.62	8732.54
448.80	8578.06
448.99	8716.16
449.17	8779.35
449.36	8678.71
449.54	8933.82
449.73	9078.94
449.91	8919.78
450.10	8961.91
450.28	9116.39
450.46	9179.58
450.65	9083.62
450.83	9032.13
451.02	9153.84
451.20	9277.88
451.39	9163.20
451.57	9067.24
451.76	9181.92
451.94	9348.10
452.13	9317.67
452.31	9432.36
452.49	9025.11
452.68	9411.29
452.86	9404.27
453.05	9432.36
453.23	9619.60
453.42	9362.14
453.60	9427.68
453.78	9603.22
453.97	9362.14
454.15	9568.11
454.34	9392.57
454.52	9874.72
454.70	9888.76
454.89	9919.19
455.07	9863.02
455.26	9879.40
455.44	10052.60
455.62	9947.28
455.81	9659.39
455.99	9996.43
456.17	9942.60
456.36	10312.40
456.54	10118.14
456.73	10342.83
456.91	10417.72
457.09	10394.32
457.28	10750.08
457.46	10466.88
457.64	10682.20
457.83	10682.20
458.01	10593.26
458.19	10883.49
458.38	10450.49
458.56	10740.72
458.74	10672.84
458.93	10675.18
459.11	10836.68
459.29	10820.30
459.48	10991.16
459.66	11030.94
459.84	10857.75
460.03	11101.16
460.21	11192.44
460.39	11147.97
460.57	11026.26
460.76	11047.33
460.94	11286.06
461.12	11073.07
461.31	11218.19
461.49	10995.84
461.67	11382.03
461.85	11597.35
462.04	11461.60
462.22	11913.33
462.40	11585.65
462.59	11604.38
462.77	11475.65
462.95	11815.02
463.13	11723.74
463.32	11786.94
463.50	11754.17
463.68	11864.18
463.86	11728.42
464.05	11688.64
464.23	11936.73
464.41	11992.90
464.59	11632.46
464.78	12105.25
464.96	12049.08
465.14	11857.15
465.32	12166.10
465.50	12051.42
465.69	12175.47
465.87	12191.85
466.05	12147.38
466.23	12430.59
466.41	12285.47
466.60	12531.23
466.78	12542.93
466.96	12299.52
467.14	12287.81
467.32	12538.25
467.51	12355.69
467.69	12173.13
467.87	12526.55
468.05	12505.48
468.23	12477.40
468.41	12674.00
468.60	12453.99
468.78	12470.37
468.96	12765.28
469.14	12868.27
469.32	13172.54
469.50	12528.89
469.69	13170.19
469.87	13090.62
470.05	13139.77
470.23	13104.66
470.41	12987.63
470.59	13437.02
470.77	13444.04
470.95	13329.35
471.14	13694.47
471.32	13406.59
471.50	13720.22
471.68	13717.88
471.86	13631.28
472.04	14153.22
472.22	14141.52
472.40	13687.45
472.58	13996.40
472.77	14141.52
472.95	14064.28
473.13	14855.38
473.31	14373.23
473.49	14017.47
473.67	14162.58
473.85	14473.87
474.03	14555.79
474.21	14841.34
474.39	15063.69
474.57	14984.11
474.75	14904.53
474.93	15197.10
475.12	14803.89
475.30	15119.86
475.48	14860.06
475.66	15440.51
475.84	15248.59
476.02	15466.26
476.20	15482.64
476.38	15548.18
476.56	15929.69
476.74	16018.63
476.92	15653.50
477.10	15999.90
477.28	16372.05
477.46	16290.13
477.64	16348.64
477.82	16556.95
478.00	17357.41
478.18	17001.65
478.36	16947.82
478.54	17172.51
478.72	17270.81
478.90	17441.67
479.08	18031.49
479.26	17612.53
479.44	17584.44
479.62	17741.26
479.80	18036.17
479.98	18148.51
480.16	18714.92
480.34	18115.75
480.52	18665.77
480.70	18841.31
480.88	18574.49
481.06	18757.05
481.24	19070.68
481.41	19522.41
481.59	19377.30
481.77	19669.86
481.95	19789.23
482.13	19805.61
482.31	19466.24
482.49	20748.85
482.67	20231.59
482.85	20500.75
483.03	20713.74
483.21	20793.32
483.39	20905.66
483.57	21139.72
483.74	21209.93
483.92	21460.37
484.10	21163.12
484.28	21774.00
484.46	22366.16
484.64	22553.40
484.82	22305.31
485.00	22284.24
485.18	22815.54
485.35	22841.29
485.53	23136.20
485.71	23269.61
485.89	23482.59
486.07	23447.49
486.25	23527.06
486.43	23723.67
486.61	23924.96
486.78	24065.39
486.96	24137.94
487.14	24994.58
487.32	24650.52
487.50	25083.52
487.68	25399.49
487.85	25383.11
488.03	25647.59
488.21	26071.23
488.39	25762.28
488.57	26244.43
488.75	26326.35
488.92	26394.22
489.10	26703.17
489.28	26698.49
489.46	27386.61
489.64	27037.87
489.81	27243.84
489.99	27915.57
490.17	27934.29
490.35	28198.77
490.53	28589.64
490.70	28826.04
490.88	28390.70
491.06	29109.24
491.24	28879.87
491.41	29497.77
491.59	29439.26
491.77	29427.56
491.95	29743.53
492.13	29701.40
492.30	30181.21
492.48	29986.94
492.66	30572.08
492.84	30452.71
493.01	31094.02
493.19	31021.46
493.37	31061.25
493.54	31138.49
493.72	31742.35
493.90	31613.62
494.08	31887.46
494.25	32332.16
494.43	32339.18
494.61	32837.72
494.79	32692.60
494.96	32882.19
495.14	33120.92
495.32	33659.24
495.49	33413.49
495.67	33319.87
495.85	33851.17
496.02	33881.60
496.20	34146.08
496.38	34260.76
496.55	34679.72
496.73	34742.91
496.91	34904.41
497.09	35044.84
497.26	35166.55
497.44	34583.76
497.62	35529.33
497.79	36463.21
497.97	35819.56
498.14	35955.31
498.32	36423.42
498.50	36074.68
498.67	36624.70
498.85	36521.72
499.03	36795.56
499.20	36844.71
499.38	37099.83
499.56	37408.78
499.73	37525.81
499.91	37666.24
500.08	37755.18
500.26	37628.79
500.44	37848.80
500.61	38003.28
500.79	37984.55
500.97	38518.20
501.14	38653.95
501.32	38476.07
501.49	38660.97
501.67	38864.60
501.84	39264.83
502.02	38934.81
502.20	39292.91
502.37	39086.95
502.55	38972.26
502.72	40039.54
502.90	40067.63
503.07	39601.86
503.25	40212.74
503.43	40016.14
503.60	40498.29
503.78	40432.75
503.95	40215.08
504.13	41020.23
504.30	41139.60
504.48	40676.17
504.65	41048.32
504.83	41500.04
505.01	41720.05
505.18	41336.20
505.36	41862.82
505.53	41191.09
505.71	42160.07
505.88	41909.63
506.06	41701.32
506.23	41830.05
506.41	42188.16
506.58	42497.11
506.76	42604.77
506.93	42923.08
507.11	42822.44
507.28	42579.03
507.46	43072.88
507.63	43267.14
507.81	43459.07
507.98	43295.23
508.16	43019.05
508.33	43641.63
508.50	43903.77
508.68	43702.48
508.85	44189.31
509.03	44348.47
509.20	44491.24
509.38	44364.85
509.55	44605.93
509.73	44708.91
509.90	45010.84
510.08	44231.44
510.25	44760.40
510.42	44821.26
510.60	45268.30
510.77	45801.94
510.95	45764.49
511.12	45230.85
511.30	45516.40
511.47	45860.46
511.64	45764.49
511.82	46202.18
511.99	45551.51
512.17	46588.36
512.34	46092.17
512.51	46398.78
512.69	46841.14
512.86	46370.69
513.04	47192.22
513.21	46948.81
513.38	46843.48
513.56	47241.37
513.73	46986.25
513.90	47313.93
514.08	47533.94
514.25	47498.83
514.43	47735.23
514.60	47849.91
514.77	47838.21
514.95	47988.00
515.12	47833.53
515.29	47716.50
515.47	48341.42
515.64	48212.70
515.81	48149.50
515.99	48631.65
516.16	48762.72
516.33	48772.08
516.51	48959.33
516.68	48491.22
516.85	48992.09
517.03	49069.33
517.20	49244.87
517.37	48900.81
517.54	49308.07
517.72	49357.22
517.89	49326.79
518.06	49404.03
518.24	49645.10
518.41	49427.43
518.58	49661.49
518.75	49422.75
518.93	50148.32
519.10	49600.63
519.27	50110.87
519.45	50174.06
519.62	50314.50
519.79	50351.94
519.96	50117.89
520.14	50321.52
520.31	50274.71
520.48	50862.18
520.65	50564.93
520.83	50848.14
521.00	50880.91
521.17	50958.14
521.34	51016.66
521.52	51089.21
521.69	51084.53
521.86	51466.04
522.03	51164.11
522.20	51690.73
522.38	51756.27
522.55	51686.05
522.72	51531.57
522.89	51679.03
523.07	51798.40
523.24	51657.96
523.41	51845.21
523.58	51821.80
523.75	51934.15
523.92	51856.91
524.10	51966.91
524.27	52390.55
524.44	52233.74
524.61	52252.46
524.78	52289.91
524.96	52378.85
525.13	52477.15
525.30	52687.80
525.47	52750.99
525.64	52563.75
525.81	52699.50
525.98	52891.43
526.16	52633.97
526.33	52631.63
526.50	53144.20
526.67	53057.60
526.84	53289.32
527.01	52765.04
527.18	53256.55
527.36	53212.08
527.53	53350.17
527.70	53689.55
527.87	53310.38
528.04	53233.14
528.21	53591.25
528.38	53631.04
528.55	53633.38
528.72	53734.02
528.89	53736.36
529.07	53808.92
529.24	53446.13
529.41	53792.53
529.58	53837.00
529.75	53787.85
529.92	54035.95
530.09	54078.08
530.26	54225.53
530.43	54340.22
530.60	54012.54
530.77	53996.16
530.94	54284.04
531.11	54066.38
531.28	54408.09
531.46	54195.10
531.63	54637.47
531.80	54494.69
531.97	54749.81
532.14	54789.60
532.31	54831.73
532.48	54939.39
532.65	54948.76
532.82	54646.83
532.99	55173.45
533.16	55018.97
533.33	54794.28
533.50	55018.97
533.67	55285.79
533.84	55072.81
534.01	55140.68
534.18	55353.67
534.35	55243.66
534.52	55276.43
534.69	55363.03
534.86	55512.83
535.03	55201.53
535.20	55463.67
535.37	55304.52
535.54	55618.15
535.71	55330.26
535.88	55566.66
536.05	55517.51
536.22	55812.41
536.38	55653.26
536.55	55526.87
536.72	55723.47
536.89	55786.67
537.06	55875.61
537.23	56172.86
537.40	55936.46
537.57	55653.26
537.74	56048.81
537.91	56275.84
538.08	56095.62
538.25	55753.90
538.42	56259.46
538.59	56383.51
538.75	55952.85
538.92	56261.80
539.09	56355.42
539.26	56336.69
539.43	56259.46
539.60	56367.12
539.77	56383.51
539.94	56540.32
540.11	56385.85
540.28	56645.65
540.44	56563.73
540.61	56397.55
540.78	56427.98
540.95	56610.54
541.12	56619.90
541.29	56786.08
541.46	56662.03
541.62	56706.50
541.79	56844.59
541.96	56732.25
542.13	56753.31
542.30	56933.53
542.47	57052.90
542.63	57125.46
542.80	56912.47
542.97	57406.32
543.14	57251.84
543.31	57268.23
543.48	57663.78
543.64	57698.89
543.81	57600.58
543.98	57488.24
544.15	57483.56
544.32	57663.78
544.48	57729.31
544.65	57497.60
544.82	57649.74
544.99	57385.25
545.16	57509.30
545.32	57298.65
545.49	57839.32
545.66	57968.05
545.83	57750.38
546.00	57916.56
546.16	57869.75
546.33	57780.81
546.50	57490.58
546.67	57942.30
546.83	57635.69
547.00	57855.70
547.17	58035.92
547.34	57954.00
547.50	58010.18
547.67	58309.77
547.84	58089.76
548.00	58227.85
548.17	58649.14
548.34	58417.43
548.51	58319.13
548.67	58382.32
548.84	58284.02
549.01	58099.12
549.18	58129.54
549.34	58445.52
549.51	58379.98
549.68	58651.48
549.84	58412.75
550.01	58660.85
550.18	58597.65
550.34	58644.46
550.51	58766.17
550.68	58628.08
550.84	58553.18
551.01	58827.02
551.18	58717.02
551.34	58644.46
551.51	58941.71
551.68	58759.15
551.84	58752.13
552.01	58574.25
552.18	59072.78
552.34	58745.11
552.51	58843.41
552.68	58824.68
552.84	58808.30
553.01	58913.62
553.18	58967.46
553.34	58988.52
553.51	58918.31
553.67	58871.49
553.84	59152.36
554.01	59058.74
554.17	59063.42
554.34	59004.91
554.51	59161.72
554.67	59447.27
554.84	59091.51
555.00	58904.26
555.17	58939.37
555.33	59365.35
555.50	59157.04
555.67	59154.70
555.83	59147.68
556.00	59203.85
556.16	59561.95
556.33	59377.05
556.50	59295.13
556.66	59618.13
556.83	59323.22
556.99	59517.48
557.16	59625.15
557.32	59590.04
557.49	59735.15
557.65	59400.46
557.82	59636.85
557.98	59526.84
558.15	59660.26
558.32	59620.47
558.48	59564.29
558.65	59662.60
558.81	59831.11
558.98	59660.26
559.14	59756.22
559.31	59868.56
559.47	59636.85
559.64	59934.10
559.80	60037.08
559.97	59959.84
560.13	59540.89
560.30	60027.72
560.46	59840.48
560.63	60062.83
560.79	59994.95
560.96	59994.95
561.12	59817.07
561.29	60020.70
561.45	59990.27
561.61	59931.76
561.78	59966.87
561.94	60032.40
562.11	60053.47
562.27	60144.75
562.44	59920.05
562.60	60264.11
562.77	60303.90
562.93	60011.34
563.10	60292.20
563.26	60044.10
563.42	60306.24
563.59	60357.74
563.75	60058.15
563.92	60116.66
564.08	60154.11
564.24	60357.74
564.41	60226.66
564.57	60067.51
564.74	60116.66
564.90	60434.97
565.07	60282.84
565.23	60395.18
565.39	60294.54
565.56	60523.91
565.72	60296.88
565.88	60329.65
566.05	60236.03
566.21	60268.79
566.38	60694.77
566.54	60544.98
566.70	60364.76
566.87	60528.59
567.03	60413.91
567.19	60556.68
567.36	60519.23
567.52	60460.72
567.68	60781.37
567.85	60446.68
568.01	60458.38
568.17	60463.06
568.34	60608.17
568.50	60458.38
568.66	60580.09
568.83	60640.94
568.99	60617.53
569.15	60722.86
569.32	60659.66
569.48	60509.87
569.64	60601.15
569.81	60502.85
569.97	60512.21
570.13	60690.09
570.30	60451.36
570.46	60575.40
570.62	60638.60
570.78	60774.35
570.95	60671.37
571.11	60624.56
571.27	60537.96
571.43	60671.37
571.60	60870.31
571.76	60760.31
571.92	60786.05
572.09	60699.45
572.25	60678.39
572.41	60692.43
572.57	60594.13
572.74	60954.57
572.90	60802.44
573.06	60839.89
573.22	60647.96
573.38	60676.05
573.55	60757.97
573.71	60949.89
573.87	61034.15
574.03	60683.07
574.20	60666.69
574.36	60884.36
574.52	60654.98
574.68	60882.02
574.84	61055.21
575.01	60977.98
575.17	60739.24
575.33	60821.16
575.49	60928.83
575.65	61050.53
575.82	60963.93
575.98	60872.65
576.14	61176.92
576.30	60935.85
576.46	60821.16
576.62	61003.72
576.79	60891.38
576.95	60863.29
577.11	60884.36
577.27	60945.21
577.43	60788.39
577.59	60809.46
577.75	60874.99
577.92	60776.69
578.08	60992.02
578.24	60945.21
578.40	60973.30
578.56	61195.65
578.72	61073.94
578.88	60954.57
579.04	60938.19
579.21	61085.64
579.37	61109.05
579.53	61258.84
579.69	60949.89
579.85	61113.73
580.01	60816.48
580.17	60767.33
580.33	61104.37
580.49	61036.49
580.65	60973.30
580.82	61034.15
580.98	60968.61
581.14	60889.04
581.30	61078.62
581.46	60970.96
581.62	61111.39
581.78	61073.94
581.94	61078.62
582.10	61008.40
582.26	61024.79
582.42	60970.96
582.58	61197.99
582.74	61141.81
582.90	60928.83
583.06	60949.89
583.22	60776.69
583.38	61312.67
583.54	61165.22
583.70	61275.22
583.86	61193.31
584.02	61022.45
584.18	61331.40
584.34	61179.26
584.50	61137.13
584.66	61153.52
584.82	60839.89
584.98	61315.01
585.14	61073.94
585.30	60959.25
585.46	61193.31
585.62	61050.53
585.78	61322.04
585.94	61031.81
586.10	61073.94
586.26	61254.16
586.42	61286.93
586.58	61464.81
586.74	61141.81
586.90	61247.14
587.06	61193.31
587.22	61378.21
587.38	61258.84
587.54	61478.85
587.70	61483.53
587.86	61289.27
588.02	61193.31
588.18	61265.86
588.34	61064.58
588.49	61286.93
