SpectraSuite Data File
++++++++++++++++++++++++++++++++++++
Date: Fri Oct 25 11:23:58 EDT 2013
User: price-jones
Dark Spectrum Present: No
Reference Spectrum Present: No
Number of Sampled Component Spectra: 1
Spectrometers: USB2+H05261
Integration Time (usec): 100000 (USB2+H05261)
Spectra Averaged: 1 (USB2+H05261)
Boxcar Smoothing: 0 (USB2+H05261)
Correct for Electrical Dark: No (USB2+H05261)
Strobe/Lamp Enabled: No (USB2+H05261)
Correct for Detector Non-linearity: No (USB2+H05261)
Correct for Stray Light: No (USB2+H05261)
Number of Pixels in Processed Spectrum: 2048
>>>>>Begin Processed Spectral Data<<<<<
365.73	196.60
365.92	196.60
366.12	196.60
366.32	91.28
366.52	88.94
366.72	126.39
366.91	91.28
367.11	187.24
367.31	126.39
367.51	173.20
367.70	138.09
367.90	156.82
368.10	170.86
368.30	133.41
368.49	152.13
368.69	156.82
368.89	77.24
369.09	159.16
369.28	166.18
369.48	159.16
369.68	194.26
369.87	177.88
370.07	142.77
370.27	208.31
370.47	322.99
370.66	627.26
370.86	617.90
371.06	660.03
371.25	718.54
371.45	648.33
371.65	671.73
371.84	669.39
372.04	678.76
372.24	753.65
372.44	704.50
372.63	723.23
372.83	828.55
373.03	711.52
373.22	793.44
373.42	760.67
373.62	739.61
373.81	770.04
374.01	798.12
374.21	800.46
374.40	830.89
374.60	812.17
374.79	807.48
374.99	877.70
375.19	849.61
375.38	849.61
375.58	802.80
375.78	884.72
375.97	884.72
376.17	866.00
376.37	912.81
376.56	896.43
376.76	828.55
376.95	856.64
377.15	856.64
377.35	910.47
377.54	954.94
377.74	999.41
377.93	887.06
378.13	950.26
378.33	924.51
378.52	952.60
378.72	983.02
378.91	1027.50
379.11	943.24
379.31	896.43
379.50	901.11
379.70	1008.77
379.89	1069.62
380.09	903.45
380.28	976.00
380.48	1053.24
380.68	1062.60
380.87	997.07
381.07	1064.94
381.26	994.73
381.46	997.07
381.65	1041.54
381.85	1071.97
382.04	1050.90
382.24	1090.69
382.43	1046.22
382.63	1022.81
382.83	1064.94
383.02	1184.31
383.22	1135.16
383.41	1172.61
383.61	1046.22
383.80	1158.57
384.00	1107.07
384.19	1181.97
384.39	1142.18
384.58	1163.25
384.78	1144.52
384.97	1132.82
385.17	1163.25
385.36	1160.91
385.56	1132.82
385.75	1203.04
385.95	1174.95
386.14	1172.61
386.34	1151.54
386.53	1165.59
386.72	1165.59
386.92	1214.74
387.11	1256.87
387.31	1240.48
387.50	1184.31
387.70	1270.91
387.89	1296.66
388.09	1306.02
388.28	1289.64
388.48	1296.66
388.67	1245.16
388.86	1254.53
389.06	1380.92
389.25	1320.06
389.45	1233.46
389.64	1399.64
389.84	1406.66
390.03	1369.21
390.22	1437.09
390.42	1338.79
390.61	1280.27
390.81	1430.07
391.00	1437.09
391.19	1425.39
391.39	1479.22
391.58	1537.73
391.78	1406.66
391.97	1551.78
392.16	1523.69
392.36	1488.58
392.55	1577.52
392.75	1537.73
392.94	1479.22
393.13	1544.75
393.33	1493.26
393.52	1556.46
393.71	1565.82
393.91	1533.05
394.10	1572.84
394.29	1619.65
394.49	1626.67
394.68	1589.22
394.88	1629.01
395.07	1633.69
395.26	1774.13
395.46	1767.10
395.65	1724.97
395.84	1598.59
396.04	1757.74
396.23	1757.74
396.42	1710.93
396.62	1830.30
396.81	1792.85
397.00	1802.21
397.19	1788.17
397.39	1834.98
397.58	1895.83
397.77	1806.89
397.97	1933.28
398.16	1902.86
398.35	1947.33
398.55	1884.13
398.74	1881.79
398.93	1959.03
399.12	1998.82
399.32	1846.68
399.51	1909.88
399.70	1928.60
399.90	1898.17
400.09	1912.22
400.28	1895.83
400.47	1954.35
400.67	1996.48
400.86	2047.97
401.05	2059.67
401.24	2031.58
401.44	2101.80
401.63	2209.47
401.82	2099.46
402.01	2085.42
402.21	2167.34
402.40	2235.21
402.59	2157.97
402.78	2181.38
402.97	2286.70
403.17	2314.79
403.36	2284.36
403.55	2335.85
403.74	2284.36
403.93	2272.66
404.13	2363.94
404.32	2249.25
404.51	2380.32
404.70	2420.11
404.89	2485.65
405.09	2445.86
405.28	2513.74
405.47	2544.16
405.66	2623.74
405.85	2406.07
406.05	2597.99
406.24	2551.18
406.43	2593.31
406.62	2628.42
406.81	2670.55
407.00	2679.91
407.20	2607.36
407.39	2656.51
407.58	2651.83
407.77	2658.85
407.96	2815.66
408.15	2794.60
408.34	2785.24
408.54	2731.41
408.73	2724.38
408.92	2815.66
409.11	2899.92
409.30	2930.35
409.49	2911.63
409.68	2888.22
409.87	2890.56
410.07	3105.89
410.26	3136.32
410.45	2918.65
410.64	2967.80
410.83	3194.83
411.02	3070.78
411.21	3091.85
411.40	3126.96
411.59	3279.09
411.78	3145.68
411.98	3185.47
412.17	3288.45
412.36	3330.58
412.55	3307.18
412.74	3424.20
412.93	3581.02
413.12	3311.86
413.31	3574.00
413.50	3459.31
413.69	3414.84
413.88	3510.80
414.07	3562.30
414.26	3616.13
414.45	3688.68
414.64	3698.05
414.83	3679.32
415.02	3861.88
415.22	3838.48
415.41	3920.40
415.60	3889.97
415.79	3908.69
415.98	3978.91
416.17	3992.95
416.36	3831.46
416.55	4086.58
416.74	4114.66
416.93	4028.06
417.12	4032.74
417.31	4320.63
417.50	4229.35
417.69	4397.87
417.88	4301.90
418.07	4149.77
418.26	4126.36
418.45	4440.00
418.64	4454.04
418.83	4484.47
419.02	4367.44
419.21	4339.35
419.39	4482.13
419.58	4465.74
419.77	4540.64
419.96	4533.62
420.15	4641.28
420.34	4531.28
420.53	4695.11
420.72	4620.22
420.91	4720.86
421.10	4718.52
421.29	4779.37
421.48	4674.05
421.67	4636.60
421.86	4767.67
422.05	4894.06
422.24	4957.25
422.43	4950.23
422.61	4968.96
422.80	4865.97
422.99	5022.79
423.18	4891.72
423.37	5032.15
423.56	4994.70
423.75	5008.75
423.94	4912.78
424.13	4709.16
424.32	4842.57
424.50	4877.68
424.69	5071.94
424.88	4924.49
425.07	4915.12
425.26	5046.20
425.45	4990.02
425.64	5034.49
425.83	5060.24
426.01	5158.54
426.20	5219.39
426.39	4894.06
426.58	5025.13
426.77	4985.34
426.96	5121.09
427.15	5151.52
427.33	5200.67
427.52	5158.54
427.71	5376.21
427.90	5221.74
428.09	5266.21
428.28	5310.68
428.46	5575.16
428.65	5224.08
428.84	5533.03
429.03	5610.26
429.22	5451.11
429.40	5638.35
429.59	5408.98
429.78	5233.44
429.97	5263.86
430.16	5369.19
430.34	5692.18
430.53	5682.82
430.72	5738.99
430.91	5668.78
431.10	5685.16
431.28	5783.46
431.47	5680.48
431.66	5970.71
431.85	5769.42
432.03	5963.68
432.22	5949.64
432.41	5834.96
432.60	5823.25
432.79	5914.53
432.97	6071.35
433.16	6162.63
433.35	5959.00
433.54	6111.14
433.72	6307.74
433.91	6141.57
434.10	6162.63
434.28	6183.70
434.47	6230.51
434.66	6296.04
434.85	6403.71
435.03	6218.80
435.22	6193.06
435.41	6436.47
435.59	6436.47
435.78	6499.67
435.97	6363.92
436.16	6502.01
436.34	6457.54
436.53	6544.14
436.72	6630.74
436.90	6471.58
437.09	6754.79
437.28	6511.37
437.46	6696.27
437.65	6658.82
437.84	6698.61
438.02	6604.99
438.21	6747.76
438.40	6471.58
438.58	7281.41
438.77	6920.96
438.96	6906.92
439.14	7192.47
439.33	7227.57
439.52	7300.13
439.70	7253.32
439.89	7482.69
440.08	7456.95
440.26	7328.22
440.45	7389.07
440.63	7459.29
440.82	7571.63
441.01	7581.00
441.19	7723.77
441.38	7847.82
441.57	7588.02
441.75	7847.82
441.94	7941.44
442.12	7927.39
442.31	8135.70
442.50	7978.89
442.68	7939.10
442.87	8159.11
443.05	8177.83
443.24	8311.24
443.43	8222.30
443.61	8205.92
443.80	8290.18
443.98	8215.28
444.17	7967.18
444.35	8402.52
444.54	8318.26
444.73	8439.97
444.91	8276.13
445.10	8407.20
445.28	8423.59
445.47	8339.33
445.65	8353.37
445.84	8454.02
446.02	8294.86
446.21	8542.96
446.39	8498.49
446.58	8510.19
446.77	8383.80
446.95	8191.88
447.14	8582.74
447.32	8664.66
447.51	8704.45
447.69	8454.02
447.88	8636.58
448.06	8587.43
448.25	8538.27
448.43	8594.45
448.62	8606.15
448.80	8622.53
448.99	8676.37
449.17	8676.37
449.36	8657.64
449.54	8681.05
449.73	8706.79
449.91	8975.95
450.10	9179.58
450.28	9130.43
450.46	9128.09
450.65	9018.08
450.83	9268.52
451.02	9001.70
451.20	9001.70
451.39	9242.78
451.57	9289.59
451.76	9041.49
451.94	9132.77
452.13	9343.42
452.31	9312.99
452.49	9224.05
452.68	9488.53
452.86	9352.78
453.05	9177.24
453.23	9476.83
453.42	9441.72
453.60	9521.30
453.78	9708.54
453.97	9614.92
454.15	9490.87
454.34	9476.83
454.52	9823.23
454.70	9577.47
454.89	9764.72
455.07	9937.91
455.26	9666.41
455.44	9895.78
455.62	9937.91
455.81	9966.00
455.99	9970.68
456.17	10146.22
456.36	10061.96
456.54	10207.08
456.73	10256.23
456.91	10478.58
457.09	10499.64
457.28	10537.09
457.46	10164.95
457.64	10600.29
457.83	10604.97
458.01	10623.69
458.19	10806.25
458.38	10693.91
458.56	10698.59
458.74	10607.31
458.93	10635.39
459.11	10972.43
459.29	10516.03
459.48	10745.40
459.66	10843.70
459.84	10822.64
460.03	11096.48
460.21	11220.53
460.39	11159.67
460.57	11089.46
460.76	11171.38
460.94	11108.18
461.12	11414.79
461.31	11225.21
461.49	11225.21
461.67	11201.80
461.85	11513.10
462.04	11454.58
462.22	11377.34
462.40	11332.87
462.59	11592.67
462.77	11564.59
462.95	11583.31
463.13	11730.76
463.32	11702.68
463.50	11950.78
463.68	11793.96
463.86	12030.35
464.05	11761.19
464.23	11995.25
464.41	11992.90
464.59	11587.99
464.78	12053.76
464.96	11871.20
465.14	11667.57
465.32	12035.03
465.50	12180.15
465.69	12196.53
465.87	12189.51
466.05	12177.81
466.23	12327.60
466.41	12381.43
466.60	12645.91
466.78	12135.68
466.96	12299.52
467.14	12311.22
467.32	12400.16
467.51	12386.12
467.69	12238.66
467.87	12662.30
468.05	12650.60
468.23	12643.57
468.41	12482.08
468.60	12535.91
468.78	13034.44
468.96	12725.49
469.14	13064.87
469.32	12896.35
469.50	12601.44
469.69	13013.38
469.87	13053.17
470.05	12985.29
470.23	12999.34
470.41	13111.68
470.59	13444.04
470.77	13202.96
470.95	13432.33
471.14	13544.68
471.32	13270.84
471.50	13476.80
471.68	13537.66
471.86	13631.28
472.04	13820.86
472.22	13965.98
472.40	13572.77
472.58	13797.46
472.77	14045.55
472.95	14047.90
473.13	14602.60
473.31	14190.67
473.49	14427.06
473.67	14148.54
473.85	14621.33
474.03	14635.37
474.21	14761.76
474.39	14857.72
474.57	14689.20
474.75	14963.04
474.93	15176.03
475.12	15176.03
475.30	15145.61
475.48	14991.13
475.66	15403.07
475.84	15194.76
476.02	15564.56
476.20	15765.85
476.38	15796.28
476.56	15845.43
476.74	15971.82
476.92	15999.90
477.10	15812.66
477.28	16622.48
477.46	16479.71
477.64	16514.82
477.82	16580.36
478.00	16966.54
478.18	17025.06
478.36	16959.52
478.54	17338.69
478.72	17315.28
478.90	17462.74
479.08	17619.55
479.26	17933.18
479.44	17516.57
479.62	17734.24
479.80	18267.88
479.98	18211.71
480.16	18593.22
480.34	18312.35
480.52	18796.84
480.70	18630.66
480.88	18455.12
481.06	18771.10
481.24	18829.61
481.41	19197.07
481.59	19421.77
481.77	19428.79
481.95	19751.78
482.13	19885.19
482.31	19946.05
482.49	20524.16
482.67	20222.23
482.85	20421.17
483.03	20886.94
483.21	20842.47
483.39	20765.23
483.57	20938.43
483.74	21453.35
483.92	21591.44
484.10	21095.25
484.28	21874.65
484.46	22094.66
484.64	22511.27
484.82	22082.95
485.00	22427.01
485.18	23115.13
485.35	23236.84
485.53	23307.05
485.71	23152.58
485.89	23665.16
486.07	23571.54
486.25	23501.32
486.43	23735.37
486.61	23838.36
486.78	24215.18
486.96	23955.38
487.14	24725.42
487.32	24547.54
487.50	24985.22
487.68	25076.50
487.85	25151.40
488.03	25589.08
488.21	25865.26
488.39	25993.99
488.57	25989.31
488.75	26235.06
488.92	26368.48
489.10	26820.20
489.28	26955.95
489.46	27292.99
489.64	26939.57
489.81	27508.32
489.99	27730.67
490.17	27702.58
490.35	28264.31
490.53	28285.37
490.70	28673.90
490.88	28467.94
491.06	28879.87
491.24	28950.09
491.41	29366.70
491.59	29301.17
491.77	29677.99
491.95	29844.17
492.13	29724.80
492.30	30204.61
492.48	30295.89
492.66	30333.34
492.84	30441.01
493.01	31021.46
493.19	30892.73
493.37	31295.30
493.54	31346.79
493.72	31613.62
493.90	31543.40
494.08	31903.84
494.25	32411.74
494.43	32259.60
494.61	32547.49
494.79	32645.79
494.96	32849.42
495.14	33144.33
495.32	33401.79
495.49	33329.23
495.67	33277.74
495.85	33680.31
496.02	33684.99
496.20	34057.14
496.38	34494.82
496.55	34202.25
496.73	34909.09
496.91	34794.40
497.09	35288.26
497.26	35049.52
497.44	35356.13
497.62	35192.30
497.79	35819.56
497.97	35552.74
498.14	36165.96
498.32	36133.19
498.50	36652.79
498.67	36587.25
498.85	36369.58
499.03	37006.21
499.20	36900.89
499.38	37071.75
499.56	37228.56
499.73	37486.02
499.91	37422.83
500.08	38033.71
500.26	37706.03
500.44	37654.54
500.61	38113.28
500.79	37563.26
500.97	38087.54
501.14	38918.43
501.32	38967.58
501.49	38639.90
501.67	38398.83
501.84	38944.17
502.02	38974.60
502.20	38815.44
502.37	39573.78
502.55	39718.89
502.72	39580.80
502.90	39889.75
503.07	40039.54
503.25	39997.41
503.43	40020.82
503.60	39950.60
503.78	40582.55
503.95	40533.40
504.13	40367.22
504.30	41055.34
504.48	40891.50
504.65	40989.80
504.83	41202.79
505.01	41720.05
505.18	41469.61
505.36	41354.93
505.53	41160.66
505.71	41848.78
505.88	41855.80
506.06	41308.11
506.23	42293.48
506.41	41890.91
506.58	42330.93
506.76	42342.63
506.93	42457.32
507.11	42464.34
507.28	42609.45
507.46	43133.73
507.63	43035.43
507.81	43227.35
507.98	42799.04
508.16	43484.81
508.33	43503.54
508.50	43786.74
508.68	44128.46
508.85	43927.17
509.03	43861.64
509.20	44406.98
509.38	44137.82
509.55	44339.11
509.73	44568.48
509.90	44870.41
510.08	44753.38
510.25	44657.42
510.42	44896.16
510.60	44928.92
510.77	45378.31
510.95	45841.73
511.12	45680.24
511.30	45242.56
511.47	45811.31
511.64	46181.11
511.82	46218.56
511.99	46174.09
512.17	46340.27
512.34	46178.77
512.51	46520.49
512.69	46473.68
512.86	46571.98
513.04	46927.74
513.21	46681.98
513.38	46906.68
513.56	46990.94
513.73	46824.76
513.90	47281.16
514.08	47442.66
514.25	47283.50
514.43	47627.56
514.60	47309.25
514.77	47634.58
514.95	48231.42
515.12	47721.18
515.29	47683.73
515.47	48311.00
515.64	48605.91
515.81	47997.37
515.99	48413.98
516.16	48655.06
516.33	48364.83
516.51	49017.84
516.68	49008.48
516.85	48535.69
517.03	48835.28
517.20	48996.77
517.37	49092.74
517.54	49085.72
517.72	48846.98
517.89	49205.08
518.06	49478.92
518.24	49317.43
518.41	49439.14
518.58	49617.02
518.75	49415.73
518.93	49900.22
519.10	49624.04
519.27	49895.54
519.45	49886.18
519.62	50038.31
519.79	50145.98
519.96	50237.26
520.14	49979.80
520.31	50349.60
520.48	50686.64
520.65	50581.32
520.83	50892.61
521.00	50782.60
521.17	50733.45
521.34	50904.31
521.52	51016.66
521.69	51077.51
521.86	51068.15
522.03	51175.81
522.20	51716.48
522.38	51664.99
522.55	51592.43
522.72	51517.53
522.89	51461.36
523.07	51943.51
523.24	51615.83
523.41	51892.02
523.58	51557.32
523.75	52065.22
523.92	51966.91
524.10	51955.21
524.27	52037.13
524.44	52303.95
524.61	52250.12
524.78	52296.93
524.96	52383.53
525.13	52385.87
525.30	52395.23
525.47	52793.12
525.64	52694.82
525.81	53038.88
525.98	52907.81
526.16	52708.86
526.33	52987.39
526.50	52896.11
526.67	53078.67
526.84	52949.94
527.01	52842.27
527.18	53139.52
527.36	53193.36
527.53	53083.35
527.70	53708.27
527.87	53242.51
528.04	52989.73
528.21	53778.49
528.38	53483.58
528.55	53982.12
528.72	53244.85
528.89	53689.55
529.07	53712.95
529.24	53303.36
529.41	53902.54
529.58	54143.61
529.75	53851.05
529.92	53921.26
530.09	53923.60
530.26	54026.59
530.43	53977.43
530.60	53773.81
530.77	53949.35
530.94	54171.70
531.11	53979.78
531.28	54473.63
531.46	54181.06
531.63	54497.03
531.80	54375.33
531.97	54700.66
532.14	54635.13
532.31	54630.44
532.48	54642.15
532.65	54677.25
532.82	54377.67
532.99	54941.74
533.16	54831.73
533.33	55274.09
533.50	55007.27
533.67	54960.46
533.84	54864.50
534.01	55145.36
534.18	54995.57
534.35	55449.63
534.52	55430.91
534.69	55419.20
534.86	55449.63
535.03	55271.75
535.20	55222.60
535.37	55400.48
535.54	55536.23
535.71	55016.63
535.88	55458.99
536.05	55437.93
536.22	55671.98
536.38	55772.63
536.55	55622.83
536.72	55997.32
536.89	55662.62
537.06	55676.66
537.23	55882.63
537.40	55920.08
537.57	55920.08
537.74	55990.30
537.91	55966.89
538.08	55917.74
538.25	55941.14
538.42	56142.43
538.59	56240.73
538.75	56149.45
538.92	56219.67
539.09	56395.21
539.26	56088.60
539.43	56287.54
539.60	56210.31
539.77	56186.90
539.94	56652.67
540.11	56301.59
540.28	56650.33
540.44	56437.34
540.61	56580.11
540.78	56271.16
540.95	56542.66
541.12	56839.91
541.29	56793.10
541.46	56521.60
541.62	56708.84
541.79	56795.44
541.96	56591.81
542.13	56720.54
542.30	56779.06
542.47	57024.81
542.63	56811.82
542.80	57132.48
542.97	57188.65
543.14	57600.58
543.31	57427.38
543.48	57441.43
543.64	57572.50
543.81	57546.75
543.98	57315.04
544.15	57415.68
544.32	57609.95
544.48	57680.16
544.65	57464.83
544.82	57471.85
544.99	57434.41
545.16	57701.23
545.32	57542.07
545.49	57834.64
545.66	57677.82
545.83	57736.34
546.00	57773.78
546.16	57659.10
546.33	57853.36
546.50	57565.48
546.67	57668.46
546.83	57759.74
547.00	57832.30
547.17	57780.81
547.34	58017.20
547.50	57939.96
547.67	58225.51
547.84	57963.37
548.00	58351.90
548.17	58557.86
548.34	58169.33
548.51	58480.63
548.67	58253.59
548.84	58377.64
549.01	58171.67
549.18	58431.47
549.34	58244.23
549.51	58529.78
549.68	58382.32
549.84	58405.73
550.01	58618.72
550.18	58328.49
550.34	58562.54
550.51	58721.70
550.68	58330.83
550.84	58370.62
551.01	58866.81
551.18	58625.74
551.34	58628.08
551.51	58782.55
551.68	58871.49
551.84	58667.87
552.01	58705.32
552.18	58850.43
552.34	58466.58
552.51	59093.85
552.68	58752.13
552.84	58646.80
553.01	58866.81
553.18	58820.00
553.34	58852.77
553.51	58749.79
553.67	58817.66
553.84	59023.63
554.01	59105.55
554.17	59007.25
554.34	59180.45
554.51	59154.70
554.67	59133.63
554.84	59161.72
555.00	59227.26
555.17	59037.67
555.33	59295.13
555.50	59201.51
555.67	59086.82
555.83	59131.29
556.00	59187.47
556.16	59662.60
556.33	59257.68
556.50	59355.99
556.66	59337.26
556.83	59302.15
556.99	59473.01
557.16	59723.45
557.32	59580.68
557.49	59620.47
557.65	59487.06
557.82	59515.14
557.98	59428.54
558.15	59571.32
558.32	59611.10
558.48	59456.63
558.65	59334.92
558.81	59608.76
558.98	59716.43
559.14	59728.13
559.31	59859.20
559.47	59854.52
559.64	59910.69
559.80	59777.28
559.97	59889.63
560.13	59695.36
560.30	59835.80
560.46	59765.58
560.63	59898.99
560.79	60018.36
560.96	60034.74
561.12	60009.00
561.29	59922.40
561.45	59941.12
561.61	59861.54
561.78	59948.14
561.94	59915.37
562.11	60013.68
562.27	60032.40
562.44	60100.28
562.60	60296.88
562.77	60041.76
562.93	60020.70
563.10	60177.51
563.26	59955.16
563.42	60203.26
563.59	60144.75
563.75	60104.96
563.92	60179.85
564.08	60086.23
564.24	60196.24
564.41	60273.48
564.57	60184.54
564.74	60336.67
564.90	60196.24
565.07	60161.13
565.23	60196.24
565.39	60205.60
565.56	60392.84
565.72	60369.44
565.88	60203.26
566.05	60303.90
566.21	60168.15
566.38	60411.57
566.54	60378.80
566.70	60381.14
566.87	60610.51
567.03	60018.36
567.19	60605.83
567.36	60484.12
567.52	60341.35
567.68	60797.76
567.85	60425.61
568.01	60559.02
568.17	60308.58
568.34	60404.55
568.50	60439.65
568.66	60376.46
568.83	60544.98
568.99	60395.18
569.15	60568.38
569.32	60411.57
569.48	60509.87
569.64	60589.45
569.81	60533.28
569.97	60413.91
570.13	60446.68
570.30	60561.36
570.46	60463.06
570.62	60786.05
570.78	60647.96
570.95	60711.16
571.11	60654.98
571.27	60720.52
571.43	60575.40
571.60	60739.24
571.76	60683.07
571.92	60816.48
572.09	60706.47
572.25	60872.65
572.41	60776.69
572.57	60589.45
572.74	60882.02
572.90	60832.86
573.06	60956.91
573.22	60676.05
573.38	60767.33
573.55	60647.96
573.71	60842.23
573.87	60699.45
574.03	60657.32
574.20	60832.86
574.36	60725.20
574.52	60856.27
574.68	60809.46
574.84	60821.16
575.01	60729.88
575.17	60662.00
575.33	60814.14
575.49	60685.41
575.65	60903.08
575.82	61041.17
575.98	60921.80
576.14	61151.18
576.30	61031.81
576.46	60821.16
576.62	60800.10
576.79	60896.06
576.95	60743.92
577.11	60828.18
577.27	61027.13
577.43	61013.08
577.59	60898.40
577.75	60889.04
577.92	60837.54
578.08	60889.04
578.24	61092.66
578.40	61034.15
578.56	61066.92
578.72	60811.80
578.88	61022.45
579.04	61034.15
579.21	60947.55
579.37	61062.24
579.53	61055.21
579.69	60779.03
579.85	60933.51
580.01	60968.61
580.17	60926.49
580.33	61083.30
580.49	61064.58
580.65	60996.70
580.82	61123.09
580.98	61066.92
581.14	60966.27
581.30	61062.24
581.46	60999.04
581.62	61235.44
581.78	61048.19
581.94	60999.04
582.10	61183.94
582.26	60994.36
582.42	61113.73
582.58	60907.76
582.74	60865.63
582.90	61078.62
583.06	60975.64
583.22	61017.77
583.38	61176.92
583.54	61181.60
583.70	61195.65
583.86	61158.20
584.02	60872.65
584.18	61212.03
584.34	61118.41
584.50	60938.19
584.66	61099.68
584.82	60963.93
584.98	61087.98
585.14	61209.69
585.30	61066.92
585.46	61123.09
585.62	61132.45
585.78	61399.27
585.94	61006.06
586.10	61165.22
586.26	61214.37
586.42	61092.66
586.58	61221.39
586.74	61176.92
586.90	61181.60
587.06	61244.80
587.22	61162.88
587.38	61090.32
587.54	61350.12
587.70	61289.27
587.86	61186.28
588.02	61160.54
588.18	61338.42
588.34	61190.97
588.49	61193.31
