SpectraSuite Data File
++++++++++++++++++++++++++++++++++++
Date: Fri Oct 25 11:25:05 EDT 2013
User: price-jones
Dark Spectrum Present: No
Reference Spectrum Present: No
Number of Sampled Component Spectra: 1
Spectrometers: USB2+H05261
Integration Time (usec): 100000 (USB2+H05261)
Spectra Averaged: 1 (USB2+H05261)
Boxcar Smoothing: 0 (USB2+H05261)
Correct for Electrical Dark: No (USB2+H05261)
Strobe/Lamp Enabled: No (USB2+H05261)
Correct for Detector Non-linearity: No (USB2+H05261)
Correct for Stray Light: No (USB2+H05261)
Number of Pixels in Processed Spectrum: 2048
>>>>>Begin Processed Spectral Data<<<<<
365.73	290.23
365.92	290.23
366.12	290.23
366.32	102.98
366.52	131.07
366.72	147.45
366.91	128.73
367.11	184.90
367.31	117.03
367.51	227.03
367.70	131.07
367.90	117.03
368.10	98.30
368.30	110.01
368.49	74.90
368.69	212.99
368.89	145.11
369.09	166.18
369.28	180.22
369.48	175.54
369.68	220.01
369.87	222.35
370.07	135.75
370.27	280.86
370.47	327.68
370.66	503.22
370.86	664.71
371.06	683.44
371.25	657.69
371.45	645.99
371.65	601.52
371.84	678.76
372.04	676.41
372.24	758.33
372.44	779.40
372.63	784.08
372.83	758.33
373.03	807.48
373.22	788.76
373.42	767.70
373.62	734.93
373.81	690.46
374.01	725.57
374.21	802.80
374.40	777.06
374.60	772.38
374.79	844.93
374.99	798.12
375.19	887.06
375.38	870.68
375.58	795.78
375.78	798.12
375.97	863.66
376.17	961.96
376.37	863.66
376.56	875.36
376.76	793.44
376.95	896.43
377.15	903.45
377.35	863.66
377.54	856.64
377.74	910.47
377.93	868.34
378.13	947.92
378.33	938.55
378.52	849.61
378.72	929.19
378.91	898.77
379.11	952.60
379.31	945.58
379.50	973.66
379.70	863.66
379.89	987.71
380.09	952.60
380.28	943.24
380.48	931.53
380.68	952.60
380.87	985.37
381.07	1048.56
381.26	976.00
381.46	961.96
381.65	992.39
381.85	1090.69
382.04	1018.13
382.24	1057.92
382.43	1123.46
382.63	1071.97
382.83	1050.90
383.02	990.05
383.22	1160.91
383.41	1153.88
383.61	1102.39
383.80	1093.03
384.00	1093.03
384.19	1160.91
384.39	1083.67
384.58	1090.69
384.78	1130.48
384.97	1167.93
385.17	1125.80
385.36	1156.22
385.56	1135.16
385.75	1132.82
385.95	1100.05
386.14	1181.97
386.34	1128.14
386.53	1104.73
386.72	1165.59
386.92	1294.32
387.11	1172.61
387.31	1313.04
387.50	1181.97
387.70	1268.57
387.89	1200.69
388.09	1277.93
388.28	1238.14
388.48	1313.04
388.67	1238.14
388.86	1270.91
389.06	1242.82
389.25	1343.47
389.45	1254.53
389.64	1301.34
389.84	1404.32
390.03	1345.81
390.22	1437.09
390.42	1380.92
390.61	1306.02
390.81	1446.45
391.00	1401.98
391.19	1460.49
391.39	1345.81
391.58	1490.92
391.78	1406.66
391.97	1490.92
392.16	1486.24
392.36	1504.96
392.55	1481.56
392.75	1551.78
392.94	1521.35
393.13	1535.39
393.33	1598.59
393.52	1556.46
393.71	1561.14
393.91	1582.20
394.10	1533.05
394.29	1582.20
394.49	1619.65
394.68	1631.35
394.88	1638.38
395.07	1703.91
395.26	1629.01
395.46	1701.57
395.65	1671.14
395.84	1596.25
396.04	1664.12
396.23	1790.51
396.42	1820.94
396.62	1839.66
396.81	1816.26
397.00	1755.40
397.19	1743.70
397.39	1776.47
397.58	1755.40
397.77	1727.32
397.97	1858.39
398.16	1813.92
398.35	1746.04
398.55	1771.79
398.74	1816.26
398.93	1825.62
399.12	1912.22
399.32	1834.98
399.51	1874.77
399.70	2012.86
399.90	1921.58
400.09	2050.31
400.28	2024.56
400.47	2085.42
400.67	1984.77
400.86	2104.14
401.05	2172.02
401.24	2059.67
401.44	2106.48
401.63	2181.38
401.82	2176.70
402.01	2087.76
402.21	2106.48
402.40	2129.89
402.59	2179.04
402.78	2134.57
402.97	2221.17
403.17	2258.62
403.36	2197.76
403.55	2251.60
403.74	2347.56
403.93	2352.24
404.13	2305.43
404.32	2347.56
404.51	2267.98
404.70	2408.41
404.89	2356.92
405.09	2335.85
405.28	2438.84
405.47	2443.52
405.66	2579.27
405.85	2544.16
406.05	2431.82
406.24	2450.54
406.43	2537.14
406.62	2689.28
406.81	2679.91
407.00	2495.01
407.20	2595.65
407.39	2516.08
407.58	2656.51
407.77	2717.36
407.96	2712.68
408.15	2736.09
408.34	2834.39
408.54	2869.50
408.73	2731.41
408.92	2806.30
409.11	2928.01
409.30	2834.39
409.49	2829.71
409.68	2827.37
409.87	2942.05
410.07	2913.97
410.26	3009.93
410.45	3068.44
410.64	3061.42
410.83	3080.14
411.02	3180.79
411.21	3178.45
411.40	3087.17
411.59	3269.73
411.78	3169.09
411.98	3103.55
412.17	3155.04
412.36	3272.07
412.55	3391.44
412.74	3379.73
412.93	3335.26
413.12	3272.07
413.31	3543.57
413.50	3403.14
413.69	3438.25
413.88	3604.42
414.07	3459.31
414.26	3669.96
414.45	3691.02
414.64	3611.45
414.83	3698.05
415.02	3637.19
415.22	3798.69
415.41	3943.80
415.60	3672.30
415.79	4011.68
415.98	3913.38
416.17	3911.04
416.36	3859.54
416.55	3983.59
416.74	3955.51
416.93	4100.62
417.12	4112.32
417.31	4290.20
417.50	4100.62
417.69	4355.74
417.88	4142.75
418.07	4229.35
418.26	4142.75
418.45	4280.84
418.64	4351.06
418.83	4414.25
419.02	4402.55
419.21	4568.73
419.39	4510.21
419.58	4430.63
419.77	4496.17
419.96	4533.62
420.15	4575.75
420.34	4624.90
420.53	4667.03
420.72	4657.67
420.91	4662.35
421.10	4657.67
421.29	4755.97
421.48	4514.89
421.67	4667.03
421.86	4746.61
422.05	4882.36
422.24	4678.73
422.43	4697.46
422.61	4844.91
422.80	4924.49
422.99	4987.68
423.18	4994.70
423.37	4908.10
423.56	4901.08
423.75	4933.85
423.94	4882.36
424.13	4641.28
424.32	4629.58
424.50	4908.10
424.69	5020.45
424.88	5064.92
425.07	4957.25
425.26	5034.49
425.45	4849.59
425.64	5022.79
425.83	5069.60
426.01	5081.30
426.20	5153.86
426.39	5008.75
426.58	4978.32
426.77	4968.96
426.96	5170.24
427.15	4985.34
427.33	5235.78
427.52	5018.11
427.71	5156.20
427.90	5266.21
428.09	5266.21
428.28	5352.81
428.46	5200.67
428.65	5289.61
428.84	5507.28
429.03	5317.70
429.22	5221.74
429.40	5472.17
429.59	5509.62
429.78	5268.55
429.97	5184.29
430.16	5406.64
430.34	5575.16
430.53	5579.84
430.72	5628.99
430.91	5572.82
431.10	5544.73
431.28	5802.19
431.47	5734.31
431.66	5731.97
431.85	5673.46
432.03	5724.95
432.22	5916.87
432.41	5806.87
432.60	5743.67
432.79	5837.30
432.97	5956.66
433.16	5930.92
433.35	5884.11
433.54	5966.03
433.72	6136.88
433.91	6003.47
434.10	6127.52
434.28	6148.59
434.47	6200.08
434.66	6197.74
434.85	6267.95
435.03	6422.43
435.22	6279.66
435.41	6401.37
435.59	6392.00
435.78	6307.74
435.97	6413.07
436.16	6361.58
436.34	6200.08
436.53	6434.13
436.72	6700.95
436.90	6420.09
437.09	6506.69
437.28	6340.51
437.46	6546.48
437.65	6602.65
437.84	6642.44
438.02	6832.02
438.21	6855.43
438.40	6572.22
438.58	6965.43
438.77	6965.43
438.96	6827.34
439.14	7028.63
439.33	7239.28
439.52	7148.00
439.70	7047.35
439.89	7363.33
440.08	7302.47
440.26	7332.90
440.45	7157.36
440.63	7356.30
440.82	7475.67
441.01	7330.56
441.19	7742.49
441.38	7606.74
441.57	7754.19
441.75	7815.05
441.94	7796.32
442.12	7817.39
442.31	8098.25
442.50	8088.89
442.68	8093.57
442.87	7990.59
443.05	8046.76
443.24	7962.50
443.43	8046.76
443.61	8105.28
443.80	8346.35
443.98	7941.44
444.17	7676.96
444.35	8184.85
444.54	8332.31
444.73	8191.88
444.91	8292.52
445.10	8243.37
445.28	8306.56
445.47	8184.85
445.65	8147.40
445.84	8248.05
446.02	8428.27
446.21	8189.53
446.39	8210.60
446.58	8339.33
446.77	8435.29
446.95	8196.56
447.14	8519.55
447.32	8439.97
447.51	8512.53
447.69	8446.99
447.88	8439.97
448.06	8306.56
448.25	8617.85
448.43	8444.65
448.62	8411.89
448.80	8596.79
448.99	8549.98
449.17	8613.17
449.36	8571.04
449.54	8718.50
449.73	8865.95
449.91	9076.60
450.10	8959.57
450.28	9217.03
450.46	9071.92
450.65	8917.44
450.83	9011.06
451.02	8901.06
451.20	9090.64
451.39	9100.00
451.57	9020.42
451.76	8940.85
451.94	9408.95
452.13	9303.63
452.31	9081.28
452.49	9137.45
452.68	9296.61
452.86	9411.29
453.05	9245.12
453.23	9415.98
453.42	9420.66
453.60	9362.14
453.78	9413.63
453.97	9401.93
454.15	9418.32
454.34	9312.99
454.52	9607.90
454.70	9511.94
454.89	9816.21
455.07	9535.34
455.26	9558.75
455.44	9848.97
455.62	9603.22
455.81	9762.37
455.99	9973.02
456.17	10052.60
456.36	9919.19
456.54	10127.50
456.73	9961.32
456.91	10225.80
457.09	10384.96
457.28	10434.11
457.46	10209.42
457.64	10541.77
457.83	10525.39
458.01	10207.08
458.19	10619.01
458.38	10485.60
458.56	10574.54
458.74	10752.42
458.93	10436.45
459.11	10541.77
459.29	10555.82
459.48	10616.67
459.66	10689.23
459.84	10874.13
460.03	11021.58
460.21	10937.32
460.39	10693.91
460.57	10986.47
460.76	11187.76
460.94	11234.57
461.12	10949.03
461.31	11059.03
461.49	11030.94
461.67	11143.29
461.85	11396.07
462.04	11162.01
462.22	11800.98
462.40	11257.98
462.59	11267.34
462.77	11290.74
462.95	11508.41
463.13	11559.91
463.32	11454.58
463.50	11864.18
463.68	11660.55
463.86	11665.23
464.05	11775.24
464.23	11557.57
464.41	11768.21
464.59	11674.59
464.78	12032.69
464.96	11716.72
465.14	11754.17
465.32	11962.48
465.50	12091.21
465.69	12226.96
465.87	11960.14
466.05	12131.00
466.23	12231.64
466.41	12409.52
466.60	12217.60
466.78	11946.09
466.96	11922.69
467.14	12070.14
467.32	12306.54
467.51	12425.90
467.69	12109.93
467.87	12463.35
468.05	12414.20
468.23	12320.58
468.41	12379.09
468.60	12313.56
468.78	12674.00
468.96	12631.87
469.14	12840.18
469.32	12844.86
469.50	12435.27
469.69	12868.27
469.87	12772.30
470.05	13191.26
470.23	12903.37
470.41	13060.19
470.59	13242.75
470.77	12933.80
470.95	12922.10
471.14	13399.57
471.32	13034.44
471.50	13509.57
471.68	13465.10
471.86	13514.25
472.04	13483.83
472.22	14073.64
472.40	13352.76
472.58	13741.29
472.77	13933.21
472.95	13949.59
473.13	14590.90
473.31	13898.10
473.49	13984.70
473.67	13996.40
473.85	14169.60
474.03	14801.55
474.21	14476.21
474.39	14668.14
474.57	14518.34
474.75	14949.00
474.93	15007.52
475.12	14895.17
475.30	15044.96
475.48	15084.75
475.66	15103.48
475.84	15047.30
476.02	15655.84
476.20	15304.76
476.38	15564.56
476.56	15800.96
476.74	15845.43
476.92	15791.59
477.10	15625.42
477.28	15967.13
477.46	16152.04
477.64	16100.55
477.82	16428.22
478.00	16774.62
478.18	16318.22
478.36	16901.01
478.54	17060.16
478.72	16879.94
478.90	17221.66
479.08	17312.94
479.26	17350.39
479.44	17680.41
479.62	17774.03
479.80	17928.50
479.98	18115.75
480.16	18576.83
480.34	18134.47
480.52	18410.65
480.70	18256.18
480.88	18347.46
481.06	18555.77
481.24	18794.50
481.41	18651.73
481.59	19068.34
481.77	19264.95
481.95	19227.50
482.13	19529.43
482.31	19644.12
482.49	20058.39
482.67	19985.83
482.85	20458.62
483.03	20643.52
483.21	20863.54
483.39	20861.19
483.57	20751.19
483.74	21282.49
483.92	21071.84
484.10	21076.52
484.28	21408.88
484.46	21811.45
484.64	22366.16
484.82	21743.58
485.00	22263.18
485.18	22342.75
485.35	22869.37
485.53	22366.16
485.71	22920.87
485.89	23030.87
486.07	23033.21
486.25	23679.20
486.43	23243.86
486.61	24067.73
486.78	24105.18
486.96	24556.90
487.14	24280.72
487.32	24208.16
487.50	24484.34
487.68	24903.30
487.85	25069.48
488.03	25153.74
488.21	25750.57
488.39	25558.65
488.57	25991.65
488.75	25926.11
488.92	26607.21
489.10	26434.01
489.28	26712.53
489.46	27208.73
489.64	26525.29
489.81	27395.97
489.99	27206.39
490.17	27505.98
490.35	27948.34
490.53	27714.28
490.70	28287.71
490.88	27798.54
491.06	28620.07
491.24	28608.37
491.41	28732.42
491.59	29172.44
491.77	28943.06
491.95	29457.98
492.13	29677.99
492.30	29436.92
492.48	29844.17
492.66	30010.35
492.84	30169.51
493.01	30630.59
493.19	30490.16
493.37	30986.35
493.54	30780.39
493.72	31452.12
493.90	31082.31
494.08	31852.35
494.25	31683.83
494.43	31622.98
494.61	31976.40
494.79	32203.43
494.96	32444.51
495.14	32467.91
495.32	32938.36
495.49	32655.15
495.67	33127.94
495.85	33352.63
496.02	33593.71
496.20	34113.31
496.38	33916.70
496.55	33759.89
496.73	34539.29
496.91	34347.36
497.09	34265.44
497.26	34501.84
497.44	34712.49
497.62	34972.28
497.79	35484.86
497.97	35278.89
498.14	35793.81
498.32	35945.95
498.50	36182.34
498.67	36418.74
498.85	36378.95
499.03	36376.61
499.20	36762.79
499.38	36664.49
499.56	36816.63
499.73	36917.27
499.91	37188.77
500.08	37397.08
500.26	37188.77
500.44	37240.26
500.61	37642.84
500.79	37188.77
500.97	37799.65
501.14	38300.53
501.32	38333.29
501.49	38206.90
501.67	38124.99
501.84	38639.90
502.02	38895.02
502.20	38698.42
502.37	39047.16
502.55	38948.85
502.72	39145.46
502.90	39496.54
503.07	39105.67
503.25	39409.94
503.43	39571.44
503.60	39861.66
503.78	39826.56
503.95	40617.66
504.13	40498.29
504.30	40376.58
504.48	40201.04
504.65	41214.49
504.83	40722.98
505.01	41212.15
505.18	40821.28
505.36	41392.37
505.53	40769.79
505.71	40942.99
505.88	41741.11
506.06	41155.98
506.23	41727.07
506.41	41450.89
506.58	41661.54
506.76	41986.87
506.93	42174.11
507.11	42160.07
507.28	42146.03
507.46	42410.51
507.63	42419.87
507.81	43021.39
507.98	42541.58
508.16	42906.70
508.33	43269.48
508.50	42841.17
508.68	43363.11
508.85	43700.14
509.03	43206.29
509.20	43636.95
509.38	43899.09
509.55	43803.13
509.73	43938.88
509.90	44336.77
510.08	44285.28
510.25	44435.07
510.42	44327.41
510.60	44542.74
510.77	44751.04
510.95	45174.68
511.12	44938.29
511.30	44776.79
511.47	45043.61
511.64	45333.84
511.82	45579.59
511.99	45436.82
512.17	45593.64
512.34	45820.67
512.51	46473.68
512.69	45935.35
512.86	46014.93
513.04	46363.67
513.21	46256.01
513.38	46295.80
513.56	47100.94
513.73	46726.46
513.90	46466.66
514.08	46618.79
514.25	46974.55
514.43	46703.05
514.60	47086.90
514.77	47138.39
514.95	47299.89
515.12	47531.60
515.29	47381.80
515.47	47475.43
515.64	47767.99
515.81	47269.46
515.99	48109.71
516.16	48491.22
516.33	48240.78
516.51	48584.84
516.68	47964.60
516.85	48149.50
517.03	48509.94
517.20	48514.62
517.37	48685.48
517.54	48648.03
517.72	48526.33
517.89	48914.86
518.06	48956.99
518.24	49127.84
518.41	48921.88
518.58	49151.25
518.75	48935.92
518.93	49305.73
519.10	49146.57
519.27	49446.16
519.45	49448.50
519.62	49708.30
519.79	49743.41
519.96	50082.78
520.14	49762.13
520.31	49551.48
520.48	49984.48
520.65	50021.93
520.83	50223.22
521.00	50321.52
521.17	50206.83
521.34	50473.65
521.52	50447.91
521.69	50656.21
521.86	50649.19
522.03	51016.66
522.20	51037.72
522.38	51423.91
522.55	51330.29
522.72	51002.61
522.89	50803.67
523.07	51487.10
523.24	50986.23
523.41	51398.16
523.58	51250.71
523.75	51578.39
523.92	51578.39
524.10	51686.05
524.27	51847.55
524.44	51697.75
524.61	51875.63
524.78	51962.23
524.96	51978.62
525.13	52156.50
525.30	51945.85
525.47	52369.49
525.64	51985.64
525.81	52280.55
525.98	52465.45
526.16	52451.41
526.33	52615.24
526.50	52938.24
526.67	52622.26
526.84	52783.76
527.01	52617.58
527.18	52849.30
527.36	52704.18
527.53	53137.18
527.70	53113.78
527.87	53261.23
528.04	53069.31
528.21	53188.67
528.38	53172.29
528.55	53352.51
528.72	53083.35
528.89	53298.68
529.07	53233.14
529.24	53279.96
529.41	53375.92
529.58	53499.97
529.75	53471.88
529.92	53586.57
530.09	53705.93
530.26	53762.11
530.43	53787.85
530.60	53666.14
530.77	53698.91
530.94	53839.34
531.11	53895.52
531.28	54106.16
531.46	53537.41
531.63	54007.86
531.80	53993.82
531.97	54073.40
532.14	54244.26
532.31	54042.97
532.48	54567.25
532.65	54394.05
532.82	54457.24
532.99	54520.44
533.16	54312.13
533.33	54541.50
533.50	54948.76
533.67	54461.93
533.84	54600.02
534.01	54658.53
534.18	54688.96
534.35	54864.50
534.52	55051.74
534.69	55091.53
534.86	54880.88
535.03	55028.34
535.20	55079.83
535.37	54901.95
535.54	55091.53
535.71	55086.85
535.88	55356.01
536.05	55295.16
536.22	55433.25
536.38	55386.44
536.55	55332.60
536.72	55227.28
536.89	55288.13
537.06	55468.36
537.23	55428.57
537.40	55433.25
537.57	55407.50
537.74	55744.54
537.91	56013.70
538.08	55613.47
538.25	55316.22
538.42	55847.52
538.59	56114.34
538.75	55728.16
538.92	55931.78
539.09	55903.70
539.26	56168.18
539.43	55711.77
539.60	56039.45
539.77	55749.22
539.94	56254.78
540.11	55868.59
540.28	56278.18
540.44	56170.52
540.61	56254.78
540.78	56175.20
540.95	56308.61
541.12	56432.66
541.29	56350.74
541.46	56196.26
541.62	56423.29
541.79	56680.75
541.96	56100.30
542.13	56399.89
542.30	56294.56
542.47	56622.24
542.63	56573.09
542.80	56640.96
542.97	56896.08
543.14	56952.26
543.31	56914.81
543.48	57256.53
543.64	57198.01
543.81	57249.50
543.98	57324.40
544.15	57162.90
544.32	57399.30
544.48	57361.85
544.65	57076.30
544.82	57198.01
544.99	57167.58
545.16	57076.30
545.32	57003.75
545.49	57616.97
545.66	57523.35
545.83	57619.31
546.00	57558.45
546.16	57631.01
546.33	57432.07
546.50	57361.85
546.67	57785.49
546.83	57167.58
547.00	57621.65
547.17	57399.30
547.34	57703.57
547.50	57860.38
547.67	58000.82
547.84	57757.40
548.00	57872.09
548.17	58169.33
548.34	57736.34
548.51	57989.11
548.67	57928.26
548.84	57989.11
549.01	58094.44
549.18	57925.92
549.34	57984.43
549.51	58136.57
549.68	58134.23
549.84	58197.42
550.01	58169.33
550.18	58054.65
550.34	58405.73
550.51	58347.21
550.68	58218.49
550.84	58326.15
551.01	58272.32
551.18	58396.37
551.34	58124.86
551.51	58326.15
551.68	58583.61
551.84	58461.90
552.01	58372.96
552.18	58260.62
552.34	58482.97
552.51	58508.71
552.68	58377.64
552.84	58585.95
553.01	58791.92
553.18	58466.58
553.34	58726.38
553.51	58695.95
553.67	58630.42
553.84	58843.41
554.01	58679.57
554.17	59023.63
554.34	58574.25
554.51	58712.34
554.67	58920.65
554.84	59007.25
555.00	58761.49
555.17	58787.24
555.33	58761.49
555.50	58801.28
555.67	58754.47
555.83	58731.06
556.00	59023.63
556.16	59114.91
556.33	59086.82
556.50	59098.53
556.66	59152.36
556.83	59093.85
556.99	59269.39
557.16	59264.70
557.32	59260.02
557.49	59543.23
557.65	59112.57
557.82	59117.25
557.98	59213.21
558.15	59288.11
558.32	59210.87
558.48	59489.40
558.65	59503.44
558.81	59524.50
558.98	59494.08
559.14	59451.95
559.31	59484.72
559.47	59400.46
559.64	59618.13
559.80	59611.10
559.97	59707.07
560.13	59501.10
560.30	59295.13
560.46	59412.16
560.63	59660.26
560.79	59379.39
560.96	59756.22
561.12	59831.11
561.29	59730.47
561.45	59714.09
561.61	59662.60
561.78	59604.08
561.94	59611.10
562.11	59662.60
562.27	59700.04
562.44	59955.16
562.60	59786.64
562.77	60072.19
562.93	59657.91
563.10	59756.22
563.26	59723.45
563.42	60041.76
563.59	59831.11
563.75	59821.75
563.92	59950.48
564.08	59873.24
564.24	60221.98
564.41	59859.20
564.57	60020.70
564.74	59901.33
564.90	60048.78
565.07	59903.67
565.23	59943.46
565.39	59693.02
565.56	60130.70
565.72	59873.24
565.88	59999.63
566.05	59814.73
566.21	59987.93
566.38	59943.46
566.54	60090.91
566.70	59969.21
566.87	60151.77
567.03	59966.87
567.19	60179.85
567.36	60130.70
567.52	60081.55
567.68	60210.28
567.85	60240.71
568.01	60083.89
568.17	60303.90
568.34	60334.33
568.50	60018.36
568.66	60083.89
568.83	60329.65
568.99	60175.17
569.15	60240.71
569.32	60053.47
569.48	60133.04
569.64	60381.14
569.81	60364.76
569.97	60231.35
570.13	60259.43
570.30	60128.36
570.46	60446.68
570.62	60310.92
570.78	60243.05
570.95	60306.24
571.11	60512.21
571.27	60336.67
571.43	60259.43
571.60	60341.35
571.76	60257.09
571.92	60533.28
572.09	60411.57
572.25	60582.43
572.41	60479.44
572.57	60217.30
572.74	60624.56
572.90	60121.34
573.06	60526.25
573.22	60491.15
573.38	60502.85
573.55	60411.57
573.71	60640.94
573.87	60420.93
574.03	60406.89
574.20	60540.30
574.36	60444.33
574.52	60694.77
574.68	60502.85
574.84	60540.30
575.01	60587.11
575.17	60495.83
575.33	60687.75
575.49	60486.46
575.65	60530.93
575.82	60622.22
575.98	60647.96
576.14	60598.81
576.30	60594.13
576.46	60603.49
576.62	60528.59
576.79	60460.72
576.95	60411.57
577.11	60652.64
577.27	60818.82
577.43	60493.49
577.59	60575.40
577.75	60638.60
577.92	60526.25
578.08	60629.24
578.24	60865.63
578.40	61006.06
578.56	60837.54
578.72	60692.43
578.88	60793.07
579.04	60896.06
579.21	60690.09
579.37	60949.89
579.53	60755.63
579.69	60547.32
579.85	60615.19
580.01	60521.57
580.17	60753.29
580.33	60811.80
580.49	60769.67
580.65	60910.10
580.82	60652.64
580.98	60757.97
581.14	60832.86
581.30	60914.78
581.46	60701.79
581.62	60821.16
581.78	60715.84
581.94	60760.31
582.10	60776.69
582.26	60678.39
582.42	60851.59
582.58	60825.84
582.74	60772.01
582.90	60659.66
583.06	60804.78
583.22	60542.64
583.38	60739.24
583.54	60835.20
583.70	60851.59
583.86	60823.50
584.02	60673.71
584.18	60891.38
584.34	60954.57
584.50	60816.48
584.66	60748.60
584.82	60624.56
584.98	61038.83
585.14	60828.18
585.30	60821.16
585.46	60884.36
585.62	60809.46
585.78	60903.08
585.94	60631.58
586.10	60882.02
586.26	60903.08
586.42	60973.30
586.58	60905.42
586.74	61008.40
586.90	60832.86
587.06	60970.96
587.22	60973.30
587.38	60921.80
587.54	60996.70
587.70	61036.49
587.86	60926.49
588.02	60750.94
588.18	61137.13
588.34	60879.67
588.49	60977.98
