SpectraSuite Data File
++++++++++++++++++++++++++++++++++++
Date: Fri Oct 25 11:23:14 EDT 2013
User: price-jones
Dark Spectrum Present: No
Reference Spectrum Present: No
Number of Sampled Component Spectra: 1
Spectrometers: USB2+H05261
Integration Time (usec): 100000 (USB2+H05261)
Spectra Averaged: 1 (USB2+H05261)
Boxcar Smoothing: 0 (USB2+H05261)
Correct for Electrical Dark: No (USB2+H05261)
Strobe/Lamp Enabled: No (USB2+H05261)
Correct for Detector Non-linearity: No (USB2+H05261)
Correct for Stray Light: No (USB2+H05261)
Number of Pixels in Processed Spectrum: 2048
>>>>>Begin Processed Spectral Data<<<<<
365.73	227.03
365.92	227.03
366.12	227.03
366.32	217.67
366.52	77.24
366.72	177.88
366.91	126.39
367.11	128.73
367.31	81.92
367.51	128.73
367.70	124.05
367.90	126.39
368.10	107.66
368.30	93.62
368.49	107.66
368.69	152.13
368.89	159.16
369.09	98.30
369.28	163.84
369.48	170.86
369.68	117.03
369.87	189.58
370.07	189.58
370.27	173.20
370.47	339.38
370.66	575.77
370.86	559.39
371.06	713.86
371.25	638.97
371.45	620.24
371.65	667.05
371.84	596.84
372.04	683.44
372.24	746.63
372.44	727.91
372.63	739.61
372.83	760.67
373.03	772.38
373.22	734.93
373.42	802.80
373.62	763.01
373.81	765.36
374.01	770.04
374.21	929.19
374.40	851.96
374.60	870.68
374.79	826.21
374.99	718.54
375.19	763.01
375.38	858.98
375.58	821.53
375.78	880.04
375.97	851.96
376.17	821.53
376.37	910.47
376.56	922.17
376.76	884.72
376.95	931.53
377.15	908.13
377.35	842.59
377.54	957.28
377.74	828.55
377.93	884.72
378.13	837.91
378.33	926.85
378.52	840.25
378.72	961.96
378.91	999.41
379.11	978.34
379.31	912.81
379.50	947.92
379.70	915.15
379.89	1008.77
380.09	1093.03
380.28	964.30
380.48	947.92
380.68	959.62
380.87	903.45
381.07	959.62
381.26	1020.47
381.46	1029.84
381.65	978.34
381.85	1064.94
382.04	1060.26
382.24	1069.62
382.43	1104.73
382.63	1062.60
382.83	1011.11
383.02	1107.07
383.22	1167.93
383.41	1067.28
383.61	1071.97
383.80	1263.89
384.00	1071.97
384.19	1132.82
384.39	1125.80
384.58	1142.18
384.78	1156.22
384.97	1081.33
385.17	1153.88
385.36	1090.69
385.56	1186.65
385.75	1200.69
385.95	1224.10
386.14	1252.19
386.34	1282.61
386.53	1167.93
386.72	1207.72
386.92	1315.38
387.11	1217.08
387.31	1231.12
387.50	1275.59
387.70	1322.40
387.89	1299.00
388.09	1233.46
388.28	1315.38
388.48	1327.08
388.67	1306.02
388.86	1296.66
389.06	1299.00
389.25	1453.47
389.45	1390.28
389.64	1366.87
389.84	1362.19
390.03	1364.53
390.22	1387.94
390.42	1409.00
390.61	1397.30
390.81	1387.94
391.00	1486.24
391.19	1467.52
391.39	1483.90
391.58	1451.13
391.78	1547.09
391.97	1418.36
392.16	1441.77
392.36	1479.22
392.55	1575.18
392.75	1549.43
392.94	1561.14
393.13	1507.30
393.33	1519.01
393.52	1544.75
393.71	1568.16
393.91	1509.65
394.10	1624.33
394.29	1528.37
394.49	1720.29
394.68	1633.69
394.88	1596.25
395.07	1732.00
395.26	1652.42
395.46	1668.80
395.65	1790.51
395.84	1734.34
396.04	1774.13
396.23	1795.19
396.42	1708.59
396.62	1785.83
396.81	1781.15
397.00	1722.63
397.19	1760.08
397.39	1832.64
397.58	1743.70
397.77	1834.98
397.97	1813.92
398.16	1804.55
398.35	1947.33
398.55	1823.28
398.74	1914.56
398.93	1982.43
399.12	1926.26
399.32	1966.05
399.51	1940.30
399.70	1933.28
399.90	2031.58
400.09	2071.37
400.28	1963.71
400.47	2024.56
400.67	2083.08
400.86	2115.84
401.05	2104.14
401.24	2153.29
401.44	2038.61
401.63	2181.38
401.82	2221.17
402.01	2153.29
402.21	2132.23
402.40	2258.62
402.59	2260.96
402.78	2289.04
402.97	2298.41
403.17	2333.51
403.36	2267.98
403.55	2296.07
403.74	2436.50
403.93	2399.05
404.13	2275.00
404.32	2377.98
404.51	2366.28
404.70	2431.82
404.89	2445.86
405.09	2497.35
405.28	2457.56
405.47	2661.19
405.66	2539.48
405.85	2572.25
406.05	2553.52
406.24	2525.44
406.43	2455.22
406.62	2710.34
406.81	2684.59
407.00	2738.43
407.20	2551.18
407.39	2630.76
407.58	2792.26
407.77	2771.19
407.96	2726.72
408.15	2684.59
408.34	2689.28
408.54	2876.52
408.73	2904.60
408.92	2806.30
409.11	2876.52
409.30	2988.86
409.49	2820.35
409.68	2897.58
409.87	2930.35
410.07	2977.16
410.26	3049.72
410.45	3030.99
410.64	3007.59
410.83	3012.27
411.02	2979.50
411.21	3136.32
411.40	3152.70
411.59	3262.71
411.78	3218.24
411.98	3262.71
412.17	3368.03
412.36	3375.05
412.55	3356.33
412.74	3358.67
412.93	3466.33
413.12	3342.28
413.31	3517.83
413.50	3510.80
413.69	3595.06
413.88	3662.94
414.07	3590.38
414.26	3557.61
414.45	3709.75
414.64	3623.15
414.83	3735.50
415.02	3843.16
415.22	3904.01
415.41	3866.56
415.60	4023.38
415.79	3925.08
415.98	4014.02
416.17	3950.82
416.36	3880.61
416.55	4070.19
416.74	4095.94
416.93	4102.96
417.12	4262.12
417.31	4264.46
417.50	4180.20
417.69	4369.78
417.88	4423.61
418.07	4365.10
418.26	4283.18
418.45	4250.41
418.64	4535.96
418.83	4437.66
419.02	4454.04
419.21	4683.41
419.39	4465.74
419.58	4641.28
419.77	4503.19
419.96	4699.80
420.15	4662.35
420.34	4559.36
420.53	4545.32
420.72	4741.93
420.91	4685.75
421.10	4777.03
421.29	4870.65
421.48	4809.80
421.67	4926.83
421.86	4798.10
422.05	4861.29
422.24	4880.02
422.43	4875.34
422.61	5069.60
422.80	5015.77
422.99	4812.14
423.18	4983.00
423.37	5203.01
423.56	4950.23
423.75	4964.28
423.94	4938.53
424.13	4669.37
424.32	4770.01
424.50	5078.96
424.69	5053.22
424.88	5188.97
425.07	5078.96
425.26	5071.94
425.45	4983.00
425.64	5067.26
425.83	5046.20
426.01	5212.37
426.20	5102.37
426.39	5036.83
426.58	4908.10
426.77	5041.51
426.96	5095.35
427.15	5198.33
427.33	5207.69
427.52	5263.86
427.71	5235.78
427.90	5317.70
428.09	5430.04
428.28	5317.70
428.46	5432.38
428.65	5476.85
428.84	5724.95
429.03	5483.88
429.22	5458.13
429.40	5430.04
429.59	5488.56
429.78	5357.49
429.97	5313.02
430.16	5643.03
430.34	5654.73
430.53	5682.82
430.72	5671.12
430.91	5692.18
431.10	5556.43
431.28	5572.82
431.47	5919.21
431.66	5954.32
431.85	5727.29
432.03	5886.45
432.22	6019.86
432.41	5947.30
432.60	6050.28
432.79	5916.87
432.97	6097.10
433.16	6036.24
433.35	6005.81
433.54	6118.16
433.72	6204.76
433.91	6277.32
434.10	6242.21
434.28	5940.28
434.47	6211.78
434.66	6188.38
434.85	6310.08
435.03	6359.24
435.22	6394.34
435.41	6340.51
435.59	6420.09
435.78	6434.13
435.97	6600.31
436.16	6497.33
436.34	6424.77
436.53	6607.33
436.72	6745.42
436.90	6572.22
437.09	6630.74
437.28	6635.42
437.46	6546.48
437.65	6782.87
437.84	6612.01
438.02	6869.47
438.21	6771.17
438.40	6775.85
438.58	7028.63
438.77	7187.79
438.96	7063.74
439.14	7173.74
439.33	7173.74
439.52	7183.10
439.70	7389.07
439.89	7396.09
440.08	7353.96
440.26	7506.10
440.45	7459.29
440.63	7562.27
440.82	7609.08
441.01	7466.31
441.19	7880.58
441.38	7845.48
441.57	7667.60
441.75	7866.54
441.94	8093.57
442.12	7906.33
442.31	8039.74
442.50	8100.59
442.68	7981.23
442.87	8149.75
443.05	8140.38
443.24	8308.90
443.43	8222.30
443.61	8430.61
443.80	8629.56
443.98	8084.21
444.17	8030.38
444.35	8421.25
444.54	8601.47
444.73	8411.89
444.91	8430.61
445.10	8468.06
445.28	8344.01
445.47	8470.40
445.65	8489.12
445.84	8444.65
446.02	8659.98
446.21	8374.44
446.39	8587.43
446.58	8582.74
446.77	8468.06
446.95	8360.39
447.14	8566.36
447.32	8458.70
447.51	8400.18
447.69	8409.54
447.88	8519.55
448.06	8423.59
448.25	8713.81
448.43	8650.62
448.62	8549.98
448.80	8858.93
448.99	8849.57
449.17	8828.50
449.36	8713.81
449.54	8980.64
449.73	8978.30
449.91	9011.06
450.10	9280.22
450.28	9233.41
450.46	9303.63
450.65	9055.53
450.83	9336.40
451.02	8940.85
451.20	9406.61
451.39	9153.84
451.57	9277.88
451.76	9282.56
451.94	9240.44
452.13	9111.71
452.31	9345.76
452.49	9280.22
452.68	9399.59
452.86	9680.46
453.05	9270.86
453.23	9507.26
453.42	9554.07
453.60	9327.03
453.78	9596.20
453.97	9528.32
454.15	9619.60
454.34	9540.02
454.52	9912.17
454.70	9954.30
454.89	9771.74
455.07	9900.47
455.26	9795.14
455.44	9951.96
455.62	9970.68
455.81	9914.51
455.99	10054.94
456.17	10061.96
456.36	10167.29
456.54	10242.18
456.73	10361.55
456.91	10349.85
457.09	10560.50
457.28	10721.99
457.46	10497.30
457.64	10623.69
457.83	10401.34
458.01	10565.18
458.19	10923.28
458.38	10551.14
458.56	10750.08
458.74	10867.11
458.93	10883.49
459.11	10707.95
459.29	10773.49
459.48	10876.47
459.66	10902.22
459.84	11157.33
460.03	11183.08
460.21	11007.54
460.39	11307.13
460.57	11297.77
460.76	11077.76
460.94	11218.19
461.12	11508.41
461.31	11164.36
461.49	11377.34
461.67	11440.54
461.85	11658.21
462.04	11438.20
462.22	11831.41
462.40	11740.13
462.59	11311.81
462.77	11630.12
462.95	11822.05
463.13	11770.55
463.32	11735.45
463.50	11901.62
463.68	11786.94
463.86	11913.33
464.05	11805.66
464.23	11943.75
464.41	12081.85
464.59	11627.78
464.78	12182.49
464.96	12138.02
465.14	11915.67
465.32	12194.19
465.50	12299.52
465.69	12404.84
465.87	12138.02
466.05	12301.86
466.23	12259.73
466.41	12528.89
466.60	12774.64
466.78	12456.33
466.96	12306.54
467.14	12332.28
467.32	12500.80
467.51	12622.51
467.69	12510.16
467.87	12643.57
468.05	12720.81
468.23	12512.50
468.41	12835.50
468.60	12814.43
468.78	13041.46
468.96	12489.10
469.14	12945.50
469.32	13315.31
469.50	12898.69
469.69	13135.09
469.87	12688.04
470.05	13123.38
470.23	13355.10
470.41	12945.50
470.59	13476.80
470.77	13350.42
470.95	13249.77
471.14	13699.16
471.32	13308.29
471.50	13806.82
471.68	13654.69
471.86	13490.85
472.04	13792.78
472.22	14230.46
472.40	13891.08
472.58	14059.60
472.77	13977.68
472.95	14211.73
473.13	14429.40
473.31	13963.64
473.49	14218.75
473.67	14431.74
473.85	14394.29
474.03	14544.09
474.21	14867.08
474.39	14623.67
474.57	14864.74
474.75	15204.12
474.93	15002.83
475.12	15138.58
475.30	15192.42
475.48	15087.09
475.66	15222.84
475.84	15232.21
476.02	15672.23
476.20	15520.09
476.38	15859.47
476.56	16163.74
476.74	16442.26
476.92	16184.80
477.10	15992.88
477.28	16159.06
477.46	16418.86
477.64	16554.61
477.82	16772.28
478.00	17193.58
478.18	17130.38
478.36	16938.46
478.54	17195.92
478.72	17273.15
478.90	17774.03
479.08	17703.81
479.26	17972.97
479.44	18019.78
479.62	17783.39
479.80	18314.69
479.98	18312.35
480.16	18754.71
480.34	18347.46
480.52	18864.72
480.70	18675.13
480.88	18583.85
481.06	19056.64
481.24	19094.09
481.41	19356.23
481.59	19435.81
481.77	19653.48
481.95	19913.28
482.13	19920.30
482.31	20095.84
482.49	20624.80
482.67	20528.84
482.85	20603.74
483.03	20893.96
483.21	20950.14
483.39	20952.48
483.57	21149.08
483.74	21303.56
483.92	21598.46
484.10	21535.27
484.28	21638.25
484.46	22001.04
484.64	22422.33
484.82	21940.18
485.00	22579.15
485.18	23157.26
485.35	23283.65
485.53	23096.41
485.71	23381.95
485.89	23688.56
486.07	23482.59
486.25	23711.97
486.43	23957.72
486.61	24091.13
486.78	24465.62
486.96	24386.04
487.14	24702.01
487.32	24547.54
487.50	25083.52
487.68	25165.44
487.85	25865.26
488.03	25659.29
488.21	26218.68
488.39	26080.59
488.57	26211.66
488.75	26518.27
488.92	26782.75
489.10	26815.52
489.28	27175.96
489.46	27634.71
489.64	27243.84
489.81	27826.63
489.99	28039.62
490.17	28004.51
490.35	28697.31
490.53	28273.67
490.70	28634.11
490.88	29008.60
491.06	29106.90
491.24	29144.35
491.41	29425.22
491.59	30087.59
491.77	29310.53
491.95	29757.57
492.13	29919.07
492.30	30073.54
492.48	30326.32
492.66	30424.62
492.84	30815.49
493.01	31112.74
493.19	30911.46
493.37	31470.84
493.54	31438.08
493.72	31770.43
493.90	31878.10
494.08	31981.08
494.25	32477.27
494.43	31931.93
494.61	32795.59
494.79	33251.99
494.96	33109.22
495.14	32772.18
495.32	33443.91
495.49	33467.32
495.67	33642.86
495.85	34085.22
496.02	34022.03
496.20	34183.52
496.38	34518.22
496.55	34696.10
496.73	34890.37
496.91	35159.53
497.09	35030.80
497.26	34946.54
497.44	35395.92
497.62	35676.79
497.79	36285.33
497.97	36051.27
498.14	36329.80
498.32	36463.21
498.50	36224.47
498.67	36968.76
498.85	36893.86
499.03	37116.22
499.20	36912.59
499.38	37177.07
499.56	37661.56
499.73	37146.64
499.91	38120.31
500.08	37928.38
500.26	37516.45
500.44	38286.48
500.61	38167.12
500.79	38139.03
500.97	38752.25
501.14	38810.76
501.32	39222.70
501.49	38976.94
501.67	39091.63
501.84	39395.90
502.02	39264.83
502.20	39309.30
502.37	39620.59
502.55	39533.99
502.72	39725.91
502.90	40231.47
503.07	40088.70
503.25	39676.76
503.43	40205.72
503.60	40758.09
503.78	40687.87
503.95	40914.90
504.13	41097.47
504.30	41020.23
504.48	41111.51
504.65	41043.63
504.83	41375.99
505.01	41659.20
505.18	41289.39
505.36	41858.14
505.53	41727.07
505.71	42384.76
505.88	42555.62
506.06	42305.18
506.23	42267.73
506.41	42506.47
506.58	42134.32
506.76	42501.79
506.93	42955.85
507.11	42487.74
507.28	42752.23
507.46	43306.93
507.63	43440.34
507.81	43489.49
507.98	43445.02
508.16	43419.28
508.33	43819.51
508.50	44091.01
508.68	43873.34
508.85	44439.75
509.03	44334.43
509.20	44488.90
509.38	44474.86
509.55	44376.56
509.73	45237.87
509.90	45352.56
510.08	45064.67
510.25	44800.19
510.42	45193.40
510.60	45137.23
510.77	45605.34
510.95	45984.51
511.12	45680.24
511.30	45652.15
511.47	45689.60
511.64	46045.36
511.82	46349.63
511.99	46129.62
512.17	46391.76
512.34	46230.26
512.51	47009.66
512.69	46609.43
512.86	46616.45
513.04	47180.52
513.21	46763.90
513.38	47356.06
513.56	47168.82
513.73	46923.06
513.90	47370.10
514.08	47246.05
514.25	47611.18
514.43	47978.64
514.60	47763.31
514.77	47767.99
514.95	48254.82
515.12	48306.32
515.29	47988.00
515.47	48540.37
515.64	48505.26
515.81	48325.04
515.99	48758.04
516.16	49097.42
516.33	48802.51
516.51	48842.30
516.68	48964.01
516.85	48982.73
517.03	48961.67
517.20	49272.96
517.37	48879.75
517.54	49422.75
517.72	49457.86
517.89	49331.47
518.06	49748.09
518.24	49642.76
518.41	49177.00
518.58	49640.42
518.75	49748.09
518.93	49954.05
519.10	49867.45
519.27	50241.94
519.45	50141.30
519.62	50459.61
519.79	50260.66
519.96	50480.67
520.14	50408.12
520.31	50380.03
520.48	51040.06
520.65	50527.48
520.83	50948.78
521.00	50855.16
521.17	51070.49
521.34	51089.21
521.52	51185.18
521.69	51239.01
521.86	51650.94
522.03	51627.54
522.20	51688.39
522.38	52119.05
522.55	51697.75
522.72	51728.18
522.89	51538.60
523.07	51987.98
523.24	52037.13
523.41	52168.20
523.58	51913.08
523.75	52404.59
523.92	52027.77
524.10	52027.77
524.27	52605.88
524.44	52512.26
524.61	52369.49
524.78	52488.85
524.96	52486.51
525.13	52512.26
525.30	52631.63
525.47	53064.63
525.64	52947.60
525.81	52830.57
525.98	52947.60
526.16	52825.89
526.33	53062.29
526.50	53141.86
526.67	53296.34
526.84	53179.31
527.01	53228.46
527.18	53137.18
527.36	53345.49
527.53	53296.34
527.70	53986.80
527.87	53516.35
528.04	53509.33
528.21	53549.12
528.38	53558.48
528.55	53771.47
528.72	53673.16
528.89	53785.51
529.07	53670.82
529.24	53832.32
529.41	54014.88
529.58	53961.05
529.75	54164.68
529.92	54124.89
530.09	54096.80
530.26	54595.34
530.43	54328.52
530.60	54461.93
530.77	54274.68
530.94	54195.10
531.11	54274.68
531.28	54574.27
531.46	54501.71
531.63	54611.72
531.80	54569.59
531.97	54639.81
532.14	54941.74
532.31	54920.67
532.48	54677.25
532.65	54871.52
532.82	54686.62
532.99	55103.23
533.16	55018.97
533.33	55100.89
533.50	55290.48
533.67	55248.35
533.84	55058.76
534.01	55049.40
534.18	54981.52
534.35	55735.18
534.52	55271.75
534.69	55428.57
534.86	55585.38
535.03	55494.10
535.20	55316.22
535.37	55702.41
535.54	55641.56
535.71	55419.20
535.88	55917.74
536.05	55894.33
536.22	56109.66
536.38	56037.11
536.55	56069.87
536.72	56097.96
536.89	55938.80
537.06	55817.10
537.23	55891.99
537.40	56053.49
537.57	56135.41
537.74	56104.98
537.91	56392.87
538.08	56168.18
538.25	56378.82
538.42	56046.47
538.59	56360.10
538.75	56086.26
538.92	56296.91
539.09	56526.28
539.26	56310.95
539.43	56385.85
539.60	56566.07
539.77	56420.95
539.94	56596.49
540.11	56552.02
540.28	56650.33
540.44	56552.02
540.61	56772.03
540.78	56694.80
540.95	56797.78
541.12	56467.76
541.29	56664.37
541.46	56844.59
541.62	56980.34
541.79	57097.37
541.96	56725.22
542.13	56750.97
542.30	56970.98
542.47	57151.20
542.63	57055.24
542.80	57027.15
542.97	57226.10
543.14	57553.77
543.31	57151.20
543.48	57436.75
543.64	57907.19
543.81	57521.01
543.98	57544.41
544.15	57626.33
544.32	57652.08
544.48	57937.62
544.65	57616.97
544.82	57951.66
544.99	57649.74
545.16	57923.58
545.32	57682.50
545.49	57836.98
545.66	57914.22
545.83	58106.14
546.00	58298.06
546.16	57888.47
546.33	57844.00
546.50	58031.24
546.67	58052.31
546.83	57855.70
547.00	58099.12
547.17	58131.89
547.34	58129.54
547.50	58082.73
547.67	58190.40
547.84	58066.35
548.00	58321.47
548.17	58625.74
548.34	58204.44
548.51	58473.60
548.67	58602.33
548.84	58459.56
549.01	58396.37
549.18	58450.20
549.34	58480.63
549.51	58511.05
549.68	58831.71
549.84	58602.33
550.01	58656.17
550.18	58578.93
550.34	58522.76
550.51	58958.09
550.68	58585.95
550.84	58560.20
551.01	58766.17
551.18	58756.81
551.34	58838.73
551.51	58911.28
551.68	59037.67
551.84	58780.21
552.01	58672.55
552.18	59002.56
552.34	58829.37
552.51	59007.25
552.68	58679.57
552.84	58997.88
553.01	59161.72
553.18	59063.42
553.34	59229.60
553.51	58979.16
553.67	59110.23
553.84	59178.10
554.01	59175.76
554.17	59295.13
554.34	59245.98
554.51	59274.07
554.67	59196.83
554.84	59318.54
555.00	59185.13
555.17	59313.86
555.33	59168.74
555.50	59276.41
555.67	59227.26
555.83	59103.21
556.00	59473.01
556.16	59643.87
556.33	59519.82
556.50	59662.60
556.66	59594.72
556.83	59126.61
556.99	59576.00
557.16	59739.83
557.32	59756.22
557.49	59798.35
557.65	59571.32
557.82	59475.35
557.98	59756.22
558.15	59681.32
558.32	59608.76
558.48	59622.81
558.65	59884.95
558.81	59758.56
558.98	59700.04
559.14	59796.01
559.31	59728.13
559.47	59770.26
559.64	60018.36
559.80	59943.46
559.97	60018.36
560.13	59840.48
560.30	59884.95
560.46	60095.60
560.63	60133.04
560.79	60037.08
560.96	60233.69
561.12	60147.09
561.29	60081.55
561.45	60011.34
561.61	60271.14
561.78	60193.90
561.94	60053.47
562.11	59915.37
562.27	60044.10
562.44	60041.76
562.60	60165.81
562.77	60346.03
562.93	59955.16
563.10	60308.58
563.26	60207.94
563.42	60392.84
563.59	60069.85
563.75	60044.10
563.92	60310.92
564.08	60189.22
564.24	60390.50
564.41	60280.50
564.57	60331.99
564.74	60339.01
564.90	60252.41
565.07	60308.58
565.23	60397.52
565.39	60544.98
565.56	60514.55
565.72	60383.48
565.88	60451.36
566.05	60264.11
566.21	60292.20
566.38	60591.79
566.54	60619.88
566.70	60645.62
566.87	60732.22
567.03	60411.57
567.19	60638.60
567.36	60575.40
567.52	60512.21
567.68	60786.05
567.85	60772.01
568.01	60867.97
568.17	60392.84
568.34	60643.28
568.50	60573.06
568.66	60488.80
568.83	60659.66
568.99	60509.87
569.15	60427.95
569.32	60596.47
569.48	60650.30
569.64	60692.43
569.81	60865.63
569.97	60528.59
570.13	60743.92
570.30	60706.47
570.46	60722.86
570.62	60879.67
570.78	60830.52
570.95	60786.05
571.11	60851.59
571.27	60797.76
571.43	60741.58
571.60	60814.14
571.76	60781.37
571.92	60865.63
572.09	60804.78
572.25	60919.46
572.41	60673.71
572.57	60830.52
572.74	60961.59
572.90	60762.65
573.06	60893.72
573.22	60889.04
573.38	60893.72
573.55	60870.31
573.71	61179.26
573.87	60851.59
574.03	60823.50
574.20	60882.02
574.36	60615.19
574.52	60921.80
574.68	60942.87
574.84	60928.83
575.01	61029.47
575.17	61123.09
575.33	60987.34
575.49	60764.99
575.65	60963.93
575.82	61073.94
575.98	61186.28
576.14	61020.11
576.30	60849.25
576.46	60853.93
576.62	61024.79
576.79	60996.70
576.95	60828.18
577.11	61048.19
577.27	61151.18
577.43	60949.89
577.59	60996.70
577.75	61008.40
577.92	60793.07
578.08	61160.54
578.24	61087.98
578.40	61071.60
578.56	61293.95
578.72	61146.50
578.88	61216.71
579.04	61399.27
579.21	61130.11
579.37	61305.65
579.53	61226.07
579.69	60992.02
579.85	60788.39
580.01	61324.38
580.17	61186.28
580.33	61179.26
580.49	61300.97
580.65	61090.32
580.82	61022.45
580.98	61041.17
581.14	60985.00
581.30	61263.52
581.46	61113.73
581.62	61034.15
581.78	61118.41
581.94	60933.51
582.10	61087.98
582.26	61130.11
582.42	61258.84
582.58	61158.20
582.74	61176.92
582.90	61249.48
583.06	61092.66
583.22	61151.18
583.38	61139.47
583.54	61425.02
583.70	61188.63
583.86	61190.97
584.02	61036.49
584.18	61539.71
584.34	61230.75
584.50	61230.75
584.66	61169.90
584.82	60867.97
584.98	61539.71
585.14	61333.74
585.30	61179.26
585.46	61242.46
585.62	61116.07
585.78	61408.64
585.94	61022.45
586.10	61315.01
586.26	61249.48
586.42	61455.45
586.58	61371.19
586.74	61186.28
586.90	61205.01
587.06	61186.28
587.22	61212.03
587.38	61329.06
587.54	61488.21
587.70	61364.17
587.86	61279.91
588.02	61298.63
588.18	61537.36
588.34	61249.48
588.49	61315.01
