SpectraSuite Data File
++++++++++++++++++++++++++++++++++++
Date: Fri Oct 25 11:26:30 EDT 2013
User: price-jones
Dark Spectrum Present: No
Reference Spectrum Present: No
Number of Sampled Component Spectra: 1
Spectrometers: USB2+H05261
Integration Time (usec): 100000 (USB2+H05261)
Spectra Averaged: 1 (USB2+H05261)
Boxcar Smoothing: 0 (USB2+H05261)
Correct for Electrical Dark: No (USB2+H05261)
Strobe/Lamp Enabled: No (USB2+H05261)
Correct for Detector Non-linearity: No (USB2+H05261)
Correct for Stray Light: No (USB2+H05261)
Number of Pixels in Processed Spectrum: 2048
>>>>>Begin Processed Spectral Data<<<<<
365.73	198.95
365.92	198.95
366.12	198.95
366.32	142.77
366.52	177.88
366.72	177.88
366.91	208.31
367.11	196.60
367.31	114.69
367.51	140.43
367.70	152.13
367.90	121.71
368.10	184.90
368.30	173.20
368.49	161.50
368.69	156.82
368.89	98.30
369.09	224.69
369.28	224.69
369.48	156.82
369.68	173.20
369.87	212.99
370.07	168.52
370.27	255.12
370.47	311.29
370.66	535.98
370.86	622.58
371.06	664.71
371.25	713.86
371.45	589.82
371.65	676.41
371.84	671.73
372.04	674.07
372.24	772.38
372.44	793.44
372.63	727.91
372.83	631.94
373.03	655.35
373.22	748.97
373.42	734.93
373.62	814.51
373.81	781.74
374.01	772.38
374.21	807.48
374.40	791.10
374.60	887.06
374.79	781.74
374.99	896.43
375.19	791.10
375.38	908.13
375.58	802.80
375.78	889.40
375.97	849.61
376.17	877.70
376.37	854.30
376.56	858.98
376.76	908.13
376.95	828.55
377.15	903.45
377.35	931.53
377.54	912.81
377.74	940.90
377.93	875.36
378.13	943.24
378.33	891.74
378.52	821.53
378.72	929.19
378.91	1025.15
379.11	901.11
379.31	978.34
379.50	926.85
379.70	1064.94
379.89	990.05
380.09	971.32
380.28	945.58
380.48	1013.45
380.68	994.73
380.87	940.90
381.07	992.39
381.26	966.64
381.46	1078.99
381.65	938.55
381.85	959.62
382.04	1064.94
382.24	1156.22
382.43	987.71
382.63	994.73
382.83	1083.67
383.02	1177.29
383.22	1137.50
383.41	1153.88
383.61	1137.50
383.80	1153.88
384.00	1102.39
384.19	1181.97
384.39	1200.69
384.58	1224.10
384.78	1146.86
384.97	1156.22
385.17	1074.31
385.36	1240.48
385.56	1177.29
385.75	1130.48
385.95	1233.46
386.14	1163.25
386.34	1259.21
386.53	1249.85
386.72	1231.12
386.92	1156.22
387.11	1188.99
387.31	1247.51
387.50	1188.99
387.70	1280.27
387.89	1249.85
388.09	1207.72
388.28	1256.87
388.48	1266.23
388.67	1291.98
388.86	1252.19
389.06	1296.66
389.25	1366.87
389.45	1327.08
389.64	1308.36
389.84	1369.21
390.03	1425.39
390.22	1416.02
390.42	1404.32
390.61	1350.49
390.81	1425.39
391.00	1451.13
391.19	1409.00
391.39	1430.07
391.58	1369.21
391.78	1472.20
391.97	1472.20
392.16	1465.18
392.36	1596.25
392.55	1500.28
392.75	1521.35
392.94	1638.38
393.13	1535.39
393.33	1554.12
393.52	1579.86
393.71	1530.71
393.91	1500.28
394.10	1530.71
394.29	1600.93
394.49	1626.67
394.68	1629.01
394.88	1579.86
395.07	1732.00
395.26	1647.74
395.46	1666.46
395.65	1682.85
395.84	1703.91
396.04	1849.02
396.23	1699.23
396.42	1666.46
396.62	1771.79
396.81	1732.00
397.00	1778.81
397.19	1776.47
397.39	1727.32
397.58	1811.57
397.77	1748.38
397.97	1888.81
398.16	1809.23
398.35	1865.41
398.55	1919.24
398.74	1921.58
398.93	1933.28
399.12	1923.92
399.32	1877.11
399.51	1940.30
399.70	2003.50
399.90	1872.43
400.09	2132.23
400.28	2005.84
400.47	2064.35
400.67	2069.03
400.86	2012.86
401.05	2083.08
401.24	2015.20
401.44	2122.87
401.63	2172.02
401.82	2153.29
402.01	1970.73
402.21	2122.87
402.40	2155.63
402.59	2143.93
402.78	2204.78
402.97	2242.23
403.17	2282.02
403.36	2333.51
403.55	2305.43
403.74	2298.41
403.93	2375.64
404.13	2359.26
404.32	2228.19
404.51	2356.92
404.70	2518.42
404.89	2385.01
405.09	2445.86
405.28	2307.77
405.47	2413.09
405.66	2518.42
405.85	2576.93
406.05	2478.63
406.24	2464.58
406.43	2534.80
406.62	2729.06
406.81	2661.19
407.00	2630.76
407.20	2525.44
407.39	2544.16
407.58	2724.38
407.77	2738.43
407.96	2815.66
408.15	2775.88
408.34	2780.56
408.54	2700.98
408.73	2715.02
408.92	2803.96
409.11	2899.92
409.30	2892.90
409.49	2818.00
409.68	2930.35
409.87	2913.97
410.07	3098.87
410.26	3038.02
410.45	2946.73
410.64	2974.82
410.83	3000.57
411.02	3038.02
411.21	3075.46
411.40	3152.70
411.59	3262.71
411.78	3054.40
411.98	3243.98
412.17	3302.50
412.36	3272.07
412.55	3356.33
412.74	3424.20
412.93	3379.73
413.12	3449.95
413.31	3517.83
413.50	3412.50
413.69	3545.91
413.88	3506.12
414.07	3641.87
414.26	3583.36
414.45	3726.13
414.64	3559.95
414.83	3791.67
415.02	3730.81
415.22	3850.18
415.41	3693.37
415.60	3714.43
415.79	3838.48
415.98	3901.67
416.17	4053.81
416.36	3803.37
416.55	3859.54
416.74	3953.16
416.93	3990.61
417.12	4028.06
417.31	4114.66
417.50	4154.45
417.69	4325.31
417.88	4219.99
418.07	4205.94
418.26	4161.47
418.45	4224.67
418.64	4386.16
418.83	4393.19
419.02	4372.12
419.21	4451.70
419.39	4442.34
419.58	4376.80
419.77	4388.50
419.96	4615.54
420.15	4397.87
420.34	4575.75
420.53	4683.41
420.72	4643.62
420.91	4706.82
421.10	4767.67
421.29	4716.18
421.48	4660.01
421.67	4608.51
421.86	4718.52
422.05	4814.48
422.24	4641.28
422.43	4816.82
422.61	4753.63
422.80	4952.57
422.99	4929.17
423.18	5011.09
423.37	4901.08
423.56	5011.09
423.75	4917.47
423.94	4819.16
424.13	4442.34
424.32	4725.54
424.50	5060.24
424.69	4971.30
424.88	5097.69
425.07	4802.78
425.26	4978.32
425.45	4896.40
425.64	4929.17
425.83	4947.89
426.01	5046.20
426.20	4917.47
426.39	5093.01
426.58	4887.04
426.77	5163.22
426.96	5078.96
427.15	5144.50
427.33	5135.14
427.52	5132.79
427.71	5289.61
427.90	5210.03
428.09	5137.48
428.28	5352.81
428.46	5226.42
428.65	5338.76
428.84	5427.70
429.03	5291.95
429.22	5305.99
429.40	5401.96
429.59	5460.47
429.78	5261.52
429.97	5121.09
430.16	5406.64
430.34	5619.63
430.53	5659.42
430.72	5600.90
430.91	5523.66
431.10	5685.16
431.28	5731.97
431.47	5802.19
431.66	5865.38
431.85	5750.70
432.03	5820.91
432.22	5944.96
432.41	5830.27
432.60	5858.36
432.79	5874.74
432.97	6019.86
433.16	6059.65
433.35	5956.66
433.54	6125.18
433.72	6033.90
433.91	6181.35
434.10	6155.61
434.28	6160.29
434.47	6179.01
434.66	6115.82
434.85	6370.94
435.03	6284.34
435.22	6232.85
435.41	6356.90
435.59	6368.60
435.78	6413.07
435.97	6473.92
436.16	6272.64
436.34	6417.75
436.53	6677.55
436.72	6679.89
436.90	6370.94
437.09	6567.54
437.28	6457.54
437.46	6497.33
437.65	6502.01
437.84	6686.91
438.02	6614.35
438.21	6696.27
438.40	6509.03
438.58	6892.88
438.77	7192.47
438.96	6916.28
439.14	7075.44
439.33	6965.43
439.52	7157.36
439.70	7131.61
439.89	7201.83
440.08	7166.72
440.26	7316.51
440.45	7272.04
440.63	7433.54
440.82	7611.42
441.01	7492.05
441.19	7728.45
441.38	7667.60
441.57	7691.00
441.75	7641.85
441.94	8044.42
442.12	7857.18
442.31	7988.25
442.50	7840.79
442.68	8023.36
442.87	7988.25
443.05	8196.56
443.24	8215.28
443.43	8149.75
443.61	8051.44
443.80	8407.20
443.98	7882.92
444.17	7939.10
444.35	7906.33
444.54	8271.45
444.73	8315.92
444.91	8365.07
445.10	8241.03
445.28	8393.16
445.47	8198.90
445.65	8402.52
445.84	8360.39
446.02	8299.54
446.21	8292.52
446.39	8255.07
446.58	8507.85
446.77	8547.64
446.95	8175.49
447.14	8241.03
447.32	8624.87
447.51	8439.97
447.69	8468.06
447.88	8379.12
448.06	8264.43
448.25	8505.51
448.43	8634.24
448.62	8397.84
448.80	8390.82
448.99	8610.83
449.17	8704.45
449.36	8395.50
449.54	8617.85
449.73	8973.61
449.91	8987.66
450.10	8884.67
450.28	9142.13
450.46	8929.14
450.65	8755.94
450.83	9135.11
451.02	9025.11
451.20	9074.26
451.39	9188.94
451.57	8898.72
451.76	8940.85
451.94	9081.28
452.13	9458.10
452.31	9111.71
452.49	9160.86
452.68	9390.23
452.86	9102.34
453.05	9434.70
453.23	9427.68
453.42	9256.82
453.60	9259.16
453.78	9483.85
453.97	9214.69
454.15	9448.74
454.34	9411.29
454.52	9411.29
454.70	9762.37
454.89	9748.33
455.07	9863.02
455.26	9860.68
455.44	9940.26
455.62	9738.97
455.81	9877.06
455.99	9928.55
456.17	10073.67
456.36	9951.96
456.54	10031.54
456.73	10160.27
456.91	10359.21
457.09	10586.24
457.28	10361.55
457.46	10115.80
457.64	10427.09
457.83	10478.58
458.01	10291.34
458.19	10537.09
458.38	10401.34
458.56	10501.98
458.74	10504.32
458.93	10829.66
459.11	10626.03
459.29	10794.55
459.48	10806.25
459.66	10614.33
459.84	10729.02
460.03	10960.73
460.21	10883.49
460.39	11197.12
460.57	11091.80
460.76	11220.53
460.94	11028.60
461.12	10960.73
461.31	11250.96
461.49	11290.74
461.67	10930.30
461.85	11358.62
462.04	11157.33
462.22	11658.21
462.40	11716.72
462.59	11499.05
462.77	11433.52
462.95	11391.39
463.13	11538.84
463.32	11583.31
463.50	11662.89
463.68	11730.76
463.86	11889.92
464.05	11789.28
464.23	11793.96
464.41	11674.59
464.59	11555.22
464.78	12025.67
464.96	12189.51
465.14	11742.47
465.32	12046.74
465.50	12028.01
465.69	12035.03
465.87	12173.13
466.05	12119.29
466.23	11992.90
466.41	11997.59
466.60	12477.40
466.78	11971.84
466.96	11971.84
467.14	12156.74
467.32	12301.86
467.51	12606.13
467.69	11922.69
467.87	12554.63
468.05	12650.60
468.23	12264.41
468.41	12311.22
468.60	12486.76
468.78	12601.44
468.96	12435.27
469.14	12912.74
469.32	12999.34
469.50	12505.48
469.69	12835.50
469.87	13074.23
470.05	12858.90
470.23	13219.35
470.41	12891.67
470.59	13394.89
470.77	13221.69
470.95	13315.31
471.14	13303.60
471.32	13116.36
471.50	13481.49
471.68	13345.73
471.86	13516.59
472.04	13427.65
472.22	14090.02
472.40	13685.11
472.58	14108.75
472.77	13898.10
472.95	14178.97
473.13	14354.51
473.31	14075.98
473.49	13788.10
473.67	13944.91
473.85	14085.34
474.03	14424.72
474.21	14441.11
474.39	14464.51
474.57	14555.79
474.75	14787.50
474.93	14846.02
475.12	14843.68
475.30	15164.33
475.48	14834.32
475.66	15143.27
475.84	14956.02
476.02	14979.43
476.20	15396.04
476.38	15377.32
476.56	15840.75
476.74	15569.24
476.92	15747.12
477.10	15449.88
477.28	16177.78
477.46	16079.48
477.64	16358.00
477.82	16372.05
478.00	17160.81
478.18	16809.73
478.36	16753.55
478.54	17118.68
478.72	17273.15
478.90	17256.77
479.08	17277.83
479.26	17600.83
479.44	17544.66
479.62	17757.64
479.80	18071.28
479.98	18132.13
480.16	18452.78
480.34	18232.77
480.52	18490.23
480.70	18347.46
480.88	18185.96
481.06	18644.71
481.24	18806.20
481.41	18923.23
481.59	19168.99
481.77	19145.58
481.95	19424.11
482.13	19852.42
482.31	19639.44
482.49	20395.43
482.67	20100.52
482.85	19969.45
483.03	20432.88
483.21	20542.88
483.39	21001.63
483.57	20449.26
483.74	21043.76
483.92	21146.74
484.10	21029.71
484.28	21699.11
484.46	21975.29
484.64	21970.61
484.82	21720.17
485.00	22197.64
485.18	22656.39
485.35	22583.83
485.53	22642.34
485.71	23054.28
485.89	23374.93
486.07	23124.49
486.25	23487.28
486.43	23353.87
486.61	23723.67
486.78	23854.74
486.96	24210.50
487.14	24299.44
487.32	24460.94
487.50	24613.07
487.68	24844.79
487.85	25177.14
488.03	25413.54
488.21	25619.50
488.39	25713.13
488.57	25783.34
488.75	26125.06
488.92	26174.21
489.10	26668.06
489.28	26431.67
489.46	26862.33
489.64	26691.47
489.81	27641.73
489.99	27578.53
490.17	27377.25
490.35	28011.53
490.53	28051.32
490.70	28243.24
490.88	28032.60
491.06	28563.90
491.24	28437.51
491.41	28664.54
491.59	29039.03
491.77	29209.89
491.95	29041.37
492.13	29788.00
492.30	29886.30
492.48	29579.69
492.66	29677.99
492.84	30326.32
493.01	30375.47
493.19	30265.47
493.37	30717.19
493.54	30822.51
493.72	31356.16
493.90	31335.09
494.08	31639.36
494.25	31948.31
494.43	31489.57
494.61	32081.72
494.79	31974.06
494.96	32119.17
495.14	32297.05
495.32	32957.08
495.49	32793.25
495.67	32971.13
495.85	33240.29
496.02	33113.90
496.20	33703.71
496.38	33738.82
496.55	33692.01
496.73	34508.86
496.91	34288.85
497.09	34742.91
497.26	34525.24
497.44	34199.91
497.62	35075.27
497.79	35400.60
497.97	35110.38
498.14	35681.47
498.32	35721.26
498.50	36081.70
498.67	36215.11
498.85	36535.76
499.03	36229.15
499.20	36549.81
499.38	36598.96
499.56	36456.18
499.73	37001.53
499.91	36938.33
500.08	37333.89
500.26	37167.71
500.44	37427.51
500.61	37516.45
500.79	37673.26
500.97	37752.84
501.14	38583.73
501.32	38527.56
501.49	38132.01
501.67	38401.17
501.84	38733.53
502.02	38550.96
502.20	38562.67
502.37	39124.40
502.55	39145.46
502.72	38920.77
502.90	39068.22
503.07	39358.45
503.25	39543.35
503.43	39152.48
503.60	39636.97
503.78	39601.86
503.95	40023.16
504.13	40016.14
504.30	40465.52
504.48	40294.66
504.65	40739.36
504.83	40559.14
505.01	41118.53
505.18	41155.98
505.36	41223.86
505.53	41123.21
505.71	41432.16
505.88	41322.16
506.06	41413.44
506.23	41858.14
506.41	41703.67
506.58	41628.77
506.76	41544.51
506.93	42410.51
507.11	41862.82
507.28	42249.01
507.46	42253.69
507.63	42796.70
507.81	42691.37
507.98	42829.46
508.16	42033.68
508.33	43395.87
508.50	43421.62
508.68	43655.67
508.85	43517.58
509.03	43283.53
509.20	42981.60
509.38	43753.97
509.55	44273.57
509.73	44304.00
509.90	44067.61
510.08	44535.71
510.25	44257.19
510.42	44395.28
510.60	44498.26
510.77	45223.83
510.95	45092.76
511.12	44589.55
511.30	45408.73
511.47	45165.32
511.64	44996.80
511.82	45572.57
511.99	45315.11
512.17	45455.54
512.34	45762.15
512.51	45954.08
512.69	46101.53
512.86	46375.37
513.04	46408.14
513.21	46258.35
513.38	46192.81
513.56	46934.76
513.73	46539.21
513.90	46883.27
514.08	46593.04
514.25	46625.81
514.43	46714.75
514.60	47054.13
514.77	46939.44
514.95	47592.45
515.12	47494.15
515.29	47126.69
515.47	47496.49
515.64	47985.66
515.81	47257.76
515.99	47583.09
516.16	48032.47
516.33	47697.78
516.51	48437.39
516.68	48130.78
516.85	48341.42
517.03	48474.84
517.20	48575.48
517.37	48526.33
517.54	48493.56
517.72	48315.68
517.89	48631.65
518.06	48893.79
518.24	48825.92
518.41	48671.44
518.58	48896.13
518.75	48940.60
518.93	49345.51
519.10	49308.07
519.27	49834.69
519.45	49523.40
519.62	49324.45
519.79	49497.65
519.96	49879.16
520.14	49900.22
520.31	49682.55
520.48	50071.08
520.65	50092.15
520.83	50019.59
521.00	50190.45
521.17	50473.65
521.34	50314.50
521.52	50429.18
521.69	50728.77
521.86	50885.59
522.03	51100.92
522.20	51239.01
522.38	51194.54
522.55	51014.32
522.72	50951.12
522.89	51112.62
523.07	51215.60
523.24	51269.43
523.41	51391.14
523.58	50948.78
523.75	51522.21
523.92	51599.45
524.10	51470.72
524.27	51957.55
524.44	51770.31
524.61	51494.13
524.78	52037.13
524.96	51885.00
525.13	52397.57
525.30	52058.20
525.47	52238.42
525.64	51936.49
525.81	52397.57
525.98	52470.13
526.16	52147.14
526.33	52353.10
526.50	52851.64
526.67	52725.25
526.84	52772.06
527.01	52566.09
527.18	52706.52
527.36	52575.45
527.53	52739.29
527.70	53106.76
527.87	53109.10
528.04	52938.24
528.21	53195.70
528.38	53221.44
528.55	53207.40
528.72	53052.92
528.89	53200.38
529.07	53183.99
529.24	53048.24
529.41	53207.40
529.58	53598.27
529.75	53315.06
529.92	53595.93
530.09	53469.54
530.26	53305.70
530.43	53944.67
530.60	53448.47
530.77	53670.82
530.94	53841.68
531.11	53609.97
531.28	53858.07
531.46	54272.34
531.63	53947.01
531.80	54005.52
531.97	54302.77
532.14	54176.38
532.31	54106.16
532.48	54274.68
532.65	54333.20
532.82	54309.79
532.99	54438.52
533.16	54314.47
533.33	54487.67
533.50	54681.94
533.67	54803.64
533.84	54375.33
534.01	54377.67
534.18	54677.25
534.35	55044.72
534.52	55007.27
534.69	55192.17
534.86	54979.18
535.03	54775.56
535.20	54997.91
535.37	54951.10
535.54	55098.55
535.71	55009.61
535.88	55182.81
536.05	55238.98
536.22	55260.05
536.38	55018.97
536.55	55250.69
536.72	55332.60
536.89	55547.93
537.06	55241.32
537.23	55498.78
537.40	55208.56
537.57	55414.52
537.74	55629.85
537.91	55718.79
538.08	55618.15
538.25	55447.29
538.42	55655.60
538.59	56025.40
538.75	55812.41
538.92	56011.36
539.09	56006.68
539.26	55744.54
539.43	55833.48
539.60	55913.06
539.77	56128.39
539.94	56362.44
540.11	56079.24
540.28	56254.78
540.44	56189.24
540.61	55955.19
540.78	56107.32
540.95	56289.88
541.12	56093.28
541.29	56191.58
541.46	56236.05
541.62	56266.48
541.79	56640.96
541.96	56207.97
542.13	56142.43
542.30	56484.15
542.47	56839.91
542.63	56872.68
542.80	56671.39
542.97	56907.79
543.14	56954.60
543.31	56842.25
543.48	57041.20
543.64	57425.04
543.81	57308.02
543.98	57214.40
544.15	57118.43
544.32	57146.52
544.48	57284.61
544.65	57254.18
544.82	57085.67
544.99	56844.59
545.16	57116.09
545.32	56968.64
545.49	57696.55
545.66	57595.90
545.83	57460.15
546.00	57668.46
546.16	57324.40
546.33	57521.01
546.50	57448.45
546.67	57382.91
546.83	57144.18
547.00	57574.84
547.17	57467.17
547.34	57462.49
547.50	57647.39
547.67	57759.74
547.84	57673.14
548.00	57958.69
548.17	58000.82
548.34	58141.25
548.51	57958.69
548.67	58103.80
548.84	58073.37
549.01	57743.36
549.18	57776.12
549.34	58141.25
549.51	58078.05
549.68	58394.03
549.84	57998.48
550.01	58150.61
550.18	58113.16
550.34	58225.51
550.51	58183.38
550.68	58248.91
550.84	57790.17
551.01	58478.28
551.18	58120.18
551.34	58277.00
551.51	58337.85
551.68	58316.79
551.84	58335.51
552.01	58342.53
552.18	58424.45
552.34	58307.43
552.51	58429.13
552.68	58174.02
552.84	58642.12
553.01	58817.66
553.18	58637.44
553.34	58719.36
553.51	58607.01
553.67	58660.85
553.84	58740.42
554.01	58794.26
554.17	58663.19
554.34	58953.41
554.51	59032.99
554.67	58777.87
554.84	58930.01
555.00	58794.26
555.17	58782.55
555.33	58820.00
555.50	58717.02
555.67	58843.41
555.83	58869.15
556.00	58951.07
556.16	59196.83
556.33	59159.38
556.50	59056.40
556.66	59056.40
556.83	58941.71
556.99	59351.30
557.16	59327.90
557.32	59384.07
557.49	59501.10
557.65	59068.10
557.82	59147.68
557.98	59363.01
558.15	59248.32
558.32	59339.60
558.48	59227.26
558.65	59344.28
558.81	59470.67
558.98	59564.29
559.14	59426.20
559.31	59533.87
559.47	59435.56
559.64	59557.27
559.80	59662.60
559.97	59531.53
560.13	59360.67
560.30	59468.33
560.46	59564.29
560.63	59451.95
560.79	59597.06
560.96	59721.11
561.12	59721.11
561.29	59702.38
561.45	59711.75
561.61	59597.06
561.78	59716.43
561.94	59501.10
562.11	59590.04
562.27	59803.03
562.44	59891.97
562.60	59849.84
562.77	59814.73
562.93	59648.55
563.10	59955.16
563.26	59601.74
563.42	59856.86
563.59	59620.47
563.75	59831.11
563.92	59650.89
564.08	59915.37
564.24	59868.56
564.41	60020.70
564.57	59826.43
564.74	59765.58
564.90	59859.20
565.07	60074.53
565.23	59779.62
565.39	59690.68
565.56	59936.44
565.72	59861.54
565.88	60165.81
566.05	60076.87
566.21	60053.47
566.38	60034.74
566.54	60121.34
566.70	60273.48
566.87	60126.02
567.03	59852.18
567.19	60346.03
567.36	60090.91
567.52	60074.53
567.68	60427.95
567.85	60207.94
568.01	60104.96
568.17	60102.62
568.34	60308.58
568.50	60247.73
568.66	60280.50
568.83	60268.79
568.99	60261.77
569.15	60205.60
569.32	60041.76
569.48	60154.11
569.64	60399.86
569.81	60224.32
569.97	60179.85
570.13	60189.22
570.30	60149.43
570.46	60219.64
570.62	60207.94
570.78	60093.25
570.95	60266.45
571.11	60493.49
571.27	60336.67
571.43	60362.42
571.60	60357.74
571.76	60420.93
571.92	60350.71
572.09	60495.83
572.25	60336.67
572.41	60502.85
572.57	60294.54
572.74	60507.53
572.90	60371.78
573.06	60430.29
573.22	60371.78
573.38	60566.04
573.55	60392.84
573.71	60690.09
573.87	60554.34
574.03	60474.76
574.20	60701.79
574.36	60474.76
574.52	60552.00
574.68	60633.92
574.84	60533.28
575.01	60488.80
575.17	60336.67
575.33	60467.74
575.49	60331.99
575.65	60432.63
575.82	60739.24
575.98	60683.07
576.14	60842.23
576.30	60650.30
576.46	60552.00
576.62	60516.89
576.79	60561.36
576.95	60350.71
577.11	60643.28
577.27	60640.94
577.43	60659.66
577.59	60687.75
577.75	60699.45
577.92	60446.68
578.08	60591.79
578.24	60713.50
578.40	60697.11
578.56	60704.13
578.72	60727.54
578.88	60823.50
579.04	60772.01
579.21	60776.69
579.37	60774.35
579.53	60685.41
579.69	60472.42
579.85	60575.40
580.01	60676.05
580.17	60399.86
580.33	60764.99
580.49	60762.65
580.65	60802.44
580.82	60762.65
580.98	60804.78
581.14	60757.97
581.30	60900.74
581.46	60734.56
581.62	60788.39
581.78	60673.71
581.94	60654.98
582.10	60755.63
582.26	60570.72
582.42	60662.00
582.58	60729.88
582.74	60685.41
582.90	60863.29
583.06	60760.31
583.22	60722.86
583.38	60727.54
583.54	60790.73
583.70	60729.88
583.86	60772.01
584.02	60769.67
584.18	60931.17
584.34	61022.45
584.50	60907.76
584.66	60729.88
584.82	60460.72
584.98	60973.30
585.14	60823.50
585.30	60767.33
585.46	60849.25
585.62	60940.53
585.78	60999.04
585.94	60652.64
586.10	60949.89
586.26	60963.93
586.42	60945.21
586.58	61078.62
586.74	60729.88
586.90	60954.57
587.06	60811.80
587.22	61141.81
587.38	60757.97
587.54	60874.99
587.70	60867.97
587.86	61024.79
588.02	60982.66
588.18	60966.27
588.34	61038.83
588.49	60940.53
