SpectraSuite Data File
++++++++++++++++++++++++++++++++++++
Date: Fri Oct 25 11:26:22 EDT 2013
User: price-jones
Dark Spectrum Present: No
Reference Spectrum Present: No
Number of Sampled Component Spectra: 1
Spectrometers: USB2+H05261
Integration Time (usec): 100000 (USB2+H05261)
Spectra Averaged: 1 (USB2+H05261)
Boxcar Smoothing: 0 (USB2+H05261)
Correct for Electrical Dark: No (USB2+H05261)
Strobe/Lamp Enabled: No (USB2+H05261)
Correct for Detector Non-linearity: No (USB2+H05261)
Correct for Stray Light: No (USB2+H05261)
Number of Pixels in Processed Spectrum: 2048
>>>>>Begin Processed Spectral Data<<<<<
365.73	234.05
365.92	234.05
366.12	234.05
366.32	145.11
366.52	124.05
366.72	177.88
366.91	177.88
367.11	135.75
367.31	51.49
367.51	124.05
367.70	110.01
367.90	114.69
368.10	39.79
368.30	159.16
368.49	184.90
368.69	205.97
368.89	196.60
369.09	168.52
369.28	128.73
369.48	220.01
369.68	175.54
369.87	201.29
370.07	152.13
370.27	194.26
370.47	297.25
370.66	547.69
370.86	603.86
371.06	662.37
371.25	685.78
371.45	713.86
371.65	706.84
371.84	678.76
372.04	669.39
372.24	692.80
372.44	755.99
372.63	765.36
372.83	779.40
373.03	734.93
373.22	734.93
373.42	695.14
373.62	812.17
373.81	828.55
374.01	786.42
374.21	816.85
374.40	847.27
374.60	931.53
374.79	779.40
374.99	837.91
375.19	779.40
375.38	873.02
375.58	821.53
375.78	847.27
375.97	901.11
376.17	889.40
376.37	875.36
376.56	877.70
376.76	875.36
376.95	851.96
377.15	840.25
377.35	868.34
377.54	908.13
377.74	936.21
377.93	880.04
378.13	919.83
378.33	931.53
378.52	861.32
378.72	997.07
378.91	964.30
379.11	905.79
379.31	926.85
379.50	945.58
379.70	898.77
379.89	1020.47
380.09	903.45
380.28	987.71
380.48	976.00
380.68	1034.52
380.87	908.13
381.07	926.85
381.26	1060.26
381.46	987.71
381.65	1078.99
381.85	1076.65
382.04	1020.47
382.24	1067.28
382.43	1062.60
382.63	1055.58
382.83	1064.94
383.02	1132.82
383.22	1130.48
383.41	1062.60
383.61	1086.01
383.80	1163.25
384.00	1177.29
384.19	1149.20
384.39	1184.31
384.58	1242.82
384.78	1144.52
384.97	1135.16
385.17	1139.84
385.36	1207.72
385.56	1205.38
385.75	1214.74
385.95	1207.72
386.14	1249.85
386.34	1198.35
386.53	1193.67
386.72	1165.59
386.92	1219.42
387.11	1221.76
387.31	1198.35
387.50	1240.48
387.70	1238.14
387.89	1214.74
388.09	1284.95
388.28	1364.53
388.48	1334.11
388.67	1275.59
388.86	1245.16
389.06	1317.72
389.25	1322.40
389.45	1364.53
389.64	1376.24
389.84	1385.60
390.03	1392.62
390.22	1420.71
390.42	1315.38
390.61	1376.24
390.81	1409.00
391.00	1462.83
391.19	1540.07
391.39	1446.45
391.58	1432.41
391.78	1476.88
391.97	1432.41
392.16	1542.41
392.36	1509.65
392.55	1474.54
392.75	1547.09
392.94	1511.99
393.13	1544.75
393.33	1509.65
393.52	1495.60
393.71	1582.20
393.91	1568.16
394.10	1542.41
394.29	1631.35
394.49	1696.89
394.68	1621.99
394.88	1668.80
395.07	1619.65
395.26	1746.04
395.46	1701.57
395.65	1657.10
395.84	1753.06
396.04	1774.13
396.23	1781.15
396.42	1806.89
396.62	1795.19
396.81	1753.06
397.00	1762.42
397.19	1842.00
397.39	1778.81
397.58	1935.62
397.77	1767.10
397.97	1827.96
398.16	1804.55
398.35	1820.94
398.55	1898.17
398.74	1949.67
398.93	1973.07
399.12	1886.47
399.32	1954.35
399.51	1987.11
399.70	2012.86
399.90	1935.62
400.09	2069.03
400.28	2113.50
400.47	2062.01
400.67	2094.78
400.86	2022.22
401.05	2003.50
401.24	2155.63
401.44	2094.78
401.63	2211.81
401.82	2139.25
402.01	2188.40
402.21	2197.76
402.40	2216.49
402.59	2148.61
402.78	2202.44
402.97	2289.04
403.17	2270.32
403.36	2150.95
403.55	2319.47
403.74	2438.84
403.93	2422.45
404.13	2394.37
404.32	2385.01
404.51	2312.45
404.70	2410.75
404.89	2314.79
405.09	2417.77
405.28	2427.14
405.47	2502.03
405.66	2511.39
405.85	2558.21
406.05	2464.58
406.24	2485.65
406.43	2523.10
406.62	2520.76
406.81	2693.96
407.00	2487.99
407.20	2492.67
407.39	2705.66
407.58	2600.34
407.77	2647.15
407.96	2614.38
408.15	2736.09
408.34	2693.96
408.54	2803.96
408.73	2708.00
408.92	2780.56
409.11	2937.37
409.30	2869.50
409.49	2958.44
409.68	2930.35
409.87	2935.03
410.07	2946.73
410.26	3030.99
410.45	2953.76
410.64	3016.95
410.83	3052.06
411.02	3026.31
411.21	3148.02
411.40	3077.80
411.59	3234.62
411.78	3131.64
411.98	3229.94
412.17	3260.37
412.36	3215.90
412.55	3368.03
412.74	3421.86
412.93	3377.39
413.12	3314.20
413.31	3435.91
413.50	3445.27
413.69	3480.38
413.88	3473.36
414.07	3581.02
414.26	3536.55
414.45	3590.38
414.64	3623.15
414.83	3630.17
415.02	3770.60
415.22	3843.16
415.41	3824.44
415.60	3887.63
415.79	3808.05
415.98	4032.74
416.17	3885.29
416.36	3974.23
416.55	4067.85
416.74	4072.53
416.93	3995.29
417.12	4095.94
417.31	4109.98
417.50	4154.45
417.69	4170.83
417.88	4290.20
418.07	4327.65
418.26	4236.37
418.45	4379.14
418.64	4472.76
418.83	4376.80
419.02	4463.40
419.21	4367.44
419.39	4519.57
419.58	4435.32
419.77	4440.00
419.96	4554.68
420.15	4720.86
420.34	4512.55
420.53	4617.88
420.72	4599.15
420.91	4634.26
421.10	4802.78
421.29	4709.16
421.48	4589.79
421.67	4753.63
421.86	4858.95
422.05	4915.12
422.24	4730.22
422.43	4816.82
422.61	4737.24
422.80	4856.61
422.99	4968.96
423.18	4823.84
423.37	4997.04
423.56	4882.36
423.75	4788.74
423.94	4795.76
424.13	4430.63
424.32	4734.90
424.50	4954.91
424.69	5025.13
424.88	5100.03
425.07	4905.76
425.26	4910.44
425.45	4994.70
425.64	4762.99
425.83	4933.85
426.01	5064.92
426.20	4978.32
426.39	5008.75
426.58	4978.32
426.77	5088.32
426.96	5067.26
427.15	5156.20
427.33	5193.65
427.52	5107.05
427.71	5172.58
427.90	5102.37
428.09	5205.35
428.28	5268.55
428.46	5289.61
428.65	5102.37
428.84	5537.71
429.03	5509.62
429.22	5383.23
429.40	5441.75
429.59	5476.85
429.78	5277.91
429.97	5268.55
430.16	5430.04
430.34	5591.54
430.53	5650.05
430.72	5528.35
430.91	5643.03
431.10	5694.52
431.28	5661.76
431.47	5654.73
431.66	5898.15
431.85	5659.42
432.03	5830.27
432.22	5802.19
432.41	5846.66
432.60	5919.21
432.79	5980.07
432.97	5970.71
433.16	5982.41
433.35	6015.18
433.54	6090.07
433.72	6202.42
433.91	6059.65
434.10	6047.94
434.28	6017.52
434.47	6143.91
434.66	6422.43
434.85	6448.18
435.03	6246.89
435.22	6340.51
435.41	6502.01
435.59	6335.83
435.78	6361.58
435.97	6253.91
436.16	6303.06
436.34	6340.51
436.53	6586.27
436.72	6658.82
436.90	6345.19
437.09	6513.71
437.28	6387.32
437.46	6715.00
437.65	6487.96
437.84	6619.04
438.02	6698.61
438.21	6740.74
438.40	6530.09
438.58	6815.64
438.77	7030.97
438.96	6965.43
439.14	7108.21
439.33	7140.97
439.52	7089.48
439.70	7176.08
439.89	7323.54
440.08	7260.34
440.26	7199.49
440.45	7314.17
440.63	7424.18
440.82	7576.31
441.01	7552.91
441.19	7606.74
441.38	7761.22
441.57	7676.96
441.75	7925.05
441.94	7843.14
442.12	7758.88
442.31	8093.57
442.50	8060.80
442.68	7861.86
442.87	7990.59
443.05	7950.80
443.24	8135.70
443.43	7978.89
443.61	8203.58
443.80	8531.25
443.98	7962.50
444.17	7911.01
444.35	8140.38
444.54	8400.18
444.73	8196.56
444.91	8114.64
445.10	8257.41
445.28	8376.78
445.47	8077.19
445.65	8336.99
445.84	8121.66
446.02	8535.93
446.21	8608.49
446.39	8318.26
446.58	8421.25
446.77	8372.10
446.95	8217.62
447.14	8358.05
447.32	8580.40
447.51	8348.69
447.69	8238.69
447.88	8313.58
448.06	8535.93
448.25	8503.17
448.43	8496.14
448.62	8622.53
448.80	8421.25
448.99	8685.73
449.17	8748.92
449.36	8643.60
449.54	8564.02
449.73	8840.20
449.91	8889.35
450.10	8877.65
450.28	8959.57
450.46	8865.95
450.65	8938.51
450.83	8884.67
451.02	8964.25
451.20	8966.59
451.39	8938.51
451.57	9226.39
451.76	8994.68
451.94	9071.92
452.13	9359.80
452.31	9202.99
452.49	8926.80
452.68	9268.52
452.86	9341.08
453.05	9343.42
453.23	9261.50
453.42	9193.62
453.60	9158.52
453.78	9423.00
453.97	9324.69
454.15	9430.02
454.34	9397.25
454.52	9654.71
454.70	9680.46
454.89	9554.07
455.07	9591.52
455.26	9760.03
455.44	9895.78
455.62	9743.65
455.81	9914.51
455.99	9958.98
456.17	10094.73
456.36	9968.34
456.54	9994.09
456.73	10335.81
456.91	10441.13
457.09	10331.12
457.28	10539.43
457.46	10296.02
457.64	10630.71
457.83	10516.03
458.01	10361.55
458.19	10698.59
458.38	10218.78
458.56	10520.71
458.74	10719.65
458.93	10483.26
459.11	10693.91
459.29	10829.66
459.48	10576.88
459.66	10719.65
459.84	10829.66
460.03	11068.39
460.21	10827.32
460.39	10794.55
460.57	10684.55
460.76	10782.85
460.94	11040.31
461.12	11073.07
461.31	11332.87
461.49	10939.66
461.67	10890.51
461.85	11400.75
462.04	11117.54
462.22	11754.17
462.40	11435.86
462.59	11456.92
462.77	11433.52
462.95	11365.64
463.13	11665.23
463.32	11501.39
463.50	11571.61
463.68	11967.16
463.86	11646.51
464.05	11524.80
464.23	11609.06
464.41	11768.21
464.59	11599.70
464.78	12051.42
464.96	11929.71
465.14	11698.00
465.32	11857.15
465.50	12095.89
465.69	12301.86
465.87	12035.03
466.05	11910.99
466.23	12123.98
466.41	12241.00
466.60	12620.17
466.78	11964.82
466.96	12116.95
467.14	12395.48
467.32	12451.65
467.51	12519.53
467.69	12006.95
467.87	12308.88
468.05	12865.92
468.23	12233.98
468.41	12294.83
468.60	12477.40
468.78	12468.03
468.96	12819.11
469.14	12718.47
469.32	12905.71
469.50	12521.87
469.69	13137.43
469.87	13081.25
470.05	12746.56
470.23	13160.83
470.41	13071.89
470.59	13249.77
470.77	13191.26
470.95	13011.04
471.14	13551.70
471.32	13139.77
471.50	13397.23
471.68	13434.68
471.86	13413.61
472.04	13624.26
472.22	13731.92
472.40	13659.37
472.58	13853.63
472.77	13795.12
472.95	13881.72
473.13	14569.83
473.31	14019.81
473.49	13926.19
473.67	13905.12
473.85	14312.38
474.03	14553.45
474.21	14490.26
474.39	14677.50
474.57	14974.75
474.75	14658.78
474.93	14892.83
475.12	15070.71
475.30	15330.51
475.48	14899.85
475.66	15185.40
475.84	15276.68
476.02	15154.97
476.20	15161.99
476.38	15613.71
476.56	15866.49
476.74	15793.94
476.92	15772.87
477.10	15660.52
477.28	15992.88
477.46	16088.84
477.64	16198.85
477.82	16137.99
478.00	16886.97
478.18	16444.60
478.36	16521.84
478.54	16973.56
478.72	16807.39
478.90	17214.64
479.08	17530.61
479.26	17809.14
479.44	17528.27
479.62	17877.01
479.80	18031.49
479.98	17944.89
480.16	18560.45
480.34	18139.15
480.52	18457.46
480.70	18396.61
480.88	18242.14
481.06	18679.82
481.24	18586.19
481.41	18963.02
481.59	19199.41
481.77	19442.83
481.95	19421.77
482.13	19372.61
482.31	19541.13
482.49	19791.57
482.67	19831.36
482.85	20259.68
483.03	20446.92
483.21	20470.33
483.39	20472.67
483.57	20673.95
483.74	21001.63
483.92	21357.39
484.10	20954.82
484.28	21720.17
484.46	21692.08
484.64	22284.24
484.82	21998.70
485.00	21998.70
485.18	22761.71
485.35	22831.93
485.53	22515.95
485.71	22724.26
485.89	23410.04
486.07	23360.89
486.25	23316.42
486.43	23283.65
486.61	23384.29
486.78	23807.93
486.96	24205.82
487.14	24287.74
487.32	24847.13
487.50	24875.21
487.68	24659.88
487.85	24732.44
488.03	25289.49
488.21	25530.56
488.39	25530.56
488.57	25965.90
488.75	25907.39
488.92	25998.67
489.10	26384.86
489.28	26284.22
489.46	26625.93
489.64	26569.76
489.81	27466.19
489.99	27960.04
490.17	27615.98
490.35	27941.32
490.53	28126.22
490.70	28268.99
490.88	28137.92
491.06	28510.07
491.24	28449.21
491.41	28833.06
491.59	28912.64
491.77	28772.21
491.95	29153.71
492.13	29369.04
492.30	30218.66
492.48	29748.21
492.66	29862.90
492.84	30209.29
493.01	30251.42
493.19	30536.97
493.37	30932.52
493.54	31094.02
493.72	31065.93
493.90	31309.35
494.08	31583.19
494.25	31826.60
494.43	32133.21
494.61	31878.10
494.79	32393.01
494.96	32322.80
495.14	32458.55
495.32	32936.02
495.49	33116.24
495.67	33284.76
495.85	33067.09
496.02	33598.39
496.20	33600.73
496.38	33958.83
496.55	33591.37
496.73	34906.75
496.91	34237.36
497.09	34534.60
497.26	34562.69
497.44	34464.39
497.62	35061.22
497.79	35454.44
497.97	35138.46
498.14	35871.05
498.32	35915.52
498.50	35550.40
498.67	36222.13
498.85	36182.34
499.03	36343.84
499.20	36128.51
499.38	36542.78
499.56	36481.93
499.73	37120.90
499.91	37010.89
500.08	37605.39
500.26	36746.41
500.44	37385.38
500.61	37720.07
500.79	37331.54
500.97	37865.19
501.14	38745.23
501.32	38258.40
501.49	38066.47
501.67	37902.64
501.84	38897.36
502.02	38223.29
502.20	38646.93
502.37	39255.46
502.55	38733.53
502.72	39091.63
502.90	39531.65
503.07	38813.10
503.25	39473.13
503.43	39557.39
503.60	39768.04
503.78	39662.72
503.95	40259.55
504.13	40355.52
504.30	40573.19
504.48	40048.91
504.65	40423.39
504.83	40919.59
505.01	41345.56
505.18	41024.91
505.36	41441.53
505.53	40903.20
505.71	40671.49
505.88	40933.63
506.06	41212.15
506.23	41785.58
506.41	41853.46
506.58	41764.52
506.76	41989.21
506.93	42319.23
507.11	42164.75
507.28	42511.15
507.46	42766.27
507.63	42316.89
507.81	43035.43
507.98	42674.99
508.16	42656.26
508.33	42766.27
508.50	43217.99
508.68	43206.29
508.85	43643.97
509.03	43330.34
509.20	43599.50
509.38	44224.42
509.55	44336.77
509.73	44292.30
509.90	44268.89
510.08	44126.12
510.25	44500.61
510.42	44552.10
510.60	44643.38
510.77	44474.86
510.95	44973.39
511.12	44868.07
511.30	45177.02
511.47	45188.72
511.64	44898.50
511.82	45530.44
511.99	45055.31
512.17	45813.65
512.34	45904.93
512.51	45872.16
512.69	46148.34
512.86	45577.25
513.04	46394.10
513.21	46361.33
513.38	46351.97
513.56	46806.03
513.73	46749.86
513.90	46731.14
514.08	46555.60
514.25	46492.40
514.43	46843.48
514.60	47068.17
514.77	47267.12
514.95	47260.10
515.12	47386.49
515.29	47463.72
515.47	47576.07
515.64	47632.24
515.81	47639.26
515.99	47744.59
516.16	48030.13
516.33	47885.02
516.51	48636.33
516.68	48378.87
516.85	48193.97
517.03	48680.80
517.20	48683.14
517.37	48470.15
517.54	48577.82
517.72	48512.28
517.89	48832.94
518.06	49221.47
518.24	48804.85
518.41	49237.85
518.58	48956.99
518.75	48933.58
518.93	49081.03
519.10	49214.44
519.27	49565.52
519.45	49528.08
519.62	49354.88
519.79	49710.64
519.96	49544.46
520.14	50099.17
520.31	49621.70
520.48	50234.92
520.65	49855.75
520.83	50314.50
521.00	50356.63
521.17	50426.84
521.34	50586.00
521.52	50820.05
521.69	50625.79
521.86	50550.89
522.03	50960.48
522.20	51075.17
522.38	51351.35
522.55	51030.70
522.72	50923.04
522.89	50745.15
523.07	51620.52
523.24	51370.08
523.41	51288.16
523.58	50927.72
523.75	51636.90
523.92	51435.61
524.10	51569.02
524.27	51562.00
524.44	51662.64
524.61	51826.48
524.78	51812.44
524.96	51716.48
525.13	52149.48
525.30	51938.83
525.47	52259.48
525.64	52126.07
525.81	52149.48
525.98	52523.96
526.16	52240.76
526.33	52364.81
526.50	52795.46
526.67	52545.03
526.84	52615.24
527.01	52762.70
527.18	52566.09
527.36	52516.94
527.53	52729.93
527.70	53207.40
527.87	53024.84
528.04	53132.50
528.21	53048.24
528.38	52963.98
528.55	53450.81
528.72	53233.14
528.89	53418.05
529.07	53319.74
529.24	53099.73
529.41	53635.72
529.58	53439.11
529.75	53347.83
529.92	53450.81
530.09	53602.95
530.26	53673.16
530.43	53769.13
530.60	53308.04
530.77	53731.68
530.94	54181.06
531.11	53631.04
531.28	53989.14
531.46	53764.45
531.63	54094.46
531.80	53799.55
531.97	53975.09
532.14	54204.47
532.31	54045.31
532.48	54508.74
532.65	54265.32
532.82	54401.07
532.99	54532.14
533.16	54274.68
533.33	54494.69
533.50	54602.36
533.67	54695.98
533.84	54410.43
534.01	54504.06
534.18	54749.81
534.35	55175.79
534.52	54698.32
534.69	55091.53
534.86	55002.59
535.03	54885.56
535.20	54714.70
535.37	55168.77
535.54	55241.32
535.71	54801.30
535.88	55049.40
536.05	55278.77
536.22	55524.53
536.38	55229.62
536.55	55456.65
536.72	55150.04
536.89	55533.89
537.06	55423.89
537.23	55257.71
537.40	55498.78
537.57	55442.61
537.74	55559.64
537.91	55669.64
538.08	55566.66
538.25	55351.33
538.42	55604.11
538.59	55903.70
538.75	55536.23
538.92	55746.88
539.09	55842.84
539.26	56079.24
539.43	55978.59
539.60	56095.62
539.77	55859.23
539.94	56053.49
540.11	56236.05
540.28	56203.28
540.44	56259.46
540.61	56360.10
540.78	56065.19
540.95	56112.00
541.12	56207.97
541.29	56245.41
541.46	56392.87
541.62	56456.06
541.79	56526.28
541.96	56144.77
542.13	56313.29
542.30	56577.77
542.47	56718.20
542.63	56662.03
542.80	56470.11
542.97	56872.68
543.14	57125.46
543.31	57008.43
543.48	56961.62
543.64	57130.14
543.81	57265.89
543.98	56992.04
544.15	57249.50
544.32	57209.71
544.48	57361.85
544.65	56982.68
544.82	57073.96
544.99	57226.10
545.16	57326.74
545.32	57223.76
545.49	57277.59
545.66	57574.84
545.83	57368.87
546.00	57504.62
546.16	57513.98
546.33	57263.55
546.50	57310.36
546.67	57701.23
546.83	57090.35
547.00	57525.69
547.17	57343.12
547.34	57654.42
547.50	57844.00
547.67	57844.00
547.84	57844.00
548.00	58003.16
548.17	57939.96
548.34	57921.24
548.51	57851.02
548.67	58045.29
548.84	57991.45
549.01	57827.62
549.18	58007.84
549.34	58110.82
549.51	58183.38
549.68	58056.99
549.84	58157.63
550.01	57844.00
550.18	57930.60
550.34	58150.61
550.51	58342.53
550.68	58262.96
550.84	57989.11
551.01	58199.76
551.18	58389.34
551.34	58286.36
551.51	58539.14
551.68	58356.58
551.84	58363.60
552.01	58131.89
552.18	58230.19
552.34	58312.11
552.51	58595.31
552.68	58389.34
552.84	58534.46
553.01	58679.57
553.18	58569.57
553.34	58817.66
553.51	58609.35
553.67	58599.99
553.84	58707.66
554.01	58822.34
554.17	58972.14
554.34	58864.47
554.51	58948.73
554.67	58850.43
554.84	58899.58
555.00	58763.83
555.17	58831.71
555.33	58866.81
555.50	58752.13
555.67	58901.92
555.83	58726.38
556.00	58883.20
556.16	59161.72
556.33	59248.32
556.50	58857.45
556.66	59161.72
556.83	58756.81
556.99	59353.65
557.16	59320.88
557.32	59283.43
557.49	59395.77
557.65	59168.74
557.82	59171.08
557.98	59203.85
558.15	59236.62
558.32	59257.68
558.48	59187.47
558.65	59405.14
558.81	59379.39
558.98	59536.21
559.14	59477.69
559.31	59498.76
559.47	59468.33
559.64	59458.97
559.80	59524.50
559.97	59346.62
560.13	59302.15
560.30	59437.90
560.46	59447.27
560.63	59636.85
560.79	59456.63
560.96	59714.09
561.12	59891.97
561.29	59784.30
561.45	59470.67
561.61	59814.73
561.78	59491.74
561.94	59510.46
562.11	59515.14
562.27	59936.44
562.44	59849.84
562.60	59891.97
562.77	59732.81
562.93	59707.07
563.10	60011.34
563.26	59737.49
563.42	60088.57
563.59	59854.52
563.75	59840.48
563.92	60060.49
564.08	59725.79
564.24	59915.37
564.41	59908.35
564.57	59973.89
564.74	59852.18
564.90	60086.23
565.07	59868.56
565.23	59807.71
565.39	59917.71
565.56	60076.87
565.72	59997.29
565.88	60100.28
566.05	59887.29
566.21	60013.68
566.38	59880.27
566.54	59945.80
566.70	60294.54
566.87	60135.38
567.03	59941.12
567.19	60275.82
567.36	60069.85
567.52	60184.54
567.68	60566.04
567.85	59903.67
568.01	60236.03
568.17	60296.88
568.34	60226.66
568.50	60065.17
568.66	60250.07
568.83	60292.20
568.99	60163.47
569.15	60111.98
569.32	60205.60
569.48	60074.53
569.64	60502.85
569.81	60275.82
569.97	60336.67
570.13	60336.67
570.30	60165.81
570.46	60343.69
570.62	60523.91
570.78	60355.39
570.95	60336.67
571.11	60488.80
571.27	60350.71
571.43	60364.76
571.60	60477.10
571.76	60289.86
571.92	60369.44
572.09	60406.89
572.25	60449.02
572.41	60449.02
572.57	60385.82
572.74	60509.87
572.90	60460.72
573.06	60341.35
573.22	60371.78
573.38	60505.19
573.55	60324.97
573.71	60624.56
573.87	60617.53
574.03	60563.70
574.20	60697.11
574.36	60381.14
574.52	60657.32
574.68	60505.19
574.84	60746.26
575.01	60575.40
575.17	60371.78
575.33	60594.13
575.49	60416.25
575.65	60690.09
575.82	60484.12
575.98	60608.17
576.14	60772.01
576.30	60566.04
576.46	60537.96
576.62	60446.68
576.79	60678.39
576.95	60430.29
577.11	60563.70
577.27	60596.47
577.43	60453.70
577.59	60767.33
577.75	60582.43
577.92	60500.51
578.08	60657.32
578.24	60790.73
578.40	60809.46
578.56	60753.29
578.72	60718.18
578.88	60860.95
579.04	60800.10
579.21	60514.55
579.37	60959.25
579.53	60802.44
579.69	60549.66
579.85	60645.62
580.01	60608.17
580.17	60465.40
580.33	60856.27
580.49	60573.06
580.65	60846.91
580.82	60846.91
580.98	60650.30
581.14	60547.32
581.30	60832.86
581.46	60701.79
581.62	60823.50
581.78	60687.75
581.94	60704.13
582.10	60720.52
582.26	60764.99
582.42	60530.93
582.58	60750.94
582.74	60638.60
582.90	60657.32
583.06	60797.76
583.22	60659.66
583.38	60818.82
583.54	60697.11
583.70	60697.11
583.86	60678.39
584.02	60849.25
584.18	60961.59
584.34	60900.74
584.50	60743.92
584.66	60893.72
584.82	60690.09
584.98	61052.87
585.14	60970.96
585.30	60748.60
585.46	60828.18
585.62	60947.55
585.78	61038.83
585.94	60603.49
586.10	60800.10
586.26	60882.02
586.42	60952.23
586.58	61066.92
586.74	60816.48
586.90	60764.99
587.06	60928.83
587.22	60830.52
587.38	60449.02
587.54	61029.47
587.70	60924.14
587.86	60924.14
588.02	60898.40
588.18	61118.41
588.34	60788.39
588.49	60968.61
