SpectraSuite Data File
++++++++++++++++++++++++++++++++++++
Date: Fri Oct 25 11:23:31 EDT 2013
User: price-jones
Dark Spectrum Present: No
Reference Spectrum Present: No
Number of Sampled Component Spectra: 1
Spectrometers: USB2+H05261
Integration Time (usec): 100000 (USB2+H05261)
Spectra Averaged: 1 (USB2+H05261)
Boxcar Smoothing: 0 (USB2+H05261)
Correct for Electrical Dark: No (USB2+H05261)
Strobe/Lamp Enabled: No (USB2+H05261)
Correct for Detector Non-linearity: No (USB2+H05261)
Correct for Stray Light: No (USB2+H05261)
Number of Pixels in Processed Spectrum: 2048
>>>>>Begin Processed Spectral Data<<<<<
365.73	222.35
365.92	222.35
366.12	222.35
366.32	117.03
366.52	154.48
366.72	203.63
366.91	107.66
367.11	63.19
367.31	145.11
367.51	114.69
367.70	145.11
367.90	100.64
368.10	135.75
368.30	166.18
368.49	121.71
368.69	208.31
368.89	105.32
369.09	121.71
369.28	229.37
369.48	138.09
369.68	131.07
369.87	180.22
370.07	205.97
370.27	243.42
370.47	243.42
370.66	564.07
370.86	596.84
371.06	674.07
371.25	627.26
371.45	561.73
371.65	650.67
371.84	711.52
372.04	645.99
372.24	720.88
372.44	711.52
372.63	758.33
372.83	720.88
373.03	774.72
373.22	795.78
373.42	695.14
373.62	805.14
373.81	828.55
374.01	779.40
374.21	802.80
374.40	802.80
374.60	854.30
374.79	847.27
374.99	772.38
375.19	863.66
375.38	889.40
375.58	863.66
375.78	887.06
375.97	891.74
376.17	915.15
376.37	915.15
376.56	828.55
376.76	880.04
376.95	812.17
377.15	891.74
377.35	999.41
377.54	863.66
377.74	866.00
377.93	835.57
378.13	903.45
378.33	891.74
378.52	882.38
378.72	1057.92
378.91	922.17
379.11	926.85
379.31	1039.20
379.50	1013.45
379.70	997.07
379.89	1036.86
380.09	973.66
380.28	929.19
380.48	1041.54
380.68	938.55
380.87	959.62
381.07	990.05
381.26	1039.20
381.46	903.45
381.65	1032.18
381.85	959.62
382.04	1067.28
382.24	1139.84
382.43	1050.90
382.63	1097.71
382.83	1111.75
383.02	1139.84
383.22	1142.18
383.41	1174.95
383.61	1050.90
383.80	1165.59
384.00	1057.92
384.19	1160.91
384.39	1172.61
384.58	1184.31
384.78	1163.25
384.97	1100.05
385.17	1142.18
385.36	1191.33
385.56	1221.76
385.75	1228.78
385.95	1121.12
386.14	1203.04
386.34	1170.27
386.53	1277.93
386.72	1160.91
386.92	1219.42
387.11	1219.42
387.31	1254.53
387.50	1238.14
387.70	1266.23
387.89	1287.29
388.09	1245.16
388.28	1308.36
388.48	1193.67
388.67	1329.42
388.86	1329.42
389.06	1320.06
389.25	1387.94
389.45	1259.21
389.64	1336.45
389.84	1275.59
390.03	1331.76
390.22	1406.66
390.42	1439.43
390.61	1373.89
390.81	1371.55
391.00	1329.42
391.19	1474.54
391.39	1465.18
391.58	1404.32
391.78	1397.30
391.97	1390.28
392.16	1504.96
392.36	1497.94
392.55	1413.68
392.75	1432.41
392.94	1586.88
393.13	1556.46
393.33	1516.67
393.52	1556.46
393.71	1614.97
393.91	1577.52
394.10	1584.54
394.29	1540.07
394.49	1589.22
394.68	1596.25
394.88	1631.35
395.07	1696.89
395.26	1621.99
395.46	1755.40
395.65	1678.16
395.84	1706.25
396.04	1842.00
396.23	1673.48
396.42	1816.26
396.62	1762.42
396.81	1755.40
397.00	1734.34
397.19	1724.97
397.39	1823.28
397.58	1839.66
397.77	1811.57
397.97	1832.64
398.16	1874.77
398.35	1888.81
398.55	1797.53
398.74	1837.32
398.93	1930.94
399.12	1970.73
399.32	1930.94
399.51	1839.66
399.70	2029.24
399.90	1970.73
400.09	2054.99
400.28	2040.95
400.47	1998.82
400.67	2136.91
400.86	2064.35
401.05	2054.99
401.24	2148.61
401.44	2026.90
401.63	2186.06
401.82	2188.40
402.01	2104.14
402.21	2186.06
402.40	2197.76
402.59	2253.94
402.78	2169.68
402.97	2230.53
403.17	2239.89
403.36	2286.70
403.55	2298.41
403.74	2298.41
403.93	2370.96
404.13	2396.71
404.32	2319.47
404.51	2396.71
404.70	2441.18
404.89	2464.58
405.09	2406.07
405.28	2429.48
405.47	2438.84
405.66	2420.11
405.85	2427.14
406.05	2466.92
406.24	2487.99
406.43	2572.25
406.62	2623.74
406.81	2689.28
407.00	2668.21
407.20	2619.06
407.39	2628.42
407.58	2637.78
407.77	2799.28
407.96	2764.17
408.15	2810.98
408.34	2677.57
408.54	2906.95
408.73	2846.09
408.92	2860.13
409.11	2853.11
409.30	2834.39
409.49	2843.75
409.68	2871.84
409.87	2925.67
410.07	3066.10
410.26	3023.97
410.45	2923.33
410.64	3030.99
410.83	3145.68
411.02	3112.91
411.21	3213.56
411.40	3091.85
411.59	3112.91
411.78	3112.91
411.98	3225.26
412.17	3332.92
412.36	3225.26
412.55	3346.97
412.74	3330.58
412.93	3405.48
413.12	3417.18
413.31	3478.04
413.50	3398.46
413.69	3485.06
413.88	3548.25
414.07	3531.87
414.26	3588.04
414.45	3667.62
414.64	3644.21
414.83	3826.78
415.02	3786.99
415.22	3791.67
415.41	3854.86
415.60	3934.44
415.79	3875.93
415.98	3995.29
416.17	4070.19
416.36	3840.82
416.55	3908.69
416.74	4051.47
416.93	4170.83
417.12	4170.83
417.31	4318.29
417.50	4280.84
417.69	4358.08
417.88	4264.46
418.07	4369.78
418.26	4374.46
418.45	4311.27
418.64	4479.79
418.83	4510.21
419.02	4505.53
419.21	4423.61
419.39	4622.56
419.58	4437.66
419.77	4507.87
419.96	4610.86
420.15	4690.43
420.34	4629.58
420.53	4650.64
420.72	4664.69
420.91	4690.43
421.10	4638.94
421.29	4802.78
421.48	4699.80
421.67	4833.21
421.86	4786.40
422.05	4777.03
422.24	4751.29
422.43	4952.57
422.61	4875.34
422.80	5064.92
422.99	4910.44
423.18	5022.79
423.37	5055.56
423.56	4894.06
423.75	4905.76
423.94	4961.94
424.13	4557.02
424.32	4624.90
424.50	5025.13
424.69	5071.94
424.88	4901.08
425.07	4968.96
425.26	4924.49
425.45	4983.00
425.64	5011.09
425.83	4931.51
426.01	5071.94
426.20	4997.04
426.39	5076.62
426.58	5001.72
426.77	5057.90
426.96	5121.09
427.15	5195.99
427.33	5111.73
427.52	5076.62
427.71	5137.48
427.90	5226.42
428.09	5210.03
428.28	5350.46
428.46	5261.52
428.65	5181.95
428.84	5488.56
429.03	5577.50
429.22	5387.91
429.40	5551.75
429.59	5495.58
429.78	5336.42
429.97	5341.10
430.16	5416.00
430.34	5650.05
430.53	5715.59
430.72	5582.18
430.91	5731.97
431.10	5626.65
431.28	5701.54
431.47	5729.63
431.66	5818.57
431.85	5736.65
432.03	5928.58
432.22	5902.83
432.41	5879.43
432.60	5788.14
432.79	5954.32
432.97	5996.45
433.16	5984.75
433.35	5863.04
433.54	6024.54
433.72	6113.48
433.91	6118.16
434.10	6164.97
434.28	6179.01
434.47	6293.70
434.66	6277.32
434.85	6408.39
435.03	6190.72
435.22	6141.57
435.41	6427.11
435.59	6375.62
435.78	6424.77
435.97	6476.26
436.16	6363.92
436.34	6471.58
436.53	6387.32
436.72	6750.10
436.90	6490.31
437.09	6764.15
437.28	6506.69
437.46	6672.87
437.65	6637.76
437.84	6679.89
438.02	6649.46
438.21	6661.16
438.40	6696.27
438.58	6902.24
438.77	6986.50
438.96	7014.59
439.14	7323.54
439.33	7239.28
439.52	7269.70
439.70	7206.51
439.89	7351.62
440.08	7274.38
440.26	7384.39
440.45	7555.25
440.63	7590.36
440.82	7658.23
441.01	7346.94
441.19	7686.32
441.38	7784.62
441.57	7709.72
441.75	7829.09
441.94	7873.56
442.12	7915.69
442.31	7880.58
442.50	8119.32
442.68	7992.93
442.87	8004.63
443.05	8128.68
443.24	8285.50
443.43	8149.75
443.61	8051.44
443.80	8304.22
443.98	8013.99
444.17	7920.37
444.35	8257.41
444.54	8271.45
444.73	8208.26
444.91	8351.03
445.10	8432.95
445.28	8454.02
445.47	8362.73
445.65	8351.03
445.84	8545.30
446.02	8624.87
446.21	8379.12
446.39	8264.43
446.58	8344.01
446.77	8592.11
446.95	8152.09
447.14	8372.10
447.32	8629.56
447.51	8475.08
447.69	8521.89
447.88	8568.70
448.06	8446.99
448.25	8608.49
448.43	8559.34
448.62	8751.26
448.80	8643.60
448.99	8468.06
449.17	8767.65
449.36	8617.85
449.54	8547.64
449.73	8959.57
449.91	9104.68
450.10	8898.72
450.28	9151.49
450.46	9076.60
450.65	9060.21
450.83	9212.35
451.02	8987.66
451.20	9399.59
451.39	9193.62
451.57	9238.09
451.76	8898.72
451.94	9195.96
452.13	9352.78
452.31	9327.03
452.49	9207.67
452.68	9455.76
452.86	9399.59
453.05	9380.87
453.23	9411.29
453.42	9387.89
453.60	9160.86
453.78	9444.06
453.97	9528.32
454.15	9619.60
454.34	9423.00
454.52	9886.42
454.70	9799.82
454.89	9841.95
455.07	9823.23
455.26	9940.26
455.44	10054.94
455.62	10003.45
455.81	9820.89
455.99	10253.89
456.17	10050.26
456.36	10195.37
456.54	10188.35
456.73	10200.05
456.91	10183.67
457.09	10450.49
457.28	10560.50
457.46	10232.82
457.64	10487.94
457.83	10616.67
458.01	10429.43
458.19	10696.25
458.38	10642.42
458.56	10677.52
458.74	10787.53
458.93	10567.52
459.11	10857.75
459.29	10768.80
459.48	10827.32
459.66	10626.03
459.84	10942.00
460.03	11290.74
460.21	11073.07
460.39	10920.94
460.57	11122.23
460.76	11192.44
460.94	11190.10
461.12	11108.18
461.31	11122.23
461.49	11337.56
461.67	11243.93
461.85	11421.81
462.04	11428.84
462.22	11758.85
462.40	11688.64
462.59	11520.12
462.77	11468.62
462.95	11625.44
463.13	11463.94
463.32	11836.09
463.50	11578.63
463.68	11934.39
463.86	11892.26
464.05	11742.47
464.23	11913.33
464.41	12077.16
464.59	11822.05
464.78	12063.12
464.96	11894.60
465.14	11866.52
465.32	12175.47
465.50	12376.75
465.69	12163.76
465.87	12250.36
466.05	12102.91
466.23	12154.40
466.41	12196.53
466.60	12430.59
466.78	12203.55
466.96	12348.67
467.14	12390.80
467.32	12259.73
467.51	12470.37
467.69	12194.19
467.87	12517.18
468.05	12723.15
468.23	12622.51
468.41	12573.36
468.60	12519.53
468.78	12688.04
468.96	12739.54
469.14	12882.31
469.32	12947.84
469.50	12657.62
469.69	13099.98
469.87	13205.30
470.05	12987.63
470.23	13226.37
470.41	13132.75
470.59	13224.03
470.77	13107.00
470.95	13399.57
471.14	13633.62
471.32	13233.39
471.50	13437.02
471.68	13748.31
471.86	13778.73
472.04	13619.58
472.22	14274.93
472.40	13572.77
472.58	13858.31
472.77	14183.65
472.95	13968.32
473.13	14684.52
473.31	14043.21
473.49	14134.50
473.67	14174.28
473.85	14394.29
474.03	14867.08
474.21	14572.18
474.39	14733.67
474.57	14670.48
474.75	14831.97
474.93	14998.15
475.12	15021.56
475.30	15185.40
475.48	15077.73
475.66	15309.44
475.84	15253.27
476.02	15669.89
476.20	15618.39
476.38	15632.44
476.56	16170.76
476.74	16123.95
476.92	16091.18
477.10	15712.02
477.28	16163.74
477.46	16280.77
477.64	16425.88
477.82	16744.19
478.00	16809.73
478.18	16690.36
478.36	16772.28
478.54	17188.89
478.72	17144.42
478.90	17406.56
479.08	17703.81
479.26	17893.40
479.44	18185.96
479.62	17923.82
479.80	17851.27
479.98	18153.20
480.16	18462.15
480.34	18115.75
480.52	18609.60
480.70	18572.15
480.88	18197.67
481.06	18897.49
481.24	18920.89
481.41	19435.81
481.59	19389.00
481.77	19777.53
481.95	19924.98
482.13	19697.95
482.31	19826.68
482.49	20500.75
482.67	20154.35
482.85	20507.77
483.03	20711.40
483.21	20521.82
483.39	20795.66
483.57	21172.49
483.74	21270.79
483.92	21214.62
484.10	21479.10
484.28	21900.39
484.46	21633.57
484.64	22576.81
484.82	22085.30
485.00	22527.66
485.18	22801.50
485.35	22916.19
485.53	22871.72
485.71	22965.34
485.89	23407.70
486.07	23559.83
486.25	23454.51
486.43	23716.65
486.61	23908.57
486.78	24182.42
486.96	24212.84
487.14	24638.82
487.32	24624.78
487.50	24737.12
487.68	24884.58
487.85	25568.01
488.03	25741.21
488.21	25956.54
488.39	26057.18
488.57	26136.76
488.75	26551.04
488.92	26405.92
489.10	26630.62
489.28	27077.66
489.46	27559.81
489.64	26876.37
489.81	27938.97
489.99	27618.32
490.17	28074.73
490.35	28140.26
490.53	28156.64
490.70	28217.50
490.88	28414.10
491.06	29015.62
491.24	28535.81
491.41	29149.03
491.59	29158.39
491.77	29453.30
491.95	29862.90
492.13	29942.47
492.30	30431.65
492.48	30183.55
492.66	29949.50
492.84	30349.73
493.01	30506.54
493.19	30490.16
493.37	31250.83
493.54	31215.72
493.72	31637.02
493.90	31433.39
494.08	31922.57
494.25	32177.68
494.43	32140.24
494.61	32283.01
494.79	32402.38
494.96	32428.12
495.14	33062.41
495.32	33261.35
495.49	33406.47
495.67	33497.75
495.85	33584.35
496.02	33771.59
496.20	33851.17
496.38	34227.99
496.55	34368.43
496.73	34710.14
496.91	34525.24
497.09	34684.40
497.26	35061.22
497.44	34885.68
497.62	34991.01
497.79	35842.96
497.97	35613.59
498.14	35763.39
498.32	36180.00
498.50	36439.80
498.67	36474.91
498.85	36978.12
499.03	37198.13
499.20	37006.21
499.38	36872.80
499.56	37214.52
499.73	37280.05
499.91	37469.64
500.08	38415.21
500.26	37600.71
500.44	37523.47
500.61	37937.74
500.79	37617.09
500.97	38469.04
501.14	38747.57
501.32	38911.41
501.49	38937.15
501.67	38712.46
501.84	39122.05
502.02	38817.78
502.20	39185.25
502.37	39363.13
502.55	39386.54
502.72	39262.49
502.90	39686.12
503.07	39910.82
503.25	39651.02
503.43	39592.50
503.60	40149.55
503.78	40414.03
503.95	40540.42
504.13	40978.10
504.30	40690.21
504.48	40683.19
504.65	40596.59
504.83	41883.89
505.01	41446.21
505.18	41055.34
505.36	42026.66
505.53	41493.02
505.71	41392.37
505.88	42005.59
506.06	41783.24
506.23	41691.96
506.41	41886.23
506.58	42361.36
506.76	42642.22
506.93	42663.28
507.11	42698.39
507.28	42417.53
507.46	42962.87
507.63	43225.01
507.81	43576.09
507.98	42951.17
508.16	43232.04
508.33	43395.87
508.50	43887.39
508.68	43676.74
508.85	44128.46
509.03	44130.80
509.20	43938.88
509.38	44381.24
509.55	44526.35
509.73	44168.25
509.90	44856.37
510.08	44701.89
510.25	44940.63
510.42	45139.57
510.60	44940.63
510.77	45223.83
510.95	45598.32
511.12	45282.34
511.30	45343.20
511.47	45759.81
511.64	45516.40
511.82	46087.49
511.99	45673.21
512.17	45996.21
512.34	46061.74
512.51	46330.90
512.69	46527.51
512.86	46000.89
513.04	46632.83
513.21	46703.05
513.38	46932.42
513.56	46911.36
513.73	46780.29
513.90	47140.73
514.08	46780.29
514.25	47236.69
514.43	47477.77
514.60	47276.48
514.77	47449.68
514.95	47646.29
515.12	47824.17
515.29	47618.20
515.47	48100.35
515.64	48217.38
515.81	47990.34
515.99	48105.03
516.16	48540.37
516.33	48701.87
516.51	48896.13
516.68	48322.70
516.85	48610.59
517.03	49202.74
517.20	48928.90
517.37	49027.20
517.54	48987.41
517.72	49059.97
517.89	49184.02
518.06	49298.70
518.24	49301.04
518.41	49057.63
518.58	49656.81
518.75	49354.88
518.93	49715.32
519.10	49478.92
519.27	50127.25
519.45	49785.54
519.62	50239.60
519.79	49626.38
519.96	50014.91
520.14	50363.65
520.31	50258.32
520.48	50637.49
520.65	50637.49
520.83	50609.40
521.00	50979.21
521.17	51105.60
521.34	50600.04
521.52	50614.08
521.69	50665.58
521.86	51168.79
522.03	51522.21
522.20	51547.96
522.38	51550.30
522.55	51550.30
522.72	51379.44
522.89	51250.71
523.07	51969.26
523.24	51512.85
523.41	51856.91
523.58	51629.88
523.75	52168.20
523.92	51948.19
524.10	51896.70
524.27	52006.70
524.44	52051.17
524.61	52247.78
524.78	52278.21
524.96	52317.99
525.13	52261.82
525.30	52423.32
525.47	52821.21
525.64	52320.34
525.81	52814.19
525.98	52720.57
526.16	52589.50
526.33	52648.01
526.50	53141.86
526.67	52959.30
526.84	52985.05
527.01	52795.46
527.18	52797.80
527.36	53034.20
527.53	53191.01
527.70	53434.43
527.87	53504.65
528.04	53221.44
528.21	53471.88
528.38	53523.37
528.55	53556.14
528.72	53621.67
528.89	53469.54
529.07	53572.52
529.24	53392.30
529.41	53738.70
529.58	53696.57
529.75	53848.71
529.92	53939.99
530.09	53921.26
530.26	53787.85
530.43	53895.52
530.60	53511.67
530.77	54253.62
530.94	54080.42
531.11	53996.16
531.28	54071.06
531.46	54557.89
531.63	54335.54
531.80	54391.71
531.97	54581.29
532.14	54569.59
532.31	54508.74
532.48	54539.16
532.65	54805.98
532.82	54560.23
532.99	54707.68
533.16	54845.77
533.33	54810.67
533.50	55114.94
533.67	54864.50
533.84	54738.11
534.01	54728.75
534.18	55014.29
534.35	55292.82
534.52	55084.51
534.69	55416.86
534.86	55253.03
535.03	55178.13
535.20	55437.93
535.37	55409.84
535.54	55449.63
535.71	55215.58
535.88	55468.36
536.05	55545.59
536.22	55875.61
536.38	55744.54
536.55	55491.76
536.72	55805.39
536.89	55594.74
537.06	55842.84
537.23	55973.91
537.40	55664.96
537.57	55664.96
537.74	56004.34
537.91	56053.49
538.08	55929.44
538.25	55655.60
538.42	56051.15
538.59	56112.00
538.75	55943.48
538.92	56020.72
539.09	56245.41
539.26	56027.74
539.43	56336.69
539.60	56395.21
539.77	56112.00
539.94	56545.00
540.11	56486.49
540.28	56404.57
540.44	56418.61
540.61	56617.56
540.78	56432.66
540.95	56568.41
541.12	56446.70
541.29	56619.90
541.46	56732.25
541.62	56853.95
541.79	56797.78
541.96	56413.93
542.13	56512.23
542.30	56743.95
542.47	56933.53
542.63	57092.69
542.80	56942.89
542.97	57352.49
543.14	57382.91
543.31	57043.54
543.48	57153.54
543.64	57516.32
543.81	57504.62
543.98	57291.63
544.15	57422.70
544.32	57715.27
544.48	57628.67
544.65	57401.64
544.82	57513.98
544.99	57436.75
545.16	57673.14
545.32	57574.84
545.49	57766.76
545.66	57762.08
545.83	57623.99
546.00	57963.37
546.16	57546.75
546.33	57574.84
546.50	57270.57
546.67	58014.86
546.83	57521.01
547.00	57808.89
547.17	57996.13
547.34	58033.58
547.50	58007.84
547.67	58265.30
547.84	58019.54
548.00	58131.89
548.17	58328.49
548.34	58122.52
548.51	58293.38
548.67	58251.25
548.84	58017.20
549.01	58117.84
549.18	58368.28
549.34	58356.58
549.51	58262.96
549.68	58597.65
549.84	58536.80
550.01	58686.59
550.18	58508.71
550.34	58365.94
550.51	58749.79
550.68	58365.94
550.84	58274.66
551.01	58639.78
551.18	58707.66
551.34	58651.48
551.51	58468.92
551.68	58700.64
551.84	58719.36
552.01	58363.60
552.18	58883.20
552.34	58567.23
552.51	58742.77
552.68	58555.52
552.84	58726.38
553.01	59166.40
553.18	58827.02
553.34	58904.26
553.51	58857.45
553.67	58820.00
553.84	58773.19
554.01	59065.76
554.17	58995.54
554.34	59110.23
554.51	58892.56
554.67	59295.13
554.84	59124.27
555.00	59238.96
555.17	59082.14
555.33	59007.25
555.50	58969.80
555.67	58845.75
555.83	58967.46
556.00	59292.79
556.16	59311.52
556.33	59473.01
556.50	59391.09
556.66	59423.86
556.83	59374.71
556.99	59402.80
557.16	59585.36
557.32	59550.25
557.49	59681.32
557.65	59587.70
557.82	59517.48
557.98	59620.47
558.15	59348.96
558.32	59412.16
558.48	59512.80
558.65	59587.70
558.81	59571.32
558.98	59536.21
559.14	59498.76
559.31	59709.41
559.47	59779.62
559.64	59608.76
559.80	59966.87
559.97	59753.88
560.13	59608.76
560.30	59826.43
560.46	59894.31
560.63	59854.52
560.79	59840.48
560.96	59870.90
561.12	59737.49
561.29	59931.76
561.45	59908.35
561.61	59920.05
561.78	59723.45
561.94	59875.58
562.11	59796.01
562.27	59873.24
562.44	60182.19
562.60	60013.68
562.77	60107.30
562.93	59786.64
563.10	60285.18
563.26	59800.69
563.42	60097.94
563.59	59877.93
563.75	59957.50
563.92	60163.47
564.08	60074.53
564.24	60226.66
564.41	60182.19
564.57	60121.34
564.74	60374.12
564.90	60140.07
565.07	60128.36
565.23	60224.32
565.39	60032.40
565.56	60374.12
565.72	60339.01
565.88	60233.69
566.05	60322.63
566.21	60268.79
566.38	60427.95
566.54	60392.84
566.70	60399.86
566.87	60296.88
567.03	60203.26
567.19	60772.01
567.36	60275.82
567.52	60430.29
567.68	60734.56
567.85	60622.22
568.01	60383.48
568.17	60507.53
568.34	60542.64
568.50	60299.22
568.66	60472.42
568.83	60355.39
568.99	60619.88
569.15	60324.97
569.32	60537.96
569.48	60605.83
569.64	60500.51
569.81	60575.40
569.97	60446.68
570.13	60594.13
570.30	60355.39
570.46	60664.35
570.62	60374.12
570.78	60701.79
570.95	60608.17
571.11	60493.49
571.27	60615.19
571.43	60570.72
571.60	60940.53
571.76	60629.24
571.92	60657.32
572.09	60830.52
572.25	60654.98
572.41	60591.79
572.57	60748.60
572.74	60912.44
572.90	60818.82
573.06	60612.85
573.22	60598.81
573.38	60683.07
573.55	60434.97
573.71	60711.16
573.87	60977.98
574.03	60397.52
574.20	60645.62
574.36	60559.02
574.52	60811.80
574.68	61022.45
574.84	60898.40
575.01	60996.70
575.17	60757.97
575.33	60830.52
575.49	60654.98
575.65	60793.07
575.82	60830.52
575.98	60837.54
576.14	61242.46
576.30	61045.85
576.46	60893.72
576.62	60680.73
576.79	60832.86
576.95	60626.90
577.11	61008.40
577.27	61099.68
577.43	61010.74
577.59	60849.25
577.75	60657.32
577.92	60643.28
578.08	60956.91
578.24	60882.02
578.40	60867.97
578.56	60994.36
578.72	60945.21
578.88	61059.90
579.04	61195.65
579.21	60903.08
579.37	61127.77
579.53	60947.55
579.69	60676.05
579.85	60673.71
580.01	60912.44
580.17	60622.22
580.33	61020.11
580.49	60926.49
580.65	60933.51
580.82	60832.86
580.98	60940.53
581.14	60823.50
581.30	61078.62
581.46	61113.73
581.62	60905.42
581.78	61069.26
581.94	61181.60
582.10	60928.83
582.26	60882.02
582.42	60992.02
582.58	60865.63
582.74	61036.49
582.90	60844.57
583.06	61052.87
583.22	60797.76
583.38	61092.66
583.54	61090.32
583.70	61116.07
583.86	61125.43
584.02	60877.33
584.18	61202.67
584.34	61233.10
584.50	60947.55
584.66	60956.91
584.82	60856.27
584.98	61073.94
585.14	60940.53
585.30	61090.32
585.46	61090.32
585.62	61041.17
585.78	61364.17
585.94	61123.09
586.10	61183.94
586.26	61087.98
586.42	61020.11
586.58	61305.65
586.74	61052.87
586.90	61052.87
587.06	61099.68
587.22	61422.68
587.38	61230.75
587.54	61305.65
587.70	61296.29
587.86	61197.99
588.02	61235.44
588.18	61385.23
588.34	61265.86
