SpectraSuite Data File
++++++++++++++++++++++++++++++++++++
Date: Fri Oct 25 10:43:45 EDT 2013
User: price-jones
Dark Spectrum Present: No
Reference Spectrum Present: No
Number of Sampled Component Spectra: 1
Spectrometers: USB2+H05261
Integration Time (usec): 100000 (USB2+H05261)
Spectra Averaged: 1 (USB2+H05261)
Boxcar Smoothing: 0 (USB2+H05261)
Correct for Electrical Dark: No (USB2+H05261)
Strobe/Lamp Enabled: No (USB2+H05261)
Correct for Detector Non-linearity: No (USB2+H05261)
Correct for Stray Light: No (USB2+H05261)
Number of Pixels in Processed Spectrum: 2048
>>>>>Begin Processed Spectral Data<<<<<
365.73	77.24
365.92	77.24
366.12	77.24
366.32	35.11
366.52	63.19
366.72	65.54
366.91	11.70
367.11	37.45
367.31	39.79
367.51	14.04
367.70	21.06
367.90	58.51
368.10	0.00
368.30	11.70
368.49	72.56
368.69	63.19
368.89	58.51
369.09	4.68
369.28	119.37
369.48	110.01
369.68	49.15
369.87	65.54
370.07	70.22
370.27	112.35
370.47	184.90
370.66	360.44
370.86	444.70
371.06	491.51
371.25	493.85
371.45	437.68
371.65	437.68
371.84	411.93
372.04	437.68
372.24	479.81
372.44	477.47
372.63	554.71
372.83	524.28
373.03	465.77
373.22	519.60
373.42	557.05
373.62	475.13
373.81	486.83
374.01	482.15
374.21	521.94
374.40	500.87
374.60	463.43
374.79	498.53
374.99	582.79
375.19	568.75
375.38	641.31
375.58	603.86
375.78	535.98
375.97	568.75
376.17	641.31
376.37	589.82
376.56	615.56
376.76	638.97
376.95	582.79
377.15	638.97
377.35	678.76
377.54	631.94
377.74	669.39
377.93	720.88
378.13	645.99
378.33	660.03
378.52	634.29
378.72	629.60
378.91	711.52
379.11	561.73
379.31	657.69
379.50	624.92
379.70	660.03
379.89	648.33
380.09	596.84
380.28	699.82
380.48	692.80
380.68	692.80
380.87	645.99
381.07	643.65
381.26	716.20
381.46	727.91
381.65	723.23
381.85	678.76
382.04	638.97
382.24	664.71
382.43	770.04
382.63	648.33
382.83	751.31
383.02	711.52
383.22	767.70
383.41	695.14
383.61	791.10
383.80	805.14
384.00	706.84
384.19	774.72
384.39	807.48
384.58	784.08
384.78	896.43
384.97	786.42
385.17	713.86
385.36	821.53
385.56	739.61
385.75	828.55
385.95	847.27
386.14	788.76
386.34	870.68
386.53	861.32
386.72	793.44
386.92	866.00
387.11	903.45
387.31	903.45
387.50	863.66
387.70	795.78
387.89	919.83
388.09	931.53
388.28	849.61
388.48	896.43
388.67	912.81
388.86	898.77
389.06	987.71
389.25	870.68
389.45	938.55
389.64	1018.13
389.84	999.41
390.03	1020.47
390.22	952.60
390.42	957.28
390.61	945.58
390.81	976.00
391.00	1008.77
391.19	1081.33
391.39	994.73
391.58	1020.47
391.78	952.60
391.97	1020.47
392.16	1025.15
392.36	1153.88
392.55	1090.69
392.75	985.37
392.94	884.72
393.13	1048.56
393.33	980.68
393.52	1060.26
393.71	1114.10
393.91	1057.92
394.10	971.32
394.29	1142.18
394.49	1205.38
394.68	1177.29
394.88	1123.46
395.07	1245.16
395.26	1219.42
395.46	1242.82
395.65	1191.33
395.84	1174.95
396.04	1256.87
396.23	1196.01
396.42	1151.54
396.62	1240.48
396.81	1142.18
397.00	1128.14
397.19	1294.32
397.39	1252.19
397.58	1336.45
397.77	1287.29
397.97	1462.83
398.16	1385.60
398.35	1474.54
398.55	1387.94
398.74	1401.98
398.93	1556.46
399.12	1486.24
399.32	1502.62
399.51	1432.41
399.70	1519.01
399.90	1502.62
400.09	1554.12
400.28	1600.93
400.47	1675.82
400.67	1614.97
400.86	1603.27
401.05	1589.22
401.24	1762.42
401.44	1617.31
401.63	1671.14
401.82	1603.27
402.01	1652.42
402.21	1778.81
402.40	1748.38
402.59	1638.38
402.78	1743.70
402.97	1600.93
403.17	1785.83
403.36	1846.68
403.55	1785.83
403.74	1675.82
403.93	1832.64
404.13	1804.55
404.32	1900.52
404.51	1863.07
404.70	1806.89
404.89	1823.28
405.09	1944.99
405.28	1842.00
405.47	1884.13
405.66	1937.96
405.85	2031.58
406.05	1893.49
406.24	2010.52
406.43	1980.09
406.62	1947.33
406.81	2083.08
407.00	2052.65
407.20	2019.88
407.39	2015.20
407.58	2057.33
407.77	2118.18
407.96	2148.61
408.15	2169.68
408.34	2094.78
408.54	2258.62
408.73	2298.41
408.92	2326.49
409.11	2246.91
409.30	2282.02
409.49	2202.44
409.68	2174.36
409.87	2207.13
410.07	2321.81
410.26	2282.02
410.45	2333.51
410.64	2401.39
410.83	2403.73
411.02	2422.45
411.21	2583.95
411.40	2520.76
411.59	2600.34
411.78	2581.61
411.98	2502.03
412.17	2663.53
412.36	2672.89
412.55	2630.76
412.74	2689.28
412.93	2803.96
413.12	2574.59
413.31	2832.05
413.50	2853.11
413.69	2860.13
413.88	2902.26
414.07	2754.81
414.26	2857.79
414.45	2902.26
414.64	2832.05
414.83	3054.40
415.02	2951.42
415.22	2949.08
415.41	3061.42
415.60	3000.57
415.79	3169.09
415.98	3337.60
416.17	3187.81
416.36	3152.70
416.55	3049.72
416.74	3239.30
416.93	3197.17
417.12	3276.75
417.31	3400.80
417.50	3309.52
417.69	3534.21
417.88	3286.11
418.07	3389.10
418.26	3478.04
418.45	3452.29
418.64	3557.61
418.83	3496.76
419.02	3503.78
419.21	3503.78
419.39	3452.29
419.58	3456.97
419.77	3545.91
419.96	3590.38
420.15	3590.38
420.34	3517.83
420.53	3695.71
420.72	3735.50
420.91	3735.50
421.10	3740.18
421.29	3735.50
421.48	3688.68
421.67	3911.04
421.86	3630.17
422.05	3824.44
422.24	3655.92
422.43	3709.75
422.61	3772.94
422.80	3756.56
422.99	3765.92
423.18	3927.42
423.37	3784.65
423.56	3782.31
423.75	3833.80
423.94	3880.61
424.13	3606.77
424.32	3747.20
424.50	3782.31
424.69	3967.21
424.88	3983.59
425.07	3859.54
425.26	3801.03
425.45	3892.31
425.64	3843.16
425.83	3873.59
426.01	3925.08
426.20	3833.80
426.39	4030.40
426.58	3845.50
426.77	3955.51
426.96	4100.62
427.15	3838.48
427.33	4124.02
427.52	3983.59
427.71	4051.47
427.90	3861.88
428.09	4109.98
428.28	4114.66
428.46	3953.16
428.65	4053.81
428.84	4196.58
429.03	4208.28
429.22	4037.42
429.40	4077.21
429.59	4093.60
429.78	3808.05
429.97	3985.93
430.16	3997.64
430.34	4126.36
430.53	4037.42
430.72	4025.72
430.91	4112.32
431.10	4198.92
431.28	4362.76
431.47	4596.81
431.66	4620.22
431.85	4538.30
432.03	4463.40
432.22	4540.64
432.41	4517.23
432.60	4596.81
432.79	4627.24
432.97	4624.90
433.16	4554.68
433.35	4599.15
433.54	4550.00
433.72	4685.75
433.91	4662.35
434.10	4720.86
434.28	4793.42
434.47	4933.85
434.66	4739.58
434.85	4894.06
435.03	4835.55
435.22	4915.12
435.41	4997.04
435.59	4877.68
435.78	4807.46
435.97	5097.69
436.16	5034.49
436.34	5022.79
436.53	5123.43
436.72	5233.44
436.90	5022.79
437.09	5015.77
437.28	4919.81
437.46	4978.32
437.65	5088.32
437.84	4924.49
438.02	4929.17
438.21	5231.10
438.40	5118.75
438.58	5352.81
438.77	5294.29
438.96	5327.06
439.14	5591.54
439.33	5504.94
439.52	5423.02
439.70	5568.13
439.89	5526.00
440.08	5526.00
440.26	5685.16
440.45	5703.89
440.63	5703.89
440.82	5823.25
441.01	5652.39
441.19	6017.52
441.38	5928.58
441.57	5921.56
441.75	6019.86
441.94	6225.82
442.12	6162.63
442.31	6382.64
442.50	6303.06
442.68	6146.25
442.87	6293.70
443.05	6246.89
443.24	6289.02
443.43	6382.64
443.61	6293.70
443.80	6462.22
443.98	6174.33
444.17	6202.42
444.35	6345.19
444.54	6492.65
444.73	6565.20
444.91	6274.98
445.10	6464.56
445.28	6384.98
445.47	6223.48
445.65	6469.24
445.84	6476.26
446.02	6497.33
446.21	6457.54
446.39	6590.95
446.58	6466.90
446.77	6743.08
446.95	6417.75
447.14	6480.94
447.32	6553.50
447.51	6572.22
447.69	6436.47
447.88	6600.31
448.06	6621.38
448.25	6513.71
448.43	6619.04
448.62	6544.14
448.80	6637.76
448.99	6553.50
449.17	6834.36
449.36	6731.38
449.54	6890.54
449.73	7063.74
449.91	7101.19
450.10	6979.48
450.28	6981.82
450.46	7103.53
450.65	7117.57
450.83	7274.38
451.02	7096.50
451.20	7098.84
451.39	7124.59
451.57	7157.36
451.76	7066.08
451.94	7059.06
452.13	7049.69
452.31	7138.63
452.49	6904.58
452.68	7098.84
452.86	6977.14
453.05	7129.27
453.23	7396.09
453.42	7112.89
453.60	6993.52
453.78	7304.81
453.97	7110.55
454.15	7087.14
454.34	7316.51
454.52	7564.61
454.70	7375.03
454.89	7365.67
455.07	7470.99
455.26	7669.94
455.44	7644.19
455.62	7557.59
455.81	7740.15
455.99	7702.70
456.17	7506.10
456.36	7784.62
456.54	7761.22
456.73	7857.18
456.91	7903.99
457.09	8037.40
457.28	8180.17
457.46	7964.84
457.64	7922.71
457.83	8102.93
458.01	7943.78
458.19	8201.24
458.38	7882.92
458.56	8229.32
458.74	8035.06
458.93	8028.04
459.11	8182.51
459.29	8271.45
459.48	8194.22
459.66	8198.90
459.84	8348.69
460.03	8334.65
460.21	8568.70
460.39	8365.07
460.57	8353.37
460.76	8395.50
460.94	8430.61
461.12	8468.06
461.31	8486.78
461.49	8491.46
461.67	8477.42
461.85	8538.27
462.04	8650.62
462.22	9104.68
462.40	8744.24
462.59	8800.41
462.77	8627.21
462.95	8732.54
463.13	9008.72
463.32	8805.10
463.50	8784.03
463.68	8912.76
463.86	8802.75
464.05	8753.60
464.23	8723.18
464.41	8980.64
464.59	8545.30
464.78	8875.31
464.96	9018.08
465.14	8800.41
465.32	9029.79
465.50	9221.71
465.69	9200.65
465.87	9071.92
466.05	9186.60
466.23	9039.15
466.41	9123.41
466.60	9193.62
466.78	9114.05
466.96	8957.23
467.14	9088.30
467.32	9228.73
467.51	9355.12
467.69	9123.41
467.87	9343.42
468.05	9385.55
468.23	9130.43
468.41	9380.87
468.60	9427.68
468.78	9467.47
468.96	9523.64
469.14	9666.41
469.32	9551.73
469.50	9217.03
469.69	9507.26
469.87	9741.31
470.05	9628.96
470.23	9778.76
470.41	9633.64
470.59	9823.23
470.77	9738.97
470.95	9781.10
471.14	9944.94
471.32	9975.36
471.50	9947.28
471.68	9963.66
471.86	10267.93
472.04	10171.97
472.22	10443.47
472.40	10148.56
472.58	10448.15
472.77	10319.42
472.95	10253.89
473.13	10677.52
473.31	10307.72
473.49	10310.06
473.67	10272.61
473.85	10490.28
474.03	10473.90
474.21	10965.41
474.39	10712.63
474.57	10899.87
474.75	11159.67
474.93	11061.37
475.12	10878.81
475.30	11192.44
475.48	11103.50
475.66	11232.23
475.84	11131.59
476.02	11183.08
476.20	11262.66
476.38	11433.52
476.56	11957.80
476.74	11641.82
476.92	11543.52
477.10	11618.42
477.28	11882.90
477.46	11943.75
477.64	12037.38
477.82	12189.51
478.00	12322.92
478.18	12358.03
478.36	12503.14
478.54	12486.76
478.72	12510.16
478.90	12739.54
479.08	12800.39
479.26	12980.61
479.44	13270.84
479.62	12856.56
479.80	13043.81
479.98	13383.18
480.16	13404.25
480.34	13235.73
480.52	13486.17
480.70	13500.21
480.88	13415.95
481.06	13701.50
481.24	13523.62
481.41	13991.72
481.59	14134.50
481.77	14127.47
481.95	14443.45
482.13	14361.53
482.31	14431.74
482.49	14647.07
482.67	14785.16
482.85	14862.40
483.03	15028.58
483.21	15206.46
483.39	15054.33
483.57	14988.79
483.74	15218.16
483.92	15328.17
484.10	15316.47
484.28	15943.73
484.46	15896.92
484.64	15929.69
484.82	15936.71
485.00	15866.49
485.18	15861.81
485.35	16313.53
485.53	16140.33
485.71	15920.32
485.89	16400.13
486.07	16210.55
486.25	16610.78
486.43	16868.24
486.61	16931.44
486.78	17006.33
486.96	16882.28
487.14	17228.68
487.32	17500.19
487.50	17884.03
487.68	18050.21
487.85	18080.64
488.03	18424.70
488.21	18492.57
488.39	18258.52
488.57	18204.69
488.75	18300.65
488.92	18792.16
489.10	19084.73
489.28	19150.26
489.46	19475.60
489.64	19480.28
489.81	19791.57
489.99	19756.46
490.17	19840.72
490.35	19992.86
490.53	19997.54
490.70	19976.47
490.88	20149.67
491.06	20580.33
491.24	20524.16
491.41	20475.01
491.59	20589.69
491.77	20540.54
491.95	20882.26
492.13	20891.62
492.30	21184.19
492.48	21350.37
492.66	21488.46
492.84	21205.25
493.01	21996.35
493.19	21802.09
493.37	22185.94
493.54	21893.37
493.72	22237.43
493.90	22539.36
494.08	22684.47
494.25	23026.19
494.43	23044.91
494.61	23143.22
494.79	22878.74
494.96	23051.94
495.14	23105.77
495.32	23393.65
495.49	23307.05
495.67	23360.89
495.85	23564.51
496.02	24013.90
496.20	23866.44
496.38	23744.73
496.55	23971.77
496.73	24556.90
496.91	24238.59
497.09	24627.12
497.26	24542.86
497.44	24863.51
497.62	24882.24
497.79	25186.50
497.97	24678.61
498.14	25188.85
498.32	25296.51
498.50	25495.46
498.67	25500.14
498.85	25872.28
499.03	25811.43
499.20	26106.34
499.38	26054.84
499.56	25879.30
499.73	26216.34
499.91	26106.34
500.08	26010.37
500.26	25951.86
500.44	26525.29
500.61	26263.15
500.79	26305.28
500.97	26787.43
501.14	27005.10
501.32	26775.73
501.49	26948.93
501.67	27016.80
501.84	27161.92
502.02	26867.01
502.20	27311.71
502.37	27770.46
502.55	27405.33
502.72	27489.59
502.90	27789.18
503.07	27770.46
503.25	27690.88
503.43	27513.00
503.60	27805.56
503.78	27793.86
503.95	27775.14
504.13	28414.10
504.30	28332.18
504.48	27988.13
504.65	28900.94
504.83	28538.15
505.01	28800.29
505.18	28634.11
505.36	29106.90
505.53	29317.55
505.71	29139.67
505.88	29287.12
506.06	28907.96
506.23	29317.55
506.41	29181.80
506.58	29638.20
506.76	29518.84
506.93	29633.52
507.11	29675.65
507.28	29970.56
507.46	29720.12
507.63	29734.17
507.81	29656.93
507.98	29944.81
508.16	30216.32
508.33	30005.67
508.50	30436.33
508.68	30553.35
508.85	30593.14
509.03	30366.11
509.20	30492.50
509.38	30859.96
509.55	30881.03
509.73	31108.06
509.90	30998.06
510.08	30789.75
510.25	31419.35
510.42	31199.34
510.60	31421.69
510.77	31456.80
510.95	31494.25
511.12	31697.88
511.30	31718.94
511.47	31735.32
511.64	31634.68
511.82	31913.20
511.99	31835.97
512.17	31793.84
512.34	31906.18
512.51	32439.82
512.69	31943.63
512.86	32341.52
513.04	32613.02
513.21	32601.32
513.38	32624.73
513.56	32488.98
513.73	32414.08
513.90	32811.97
514.08	32914.95
514.25	33097.52
514.43	33067.09
514.60	32931.34
514.77	32975.81
514.95	32961.76
515.12	33160.71
515.29	33577.33
515.47	33661.58
515.64	33467.32
515.81	33605.41
515.99	33825.42
516.16	33577.33
516.33	33408.81
516.51	33656.90
516.68	32989.85
516.85	32952.40
517.03	33312.84
517.20	33530.51
517.37	33469.66
517.54	34054.79
517.72	34075.86
517.89	33369.02
518.06	33603.07
518.24	33582.01
518.41	33860.53
518.58	34117.99
518.75	34164.80
518.93	34979.31
519.10	34483.11
519.27	34469.07
519.45	34689.08
519.62	34745.25
519.79	34778.02
519.96	35187.61
520.14	35274.21
520.31	34824.83
520.48	34988.67
520.65	34902.07
520.83	35292.94
521.00	35353.79
521.17	35306.98
521.34	35775.09
521.52	35524.65
521.69	35475.50
521.86	35704.87
522.03	35952.97
522.20	35374.86
522.38	36065.31
522.55	36116.81
522.72	36224.47
522.89	36018.50
523.07	36240.86
523.24	36294.69
523.41	36428.10
523.58	36673.85
523.75	37275.37
523.92	36643.43
524.10	36987.49
524.27	37111.53
524.44	36526.40
524.61	37139.62
524.78	37085.79
524.96	36849.39
525.13	37153.66
525.30	37338.57
525.47	37207.50
525.64	37240.26
525.81	37289.42
525.98	36992.17
526.16	36659.81
526.33	36835.35
526.50	37558.58
526.67	36938.33
526.84	37127.92
527.01	37055.36
527.18	37471.98
527.36	37764.54
527.53	37287.07
527.70	37916.68
527.87	37837.10
528.04	37937.74
528.21	38141.37
528.38	38286.48
528.55	38494.79
528.72	38323.93
528.89	38572.03
529.07	38197.54
529.24	38356.70
529.41	38628.20
529.58	38391.81
529.75	38188.18
529.92	38630.54
530.09	39012.05
530.26	38831.83
530.43	39070.56
530.60	38550.96
530.77	39042.48
530.94	38775.66
531.11	38773.31
531.28	38845.87
531.46	39042.48
531.63	39398.24
531.80	39005.03
531.97	39276.53
532.14	38937.15
532.31	39047.16
532.48	39180.57
532.65	39042.48
532.82	39325.68
532.99	39646.33
533.16	39281.21
533.33	39583.14
533.50	39594.84
533.67	38972.26
533.84	39505.90
534.01	39503.56
534.18	39459.09
534.35	40208.06
534.52	39423.98
534.69	40158.91
534.86	39997.41
535.03	40081.67
535.20	40467.86
535.37	40631.70
535.54	40470.20
535.71	40547.44
535.88	40437.44
536.05	40264.24
536.22	40013.80
536.38	40402.33
536.55	40568.51
536.72	40495.95
536.89	40341.47
537.06	40259.55
537.23	41038.95
537.40	40329.77
537.57	40776.81
537.74	40620.00
537.91	41060.02
538.08	40830.65
538.25	40648.08
538.42	40636.38
538.59	40825.96
538.75	40594.25
538.92	40917.25
539.09	41233.22
539.26	41193.43
539.43	40935.97
539.60	40952.35
539.77	40835.33
539.94	40680.85
540.11	40748.73
540.28	41184.07
540.44	41158.32
540.61	41233.22
540.78	40959.38
540.95	41134.92
541.12	41525.78
541.29	41076.40
541.46	41577.28
541.62	41219.17
541.79	41544.51
541.96	41375.99
542.13	41029.59
542.30	41539.83
542.47	41806.65
542.63	41649.83
542.80	42038.36
542.97	41907.29
543.14	42270.08
543.31	41806.65
543.48	42384.76
543.64	42508.81
543.81	42445.62
543.98	42422.21
544.15	42602.43
544.32	42080.49
544.48	42721.80
544.65	42630.52
544.82	42363.70
544.99	42686.69
545.16	42316.89
545.32	41902.61
545.49	43089.26
545.66	42939.47
545.83	43063.52
546.00	43072.88
546.16	42892.66
546.33	42562.64
546.50	42429.23
546.67	43035.43
546.83	42855.21
547.00	42981.60
547.17	42447.96
547.34	42895.00
547.50	42906.70
547.67	43232.04
547.84	42995.64
548.00	42993.30
548.17	43732.91
548.34	43700.14
548.51	43489.49
548.67	43117.35
548.84	43206.29
549.01	43058.84
549.18	43318.64
549.34	42913.72
549.51	43906.11
549.68	43477.79
549.84	43543.33
550.01	43529.28
550.18	43597.16
550.34	43742.27
550.51	43320.98
550.68	43335.02
550.84	43239.06
551.01	43761.00
551.18	43487.15
551.34	43552.69
551.51	44041.86
551.68	44318.04
551.84	44151.87
552.01	44208.04
552.18	43768.02
552.34	43313.95
552.51	43716.53
552.68	44037.18
552.84	44163.57
553.01	44201.02
553.18	43859.30
553.34	44224.42
553.51	44121.44
553.67	44079.31
553.84	44348.47
554.01	44573.16
554.17	44800.19
554.34	44364.85
554.51	44397.62
554.67	44512.31
554.84	44114.42
555.00	43861.64
555.17	43948.24
555.33	44158.89
555.50	44512.31
555.67	44091.01
555.83	44865.73
556.00	44383.58
556.16	45024.89
556.33	44715.93
556.50	44589.55
556.66	44519.33
556.83	44385.92
556.99	44451.45
557.16	45017.86
557.32	44559.12
557.49	44788.49
557.65	44479.54
557.82	44804.88
557.98	44666.78
558.15	44875.09
558.32	44755.72
558.48	44203.36
558.65	44821.26
558.81	45123.19
558.98	44605.93
559.14	44500.61
559.31	44779.13
559.47	44409.32
559.64	44900.84
559.80	44786.15
559.97	44657.42
560.13	44671.46
560.30	44617.63
560.46	45052.97
560.63	45364.26
560.79	44964.03
560.96	45038.93
561.12	45155.96
561.29	45481.29
561.45	44734.66
561.61	45249.58
561.78	44732.32
561.94	44924.24
562.11	44870.41
562.27	45144.25
562.44	44971.05
562.60	45097.44
562.77	45179.36
562.93	45268.30
563.10	45357.24
563.26	44900.84
563.42	45102.12
563.59	45127.87
563.75	45275.32
563.92	45783.22
564.08	45521.08
564.24	45687.26
564.41	45514.06
564.57	45324.47
564.74	45162.98
564.90	45647.47
565.07	45172.34
565.23	45258.94
565.39	45425.12
565.56	45481.29
565.72	44800.19
565.88	44980.42
566.05	45064.67
566.21	45216.81
566.38	45074.04
566.54	45020.20
566.70	45900.25
566.87	45617.04
567.03	45666.19
567.19	45855.78
567.36	45401.71
567.52	45153.62
567.68	45411.07
567.85	45422.78
568.01	45188.72
568.17	45116.17
568.34	45668.53
568.50	45488.31
568.66	45666.19
568.83	45923.65
568.99	44858.71
569.15	45364.26
569.32	45333.84
569.48	45242.56
569.64	46164.73
569.81	45448.52
569.97	45235.53
570.13	45757.47
570.30	44825.94
570.46	45296.39
570.62	45411.07
570.78	45460.23
570.95	45310.43
571.11	45471.93
571.27	45373.63
571.43	45272.98
571.60	45357.24
571.76	45617.04
571.92	45904.93
572.09	45897.91
572.25	45649.81
572.41	45762.15
572.57	46134.30
572.74	46120.26
572.90	45757.47
573.06	45649.81
573.22	45502.35
573.38	45825.35
573.55	45579.59
573.71	45563.21
573.87	45935.35
574.03	45275.32
574.20	45352.56
574.36	45766.84
574.52	45420.44
574.68	45862.80
574.84	45986.85
575.01	45684.92
575.17	45933.01
575.33	45703.64
575.49	45752.79
575.65	46134.30
575.82	45897.91
575.98	45729.39
576.14	45853.44
576.30	45869.82
576.46	45521.08
576.62	45989.19
576.79	45401.71
576.95	45780.88
577.11	45839.39
577.27	45666.19
577.43	45745.77
577.59	45556.19
577.75	45263.62
577.92	45502.35
578.08	45310.43
578.24	45539.80
578.40	45727.05
578.56	46036.00
578.72	45631.08
578.88	45942.38
579.04	45867.48
579.21	45673.21
579.37	45949.40
579.53	45766.84
579.69	45670.87
579.85	45806.62
580.01	45792.58
580.17	45549.17
580.33	45923.65
580.49	45869.82
580.65	45881.52
580.82	45717.68
580.98	45701.30
581.14	46071.10
581.30	45642.79
581.46	45937.69
581.62	45729.39
581.78	45691.94
581.94	46286.43
582.10	45977.48
582.26	46143.66
582.42	45853.44
582.58	45986.85
582.74	45839.39
582.90	45893.22
583.06	46092.17
583.22	46087.49
583.38	46319.20
583.54	45743.43
583.70	45792.58
583.86	46220.90
584.02	45443.84
584.18	45998.55
584.34	45649.81
584.50	45933.01
584.66	45923.65
584.82	45846.41
584.98	45881.52
585.14	46038.34
585.30	45841.73
585.46	45762.15
585.62	45500.01
585.78	45808.96
585.94	45694.28
586.10	45680.24
586.26	45893.22
586.42	46300.48
586.58	46085.15
586.74	45998.55
586.90	45518.74
587.06	45909.61
587.22	45993.87
587.38	46146.00
587.54	45865.14
587.70	46117.92
587.86	45944.72
588.02	45935.35
588.18	45741.09
588.34	45551.51
588.49	45635.77
588.65	45326.81
588.81	45399.37
588.97	45684.92
589.13	45553.85
589.29	45485.97
589.45	45675.55
589.61	45638.11
589.77	46337.93
589.93	45893.22
590.08	46007.91
