SpectraSuite Data File
++++++++++++++++++++++++++++++++++++
Date: Fri Oct 25 11:33:20 EDT 2013
User: price-jones
Dark Spectrum Present: No
Reference Spectrum Present: No
Number of Sampled Component Spectra: 1
Spectrometers: USB2+H05261
Integration Time (usec): 100000 (USB2+H05261)
Spectra Averaged: 1 (USB2+H05261)
Boxcar Smoothing: 0 (USB2+H05261)
Correct for Electrical Dark: No (USB2+H05261)
Strobe/Lamp Enabled: No (USB2+H05261)
Correct for Detector Non-linearity: No (USB2+H05261)
Correct for Stray Light: No (USB2+H05261)
Number of Pixels in Processed Spectrum: 2048
>>>>>Begin Processed Spectral Data<<<<<
365.73	299.59
365.92	299.59
366.12	299.59
366.32	182.56
366.52	159.16
366.72	156.82
366.91	168.52
367.11	180.22
367.31	175.54
367.51	124.05
367.70	191.92
367.90	131.07
368.10	131.07
368.30	220.01
368.49	180.22
368.69	196.60
368.89	166.18
369.09	177.88
369.28	205.97
369.48	259.80
369.68	224.69
369.87	273.84
370.07	236.39
370.27	330.02
370.47	320.65
370.66	388.53
370.86	425.98
371.06	564.07
371.25	571.09
371.45	568.75
371.65	552.37
371.84	514.92
372.04	512.58
372.24	585.13
372.44	575.77
372.63	645.99
372.83	587.47
373.03	606.20
373.22	594.50
373.42	603.86
373.62	664.71
373.81	622.58
374.01	645.99
374.21	641.31
374.40	674.07
374.60	592.16
374.79	622.58
374.99	599.18
375.19	624.92
375.38	601.52
375.58	657.69
375.78	676.41
375.97	690.46
376.17	807.48
376.37	627.26
376.56	603.86
376.76	655.35
376.95	669.39
377.15	636.63
377.35	662.37
377.54	716.20
377.74	709.18
377.93	723.23
378.13	624.92
378.33	730.25
378.52	727.91
378.72	706.84
378.91	734.93
379.11	730.25
379.31	699.82
379.50	685.78
379.70	784.08
379.89	737.27
380.09	744.29
380.28	753.65
380.48	770.04
380.68	758.33
380.87	798.12
381.07	704.50
381.26	713.86
381.46	718.54
381.65	751.31
381.85	720.88
382.04	770.04
382.24	840.25
382.43	716.20
382.63	758.33
382.83	837.91
383.02	866.00
383.22	784.08
383.41	809.83
383.61	884.72
383.80	819.19
384.00	748.97
384.19	798.12
384.39	842.59
384.58	858.98
384.78	798.12
384.97	917.49
385.17	788.76
385.36	835.57
385.56	894.08
385.75	844.93
385.95	861.32
386.14	884.72
386.34	830.89
386.53	844.93
386.72	861.32
386.92	898.77
387.11	983.02
387.31	880.04
387.50	940.90
387.70	870.68
387.89	919.83
388.09	908.13
388.28	940.90
388.48	849.61
388.67	1011.11
388.86	966.64
389.06	980.68
389.25	961.96
389.45	947.92
389.64	997.07
389.84	954.94
390.03	997.07
390.22	917.49
390.42	1029.84
390.61	990.05
390.81	1064.94
391.00	978.34
391.19	1020.47
391.39	1008.77
391.58	1006.43
391.78	1029.84
391.97	1008.77
392.16	992.39
392.36	1053.24
392.55	1076.65
392.75	1067.28
392.94	1071.97
393.13	1149.20
393.33	945.58
393.52	1102.39
393.71	1057.92
393.91	1125.80
394.10	976.00
394.29	1032.18
394.49	1137.50
394.68	1174.95
394.88	1057.92
395.07	1174.95
395.26	1121.12
395.46	1118.78
395.65	1153.88
395.84	1193.67
396.04	1181.97
396.23	1163.25
396.42	1198.35
396.62	1296.66
396.81	1306.02
397.00	1203.04
397.19	1315.38
397.39	1177.29
397.58	1207.72
397.77	1224.10
397.97	1277.93
398.16	1249.85
398.35	1352.83
398.55	1273.25
398.74	1284.95
398.93	1320.06
399.12	1308.36
399.32	1371.55
399.51	1362.19
399.70	1324.74
399.90	1324.74
400.09	1369.21
400.28	1343.47
400.47	1364.53
400.67	1390.28
400.86	1383.26
401.05	1448.79
401.24	1469.86
401.44	1441.77
401.63	1366.87
401.82	1519.01
402.01	1504.96
402.21	1547.09
402.40	1469.86
402.59	1497.94
402.78	1483.90
402.97	1579.86
403.17	1556.46
403.36	1584.54
403.55	1556.46
403.74	1542.41
403.93	1521.35
404.13	1650.08
404.32	1652.42
404.51	1612.63
404.70	1624.33
404.89	1570.50
405.09	1678.16
405.28	1696.89
405.47	1715.61
405.66	1806.89
405.85	1682.85
406.05	1811.57
406.24	1804.55
406.43	1741.36
406.62	1788.17
406.81	1895.83
407.00	1732.00
407.20	1673.48
407.39	1701.57
407.58	1832.64
407.77	1823.28
407.96	1919.24
408.15	1973.07
408.34	1774.13
408.54	1888.81
408.73	1858.39
408.92	1982.43
409.11	2017.54
409.30	2005.84
409.49	1898.17
409.68	1987.11
409.87	2043.29
410.07	1968.39
410.26	2022.22
410.45	2038.61
410.64	2118.18
410.83	2169.68
411.02	2059.67
411.21	2153.29
411.40	2195.42
411.59	2165.00
411.78	2183.72
411.98	2249.25
412.17	2319.47
412.36	2172.02
412.55	2200.10
412.74	2270.32
412.93	2359.26
413.12	2385.01
413.31	2504.37
413.50	2480.97
413.69	2338.20
413.88	2560.55
414.07	2452.88
414.26	2469.27
414.45	2544.16
414.64	2455.22
414.83	2579.27
415.02	2593.31
415.22	2605.02
415.41	2684.59
415.60	2710.34
415.79	2626.08
415.98	2705.66
416.17	2787.58
416.36	2796.94
416.55	2745.45
416.74	2773.53
416.93	2778.22
417.12	2890.56
417.31	2974.82
417.50	2923.33
417.69	3038.02
417.88	3023.97
418.07	2906.95
418.26	2977.16
418.45	2984.18
418.64	3005.25
418.83	3087.17
419.02	3070.78
419.21	2981.84
419.39	3108.23
419.58	3073.12
419.77	3052.06
419.96	3152.70
420.15	3138.66
420.34	3148.02
420.53	3304.84
420.72	3243.98
420.91	3293.13
421.10	3279.09
421.29	3274.41
421.48	3349.31
421.67	3258.03
421.86	3307.18
422.05	3382.07
422.24	3447.61
422.43	3372.71
422.61	3405.48
422.80	3475.70
422.99	3424.20
423.18	3456.97
423.37	3538.89
423.56	3377.39
423.75	3400.80
423.94	3454.63
424.13	3190.15
424.32	3204.19
424.50	3482.72
424.69	3510.80
424.88	3503.78
425.07	3538.89
425.26	3461.65
425.45	3466.33
425.64	3368.03
425.83	3475.70
426.01	3585.70
426.20	3440.59
426.39	3510.80
426.58	3569.32
426.77	3557.61
426.96	3494.42
427.15	3559.95
427.33	3623.15
427.52	3588.04
427.71	3646.55
427.90	3555.27
428.09	3662.94
428.28	3648.90
428.46	3522.51
428.65	3712.09
428.84	3665.28
429.03	3719.11
429.22	3672.30
429.40	3763.58
429.59	3819.75
429.78	3674.64
429.97	3655.92
430.16	3679.32
430.34	3805.71
430.53	3971.89
430.72	3983.59
430.91	3955.51
431.10	3911.04
431.28	3908.69
431.47	4133.39
431.66	4105.30
431.85	3936.78
432.03	4147.43
432.22	4154.45
432.41	4131.05
432.60	4079.55
432.79	4264.46
432.97	4112.32
433.16	4320.63
433.35	4135.73
433.54	4060.83
433.72	4173.18
433.91	4311.27
434.10	4266.80
434.28	4393.19
434.47	4180.20
434.66	4383.82
434.85	4292.54
435.03	4278.50
435.22	4369.78
435.41	4482.13
435.59	4423.61
435.78	4358.08
435.97	4472.76
436.16	4381.48
436.34	4367.44
436.53	4360.42
436.72	4594.47
436.90	4348.72
437.09	4631.92
437.28	4367.44
437.46	4636.60
437.65	4559.36
437.84	4627.24
438.02	4561.70
438.21	4528.94
438.40	4641.28
438.58	4730.22
438.77	4889.38
438.96	4734.90
439.14	4887.04
439.33	5036.83
439.52	4910.44
439.70	4786.40
439.89	4910.44
440.08	4947.89
440.26	5050.88
440.45	4868.31
440.63	5032.15
440.82	5135.14
441.01	5294.29
441.19	5083.64
441.38	5205.35
441.57	5399.62
441.75	5198.33
441.94	5540.05
442.12	5458.13
442.31	5458.13
442.50	5626.65
442.68	5493.24
442.87	5582.18
443.05	5434.72
443.24	5701.54
443.43	5647.71
443.61	5572.82
443.80	5788.14
443.98	5526.00
444.17	5263.86
444.35	5668.78
444.54	5804.53
444.73	5488.56
444.91	5610.26
445.10	5724.95
445.28	5680.48
445.47	5636.01
445.65	5781.12
445.84	5753.04
446.02	5762.40
446.21	5657.07
446.39	5755.38
446.58	5748.36
446.77	5781.12
446.95	5687.50
447.14	5680.48
447.32	5678.14
447.51	5703.89
447.69	5834.96
447.88	5621.97
448.06	5797.51
448.25	5935.60
448.43	5811.55
448.62	5816.23
448.80	5802.19
448.99	5930.92
449.17	5996.45
449.36	6031.56
449.54	6017.52
449.73	6188.38
449.91	6106.46
450.10	6160.29
450.28	6136.88
450.46	6111.14
450.65	6321.79
450.83	6235.19
451.02	6143.91
451.20	6197.74
451.39	6094.76
451.57	6064.33
451.76	6265.61
451.94	6410.73
452.13	6244.55
452.31	6307.74
452.49	6171.99
452.68	6349.87
452.86	6534.78
453.05	6452.86
453.23	6436.47
453.42	6225.82
453.60	6387.32
453.78	6420.09
453.97	6368.60
454.15	6363.92
454.34	6389.66
454.52	6572.22
454.70	6635.42
454.89	6715.00
455.07	6705.63
455.26	6707.98
455.44	6572.22
455.62	6719.68
455.81	6736.06
455.99	6717.34
456.17	6832.02
456.36	6722.02
456.54	7023.95
456.73	7033.31
456.91	6963.09
457.09	6998.20
457.28	7094.16
457.46	6906.92
457.64	6942.03
457.83	7021.61
458.01	6808.62
458.19	7220.55
458.38	7190.13
458.56	7316.51
458.74	7171.40
458.93	7400.77
459.11	7227.57
459.29	7185.44
459.48	7218.21
459.66	7414.82
459.84	7332.90
460.03	7407.80
460.21	7377.37
460.39	7510.78
460.57	7426.52
460.76	7410.14
460.94	7386.73
461.12	7274.38
461.31	7405.46
461.49	7492.05
461.67	7721.43
461.85	7779.94
462.04	7700.36
462.22	8142.72
462.40	7885.26
462.59	7723.77
462.77	7707.38
462.95	7885.26
463.13	7920.37
463.32	7861.86
463.50	7969.52
463.68	7913.35
463.86	7946.12
464.05	7960.16
464.23	7932.08
464.41	7962.50
464.59	7894.63
464.78	8098.25
464.96	8065.49
465.14	7992.93
465.32	8241.03
465.50	8009.31
465.69	8112.30
465.87	8376.78
466.05	8222.30
466.23	8226.98
466.41	8383.80
466.60	8245.71
466.78	8170.81
466.96	8229.32
467.14	8191.88
467.32	8180.17
467.51	8428.27
467.69	8287.84
467.87	8313.58
468.05	8449.33
468.23	8173.15
468.41	8416.57
468.60	8561.68
468.78	8554.66
468.96	8461.04
469.14	8765.31
469.32	8678.71
469.50	8470.40
469.69	8830.84
469.87	8716.16
470.05	8730.20
470.23	8702.11
470.41	8823.82
470.59	8812.12
470.77	8695.09
470.95	8856.59
471.14	9043.83
471.32	8777.01
471.50	8957.23
471.68	8950.21
471.86	9200.65
472.04	9217.03
472.22	9221.71
472.40	9053.19
472.58	9462.79
472.77	9345.76
472.95	9380.87
473.13	9610.24
473.31	9476.83
473.49	9558.75
473.67	9420.66
473.85	9547.05
474.03	9888.76
474.21	9961.32
474.39	9851.31
474.57	9762.37
474.75	9921.53
474.93	10026.86
475.12	9940.26
475.30	10181.33
475.48	9753.01
475.66	10087.71
475.84	10010.47
476.02	10340.49
476.20	10176.65
476.38	10530.07
476.56	10637.73
476.74	10635.39
476.92	10431.77
477.10	10462.19
477.28	10679.86
477.46	10827.32
477.64	10785.19
477.82	10956.05
478.00	11250.96
478.18	11026.26
478.36	11309.47
478.54	11461.60
478.72	11485.01
478.90	11475.65
479.08	11894.60
479.26	11726.08
479.44	11637.14
479.62	11974.18
479.80	12074.82
479.98	12203.55
480.16	12194.19
480.34	12170.79
480.52	12374.41
480.70	12498.46
480.88	12241.00
481.06	12484.42
481.24	12498.46
481.41	12559.31
481.59	12531.23
481.77	12833.16
481.95	12943.16
482.13	13144.45
482.31	12807.41
482.49	13380.84
482.67	13542.34
482.85	13584.47
483.03	13720.22
483.21	13834.91
483.39	13752.99
483.57	13706.18
483.74	14120.45
483.92	14148.54
484.10	14068.96
484.28	14792.19
484.46	14677.50
484.64	14717.29
484.82	14555.79
485.00	14710.27
485.18	14981.77
485.35	15379.66
485.53	15056.67
485.71	15431.15
485.89	15765.85
486.07	15604.35
486.25	15798.62
486.43	15772.87
486.61	15803.30
486.78	16049.05
486.96	16123.95
487.14	16137.99
487.32	15957.77
487.50	16528.86
487.68	16341.62
487.85	16477.37
488.03	16683.34
488.21	16992.29
488.39	17315.28
488.57	17647.64
488.75	17411.25
488.92	17600.83
489.10	17462.74
489.28	17530.61
489.46	17771.69
489.64	17759.98
489.81	18363.84
489.99	18162.56
490.17	18377.89
490.35	18251.50
490.53	18778.12
490.70	18625.98
490.88	18806.20
491.06	18951.32
491.24	19206.44
491.41	19225.16
491.59	19267.29
491.77	19351.55
491.95	19513.05
492.13	19789.23
492.30	19913.28
492.48	19763.48
492.66	20086.48
492.84	20044.35
493.01	20489.05
493.19	20152.01
493.37	20388.41
493.54	20688.00
493.72	20842.47
493.90	20556.93
494.08	20940.77
494.25	21446.33
494.43	20980.56
494.61	21401.86
494.79	21532.93
494.96	21551.65
495.14	21624.21
495.32	21902.73
495.49	21984.65
495.67	21909.75
495.85	22024.44
496.02	22527.66
496.20	22333.39
496.38	22537.02
496.55	22707.88
496.73	23110.45
496.91	23026.19
497.09	22780.43
497.26	22941.93
497.44	23152.58
497.62	23250.88
497.79	23857.08
497.97	23260.24
498.14	23828.99
498.32	23618.35
498.50	23740.05
498.67	24283.06
498.85	23878.15
499.03	24149.65
499.20	24240.93
499.38	24617.75
499.56	24334.55
499.73	24533.50
499.91	24783.93
500.08	25153.74
500.26	24402.43
500.44	24697.33
500.61	24720.74
500.79	24893.94
500.97	25165.44
501.14	25813.77
501.32	25338.64
501.49	25324.60
501.67	25282.47
501.84	26026.76
502.02	25282.47
502.20	25678.02
502.37	25972.92
502.55	26174.21
502.72	26064.21
502.90	26103.99
503.07	26448.05
503.25	26136.76
503.43	26326.35
503.60	26534.65
503.78	26408.26
503.95	26649.34
504.13	26981.70
504.30	26920.84
504.48	26731.26
504.65	26792.11
504.83	27431.08
505.01	27281.28
505.18	27204.05
505.36	27489.59
505.53	27517.68
505.71	27721.30
505.88	27557.47
506.06	27653.43
506.23	27758.75
506.41	27655.77
506.58	28360.27
506.76	28023.23
506.93	28037.28
507.11	27917.91
507.28	28388.36
507.46	28451.55
507.63	28727.74
507.81	28996.90
507.98	28250.27
508.16	28348.57
508.33	28823.70
508.50	29008.60
508.68	28907.96
508.85	28882.21
509.03	29160.73
509.20	29259.04
509.38	29474.37
509.55	29734.17
509.73	29486.07
509.90	29780.98
510.08	29900.34
510.25	29453.30
510.42	29860.55
510.60	30029.07
510.77	30148.44
510.95	30492.50
511.12	30160.14
511.30	30394.20
511.47	30494.84
511.64	30389.52
511.82	30649.32
511.99	30338.02
512.17	30302.92
512.34	31084.65
512.51	30813.15
512.69	30775.70
512.86	30691.44
513.04	31257.85
513.21	31185.30
513.38	31592.55
513.56	31721.28
513.73	31278.92
513.90	31374.88
514.08	31325.73
514.25	31819.58
514.43	31716.60
514.60	31730.64
514.77	31852.35
514.95	32044.27
515.12	31742.35
515.29	32208.11
515.47	32402.38
515.64	32144.92
515.81	32355.57
515.99	32261.94
516.16	32514.72
516.33	32381.31
516.51	32371.95
516.68	32538.13
516.85	32458.55
517.03	32996.87
517.20	32971.13
517.37	32907.93
517.54	33090.49
517.72	32921.98
517.89	32849.42
518.06	33057.73
518.24	33202.84
518.41	32994.53
518.58	33268.37
518.75	33308.16
518.93	33579.67
519.10	33631.16
519.27	33986.92
519.45	33675.63
519.62	33734.14
519.79	34036.07
519.96	34141.39
520.14	33926.07
520.31	34045.43
520.48	34007.98
520.65	34141.39
520.83	34766.32
521.00	35033.14
521.17	34485.45
521.34	34665.67
521.52	34747.59
521.69	34639.93
521.86	34897.39
522.03	34967.60
522.20	34948.88
522.38	35452.09
522.55	35030.80
522.72	35534.01
522.89	35283.58
523.07	35842.96
523.24	35679.13
523.41	35330.39
523.58	35283.58
523.75	35562.10
523.92	35676.79
524.10	35704.87
524.27	35922.54
524.44	36062.97
524.61	36430.44
524.78	35878.07
524.96	36531.08
525.13	36514.70
525.30	36868.12
525.47	36533.42
525.64	36364.90
525.81	36828.33
525.98	36687.90
526.16	36591.94
526.33	36275.96
526.50	36545.12
526.67	36383.63
526.84	36924.29
527.01	37024.93
527.18	36449.16
527.36	37036.64
527.53	37303.46
527.70	37963.49
527.87	37450.91
528.04	37497.72
528.21	37343.25
528.38	37247.29
528.55	37610.07
528.72	37200.47
528.89	37186.43
529.07	37776.25
529.24	37347.93
529.41	37675.60
529.58	37762.20
529.75	37713.05
529.92	38211.59
530.09	37979.87
530.26	37907.32
530.43	38508.83
530.60	37862.85
530.77	37979.87
530.94	38010.30
531.11	37535.17
531.28	38281.80
531.46	38242.01
531.63	38223.29
531.80	38506.49
531.97	38382.45
532.14	38485.43
532.31	38656.29
532.48	38581.39
532.65	38733.53
532.82	38787.36
532.99	39061.20
533.16	39122.05
533.33	38841.19
533.50	39110.35
533.67	39016.73
533.84	38855.23
534.01	39180.57
534.18	39232.06
534.35	39601.86
534.52	39494.20
534.69	39746.98
534.86	39693.15
535.03	39290.57
535.20	39761.02
535.37	39676.76
535.54	39828.90
535.71	39693.15
535.88	40030.18
536.05	39735.27
536.22	39924.86
536.38	40360.20
536.55	39910.82
536.72	40140.19
536.89	40067.63
537.06	39910.82
537.23	40631.70
537.40	40154.23
537.57	40013.80
537.74	40062.95
537.91	40519.35
538.08	40177.64
538.25	40095.72
538.42	40140.19
538.59	40664.47
538.75	40697.24
538.92	40830.65
539.09	40907.88
539.26	40343.81
539.43	41198.11
539.60	40950.01
539.77	40931.29
539.94	40601.27
540.11	40858.73
540.28	41148.96
540.44	41003.85
540.61	41148.96
540.78	41134.92
540.95	41415.78
541.12	41378.33
541.29	41083.42
541.46	41123.21
541.62	41429.82
541.79	41237.90
541.96	41088.10
542.13	40870.43
542.30	41385.35
542.47	41841.76
542.63	41511.74
542.80	42068.79
542.97	42178.79
543.14	41858.14
543.31	41993.89
543.48	42377.74
543.64	42450.30
543.81	42181.13
543.98	42616.47
544.15	42351.99
544.32	42417.53
544.48	42721.80
544.65	42230.29
544.82	42792.01
544.99	42183.48
545.16	42782.65
545.32	42347.31
545.49	42965.21
545.66	42560.30
545.83	42768.61
546.00	43257.78
546.16	42969.90
546.33	42754.57
546.50	43084.58
546.67	42906.70
546.83	42625.84
547.00	42735.84
547.17	42944.15
547.34	42808.40
547.50	43459.07
547.67	43833.55
547.84	43428.64
548.00	43440.34
548.17	43697.80
548.34	43225.01
548.51	43526.94
548.67	43533.96
548.84	43882.70
549.01	43524.60
549.18	43789.08
549.34	43753.97
549.51	43952.92
549.68	43639.29
549.84	43899.09
550.01	43922.49
550.18	43737.59
550.34	43810.15
550.51	43995.05
550.68	44058.24
550.84	43849.94
551.01	44107.40
551.18	43882.70
551.34	44252.51
551.51	44278.25
551.68	44378.90
551.84	43838.23
552.01	43833.55
552.18	44271.23
552.34	44044.20
552.51	44280.60
552.68	44257.19
552.84	44467.84
553.01	44285.28
553.18	44194.00
553.34	44189.31
553.51	44353.15
553.67	44821.26
553.84	44636.36
554.01	44715.93
554.17	44734.66
554.34	44755.72
554.51	44935.95
554.67	44893.82
554.84	45120.85
555.00	44989.78
555.17	44961.69
555.33	45195.74
555.50	44964.03
555.67	45146.59
555.83	45170.00
556.00	45031.91
556.16	45385.33
556.33	45155.96
556.50	45074.04
556.66	44872.75
556.83	45132.55
556.99	45406.39
557.16	45532.78
557.32	45509.38
557.49	45827.69
557.65	45219.15
557.82	45198.09
557.98	45390.01
558.15	45404.05
558.32	45914.29
558.48	45500.01
558.65	45631.08
558.81	45310.43
558.98	45382.99
559.14	45413.41
559.31	45455.54
559.47	45865.14
559.64	46131.96
559.80	45434.48
559.97	45942.38
560.13	45567.89
560.30	46017.27
560.46	46326.22
560.63	45904.93
560.79	46309.84
560.96	46047.70
561.12	46153.02
561.29	45766.84
561.45	46007.91
561.61	46188.13
561.78	45972.80
561.94	45600.66
562.11	46234.94
562.27	45958.76
562.44	46148.34
562.60	46003.23
562.77	46628.15
562.93	45869.82
563.10	46279.41
563.26	46358.99
563.42	46707.73
563.59	46534.53
563.75	46351.97
563.92	45865.14
564.08	46246.65
564.24	46267.71
564.41	46373.03
564.57	46508.79
564.74	46108.55
564.90	46452.61
565.07	46227.92
565.23	46485.38
565.39	46298.14
565.56	46344.95
565.72	46316.86
565.88	46756.88
566.05	46714.75
566.21	46085.15
566.38	46293.46
566.54	46632.83
566.70	46279.41
566.87	46705.39
567.03	46131.96
567.19	47248.39
567.36	46770.93
567.52	46972.21
567.68	47072.85
567.85	46925.40
568.01	46976.89
568.17	46857.52
568.34	47065.83
568.50	46965.19
568.66	46211.54
568.83	46822.42
568.99	46660.92
569.15	46698.37
569.32	46431.55
569.48	46712.41
569.64	47110.30
569.81	47224.99
569.97	46838.80
570.13	47126.69
570.30	46887.95
570.46	46726.46
570.62	46799.01
570.78	47285.84
570.95	47257.76
571.11	47342.02
571.27	46932.42
571.43	47030.72
571.60	46681.98
571.76	47040.09
571.92	46885.61
572.09	46649.22
572.25	46941.78
572.41	46955.83
572.57	47065.83
572.74	47281.16
572.90	47086.90
573.06	47386.49
573.22	47161.79
573.38	47454.36
573.55	47327.97
573.71	47573.73
573.87	47257.76
574.03	47086.90
574.20	47140.73
574.36	47154.77
574.52	47400.53
574.68	47295.21
574.84	47578.41
575.01	47365.42
575.17	47419.25
575.33	47573.73
575.49	47079.88
575.65	47505.85
575.82	47246.05
575.98	47374.78
576.14	47365.42
576.30	47466.06
576.46	47405.21
576.62	47269.46
576.79	47299.89
576.95	46649.22
577.11	46911.36
577.27	47608.84
577.43	47423.93
577.59	47344.36
577.75	47292.86
577.92	47086.90
578.08	47339.68
578.24	47407.55
578.40	47676.71
578.56	47562.03
578.72	48048.86
578.88	47150.09
579.04	47208.61
579.21	47786.72
579.37	47227.33
579.53	47484.79
579.69	47531.60
579.85	47475.43
580.01	47515.22
580.17	47213.29
580.33	47793.74
580.49	47459.04
580.65	47508.19
580.82	47484.79
580.98	47206.26
581.14	47110.30
581.30	47901.40
581.46	47559.69
581.62	47306.91
581.78	47309.25
581.94	47552.66
582.10	47330.31
582.26	47608.84
582.42	47412.23
582.58	47688.42
582.74	47599.47
582.90	47892.04
583.06	47693.10
583.22	47625.22
583.38	47454.36
583.54	47760.97
583.70	48254.82
583.86	47737.57
584.02	47665.01
584.18	47798.42
584.34	48018.43
584.50	47592.45
584.66	47908.43
584.82	47587.77
584.98	48456.11
585.14	47655.65
585.30	47744.59
585.46	47976.30
585.62	47760.97
585.78	47915.45
585.94	47269.46
586.10	47753.95
586.26	47531.60
586.42	47679.05
586.58	47526.92
586.74	47805.44
586.90	47601.82
587.06	47889.70
587.22	47672.03
587.38	47412.23
587.54	48308.66
587.70	48224.40
587.86	48079.28
588.02	47683.73
588.18	47683.73
588.34	48226.74
588.49	47831.19
588.65	47725.86
588.81	47737.57
588.97	47718.84
589.13	48011.41
589.29	47870.98
589.45	48205.67
589.61	48018.43
589.77	48215.04
589.93	48072.26
