SpectraSuite Data File
++++++++++++++++++++++++++++++++++++
Date: Fri Oct 25 11:33:08 EDT 2013
User: price-jones
Dark Spectrum Present: No
Reference Spectrum Present: No
Number of Sampled Component Spectra: 1
Spectrometers: USB2+H05261
Integration Time (usec): 100000 (USB2+H05261)
Spectra Averaged: 1 (USB2+H05261)
Boxcar Smoothing: 0 (USB2+H05261)
Correct for Electrical Dark: No (USB2+H05261)
Strobe/Lamp Enabled: No (USB2+H05261)
Correct for Detector Non-linearity: No (USB2+H05261)
Correct for Stray Light: No (USB2+H05261)
Number of Pixels in Processed Spectrum: 2048
>>>>>Begin Processed Spectral Data<<<<<
365.73	322.99
365.92	322.99
366.12	322.99
366.32	257.46
366.52	135.75
366.72	154.48
366.91	191.92
367.11	159.16
367.31	170.86
367.51	173.20
367.70	126.39
367.90	161.50
368.10	201.29
368.30	147.45
368.49	175.54
368.69	175.54
368.89	212.99
369.09	234.05
369.28	227.03
369.48	196.60
369.68	330.02
369.87	330.02
370.07	243.42
370.27	308.95
370.47	301.93
370.66	447.04
370.86	475.13
371.06	517.26
371.25	599.18
371.45	582.79
371.65	568.75
371.84	531.30
372.04	507.90
372.24	667.05
372.44	580.45
372.63	589.82
372.83	545.34
373.03	580.45
373.22	660.03
373.42	568.75
373.62	594.50
373.81	608.54
374.01	627.26
374.21	664.71
374.40	627.26
374.60	720.88
374.79	730.25
374.99	699.82
375.19	660.03
375.38	580.45
375.58	653.01
375.78	650.67
375.97	697.48
376.17	676.41
376.37	653.01
376.56	704.50
376.76	629.60
376.95	638.97
377.15	690.46
377.35	676.41
377.54	704.50
377.74	622.58
377.93	660.03
378.13	781.74
378.33	706.84
378.52	667.05
378.72	685.78
378.91	748.97
379.11	786.42
379.31	671.73
379.50	692.80
379.70	732.59
379.89	844.93
380.09	772.38
380.28	648.33
380.48	744.29
380.68	800.46
380.87	763.01
381.07	660.03
381.26	765.36
381.46	816.85
381.65	697.48
381.85	763.01
382.04	737.27
382.24	767.70
382.43	840.25
382.63	753.65
382.83	746.63
383.02	798.12
383.22	840.25
383.41	758.33
383.61	748.97
383.80	814.51
384.00	901.11
384.19	868.34
384.39	781.74
384.58	840.25
384.78	763.01
384.97	821.53
385.17	847.27
385.36	849.61
385.56	816.85
385.75	866.00
385.95	805.14
386.14	891.74
386.34	849.61
386.53	851.96
386.72	880.04
386.92	856.64
387.11	929.19
387.31	889.40
387.50	1013.45
387.70	884.72
387.89	891.74
388.09	905.79
388.28	961.96
388.48	847.27
388.67	1015.79
388.86	894.08
389.06	903.45
389.25	994.73
389.45	945.58
389.64	933.87
389.84	1050.90
390.03	973.66
390.22	1022.81
390.42	964.30
390.61	976.00
390.81	940.90
391.00	987.71
391.19	1057.92
391.39	1076.65
391.58	1095.37
391.78	926.85
391.97	1076.65
392.16	1013.45
392.36	1062.60
392.55	1036.86
392.75	1078.99
392.94	1006.43
393.13	985.37
393.33	1123.46
393.52	1046.22
393.71	1078.99
393.91	1125.80
394.10	983.02
394.29	1062.60
394.49	1137.50
394.68	1125.80
394.88	1109.41
395.07	1172.61
395.26	1184.31
395.46	1121.12
395.65	1144.52
395.84	1221.76
396.04	1198.35
396.23	1165.59
396.42	1261.55
396.62	1238.14
396.81	1242.82
397.00	1184.31
397.19	1308.36
397.39	1174.95
397.58	1299.00
397.77	1263.89
397.97	1362.19
398.16	1205.38
398.35	1399.64
398.55	1242.82
398.74	1198.35
398.93	1413.68
399.12	1366.87
399.32	1291.98
399.51	1411.34
399.70	1287.29
399.90	1397.30
400.09	1432.41
400.28	1327.08
400.47	1348.15
400.67	1404.32
400.86	1423.05
401.05	1540.07
401.24	1383.26
401.44	1390.28
401.63	1420.71
401.82	1444.11
402.01	1406.66
402.21	1427.73
402.40	1507.30
402.59	1500.28
402.78	1472.20
402.97	1547.09
403.17	1577.52
403.36	1474.54
403.55	1600.93
403.74	1614.97
403.93	1645.40
404.13	1565.82
404.32	1556.46
404.51	1619.65
404.70	1673.48
404.89	1645.40
405.09	1617.31
405.28	1729.66
405.47	1692.21
405.66	1755.40
405.85	1724.97
406.05	1764.76
406.24	1757.74
406.43	1856.04
406.62	1755.40
406.81	1799.87
407.00	1703.91
407.20	1834.98
407.39	1877.11
407.58	1849.02
407.77	1851.36
407.96	1832.64
408.15	1930.94
408.34	1886.47
408.54	1825.62
408.73	1834.98
408.92	2043.29
409.11	1980.09
409.30	2012.86
409.49	1984.77
409.68	1987.11
409.87	1944.99
410.07	2047.97
410.26	2115.84
410.45	2083.08
410.64	2186.06
410.83	2115.84
411.02	2148.61
411.21	2157.97
411.40	2139.25
411.59	2190.74
411.78	2221.17
411.98	2237.55
412.17	2296.07
412.36	2406.07
412.55	2300.75
412.74	2244.57
412.93	2349.90
413.12	2216.49
413.31	2520.76
413.50	2434.16
413.69	2300.75
413.88	2445.86
414.07	2567.57
414.26	2527.78
414.45	2466.92
414.64	2530.12
414.83	2647.15
415.02	2635.44
415.22	2705.66
415.41	2649.49
415.60	2738.43
415.79	2677.57
415.98	2761.83
416.17	2747.79
416.36	2743.11
416.55	2733.75
416.74	2892.90
416.93	2913.97
417.12	2825.03
417.31	2946.73
417.50	2836.73
417.69	3070.78
417.88	2944.39
418.07	2871.84
418.26	2848.43
418.45	3054.40
418.64	3084.83
418.83	3002.91
419.02	3054.40
419.21	3068.44
419.39	3105.89
419.58	3089.51
419.77	3096.53
419.96	3255.69
420.15	3339.94
420.34	3101.21
420.53	3183.13
420.72	3262.71
420.91	3435.91
421.10	3417.18
421.29	3365.69
421.48	3194.83
421.67	3339.94
421.86	3286.11
422.05	3311.86
422.24	3286.11
422.43	3309.52
422.61	3353.99
422.80	3461.65
422.99	3555.27
423.18	3346.97
423.37	3447.61
423.56	3363.35
423.75	3389.10
423.94	3346.97
424.13	3276.75
424.32	3283.77
424.50	3501.44
424.69	3709.75
424.88	3590.38
425.07	3426.54
425.26	3302.50
425.45	3344.63
425.64	3421.86
425.83	3482.72
426.01	3503.78
426.20	3452.29
426.39	3375.05
426.58	3506.12
426.77	3515.48
426.96	3609.11
427.15	3541.23
427.33	3438.25
427.52	3620.81
427.71	3613.79
427.90	3651.24
428.09	3688.68
428.28	3702.73
428.46	3674.64
428.65	3772.94
428.84	3873.59
429.03	3798.69
429.22	3763.58
429.40	3749.54
429.59	3740.18
429.78	3662.94
429.97	3634.85
430.16	3904.01
430.34	3878.27
430.53	3885.29
430.72	3833.80
430.91	3889.97
431.10	3878.27
431.28	4046.79
431.47	3967.21
431.66	3906.35
431.85	3990.61
432.03	4166.15
432.22	4114.66
432.41	4084.23
432.60	4140.41
432.79	3995.29
432.97	4128.70
433.16	4142.75
433.35	4053.81
433.54	4133.39
433.72	4091.26
433.91	4308.93
434.10	4383.82
434.28	4194.24
434.47	4156.79
434.66	4332.33
434.85	4341.69
435.03	4353.40
435.22	4306.59
435.41	4451.70
435.59	4292.54
435.78	4641.28
435.97	4367.44
436.16	4397.87
436.34	4400.21
436.53	4582.77
436.72	4596.81
436.90	4395.53
437.09	4617.88
437.28	4418.93
437.46	4648.30
437.65	4744.27
437.84	4634.26
438.02	4643.62
438.21	4683.41
438.40	4528.94
438.58	4833.21
438.77	4791.08
438.96	4737.24
439.14	4737.24
439.33	4940.87
439.52	4809.80
439.70	5008.75
439.89	5085.98
440.08	5132.79
440.26	5104.71
440.45	5174.92
440.63	5004.07
440.82	5240.46
441.01	5284.93
441.19	5240.46
441.38	5324.72
441.57	5224.08
441.75	5373.87
441.94	5376.21
442.12	5523.66
442.31	5437.06
442.50	5427.70
442.68	5357.49
442.87	5399.62
443.05	5509.62
443.24	5657.07
443.43	5488.56
443.61	5558.77
443.80	5797.51
443.98	5408.98
444.17	5476.85
444.35	5717.93
444.54	5729.63
444.73	5673.46
444.91	5816.23
445.10	5797.51
445.28	5631.33
445.47	5533.03
445.65	5905.17
445.84	5816.23
446.02	5633.67
446.21	5856.02
446.39	5858.36
446.58	5898.15
446.77	5753.04
446.95	5596.22
447.14	5839.64
447.32	5846.66
447.51	5769.42
447.69	5844.32
447.88	5738.99
448.06	5884.11
448.25	5907.51
448.43	5823.25
448.62	5898.15
448.80	5741.33
448.99	5846.66
449.17	5959.00
449.36	6054.97
449.54	6143.91
449.73	6017.52
449.91	6291.36
450.10	5989.43
450.28	6141.57
450.46	6050.28
450.65	6052.63
450.83	6246.89
451.02	6284.34
451.20	6286.68
451.39	6174.33
451.57	6303.06
451.76	6122.84
451.94	6230.51
452.13	6298.38
452.31	6310.08
452.49	6209.44
452.68	6384.98
452.86	6328.81
453.05	6532.44
453.23	6347.53
453.42	6347.53
453.60	6436.47
453.78	6623.72
453.97	6380.30
454.15	6572.22
454.34	6307.74
454.52	6647.12
454.70	6471.58
454.89	6656.48
455.07	6656.48
455.26	6750.10
455.44	6780.53
455.62	6427.11
455.81	6825.00
455.99	6792.23
456.17	6885.86
456.36	6860.11
456.54	6881.18
456.73	7009.90
456.91	7070.76
457.09	7023.95
457.28	7098.84
457.46	7061.40
457.64	7241.62
457.83	6918.62
458.01	6937.35
458.19	7337.58
458.38	7136.29
458.56	7169.06
458.74	7232.26
458.93	7384.39
459.11	7325.88
459.29	7318.86
459.48	7346.94
459.66	7412.48
459.84	7466.31
460.03	7639.51
460.21	7515.46
460.39	7475.67
460.57	7370.35
460.76	7492.05
460.94	7545.89
461.12	7534.18
461.31	7620.78
461.49	7627.81
461.67	7592.70
461.85	7990.59
462.04	7679.30
462.22	8182.51
462.40	7948.46
462.59	7712.07
462.77	7702.70
462.95	7929.74
463.13	7976.55
463.32	7995.27
463.50	7901.65
463.68	7824.41
463.86	8077.19
464.05	7882.92
464.23	8053.78
464.41	8121.66
464.59	7955.48
464.78	8252.73
464.96	8152.09
465.14	8067.83
465.32	8091.23
465.50	8184.85
465.69	8262.09
465.87	8245.71
466.05	7992.93
466.23	8351.03
466.41	8170.81
466.60	8451.67
466.78	8269.11
466.96	8325.29
467.14	8138.04
467.32	8205.92
467.51	8351.03
467.69	8182.51
467.87	8294.86
468.05	8411.89
468.23	8505.51
468.41	8439.97
468.60	8491.46
468.78	8531.25
468.96	8379.12
469.14	8631.90
469.32	8610.83
469.50	8472.74
469.69	8762.97
469.87	8943.19
470.05	8744.24
470.23	8954.89
470.41	8837.86
470.59	8975.95
470.77	8980.64
470.95	8891.70
471.14	9254.48
471.32	8929.14
471.50	9083.62
471.68	9280.22
471.86	9210.01
472.04	9263.84
472.22	9343.42
472.40	9231.07
472.58	9212.35
472.77	9282.56
472.95	9331.72
473.13	9865.36
473.31	9411.29
473.49	9638.33
473.67	9303.63
473.85	9605.56
474.03	9832.59
474.21	9760.03
474.39	9881.74
474.57	9940.26
474.75	9944.94
474.93	9902.81
475.12	9966.00
475.30	10263.25
475.48	10253.89
475.66	10181.33
475.84	10153.24
476.02	10225.80
476.20	10490.28
476.38	10595.61
476.56	10778.17
476.74	10494.96
476.92	10518.37
477.10	10609.65
477.28	10853.06
477.46	10740.72
477.64	10895.19
477.82	11035.63
478.00	11269.68
478.18	11136.27
478.36	11538.84
478.54	11337.56
478.72	11461.60
478.90	11386.71
479.08	11587.99
479.26	11943.75
479.44	11833.75
479.62	11964.82
479.80	11929.71
479.98	12140.36
480.16	12587.40
480.34	11906.31
480.52	12250.36
480.70	12435.27
480.88	12161.42
481.06	12805.07
481.24	12189.51
481.41	12709.11
481.59	12938.48
481.77	13067.21
481.95	12751.24
482.13	13242.75
482.31	13046.15
482.49	13317.65
482.67	13268.50
482.85	13736.60
483.03	13762.35
483.21	13809.16
483.39	14005.77
483.57	13891.08
483.74	13975.34
483.92	13989.38
484.10	14108.75
484.28	14492.60
484.46	14724.31
484.64	14752.40
484.82	14633.03
485.00	14705.59
485.18	15033.26
485.35	15019.22
485.53	14972.41
485.71	15241.57
485.89	15534.14
486.07	15386.68
486.25	15726.06
486.43	15672.23
486.61	15770.53
486.78	16009.26
486.96	16149.70
487.14	16198.85
487.32	16339.28
487.50	16362.69
487.68	16269.06
487.85	16783.98
488.03	16966.54
488.21	17247.41
488.39	17212.30
488.57	17195.92
488.75	17287.20
488.92	17458.06
489.10	17769.35
489.28	17593.81
489.46	17975.31
489.64	17673.39
489.81	18340.44
489.99	18300.65
490.17	18216.39
490.35	18387.25
490.53	18757.05
490.70	18951.32
490.88	18693.86
491.06	18885.78
491.24	18963.02
491.41	19126.86
491.59	19461.55
491.77	19396.02
491.95	19850.08
492.13	19417.08
492.30	19887.53
492.48	19796.25
492.66	20283.08
492.84	19756.46
493.01	20540.54
493.19	20231.59
493.37	20526.50
493.54	20514.80
493.72	21120.99
493.90	20809.70
494.08	20980.56
494.25	21057.80
494.43	21303.56
494.61	21406.54
494.79	21579.74
494.96	21125.68
495.14	21816.13
495.32	21912.10
495.49	21886.35
495.67	21860.60
495.85	22232.75
496.02	22263.18
496.20	22466.80
496.38	22530.00
496.55	22614.26
496.73	23356.21
496.91	23307.05
497.09	22984.06
497.26	22974.70
497.44	23117.47
497.62	23424.08
497.79	23424.08
497.97	23590.26
498.14	23864.10
498.32	24198.80
498.50	23737.71
498.67	24180.07
498.85	24159.01
499.03	24149.65
499.20	24278.38
499.38	24318.17
499.56	24737.12
499.73	24379.02
499.91	24851.81
500.08	24753.51
500.26	24945.43
500.44	25017.99
500.61	24922.02
500.79	24797.98
500.97	25083.52
501.14	25504.82
501.32	25659.29
501.49	25392.47
501.67	25947.18
501.84	25883.98
502.02	25748.23
502.20	25748.23
502.37	26113.36
502.55	25666.31
502.72	26389.54
502.90	26333.37
503.07	25919.09
503.25	26178.89
503.43	26218.68
503.60	27087.02
503.78	26602.53
503.95	26754.66
504.13	27117.45
504.30	26902.12
504.48	27115.11
504.65	27089.36
504.83	27204.05
505.01	27402.99
505.18	27438.10
505.36	27611.30
505.53	27426.40
505.71	27997.49
505.88	27733.01
506.06	27384.27
506.23	27950.68
506.41	27564.49
506.58	27985.79
506.76	27910.89
506.93	28210.48
507.11	27903.87
507.28	28112.17
507.46	28755.82
507.63	28744.12
507.81	28524.11
507.98	28643.48
508.16	28610.71
508.33	29191.16
508.50	28840.08
508.68	29092.86
508.85	29188.82
509.03	28975.83
509.20	29177.12
509.38	29457.98
509.55	29486.07
509.73	29680.33
509.90	29319.89
510.08	29699.06
510.25	29481.39
510.42	29890.98
510.60	29818.42
510.77	30026.73
510.95	30164.82
511.12	30143.76
511.30	29984.60
511.47	30607.19
511.64	30305.26
511.82	30677.40
511.99	30618.89
512.17	30902.09
512.34	30799.11
512.51	30824.86
512.69	30831.88
512.86	30974.65
513.04	31108.06
513.21	31239.13
513.38	31356.16
513.56	31269.56
513.73	31381.90
513.90	31501.27
514.08	31417.01
514.25	31896.82
514.43	32301.73
514.60	32320.46
514.77	32025.55
514.95	32032.57
515.12	31995.12
515.29	32444.51
515.47	32393.01
515.64	32524.08
515.81	32341.52
515.99	32484.30
516.16	32769.84
516.33	32678.56
516.51	32671.54
516.68	32907.93
516.85	32856.44
517.03	32943.04
517.20	33116.24
517.37	33364.34
517.54	33174.75
517.72	32823.67
517.89	33296.46
518.06	33352.63
518.24	33537.54
518.41	33532.86
518.58	33514.13
518.75	33200.50
518.93	33661.58
519.10	33324.55
519.27	33909.68
519.45	33874.57
519.62	34010.32
519.79	33806.70
519.96	33839.47
520.14	34235.02
520.31	33858.19
520.48	34541.63
520.65	34298.21
520.83	34754.61
521.00	34403.53
521.17	34646.95
521.34	34628.23
521.52	34972.28
521.69	34724.19
521.86	34885.68
522.03	34974.63
522.20	35618.27
522.38	35304.64
522.55	35257.83
522.72	35161.87
522.89	35358.47
523.07	35936.59
523.24	35526.99
523.41	36020.84
523.58	35716.58
523.75	36051.27
523.92	35409.96
524.10	35756.36
524.27	35964.67
524.44	35548.06
524.61	36109.78
524.78	35894.46
524.96	36467.89
525.13	36477.25
525.30	36329.80
525.47	36409.37
525.64	36079.36
525.81	36821.31
525.98	36566.19
526.16	36346.18
526.33	36381.29
526.50	37127.92
526.67	36610.66
526.84	36980.46
527.01	36840.03
527.18	36978.12
527.36	36947.70
527.53	36975.78
527.70	37577.30
527.87	37855.82
528.04	37462.61
528.21	37301.12
528.38	37336.23
528.55	37797.31
528.72	37333.89
528.89	37715.39
529.07	37074.09
529.24	37600.71
529.41	37827.74
529.58	37823.06
529.75	37324.52
529.92	37848.80
530.09	37944.76
530.26	38078.18
530.43	38333.29
530.60	37872.21
530.77	37860.51
530.94	38178.82
531.11	38181.16
531.28	38225.63
531.46	38312.23
531.63	38445.64
531.80	38684.37
531.97	38672.67
532.14	38808.42
532.31	38735.87
532.48	38796.72
532.65	39086.95
532.82	38593.09
532.99	38703.10
533.16	39384.19
533.33	38866.94
533.50	39442.71
533.67	39145.46
533.84	39138.44
534.01	39157.16
534.18	39009.71
534.35	40025.50
534.52	39608.89
534.69	39288.23
534.86	39690.80
535.03	39346.75
535.20	40210.40
535.37	39978.69
535.54	39887.41
535.71	39936.56
535.88	40067.63
536.05	39718.89
536.22	40128.48
536.38	39842.94
536.55	39945.92
536.72	40795.54
536.89	39952.94
537.06	40084.01
537.23	40638.72
537.40	39882.73
537.57	40669.15
537.74	40582.55
537.91	40760.43
538.08	40383.60
538.25	40360.20
538.42	40517.01
538.59	40849.37
538.75	40678.51
538.92	40917.25
539.09	40926.61
539.26	40371.90
539.43	41209.81
539.60	41137.26
539.77	41008.53
539.94	41125.55
540.11	40935.97
540.28	41296.41
540.44	40823.62
540.61	40917.25
540.78	41076.40
540.95	41605.36
541.12	40898.52
541.29	41223.86
541.46	41640.47
541.62	41607.70
541.79	41603.02
541.96	41474.29
542.13	41471.95
542.30	41420.46
542.47	41769.20
542.63	41745.80
542.80	41792.61
542.97	42363.70
543.14	42089.85
543.31	41724.73
543.48	42143.69
543.64	42433.91
543.81	42443.27
543.98	42497.11
544.15	42555.62
544.32	42541.58
544.48	42656.26
544.65	42445.62
544.82	42508.81
544.99	42691.37
545.16	42586.05
545.32	42452.64
545.49	42944.15
545.66	43313.95
545.83	42993.30
546.00	42918.40
546.16	42843.51
546.33	42644.56
546.50	42719.46
546.67	43166.50
546.83	42731.16
547.00	43028.41
547.17	43037.77
547.34	42897.34
547.50	43295.23
547.67	43908.45
547.84	43779.72
548.00	43601.84
548.17	43545.67
548.34	43402.89
548.51	43384.17
548.67	43480.13
548.84	43421.62
549.01	43559.71
549.18	43409.92
549.34	43896.75
549.51	43910.79
549.68	44011.43
549.84	43515.24
550.01	43995.05
550.18	43625.25
550.34	43807.81
550.51	44154.21
550.68	44243.15
550.84	43957.60
551.01	44130.80
551.18	44196.34
551.34	43824.19
551.51	43782.06
551.68	44423.37
551.84	44196.34
552.01	43709.50
552.18	44505.29
552.34	44212.72
552.51	44186.97
552.68	44582.52
552.84	44465.50
553.01	44414.01
553.18	43880.36
553.34	44732.32
553.51	44650.40
553.67	44748.70
553.84	44772.11
554.01	44844.66
554.17	44568.48
554.34	44769.77
554.51	45125.53
554.67	45024.89
554.84	45177.02
555.00	44680.83
555.17	44652.74
555.33	45097.44
555.50	45001.48
555.67	45027.23
555.83	44980.42
556.00	44762.75
556.16	45654.49
556.33	44975.73
556.50	45153.62
556.66	45528.10
556.83	44839.98
556.99	45310.43
557.16	45759.81
557.32	45371.28
557.49	45490.65
557.65	45443.84
557.82	45682.58
557.98	45481.29
558.15	45191.06
558.32	46113.23
558.48	45404.05
558.65	45603.00
558.81	45560.87
558.98	45607.68
559.14	45584.27
559.31	45542.14
559.47	45759.81
559.64	45635.77
559.80	45954.08
559.97	46241.96
560.13	45907.27
560.30	45488.31
560.46	46007.91
560.63	45996.21
560.79	46307.50
560.96	46347.29
561.12	46150.68
561.29	46459.63
561.45	46115.58
561.61	46101.53
561.78	45759.81
561.94	46080.47
562.11	46162.39
562.27	46281.75
562.44	46227.92
562.60	46024.29
562.77	46082.81
562.93	45839.39
563.10	46841.14
563.26	46019.61
563.42	46586.02
563.59	45839.39
563.75	46019.61
563.92	46312.18
564.08	46064.08
564.24	46674.96
564.41	46405.80
564.57	46396.44
564.74	46026.63
564.90	46618.79
565.07	46454.95
565.23	46181.11
565.39	46770.93
565.56	46698.37
565.72	46616.45
565.88	46609.43
566.05	46234.94
566.21	46761.56
566.38	46618.79
566.54	46562.62
566.70	46850.50
566.87	46672.62
567.03	46674.96
567.19	47227.33
567.36	46756.88
567.52	46728.80
567.68	46670.28
567.85	46902.00
568.01	47152.43
568.17	46841.14
568.34	46714.75
568.50	46742.84
568.66	46864.55
568.83	46761.56
568.99	46937.10
569.15	46932.42
569.32	46791.99
569.48	46637.51
569.64	47281.16
569.81	47033.07
569.97	47089.24
570.13	47199.24
570.30	46958.17
570.46	46974.55
570.62	47187.54
570.78	47194.56
570.95	47222.65
571.11	47475.43
571.27	46733.48
571.43	46557.94
571.60	47316.27
571.76	46997.96
571.92	46974.55
572.09	46625.81
572.25	47253.08
572.41	46703.05
572.57	46932.42
572.74	47484.79
572.90	47182.86
573.06	47290.52
573.22	47533.94
573.38	46885.61
573.55	47618.20
573.71	47498.83
573.87	47283.50
574.03	47079.88
574.20	47480.11
574.36	47470.75
574.52	47423.93
574.68	47487.13
574.84	47477.77
575.01	47208.61
575.17	47505.85
575.33	47320.95
575.49	47339.68
575.65	47030.72
575.82	47592.45
575.98	47590.11
576.14	47707.14
576.30	47878.00
576.46	47370.10
576.62	47337.33
576.79	47758.63
576.95	47035.41
577.11	47229.67
577.27	47555.00
577.43	47297.55
577.59	47566.71
577.75	47512.88
577.92	47255.42
578.08	47739.91
578.24	47232.01
578.40	47540.96
578.56	47753.95
578.72	47435.64
578.88	47641.60
579.04	47655.65
579.21	47873.32
579.37	47140.73
579.53	47702.46
579.69	47538.62
579.85	47173.50
580.01	47583.09
580.17	47384.15
580.33	47562.03
580.49	47775.02
580.65	47976.30
580.82	47543.30
580.98	47683.73
581.14	47168.82
581.30	47540.96
581.46	47714.16
581.62	46969.87
581.78	47494.15
581.94	47697.78
582.10	47608.84
582.26	47505.85
582.42	47440.32
582.58	47758.63
582.74	47725.86
582.90	47803.10
583.06	48126.10
583.22	47597.13
583.38	47627.56
583.54	48002.05
583.70	47796.08
583.86	47718.84
584.02	47196.90
584.18	47866.30
584.34	47686.07
584.50	47908.43
584.66	48067.58
584.82	47845.23
584.98	48233.76
585.14	47482.45
585.30	47632.24
585.46	47924.81
585.62	47819.49
585.78	47992.68
585.94	47051.79
586.10	47564.37
586.26	47475.43
586.42	47772.67
586.58	47643.94
586.74	47676.71
586.90	47650.97
587.06	47782.04
587.22	47655.65
587.38	47430.96
587.54	47910.77
587.70	48186.95
587.86	48067.58
588.02	47751.61
588.18	47782.04
588.34	47657.99
588.49	47906.08
588.65	47985.66
588.81	47805.44
588.97	48107.37
589.13	47327.97
589.29	48250.14
589.45	48231.42
589.61	48062.90
589.77	48172.91
589.93	47950.56
