SpectraSuite Data File
++++++++++++++++++++++++++++++++++++
Date: Fri Oct 25 11:33:12 EDT 2013
User: price-jones
Dark Spectrum Present: No
Reference Spectrum Present: No
Number of Sampled Component Spectra: 1
Spectrometers: USB2+H05261
Integration Time (usec): 100000 (USB2+H05261)
Spectra Averaged: 1 (USB2+H05261)
Boxcar Smoothing: 0 (USB2+H05261)
Correct for Electrical Dark: No (USB2+H05261)
Strobe/Lamp Enabled: No (USB2+H05261)
Correct for Detector Non-linearity: No (USB2+H05261)
Correct for Stray Light: No (USB2+H05261)
Number of Pixels in Processed Spectrum: 2048
>>>>>Begin Processed Spectral Data<<<<<
365.73	227.03
365.92	227.03
366.12	227.03
366.32	278.52
366.52	147.45
366.72	215.33
366.91	222.35
367.11	142.77
367.31	124.05
367.51	126.39
367.70	203.63
367.90	236.39
368.10	191.92
368.30	81.92
368.49	184.90
368.69	241.08
368.89	208.31
369.09	173.20
369.28	212.99
369.48	173.20
369.68	257.46
369.87	231.71
370.07	290.23
370.27	322.99
370.47	322.99
370.66	486.83
370.86	540.66
371.06	533.64
371.25	491.51
371.45	463.43
371.65	578.11
371.84	664.71
372.04	528.96
372.24	573.43
372.44	608.54
372.63	582.79
372.83	587.47
373.03	660.03
373.22	674.07
373.42	648.33
373.62	653.01
373.81	634.29
374.01	688.12
374.21	695.14
374.40	592.16
374.60	683.44
374.79	692.80
374.99	655.35
375.19	648.33
375.38	655.35
375.58	638.97
375.78	713.86
375.97	711.52
376.17	741.95
376.37	676.41
376.56	713.86
376.76	664.71
376.95	681.10
377.15	617.90
377.35	709.18
377.54	676.41
377.74	671.73
377.93	713.86
378.13	748.97
378.33	720.88
378.52	695.14
378.72	727.91
378.91	739.61
379.11	739.61
379.31	685.78
379.50	746.63
379.70	763.01
379.89	748.97
380.09	704.50
380.28	798.12
380.48	739.61
380.68	760.67
380.87	798.12
381.07	819.19
381.26	748.97
381.46	793.44
381.65	805.14
381.85	786.42
382.04	788.76
382.24	788.76
382.43	786.42
382.63	739.61
382.83	786.42
383.02	786.42
383.22	889.40
383.41	807.48
383.61	798.12
383.80	784.08
384.00	833.23
384.19	784.08
384.39	880.04
384.58	791.10
384.78	884.72
384.97	847.27
385.17	800.46
385.36	828.55
385.56	812.17
385.75	767.70
385.95	816.85
386.14	971.32
386.34	936.21
386.53	795.78
386.72	903.45
386.92	880.04
387.11	812.17
387.31	884.72
387.50	840.25
387.70	861.32
387.89	945.58
388.09	868.34
388.28	870.68
388.48	940.90
388.67	985.37
388.86	919.83
389.06	971.32
389.25	926.85
389.45	917.49
389.64	994.73
389.84	1025.15
390.03	938.55
390.22	987.71
390.42	1001.75
390.61	1043.88
390.81	990.05
391.00	987.71
391.19	992.39
391.39	1036.86
391.58	1046.22
391.78	1090.69
391.97	1032.18
392.16	964.30
392.36	1114.10
392.55	1088.35
392.75	1027.50
392.94	1036.86
393.13	1090.69
393.33	1025.15
393.52	1151.54
393.71	1050.90
393.91	1111.75
394.10	1078.99
394.29	1193.67
394.49	1071.97
394.68	1172.61
394.88	1011.11
395.07	1104.73
395.26	1172.61
395.46	1146.86
395.65	1198.35
395.84	1181.97
396.04	1291.98
396.23	1165.59
396.42	1212.40
396.62	1235.80
396.81	1210.06
397.00	1254.53
397.19	1200.69
397.39	1287.29
397.58	1263.89
397.77	1219.42
397.97	1245.16
398.16	1280.27
398.35	1238.14
398.55	1287.29
398.74	1296.66
398.93	1327.08
399.12	1263.89
399.32	1273.25
399.51	1301.34
399.70	1329.42
399.90	1284.95
400.09	1350.49
400.28	1390.28
400.47	1376.24
400.67	1397.30
400.86	1369.21
401.05	1474.54
401.24	1434.75
401.44	1455.81
401.63	1526.03
401.82	1455.81
402.01	1385.60
402.21	1502.62
402.40	1516.67
402.59	1493.26
402.78	1530.71
402.97	1439.43
403.17	1519.01
403.36	1533.05
403.55	1519.01
403.74	1629.01
403.93	1582.20
404.13	1610.29
404.32	1577.52
404.51	1629.01
404.70	1706.25
404.89	1626.67
405.09	1755.40
405.28	1736.68
405.47	1774.13
405.66	1757.74
405.85	1727.32
406.05	1741.36
406.24	1907.54
406.43	1746.04
406.62	1802.21
406.81	1811.57
407.00	1827.96
407.20	1832.64
407.39	1863.07
407.58	1769.44
407.77	1968.39
407.96	1916.90
408.15	2026.90
408.34	1956.69
408.54	1930.94
408.73	1923.92
408.92	1959.03
409.11	2108.82
409.30	1968.39
409.49	2052.65
409.68	2078.40
409.87	2033.93
410.07	2113.50
410.26	2139.25
410.45	1980.09
410.64	2111.16
410.83	2172.02
411.02	2122.87
411.21	2120.53
411.40	2139.25
411.59	2186.06
411.78	2237.55
411.98	2239.89
412.17	2265.64
412.36	2272.66
412.55	2232.87
412.74	2431.82
412.93	2392.03
413.12	2221.17
413.31	2502.03
413.50	2506.71
413.69	2363.94
413.88	2492.67
414.07	2569.91
414.26	2487.99
414.45	2504.37
414.64	2523.10
414.83	2708.00
415.02	2736.09
415.22	2572.25
415.41	2649.49
415.60	2750.13
415.79	2722.04
415.98	2782.90
416.17	2743.11
416.36	2586.29
416.55	2731.41
416.74	2775.88
416.93	2839.07
417.12	2834.39
417.31	2820.35
417.50	2918.65
417.69	3012.27
417.88	2981.84
418.07	2972.48
418.26	2986.52
418.45	3035.67
418.64	3009.93
418.83	3028.65
419.02	3049.72
419.21	3197.17
419.39	3180.79
419.58	3103.55
419.77	3112.91
419.96	3220.58
420.15	3316.54
420.34	3241.64
420.53	3176.11
420.72	3173.77
420.91	3248.66
421.10	3272.07
421.29	3396.12
421.48	3288.45
421.67	3302.50
421.86	3407.82
422.05	3297.81
422.24	3456.97
422.43	3449.95
422.61	3386.76
422.80	3396.12
422.99	3384.41
423.18	3321.22
423.37	3508.46
423.56	3501.44
423.75	3358.67
423.94	3297.81
424.13	3286.11
424.32	3286.11
424.50	3499.10
424.69	3658.26
424.88	3513.14
425.07	3461.65
425.26	3323.56
425.45	3442.93
425.64	3442.93
425.83	3524.85
426.01	3471.01
426.20	3564.64
426.39	3494.42
426.58	3529.53
426.77	3564.64
426.96	3552.93
427.15	3534.21
427.33	3609.11
427.52	3555.27
427.71	3637.19
427.90	3588.04
428.09	3712.09
428.28	3639.53
428.46	3684.00
428.65	3721.45
428.84	3737.84
429.03	3826.78
429.22	3866.56
429.40	3908.69
429.59	3829.12
429.78	3765.92
429.97	3604.42
430.16	3880.61
430.34	3705.07
430.53	3983.59
430.72	3908.69
430.91	3955.51
431.10	3871.25
431.28	4105.30
431.47	3995.29
431.66	3969.55
431.85	3997.64
432.03	4159.13
432.22	4159.13
432.41	4051.47
432.60	3969.55
432.79	4004.66
432.97	4159.13
433.16	4234.03
433.35	4100.62
433.54	4259.78
433.72	4126.36
433.91	4374.46
434.10	4248.07
434.28	4138.07
434.47	4346.37
434.66	4287.86
434.85	4180.20
435.03	4344.03
435.22	4388.50
435.41	4592.13
435.59	4425.95
435.78	4414.25
435.97	4507.87
436.16	4517.23
436.34	4505.53
436.53	4451.70
436.72	4655.33
436.90	4498.51
437.09	4491.49
437.28	4493.83
437.46	4451.70
437.65	4592.13
437.84	4557.02
438.02	4648.30
438.21	4594.47
438.40	4641.28
438.58	4765.33
438.77	4905.76
438.96	4877.68
439.14	4842.57
439.33	4943.21
439.52	5137.48
439.70	4964.28
439.89	5125.77
440.08	5144.50
440.26	5069.60
440.45	5153.86
440.63	5013.43
440.82	5153.86
441.01	5207.69
441.19	5282.59
441.38	5320.04
441.57	5280.25
441.75	5242.80
441.94	5383.23
442.12	5533.03
442.31	5502.60
442.50	5528.35
442.68	5453.45
442.87	5533.03
443.05	5577.50
443.24	5568.13
443.43	5500.26
443.61	5619.63
443.80	5598.56
443.98	5509.62
444.17	5514.30
444.35	5738.99
444.54	5785.80
444.73	5703.89
444.91	5727.29
445.10	5841.98
445.28	5706.23
445.47	5720.27
445.65	5706.23
445.84	5795.17
446.02	5834.96
446.21	5724.95
446.39	5715.59
446.58	5757.72
446.77	5724.95
446.95	5851.34
447.14	5844.32
447.32	5888.79
447.51	5783.46
447.69	5682.82
447.88	5874.74
448.06	5799.85
448.25	5757.72
448.43	5806.87
448.62	5963.68
448.80	5951.98
448.99	5937.94
449.17	6132.20
449.36	6019.86
449.54	6108.80
449.73	6183.70
449.91	6286.68
450.10	6022.20
450.28	6324.13
450.46	6436.47
450.65	6256.25
450.83	6108.80
451.02	6092.41
451.20	6394.34
451.39	6214.12
451.57	6183.70
451.76	6150.93
451.94	6349.87
452.13	6352.21
452.31	6300.72
452.49	6443.49
452.68	6258.59
452.86	6429.45
453.05	6544.14
453.23	6429.45
453.42	6438.81
453.60	6310.08
453.78	6509.03
453.97	6361.58
454.15	6487.96
454.34	6567.54
454.52	6581.59
454.70	6668.19
454.89	6689.25
455.07	6754.79
455.26	6705.63
455.44	6974.80
455.62	6686.91
455.81	6773.51
455.99	6764.15
456.17	6846.07
456.36	6822.66
456.54	6876.49
456.73	6944.37
456.91	7325.88
457.09	7096.50
457.28	7096.50
457.46	6904.58
457.64	7042.67
457.83	7150.34
458.01	7105.87
458.19	7349.28
458.38	7164.38
458.56	7229.91
458.74	7176.08
458.93	7393.75
459.11	7328.22
459.29	7241.62
459.48	7461.63
459.66	7438.22
459.84	7356.30
460.03	7705.04
460.21	7398.43
460.39	7602.06
460.57	7419.50
460.76	7620.78
460.94	7669.94
461.12	7627.81
461.31	7545.89
461.49	7595.04
461.67	7655.89
461.85	7726.11
462.04	7721.43
462.22	8140.38
462.40	7836.11
462.59	7803.35
462.77	7840.79
462.95	8124.00
463.13	7899.31
463.32	7840.79
463.50	8114.64
463.68	7901.65
463.86	8198.90
464.05	7803.35
464.23	8006.97
464.41	8065.49
464.59	8081.87
464.78	8205.92
464.96	8105.28
465.14	8037.40
465.32	8124.00
465.50	8168.47
465.69	8269.11
465.87	8032.72
466.05	8229.32
466.23	8142.72
466.41	8287.84
466.60	8549.98
466.78	8091.23
466.96	8411.89
467.14	8212.94
467.32	8496.14
467.51	8376.78
467.69	8365.07
467.87	8184.85
468.05	8589.77
468.23	8372.10
468.41	8388.48
468.60	8425.93
468.78	8641.26
468.96	8531.25
469.14	8648.28
469.32	8634.24
469.50	8671.68
469.69	8791.05
469.87	8901.06
470.05	8826.16
470.23	8856.59
470.41	8922.12
470.59	9055.53
470.77	8877.65
470.95	8936.17
471.14	9020.42
471.32	8828.50
471.50	8990.00
471.68	9130.43
471.86	9338.74
472.04	9217.03
472.22	9331.72
472.40	9092.98
472.58	9301.29
472.77	9338.74
472.95	9561.09
473.13	9806.84
473.31	9521.30
473.49	9425.34
473.67	9511.94
473.85	9582.15
474.03	9661.73
474.21	9783.44
474.39	10064.30
474.57	9762.37
474.75	10083.03
474.93	10125.16
475.12	9961.32
475.30	10129.84
475.48	9830.25
475.66	10186.01
475.84	10209.42
476.02	10200.05
476.20	10506.66
476.38	10558.16
476.56	10473.90
476.74	10710.29
476.92	10637.73
477.10	10684.55
477.28	10693.91
477.46	10754.76
477.64	10939.66
477.82	11026.26
478.00	11288.40
478.18	11274.36
478.36	11218.19
478.54	11255.64
478.72	11597.35
478.90	11723.74
479.08	11918.01
479.26	11854.81
479.44	11782.26
479.62	11777.58
479.80	12306.54
479.98	12222.28
480.16	12489.10
480.34	12266.75
480.52	12425.90
480.70	12421.22
480.88	12301.86
481.06	12760.60
481.24	12636.55
481.41	12622.51
481.59	12905.71
481.77	12910.40
481.95	12978.27
482.13	13160.83
482.31	13263.82
482.49	13336.37
482.67	13301.26
482.85	13715.54
483.03	13675.75
483.21	14171.94
483.39	13949.59
483.57	13855.97
483.74	14001.08
483.92	14274.93
484.10	14146.20
484.28	14377.91
484.46	14705.59
484.64	14789.85
484.82	14593.24
485.00	14888.15
485.18	15035.60
485.35	15573.92
485.53	15157.31
485.71	15096.46
485.89	15651.16
486.07	15599.67
486.25	15513.07
486.43	15962.45
486.61	15815.00
486.78	16107.57
486.96	16121.61
487.14	16423.54
487.32	16142.67
487.50	16570.99
487.68	16456.31
487.85	16858.88
488.03	16954.84
488.21	17081.23
488.39	16980.59
488.57	17467.42
488.75	17542.32
488.92	17390.18
489.10	17809.14
489.28	17603.17
489.46	17963.61
489.64	17980.00
489.81	18497.25
489.99	18188.30
490.17	18312.35
490.35	18553.43
490.53	18747.69
490.70	18979.40
490.88	18895.14
491.06	19220.48
491.24	19143.24
491.41	19358.57
491.59	19653.48
491.77	19470.92
491.95	19482.62
492.13	19822.00
492.30	19770.51
492.48	19990.52
492.66	20257.34
492.84	19878.17
493.01	20229.25
493.19	20521.82
493.37	20573.31
493.54	20704.38
493.72	20641.18
493.90	20533.52
494.08	21226.32
494.25	21008.65
494.43	21343.35
494.61	21579.74
494.79	21493.14
494.96	21518.89
495.14	21710.81
495.32	21762.30
495.49	22202.32
495.67	22183.60
495.85	22038.48
496.02	22263.18
496.20	22827.24
496.38	22930.23
496.55	22616.60
496.73	23543.45
496.91	22869.37
497.09	23054.28
497.26	23496.64
497.44	23094.07
497.62	23335.14
497.79	23704.95
497.97	23491.96
498.14	23857.08
498.32	24133.26
498.50	23901.55
498.67	23917.93
498.85	24065.39
499.03	24407.11
499.20	24538.18
499.38	24584.99
499.56	24575.62
499.73	24687.97
499.91	24847.13
500.08	25130.33
500.26	24849.47
500.44	24608.39
500.61	24982.88
500.79	24922.02
500.97	25642.91
501.14	25694.40
501.32	25617.16
501.49	25860.58
501.67	25764.62
501.84	25563.33
502.02	25783.34
502.20	25935.48
502.37	26242.09
502.55	25926.11
502.72	26204.64
502.90	26270.17
503.07	26038.46
503.25	26253.79
503.43	26286.56
503.60	27110.43
503.78	26623.59
503.95	26658.70
504.13	26888.07
504.30	27019.14
504.48	26913.82
504.65	27281.28
504.83	27222.77
505.01	27667.47
505.18	27407.67
505.36	28025.57
505.53	27711.94
505.71	27765.78
505.88	27594.92
506.06	27634.71
506.23	27662.79
506.41	28271.33
506.58	28051.32
506.76	28140.26
506.93	28041.96
507.11	28252.61
507.28	28465.60
507.46	28383.68
507.63	28446.87
507.81	28755.82
507.98	28570.92
508.16	28889.23
508.33	29364.36
508.50	29214.57
508.68	28924.34
508.85	29516.50
509.03	29153.71
509.20	29617.14
509.38	29720.12
509.55	29640.54
509.73	29364.36
509.90	29748.21
510.08	29914.39
510.25	30052.48
510.42	29961.20
510.60	30054.82
510.77	30008.01
510.95	30431.65
511.12	30258.45
511.30	30169.51
511.47	30637.61
511.64	30331.00
511.82	30679.74
511.99	30459.73
512.17	31058.91
512.34	30824.86
512.51	31033.16
512.69	31218.07
512.86	31185.30
513.04	31395.95
513.21	31227.43
513.38	31613.62
513.56	31562.12
513.73	31365.52
513.90	31576.17
514.08	31658.09
514.25	32123.85
514.43	32074.70
514.60	32390.67
514.77	32044.27
514.95	31952.99
515.12	31990.44
515.29	31742.35
515.47	32610.68
515.64	32521.74
515.81	32350.88
515.99	32545.15
516.16	33083.47
516.33	32919.63
516.51	33111.56
516.68	32463.23
516.85	32594.30
517.03	33326.89
517.20	33144.33
517.37	33008.58
517.54	32940.70
517.72	33429.87
517.89	33434.55
518.06	33123.26
518.24	33582.01
518.41	33574.98
518.58	33640.52
518.75	33439.23
518.93	33944.79
519.10	33759.89
519.27	34188.21
519.45	33998.62
519.62	34408.22
519.79	34195.23
519.96	34534.60
520.14	34330.98
520.31	34092.24
520.48	34192.89
520.65	34143.74
520.83	34813.13
521.00	34536.94
521.17	34618.86
521.34	34543.97
521.52	35035.48
521.69	34342.68
521.86	34873.98
522.03	35147.82
522.20	35306.98
522.38	35604.23
522.55	35297.62
522.72	35028.46
522.89	35615.93
523.07	35744.66
523.24	35845.30
523.41	35538.69
523.58	35482.52
523.75	35978.72
523.92	35779.77
524.10	36175.32
524.27	36165.96
524.44	36182.34
524.61	36568.53
524.78	36343.84
524.96	36638.75
525.13	36528.74
525.30	36804.92
525.47	36514.70
525.64	36360.22
525.81	36589.59
525.98	36847.05
526.16	36795.56
526.33	36788.54
526.50	37062.38
526.67	36708.96
526.84	37617.09
527.01	37102.17
527.18	37390.06
527.36	36786.20
527.53	37542.19
527.70	37757.52
527.87	37586.66
528.04	37296.44
528.21	37762.20
528.38	37188.77
528.55	38043.07
528.72	37825.40
528.89	37930.72
529.07	37434.53
529.24	37469.64
529.41	37940.08
529.58	37869.87
529.75	37888.59
529.92	37771.57
530.09	38061.79
530.26	38263.08
530.43	38216.27
530.60	37811.35
530.77	38417.55
530.94	38366.06
531.11	38244.35
531.28	38813.10
531.46	38328.61
531.63	38618.84
531.80	38525.22
531.97	38869.28
532.14	38712.46
532.31	38644.59
532.48	39199.29
532.65	39089.29
532.82	39260.15
532.99	38501.81
533.16	39152.48
533.33	39173.55
533.50	39363.13
533.67	39257.81
533.84	38937.15
534.01	39363.13
534.18	39349.09
534.35	39721.23
534.52	39248.44
534.69	40013.80
534.86	39889.75
535.03	40282.96
535.20	40030.18
535.37	39512.92
535.54	39908.47
535.71	39615.91
535.88	39971.67
536.05	40060.61
536.22	40467.86
536.38	40119.12
536.55	40392.97
536.72	40477.22
536.89	39892.09
537.06	40037.20
537.23	40512.33
537.40	40002.10
537.57	40325.09
537.74	40343.81
537.91	40851.71
538.08	40556.80
538.25	40411.69
538.42	40456.16
538.59	40985.12
538.75	40821.28
538.92	40961.72
539.09	41219.17
539.26	40687.87
539.43	40783.83
539.60	40744.05
539.77	41020.23
539.94	41188.75
540.11	41045.97
540.28	41722.39
540.44	41015.55
540.61	41296.41
540.78	41170.02
540.95	41441.53
541.12	41249.60
541.29	41127.89
541.46	41481.31
541.62	41275.35
541.79	42000.91
541.96	41296.41
542.13	41434.50
542.30	41748.14
542.47	41776.22
542.63	42085.17
542.80	42092.19
542.97	42387.10
543.14	42178.79
543.31	42246.67
543.48	42043.04
543.64	42738.18
543.81	42848.19
543.98	42485.40
544.15	42155.39
544.32	42574.34
544.48	42593.07
544.65	42354.33
544.82	42410.51
544.99	42852.87
545.16	42902.02
545.32	42806.06
545.49	43117.35
545.66	43171.18
545.83	42911.38
546.00	43325.66
546.16	42981.60
546.33	43023.73
546.50	42600.09
546.67	43267.14
546.83	42951.17
547.00	43009.68
547.17	42918.40
547.34	43154.80
547.50	43672.06
547.67	43611.20
547.84	43475.45
548.00	43650.99
548.17	43660.35
548.34	43632.27
548.51	43777.38
548.67	43920.15
548.84	43763.34
549.01	43751.63
549.18	43587.80
549.34	43580.78
549.51	44034.84
549.68	43990.37
549.84	44165.91
550.01	44348.47
550.18	43529.28
550.34	43908.45
550.51	44577.84
550.68	44114.42
550.84	44369.54
551.01	44465.50
551.18	43880.36
551.34	44025.48
551.51	44638.70
551.68	44301.66
551.84	44126.12
552.01	44350.81
552.18	44172.93
552.34	44547.42
552.51	44421.03
552.68	44233.78
552.84	44458.48
553.01	44645.72
553.18	44404.64
553.34	44786.15
553.51	44704.23
553.67	44854.03
553.84	44858.71
554.01	45038.93
554.17	44645.72
554.34	44582.52
554.51	44982.76
554.67	45265.96
554.84	45200.43
555.00	45057.65
555.17	45111.49
555.33	45441.50
555.50	44835.30
555.67	45434.48
555.83	45319.79
556.00	45158.30
556.16	46157.70
556.33	45544.48
556.50	45191.06
556.66	45319.79
556.83	45247.24
556.99	45572.57
557.16	45610.02
557.32	45577.25
557.49	46258.35
557.65	45530.44
557.82	45553.85
557.98	45708.32
558.15	45502.35
558.32	45652.15
558.48	45715.34
558.65	45808.96
558.81	45865.14
558.98	45600.66
559.14	45743.43
559.31	45649.81
559.47	45535.12
559.64	45951.74
559.80	45488.31
559.97	45937.69
560.13	45677.90
560.30	46195.15
560.46	46066.42
560.63	46410.48
560.79	46031.32
560.96	46286.43
561.12	45886.20
561.29	46131.96
561.45	46312.18
561.61	46485.38
561.78	45689.60
561.94	46082.81
562.11	45918.97
562.27	46314.52
562.44	46288.77
562.60	46689.01
562.77	46646.88
562.93	46122.60
563.10	46534.53
563.26	46110.89
563.42	46775.61
563.59	46213.88
563.75	46541.55
563.92	46384.74
564.08	46160.05
564.24	46557.94
564.41	46735.82
564.57	46593.04
564.74	46588.36
564.90	46103.87
565.07	46387.08
565.23	46480.70
565.39	46321.54
565.56	47210.95
565.72	46632.83
565.88	46710.07
566.05	46483.04
566.21	46969.87
566.38	46719.43
566.54	46803.69
566.70	46761.56
566.87	46930.08
567.03	46784.97
567.19	46880.93
567.36	46937.10
567.52	46693.69
567.68	47353.72
567.85	47178.18
568.01	46843.48
568.17	46574.32
568.34	46726.46
568.50	46951.15
568.66	46887.95
568.83	47030.72
568.99	47086.90
569.15	47187.54
569.32	47150.09
569.48	46794.33
569.64	46944.12
569.81	47126.69
569.97	46988.60
570.13	47459.04
570.30	46862.21
570.46	47299.89
570.62	47168.82
570.78	47332.65
570.95	47061.15
571.11	47519.90
571.27	47033.07
571.43	46997.96
571.60	47409.89
571.76	47330.31
571.92	47199.24
572.09	47463.72
572.25	47260.10
572.41	46541.55
572.57	47171.16
572.74	47786.72
572.90	47318.61
573.06	47152.43
573.22	47239.03
573.38	47526.92
573.55	47283.50
573.71	47718.84
573.87	47459.04
574.03	47372.44
574.20	47735.23
574.36	47388.83
574.52	47299.89
574.68	47311.59
574.84	47744.59
575.01	47887.36
575.17	47742.25
575.33	47756.29
575.49	47349.04
575.65	47353.72
575.82	47311.59
575.98	47454.36
576.14	47875.66
576.30	47622.88
576.46	47634.58
576.62	47555.00
576.79	47250.74
576.95	47093.92
577.11	47475.43
577.27	47515.22
577.43	47625.22
577.59	47594.79
577.75	47119.66
577.92	47302.23
578.08	47475.43
578.24	47510.53
578.40	47782.04
578.56	47552.66
578.72	47882.68
578.88	47814.80
579.04	47597.13
579.21	47309.25
579.37	47618.20
579.53	47908.43
579.69	47447.34
579.85	47674.37
580.01	47634.58
580.17	47419.25
580.33	47770.33
580.49	47636.92
580.65	47917.79
580.82	47896.72
580.98	47503.51
581.14	47428.62
581.30	47838.21
581.46	47522.24
581.62	47494.15
581.78	47215.63
581.94	47569.05
582.10	47421.59
582.26	47821.83
582.42	47482.45
582.58	47620.54
582.74	47964.60
582.90	47892.04
583.06	47777.36
583.22	47302.23
583.38	47728.20
583.54	48233.76
583.70	47955.24
583.86	47700.12
584.02	48060.56
584.18	48032.47
584.34	48135.46
584.50	48144.82
584.66	47854.59
584.82	47917.79
584.98	48402.28
585.14	48177.59
585.30	47679.05
585.46	47901.40
585.62	48006.73
585.78	48048.86
585.94	47463.72
586.10	47910.77
586.26	47571.39
586.42	47536.28
586.58	48200.99
586.74	47767.99
586.90	47557.35
587.06	47847.57
587.22	48130.78
587.38	47594.79
587.54	48095.67
587.70	48311.00
587.86	48072.26
588.02	47894.38
588.18	47976.30
588.34	48289.93
588.49	47908.43
588.65	47725.86
588.81	47657.99
588.97	48065.24
589.13	47786.72
589.29	47782.04
589.45	48479.52
589.61	48013.75
589.77	48243.12
589.93	47934.17
