SpectraSuite Data File
++++++++++++++++++++++++++++++++++++
Date: Fri Oct 25 11:23:40 EDT 2013
User: price-jones
Dark Spectrum Present: No
Reference Spectrum Present: No
Number of Sampled Component Spectra: 1
Spectrometers: USB2+H05261
Integration Time (usec): 100000 (USB2+H05261)
Spectra Averaged: 1 (USB2+H05261)
Boxcar Smoothing: 0 (USB2+H05261)
Correct for Electrical Dark: No (USB2+H05261)
Strobe/Lamp Enabled: No (USB2+H05261)
Correct for Detector Non-linearity: No (USB2+H05261)
Correct for Stray Light: No (USB2+H05261)
Number of Pixels in Processed Spectrum: 2048
>>>>>Begin Processed Spectral Data<<<<<
365.73	325.33
365.92	325.33
366.12	325.33
366.32	77.24
366.52	177.88
366.72	142.77
366.91	95.96
367.11	177.88
367.31	107.66
367.51	152.13
367.70	88.94
367.90	156.82
368.10	117.03
368.30	180.22
368.49	135.75
368.69	124.05
368.89	107.66
369.09	173.20
369.28	177.88
369.48	194.26
369.68	147.45
369.87	198.95
370.07	145.11
370.27	287.89
370.47	313.63
370.66	521.94
370.86	606.20
371.06	692.80
371.25	582.79
371.45	676.41
371.65	667.05
371.84	641.31
372.04	657.69
372.24	695.14
372.44	739.61
372.63	720.88
372.83	734.93
373.03	671.73
373.22	758.33
373.42	793.44
373.62	753.65
373.81	854.30
374.01	753.65
374.21	873.02
374.40	823.87
374.60	915.15
374.79	833.23
374.99	844.93
375.19	828.55
375.38	765.36
375.58	793.44
375.78	830.89
375.97	746.63
376.17	889.40
376.37	887.06
376.56	819.19
376.76	842.59
376.95	891.74
377.15	870.68
377.35	971.32
377.54	910.47
377.74	957.28
377.93	882.38
378.13	795.78
378.33	866.00
378.52	964.30
378.72	966.64
378.91	919.83
379.11	971.32
379.31	926.85
379.50	910.47
379.70	1006.43
379.89	1006.43
380.09	933.87
380.28	1001.75
380.48	964.30
380.68	954.94
380.87	1004.09
381.07	1053.24
381.26	1102.39
381.46	961.96
381.65	983.02
381.85	961.96
382.04	1053.24
382.24	1118.78
382.43	1086.01
382.63	1046.22
382.83	1078.99
383.02	987.71
383.22	1128.14
383.41	1067.28
383.61	1088.35
383.80	1102.39
384.00	1167.93
384.19	1086.01
384.39	1130.48
384.58	1086.01
384.78	1111.75
384.97	1238.14
385.17	1146.86
385.36	1174.95
385.56	1095.37
385.75	1156.22
385.95	1200.69
386.14	1291.98
386.34	1174.95
386.53	1303.68
386.72	1200.69
386.92	1238.14
387.11	1261.55
387.31	1256.87
387.50	1165.59
387.70	1184.31
387.89	1256.87
388.09	1266.23
388.28	1235.80
388.48	1306.02
388.67	1310.70
388.86	1348.15
389.06	1341.13
389.25	1380.92
389.45	1261.55
389.64	1299.00
389.84	1287.29
390.03	1411.34
390.22	1411.34
390.42	1392.62
390.61	1343.47
390.81	1310.70
391.00	1387.94
391.19	1504.96
391.39	1348.15
391.58	1441.77
391.78	1526.03
391.97	1521.35
392.16	1472.20
392.36	1540.07
392.55	1488.58
392.75	1668.80
392.94	1556.46
393.13	1500.28
393.33	1542.41
393.52	1558.80
393.71	1598.59
393.91	1563.48
394.10	1521.35
394.29	1633.69
394.49	1610.29
394.68	1664.12
394.88	1610.29
395.07	1664.12
395.26	1621.99
395.46	1706.25
395.65	1619.65
395.84	1687.53
396.04	1961.37
396.23	1760.08
396.42	1755.40
396.62	1706.25
396.81	1776.47
397.00	1776.47
397.19	1671.14
397.39	1741.36
397.58	1863.07
397.77	1802.21
397.97	1825.62
398.16	1842.00
398.35	1970.73
398.55	1849.02
398.74	1923.92
398.93	1961.37
399.12	1907.54
399.32	1940.30
399.51	1902.86
399.70	1926.26
399.90	1877.11
400.09	2040.95
400.28	2073.71
400.47	2036.27
400.67	2146.27
400.86	2122.87
401.05	2038.61
401.24	2087.76
401.44	2071.37
401.63	2272.66
401.82	2099.46
402.01	2143.93
402.21	2101.80
402.40	2253.94
402.59	2225.85
402.78	2218.83
402.97	2319.47
403.17	2270.32
403.36	2249.25
403.55	2401.39
403.74	2275.00
403.93	2340.54
404.13	2385.01
404.32	2431.82
404.51	2403.73
404.70	2424.80
404.89	2497.35
405.09	2469.27
405.28	2480.97
405.47	2483.31
405.66	2438.84
405.85	2497.35
406.05	2471.61
406.24	2579.27
406.43	2633.10
406.62	2546.50
406.81	2644.81
407.00	2597.99
407.20	2651.83
407.39	2661.19
407.58	2677.57
407.77	2808.64
407.96	2628.42
408.15	2834.39
408.34	2761.83
408.54	2860.13
408.73	2836.73
408.92	2799.28
409.11	2825.03
409.30	2878.86
409.49	2925.67
409.68	2956.10
409.87	2963.12
410.07	3030.99
410.26	2991.20
410.45	2942.05
410.64	3056.74
410.83	2988.86
411.02	3026.31
411.21	3094.19
411.40	3166.74
411.59	3239.30
411.78	3194.83
411.98	3150.36
412.17	3386.76
412.36	3321.22
412.55	3307.18
412.74	3480.38
412.93	3361.01
413.12	3400.80
413.31	3637.19
413.50	3513.14
413.69	3417.18
413.88	3536.55
414.07	3566.98
414.26	3707.41
414.45	3674.64
414.64	3562.30
414.83	3934.44
415.02	4037.42
415.22	3730.81
415.41	3847.84
415.60	3784.65
415.79	3950.82
415.98	3918.06
416.17	3960.19
416.36	4030.40
416.55	4030.40
416.74	4131.05
416.93	4154.45
417.12	4053.81
417.31	4170.83
417.50	4217.65
417.69	4287.86
417.88	4283.18
418.07	4301.90
418.26	4367.44
418.45	4348.72
418.64	4564.04
418.83	4374.46
419.02	4517.23
419.21	4461.06
419.39	4493.83
419.58	4449.36
419.77	4421.27
419.96	4512.55
420.15	4540.64
420.34	4608.51
420.53	4702.14
420.72	4568.73
420.91	4517.23
421.10	4695.11
421.29	4854.27
421.48	4697.46
421.67	4772.35
421.86	4863.63
422.05	4929.17
422.24	4854.27
422.43	4968.96
422.61	4926.83
422.80	5053.22
422.99	4964.28
423.18	4945.55
423.37	4999.38
423.56	4926.83
423.75	4887.04
423.94	4966.62
424.13	4491.49
424.32	4669.37
424.50	4957.25
424.69	5163.22
424.88	5011.09
425.07	4851.93
425.26	4943.21
425.45	5064.92
425.64	4891.72
425.83	5006.41
426.01	5111.73
426.20	5057.90
426.39	5022.79
426.58	5088.32
426.77	4931.51
426.96	5057.90
427.15	5184.29
427.33	5284.93
427.52	5158.54
427.71	5352.81
427.90	5277.91
428.09	5268.55
428.28	5373.87
428.46	5320.04
428.65	5378.55
428.84	5411.32
429.03	5352.81
429.22	5390.25
429.40	5420.68
429.59	5467.49
429.78	5275.57
429.97	5263.86
430.16	5605.58
430.34	5547.07
430.53	5556.43
430.72	5563.45
430.91	5664.10
431.10	5582.18
431.28	5734.31
431.47	5727.29
431.66	5928.58
431.85	5729.63
432.03	6001.13
432.22	5760.06
432.41	5825.59
432.60	5820.91
432.79	5902.83
432.97	6078.37
433.16	5984.75
433.35	5982.41
433.54	6129.86
433.72	6284.34
433.91	6099.44
434.10	6342.85
434.28	6141.57
434.47	6179.01
434.66	6356.90
434.85	6384.98
435.03	6396.68
435.22	6181.35
435.41	6406.05
435.59	6399.02
435.78	6452.86
435.97	6466.90
436.16	6384.98
436.34	6436.47
436.53	6614.35
436.72	6597.97
436.90	6551.16
437.09	6686.91
437.28	6338.17
437.46	6705.63
437.65	6635.42
437.84	6853.09
438.02	6747.76
438.21	6696.27
438.40	6733.72
438.58	6930.33
438.77	7070.76
438.96	7030.97
439.14	7185.44
439.33	7047.35
439.52	7213.53
439.70	7250.98
439.89	7386.73
440.08	7419.50
440.26	7405.46
440.45	7478.01
440.63	7550.57
440.82	7473.33
441.01	7405.46
441.19	7651.21
441.38	7634.83
441.57	7761.22
441.75	7768.24
441.94	7955.48
442.12	7894.63
442.31	8067.83
442.50	7971.86
442.68	7960.16
442.87	8023.36
443.05	8091.23
443.24	8252.73
443.43	8138.04
443.61	8201.24
443.80	8449.33
443.98	8018.68
444.17	7999.95
444.35	8217.62
444.54	8531.25
444.73	8374.44
444.91	8198.90
445.10	8379.12
445.28	8276.13
445.47	8273.79
445.65	8432.95
445.84	8587.43
446.02	8521.89
446.21	8468.06
446.39	8430.61
446.58	8573.38
446.77	8344.01
446.95	8095.91
447.14	8538.27
447.32	8552.32
447.51	8486.78
447.69	8411.89
447.88	8620.19
448.06	8568.70
448.25	8695.09
448.43	8542.96
448.62	8538.27
448.80	8580.40
448.99	8587.43
449.17	8849.57
449.36	8697.43
449.54	8669.34
449.73	8973.61
449.91	9102.34
450.10	8779.35
450.28	9188.94
450.46	8901.06
450.65	8898.72
450.83	8926.80
451.02	9259.16
451.20	9149.15
451.39	9226.39
451.57	9324.69
451.76	9181.92
451.94	9174.90
452.13	9392.57
452.31	9439.38
452.49	9256.82
452.68	9273.20
452.86	9207.67
453.05	9448.74
453.23	9535.34
453.42	9163.20
453.60	9584.49
453.78	9593.86
453.97	9212.35
454.15	9715.56
454.34	9383.21
454.52	9879.40
454.70	9736.63
454.89	9865.36
455.07	9762.37
455.26	9832.59
455.44	9895.78
455.62	9811.53
455.81	9884.08
455.99	10232.82
456.17	10237.50
456.36	9996.43
456.54	10115.80
456.73	10279.63
456.91	10300.70
457.09	10373.25
457.28	10459.85
457.46	10321.76
457.64	10752.42
457.83	10602.63
458.01	10310.06
458.19	10860.09
458.38	10523.05
458.56	10658.80
458.74	10576.88
458.93	10644.76
459.11	10609.65
459.29	10747.74
459.48	10911.58
459.66	10808.59
459.84	10836.68
460.03	11162.01
460.21	11098.82
460.39	11054.35
460.57	11077.76
460.76	11012.22
460.94	11365.64
461.12	10949.03
461.31	11265.00
461.49	11178.40
461.67	10927.96
461.85	11421.81
462.04	11316.49
462.22	11353.94
462.40	11616.08
462.59	11475.65
462.77	11522.46
462.95	11761.19
463.13	11414.79
463.32	11463.94
463.50	11686.29
463.68	11646.51
463.86	11786.94
464.05	11583.31
464.23	11857.15
464.41	11840.77
464.59	11632.46
464.78	12049.08
464.96	11838.43
465.14	11698.00
465.32	12070.14
465.50	12002.27
465.69	12156.74
465.87	12208.23
466.05	12166.10
466.23	12276.11
466.41	12369.73
466.60	12769.96
466.78	12166.10
466.96	12374.41
467.14	12187.17
467.32	12320.58
467.51	12341.64
467.69	12322.92
467.87	12545.27
468.05	12662.30
468.23	12610.81
468.41	12524.21
468.60	12512.50
468.78	12758.26
468.96	12491.44
469.14	12723.15
469.32	12938.48
469.50	12636.55
469.69	12954.87
469.87	12835.50
470.05	13074.23
470.23	13312.97
470.41	13167.85
470.59	13327.01
470.77	13256.79
470.95	13453.40
471.14	13565.74
471.32	13273.18
471.50	13680.43
471.68	13769.37
471.86	13757.67
472.04	13919.17
472.22	14176.62
472.40	13774.05
472.58	13783.41
472.77	13928.53
472.95	14001.08
473.13	14656.43
473.31	13848.95
473.49	14410.68
473.67	14284.29
473.85	14317.06
474.03	14600.26
474.21	14520.68
474.39	14565.15
474.57	14822.61
474.75	14888.15
474.93	14904.53
475.12	14925.60
475.30	14981.77
475.48	15253.27
475.66	15358.60
475.84	15040.28
476.02	15218.16
476.20	15452.22
476.38	15569.24
476.56	16091.18
476.74	15969.48
476.92	15964.79
477.10	15957.77
477.28	15964.79
477.46	15957.77
477.64	16442.26
477.82	16741.85
478.00	16774.62
478.18	16851.86
478.36	16975.91
478.54	16968.88
478.72	17088.25
478.90	17605.51
479.08	17497.84
479.26	17586.79
479.44	17649.98
479.62	18092.34
479.80	17809.14
479.98	18061.91
480.16	18878.76
480.34	18202.35
480.52	18637.69
480.70	18586.19
480.88	18487.89
481.06	18705.56
481.24	18892.80
481.41	19239.20
481.59	19386.66
481.77	19358.57
481.95	19655.82
482.13	19847.74
482.31	19658.16
482.49	20465.64
482.67	20210.53
482.85	20353.30
483.03	20882.26
483.21	20671.61
483.39	20840.13
483.57	20905.66
483.74	21158.44
483.92	21359.73
484.10	21184.19
484.28	21797.41
484.46	21851.24
484.64	21989.33
484.82	21991.67
485.00	22314.67
485.18	22675.11
485.35	23035.55
485.53	22984.06
485.71	23096.41
485.89	23428.76
486.07	23484.94
486.25	23363.23
486.43	23934.32
486.61	24084.11
486.78	24041.98
486.96	24161.35
487.14	24215.18
487.32	24479.66
487.50	25092.88
487.68	24858.83
487.85	25724.83
488.03	25514.18
488.21	25855.90
488.39	25404.17
488.57	26099.31
488.75	26473.80
488.92	26555.72
489.10	26848.29
489.28	26974.67
489.46	27028.51
489.64	26859.99
489.81	27740.03
489.99	27807.90
490.17	27990.47
490.35	28276.01
490.53	28411.76
490.70	28393.04
490.88	28374.31
491.06	28734.76
491.24	28889.23
491.41	29102.22
491.59	29312.87
491.77	29434.58
491.95	29675.65
492.13	29968.22
492.30	29844.17
492.48	29783.32
492.66	30562.72
492.84	30391.86
493.01	30368.45
493.19	31094.02
493.37	31199.34
493.54	31096.36
493.72	31793.84
493.90	31564.46
494.08	31704.90
494.25	31950.65
494.43	32105.13
494.61	32091.09
494.79	32657.49
494.96	32795.59
495.14	32823.67
495.32	32884.53
495.49	33001.55
495.67	33308.16
495.85	33560.94
496.02	33949.47
496.20	34024.37
496.38	34195.23
496.55	33883.94
496.73	34717.17
496.91	34953.56
497.09	34604.82
497.26	35154.85
497.44	35093.99
497.62	35299.96
497.79	35742.32
497.97	35770.41
498.14	36072.34
498.32	36093.40
498.50	36301.71
498.67	36676.19
498.85	36837.69
499.03	36472.57
499.20	36376.61
499.38	37062.38
499.56	37298.78
499.73	37514.11
499.91	37172.39
500.08	37556.24
500.26	37563.26
500.44	37773.91
500.61	37610.07
500.79	37654.54
500.97	38019.66
501.14	38864.60
501.32	38600.12
501.49	38679.69
501.67	38785.02
501.84	39206.31
502.02	38906.73
502.20	38672.67
502.37	39407.60
502.55	39178.23
502.72	39501.22
502.90	39646.33
503.07	40076.99
503.25	40123.80
503.43	39583.14
503.60	40154.23
503.78	40208.06
503.95	40273.60
504.13	40610.64
504.30	40725.32
504.48	40526.38
504.65	40898.52
504.83	41511.74
505.01	40966.40
505.18	41284.71
505.36	41808.99
505.53	40926.61
505.71	41537.49
505.88	41963.46
506.06	41263.64
506.23	42005.59
506.41	42124.96
506.58	42113.26
506.76	42188.16
506.93	42649.24
507.11	42672.65
507.28	42667.97
507.46	42707.76
507.63	43016.71
507.81	43573.75
507.98	42370.72
508.16	43445.02
508.33	43742.27
508.50	43728.23
508.68	43753.97
508.85	43784.40
509.03	43866.32
509.20	44119.10
509.38	44451.45
509.55	44369.54
509.73	44266.55
509.90	44729.98
510.08	44598.91
510.25	44243.15
510.42	44671.46
510.60	45071.70
510.77	45371.28
510.95	45308.09
511.12	44744.02
511.30	45354.90
511.47	45378.31
511.64	45710.66
511.82	46401.12
511.99	45790.24
512.17	45886.20
512.34	46141.32
512.51	46476.02
512.69	46450.27
512.86	46440.91
513.04	46738.16
513.21	46286.43
513.38	46782.63
513.56	47098.60
513.73	46965.19
513.90	47016.68
514.08	47122.01
514.25	46918.38
514.43	47358.40
514.60	47526.92
514.77	47316.27
514.95	47732.89
515.12	47730.54
515.29	48037.16
515.47	47992.68
515.64	48273.55
515.81	48233.76
515.99	48376.53
516.16	48758.04
516.33	48390.58
516.51	48690.16
516.68	48538.03
516.85	48914.86
517.03	49249.55
517.20	48837.62
517.37	48685.48
517.54	48868.05
517.72	48626.97
517.89	49106.78
518.06	49247.21
518.24	49265.94
518.41	49649.78
518.58	49432.11
518.75	49268.28
518.93	49808.94
519.10	49504.67
519.27	49446.16
519.45	49801.92
519.62	50227.90
519.79	50106.19
519.96	49862.77
520.14	50373.01
520.31	50064.06
520.48	50351.94
520.65	50258.32
520.83	50735.79
521.00	50810.69
521.17	50759.20
521.34	50768.56
521.52	50864.52
521.69	50836.44
521.86	51119.64
522.03	51377.10
522.20	51318.59
522.38	51615.83
522.55	51231.99
522.72	51496.47
522.89	51349.01
523.07	51758.61
523.24	51751.59
523.41	51660.30
523.58	51870.95
523.75	52154.16
523.92	51995.00
524.10	52245.44
524.27	52140.11
524.44	52133.09
524.61	52257.14
524.78	52325.02
524.96	52383.53
525.13	52252.46
525.30	52369.49
525.47	52664.39
525.64	52460.77
525.81	52685.46
525.98	52645.67
526.16	52926.53
526.33	52718.23
526.50	53038.88
526.67	52617.58
526.84	52928.87
527.01	53102.07
527.18	52753.33
527.36	52919.51
527.53	53057.60
527.70	53539.75
527.87	53336.13
528.04	53326.77
528.21	53396.98
528.38	53439.11
528.55	53609.97
528.72	53546.78
528.89	53237.83
529.07	53595.93
529.24	53425.07
529.41	53717.64
529.58	53485.92
529.75	53656.78
529.92	53750.40
530.09	54010.20
530.26	54012.54
530.43	53986.80
530.60	53766.79
530.77	53799.55
530.94	54106.16
531.11	54298.09
531.28	54078.08
531.46	54389.37
531.63	54302.77
531.80	54349.58
531.97	54651.51
532.14	54454.90
532.31	54515.76
532.48	54635.13
532.65	54623.42
532.82	54391.71
532.99	54553.21
533.16	54719.38
533.33	54733.43
533.50	55304.52
533.67	54794.28
533.84	54759.17
534.01	54747.47
534.18	55121.96
534.35	55278.77
534.52	55409.84
534.69	55428.57
534.86	55318.56
535.03	55187.49
535.20	55058.76
535.37	55306.86
535.54	55103.23
535.71	55327.92
535.88	55295.16
536.05	55676.66
536.22	55660.28
536.38	55622.83
536.55	55475.38
536.72	55547.93
536.89	55664.96
537.06	55667.30
537.23	55962.21
537.40	55442.61
537.57	55924.76
537.74	55758.58
537.91	55758.58
538.08	55985.61
538.25	55980.93
538.42	56046.47
538.59	56074.55
538.75	55927.10
538.92	56002.00
539.09	56095.62
539.26	56339.04
539.43	56149.45
539.60	56200.94
539.77	56317.97
539.94	56659.69
540.11	56465.42
540.28	56390.53
540.44	56362.44
540.61	56446.70
540.78	56566.07
540.95	56617.56
541.12	56350.74
541.29	56453.72
541.46	56795.44
541.62	56601.18
541.79	56973.32
541.96	56486.49
542.13	56622.24
542.30	56790.76
542.47	56767.35
542.63	57062.26
542.80	56989.70
542.97	56973.32
543.14	57144.18
543.31	57394.62
543.48	57298.65
543.64	57366.53
543.81	57492.92
543.98	57361.85
544.15	57350.15
544.32	57542.07
544.48	57738.68
544.65	57504.62
544.82	57565.48
544.99	57272.91
545.16	57640.37
545.32	57345.47
545.49	57921.24
545.66	57853.36
545.83	57675.48
546.00	57818.25
546.16	57738.68
546.33	57609.95
546.50	57411.00
546.67	57956.35
546.83	57457.81
547.00	57818.25
547.17	57846.34
547.34	57738.68
547.50	58162.31
547.67	58071.03
547.84	57923.58
548.00	58192.74
548.17	58033.58
548.34	58113.16
548.51	58347.21
548.67	58234.87
548.84	58237.21
549.01	58143.59
549.18	58204.44
549.34	58387.00
549.51	58340.19
549.68	58609.35
549.84	58569.57
550.01	58478.28
550.18	58122.52
550.34	58447.86
550.51	58492.33
550.68	58457.22
550.84	58302.74
551.01	58571.91
551.18	58637.44
551.34	58756.81
551.51	58642.12
551.68	58684.25
551.84	58855.11
552.01	58555.52
552.18	58899.58
552.34	58518.07
552.51	58937.03
552.68	58504.03
552.84	58714.68
553.01	59054.06
553.18	58939.37
553.34	59004.91
553.51	58731.06
553.67	58920.65
553.84	59152.36
554.01	59056.40
554.17	59077.46
554.34	59082.14
554.51	58939.37
554.67	59238.96
554.84	59049.38
555.00	58965.12
555.17	58930.01
555.33	59203.85
555.50	59065.76
555.67	59138.32
555.83	59161.72
556.00	59096.19
556.16	59510.46
556.33	59152.36
556.50	59267.05
556.66	59318.54
556.83	59196.83
556.99	59627.49
557.16	59402.80
557.32	59489.40
557.49	59615.79
557.65	59416.84
557.82	59594.72
557.98	59463.65
558.15	59620.47
558.32	59707.07
558.48	59461.31
558.65	59444.93
558.81	59568.97
558.98	59501.10
559.14	59568.97
559.31	59571.32
559.47	59784.30
559.64	59821.75
559.80	59707.07
559.97	59922.40
560.13	59660.26
560.30	59742.17
560.46	59735.15
560.63	59959.84
560.79	60053.47
560.96	60009.00
561.12	59819.41
561.29	59786.64
561.45	59969.21
561.61	60083.89
561.78	59929.42
561.94	59971.55
562.11	59894.31
562.27	59915.37
562.44	59987.93
562.60	60140.07
562.77	60336.67
562.93	59779.62
563.10	60055.81
563.26	59927.08
563.42	60264.11
563.59	60165.81
563.75	60128.36
563.92	60271.14
564.08	60102.62
564.24	60116.66
564.41	60238.37
564.57	60154.11
564.74	60111.98
564.90	60200.92
565.07	60097.94
565.23	60243.05
565.39	60116.66
565.56	60130.70
565.72	60224.32
565.88	60306.24
566.05	60158.79
566.21	60434.97
566.38	60336.67
566.54	60390.50
566.70	60458.38
566.87	60556.68
567.03	60264.11
567.19	60449.02
567.36	60287.52
567.52	60264.11
567.68	60495.83
567.85	60612.85
568.01	60491.15
568.17	60449.02
568.34	60519.23
568.50	60432.63
568.66	60196.24
568.83	60423.27
568.99	60402.21
569.15	60317.95
569.32	60294.54
569.48	60392.84
569.64	60563.70
569.81	60364.76
569.97	60224.32
570.13	60444.33
570.30	60374.12
570.46	60509.87
570.62	60479.44
570.78	60554.34
570.95	60568.38
571.11	60591.79
571.27	60739.24
571.43	60601.15
571.60	60570.72
571.76	60530.93
571.92	60580.09
572.09	60430.29
572.25	60502.85
572.41	60671.37
572.57	60736.90
572.74	60863.29
572.90	60666.69
573.06	60701.79
573.22	60692.43
573.38	60662.00
573.55	60732.22
573.71	61092.66
573.87	60743.92
574.03	60636.26
574.20	60804.78
574.36	60774.35
574.52	60715.84
574.68	60823.50
574.84	60837.54
575.01	61045.85
575.17	60783.71
575.33	60683.07
575.49	60790.73
575.65	60872.65
575.82	60891.38
575.98	60893.72
576.14	60823.50
576.30	60828.18
576.46	60914.78
576.62	60945.21
576.79	60954.57
576.95	60725.20
577.11	60977.98
577.27	60889.04
577.43	60879.67
577.59	60673.71
577.75	60699.45
577.92	60800.10
578.08	60779.03
578.24	61064.58
578.40	61022.45
578.56	61013.08
578.72	60851.59
578.88	61123.09
579.04	61020.11
579.21	60942.87
579.37	61043.51
579.53	61151.18
579.69	60877.33
579.85	60797.76
580.01	60952.23
580.17	60914.78
580.33	60982.66
580.49	60882.02
580.65	61050.53
580.82	60968.61
580.98	60828.18
581.14	60870.31
581.30	61043.51
581.46	60828.18
581.62	61048.19
581.78	60853.93
581.94	61080.96
582.10	60985.00
582.26	60996.70
582.42	60912.44
582.58	60966.27
582.74	60935.85
582.90	60933.51
583.06	61057.56
583.22	60947.55
583.38	60935.85
583.54	60985.00
583.70	61193.31
583.86	61006.06
584.02	60823.50
584.18	61078.62
584.34	61003.72
584.50	60999.04
584.66	60963.93
584.82	60844.57
584.98	61123.09
585.14	61097.34
585.30	60919.46
585.46	61167.56
585.62	61083.30
585.78	61329.06
585.94	61043.51
586.10	60938.19
586.26	61195.65
586.42	61034.15
586.58	61027.13
586.74	61064.58
586.90	61336.08
587.06	61113.73
587.22	61277.57
587.38	61073.94
587.54	61071.60
587.70	61256.50
587.86	61125.43
588.02	61214.37
588.18	61249.48
588.34	61153.52
588.49	61254.16
