SpectraSuite Data File
++++++++++++++++++++++++++++++++++++
Date: Fri Oct 25 10:44:04 EDT 2013
User: price-jones
Dark Spectrum Present: No
Reference Spectrum Present: No
Number of Sampled Component Spectra: 1
Spectrometers: USB2+H05261
Integration Time (usec): 100000 (USB2+H05261)
Spectra Averaged: 1 (USB2+H05261)
Boxcar Smoothing: 0 (USB2+H05261)
Correct for Electrical Dark: No (USB2+H05261)
Strobe/Lamp Enabled: No (USB2+H05261)
Correct for Detector Non-linearity: No (USB2+H05261)
Correct for Stray Light: No (USB2+H05261)
Number of Pixels in Processed Spectrum: 2048
>>>>>Begin Processed Spectral Data<<<<<
365.73	147.45
365.92	147.45
366.12	147.45
366.32	77.24
366.52	28.09
366.72	14.04
366.91	23.41
367.11	0.00
367.31	0.00
367.51	79.58
367.70	0.00
367.90	0.00
368.10	0.00
368.30	58.51
368.49	67.88
368.69	63.19
368.89	91.28
369.09	16.38
369.28	39.79
369.48	25.75
369.68	49.15
369.87	32.77
370.07	159.16
370.27	110.01
370.47	173.20
370.66	463.43
370.86	411.93
371.06	524.28
371.25	510.24
371.45	475.13
371.65	451.72
371.84	475.13
372.04	486.83
372.24	475.13
372.44	449.38
372.63	552.37
372.83	550.03
373.03	486.83
373.22	554.71
373.42	568.75
373.62	435.34
373.81	582.79
374.01	580.45
374.21	521.94
374.40	526.62
374.60	543.00
374.79	559.39
374.99	578.11
375.19	606.20
375.38	653.01
375.58	547.69
375.78	631.94
375.97	606.20
376.17	662.37
376.37	543.00
376.56	585.13
376.76	606.20
376.95	561.73
377.15	685.78
377.35	629.60
377.54	634.29
377.74	697.48
377.93	566.41
378.13	702.16
378.33	667.05
378.52	674.07
378.72	674.07
378.91	643.65
379.11	709.18
379.31	615.56
379.50	723.23
379.70	723.23
379.89	734.93
380.09	697.48
380.28	685.78
380.48	772.38
380.68	720.88
380.87	641.31
381.07	650.67
381.26	739.61
381.46	685.78
381.65	622.58
381.85	739.61
382.04	683.44
382.24	606.20
382.43	690.46
382.63	683.44
382.83	777.06
383.02	732.59
383.22	798.12
383.41	706.84
383.61	777.06
383.80	802.80
384.00	844.93
384.19	805.14
384.39	866.00
384.58	905.79
384.78	880.04
384.97	793.44
385.17	823.87
385.36	854.30
385.56	781.74
385.75	697.48
385.95	863.66
386.14	889.40
386.34	903.45
386.53	805.14
386.72	901.11
386.92	978.34
387.11	954.94
387.31	887.06
387.50	976.00
387.70	889.40
387.89	894.08
388.09	922.17
388.28	926.85
388.48	919.83
388.67	957.28
388.86	898.77
389.06	954.94
389.25	1022.81
389.45	1008.77
389.64	1053.24
389.84	1078.99
390.03	1088.35
390.22	987.71
390.42	1006.43
390.61	959.62
390.81	1034.52
391.00	1053.24
391.19	1057.92
391.39	1088.35
391.58	1102.39
391.78	1018.13
391.97	1081.33
392.16	1160.91
392.36	1100.05
392.55	1135.16
392.75	1013.45
392.94	1060.26
393.13	1029.84
393.33	1022.81
393.52	1064.94
393.71	1149.20
393.91	1196.01
394.10	1125.80
394.29	1214.74
394.49	1217.08
394.68	1252.19
394.88	1256.87
395.07	1228.78
395.26	1338.79
395.46	1291.98
395.65	1254.53
395.84	1366.87
396.04	1329.42
396.23	1259.21
396.42	1210.06
396.62	1153.88
396.81	1263.89
397.00	1268.57
397.19	1404.32
397.39	1373.89
397.58	1460.49
397.77	1432.41
397.97	1432.41
398.16	1516.67
398.35	1523.69
398.55	1437.09
398.74	1596.25
398.93	1549.43
399.12	1537.73
399.32	1519.01
399.51	1540.07
399.70	1612.63
399.90	1589.22
400.09	1750.72
400.28	1778.81
400.47	1605.61
400.67	1664.12
400.86	1797.53
401.05	1827.96
401.24	1750.72
401.44	1797.53
401.63	1846.68
401.82	1834.98
402.01	1893.49
402.21	1799.87
402.40	1732.00
402.59	1860.73
402.78	1858.39
402.97	1853.70
403.17	1827.96
403.36	1795.19
403.55	1863.07
403.74	1989.46
403.93	2019.88
404.13	1909.88
404.32	1921.58
404.51	1891.15
404.70	2019.88
404.89	2052.65
405.09	2087.76
405.28	1970.73
405.47	2001.16
405.66	2043.29
405.85	2087.76
406.05	2045.63
406.24	2069.03
406.43	2197.76
406.62	2062.01
406.81	2272.66
407.00	2108.82
407.20	2221.17
407.39	2209.47
407.58	2321.81
407.77	2361.60
407.96	2230.53
408.15	2307.77
408.34	2216.49
408.54	2368.62
408.73	2307.77
408.92	2452.88
409.11	2525.44
409.30	2396.71
409.49	2267.98
409.68	2267.98
409.87	2455.22
410.07	2469.27
410.26	2504.37
410.45	2450.54
410.64	2518.42
410.83	2717.36
411.02	2588.63
411.21	2834.39
411.40	2750.13
411.59	2642.46
411.78	2787.58
411.98	2733.75
412.17	2771.19
412.36	2738.43
412.55	2789.92
412.74	2892.90
412.93	2806.30
413.12	2841.41
413.31	3014.61
413.50	2923.33
413.69	2909.29
413.88	3066.10
414.07	3148.02
414.26	3110.57
414.45	3119.93
414.64	3208.87
414.83	3162.06
415.02	3166.74
415.22	3215.90
415.41	3246.32
415.60	3332.92
415.79	3400.80
415.98	3346.97
416.17	3391.44
416.36	3330.58
416.55	3391.44
416.74	3527.19
416.93	3440.59
417.12	3466.33
417.31	3499.10
417.50	3522.51
417.69	3515.48
417.88	3693.37
418.07	3396.12
418.26	3728.47
418.45	3534.21
418.64	3784.65
418.83	3578.68
419.02	3709.75
419.21	3688.68
419.39	3705.07
419.58	3653.58
419.77	3695.71
419.96	3815.07
420.15	3962.53
420.34	3782.31
420.53	3861.88
420.72	3918.06
420.91	4081.89
421.10	3904.01
421.29	3925.08
421.48	3857.20
421.67	3988.27
421.86	4032.74
422.05	3929.76
422.24	3847.84
422.43	3932.10
422.61	3819.75
422.80	4187.22
422.99	4140.41
423.18	4117.00
423.37	4238.71
423.56	4063.17
423.75	4044.45
423.94	3936.78
424.13	3801.03
424.32	3946.14
424.50	4245.73
424.69	4227.01
424.88	4290.20
425.07	4105.30
425.26	3960.19
425.45	4306.59
425.64	4152.11
425.83	4301.90
426.01	4191.90
426.20	4271.48
426.39	4222.33
426.58	4046.79
426.77	3990.61
426.96	4018.70
427.15	4124.02
427.33	4252.75
427.52	4175.52
427.71	4196.58
427.90	4348.72
428.09	4388.50
428.28	4369.78
428.46	4292.54
428.65	4521.92
428.84	4491.49
429.03	4463.40
429.22	4395.53
429.40	4339.35
429.59	4266.80
429.78	4098.28
429.97	4112.32
430.16	4145.09
430.34	4227.01
430.53	4365.10
430.72	4308.93
430.91	4236.37
431.10	4489.15
431.28	4732.56
431.47	4746.61
431.66	4856.61
431.85	4690.43
432.03	4856.61
432.22	4875.34
432.41	4926.83
432.60	4861.29
432.79	4809.80
432.97	5186.63
433.16	4961.94
433.35	4873.00
433.54	4718.52
433.72	4868.31
433.91	5020.45
434.10	5128.11
434.28	4924.49
434.47	5160.88
434.66	5116.41
434.85	5118.75
435.03	5195.99
435.22	5153.86
435.41	5430.04
435.59	5088.32
435.78	5401.96
435.97	5523.66
436.16	5448.77
436.34	5540.05
436.53	5345.78
436.72	5413.66
436.90	5324.72
437.09	5327.06
437.28	5411.32
437.46	5310.68
437.65	5427.70
437.84	5404.30
438.02	5474.51
438.21	5371.53
438.40	5329.40
438.58	5401.96
438.77	5507.28
438.96	5607.92
439.14	5645.37
439.33	5865.38
439.52	5893.47
439.70	5830.27
439.89	5856.02
440.08	5851.34
440.26	6033.90
440.45	5804.53
440.63	6118.16
440.82	6127.52
441.01	6258.59
441.19	6209.44
441.38	6363.92
441.57	6401.37
441.75	6331.15
441.94	6525.41
442.12	6623.72
442.31	6722.02
442.50	6642.44
442.68	6558.18
442.87	6715.00
443.05	6548.82
443.24	6689.25
443.43	6740.74
443.61	6815.64
443.80	6815.64
443.98	6593.29
444.17	6679.89
444.35	6780.53
444.54	6829.68
444.73	6937.35
444.91	6602.65
445.10	6745.42
445.28	6789.89
445.47	6712.66
445.65	6764.15
445.84	6878.83
446.02	6862.45
446.21	6736.06
446.39	6803.94
446.58	6869.47
446.77	6885.86
446.95	6827.34
447.14	6899.90
447.32	6965.43
447.51	6951.39
447.69	6920.96
447.88	7213.53
448.06	7080.12
448.25	6991.18
448.43	7047.35
448.62	7169.06
448.80	6995.86
448.99	7105.87
449.17	7075.44
449.36	7082.46
449.54	7302.47
449.73	7258.00
449.91	7489.71
450.10	7419.50
450.28	7520.14
450.46	7515.46
450.65	7660.57
450.83	7618.44
451.02	7559.93
451.20	7782.28
451.39	7522.48
451.57	7529.50
451.76	7489.71
451.94	7588.02
452.13	7777.60
452.31	7527.16
452.49	7304.81
452.68	7620.78
452.86	7527.16
453.05	7501.42
453.23	7639.51
453.42	7569.29
453.60	7691.00
453.78	7829.09
453.97	7709.72
454.15	7840.79
454.34	7627.81
454.52	7817.39
454.70	7960.16
454.89	8095.91
455.07	7901.65
455.26	7953.14
455.44	7992.93
455.62	8107.62
455.81	8053.78
455.99	8234.00
456.17	8325.29
456.36	8030.38
456.54	8278.47
456.73	8329.97
456.91	8355.71
457.09	8535.93
457.28	8559.34
457.46	8418.91
457.64	8533.59
457.83	8449.33
458.01	8418.91
458.19	8610.83
458.38	8332.31
458.56	8596.79
458.74	8566.36
458.93	8367.42
459.11	8624.87
459.29	8688.07
459.48	8692.75
459.66	8709.13
459.84	8823.82
460.03	8840.20
460.21	8919.78
460.39	8975.95
460.57	8791.05
460.76	8992.34
460.94	9198.31
461.12	9095.32
461.31	8884.67
461.49	8985.32
461.67	9090.64
461.85	9320.01
462.04	9174.90
462.22	9598.54
462.40	9364.48
462.59	9252.14
462.77	9327.03
462.95	9235.75
463.13	9502.58
463.32	9146.81
463.50	9366.82
463.68	9423.00
463.86	9446.40
464.05	9097.66
464.23	9362.14
464.41	9483.85
464.59	9163.20
464.78	9509.60
464.96	9460.45
465.14	9432.36
465.32	9458.10
465.50	9577.47
465.69	9877.06
465.87	9544.70
466.05	9617.26
466.23	9617.26
466.41	9554.07
466.60	9863.02
466.78	9579.81
466.96	9696.84
467.14	9692.16
467.32	9614.92
467.51	9736.63
467.69	9483.85
467.87	9811.53
468.05	9848.97
468.23	9694.50
468.41	9888.76
468.60	9834.93
468.78	10057.28
468.96	10120.48
469.14	10047.92
469.32	10289.00
469.50	9671.09
469.69	10040.90
469.87	10270.27
470.05	10160.27
470.23	10125.16
470.41	10370.91
470.59	10230.48
470.77	10036.22
470.95	10373.25
471.14	10829.66
471.32	10183.67
471.50	10647.10
471.68	10672.84
471.86	10523.05
472.04	10693.91
472.22	11119.89
472.40	10686.89
472.58	10731.36
472.77	11016.90
472.95	10834.34
473.13	11332.87
473.31	11133.93
473.49	10932.64
473.67	11044.99
473.85	11206.48
474.03	11250.96
474.21	11384.37
474.39	11508.41
474.57	11447.56
474.75	11513.10
474.93	11651.19
475.12	11672.25
475.30	11508.41
475.48	11712.04
475.66	11620.76
475.84	11779.92
476.02	11922.69
476.20	11843.11
476.38	12222.28
476.56	12381.43
476.74	12271.43
476.92	12093.55
477.10	12238.66
477.28	12531.23
477.46	12727.83
477.64	12702.09
477.82	12915.08
478.00	13240.41
478.18	13263.82
478.36	12936.14
478.54	13422.97
478.72	13219.35
478.90	13523.62
479.08	13572.77
479.26	13626.60
479.44	13743.63
479.62	13841.93
479.80	13879.38
479.98	14253.86
480.16	14200.03
480.34	14031.51
480.52	14347.48
480.70	14403.66
480.88	14218.75
481.06	14321.74
481.24	14382.59
481.41	14930.28
481.59	14869.42
481.77	14930.28
481.95	14913.89
482.13	15246.25
482.31	15051.99
482.49	15496.69
482.67	15407.75
482.85	15325.83
483.03	15723.72
483.21	16070.12
483.39	16177.78
483.57	15744.78
483.74	16130.97
483.92	16224.59
484.10	16203.53
484.28	16159.06
484.46	16500.78
484.64	17029.74
484.82	16645.89
485.00	16987.61
485.18	17090.59
485.35	17130.38
485.53	16924.41
485.71	16627.17
485.89	17032.08
486.07	17193.58
486.25	17177.19
486.43	17610.19
486.61	17731.90
486.78	17933.18
486.96	17848.93
487.14	18228.09
487.32	18698.54
487.50	18724.29
487.68	18480.87
487.85	19105.79
488.03	19058.98
488.21	19061.32
488.39	19101.11
488.57	19344.53
488.75	19386.66
488.92	19793.91
489.10	20308.83
489.28	20002.22
489.46	20631.82
489.64	20603.74
489.81	20664.59
489.99	21022.69
490.17	20849.49
490.35	21256.75
490.53	21006.31
490.70	21446.33
490.88	21139.72
491.06	21795.07
491.24	21687.40
491.41	21104.61
491.59	21774.00
491.77	21553.99
491.95	21874.65
492.13	22071.25
492.30	22132.11
492.48	22441.06
492.66	22354.46
492.84	22672.77
493.01	22979.38
493.19	22876.40
493.37	22960.66
493.54	23133.86
493.72	23358.55
493.90	23531.75
494.08	23674.52
494.25	24372.00
494.43	23777.50
494.61	24266.67
494.79	24421.15
494.96	24144.97
495.14	24477.32
495.32	24589.67
495.49	24797.98
495.67	25076.50
495.85	24989.90
496.02	25184.16
496.20	25427.58
496.38	25385.45
496.55	25530.56
496.73	26036.12
496.91	25872.28
497.09	25926.11
497.26	26050.16
497.44	25720.15
497.62	26253.79
497.79	26441.03
497.97	26024.42
498.14	26342.73
498.32	26607.21
498.50	26574.44
498.67	27000.42
498.85	26817.86
499.03	27225.11
499.20	27185.32
499.38	26998.08
499.56	27276.60
499.73	27297.67
499.91	27653.43
500.08	27285.97
500.26	26974.67
500.44	27346.82
500.61	27747.05
500.79	27620.66
500.97	27833.65
501.14	27768.12
501.32	28320.48
501.49	28004.51
501.67	28610.71
501.84	28400.06
502.02	28411.76
502.20	28676.24
502.37	28872.85
502.55	28723.05
502.72	29111.58
502.90	28919.66
503.07	28767.52
503.25	29413.51
503.43	28694.97
503.60	29296.49
503.78	29294.14
503.95	29177.12
504.13	29378.40
504.30	29530.54
504.48	29736.51
504.65	30000.99
504.83	30338.02
505.01	30424.62
505.18	30071.20
505.36	30541.65
505.53	30354.41
505.71	30803.79
505.88	31276.58
506.06	30588.46
506.23	30778.04
506.41	30794.43
506.58	30789.75
506.76	31000.40
506.93	30885.71
507.11	30845.92
507.28	30874.01
507.46	31082.31
507.63	30892.73
507.81	31248.49
507.98	30995.71
508.16	31522.34
508.33	31758.73
508.50	31894.48
508.68	32119.17
508.85	32348.54
509.03	31625.32
509.20	32095.77
509.38	32121.51
509.55	32236.20
509.73	32142.58
509.90	32374.29
510.08	32163.64
510.25	32470.25
510.42	32294.71
510.60	32816.65
510.77	33123.26
510.95	32999.21
511.12	33081.13
511.30	33397.10
511.47	33582.01
511.64	33226.24
511.82	33752.87
511.99	33514.13
512.17	33266.03
512.34	33532.86
512.51	33247.31
512.69	33598.39
512.86	33647.54
513.04	34007.98
513.21	34068.84
513.38	34061.82
513.56	33727.12
513.73	33638.18
513.90	34550.99
514.08	33647.54
514.25	34354.38
514.43	34125.01
514.60	34206.93
514.77	33947.13
514.95	34501.84
515.12	34565.03
515.29	34660.99
515.47	35337.41
515.64	35372.52
515.81	34707.80
515.99	34944.20
516.16	34705.46
516.33	34426.94
516.51	34445.66
516.68	34384.81
516.85	34260.76
517.03	34511.20
517.20	34787.38
517.37	35227.40
517.54	35498.91
517.72	35079.95
517.89	35419.33
518.06	34733.55
518.24	34773.34
518.41	35398.26
518.58	35475.50
518.75	35526.99
518.93	36184.68
519.10	35672.10
519.27	36388.31
519.45	35957.65
519.62	36453.84
519.79	36392.99
519.96	36275.96
520.14	36952.38
520.31	36397.67
520.48	36423.42
520.65	36950.04
520.83	37216.86
521.00	36907.91
521.17	36856.42
521.34	37158.34
521.52	37514.11
521.69	37254.31
521.86	37600.71
522.03	37436.87
522.20	36945.36
522.38	37521.13
522.55	37745.82
522.72	37310.48
522.89	37289.42
523.07	37780.93
523.24	37675.60
523.41	38209.25
523.58	38061.79
523.75	38429.26
523.92	38328.61
524.10	38405.85
524.27	38405.85
524.44	38534.58
524.61	38735.87
524.78	38684.37
524.96	38602.46
525.13	38625.86
525.30	39222.70
525.47	38682.03
525.64	38611.82
525.81	38890.34
525.98	38904.38
526.16	38642.24
526.33	38342.66
526.50	38249.03
526.67	38253.72
526.84	38216.27
527.01	38672.67
527.18	38955.88
527.36	39353.77
527.53	39435.69
527.70	39746.98
527.87	39838.26
528.04	39267.17
528.21	39915.50
528.38	39716.55
528.55	40395.31
528.72	40357.86
528.89	40304.02
529.07	39765.70
529.24	39988.05
529.41	40201.04
529.58	39910.82
529.75	39533.99
529.92	40002.10
530.09	40254.87
530.26	40416.37
530.43	40498.29
530.60	40348.50
530.77	40282.96
530.94	40898.52
531.11	40531.06
531.28	40369.56
531.46	40442.12
531.63	41125.55
531.80	40247.85
531.97	40477.22
532.14	40598.93
532.31	40275.94
532.48	40594.25
532.65	40996.82
532.82	40472.54
532.99	40877.46
533.16	40830.65
533.33	41102.15
533.50	41221.52
533.67	41008.53
533.84	41170.02
534.01	40830.65
534.18	41612.38
534.35	41544.51
534.52	40968.74
534.69	41797.29
534.86	41886.23
535.03	41851.12
535.20	42057.09
535.37	42586.05
535.54	42422.21
535.71	41813.67
535.88	42209.22
536.05	41766.86
536.22	42216.24
536.38	42021.98
536.55	41471.95
536.72	41954.10
536.89	41394.71
537.06	41696.64
537.23	42281.78
537.40	42160.07
537.57	42377.74
537.74	42361.36
537.91	42302.84
538.08	42351.99
538.25	42155.39
538.42	42447.96
538.59	42581.37
538.75	41799.63
538.92	42665.63
539.09	43014.37
539.26	42010.28
539.43	42572.00
539.60	42794.36
539.77	42277.10
539.94	42677.33
540.11	42316.89
540.28	42447.96
540.44	42581.37
540.61	42314.55
540.78	42576.69
540.95	42328.59
541.12	42948.83
541.29	42707.76
541.46	43236.72
541.62	43466.09
541.79	43049.47
541.96	42986.28
542.13	42955.85
542.30	42885.64
542.47	43262.46
542.63	43225.01
542.80	42953.51
542.97	43777.38
543.14	43358.42
543.31	43540.99
543.48	43770.36
543.64	44027.82
543.81	43981.01
543.98	43856.96
544.15	43878.02
544.32	44081.65
544.48	44467.84
544.65	44074.63
544.82	43971.64
544.99	43732.91
545.16	44198.68
545.32	44083.99
545.49	44451.45
545.66	44486.56
545.83	44629.34
546.00	44320.38
546.16	44130.80
546.33	44006.75
546.50	44095.69
546.67	44296.98
546.83	43791.42
547.00	44439.75
547.17	44280.60
547.34	44158.89
547.50	44215.06
547.67	44676.15
547.84	44395.28
548.00	45090.42
548.17	44854.03
548.34	44470.18
548.51	45095.10
548.67	44481.88
548.84	44718.28
549.01	44837.64
549.18	44584.86
549.34	44823.60
549.51	44863.39
549.68	45249.58
549.84	44814.24
550.01	45069.36
550.18	45247.24
550.34	44879.77
550.51	44940.63
550.68	45057.65
550.84	44584.86
551.01	44919.56
551.18	44959.35
551.34	45177.02
551.51	45471.93
551.68	45303.41
551.84	45464.91
552.01	45507.04
552.18	45282.34
552.34	44968.71
552.51	45401.71
552.68	45081.06
552.84	45317.45
553.01	45385.33
553.18	45233.19
553.34	45694.28
553.51	45195.74
553.67	45497.67
553.84	45970.46
554.01	45722.37
554.17	45921.31
554.34	45624.06
554.51	45759.81
554.67	46073.45
554.84	45909.61
555.00	45710.66
555.17	45525.76
555.33	45729.39
555.50	45696.62
555.67	45500.01
555.83	45937.69
556.00	45691.94
556.16	46263.03
556.33	45514.06
556.50	45790.24
556.66	46071.10
556.83	45659.17
556.99	46007.91
557.16	46155.36
557.32	45560.87
557.49	46178.77
557.65	45790.24
557.82	46120.26
557.98	45918.97
558.15	46237.28
558.32	45961.10
558.48	46031.32
558.65	46141.32
558.81	45830.03
558.98	45968.12
559.14	45977.48
559.31	46183.45
559.47	46080.47
559.64	46391.76
559.80	46487.72
559.97	46003.23
560.13	45815.99
560.30	46373.03
560.46	46557.94
560.63	46600.07
560.79	46913.70
560.96	46466.66
561.12	46745.18
561.29	46461.97
561.45	46410.48
561.61	46513.47
561.78	46248.99
561.94	46284.09
562.11	46103.87
562.27	46658.58
562.44	46593.04
562.60	46380.06
562.77	46894.97
562.93	46567.30
563.10	46848.16
563.26	46351.97
563.42	46937.10
563.59	46630.49
563.75	46501.76
563.92	46576.66
564.08	46721.77
564.24	46745.18
564.41	47178.18
564.57	46754.54
564.74	46429.21
564.90	46724.11
565.07	46918.38
565.23	46651.56
565.39	46883.27
565.56	46623.47
565.72	46581.34
565.88	46396.44
566.05	46700.71
566.21	46419.84
566.38	46574.32
566.54	46560.28
566.70	46923.06
566.87	46796.67
567.03	46997.96
567.19	47386.49
567.36	46829.44
567.52	46511.13
567.68	47217.97
567.85	47079.88
568.01	47157.11
568.17	46564.96
568.34	47482.45
568.50	46965.19
568.66	46873.91
568.83	47086.90
568.99	46635.17
569.15	46696.03
569.32	46766.24
569.48	46920.72
569.64	47213.29
569.81	46890.29
569.97	46817.74
570.13	46831.78
570.30	46478.36
570.46	46639.86
570.62	46745.18
570.78	46354.31
570.95	46436.23
571.11	46653.90
571.27	47054.13
571.43	47070.51
571.60	46651.56
571.76	46899.65
571.92	46817.74
572.09	46536.87
572.25	46525.17
572.41	47023.70
572.57	47461.38
572.74	46962.85
572.90	46972.21
573.06	47145.41
573.22	47026.04
573.38	47145.41
573.55	47124.35
573.71	47292.86
573.87	47304.57
574.03	46972.21
574.20	46831.78
574.36	46726.46
574.52	47037.75
574.68	47096.26
574.84	46738.16
575.01	46972.21
575.17	46969.87
575.33	47004.98
575.49	46581.34
575.65	47131.37
575.82	46806.03
575.98	46845.82
576.14	47089.24
576.30	47206.26
576.46	46918.38
576.62	46988.60
576.79	46784.97
576.95	46794.33
577.11	46696.03
577.27	47173.50
577.43	47203.92
577.59	46677.30
577.75	46909.02
577.92	46522.83
578.08	46373.03
578.24	46529.85
578.40	47323.29
578.56	47208.61
578.72	46960.51
578.88	47150.09
579.04	47210.95
579.21	47002.64
579.37	46930.08
579.53	47054.13
579.69	47026.04
579.85	46745.18
580.01	47662.67
580.17	47079.88
580.33	46941.78
580.49	47206.26
580.65	47283.50
580.82	47042.43
580.98	47246.05
581.14	46841.14
581.30	47327.97
581.46	47351.38
581.62	47021.36
581.78	46899.65
581.94	47288.18
582.10	46843.48
582.26	47491.81
582.42	46691.35
582.58	46902.00
582.74	46911.36
582.90	47222.65
583.06	46986.25
583.22	46948.81
583.38	47304.57
583.54	47756.29
583.70	46930.08
583.86	47161.79
584.02	46548.57
584.18	47079.88
584.34	46843.48
584.50	47196.90
584.66	47283.50
584.82	46848.16
584.98	47468.40
585.14	47377.12
585.30	46986.25
585.46	46918.38
585.62	46836.46
585.78	47222.65
585.94	46546.23
586.10	47243.71
586.26	46745.18
586.42	46953.49
586.58	47028.38
586.74	47365.42
586.90	46824.76
587.06	47089.24
587.22	47292.86
587.38	47000.30
587.54	47161.79
587.70	47077.54
587.86	47433.30
588.02	47096.26
588.18	47297.55
588.34	46721.77
588.49	46560.28
588.65	46473.68
588.81	46564.96
588.97	46894.97
589.13	46328.56
589.29	46642.20
589.45	46632.83
589.61	46927.74
589.77	47264.78
