SpectraSuite Data File
++++++++++++++++++++++++++++++++++++
Date: Fri Oct 25 10:47:11 EDT 2013
User: price-jones
Dark Spectrum Present: No
Reference Spectrum Present: No
Number of Sampled Component Spectra: 1
Spectrometers: USB2+H05261
Integration Time (usec): 100000 (USB2+H05261)
Spectra Averaged: 1 (USB2+H05261)
Boxcar Smoothing: 0 (USB2+H05261)
Correct for Electrical Dark: No (USB2+H05261)
Strobe/Lamp Enabled: No (USB2+H05261)
Correct for Detector Non-linearity: No (USB2+H05261)
Correct for Stray Light: No (USB2+H05261)
Number of Pixels in Processed Spectrum: 2048
>>>>>Begin Processed Spectral Data<<<<<
365.73	161.50
365.92	161.50
366.12	161.50
366.32	100.64
366.52	53.83
366.72	28.09
366.91	0.00
367.11	28.09
367.31	98.30
367.51	56.17
367.70	0.00
367.90	42.13
368.10	42.13
368.30	44.47
368.49	105.32
368.69	18.72
368.89	35.11
369.09	11.70
369.28	32.77
369.48	56.17
369.68	102.98
369.87	56.17
370.07	107.66
370.27	124.05
370.47	271.50
370.66	390.87
370.86	376.83
371.06	374.49
371.25	484.49
371.45	454.06
371.65	510.24
371.84	402.57
372.04	437.68
372.24	458.74
372.44	454.06
372.63	484.49
372.83	470.45
373.03	627.26
373.22	433.00
373.42	512.58
373.62	557.05
373.81	538.32
374.01	491.51
374.21	620.24
374.40	521.94
374.60	526.62
374.79	547.69
374.99	526.62
375.19	554.71
375.38	606.20
375.58	585.13
375.78	568.75
375.97	528.96
376.17	592.16
376.37	521.94
376.56	629.60
376.76	580.45
376.95	514.92
377.15	629.60
377.35	547.69
377.54	603.86
377.74	634.29
377.93	706.84
378.13	592.16
378.33	667.05
378.52	638.97
378.72	688.12
378.91	739.61
379.11	585.13
379.31	606.20
379.50	608.54
379.70	610.88
379.89	688.12
380.09	676.41
380.28	615.56
380.48	585.13
380.68	643.65
380.87	507.90
381.07	655.35
381.26	706.84
381.46	706.84
381.65	660.03
381.85	723.23
382.04	641.31
382.24	699.82
382.43	725.57
382.63	676.41
382.83	704.50
383.02	667.05
383.22	629.60
383.41	631.94
383.61	631.94
383.80	706.84
384.00	624.92
384.19	765.36
384.39	667.05
384.58	692.80
384.78	741.95
384.97	767.70
385.17	730.25
385.36	784.08
385.56	678.76
385.75	692.80
385.95	774.72
386.14	788.76
386.34	681.10
386.53	791.10
386.72	753.65
386.92	751.31
387.11	821.53
387.31	826.21
387.50	828.55
387.70	713.86
387.89	800.46
388.09	741.95
388.28	812.17
388.48	861.32
388.67	936.21
388.86	868.34
389.06	833.23
389.25	901.11
389.45	840.25
389.64	933.87
389.84	837.91
390.03	798.12
390.22	863.66
390.42	903.45
390.61	938.55
390.81	870.68
391.00	901.11
391.19	947.92
391.39	931.53
391.58	959.62
391.78	961.96
391.97	990.05
392.16	922.17
392.36	968.98
392.55	933.87
392.75	933.87
392.94	959.62
393.13	922.17
393.33	873.02
393.52	968.98
393.71	1022.81
393.91	1006.43
394.10	1036.86
394.29	997.07
394.49	999.41
394.68	1104.73
394.88	1151.54
395.07	1069.62
395.26	1050.90
395.46	1102.39
395.65	1116.44
395.84	1158.57
396.04	1123.46
396.23	1067.28
396.42	1116.44
396.62	1069.62
396.81	1128.14
397.00	1146.86
397.19	1153.88
397.39	1214.74
397.58	1231.12
397.77	1200.69
397.97	1259.21
398.16	1217.08
398.35	1233.46
398.55	1252.19
398.74	1352.83
398.93	1270.91
399.12	1294.32
399.32	1277.93
399.51	1268.57
399.70	1315.38
399.90	1322.40
400.09	1364.53
400.28	1345.81
400.47	1392.62
400.67	1362.19
400.86	1397.30
401.05	1322.40
401.24	1383.26
401.44	1385.60
401.63	1448.79
401.82	1476.88
402.01	1357.51
402.21	1479.22
402.40	1563.48
402.59	1519.01
402.78	1500.28
402.97	1549.43
403.17	1467.52
403.36	1591.56
403.55	1514.33
403.74	1617.31
403.93	1563.48
404.13	1748.38
404.32	1678.16
404.51	1652.42
404.70	1678.16
404.89	1561.14
405.09	1746.04
405.28	1724.97
405.47	1682.85
405.66	1685.19
405.85	1701.57
406.05	1710.93
406.24	1692.21
406.43	1881.79
406.62	1853.70
406.81	1930.94
407.00	1837.32
407.20	1750.72
407.39	1795.19
407.58	1858.39
407.77	1916.90
407.96	1930.94
408.15	1825.62
408.34	1858.39
408.54	1994.14
408.73	2026.90
408.92	1909.88
409.11	1975.41
409.30	2010.52
409.49	2026.90
409.68	2052.65
409.87	2040.95
410.07	2073.71
410.26	2059.67
410.45	1994.14
410.64	2157.97
410.83	2150.95
411.02	2157.97
411.21	2232.87
411.40	2179.04
411.59	2260.96
411.78	2333.51
411.98	2277.34
412.17	2211.81
412.36	2277.34
412.55	2249.25
412.74	2368.62
412.93	2307.77
413.12	2499.69
413.31	2483.31
413.50	2326.49
413.69	2462.24
413.88	2497.35
414.07	2476.29
414.26	2539.48
414.45	2455.22
414.64	2413.09
414.83	2691.62
415.02	2719.70
415.22	2703.32
415.41	2684.59
415.60	2712.68
415.79	2743.11
415.98	2775.88
416.17	2759.49
416.36	2862.48
416.55	2778.22
416.74	2825.03
416.93	2799.28
417.12	2906.95
417.31	2895.24
417.50	2885.88
417.69	3059.08
417.88	2958.44
418.07	2963.12
418.26	2998.23
418.45	2965.46
418.64	3087.17
418.83	3021.63
419.02	3185.47
419.21	3021.63
419.39	3157.38
419.58	3038.02
419.77	2944.39
419.96	3239.30
420.15	3162.06
420.34	3220.58
420.53	3248.66
420.72	3368.03
420.91	3316.54
421.10	3365.69
421.29	3377.39
421.48	3332.92
421.67	3346.97
421.86	3316.54
422.05	3386.76
422.24	3279.09
422.43	3309.52
422.61	3370.37
422.80	3571.66
422.99	3499.10
423.18	3494.42
423.37	3499.10
423.56	3517.83
423.75	3541.23
423.94	3414.84
424.13	3084.83
424.32	3295.47
424.50	3585.70
424.69	3618.47
424.88	3463.99
425.07	3398.46
425.26	3517.83
425.45	3377.39
425.64	3527.19
425.83	3538.89
426.01	3527.19
426.20	3524.85
426.39	3496.76
426.58	3489.74
426.77	3403.14
426.96	3585.70
427.15	3499.10
427.33	3634.85
427.52	3545.91
427.71	3606.77
427.90	3616.13
428.09	3674.64
428.28	3747.20
428.46	3733.15
428.65	3723.79
428.84	3829.12
429.03	3873.59
429.22	3810.39
429.40	3651.24
429.59	3695.71
429.78	3604.42
429.97	3527.19
430.16	3597.40
430.34	3801.03
430.53	3953.16
430.72	3779.97
430.91	3721.45
431.10	3719.11
431.28	4011.68
431.47	4051.47
431.66	3995.29
431.85	3829.12
432.03	4138.07
432.22	4203.60
432.41	4056.15
432.60	4168.49
432.79	4112.32
432.97	4147.43
433.16	4159.13
433.35	4121.68
433.54	4077.21
433.72	4133.39
433.91	4058.49
434.10	4229.35
434.28	4166.15
434.47	4325.31
434.66	4318.29
434.85	4442.34
435.03	4383.82
435.22	4432.97
435.41	4631.92
435.59	4430.63
435.78	4482.13
435.97	4592.13
436.16	4395.53
436.34	4500.85
436.53	4496.17
436.72	4634.26
436.90	4491.49
437.09	4561.70
437.28	4505.53
437.46	4458.72
437.65	4589.79
437.84	4610.86
438.02	4557.02
438.21	4617.88
438.40	4620.22
438.58	4830.87
438.77	4891.72
438.96	4732.56
439.14	4863.63
439.33	4873.00
439.52	4926.83
439.70	5085.98
439.89	4957.25
440.08	5060.24
440.26	5170.24
440.45	4973.64
440.63	5071.94
440.82	5231.10
441.01	5076.62
441.19	5296.63
441.38	5359.83
441.57	5327.06
441.75	5476.85
441.94	5526.00
442.12	5514.30
442.31	5647.71
442.50	5530.69
442.68	5600.90
442.87	5373.87
443.05	5577.50
443.24	5797.51
443.43	5743.67
443.61	5687.50
443.80	5951.98
443.98	5579.84
444.17	5500.26
444.35	5755.38
444.54	5898.15
444.73	5710.91
444.91	5661.76
445.10	5790.49
445.28	5727.29
445.47	5598.56
445.65	5673.46
445.84	5900.49
446.02	5778.78
446.21	5923.90
446.39	5820.91
446.58	5809.21
446.77	5785.80
446.95	5813.89
447.14	5846.66
447.32	5879.43
447.51	5792.83
447.69	5813.89
447.88	5942.62
448.06	6106.46
448.25	5970.71
448.43	5795.17
448.62	5839.64
448.80	5994.11
448.99	6031.56
449.17	6104.12
449.36	5893.47
449.54	5996.45
449.73	6029.22
449.91	6127.52
450.10	6155.61
450.28	6441.15
450.46	6174.33
450.65	6258.59
450.83	6333.49
451.02	6382.64
451.20	6342.85
451.39	6335.83
451.57	6452.86
451.76	6204.76
451.94	6221.14
452.13	6335.83
452.31	6588.61
452.49	6230.51
452.68	6380.30
452.86	6389.66
453.05	6370.94
453.23	6448.18
453.42	6478.60
453.60	6403.71
453.78	6562.86
453.97	6511.37
454.15	6525.41
454.34	6581.59
454.52	6441.15
454.70	6684.57
454.89	6518.39
455.07	6682.23
455.26	6698.61
455.44	6827.34
455.62	6745.42
455.81	6743.08
455.99	6808.62
456.17	6808.62
456.36	7016.93
456.54	7054.37
456.73	6946.71
456.91	7124.59
457.09	6913.94
457.28	7159.70
457.46	6960.75
457.64	7105.87
457.83	7119.91
458.01	7026.29
458.19	7239.28
458.38	7145.66
458.56	7384.39
458.74	7396.09
458.93	7204.17
459.11	7241.62
459.29	7213.53
459.48	7286.09
459.66	7321.20
459.84	7463.97
460.03	7550.57
460.21	7599.72
460.39	7571.63
460.57	7438.22
460.76	7531.84
460.94	7513.12
461.12	7566.95
461.31	7808.03
461.49	7639.51
461.67	7639.51
461.85	7618.44
462.04	7686.32
462.22	8325.29
462.40	7662.91
462.59	7705.04
462.77	7854.84
462.95	7831.43
463.13	7915.69
463.32	7894.63
463.50	7833.77
463.68	8095.91
463.86	8006.97
464.05	7889.95
464.23	8023.36
464.41	8196.56
464.59	7789.30
464.78	8107.62
464.96	8128.68
465.14	8049.10
465.32	8224.64
465.50	8315.92
465.69	8035.06
465.87	8142.72
466.05	8201.24
466.23	8191.88
466.41	8145.06
466.60	8266.77
466.78	8091.23
466.96	8262.09
467.14	8283.16
467.32	8100.59
467.51	8383.80
467.69	8255.07
467.87	8336.99
468.05	8512.53
468.23	8322.94
468.41	8439.97
468.60	8451.67
468.78	8596.79
468.96	8486.78
469.14	8573.38
469.32	8674.03
469.50	8540.61
469.69	8755.94
469.87	8865.95
470.05	8858.93
470.23	9006.38
470.41	8807.44
470.59	9029.79
470.77	8779.35
470.95	8898.72
471.14	9027.45
471.32	9029.79
471.50	9174.90
471.68	9001.70
471.86	9004.04
472.04	9139.79
472.22	9228.73
472.40	9123.41
472.58	9247.46
472.77	9282.56
472.95	9437.04
473.13	9806.84
473.31	9392.57
473.49	9535.34
473.67	9493.21
473.85	9495.55
474.03	9844.29
474.21	9841.95
474.39	9710.88
474.57	9769.40
474.75	9753.01
474.93	9963.66
475.12	9905.15
475.30	9870.04
475.48	9954.30
475.66	10157.92
475.84	10263.25
476.02	10181.33
476.20	9977.70
476.38	10434.11
476.56	10787.53
476.74	10764.12
476.92	10565.18
477.10	10576.88
477.28	10813.28
477.46	10696.25
477.64	10698.59
477.82	11143.29
478.00	11049.67
478.18	11222.87
478.36	11112.86
478.54	11470.97
478.72	11356.28
478.90	11419.47
479.08	11524.80
479.26	11705.02
479.44	11800.98
479.62	11808.00
479.80	11796.30
479.98	11805.66
480.16	12238.66
480.34	12257.39
480.52	12348.67
480.70	12306.54
480.88	12201.21
481.06	12381.43
481.24	12507.82
481.41	12585.06
481.59	12758.26
481.77	12875.29
481.95	12823.80
482.13	13092.96
482.31	13125.72
482.49	13348.08
482.67	13743.63
482.85	13149.13
483.03	13556.38
483.21	13818.52
483.39	13928.53
483.57	13673.41
483.74	13867.67
483.92	14167.26
484.10	14097.05
484.28	14211.73
484.46	14420.04
484.64	14661.12
484.82	14202.37
485.00	14569.83
485.18	15051.99
485.35	15126.88
485.53	14890.49
485.71	14937.30
485.89	15183.06
486.07	15129.22
486.25	15218.16
486.43	15398.38
486.61	15405.41
486.78	15587.97
486.96	15798.62
487.14	15978.84
487.32	15861.81
487.50	16493.76
487.68	16236.30
487.85	16416.52
488.03	16704.40
488.21	16805.05
488.39	16835.47
488.57	17027.40
488.75	17011.01
488.92	17273.15
489.10	17399.54
489.28	17451.03
489.46	17879.35
489.64	17467.42
489.81	17996.38
489.99	18183.62
490.17	18001.06
490.35	18265.54
490.53	18195.32
490.70	18560.45
490.88	18534.70
491.06	18860.04
491.24	18658.75
491.41	18899.83
491.59	18972.38
491.77	18930.25
491.95	19122.18
492.13	19283.67
492.30	19571.56
492.48	20060.73
492.66	19679.22
492.84	19819.66
493.01	19887.53
493.19	19962.43
493.37	20467.98
493.54	20472.67
493.72	20189.46
493.90	20430.54
494.08	20664.59
494.25	20966.52
494.43	20680.97
494.61	21390.16
494.79	21135.04
494.96	21273.13
495.14	20863.54
495.32	21441.65
495.49	21329.30
495.67	21755.28
495.85	21469.73
496.02	21844.22
496.20	21968.27
496.38	22073.59
496.55	22522.98
496.73	22647.02
496.91	22434.03
497.09	22422.33
497.26	22637.66
497.44	22689.15
497.62	22771.07
497.79	23255.56
497.97	23042.57
498.14	23342.16
498.32	23393.65
498.50	23234.50
498.67	23683.88
498.85	23529.41
499.03	23789.20
499.20	23679.20
499.38	24215.18
499.56	23920.28
499.73	24091.13
499.91	24226.89
500.08	24428.17
500.26	24011.56
500.44	24584.99
500.61	24341.57
500.79	24339.23
500.97	24474.98
501.14	24879.89
501.32	25083.52
501.49	24781.59
501.67	24947.77
501.84	25181.82
502.02	25319.92
502.20	25219.27
502.37	25507.16
502.55	25263.74
502.72	25448.64
502.90	25790.36
503.07	25806.75
503.25	25940.16
503.43	25837.17
503.60	26050.16
503.78	25855.90
503.95	25804.41
504.13	26197.62
504.30	26274.85
504.48	26349.75
504.65	26328.69
504.83	26850.63
505.01	26576.78
505.18	26319.32
505.36	26644.66
505.53	26764.03
505.71	26904.46
505.88	26897.44
506.06	26932.54
506.23	27042.55
506.41	27030.85
506.58	26969.99
506.76	27386.61
506.93	27316.39
507.11	26918.50
507.28	27452.14
507.46	27498.95
507.63	27702.58
507.81	27770.46
507.98	27779.82
508.16	27868.76
508.33	27903.87
508.50	27812.59
508.68	27976.42
508.85	28460.91
509.03	28510.07
509.20	28514.75
509.38	28538.15
509.55	29036.69
509.73	28596.67
509.90	28926.68
510.08	28739.44
510.25	28709.01
510.42	28746.46
510.60	29109.24
510.77	29181.80
510.95	29263.72
511.12	29315.21
511.30	29736.51
511.47	29127.97
511.64	29886.30
511.82	29937.79
511.99	29675.65
512.17	30085.25
512.34	29780.98
512.51	29993.97
512.69	30024.39
512.86	29961.20
513.04	30513.56
513.21	30204.61
513.38	30314.62
513.56	30143.76
513.73	30361.43
513.90	30471.43
514.08	30431.65
514.25	30974.65
514.43	30609.53
514.60	30389.52
514.77	30469.09
514.95	31026.14
515.12	30665.70
515.29	30871.67
515.47	31351.48
515.64	31098.70
515.81	31152.53
515.99	31311.69
516.16	31583.19
516.33	31124.44
516.51	31576.17
516.68	31225.09
516.85	31243.81
517.03	31512.97
517.20	31821.92
517.37	31960.02
517.54	31688.51
517.72	31871.07
517.89	31969.38
518.06	31995.12
518.24	32109.81
518.41	31807.88
518.58	32086.40
518.75	32109.81
518.93	32566.21
519.10	32542.81
519.27	32795.59
519.45	32456.21
519.62	32566.21
519.79	32835.38
519.96	32875.16
520.14	32921.98
520.31	32980.49
520.48	32662.18
520.65	32933.68
520.83	32790.91
521.00	33113.90
521.17	33553.92
521.34	33617.11
521.52	33347.95
521.69	33617.11
521.86	33546.90
522.03	33706.05
522.20	33689.67
522.38	34220.97
522.55	33741.16
522.72	33961.17
522.89	33797.34
523.07	34132.03
523.24	34019.69
523.41	34260.76
523.58	33549.24
523.75	34780.36
523.92	34256.08
524.10	34609.50
524.27	34394.17
524.44	34927.81
524.61	34644.61
524.78	34705.46
524.96	34773.34
525.13	35271.87
525.30	35026.12
525.47	35288.26
525.64	35281.24
525.81	35243.79
525.98	34951.22
526.16	35311.66
526.33	35136.12
526.50	35218.04
526.67	35304.64
526.84	35526.99
527.01	34756.96
527.18	35283.58
527.36	35358.47
527.53	35147.82
527.70	35789.13
527.87	35634.66
528.04	35599.55
528.21	35924.88
528.38	36095.74
528.55	36060.63
528.72	36236.17
528.89	36259.58
529.07	36191.70
529.24	35779.77
529.41	35875.73
529.58	36350.86
529.75	36266.60
529.92	36463.21
530.09	36191.70
530.26	36437.46
530.43	36613.00
530.60	36210.43
530.77	36449.16
530.94	36795.56
531.11	36900.89
531.28	36617.68
531.46	37092.81
531.63	37034.30
531.80	36802.58
531.97	37294.10
532.14	37460.27
532.31	36966.42
532.48	36872.80
532.65	36924.29
532.82	36767.48
532.99	37125.58
533.16	36907.91
533.33	37722.41
533.50	37600.71
533.67	37457.93
533.84	37460.27
534.01	37724.75
534.18	37883.91
534.35	37228.56
534.52	37715.39
534.69	37748.16
534.86	37839.44
535.03	37806.67
535.20	37926.04
535.37	38309.89
535.54	38300.53
535.71	37860.51
535.88	37916.68
536.05	38036.05
536.22	38127.33
536.38	38394.15
536.55	37809.01
536.72	38026.68
536.89	38270.10
537.06	38363.72
537.23	38188.18
537.40	38132.01
537.57	38424.57
537.74	38340.32
537.91	38499.47
538.08	38265.42
538.25	38731.18
538.42	38457.34
538.59	38756.93
538.75	38607.14
538.92	38979.28
539.09	38902.04
539.26	38803.74
539.43	38871.62
539.60	39009.71
539.77	39215.68
539.94	38831.83
540.11	38976.94
540.28	39145.46
540.44	39391.22
540.61	38983.96
540.78	39206.31
540.95	39065.88
541.12	38895.02
541.29	38806.08
541.46	38565.01
541.62	39524.63
541.79	39838.26
541.96	39145.46
542.13	39337.38
542.30	39339.72
542.47	38923.11
542.63	39358.45
542.80	39882.73
542.97	40044.23
543.14	40041.88
543.31	39910.82
543.48	40517.01
543.64	40360.20
543.81	40542.76
543.98	40603.61
544.15	40371.90
544.32	40507.65
544.48	40914.90
544.65	40149.55
544.82	40711.28
544.99	39955.29
545.16	40879.80
545.32	40666.81
545.49	40905.54
545.66	40769.79
545.83	40666.81
546.00	40891.50
546.16	40261.90
546.33	40385.94
546.50	40407.01
546.67	40605.95
546.83	40554.46
547.00	40935.97
547.17	40781.49
547.34	40732.34
547.50	41053.00
547.67	41422.80
547.84	40900.86
548.00	41275.35
548.17	41352.58
548.34	41053.00
548.51	41427.48
548.67	41200.45
548.84	41432.16
549.01	41277.69
549.18	41219.17
549.34	41441.53
549.51	41387.69
549.68	41291.73
549.84	41570.25
550.01	41855.80
550.18	41404.08
550.34	41537.49
550.51	41844.10
550.68	41354.93
550.84	41329.18
551.01	41977.51
551.18	41483.66
551.34	41528.13
551.51	41841.76
551.68	41778.56
551.84	41755.16
552.01	41846.44
552.18	41961.12
552.34	41900.27
552.51	42557.96
552.68	42036.02
552.84	42061.77
553.01	42029.00
553.18	41886.23
553.34	42054.75
553.51	41813.67
553.67	42096.88
553.84	42733.50
554.01	42679.67
554.17	42485.40
554.34	42672.65
554.51	42965.21
554.67	42740.52
554.84	42705.41
555.00	42108.58
555.17	42696.05
555.33	42731.16
555.50	42363.70
555.67	42829.46
555.83	42462.00
556.00	42728.82
556.16	43103.31
556.33	43033.09
556.50	42820.10
556.66	42754.57
556.83	42293.48
556.99	42911.38
557.16	42740.52
557.32	43096.28
557.49	42773.29
557.65	42473.70
557.82	42864.57
557.98	42553.28
558.15	42452.64
558.32	42911.38
558.48	42925.42
558.65	43009.68
558.81	43033.09
558.98	43077.56
559.14	43033.09
559.31	43178.20
559.47	43086.92
559.64	43419.28
559.80	43587.80
559.97	42990.96
560.13	42974.58
560.30	43297.57
560.46	43180.54
560.63	43040.11
560.79	43613.54
560.96	43749.29
561.12	42981.60
561.29	43281.19
561.45	43346.72
561.61	43627.59
561.78	43550.35
561.94	43112.67
562.11	43306.93
562.27	43398.21
562.44	43807.81
562.60	43702.48
562.77	43365.45
562.93	43232.04
563.10	43718.87
563.26	42981.60
563.42	43545.67
563.59	43821.85
563.75	43288.21
563.92	43374.81
564.08	43744.61
564.24	43650.99
564.41	43856.96
564.57	43519.92
564.74	43796.10
564.90	43875.68
565.07	43744.61
565.23	43655.67
565.39	43629.93
565.56	44046.54
565.72	43475.45
565.88	43800.79
566.05	43739.93
566.21	43737.59
566.38	44013.77
566.54	43763.34
566.70	43810.15
566.87	43812.49
567.03	44289.96
567.19	43948.24
567.36	43744.61
567.52	43709.50
567.68	44034.84
567.85	43484.81
568.01	43882.70
568.17	43543.33
568.34	44179.95
568.50	44048.88
568.66	43931.86
568.83	43648.65
568.99	43676.74
569.15	43976.33
569.32	44065.27
569.48	43814.83
569.64	44179.95
569.81	43639.29
569.97	44151.87
570.13	43798.44
570.30	43789.08
570.46	44044.20
570.62	43473.11
570.78	43819.51
570.95	43931.86
571.11	44374.22
571.27	44018.46
571.43	43976.33
571.60	44341.45
571.76	44126.12
571.92	43655.67
572.09	43796.10
572.25	44039.52
572.41	43775.04
572.57	44140.16
572.74	44463.16
572.90	44109.74
573.06	43880.36
573.22	44018.46
573.38	44224.42
573.55	44292.30
573.71	44184.63
573.87	43999.73
574.03	43784.40
574.20	44388.26
574.36	43634.61
574.52	44074.63
574.68	44229.10
574.84	44053.56
575.01	44292.30
575.17	44175.27
575.33	44364.85
575.49	44081.65
575.65	44327.41
575.82	44598.91
575.98	44622.31
576.14	44587.21
576.30	44264.21
576.46	44083.99
576.62	44133.14
576.79	44313.36
576.95	43840.57
577.11	44395.28
577.27	44531.03
577.43	44315.70
577.59	44161.23
577.75	44423.37
577.92	43784.40
578.08	44002.07
578.24	43714.19
578.40	44299.32
578.56	44404.64
578.72	44109.74
578.88	44552.10
579.04	44732.32
579.21	44189.31
579.37	44247.83
579.53	44395.28
579.69	44053.56
579.85	44390.60
580.01	44526.35
580.17	44760.40
580.33	44664.44
580.49	44741.68
580.65	44430.39
580.82	44273.57
580.98	44397.62
581.14	44512.31
581.30	44835.30
581.46	44563.80
581.62	44289.96
581.78	44208.04
581.94	44760.40
582.10	44734.66
582.26	44669.12
582.42	44409.32
582.58	44552.10
582.74	43995.05
582.90	44341.45
583.06	44402.30
583.22	44055.90
583.38	44996.80
583.54	44296.98
583.70	44306.34
583.86	44144.84
584.02	43875.68
584.18	44306.34
584.34	44779.13
584.50	44451.45
584.66	44549.76
584.82	43990.37
584.98	44706.57
585.14	44509.97
585.30	44451.45
585.46	44486.56
585.62	44561.46
585.78	44713.59
585.94	43714.19
586.10	44135.48
586.26	44172.93
586.42	44751.04
586.58	44610.61
586.74	44362.51
586.90	44264.21
587.06	44079.31
587.22	44435.07
587.38	44432.73
587.54	44809.56
587.70	44610.61
587.86	44488.90
588.02	44467.84
588.18	44428.05
588.34	44619.97
588.49	44289.96
588.65	44336.77
588.81	44479.54
588.97	44435.07
589.13	44121.44
589.29	44266.55
589.45	45170.00
589.61	44837.64
589.77	45448.52
589.93	44701.89
590.08	44704.23
590.24	44708.91
590.40	44437.41
