SpectraSuite Data File
++++++++++++++++++++++++++++++++++++
Date: Fri Oct 25 11:23:06 EDT 2013
User: price-jones
Dark Spectrum Present: No
Reference Spectrum Present: No
Number of Sampled Component Spectra: 1
Spectrometers: USB2+H05261
Integration Time (usec): 100000 (USB2+H05261)
Spectra Averaged: 1 (USB2+H05261)
Boxcar Smoothing: 0 (USB2+H05261)
Correct for Electrical Dark: No (USB2+H05261)
Strobe/Lamp Enabled: No (USB2+H05261)
Correct for Detector Non-linearity: No (USB2+H05261)
Correct for Stray Light: No (USB2+H05261)
Number of Pixels in Processed Spectrum: 2048
>>>>>Begin Processed Spectral Data<<<<<
365.73	278.52
365.92	278.52
366.12	278.52
366.32	154.48
366.52	138.09
366.72	170.86
366.91	53.83
367.11	91.28
367.31	107.66
367.51	121.71
367.70	135.75
367.90	205.97
368.10	154.48
368.30	131.07
368.49	95.96
368.69	212.99
368.89	142.77
369.09	77.24
369.28	114.69
369.48	42.13
369.68	248.10
369.87	203.63
370.07	196.60
370.27	224.69
370.47	365.12
370.66	561.73
370.86	699.82
371.06	599.18
371.25	704.50
371.45	678.76
371.65	678.76
371.84	678.76
372.04	685.78
372.24	645.99
372.44	758.33
372.63	823.87
372.83	697.48
373.03	812.17
373.22	779.40
373.42	697.48
373.62	786.42
373.81	706.84
374.01	788.76
374.21	748.97
374.40	861.32
374.60	807.48
374.79	765.36
374.99	858.98
375.19	908.13
375.38	793.44
375.58	821.53
375.78	800.46
375.97	819.19
376.17	922.17
376.37	851.96
376.56	840.25
376.76	908.13
376.95	894.08
377.15	877.70
377.35	912.81
377.54	933.87
377.74	891.74
377.93	938.55
378.13	912.81
378.33	861.32
378.52	894.08
378.72	933.87
378.91	983.02
379.11	950.26
379.31	873.02
379.50	954.94
379.70	1008.77
379.89	908.13
380.09	978.34
380.28	987.71
380.48	987.71
380.68	964.30
380.87	1083.67
381.07	1050.90
381.26	1020.47
381.46	1029.84
381.65	1057.92
381.85	978.34
382.04	1114.10
382.24	1088.35
382.43	1088.35
382.63	1111.75
382.83	1053.24
383.02	1022.81
383.22	1132.82
383.41	1060.26
383.61	1102.39
383.80	1163.25
384.00	1193.67
384.19	1149.20
384.39	1146.86
384.58	1191.33
384.78	1181.97
384.97	1196.01
385.17	1203.04
385.36	1074.31
385.56	1228.78
385.75	1153.88
385.95	1226.44
386.14	1146.86
386.34	1179.63
386.53	1277.93
386.72	1090.69
386.92	1277.93
387.11	1214.74
387.31	1275.59
387.50	1198.35
387.70	1245.16
387.89	1200.69
388.09	1231.12
388.28	1277.93
388.48	1268.57
388.67	1383.26
388.86	1224.10
389.06	1348.15
389.25	1299.00
389.45	1369.21
389.64	1317.72
389.84	1373.89
390.03	1376.24
390.22	1376.24
390.42	1420.71
390.61	1423.05
390.81	1420.71
391.00	1401.98
391.19	1483.90
391.39	1420.71
391.58	1469.86
391.78	1313.04
391.97	1530.71
392.16	1401.98
392.36	1495.60
392.55	1504.96
392.75	1511.99
392.94	1551.78
393.13	1516.67
393.33	1420.71
393.52	1593.90
393.71	1675.82
393.91	1661.78
394.10	1530.71
394.29	1619.65
394.49	1540.07
394.68	1703.91
394.88	1675.82
395.07	1781.15
395.26	1643.06
395.46	1753.06
395.65	1666.46
395.84	1783.49
396.04	1839.66
396.23	1842.00
396.42	1788.17
396.62	1867.75
396.81	1891.15
397.00	1696.89
397.19	1837.32
397.39	1785.83
397.58	1923.92
397.77	1893.49
397.97	1881.79
398.16	1776.47
398.35	1877.11
398.55	1820.94
398.74	1923.92
398.93	1928.60
399.12	1942.64
399.32	1912.22
399.51	1980.09
399.70	2024.56
399.90	1961.37
400.09	1961.37
400.28	2054.99
400.47	2054.99
400.67	2148.61
400.86	2008.18
401.05	2108.82
401.24	2190.74
401.44	2150.95
401.63	2132.23
401.82	2125.21
402.01	2080.74
402.21	2200.10
402.40	2209.47
402.59	2265.64
402.78	2284.36
402.97	2265.64
403.17	2260.96
403.36	2237.55
403.55	2242.23
403.74	2331.17
403.93	2424.80
404.13	2462.24
404.32	2335.85
404.51	2373.30
404.70	2511.39
404.89	2513.74
405.09	2506.71
405.28	2504.37
405.47	2497.35
405.66	2525.44
405.85	2675.23
406.05	2668.21
406.24	2637.78
406.43	2527.78
406.62	2689.28
406.81	2609.70
407.00	2686.94
407.20	2665.87
407.39	2642.46
407.58	2614.38
407.77	2740.77
407.96	2724.38
408.15	2609.70
408.34	2799.28
408.54	2712.68
408.73	2820.35
408.92	2892.90
409.11	2883.54
409.30	2897.58
409.49	2909.29
409.68	2869.50
409.87	3040.36
410.07	3061.42
410.26	3033.33
410.45	3070.78
410.64	3080.14
410.83	3091.85
411.02	3201.85
411.21	3201.85
411.40	3143.34
411.59	3314.20
411.78	3222.92
411.98	3201.85
412.17	3215.90
412.36	3396.12
412.55	3377.39
412.74	3485.06
412.93	3517.83
413.12	3543.57
413.31	3712.09
413.50	3634.85
413.69	3440.59
413.88	3618.47
414.07	3611.45
414.26	3700.39
414.45	3665.28
414.64	3786.99
414.83	3737.84
415.02	3861.88
415.22	3953.16
415.41	3894.65
415.60	3880.61
415.79	3908.69
415.98	3992.95
416.17	3974.23
416.36	3960.19
416.55	4077.21
416.74	4142.75
416.93	4016.36
417.12	4142.75
417.31	4135.73
417.50	4325.31
417.69	4290.20
417.88	4217.65
418.07	4283.18
418.26	4351.06
418.45	4329.99
418.64	4514.89
418.83	4318.29
419.02	4388.50
419.21	4521.92
419.39	4491.49
419.58	4463.40
419.77	4660.01
419.96	4681.07
420.15	4725.54
420.34	4601.49
420.53	4744.27
420.72	4746.61
420.91	4802.78
421.10	4746.61
421.29	4725.54
421.48	4685.75
421.67	4774.69
421.86	4805.12
422.05	4990.02
422.24	4938.53
422.43	4889.38
422.61	4856.61
422.80	5057.90
422.99	4999.38
423.18	4992.36
423.37	5078.96
423.56	4997.04
423.75	5050.88
423.94	4856.61
424.13	4664.69
424.32	4849.59
424.50	4954.91
424.69	5214.71
424.88	4997.04
425.07	4980.66
425.26	4945.55
425.45	5116.41
425.64	5006.41
425.83	4954.91
426.01	5275.57
426.20	5153.86
426.39	5109.39
426.58	5050.88
426.77	5078.96
426.96	5228.76
427.15	5160.88
427.33	5093.01
427.52	5137.48
427.71	5310.68
427.90	5235.78
428.09	5359.83
428.28	5336.42
428.46	5444.09
428.65	5420.68
428.84	5743.67
429.03	5654.73
429.22	5373.87
429.40	5483.88
429.59	5640.69
429.78	5437.06
429.97	5364.51
430.16	5453.45
430.34	5556.43
430.53	5678.14
430.72	5633.67
430.91	5647.71
431.10	5699.20
431.28	5760.06
431.47	5839.64
431.66	5863.04
431.85	5769.42
432.03	6045.60
432.22	6146.25
432.41	6036.24
432.60	5937.94
432.79	6040.92
432.97	5991.77
433.16	6003.47
433.35	6052.63
433.54	6038.58
433.72	6179.01
433.91	6076.03
434.10	6197.74
434.28	6221.14
434.47	6230.51
434.66	6375.62
434.85	6361.58
435.03	6303.06
435.22	6239.87
435.41	6609.67
435.59	6597.97
435.78	6459.88
435.97	6712.66
436.16	6499.67
436.34	6534.78
436.53	6644.78
436.72	6817.98
436.90	6698.61
437.09	6670.53
437.28	6689.25
437.46	6635.42
437.65	6616.69
437.84	6712.66
438.02	6691.59
438.21	6848.41
438.40	6817.98
438.58	7049.69
438.77	7056.72
438.96	7049.69
439.14	7234.60
439.33	7426.52
439.52	7162.04
439.70	7356.30
439.89	7307.15
440.08	7489.71
440.26	7431.20
440.45	7452.27
440.63	7538.87
440.82	7653.55
441.01	7487.37
441.19	7719.09
441.38	7765.90
441.57	7833.77
441.75	7967.18
441.94	7936.76
442.12	8081.87
442.31	8182.51
442.50	8194.22
442.68	8056.12
442.87	8189.53
443.05	8189.53
443.24	8381.46
443.43	8250.39
443.61	8428.27
443.80	8559.34
443.98	8234.00
444.17	7932.08
444.35	8285.50
444.54	8374.44
444.73	8463.38
444.91	8442.31
445.10	8521.89
445.28	8540.61
445.47	8498.49
445.65	8301.88
445.84	8535.93
446.02	8294.86
446.21	8498.49
446.39	8390.82
446.58	8498.49
446.77	8638.92
446.95	8306.56
447.14	8479.76
447.32	8594.45
447.51	8671.68
447.69	8596.79
447.88	8540.61
448.06	8807.44
448.25	8461.04
448.43	8538.27
448.62	8704.45
448.80	8734.88
448.99	8704.45
449.17	8814.46
449.36	8704.45
449.54	8879.99
449.73	9172.56
449.91	9043.83
450.10	9165.54
450.28	9004.04
450.46	9207.67
450.65	9163.20
450.83	9109.36
451.02	9139.79
451.20	9284.91
451.39	9142.13
451.57	9219.37
451.76	9109.36
451.94	9261.50
452.13	9408.95
452.31	9460.45
452.49	9235.75
452.68	9591.52
452.86	9568.11
453.05	9530.66
453.23	9610.24
453.42	9451.08
453.60	9514.28
453.78	9680.46
453.97	9647.69
454.15	9563.43
454.34	9577.47
454.52	9703.86
454.70	9694.50
454.89	9764.72
455.07	9977.70
455.26	9879.40
455.44	10155.58
455.62	10083.03
455.81	10008.13
455.99	10113.45
456.17	9998.77
456.36	10092.39
456.54	9921.53
456.73	10150.90
456.91	10677.52
457.09	10616.67
457.28	10506.66
457.46	10544.11
457.64	10801.57
457.83	10644.76
458.01	10452.83
458.19	10902.22
458.38	10525.39
458.56	10925.62
458.74	10778.17
458.93	10878.81
459.11	10839.02
459.29	10953.71
459.48	10843.70
459.66	10871.79
459.84	10857.75
460.03	11145.63
460.21	11232.23
460.39	10911.58
460.57	11159.67
460.76	11185.42
460.94	11218.19
461.12	11199.46
461.31	11353.94
461.49	11391.39
461.67	11040.31
461.85	11513.10
462.04	11421.81
462.22	11604.38
462.40	11800.98
462.59	11407.77
462.77	11620.76
462.95	11840.77
463.13	11552.88
463.32	11791.62
463.50	11948.43
463.68	12060.78
463.86	12025.67
464.05	11517.78
464.23	11932.05
464.41	12098.23
464.59	11634.80
464.78	12322.92
464.96	12004.61
465.14	11997.59
465.32	12255.04
465.50	12248.02
465.69	12411.86
465.87	12353.35
466.05	12430.59
466.23	12320.58
466.41	12301.86
466.60	12601.44
466.78	12397.82
466.96	12395.48
467.14	12236.32
467.32	12690.38
467.51	12690.38
467.69	12386.12
467.87	12784.01
468.05	12748.90
468.23	12559.31
468.41	12769.96
468.60	12547.61
468.78	12966.57
468.96	12674.00
469.14	13121.04
469.32	13036.78
469.50	12692.73
469.69	13149.13
469.87	13331.69
470.05	13334.03
470.23	13401.91
470.41	13359.78
470.59	13462.76
470.77	13547.02
470.95	13488.51
471.14	13762.35
471.32	13502.55
471.50	13942.57
471.68	13650.00
471.86	13654.69
472.04	13895.76
472.22	14183.65
472.40	13724.90
472.58	14057.26
472.77	14352.16
472.95	14429.40
473.13	14780.48
473.31	14471.53
473.49	14272.59
473.67	14326.42
473.85	14537.07
474.03	14785.16
474.21	14717.29
474.39	14817.93
474.57	14857.72
474.75	14981.77
474.93	15227.53
475.12	15318.81
475.30	15389.02
475.48	15351.57
475.66	15669.89
475.84	15260.29
476.02	15712.02
476.20	15754.15
476.38	15978.84
476.56	16255.02
476.74	16374.39
476.92	16035.01
477.10	16156.72
477.28	16334.60
477.46	16411.84
477.64	16681.00
477.82	16678.66
478.00	17109.32
478.18	16851.86
478.36	17289.54
478.54	17226.34
478.72	17380.82
478.90	17694.45
479.08	17734.24
479.26	17799.77
479.44	17916.80
479.62	18022.12
479.80	18113.41
479.98	18307.67
480.16	18614.28
480.34	18361.50
480.52	19098.77
480.70	19154.94
480.88	18644.71
481.06	19115.16
481.24	19000.47
481.41	19082.39
481.59	19829.02
481.77	19590.28
481.95	19908.60
482.13	19974.13
482.31	20049.03
482.49	20702.04
482.67	20695.02
482.85	20592.03
483.03	20961.84
483.21	21092.91
483.39	21369.09
483.57	21076.52
483.74	21298.88
483.92	21502.50
484.10	21755.28
484.28	21996.35
484.46	22054.87
484.64	22651.70
484.82	22171.89
485.00	22405.95
485.18	23058.96
485.35	23278.97
485.53	23229.82
485.71	23562.17
485.89	23812.61
486.07	23611.32
486.25	23805.59
486.43	23604.30
486.61	24126.24
486.78	24374.34
486.96	24212.84
487.14	24687.97
487.32	24910.32
487.50	24964.15
487.68	24835.42
487.85	25546.95
488.03	25804.41
488.21	26139.10
488.39	26373.16
488.57	26373.16
488.75	26239.75
488.92	26771.05
489.10	27498.95
489.28	26789.77
489.46	27433.42
489.64	27505.98
489.81	28168.35
489.99	27899.19
490.17	27861.74
490.35	28477.30
490.53	28535.81
490.70	28856.46
490.88	28830.72
491.06	29387.77
491.24	29270.74
491.41	28992.22
491.59	29586.71
491.77	29640.54
491.95	29996.31
492.13	30012.69
492.30	30223.34
492.48	30700.81
492.66	30471.43
492.84	30450.37
493.01	30991.03
493.19	31316.37
493.37	31505.95
493.54	31278.92
493.72	31627.66
493.90	31569.15
494.08	32161.30
494.25	32105.13
494.43	32676.22
494.61	32917.29
494.79	33116.24
494.96	33069.43
495.14	33338.59
495.32	33582.01
495.49	33572.64
495.67	33600.73
495.85	34117.99
496.02	34029.05
496.20	34148.42
496.38	34176.50
496.55	34927.81
496.73	34951.22
496.91	35136.12
497.09	35042.50
497.26	35234.42
497.44	35508.27
497.62	35894.46
497.79	36610.66
497.97	35704.87
498.14	36566.19
498.32	36493.63
498.50	36720.66
498.67	37144.30
498.85	36907.91
499.03	37326.86
499.20	36975.78
499.38	37476.66
499.56	37511.77
499.73	37024.93
499.91	37804.33
500.08	37940.08
500.26	38087.54
500.44	37963.49
500.61	38239.67
500.79	38043.07
500.97	38485.43
501.14	39079.92
501.32	38993.32
501.49	39508.24
501.67	39243.76
501.84	39604.20
502.02	39337.38
502.20	39648.68
502.37	39583.14
502.55	39503.56
502.72	40079.33
502.90	39957.63
503.07	39798.47
503.25	40388.28
503.43	40243.17
503.60	40357.86
503.78	40624.68
503.95	40804.90
504.13	41184.07
504.30	41233.22
504.48	40889.16
504.65	41226.20
504.83	41736.43
505.01	41736.43
505.18	41722.39
505.36	41823.03
505.53	41214.49
505.71	41818.35
505.88	42288.80
506.06	42206.88
506.23	42457.32
506.41	42234.97
506.58	42768.61
506.76	42717.12
506.93	42770.95
507.11	42665.63
507.28	42777.97
507.46	43278.85
507.63	43257.78
507.81	43360.76
507.98	43372.47
508.16	43908.45
508.33	43777.38
508.50	44109.74
508.68	44067.61
508.85	44882.11
509.03	44481.88
509.20	44507.63
509.38	45200.43
509.55	44638.70
509.73	45144.25
509.90	45240.21
510.08	44858.71
510.25	45074.04
510.42	45221.49
510.60	45476.61
510.77	45909.61
510.95	45928.33
511.12	45757.47
511.30	45640.45
511.47	46092.17
511.64	45933.01
511.82	46380.06
511.99	46382.40
512.17	46190.47
512.34	46227.92
512.51	46749.86
512.69	46784.97
512.86	46398.78
513.04	47201.58
513.21	47241.37
513.38	47339.68
513.56	47526.92
513.73	46979.23
513.90	47849.91
514.08	47215.63
514.25	47648.63
514.43	48105.03
514.60	47985.66
514.77	47798.42
514.95	48128.44
515.12	47751.61
515.29	47957.58
515.47	47992.68
515.64	48505.26
515.81	48556.75
515.99	49132.53
516.16	48949.96
516.33	48809.53
516.51	49078.69
516.68	48886.77
516.85	48739.32
517.03	49397.01
517.20	49839.37
517.37	49382.96
517.54	49109.12
517.72	48942.94
517.89	49162.95
518.06	49446.16
518.24	49904.90
518.41	49256.57
518.58	49874.48
518.75	49780.85
518.93	50260.66
519.10	49757.45
519.27	50169.38
519.45	50314.50
519.62	50611.74
519.79	50684.30
519.96	50941.76
520.14	50555.57
520.31	50174.06
520.48	50798.99
520.65	50777.92
520.83	51119.64
521.00	51241.35
521.17	51164.11
521.34	50958.14
521.52	51161.77
521.69	51239.01
521.86	51337.31
522.03	51845.21
522.20	51758.61
522.38	51927.13
522.55	51629.88
522.72	51697.75
522.89	51594.77
523.07	52100.32
523.24	51873.29
523.41	51957.55
523.58	51971.60
523.75	52205.65
523.92	52196.29
524.10	52376.51
524.27	52657.37
524.44	52332.04
524.61	52519.28
524.78	52755.68
524.96	52519.28
525.13	52765.04
525.30	52608.22
525.47	52961.64
525.64	52933.56
525.81	52996.75
525.98	53045.90
526.16	52865.68
526.33	53221.44
526.50	53247.19
526.67	53399.32
526.84	53308.04
527.01	53057.60
527.18	53528.05
527.36	53263.57
527.53	53514.01
527.70	53907.22
527.87	53467.20
528.04	53635.72
528.21	53790.19
528.38	53570.18
528.55	54162.34
528.72	53675.51
528.89	53977.43
529.07	53666.14
529.24	53961.05
529.41	53951.69
529.58	54120.21
529.75	53993.82
529.92	54202.13
530.09	54106.16
530.26	54277.02
530.43	54380.01
530.60	54115.53
530.77	54148.29
530.94	54611.72
531.11	54553.21
531.28	54436.18
531.46	54578.95
531.63	54707.68
531.80	54560.23
531.97	54735.77
532.14	54988.55
532.31	54831.73
532.48	54817.69
532.65	55100.89
532.82	55049.40
532.99	55185.15
533.16	55037.70
533.33	55117.28
533.50	55407.50
533.67	54890.24
533.84	54951.10
534.01	55353.67
534.18	55246.00
534.35	55681.34
534.52	55498.78
534.69	55351.33
534.86	55437.93
535.03	55569.00
535.20	55728.16
535.37	55655.60
535.54	55714.11
535.71	55561.98
535.88	55906.04
536.05	55714.11
536.22	56030.08
536.38	55821.78
536.55	55803.05
536.72	56175.20
536.89	55838.16
537.06	56133.07
537.23	56324.99
537.40	55994.98
537.57	56048.81
537.74	56184.56
537.91	56374.14
538.08	56299.25
538.25	56088.60
538.42	56179.88
538.59	56334.35
538.75	55887.31
538.92	56126.05
539.09	56540.32
539.26	56470.11
539.43	56704.16
539.60	56519.26
539.77	56568.41
539.94	56755.65
540.11	56701.82
540.28	56814.16
540.44	56790.76
540.61	56839.91
540.78	56626.92
540.95	56800.12
541.12	56729.90
541.29	56760.33
541.46	56662.03
541.62	57153.54
541.79	56947.57
541.96	56767.35
542.13	57020.13
542.30	56975.66
542.47	57322.06
542.63	57130.14
542.80	57109.07
542.97	57382.91
543.14	57413.34
543.31	57329.08
543.48	57621.65
543.64	57818.25
543.81	57628.67
543.98	57642.71
544.15	57607.61
544.32	57528.03
544.48	57844.00
544.65	57656.76
544.82	57731.65
544.99	57572.50
545.16	57844.00
545.32	57677.82
545.49	57956.35
545.66	57949.32
545.83	58017.20
546.00	58010.18
546.16	58026.56
546.33	57872.09
546.50	57834.64
546.67	57937.62
546.83	57851.02
547.00	58049.97
547.17	58145.93
547.34	58150.61
547.50	58241.89
547.67	58485.31
547.84	58375.30
548.00	58248.91
548.17	58511.05
548.34	58391.68
548.51	58487.65
548.67	58459.56
548.84	58576.59
549.01	58555.52
549.18	58543.82
549.34	58639.78
549.51	58377.64
549.68	58705.32
549.84	58609.35
550.01	58562.54
550.18	58562.54
550.34	58817.66
550.51	58759.15
550.68	58934.69
550.84	58553.18
551.01	58857.45
551.18	58887.88
551.34	58845.75
551.51	58815.32
551.68	58824.68
551.84	58796.60
552.01	58749.79
552.18	59044.69
552.34	58827.02
552.51	58979.16
552.68	58808.30
552.84	58859.79
553.01	59512.80
553.18	59018.95
553.34	59054.06
553.51	58918.31
553.67	59065.76
553.84	59196.83
554.01	59229.60
554.17	59140.66
554.34	59262.36
554.51	59281.09
554.67	59330.24
554.84	59278.75
555.00	59175.76
555.17	59262.36
555.33	59295.13
555.50	59379.39
555.67	59297.47
555.83	59316.20
556.00	59416.84
556.16	59632.17
556.33	59505.78
556.50	59414.50
556.66	59728.13
556.83	59370.03
556.99	59709.41
557.16	59650.89
557.32	59824.09
557.49	59723.45
557.65	59451.95
557.82	59554.93
557.98	59653.23
558.15	59718.77
558.32	59765.58
558.48	59601.74
558.65	59678.98
558.81	59739.83
558.98	59770.26
559.14	59882.61
559.31	59943.46
559.47	60018.36
559.64	60191.56
559.80	60027.72
559.97	60151.77
560.13	59842.82
560.30	60144.75
560.46	60095.60
560.63	60130.70
560.79	59985.59
560.96	60088.57
561.12	60214.96
561.29	60123.68
561.45	60076.87
561.61	60205.60
561.78	60154.11
561.94	60121.34
562.11	60053.47
562.27	60109.64
562.44	60243.05
562.60	60252.41
562.77	60245.39
562.93	60214.96
563.10	60285.18
563.26	60203.26
563.42	60446.68
563.59	60322.63
563.75	60282.84
563.92	60376.46
564.08	60285.18
564.24	60439.65
564.41	60313.26
564.57	60285.18
564.74	60388.16
564.90	60392.84
565.07	60357.74
565.23	60404.55
565.39	60247.73
565.56	60439.65
565.72	60416.25
565.88	60552.00
566.05	60392.84
566.21	60544.98
566.38	60540.30
566.54	60516.89
566.70	60570.72
566.87	60750.94
567.03	60547.32
567.19	60767.33
567.36	60493.49
567.52	60669.03
567.68	60725.20
567.85	60673.71
568.01	60797.76
568.17	60643.28
568.34	60500.51
568.50	60584.77
568.66	60523.91
568.83	60575.40
568.99	60692.43
569.15	60708.82
569.32	60526.25
569.48	60755.63
569.64	60874.99
569.81	60807.12
569.97	60519.23
570.13	60748.60
570.30	60720.52
570.46	60858.61
570.62	60837.54
570.78	60647.96
570.95	60846.91
571.11	61022.45
571.27	60577.75
571.43	60746.26
571.60	60872.65
571.76	60800.10
571.92	61020.11
572.09	60970.96
572.25	60891.38
572.41	60640.94
572.57	60931.17
572.74	61158.20
572.90	60982.66
573.06	60977.98
573.22	61029.47
573.38	60973.30
573.55	60928.83
573.71	60938.19
573.87	60879.67
574.03	60694.77
574.20	60910.10
574.36	60889.04
574.52	61010.74
574.68	61162.88
574.84	61158.20
575.01	61223.73
575.17	61116.07
575.33	60996.70
575.49	61031.81
575.65	61022.45
575.82	61120.75
575.98	60999.04
576.14	61205.01
576.30	61237.78
576.46	61076.28
576.62	60992.02
576.79	61052.87
576.95	61031.81
577.11	61179.26
577.27	61076.28
577.43	61151.18
577.59	61137.13
577.75	60877.33
577.92	61167.56
578.08	61055.21
578.24	60942.87
578.40	61205.01
578.56	61244.80
578.72	61029.47
578.88	61186.28
579.04	61183.94
579.21	61212.03
579.37	61216.71
579.53	61350.12
579.69	61052.87
579.85	61167.56
580.01	61052.87
580.17	61144.16
580.33	61467.15
580.49	61125.43
580.65	61200.33
580.82	61258.84
580.98	61113.73
581.14	60954.57
581.30	61202.67
581.46	61064.58
581.62	61340.76
581.78	61228.41
581.94	61172.24
582.10	61076.28
582.26	61200.33
582.42	61134.79
582.58	61394.59
582.74	61106.71
582.90	61174.58
583.06	61062.24
583.22	61109.05
583.38	61303.31
583.54	61148.84
583.70	61324.38
583.86	61300.97
584.02	61158.20
584.18	61350.12
584.34	61406.30
584.50	61216.71
584.66	61401.61
584.82	60989.68
584.98	61530.34
585.14	61303.31
585.30	61216.71
585.46	61331.40
585.62	61183.94
585.78	61436.72
585.94	60954.57
586.10	61352.46
586.26	61338.42
586.42	61354.80
586.58	61329.06
586.74	61357.14
586.90	61352.46
587.06	61230.75
587.22	61516.30
587.38	61392.25
587.54	61410.98
587.70	61378.21
587.86	61396.93
588.02	61392.25
588.18	61483.53
588.34	61350.12
588.49	61418.00
