SpectraSuite Data File
++++++++++++++++++++++++++++++++++++
Date: Fri Oct 25 11:23:13 EDT 2013
User: price-jones
Dark Spectrum Present: No
Reference Spectrum Present: No
Number of Sampled Component Spectra: 1
Spectrometers: USB2+H05261
Integration Time (usec): 100000 (USB2+H05261)
Spectra Averaged: 1 (USB2+H05261)
Boxcar Smoothing: 0 (USB2+H05261)
Correct for Electrical Dark: No (USB2+H05261)
Strobe/Lamp Enabled: No (USB2+H05261)
Correct for Detector Non-linearity: No (USB2+H05261)
Correct for Stray Light: No (USB2+H05261)
Number of Pixels in Processed Spectrum: 2048
>>>>>Begin Processed Spectral Data<<<<<
365.73	215.33
365.92	215.33
366.12	215.33
366.32	145.11
366.52	95.96
366.72	65.54
366.91	56.17
367.11	107.66
367.31	93.62
367.51	105.32
367.70	95.96
367.90	133.41
368.10	152.13
368.30	159.16
368.49	114.69
368.69	95.96
368.89	152.13
369.09	131.07
369.28	170.86
369.48	53.83
369.68	147.45
369.87	131.07
370.07	191.92
370.27	231.71
370.47	369.80
370.66	543.00
370.86	631.94
371.06	643.65
371.25	667.05
371.45	601.52
371.65	655.35
371.84	692.80
372.04	767.70
372.24	695.14
372.44	727.91
372.63	753.65
372.83	711.52
373.03	802.80
373.22	791.10
373.42	748.97
373.62	800.46
373.81	833.23
374.01	772.38
374.21	741.95
374.40	809.83
374.60	763.01
374.79	823.87
374.99	861.32
375.19	830.89
375.38	840.25
375.58	903.45
375.78	826.21
375.97	805.14
376.17	849.61
376.37	800.46
376.56	873.02
376.76	940.90
376.95	844.93
377.15	854.30
377.35	908.13
377.54	945.58
377.74	882.38
377.93	922.17
378.13	849.61
378.33	917.49
378.52	978.34
378.72	919.83
378.91	1043.88
379.11	950.26
379.31	987.71
379.50	915.15
379.70	973.66
379.89	978.34
380.09	931.53
380.28	938.55
380.48	1006.43
380.68	971.32
380.87	1053.24
381.07	910.47
381.26	1055.58
381.46	1001.75
381.65	1064.94
381.85	1053.24
382.04	1029.84
382.24	992.39
382.43	1060.26
382.63	992.39
382.83	1086.01
383.02	1149.20
383.22	1093.03
383.41	1097.71
383.61	1081.33
383.80	1160.91
384.00	1109.41
384.19	1093.03
384.39	1036.86
384.58	1125.80
384.78	1179.63
384.97	1137.50
385.17	1104.73
385.36	1205.38
385.56	1151.54
385.75	1151.54
385.95	1188.99
386.14	1139.84
386.34	1179.63
386.53	1196.01
386.72	1226.44
386.92	1287.29
387.11	1196.01
387.31	1275.59
387.50	1252.19
387.70	1170.27
387.89	1313.04
388.09	1203.04
388.28	1350.49
388.48	1289.64
388.67	1299.00
388.86	1308.36
389.06	1263.89
389.25	1287.29
389.45	1439.43
389.64	1432.41
389.84	1406.66
390.03	1406.66
390.22	1462.83
390.42	1350.49
390.61	1357.51
390.81	1434.75
391.00	1406.66
391.19	1423.05
391.39	1481.56
391.58	1474.54
391.78	1483.90
391.97	1530.71
392.16	1404.32
392.36	1455.81
392.55	1439.43
392.75	1589.22
392.94	1547.09
393.13	1530.71
393.33	1561.14
393.52	1502.62
393.71	1551.78
393.91	1610.29
394.10	1612.63
394.29	1556.46
394.49	1596.25
394.68	1570.50
394.88	1530.71
395.07	1687.53
395.26	1643.06
395.46	1699.23
395.65	1685.19
395.84	1699.23
396.04	1762.42
396.23	1781.15
396.42	1706.25
396.62	1724.97
396.81	1710.93
397.00	1842.00
397.19	1727.32
397.39	1732.00
397.58	1944.99
397.77	1743.70
397.97	1888.81
398.16	1783.49
398.35	1893.49
398.55	1830.30
398.74	1886.47
398.93	1914.56
399.12	2054.99
399.32	1923.92
399.51	2092.44
399.70	1937.96
399.90	1926.26
400.09	2038.61
400.28	1949.67
400.47	1947.33
400.67	2141.59
400.86	2111.16
401.05	2047.97
401.24	2064.35
401.44	2204.78
401.63	2211.81
401.82	2179.04
402.01	2188.40
402.21	2256.28
402.40	2258.62
402.59	2186.06
402.78	2179.04
402.97	2179.04
403.17	2228.19
403.36	2279.68
403.55	2389.69
403.74	2361.60
403.93	2380.32
404.13	2415.43
404.32	2403.73
404.51	2387.35
404.70	2558.21
404.89	2476.29
405.09	2555.86
405.28	2424.80
405.47	2602.68
405.66	2635.44
405.85	2523.10
406.05	2452.88
406.24	2621.40
406.43	2633.10
406.62	2733.75
406.81	2647.15
407.00	2513.74
407.20	2597.99
407.39	2649.49
407.58	2775.88
407.77	2738.43
407.96	2843.75
408.15	2705.66
408.34	2782.90
408.54	2799.28
408.73	2808.64
408.92	2796.94
409.11	2853.11
409.30	2991.20
409.49	2913.97
409.68	3112.91
409.87	3026.31
410.07	3101.21
410.26	3105.89
410.45	3028.65
410.64	3101.21
410.83	3243.98
411.02	3119.93
411.21	3234.62
411.40	3187.81
411.59	3251.00
411.78	3236.96
411.98	3213.56
412.17	3370.37
412.36	3356.33
412.55	3349.31
412.74	3463.99
412.93	3403.14
413.12	3363.35
413.31	3630.17
413.50	3442.93
413.69	3403.14
413.88	3721.45
414.07	3581.02
414.26	3648.90
414.45	3669.96
414.64	3578.68
414.83	3721.45
415.02	3918.06
415.22	3812.73
415.41	3948.48
415.60	3875.93
415.79	3971.89
415.98	3885.29
416.17	3962.53
416.36	4109.98
416.55	4074.87
416.74	4070.19
416.93	4056.15
417.12	4025.72
417.31	4292.54
417.50	4191.90
417.69	4292.54
417.88	4297.22
418.07	4292.54
418.26	4360.42
418.45	4280.84
418.64	4540.64
418.83	4407.23
419.02	4339.35
419.21	4585.11
419.39	4465.74
419.58	4547.66
419.77	4533.62
419.96	4526.60
420.15	4667.03
420.34	4524.26
420.53	4669.37
420.72	4734.90
420.91	4840.23
421.10	4737.24
421.29	4877.68
421.48	4641.28
421.67	4835.55
421.86	4779.37
422.05	4898.74
422.24	4910.44
422.43	4992.36
422.61	4978.32
422.80	5046.20
422.99	5013.43
423.18	4877.68
423.37	5004.07
423.56	4968.96
423.75	4919.81
423.94	5039.17
424.13	4681.07
424.32	4772.35
424.50	5179.61
424.69	5085.98
424.88	5107.05
425.07	4978.32
425.26	4910.44
425.45	5071.94
425.64	5041.51
425.83	5053.22
426.01	5200.67
426.20	5048.54
426.39	5004.07
426.58	5020.45
426.77	5151.52
426.96	5240.46
427.15	5170.24
427.33	5181.95
427.52	5130.45
427.71	5151.52
427.90	5254.50
428.09	5401.96
428.28	5390.25
428.46	5444.09
428.65	5357.49
428.84	5600.90
429.03	5469.83
429.22	5301.31
429.40	5497.92
429.59	5526.00
429.78	5303.65
429.97	5331.74
430.16	5631.33
430.34	5640.69
430.53	5699.20
430.72	5867.72
430.91	5720.27
431.10	5591.54
431.28	5795.17
431.47	5895.81
431.66	5877.09
431.85	5959.00
432.03	5853.68
432.22	5998.79
432.41	6040.92
432.60	5907.51
432.79	6015.18
432.97	6146.25
433.16	5907.51
433.35	6087.73
433.54	6045.60
433.72	6134.54
433.91	6171.99
434.10	6209.44
434.28	6129.86
434.47	6193.06
434.66	6347.53
434.85	6361.58
435.03	6399.02
435.22	6373.28
435.41	6612.01
435.59	6441.15
435.78	6499.67
435.97	6593.29
436.16	6541.80
436.34	6445.84
436.53	6551.16
436.72	6626.06
436.90	6565.20
437.09	6679.89
437.28	6642.44
437.46	6581.59
437.65	6672.87
437.84	7000.54
438.02	6888.20
438.21	6953.73
438.40	6827.34
438.58	7073.10
438.77	7087.14
438.96	7227.57
439.14	7056.72
439.33	7234.60
439.52	7384.39
439.70	7133.95
439.89	7365.67
440.08	7485.03
440.26	7632.49
440.45	7389.07
440.63	7494.40
440.82	7538.87
441.01	7613.76
441.19	7674.62
441.38	7747.17
441.57	7768.24
441.75	7955.48
441.94	8028.04
442.12	7969.52
442.31	8093.57
442.50	8093.57
442.68	7920.37
442.87	8245.71
443.05	8238.69
443.24	8369.76
443.43	8336.99
443.61	8454.02
443.80	8549.98
443.98	8189.53
444.17	7871.22
444.35	8528.91
444.54	8411.89
444.73	8332.31
444.91	8245.71
445.10	8358.05
445.28	8411.89
445.47	8493.80
445.65	8430.61
445.84	8533.59
446.02	8606.15
446.21	8526.57
446.39	8430.61
446.58	8449.33
446.77	8622.53
446.95	8393.16
447.14	8599.13
447.32	8674.03
447.51	8489.12
447.69	8681.05
447.88	8636.58
448.06	8566.36
448.25	8554.66
448.43	8760.63
448.62	8692.75
448.80	8645.94
448.99	8837.86
449.17	8903.40
449.36	8814.46
449.54	8854.25
449.73	9062.55
449.91	9210.01
450.10	9039.15
450.28	9291.93
450.46	9085.96
450.65	9301.29
450.83	9146.81
451.02	9228.73
451.20	9057.87
451.39	9160.86
451.57	9151.49
451.76	9041.49
451.94	9146.81
452.13	9502.58
452.31	9432.36
452.49	9219.37
452.68	9277.88
452.86	9453.42
453.05	9596.20
453.23	9537.68
453.42	9589.17
453.60	9390.23
453.78	9687.48
453.97	9427.68
454.15	9373.85
454.34	9568.11
454.52	9820.89
454.70	9652.37
454.89	9621.94
455.07	9811.53
455.26	10015.15
455.44	10296.02
455.62	9991.75
455.81	9790.46
455.99	10178.99
456.17	10193.03
456.36	10143.88
456.54	10291.34
456.73	10450.49
456.91	10356.87
457.09	10317.08
457.28	10668.16
457.46	10670.50
457.64	10621.35
457.83	10698.59
458.01	10408.36
458.19	10640.08
458.38	10637.73
458.56	10693.91
458.74	10853.06
458.93	10918.60
459.11	10780.51
459.29	10939.66
459.48	10939.66
459.66	10850.72
459.84	11052.01
460.03	11227.55
460.21	11073.07
460.39	11119.89
460.57	11239.25
460.76	11494.37
460.94	11358.62
461.12	11227.55
461.31	11559.91
461.49	11307.13
461.67	11208.83
461.85	11564.59
462.04	11550.54
462.22	11527.14
462.40	11592.67
462.59	11522.46
462.77	11485.01
462.95	11796.30
463.13	11578.63
463.32	11679.27
463.50	11770.55
463.68	11852.47
463.86	11852.47
464.05	11485.01
464.23	11847.79
464.41	11679.27
464.59	11873.54
464.78	12037.38
464.96	12210.57
465.14	12077.16
465.32	12189.51
465.50	12210.57
465.69	12383.77
465.87	12353.35
466.05	12145.04
466.23	12271.43
466.41	12280.79
466.60	12250.36
466.78	12116.95
466.96	12327.60
467.14	12524.21
467.32	12669.32
467.51	12442.29
467.69	12299.52
467.87	12582.72
468.05	12711.45
468.23	12372.07
468.41	12641.23
468.60	12704.43
468.78	12809.75
468.96	12519.53
469.14	12868.27
469.32	12889.33
469.50	12830.82
469.69	13221.69
469.87	13404.25
470.05	13420.63
470.23	13282.54
470.41	13324.67
470.59	13420.63
470.77	13348.08
470.95	13350.42
471.14	13699.16
471.32	13322.33
471.50	13937.89
471.68	14052.58
471.86	13858.31
472.04	13750.65
472.22	14092.37
472.40	13682.77
472.58	13963.64
472.77	14310.04
472.95	14057.26
473.13	14626.01
473.31	14303.01
473.49	14335.78
473.67	14260.88
473.85	14300.67
474.03	14705.59
474.21	14616.65
474.39	14768.78
474.57	14860.06
474.75	15033.26
474.93	15283.70
475.12	14972.41
475.30	15105.82
475.48	15248.59
475.66	15468.60
475.84	15323.49
476.02	15704.99
476.20	15351.57
476.38	15882.88
476.56	16299.49
476.74	16306.51
476.92	15925.00
477.10	16060.76
477.28	16528.86
477.46	16435.24
477.64	16643.55
477.82	16776.96
478.00	17156.13
478.18	16966.54
478.36	17081.23
478.54	17507.21
478.72	17198.26
478.90	17142.08
479.08	17783.39
479.26	17823.18
479.44	17802.11
479.62	18178.94
479.80	18087.66
479.98	18424.70
480.16	18750.03
480.34	18263.20
480.52	18834.29
480.70	18768.76
480.88	18738.33
481.06	19154.94
481.24	19026.21
481.41	19414.74
481.59	19424.11
481.77	19754.12
481.95	19679.22
482.13	19690.93
482.31	19721.35
482.49	20472.67
482.67	20552.24
482.85	20570.97
483.03	21015.67
483.21	20826.09
483.39	21092.91
483.57	20964.18
483.74	21205.25
483.92	21659.32
484.10	21385.47
484.28	21989.33
484.46	22150.83
484.64	22698.52
484.82	22672.77
485.00	22656.39
485.18	23122.15
485.35	23285.99
485.53	23201.73
485.71	22932.57
485.89	23990.49
486.07	23791.55
486.25	23688.56
486.43	23793.89
486.61	24269.01
486.78	24254.97
486.96	24173.05
487.14	24875.21
487.32	24718.40
487.50	24936.07
487.68	25249.70
487.85	25553.97
488.03	25715.47
488.21	26120.38
488.39	26214.00
488.57	26513.59
488.75	26431.67
488.92	26567.42
489.10	26724.24
489.28	27014.46
489.46	27449.80
489.64	27192.34
489.81	28020.89
489.99	27740.03
490.17	28158.99
490.35	28268.99
490.53	28350.91
490.70	28788.59
490.88	28854.12
491.06	29109.24
491.24	29039.03
491.41	29378.40
491.59	29771.61
491.77	29797.36
491.95	29699.06
492.13	30087.59
492.30	30064.18
492.48	30471.43
492.66	30279.51
492.84	30817.83
493.01	31129.12
493.19	31164.23
493.37	31433.39
493.54	31374.88
493.72	31945.97
493.90	31742.35
494.08	32063.00
494.25	32240.88
494.43	32383.65
494.61	32847.08
494.79	32720.69
494.96	33064.75
495.14	33340.93
495.32	33408.81
495.49	33408.81
495.67	33574.98
495.85	34036.07
496.02	34167.14
496.20	34445.66
496.38	34309.91
496.55	34326.30
496.73	35255.49
496.91	34747.59
497.09	35278.89
497.26	35229.74
497.44	34981.65
497.62	35552.74
497.79	36151.91
497.97	35833.60
498.14	36376.61
498.32	36727.69
498.50	36634.06
498.67	37003.87
498.85	36957.06
499.03	37490.70
499.20	37415.80
499.38	37483.68
499.56	37682.62
499.73	37359.63
499.91	37535.17
500.08	38052.43
500.26	37560.92
500.44	38066.47
500.61	38419.89
500.79	37970.51
500.97	38340.32
501.14	38548.62
501.32	38944.17
501.49	38756.93
501.67	39124.40
501.84	39196.95
502.02	39037.80
502.20	39131.42
502.37	39716.55
502.55	39454.41
502.72	39913.16
502.90	39674.42
503.07	39639.31
503.25	40189.34
503.43	39976.35
503.60	40687.87
503.78	40563.82
503.95	40825.96
504.13	40825.96
504.30	40844.69
504.48	40711.28
504.65	41397.06
504.83	41530.47
505.01	41673.24
505.18	41441.53
505.36	41848.78
505.53	41626.43
505.71	42029.00
505.88	42454.98
506.06	41710.69
506.23	42635.20
506.41	42265.39
506.58	42658.60
506.76	42742.86
506.93	42801.38
507.11	42590.73
507.28	42806.06
507.46	42962.87
507.63	43470.77
507.81	43442.68
507.98	43297.57
508.16	43269.48
508.33	43934.20
508.50	43672.06
508.68	43856.96
508.85	44212.72
509.03	44222.08
509.20	44610.61
509.38	44858.71
509.55	45212.13
509.73	44919.56
509.90	45170.00
510.08	45010.84
510.25	45268.30
510.42	44982.76
510.60	44758.06
510.77	45478.95
510.95	46021.95
511.12	45333.84
511.30	45584.27
511.47	46075.79
511.64	45659.17
511.82	46047.70
511.99	45769.18
512.17	46342.61
512.34	46284.09
512.51	46733.48
512.69	47004.98
512.86	46775.61
513.04	46862.21
513.21	46925.40
513.38	47051.79
513.56	47119.66
513.73	47208.61
513.90	47316.27
514.08	47035.41
514.25	47583.09
514.43	47566.71
514.60	47875.66
514.77	47571.39
514.95	48151.84
515.12	47782.04
515.29	48659.74
515.47	48369.51
515.64	48442.07
515.81	48446.75
515.99	48854.00
516.16	48486.54
516.33	48825.92
516.51	49050.61
516.68	48863.36
516.85	49085.72
517.03	49385.30
517.20	49387.64
517.37	49352.54
517.54	49247.21
517.72	49240.19
517.89	49378.28
518.06	49628.72
518.24	49689.57
518.41	49443.82
518.58	49815.96
518.75	50115.55
518.93	50054.70
519.10	49755.11
519.27	49954.05
519.45	50382.37
519.62	50365.99
519.79	50394.07
519.96	50504.08
520.14	50394.07
520.31	50258.32
520.48	50850.48
520.65	50752.18
520.83	51152.41
521.00	51210.92
521.17	50969.85
521.34	50841.12
521.52	51047.08
521.69	51529.23
521.86	51349.01
522.03	51597.11
522.20	51646.26
522.38	51962.23
522.55	51772.65
522.72	51786.69
522.89	51653.28
523.07	52137.77
523.24	51770.31
523.41	52048.83
523.58	51819.46
523.75	52168.20
523.92	52079.26
524.10	52409.28
524.27	52603.54
524.44	52355.44
524.61	52500.56
524.78	52662.05
524.96	52626.95
525.13	52903.13
525.30	52694.82
525.47	52945.26
525.64	53059.94
525.81	52924.19
525.98	52758.02
526.16	52938.24
526.33	52978.03
526.50	53251.87
526.67	53247.19
526.84	53029.52
527.01	53427.41
527.18	53326.77
527.36	53689.55
527.53	53263.57
527.70	53984.46
527.87	53792.53
528.04	53691.89
528.21	53794.87
528.38	53790.19
528.55	54021.90
528.72	53616.99
528.89	53750.40
529.07	53616.99
529.24	53888.49
529.41	54298.09
529.58	53970.41
529.75	53888.49
529.92	54064.03
530.09	54270.00
530.26	54218.51
530.43	54178.72
530.60	54031.27
530.77	54167.02
530.94	54351.92
531.11	54176.38
531.28	54576.61
531.46	54504.06
531.63	54724.07
531.80	54609.38
531.97	54766.20
532.14	54721.72
532.31	54665.55
532.48	55168.77
532.65	55189.83
532.82	54899.61
532.99	55004.93
533.16	54908.97
533.33	55192.17
533.50	55152.38
533.67	54990.89
533.84	55063.44
534.01	55264.73
534.18	55089.19
534.35	55625.17
534.52	55468.36
534.69	55732.84
534.86	55676.66
535.03	55400.48
535.20	55531.55
535.37	55533.89
535.54	55704.75
535.71	55377.08
535.88	55580.70
536.05	55842.84
536.22	55746.88
536.38	55779.65
536.55	55819.44
536.72	55810.07
536.89	55800.71
537.06	55814.76
537.23	56301.59
537.40	55985.61
537.57	55997.32
537.74	56034.77
537.91	56357.76
538.08	56130.73
538.25	55971.57
538.42	56315.63
538.59	56287.54
538.75	56065.19
538.92	56264.14
539.09	56479.47
539.26	56612.88
539.43	56652.67
539.60	56662.03
539.77	56521.60
539.94	56626.92
540.11	56617.56
540.28	56938.21
540.44	56774.37
540.61	56718.20
540.78	56535.64
540.95	56793.10
541.12	56729.90
541.29	56734.59
541.46	57034.17
541.62	56765.01
541.79	56973.32
541.96	56856.29
542.13	56959.28
542.30	57008.43
542.47	57205.03
542.63	57272.91
542.80	57244.82
542.97	57333.76
543.14	57308.02
543.31	57329.08
543.48	57586.54
543.64	57691.86
543.81	57413.34
543.98	57860.38
544.15	57588.88
544.32	57780.81
544.48	57670.80
544.65	57563.14
544.82	57736.34
544.99	57408.66
545.16	57904.85
545.32	57633.35
545.49	57764.42
545.66	57968.05
545.83	58096.78
546.00	58005.50
546.16	58159.97
546.33	57918.90
546.50	57876.77
546.67	58085.07
546.83	57783.15
547.00	58064.01
547.17	58019.54
547.34	57939.96
547.50	58269.98
547.67	58244.23
547.84	58415.09
548.00	58321.47
548.17	58471.26
548.34	58478.28
548.51	58604.67
548.67	58614.04
548.84	58288.70
549.01	58478.28
549.18	58459.56
549.34	58590.63
549.51	58450.20
549.68	58702.98
549.84	58649.14
550.01	58721.70
550.18	58389.34
550.34	58742.77
550.51	58677.23
550.68	58749.79
550.84	58553.18
551.01	58773.19
551.18	58649.14
551.34	58599.99
551.51	58922.99
551.68	58742.77
551.84	58862.13
552.01	58670.21
552.18	58869.15
552.34	58761.49
552.51	58850.43
552.68	58712.34
552.84	58892.56
553.01	59222.58
553.18	59147.68
553.34	59084.48
553.51	58967.46
553.67	59030.65
553.84	59138.32
554.01	59138.32
554.17	59157.04
554.34	59311.52
554.51	59042.35
554.67	59283.43
554.84	59388.75
555.00	59267.05
555.17	59351.30
555.33	59299.81
555.50	59292.79
555.67	59323.22
555.83	59283.43
556.00	59267.05
556.16	59618.13
556.33	59716.43
556.50	59402.80
556.66	59594.72
556.83	59302.15
556.99	59627.49
557.16	59749.20
557.32	59849.84
557.49	59943.46
557.65	59683.66
557.82	59510.46
557.98	59660.26
558.15	59758.56
558.32	59505.78
558.48	59744.51
558.65	59613.44
558.81	59779.62
558.98	59718.77
559.14	59861.54
559.31	59915.37
559.47	59891.97
559.64	59898.99
559.80	60062.83
559.97	60044.10
560.13	59997.29
560.30	59873.24
560.46	59898.99
560.63	60037.08
560.79	59987.93
560.96	60128.36
561.12	60072.19
561.29	60023.04
561.45	60041.76
561.61	60158.79
561.78	60111.98
561.94	60130.70
562.11	59992.61
562.27	60060.49
562.44	60076.87
562.60	60238.37
562.77	60207.94
562.93	59994.95
563.10	60303.90
563.26	60016.02
563.42	60299.22
563.59	60350.71
563.75	60399.86
563.92	60224.32
564.08	60320.29
564.24	60453.70
564.41	60369.44
564.57	60268.79
564.74	60233.69
564.90	60575.40
565.07	60322.63
565.23	60303.90
565.39	60535.62
565.56	60395.18
565.72	60301.56
565.88	60549.66
566.05	60226.66
566.21	60509.87
566.38	60568.38
566.54	60678.39
566.70	60636.26
566.87	60764.99
567.03	60434.97
567.19	60577.75
567.36	60453.70
567.52	60544.98
567.68	60732.22
567.85	60540.30
568.01	60657.32
568.17	60706.47
568.34	60584.77
568.50	60425.61
568.66	60512.21
568.83	60753.29
568.99	60596.47
569.15	60872.65
569.32	60706.47
569.48	60486.46
569.64	60736.90
569.81	60779.03
569.97	60673.71
570.13	60645.62
570.30	60540.30
570.46	60835.20
570.62	60947.55
570.78	60755.63
570.95	60715.84
571.11	60886.70
571.27	60622.22
571.43	60807.12
571.60	60977.98
571.76	60781.37
571.92	60769.67
572.09	60762.65
572.25	60924.14
572.41	60697.11
572.57	60638.60
572.74	60896.06
572.90	60711.16
573.06	60774.35
573.22	60830.52
573.38	61001.38
573.55	60830.52
573.71	60996.70
573.87	60842.23
574.03	60589.45
574.20	60954.57
574.36	60832.86
574.52	61123.09
574.68	60896.06
574.84	61022.45
575.01	61064.58
575.17	60982.66
575.33	61013.08
575.49	60903.08
575.65	60856.27
575.82	60898.40
575.98	60977.98
576.14	60999.04
576.30	60919.46
576.46	60989.68
576.62	61176.92
576.79	61036.49
576.95	60839.89
577.11	61087.98
577.27	61139.47
577.43	61024.79
577.59	60900.74
577.75	61144.16
577.92	60652.64
578.08	60884.36
578.24	60994.36
578.40	61216.71
578.56	61073.94
578.72	61183.94
578.88	61069.26
579.04	61347.78
579.21	61226.07
579.37	61055.21
579.53	61249.48
579.69	60935.85
579.85	61052.87
580.01	61022.45
580.17	60942.87
580.33	61261.18
580.49	61272.88
580.65	61200.33
580.82	61013.08
580.98	61104.37
581.14	60999.04
581.30	61202.67
581.46	61106.71
581.62	61116.07
581.78	61109.05
581.94	61024.79
582.10	61223.73
582.26	61216.71
582.42	61155.86
582.58	61059.90
582.74	61113.73
582.90	60933.51
583.06	61212.03
583.22	61125.43
583.38	61277.57
583.54	61125.43
583.70	61261.18
583.86	61205.01
584.02	61125.43
584.18	61338.42
584.34	61186.28
584.50	61197.99
584.66	61251.82
584.82	61073.94
584.98	61528.00
585.14	61371.19
585.30	61130.11
585.46	61282.25
585.62	61396.93
585.78	61427.36
585.94	61071.60
586.10	61190.97
586.26	61043.51
586.42	61450.77
586.58	61254.16
586.74	61099.68
586.90	61258.84
587.06	61305.65
587.22	61277.57
587.38	61312.67
587.54	61446.08
587.70	61535.02
587.86	61378.21
588.02	61408.64
588.18	61420.34
588.34	61116.07
588.49	61223.73
