SpectraSuite Data File
++++++++++++++++++++++++++++++++++++
Date: Fri Oct 25 10:47:22 EDT 2013
User: price-jones
Dark Spectrum Present: No
Reference Spectrum Present: No
Number of Sampled Component Spectra: 1
Spectrometers: USB2+H05261
Integration Time (usec): 100000 (USB2+H05261)
Spectra Averaged: 1 (USB2+H05261)
Boxcar Smoothing: 0 (USB2+H05261)
Correct for Electrical Dark: No (USB2+H05261)
Strobe/Lamp Enabled: No (USB2+H05261)
Correct for Detector Non-linearity: No (USB2+H05261)
Correct for Stray Light: No (USB2+H05261)
Number of Pixels in Processed Spectrum: 2048
>>>>>Begin Processed Spectral Data<<<<<
365.73	187.24
365.92	187.24
366.12	187.24
366.32	53.83
366.52	0.00
366.72	72.56
366.91	0.00
367.11	23.41
367.31	14.04
367.51	14.04
367.70	21.06
367.90	217.67
368.10	35.11
368.30	51.49
368.49	9.36
368.69	32.77
368.89	46.81
369.09	42.13
369.28	56.17
369.48	37.45
369.68	100.64
369.87	81.92
370.07	114.69
370.27	187.24
370.47	166.18
370.66	402.57
370.86	397.89
371.06	308.95
371.25	505.56
371.45	482.15
371.65	421.30
371.84	449.38
372.04	477.47
372.24	440.02
372.44	479.81
372.63	514.92
372.83	468.11
373.03	517.26
373.22	447.04
373.42	500.87
373.62	491.51
373.81	540.66
374.01	510.24
374.21	545.34
374.40	491.51
374.60	620.24
374.79	533.64
374.99	561.73
375.19	601.52
375.38	540.66
375.58	571.09
375.78	559.39
375.97	589.82
376.17	648.33
376.37	606.20
376.56	547.69
376.76	545.34
376.95	592.16
377.15	622.58
377.35	617.90
377.54	608.54
377.74	538.32
377.93	627.26
378.13	589.82
378.33	629.60
378.52	622.58
378.72	688.12
378.91	624.92
379.11	641.31
379.31	631.94
379.50	596.84
379.70	683.44
379.89	674.07
380.09	725.57
380.28	582.79
380.48	592.16
380.68	634.29
380.87	674.07
381.07	660.03
381.26	634.29
381.46	690.46
381.65	688.12
381.85	664.71
382.04	678.76
382.24	706.84
382.43	650.67
382.63	713.86
382.83	676.41
383.02	706.84
383.22	784.08
383.41	669.39
383.61	720.88
383.80	767.70
384.00	737.27
384.19	697.48
384.39	711.52
384.58	681.10
384.78	690.46
384.97	727.91
385.17	751.31
385.36	765.36
385.56	800.46
385.75	732.59
385.95	842.59
386.14	744.29
386.34	760.67
386.53	709.18
386.72	800.46
386.92	882.38
387.11	844.93
387.31	760.67
387.50	856.64
387.70	807.48
387.89	884.72
388.09	812.17
388.28	823.87
388.48	833.23
388.67	795.78
388.86	887.06
389.06	873.02
389.25	903.45
389.45	933.87
389.64	887.06
389.84	919.83
390.03	931.53
390.22	898.77
390.42	933.87
390.61	898.77
390.81	863.66
391.00	980.68
391.19	983.02
391.39	957.28
391.58	933.87
391.78	1025.15
391.97	966.64
392.16	901.11
392.36	882.38
392.55	917.49
392.75	997.07
392.94	938.55
393.13	1015.79
393.33	903.45
393.52	915.15
393.71	1006.43
393.91	954.94
394.10	1057.92
394.29	1116.44
394.49	1095.37
394.68	1121.12
394.88	1116.44
395.07	1181.97
395.26	1123.46
395.46	1163.25
395.65	1090.69
395.84	1114.10
396.04	1188.99
396.23	1146.86
396.42	1102.39
396.62	1128.14
396.81	1139.84
397.00	1165.59
397.19	1153.88
397.39	1163.25
397.58	1233.46
397.77	1205.38
397.97	1266.23
398.16	1268.57
398.35	1296.66
398.55	1242.82
398.74	1277.93
398.93	1329.42
399.12	1324.74
399.32	1338.79
399.51	1308.36
399.70	1320.06
399.90	1420.71
400.09	1380.92
400.28	1458.15
400.47	1390.28
400.67	1514.33
400.86	1355.17
401.05	1416.02
401.24	1570.50
401.44	1481.56
401.63	1570.50
401.82	1472.20
402.01	1479.22
402.21	1523.69
402.40	1596.25
402.59	1572.84
402.78	1481.56
402.97	1596.25
403.17	1537.73
403.36	1519.01
403.55	1561.14
403.74	1605.61
403.93	1617.31
404.13	1703.91
404.32	1666.46
404.51	1760.08
404.70	1778.81
404.89	1668.80
405.09	1806.89
405.28	1774.13
405.47	1680.50
405.66	1790.51
405.85	1790.51
406.05	1767.10
406.24	1811.57
406.43	1818.60
406.62	1788.17
406.81	1860.73
407.00	1767.10
407.20	1844.34
407.39	1923.92
407.58	1961.37
407.77	1863.07
407.96	1923.92
408.15	1935.62
408.34	1956.69
408.54	1956.69
408.73	2033.93
408.92	1961.37
409.11	2073.71
409.30	1919.24
409.49	2059.67
409.68	2015.20
409.87	2059.67
410.07	2071.37
410.26	2031.58
410.45	2162.66
410.64	2216.49
410.83	2169.68
411.02	2122.87
411.21	2167.34
411.40	2289.04
411.59	2317.13
411.78	2298.41
411.98	2298.41
412.17	2303.09
412.36	2368.62
412.55	2354.58
412.74	2317.13
412.93	2445.86
413.12	2415.43
413.31	2445.86
413.50	2427.14
413.69	2612.04
413.88	2544.16
414.07	2459.90
414.26	2546.50
414.45	2708.00
414.64	2595.65
414.83	2703.32
415.02	2726.72
415.22	2750.13
415.41	2757.15
415.60	2820.35
415.79	2853.11
415.98	2834.39
416.17	2761.83
416.36	2956.10
416.55	2848.43
416.74	2963.12
416.93	2993.55
417.12	2946.73
417.31	2920.99
417.50	2946.73
417.69	3030.99
417.88	2991.20
418.07	3143.34
418.26	2967.80
418.45	2986.52
418.64	3225.26
418.83	3222.92
419.02	3115.25
419.21	3248.66
419.39	3220.58
419.58	3169.09
419.77	3148.02
419.96	3232.28
420.15	3183.13
420.34	3297.81
420.53	3208.87
420.72	3389.10
420.91	3351.65
421.10	3389.10
421.29	3426.54
421.48	3314.20
421.67	3389.10
421.86	3400.80
422.05	3300.16
422.24	3351.65
422.43	3318.88
422.61	3494.42
422.80	3548.25
422.99	3445.27
423.18	3452.29
423.37	3730.81
423.56	3445.27
423.75	3468.67
423.94	3571.66
424.13	3255.69
424.32	3421.86
424.50	3489.74
424.69	3543.57
424.88	3438.25
425.07	3405.48
425.26	3438.25
425.45	3424.20
425.64	3494.42
425.83	3557.61
426.01	3548.25
426.20	3515.48
426.39	3585.70
426.58	3466.33
426.77	3517.83
426.96	3662.94
427.15	3637.19
427.33	3658.26
427.52	3803.37
427.71	3721.45
427.90	3740.18
428.09	3794.01
428.28	3735.50
428.46	3840.82
428.65	3714.43
428.84	3749.54
429.03	3758.90
429.22	3719.11
429.40	3789.33
429.59	3735.50
429.78	3609.11
429.97	3571.66
430.16	3693.37
430.34	3763.58
430.53	3829.12
430.72	3782.31
430.91	3911.04
431.10	3892.31
431.28	4049.13
431.47	4042.11
431.66	4351.06
431.85	4060.83
432.03	4051.47
432.22	4297.22
432.41	4105.30
432.60	4140.41
432.79	4313.61
432.97	4315.95
433.16	4102.96
433.35	4250.41
433.54	4311.27
433.72	4255.09
433.91	4313.61
434.10	4304.25
434.28	4372.12
434.47	4292.54
434.66	4344.03
434.85	4470.42
435.03	4381.48
435.22	4332.33
435.41	4594.47
435.59	4510.21
435.78	4578.09
435.97	4704.48
436.16	4561.70
436.34	4528.94
436.53	4500.85
436.72	4624.90
436.90	4512.55
437.09	4638.94
437.28	4674.05
437.46	4638.94
437.65	4660.01
437.84	4697.46
438.02	4676.39
438.21	4734.90
438.40	4664.69
438.58	4814.48
438.77	4762.99
438.96	4919.81
439.14	4938.53
439.33	5041.51
439.52	5004.07
439.70	4877.68
439.89	4931.51
440.08	5240.46
440.26	5041.51
440.45	5205.35
440.63	5041.51
440.82	5369.19
441.01	5294.29
441.19	5263.86
441.38	5359.83
441.57	5488.56
441.75	5411.32
441.94	5568.13
442.12	5493.24
442.31	5561.11
442.50	5617.29
442.68	5448.77
442.87	5535.37
443.05	5694.52
443.24	5891.13
443.43	5748.36
443.61	5823.25
443.80	5895.81
443.98	5617.29
444.17	5624.31
444.35	5961.34
444.54	5973.05
444.73	5696.86
444.91	5757.72
445.10	5846.66
445.28	5778.78
445.47	5856.02
445.65	5809.21
445.84	5748.36
446.02	5867.72
446.21	5888.79
446.39	5853.68
446.58	6157.95
446.77	5966.03
446.95	5827.93
447.14	6012.84
447.32	5987.09
447.51	5905.17
447.69	5912.19
447.88	6022.20
448.06	5928.58
448.25	5827.93
448.43	6057.31
448.62	6005.81
448.80	6033.90
448.99	5937.94
449.17	6073.69
449.36	6085.39
449.54	6150.93
449.73	6324.13
449.91	6239.87
450.10	6338.17
450.28	6413.07
450.46	6361.58
450.65	6649.46
450.83	6200.08
451.02	6478.60
451.20	6380.30
451.39	6380.30
451.57	6282.00
451.76	6459.88
451.94	6424.77
452.13	6359.24
452.31	6387.32
452.49	6473.92
452.68	6574.56
452.86	6541.80
453.05	6485.62
453.23	6733.72
453.42	6509.03
453.60	6506.69
453.78	6635.42
453.97	6562.86
454.15	6623.72
454.34	6427.11
454.52	6782.87
454.70	6794.58
454.89	6827.34
455.07	6881.18
455.26	6628.40
455.44	7014.59
455.62	6857.77
455.81	7070.76
455.99	7126.93
456.17	6878.83
456.36	7049.69
456.54	7045.01
456.73	7063.74
456.91	7281.41
457.09	7311.83
457.28	7407.80
457.46	7143.32
457.64	7260.34
457.83	7185.44
458.01	7330.56
458.19	7428.86
458.38	7323.54
458.56	7501.42
458.74	7506.10
458.93	7283.75
459.11	7478.01
459.29	7566.95
459.48	7438.22
459.66	7562.27
459.84	7496.74
460.03	7639.51
460.21	7452.27
460.39	7606.74
460.57	7641.85
460.76	7742.49
460.94	7756.54
461.12	7740.15
461.31	7826.75
461.49	7719.09
461.67	7747.17
461.85	7824.41
462.04	7908.67
462.22	8348.69
462.40	8124.00
462.59	7913.35
462.77	7810.37
462.95	8119.32
463.13	8187.19
463.32	8077.19
463.50	8196.56
463.68	7934.42
463.86	8219.96
464.05	7983.57
464.23	8198.90
464.41	8109.96
464.59	8189.53
464.78	8400.18
464.96	8219.96
465.14	8140.38
465.32	8358.05
465.50	8283.16
465.69	8463.38
465.87	8306.56
466.05	8229.32
466.23	8269.11
466.41	8416.57
466.60	8489.12
466.78	8421.25
466.96	8336.99
467.14	8273.79
467.32	8514.87
467.51	8720.84
467.69	8430.61
467.87	8430.61
468.05	8807.44
468.23	8568.70
468.41	8500.83
468.60	8664.66
468.78	8533.59
468.96	8594.45
469.14	8678.71
469.32	8844.88
469.50	8592.11
469.69	8769.99
469.87	8805.10
470.05	8961.91
470.23	8945.53
470.41	8812.12
470.59	9284.91
470.77	8980.64
470.95	8992.34
471.14	9064.89
471.32	9055.53
471.50	9233.41
471.68	9179.58
471.86	9341.08
472.04	9320.01
472.22	9577.47
472.40	9188.94
472.58	9287.25
472.77	9448.74
472.95	9750.67
473.13	9659.39
473.31	9575.13
473.49	9338.74
473.67	9507.26
473.85	9745.99
474.03	9905.15
474.21	9827.91
474.39	10076.01
474.57	9860.68
474.75	10078.35
474.93	10108.77
475.12	10167.29
475.30	10274.95
475.48	10195.37
475.66	10139.20
475.84	10209.42
476.02	10200.05
476.20	10321.76
476.38	10588.58
476.56	10820.30
476.74	10747.74
476.92	10544.11
477.10	10796.89
477.28	10911.58
477.46	10817.96
477.64	10963.07
477.82	10923.28
478.00	11157.33
478.18	11260.32
478.36	11440.54
478.54	11571.61
478.72	11552.88
478.90	11468.62
479.08	11712.04
479.26	11819.71
479.44	11805.66
479.62	12046.74
479.80	12280.79
479.98	12320.58
480.16	12306.54
480.34	12301.86
480.52	12304.20
480.70	12325.26
480.88	12159.08
481.06	12613.15
481.24	12627.19
481.41	12840.18
481.59	13095.30
481.77	13083.59
481.95	13055.51
482.13	13348.08
482.31	13083.59
482.49	13540.00
482.67	13322.33
482.85	13633.62
483.03	13729.58
483.21	13834.91
483.39	14008.11
483.57	13912.14
483.74	14118.11
483.92	14516.00
484.10	14223.44
484.28	14644.73
484.46	14623.67
484.64	14607.28
484.82	14799.21
485.00	14827.29
485.18	15042.62
485.35	15297.74
485.53	14761.76
485.71	14977.09
485.89	15051.99
486.07	15166.67
486.25	15159.65
486.43	15564.56
486.61	15709.68
486.78	15953.09
486.96	15845.43
487.14	16102.89
487.32	16105.23
487.50	16432.90
487.68	16439.92
487.85	16718.45
488.03	16870.58
488.21	16905.69
488.39	17135.06
488.57	17025.06
488.75	17090.59
488.92	17303.58
489.10	17642.96
489.28	17759.98
489.46	17940.21
489.64	18080.64
489.81	18530.02
489.99	18349.80
490.17	18143.83
490.35	18537.04
490.53	18675.13
490.70	18963.02
490.88	18775.78
491.06	18794.50
491.24	18778.12
491.41	18892.80
491.59	19274.31
491.77	18963.02
491.95	19494.32
492.13	19517.73
492.30	19644.12
492.48	20006.90
492.66	19836.04
492.84	19924.98
493.01	20503.09
493.19	20154.35
493.37	20315.85
493.54	20776.94
493.72	20912.69
493.90	20762.89
494.08	20905.66
494.25	21235.68
494.43	20985.24
494.61	21680.38
494.79	21422.92
494.96	21163.12
495.14	21329.30
495.32	21525.91
495.49	21837.20
495.67	22104.02
495.85	22094.66
496.02	22307.65
496.20	22354.46
496.38	22504.25
496.55	22438.72
496.73	23147.90
496.91	22647.02
497.09	22845.97
497.26	22618.94
497.44	22796.82
497.62	23262.58
497.79	23470.89
497.97	23009.81
498.14	23344.50
498.32	23665.16
498.50	23838.36
498.67	23758.78
498.85	23836.02
499.03	24135.60
499.20	24208.16
499.38	24212.84
499.56	24107.52
499.73	24231.57
499.91	24411.79
500.08	24905.64
500.26	24046.66
500.44	24577.97
500.61	24945.43
500.79	24545.20
500.97	24809.68
501.14	25032.03
501.32	25142.03
501.49	25233.32
501.67	25106.93
501.84	25266.08
502.02	25429.92
502.20	25914.41
502.37	25853.56
502.55	25647.59
502.72	25872.28
502.90	25947.18
503.07	25666.31
503.25	26260.81
503.43	26026.76
503.60	26202.30
503.78	25858.24
503.95	26281.88
504.13	26359.11
504.30	26335.71
504.48	26567.42
504.65	26396.56
504.83	27068.30
505.01	26838.92
505.18	26637.64
505.36	27040.21
505.53	27129.15
505.71	27529.38
505.88	27421.72
506.06	26967.65
506.23	27491.93
506.41	27171.28
506.58	27267.24
506.76	27473.21
506.93	27786.84
507.11	27707.26
507.28	27725.99
507.46	27655.77
507.63	28046.64
507.81	27697.90
507.98	28191.75
508.16	28107.49
508.33	28205.80
508.50	28423.47
508.68	28297.08
508.85	28484.32
509.03	28786.25
509.20	29027.32
509.38	28950.09
509.55	29153.71
509.73	28999.24
509.90	29127.97
510.08	29104.56
510.25	29151.37
510.42	29198.18
510.60	29720.12
510.77	29308.19
510.95	29942.47
511.12	29268.40
511.30	29883.96
511.47	30106.31
511.64	29900.34
511.82	30099.29
511.99	29923.75
512.17	29991.62
512.34	30417.60
512.51	30127.38
512.69	30405.90
512.86	30164.82
513.04	30455.05
513.21	30277.17
513.38	30845.92
513.56	30616.55
513.73	30515.90
513.90	30448.03
514.08	30529.95
514.25	30705.49
514.43	30738.26
514.60	31206.36
514.77	30789.75
514.95	31220.41
515.12	31269.56
515.29	31204.02
515.47	31854.69
515.64	31768.09
515.81	31512.97
515.99	31508.29
516.16	31477.86
516.33	31761.07
516.51	31672.13
516.68	31597.23
516.85	31480.21
517.03	31524.68
517.20	32233.86
517.37	32041.93
517.54	32156.62
517.72	32102.79
517.89	31917.89
518.06	31791.50
518.24	32173.00
518.41	32322.80
518.58	32144.92
518.75	32243.22
518.93	33036.66
519.10	32673.88
519.27	32987.51
519.45	32840.06
519.62	33261.35
519.79	33275.40
519.96	33184.12
520.14	33081.13
520.31	32779.20
520.48	33539.88
520.65	33546.90
520.83	33706.05
521.00	33799.68
521.17	33270.72
521.34	33659.24
521.52	33462.64
521.69	33813.72
521.86	33827.76
522.03	33748.18
522.20	33942.45
522.38	33942.45
522.55	34178.84
522.72	33839.47
522.89	33881.60
523.07	34190.55
523.24	33961.17
523.41	34583.76
523.58	34536.94
523.75	34778.02
523.92	34483.11
524.10	34539.29
524.27	34717.17
524.44	34916.11
524.61	35281.24
524.78	34855.26
524.96	35079.95
525.13	35103.35
525.30	35384.22
525.47	35398.26
525.64	35384.22
525.81	35372.52
525.98	35541.03
526.16	35381.88
526.33	35311.66
526.50	35529.33
526.67	35154.85
526.84	35208.68
527.01	35274.21
527.18	35365.49
527.36	35913.18
527.53	35934.24
527.70	36163.62
527.87	35725.94
528.04	36016.16
528.21	36102.76
528.38	35889.77
528.55	36231.49
528.72	36191.70
528.89	36636.41
529.07	36444.48
529.24	36091.06
529.41	35927.22
529.58	36559.17
529.75	36250.22
529.92	36800.24
530.09	36385.97
530.26	36652.79
530.43	36893.86
530.60	36566.19
530.77	36924.29
530.94	36711.30
531.11	36884.50
531.28	37139.62
531.46	36861.10
531.63	37471.98
531.80	37031.96
531.97	37209.84
532.14	37453.25
532.31	37228.56
532.48	37132.60
532.65	37347.93
532.82	37202.82
532.99	37654.54
533.16	37422.83
533.33	37305.80
533.50	37600.71
533.67	37886.25
533.84	37352.61
534.01	37404.10
534.18	37813.70
534.35	38045.41
534.52	38101.58
534.69	37598.37
534.86	38000.94
535.03	38019.66
535.20	38494.79
535.37	38237.33
535.54	38148.39
535.71	38071.15
535.88	38096.90
536.05	38314.57
536.22	38707.78
536.38	38319.25
536.55	38286.48
536.72	38864.60
536.89	38403.51
537.06	38462.02
537.23	38644.59
537.40	38447.98
537.57	39030.77
537.74	38499.47
537.91	39215.68
538.08	38946.51
538.25	38869.28
538.42	38838.85
538.59	38756.93
538.75	38515.86
538.92	38927.79
539.09	39541.01
539.26	38822.47
539.43	39026.09
539.60	39206.31
539.77	39243.76
539.94	39529.31
540.11	39140.78
540.28	39571.44
540.44	39161.84
540.61	39566.76
540.78	38803.74
540.95	39468.45
541.12	39412.28
541.29	39393.56
541.46	39470.79
541.62	39601.86
541.79	39765.70
541.96	39288.23
542.13	39653.36
542.30	39992.73
542.47	39920.18
542.63	40025.50
542.80	39922.52
542.97	40240.83
543.14	40325.09
543.31	40573.19
543.48	40364.88
543.64	40559.14
543.81	40741.71
543.98	40297.00
544.15	40823.62
544.32	41076.40
544.48	40973.42
544.65	40690.21
544.82	40795.54
544.99	40505.31
545.16	40500.63
545.32	40657.45
545.49	41174.70
545.66	40767.45
545.83	40840.01
546.00	41116.19
546.16	41071.72
546.33	40807.24
546.50	40727.66
546.67	41137.26
546.83	40552.12
547.00	40767.45
547.17	40882.14
547.34	41081.08
547.50	40957.03
547.67	41394.71
547.84	41696.64
548.00	41385.35
548.17	41441.53
548.34	41661.54
548.51	41394.71
548.67	41766.86
548.84	40985.12
549.01	41722.39
549.18	41460.25
549.34	41645.15
549.51	41832.39
549.68	41830.05
549.84	41893.25
550.01	42150.71
550.18	41682.60
550.34	41951.76
550.51	41958.78
550.68	41790.27
550.84	41598.34
551.01	41837.08
551.18	42080.49
551.34	41921.34
551.51	41909.63
551.68	42148.37
551.84	42012.62
552.01	41745.80
552.18	42092.19
552.34	41951.76
552.51	42572.00
552.68	42061.77
552.84	42611.79
553.01	42710.10
553.18	42347.31
553.34	42185.82
553.51	42246.67
553.67	42169.43
553.84	42859.89
554.01	42831.80
554.17	42672.65
554.34	42838.83
554.51	42679.67
554.67	42979.26
554.84	42724.14
555.00	42281.78
555.17	42499.45
555.33	42431.57
555.50	42761.59
555.67	42967.55
555.83	43016.71
556.00	43351.40
556.16	43138.41
556.33	42880.95
556.50	42738.18
556.66	42916.06
556.83	42703.07
556.99	42906.70
557.16	43159.48
557.32	42988.62
557.49	43093.94
557.65	43023.73
557.82	42653.92
557.98	42672.65
558.15	42756.91
558.32	42969.90
558.48	42862.23
558.65	42937.13
558.81	43360.76
558.98	43447.36
559.14	43044.79
559.31	42948.83
559.47	42848.19
559.64	43374.81
559.80	43311.61
559.97	43803.13
560.13	43330.34
560.30	42927.77
560.46	43056.50
560.63	43358.42
560.79	43702.48
560.96	43882.70
561.12	43311.61
561.29	43203.95
561.45	43461.41
561.61	43309.27
561.78	43615.88
561.94	43035.43
562.11	43253.10
562.27	43728.23
562.44	43512.90
562.60	43606.52
562.77	43796.10
562.93	43660.35
563.10	43693.12
563.26	43112.67
563.42	43328.00
563.59	43365.45
563.75	43618.22
563.92	43821.85
564.08	43625.25
564.24	43913.13
564.41	43915.47
564.57	43578.43
564.74	43697.80
564.90	44088.67
565.07	43957.60
565.23	43910.79
565.39	43828.87
565.56	43784.40
565.72	43510.56
565.88	44172.93
566.05	43543.33
566.21	43892.07
566.38	43866.32
566.54	43480.13
566.70	43981.01
566.87	44128.46
567.03	44079.31
567.19	44392.94
567.36	44060.58
567.52	44219.74
567.68	44521.67
567.85	44114.42
568.01	43440.34
568.17	43648.65
568.34	44112.08
568.50	43983.35
568.66	43683.76
568.83	44184.63
568.99	43646.31
569.15	43957.60
569.32	44086.33
569.48	44037.18
569.64	43761.00
569.81	44233.78
569.97	44505.29
570.13	44311.02
570.30	43847.60
570.46	43990.37
570.62	44095.69
570.78	44098.03
570.95	43761.00
571.11	43882.70
571.27	43693.12
571.43	44198.68
571.60	44039.52
571.76	43714.19
571.92	44257.19
572.09	43828.87
572.25	43831.21
572.41	44004.41
572.57	44062.93
572.74	44783.81
572.90	44123.78
573.06	44299.32
573.22	44512.31
573.38	44315.70
573.55	43817.17
573.71	44357.83
573.87	44212.72
574.03	44177.61
574.20	43913.13
574.36	44191.65
574.52	44575.50
574.68	44526.35
574.84	44404.64
575.01	44659.76
575.17	44346.13
575.33	44257.19
575.49	43878.02
575.65	44772.11
575.82	44697.21
575.98	44247.83
576.14	44905.52
576.30	44444.43
576.46	44280.60
576.62	44479.54
576.79	44533.37
576.95	43915.47
577.11	44360.17
577.27	44343.79
577.43	44318.04
577.59	44184.63
577.75	44425.71
577.92	44011.43
578.08	44229.10
578.24	44470.18
578.40	44280.60
578.56	44493.58
578.72	44371.88
578.88	44428.05
579.04	44161.23
579.21	44383.58
579.37	44278.25
579.53	44156.55
579.69	44030.16
579.85	44376.56
580.01	44737.00
580.17	44594.23
580.33	44772.11
580.49	44626.99
580.65	44542.74
580.82	44081.65
580.98	44570.82
581.14	44296.98
581.30	44753.38
581.46	44261.87
581.62	44598.91
581.78	44582.52
581.94	44500.61
582.10	44488.90
582.26	44856.37
582.42	44282.94
582.58	44467.84
582.74	44341.45
582.90	44428.05
583.06	44390.60
583.22	44664.44
583.38	44552.10
583.54	44624.65
583.70	44425.71
583.86	44119.10
584.02	44170.59
584.18	44678.49
584.34	44711.25
584.50	44711.25
584.66	44547.42
584.82	44294.64
584.98	44961.69
585.14	44783.81
585.30	44495.92
585.46	44030.16
585.62	43487.15
585.78	44603.59
585.94	44240.81
586.10	44275.91
586.26	44521.67
586.42	44839.98
586.58	44837.64
586.74	44942.97
586.90	44945.31
587.06	44327.41
587.22	44428.05
587.38	44626.99
587.54	45233.19
587.70	44673.81
587.86	44781.47
588.02	44938.29
588.18	44683.17
588.34	44561.46
588.49	44088.67
588.65	44210.38
588.81	44346.13
588.97	44212.72
589.13	44348.47
589.29	44238.47
589.45	44598.91
589.61	44715.93
589.77	44547.42
589.93	44540.39
590.08	44985.10
590.24	44634.02
