SpectraSuite Data File
++++++++++++++++++++++++++++++++++++
Date: Fri Oct 25 11:23:57 EDT 2013
User: price-jones
Dark Spectrum Present: No
Reference Spectrum Present: No
Number of Sampled Component Spectra: 1
Spectrometers: USB2+H05261
Integration Time (usec): 100000 (USB2+H05261)
Spectra Averaged: 1 (USB2+H05261)
Boxcar Smoothing: 0 (USB2+H05261)
Correct for Electrical Dark: No (USB2+H05261)
Strobe/Lamp Enabled: No (USB2+H05261)
Correct for Detector Non-linearity: No (USB2+H05261)
Correct for Stray Light: No (USB2+H05261)
Number of Pixels in Processed Spectrum: 2048
>>>>>Begin Processed Spectral Data<<<<<
365.73	255.12
365.92	255.12
366.12	255.12
366.32	124.05
366.52	121.71
366.72	121.71
366.91	163.84
367.11	79.58
367.31	86.60
367.51	93.62
367.70	102.98
367.90	203.63
368.10	65.54
368.30	147.45
368.49	107.66
368.69	198.95
368.89	149.79
369.09	166.18
369.28	138.09
369.48	201.29
369.68	177.88
369.87	234.05
370.07	173.20
370.27	210.65
370.47	318.31
370.66	545.34
370.86	645.99
371.06	657.69
371.25	681.10
371.45	681.10
371.65	636.63
371.84	685.78
372.04	727.91
372.24	676.41
372.44	763.01
372.63	763.01
372.83	751.31
373.03	727.91
373.22	734.93
373.42	753.65
373.62	802.80
373.81	748.97
374.01	795.78
374.21	891.74
374.40	763.01
374.60	917.49
374.79	823.87
374.99	858.98
375.19	758.33
375.38	863.66
375.58	821.53
375.78	830.89
375.97	929.19
376.17	844.93
376.37	819.19
376.56	912.81
376.76	837.91
376.95	931.53
377.15	959.62
377.35	912.81
377.54	882.38
377.74	856.64
377.93	933.87
378.13	889.40
378.33	980.68
378.52	844.93
378.72	978.34
378.91	917.49
379.11	945.58
379.31	933.87
379.50	898.77
379.70	964.30
379.89	933.87
380.09	973.66
380.28	966.64
380.48	1057.92
380.68	990.05
380.87	952.60
381.07	987.71
381.26	973.66
381.46	1055.58
381.65	1001.75
381.85	985.37
382.04	1057.92
382.24	1093.03
382.43	1107.07
382.63	1078.99
382.83	1149.20
383.02	1048.56
383.22	1125.80
383.41	1048.56
383.61	1046.22
383.80	1071.97
384.00	1139.84
384.19	1062.60
384.39	1060.26
384.58	1039.20
384.78	1135.16
384.97	1104.73
385.17	1114.10
385.36	1135.16
385.56	1275.59
385.75	1135.16
385.95	1181.97
386.14	1254.53
386.34	1212.40
386.53	1259.21
386.72	1163.25
386.92	1252.19
387.11	1214.74
387.31	1238.14
387.50	1256.87
387.70	1254.53
387.89	1322.40
388.09	1334.11
388.28	1291.98
388.48	1299.00
388.67	1303.68
388.86	1324.74
389.06	1394.96
389.25	1329.42
389.45	1322.40
389.64	1352.83
389.84	1425.39
390.03	1345.81
390.22	1273.25
390.42	1345.81
390.61	1416.02
390.81	1336.45
391.00	1416.02
391.19	1420.71
391.39	1432.41
391.58	1383.26
391.78	1455.81
391.97	1540.07
392.16	1401.98
392.36	1441.77
392.55	1495.60
392.75	1521.35
392.94	1432.41
393.13	1593.90
393.33	1497.94
393.52	1549.43
393.71	1621.99
393.91	1565.82
394.10	1596.25
394.29	1591.56
394.49	1526.03
394.68	1598.59
394.88	1668.80
395.07	1577.52
395.26	1781.15
395.46	1671.14
395.65	1612.63
395.84	1706.25
396.04	1708.59
396.23	1757.74
396.42	1785.83
396.62	1830.30
396.81	1781.15
397.00	1886.47
397.19	1830.30
397.39	1860.73
397.58	1804.55
397.77	1764.76
397.97	1837.32
398.16	1870.09
398.35	1923.92
398.55	1916.90
398.74	1865.41
398.93	1968.39
399.12	1853.70
399.32	1923.92
399.51	1827.96
399.70	2050.31
399.90	2036.27
400.09	1977.75
400.28	1996.48
400.47	2057.33
400.67	1977.75
400.86	2090.10
401.05	2132.23
401.24	2043.29
401.44	2113.50
401.63	2209.47
401.82	2083.08
402.01	2106.48
402.21	2150.95
402.40	2125.21
402.59	2160.31
402.78	2190.74
402.97	2150.95
403.17	2260.96
403.36	2251.60
403.55	2267.98
403.74	2401.39
403.93	2340.54
404.13	2382.67
404.32	2347.56
404.51	2464.58
404.70	2495.01
404.89	2459.90
405.09	2417.77
405.28	2511.39
405.47	2469.27
405.66	2441.18
405.85	2469.27
406.05	2445.86
406.24	2471.61
406.43	2637.78
406.62	2551.18
406.81	2635.44
407.00	2525.44
407.20	2572.25
407.39	2644.81
407.58	2686.94
407.77	2729.06
407.96	2712.68
408.15	2754.81
408.34	2843.75
408.54	2843.75
408.73	2789.92
408.92	2906.95
409.11	2885.88
409.30	2944.39
409.49	2892.90
409.68	2911.63
409.87	2853.11
410.07	2937.37
410.26	3023.97
410.45	3117.59
410.64	3096.53
410.83	3080.14
411.02	3152.70
411.21	3159.72
411.40	3115.25
411.59	3267.39
411.78	3213.56
411.98	3229.94
412.17	3290.79
412.36	3260.37
412.55	3447.61
412.74	3438.25
412.93	3412.50
413.12	3339.94
413.31	3571.66
413.50	3447.61
413.69	3506.12
413.88	3588.04
414.07	3637.19
414.26	3728.47
414.45	3543.57
414.64	3660.60
414.83	3845.50
415.02	3803.37
415.22	3742.52
415.41	3915.72
415.60	3857.20
415.79	3971.89
415.98	4011.68
416.17	3915.72
416.36	3974.23
416.55	4135.73
416.74	4044.45
416.93	4198.92
417.12	4044.45
417.31	4149.77
417.50	4203.60
417.69	4458.72
417.88	4290.20
418.07	4290.20
418.26	4308.93
418.45	4428.29
418.64	4528.94
418.83	4517.23
419.02	4440.00
419.21	4596.81
419.39	4531.28
419.58	4519.57
419.77	4271.48
419.96	4524.26
420.15	4582.77
420.34	4580.43
420.53	4622.56
420.72	4615.54
420.91	4751.29
421.10	4819.16
421.29	4652.98
421.48	4706.82
421.67	4676.39
421.86	4702.14
422.05	4980.66
422.24	4821.50
422.43	4894.06
422.61	4884.70
422.80	5004.07
422.99	4863.63
423.18	4985.34
423.37	5097.69
423.56	4978.32
423.75	5006.41
423.94	4816.82
424.13	4704.48
424.32	4660.01
424.50	4849.59
424.69	5057.90
424.88	5032.15
425.07	4945.55
425.26	4798.10
425.45	5020.45
425.64	4990.02
425.83	5132.79
426.01	5036.83
426.20	4975.98
426.39	4945.55
426.58	4971.30
426.77	5118.75
426.96	5116.41
427.15	5226.42
427.33	5121.09
427.52	5137.48
427.71	5329.40
427.90	5160.88
428.09	5364.51
428.28	5303.65
428.46	5408.98
428.65	5355.15
428.84	5652.39
429.03	5605.58
429.22	5334.08
429.40	5474.51
429.59	5514.30
429.78	5334.08
429.97	5174.92
430.16	5549.41
430.34	5631.33
430.53	5802.19
430.72	5659.42
430.91	5769.42
431.10	5682.82
431.28	5699.20
431.47	5631.33
431.66	5940.28
431.85	5872.40
432.03	5968.37
432.22	5891.13
432.41	5916.87
432.60	5959.00
432.79	6050.28
432.97	6092.41
433.16	6047.94
433.35	6059.65
433.54	6097.10
433.72	6214.12
433.91	6216.46
434.10	6024.54
434.28	6139.23
434.47	6073.69
434.66	6211.78
434.85	6389.66
435.03	6230.51
435.22	6296.04
435.41	6420.09
435.59	6410.73
435.78	6464.56
435.97	6443.49
436.16	6567.54
436.34	6579.25
436.53	6368.60
436.72	6888.20
436.90	6406.05
437.09	6583.93
437.28	6520.73
437.46	6525.41
437.65	6771.17
437.84	6707.98
438.02	6825.00
438.21	6743.08
438.40	6766.49
438.58	6862.45
438.77	7229.91
438.96	6960.75
439.14	7187.79
439.33	7199.49
439.52	7199.49
439.70	7379.71
439.89	7428.86
440.08	7330.56
440.26	7330.56
440.45	7386.73
440.63	7508.44
440.82	7709.72
441.01	7499.08
441.19	7538.87
441.38	7651.21
441.57	7805.69
441.75	7775.26
441.94	7822.07
442.12	8074.85
442.31	8025.70
442.50	8140.38
442.68	7946.12
442.87	8154.43
443.05	8112.30
443.24	8283.16
443.43	8156.77
443.61	8194.22
443.80	8519.55
443.98	8002.29
444.17	7777.60
444.35	8018.68
444.54	8339.33
444.73	8320.60
444.91	8252.73
445.10	8299.54
445.28	8451.67
445.47	8243.37
445.65	8255.07
445.84	8262.09
446.02	8407.20
446.21	8512.53
446.39	8484.44
446.58	8592.11
446.77	8439.97
446.95	8484.44
447.14	8430.61
447.32	8697.43
447.51	8528.91
447.69	8655.30
447.88	8559.34
448.06	8451.67
448.25	8404.86
448.43	8671.68
448.62	8585.08
448.80	8587.43
448.99	8784.03
449.17	8737.22
449.36	8739.56
449.54	8861.27
449.73	9022.77
449.91	9008.72
450.10	8865.95
450.28	9142.13
450.46	9067.24
450.65	9039.15
450.83	9130.43
451.02	9179.58
451.20	9308.31
451.39	9235.75
451.57	9130.43
451.76	9114.05
451.94	9242.78
452.13	9338.74
452.31	9266.18
452.49	8999.36
452.68	9420.66
452.86	9380.87
453.05	9507.26
453.23	9507.26
453.42	9418.32
453.60	9334.06
453.78	9518.96
453.97	9582.15
454.15	9558.75
454.34	9537.68
454.52	9685.14
454.70	9584.49
454.89	9736.63
455.07	9722.59
455.26	9994.09
455.44	9802.16
455.62	9923.87
455.81	9942.60
455.99	10073.67
456.17	10068.98
456.36	10001.11
456.54	10274.95
456.73	10281.97
456.91	10448.15
457.09	10228.14
457.28	10684.55
457.46	10345.17
457.64	10551.14
457.83	10574.54
458.01	10621.35
458.19	10509.01
458.38	10464.54
458.56	10619.01
458.74	10806.25
458.93	10768.80
459.11	10759.44
459.29	10846.04
459.48	10899.87
459.66	10813.28
459.84	10876.47
460.03	11115.20
460.21	11126.91
460.39	11192.44
460.57	11105.84
460.76	11367.98
460.94	11019.24
461.12	11339.90
461.31	11330.53
461.49	11108.18
461.67	11133.93
461.85	11377.34
462.04	11396.07
462.22	11510.75
462.40	11683.95
462.59	11529.48
462.77	11616.08
462.95	11805.66
463.13	11721.40
463.32	11578.63
463.50	11887.58
463.68	11613.74
463.86	11866.52
464.05	11695.66
464.23	11653.53
464.41	11964.82
464.59	11988.22
464.78	12072.48
464.96	12049.08
465.14	11932.05
465.32	12322.92
465.50	11887.58
465.69	12271.43
465.87	12173.13
466.05	12255.04
466.23	12231.64
466.41	12135.68
466.60	12446.97
466.78	12159.08
466.96	12072.48
467.14	12236.32
467.32	12339.30
467.51	12369.73
467.69	12475.06
467.87	12456.33
468.05	12615.49
468.23	12421.22
468.41	12554.63
468.60	12681.02
468.78	12774.64
468.96	12596.76
469.14	12938.48
469.32	12938.48
469.50	12879.97
469.69	12926.78
469.87	13191.26
470.05	12994.65
470.23	13247.43
470.41	13329.35
470.59	13523.62
470.77	13289.56
470.95	13336.37
471.14	13607.87
471.32	13444.04
471.50	13708.52
471.68	13579.79
471.86	13895.76
472.04	13774.05
472.22	14115.77
472.40	13802.14
472.58	13724.90
472.77	14106.41
472.95	13968.32
473.13	14703.25
473.31	14171.94
473.49	14305.35
473.67	14436.42
473.85	14413.02
474.03	14785.16
474.21	14724.31
474.39	14834.32
474.57	14824.95
474.75	14780.48
474.93	15037.94
475.12	14883.47
475.30	15030.92
475.48	15178.37
475.66	15279.02
475.84	15300.08
476.02	15480.30
476.20	15627.76
476.38	15845.43
476.56	16194.17
476.74	16027.99
476.92	16105.23
477.10	15639.46
477.28	16182.46
477.46	16091.18
477.64	16643.55
477.82	16842.50
478.00	17013.35
478.18	16938.46
478.36	16945.48
478.54	17067.19
478.72	17268.47
478.90	17708.49
479.08	17521.25
479.26	17858.29
479.44	17734.24
479.62	17771.69
479.80	18101.70
479.98	18216.39
480.16	18750.03
480.34	18291.29
480.52	18705.56
480.70	18881.10
480.88	18347.46
481.06	18953.66
481.24	19077.71
481.41	19197.07
481.59	19316.44
481.77	19473.26
481.95	19384.32
482.13	19983.49
482.31	19562.20
482.49	20191.80
482.67	20194.14
482.85	20573.31
483.03	21015.67
483.21	20650.55
483.39	21057.80
483.57	20856.51
483.74	21254.40
483.92	21369.09
484.10	21261.43
484.28	21563.36
484.46	22150.83
484.64	22462.12
484.82	22141.47
485.00	22171.89
485.18	22661.07
485.35	23037.89
485.53	22988.74
485.71	23215.77
485.89	23854.74
486.07	23424.08
486.25	23616.01
486.43	23798.57
486.61	23833.68
486.78	24074.75
486.96	24154.33
487.14	24641.16
487.32	24814.36
487.50	24842.45
487.68	24851.81
487.85	25312.89
488.03	25422.90
488.21	26047.82
488.39	25783.34
488.57	26192.94
488.75	26419.97
488.92	26586.15
489.10	26698.49
489.28	26691.47
489.46	27040.21
489.64	27379.59
489.81	27648.75
489.99	28027.92
490.17	27786.84
490.35	28084.09
490.53	28458.57
490.70	28531.13
490.88	28519.43
491.06	28833.06
491.24	28903.28
491.41	29104.56
491.59	29668.63
491.77	29469.69
491.95	29755.23
492.13	29689.70
492.30	30143.76
492.48	30101.63
492.66	30202.27
492.84	29874.60
493.01	30588.46
493.19	30607.19
493.37	31054.23
493.54	31335.09
493.72	31702.56
493.90	31524.68
494.08	31852.35
494.25	32004.49
494.43	32023.21
494.61	32652.81
494.79	32914.95
494.96	32465.57
495.14	32828.35
495.32	33467.32
495.49	33432.21
495.67	33441.57
495.85	33727.12
496.02	33809.04
496.20	34253.74
496.38	33893.30
496.55	34506.52
496.73	34817.81
496.91	35115.06
497.09	34815.47
497.26	34941.86
497.44	35002.71
497.62	35236.77
497.79	35702.53
497.97	35995.10
498.14	36144.89
498.32	36390.65
498.50	36299.37
498.67	36711.30
498.85	36381.29
499.03	37123.24
499.20	36802.58
499.38	37078.77
499.56	37214.52
499.73	37598.37
499.91	37514.11
500.08	37970.51
500.26	37408.78
500.44	37338.57
500.61	37907.32
500.79	38141.37
500.97	38349.68
501.14	38829.49
501.32	38763.95
501.49	38536.92
501.67	38546.28
501.84	39063.54
502.02	38899.70
502.20	39285.89
502.37	39222.70
502.55	39459.09
502.72	39473.13
502.90	39697.83
503.07	39625.27
503.25	39805.49
503.43	39943.58
503.60	40704.26
503.78	40289.98
503.95	40346.15
504.13	40744.05
504.30	40538.08
504.48	40730.00
504.65	40818.94
504.83	41174.70
505.01	41436.84
505.18	41617.07
505.36	41954.10
505.53	41535.15
505.71	41420.46
505.88	42094.53
506.06	41539.83
506.23	42239.65
506.41	41764.52
506.58	42103.90
506.76	42454.98
506.93	42508.81
507.11	42600.09
507.28	42595.41
507.46	43079.90
507.63	42953.51
507.81	43377.15
507.98	43243.74
508.16	43222.67
508.33	43611.20
508.50	43714.19
508.68	43365.45
508.85	43627.59
509.03	43395.87
509.20	44128.46
509.38	44266.55
509.55	44533.37
509.73	44596.57
509.90	44767.43
510.08	45001.48
510.25	44531.03
510.42	44804.88
510.60	45153.62
510.77	45170.00
510.95	45558.53
511.12	45308.09
511.30	45125.53
511.47	45968.12
511.64	45734.07
511.82	46244.30
511.99	45680.24
512.17	46457.29
512.34	46021.95
512.51	46340.27
512.69	46745.18
512.86	47028.38
513.04	47047.11
513.21	46415.16
513.38	46735.82
513.56	47072.85
513.73	47334.99
513.90	46946.47
514.08	47110.30
514.25	46990.94
514.43	47545.64
514.60	47494.15
514.77	47452.02
514.95	47896.72
515.12	47524.58
515.29	47725.86
515.47	48086.31
515.64	47964.60
515.81	48121.41
515.99	48364.83
516.16	48676.12
516.33	48341.42
516.51	48781.45
516.68	48671.44
516.85	48512.28
517.03	48968.69
517.20	49057.63
517.37	48978.05
517.54	49062.31
517.72	49322.11
517.89	49237.85
518.06	49368.92
518.24	49172.31
518.41	48914.86
518.58	49457.86
518.75	49343.17
518.93	49708.30
519.10	49471.90
519.27	49940.01
519.45	49790.22
519.62	50307.47
519.79	50223.22
519.96	50042.99
520.14	50213.85
520.31	49895.54
520.48	50494.72
520.65	50422.16
520.83	50754.52
521.00	50761.54
521.17	50656.21
521.34	50787.28
521.52	51208.58
521.69	51117.30
521.86	51000.27
522.03	51405.19
522.20	51646.26
522.38	51681.37
522.55	51538.60
522.72	51189.86
522.89	51466.04
523.07	51908.40
523.24	51718.82
523.41	51892.02
523.58	51395.82
523.75	52051.17
523.92	51929.47
524.10	52140.11
524.27	52165.86
524.44	51999.68
524.61	52317.99
524.78	52123.73
524.96	52303.95
525.13	52486.51
525.30	52584.82
525.47	52807.17
525.64	52315.65
525.81	52467.79
525.98	52575.45
526.16	52516.94
526.33	52802.49
526.50	53221.44
526.67	52704.18
526.84	52795.46
527.01	52741.63
527.18	53188.67
527.36	52940.58
527.53	53141.86
527.70	53478.90
527.87	53319.74
528.04	52999.09
528.21	53460.18
528.38	53319.74
528.55	53684.87
528.72	53216.76
528.89	53453.15
529.07	53652.10
529.24	53551.46
529.41	53937.65
529.58	53631.04
529.75	53975.09
529.92	53787.85
530.09	54082.76
530.26	53893.18
530.43	53783.17
530.60	54099.14
530.77	53848.71
530.94	54354.26
531.11	54354.26
531.28	54071.06
531.46	54288.73
531.63	54270.00
531.80	54199.79
531.97	54347.24
532.14	54574.27
532.31	54756.83
532.48	54302.77
532.65	54810.67
532.82	54658.53
532.99	54871.52
533.16	54578.95
533.33	55023.65
533.50	55105.57
533.67	55107.91
533.84	54492.35
534.01	55114.94
534.18	54941.74
534.35	55381.76
534.52	55189.83
534.69	55440.27
534.86	55224.94
535.03	54967.48
535.20	55363.03
535.37	55278.77
535.54	55606.45
535.71	55407.50
535.88	55487.08
536.05	55505.80
536.22	55620.49
536.38	55636.87
536.55	55770.28
536.72	55824.12
536.89	55466.02
537.06	55711.77
537.23	55674.32
537.40	55686.03
537.57	55927.10
537.74	55964.55
537.91	56006.68
538.08	56013.70
538.25	55716.45
538.42	55833.48
538.59	56229.03
538.75	56051.15
538.92	55985.61
539.09	56481.81
539.26	56348.40
539.43	56177.54
539.60	56385.85
539.77	56217.33
539.94	56392.87
540.11	56404.57
540.28	56587.13
540.44	56603.52
540.61	56598.83
540.78	56446.70
540.95	56659.69
541.12	56470.11
541.29	56615.22
541.46	56652.67
541.62	56706.50
541.79	56750.97
541.96	56388.19
542.13	56603.52
542.30	56968.64
542.47	56978.00
542.63	56870.34
542.80	56828.21
542.97	57298.65
543.14	57375.89
543.31	57202.69
543.48	57315.04
543.64	57525.69
543.81	57546.75
543.98	57354.83
544.15	57408.66
544.32	57481.22
544.48	57684.84
544.65	57340.78
544.82	57560.79
544.99	57331.42
545.16	57579.52
545.32	57441.43
545.49	57766.76
545.66	57736.34
545.83	57879.11
546.00	57876.77
546.16	58033.58
546.33	57633.35
546.50	57691.86
546.67	57785.49
546.83	57518.67
547.00	57979.75
547.17	57598.24
547.34	57963.37
547.50	58071.03
547.67	58227.85
547.84	58150.61
548.00	58412.75
548.17	58082.73
548.34	58192.74
548.51	58443.18
548.67	58234.87
548.84	58494.67
549.01	57893.15
549.18	58209.12
549.34	58192.74
549.51	58265.30
549.68	58419.77
549.84	58485.31
550.01	58546.16
550.18	58307.43
550.34	58412.75
550.51	58480.63
550.68	58679.57
550.84	58251.25
551.01	58377.64
551.18	58567.23
551.34	58475.94
551.51	58518.07
551.68	58763.83
551.84	58665.53
552.01	58607.01
552.18	58775.53
552.34	58803.62
552.51	58733.40
552.68	58623.40
552.84	58958.09
553.01	59079.80
553.18	58798.94
553.34	58913.62
553.51	58820.00
553.67	59037.67
553.84	59058.74
554.01	58915.96
554.17	58958.09
554.34	59065.76
554.51	58995.54
554.67	59028.31
554.84	59072.78
555.00	59077.46
555.17	59075.12
555.33	58941.71
555.50	58899.58
555.67	58894.90
555.83	59072.78
556.00	59114.91
556.16	59730.47
556.33	59447.27
556.50	59363.01
556.66	59414.50
556.83	59133.63
556.99	59496.42
557.16	59578.34
557.32	59718.77
557.49	59810.05
557.65	59323.22
557.82	59519.82
557.98	59433.22
558.15	59428.54
558.32	59648.55
558.48	59568.97
558.65	59615.79
558.81	59557.27
558.98	59618.13
559.14	59709.41
559.31	59571.32
559.47	59693.02
559.64	59913.03
559.80	59636.85
559.97	59889.63
560.13	59629.83
560.30	59863.88
560.46	59842.82
560.63	60074.53
560.79	59985.59
560.96	59955.16
561.12	60011.34
561.29	60083.89
561.45	59805.37
561.61	60001.97
561.78	59962.18
561.94	59796.01
562.11	59796.01
562.27	59971.55
562.44	60163.47
562.60	60023.04
562.77	60102.62
562.93	59922.40
563.10	60158.79
563.26	59913.03
563.42	60207.94
563.59	60158.79
563.75	59999.63
563.92	60004.31
564.08	60207.94
564.24	60287.52
564.41	60114.32
564.57	60161.13
564.74	60278.16
564.90	60126.02
565.07	59943.46
565.23	60261.77
565.39	60308.58
565.56	60299.22
565.72	60100.28
565.88	60385.82
566.05	60205.60
566.21	60011.34
566.38	60275.82
566.54	60369.44
566.70	60371.78
566.87	60465.40
567.03	60296.88
567.19	60622.22
567.36	60432.63
567.52	60364.76
567.68	60596.47
567.85	60514.55
568.01	60561.36
568.17	60420.93
568.34	60481.78
568.50	60481.78
568.66	60432.63
568.83	60568.38
568.99	60385.82
569.15	60413.91
569.32	60383.48
569.48	60390.50
569.64	60617.53
569.81	60537.96
569.97	60523.91
570.13	60376.46
570.30	60399.86
570.46	60619.88
570.62	60694.77
570.78	60587.11
570.95	60540.30
571.11	60584.77
571.27	60669.03
571.43	60364.76
571.60	60793.07
571.76	60584.77
571.92	60683.07
572.09	60587.11
572.25	60657.32
572.41	60556.68
572.57	60797.76
572.74	61020.11
572.90	60671.37
573.06	60882.02
573.22	60863.29
573.38	60652.64
573.55	60697.11
573.71	60959.25
573.87	60687.75
574.03	60563.70
574.20	60795.42
574.36	60800.10
574.52	61013.08
574.68	60844.57
574.84	60975.64
575.01	60781.37
575.17	60884.36
575.33	60851.59
575.49	60837.54
575.65	60783.71
575.82	60701.79
575.98	61010.74
576.14	61034.15
576.30	61003.72
576.46	60898.40
576.62	60743.92
576.79	60886.70
576.95	60549.66
577.11	60961.59
577.27	60921.80
577.43	60966.27
577.59	60669.03
577.75	60776.69
577.92	60882.02
578.08	60823.50
578.24	60987.34
578.40	60865.63
578.56	60956.91
578.72	60928.83
578.88	61031.81
579.04	61139.47
579.21	61010.74
579.37	61146.50
579.53	61071.60
579.69	60760.31
579.85	60720.52
580.01	61034.15
580.17	60832.86
580.33	61155.86
580.49	60952.23
580.65	61027.13
580.82	60853.93
580.98	60767.33
581.14	60879.67
581.30	61083.30
581.46	61008.40
581.62	61066.92
581.78	60994.36
581.94	61226.07
582.10	60898.40
582.26	61001.38
582.42	60727.54
582.58	60931.17
582.74	61024.79
582.90	61116.07
583.06	61003.72
583.22	60942.87
583.38	60956.91
583.54	61097.34
583.70	61090.32
583.86	61006.06
584.02	60891.38
584.18	61080.96
584.34	61251.82
584.50	60966.27
584.66	60947.55
584.82	60807.12
584.98	61034.15
585.14	61214.37
585.30	61144.16
585.46	61118.41
585.62	61329.06
585.78	61289.27
585.94	60947.55
586.10	61116.07
586.26	60994.36
586.42	61076.28
586.58	61141.81
586.74	61153.52
586.90	61062.24
587.06	61289.27
587.22	60954.57
587.38	60985.00
587.54	61305.65
587.70	61366.51
587.86	61097.34
588.02	61305.65
588.18	61300.97
588.34	61160.54
588.49	61186.28
