SpectraSuite Data File
++++++++++++++++++++++++++++++++++++
Date: Fri Oct 25 10:48:15 EDT 2013
User: price-jones
Dark Spectrum Present: No
Reference Spectrum Present: No
Number of Sampled Component Spectra: 1
Spectrometers: USB2+H05261
Integration Time (usec): 100000 (USB2+H05261)
Spectra Averaged: 1 (USB2+H05261)
Boxcar Smoothing: 0 (USB2+H05261)
Correct for Electrical Dark: No (USB2+H05261)
Strobe/Lamp Enabled: No (USB2+H05261)
Correct for Detector Non-linearity: No (USB2+H05261)
Correct for Stray Light: No (USB2+H05261)
Number of Pixels in Processed Spectrum: 2048
>>>>>Begin Processed Spectral Data<<<<<
365.73	112.35
365.92	112.35
366.12	112.35
366.32	44.47
366.52	39.79
366.72	65.54
366.91	35.11
367.11	121.71
367.31	72.56
367.51	16.38
367.70	42.13
367.90	58.51
368.10	49.15
368.30	98.30
368.49	0.00
368.69	39.79
368.89	46.81
369.09	51.49
369.28	44.47
369.48	77.24
369.68	65.54
369.87	53.83
370.07	152.13
370.27	128.73
370.47	215.33
370.66	482.15
370.86	437.68
371.06	411.93
371.25	528.96
371.45	493.85
371.65	470.45
371.84	475.13
372.04	430.66
372.24	543.00
372.44	430.66
372.63	505.56
372.83	472.79
373.03	580.45
373.22	543.00
373.42	547.69
373.62	500.87
373.81	493.85
374.01	571.09
374.21	477.47
374.40	554.71
374.60	617.90
374.79	573.43
374.99	512.58
375.19	617.90
375.38	606.20
375.58	566.41
375.78	622.58
375.97	657.69
376.17	664.71
376.37	660.03
376.56	566.41
376.76	580.45
376.95	587.47
377.15	683.44
377.35	622.58
377.54	573.43
377.74	559.39
377.93	657.69
378.13	587.47
378.33	725.57
378.52	594.50
378.72	634.29
378.91	617.90
379.11	674.07
379.31	596.84
379.50	669.39
379.70	699.82
379.89	732.59
380.09	678.76
380.28	690.46
380.48	716.20
380.68	777.06
380.87	620.24
381.07	674.07
381.26	739.61
381.46	601.52
381.65	685.78
381.85	739.61
382.04	676.41
382.24	678.76
382.43	739.61
382.63	730.25
382.83	727.91
383.02	624.92
383.22	793.44
383.41	748.97
383.61	720.88
383.80	795.78
384.00	758.33
384.19	716.20
384.39	763.01
384.58	805.14
384.78	711.52
384.97	805.14
385.17	777.06
385.36	730.25
385.56	751.31
385.75	844.93
385.95	910.47
386.14	828.55
386.34	814.51
386.53	830.89
386.72	770.04
386.92	723.23
387.11	866.00
387.31	866.00
387.50	849.61
387.70	851.96
387.89	891.74
388.09	784.08
388.28	912.81
388.48	842.59
388.67	912.81
388.86	903.45
389.06	903.45
389.25	908.13
389.45	985.37
389.64	924.51
389.84	936.21
390.03	880.04
390.22	954.94
390.42	912.81
390.61	903.45
390.81	983.02
391.00	933.87
391.19	1001.75
391.39	889.40
391.58	1022.81
391.78	1081.33
391.97	1057.92
392.16	997.07
392.36	973.66
392.55	980.68
392.75	1011.11
392.94	954.94
393.13	950.26
393.33	933.87
393.52	1048.56
393.71	1095.37
393.91	1088.35
394.10	1043.88
394.29	1095.37
394.49	1100.05
394.68	1177.29
394.88	1034.52
395.07	1231.12
395.26	1174.95
395.46	1160.91
395.65	1245.16
395.84	1217.08
396.04	1228.78
396.23	1196.01
396.42	1172.61
396.62	1179.63
396.81	1188.99
397.00	1158.57
397.19	1163.25
397.39	1336.45
397.58	1329.42
397.77	1235.80
397.97	1266.23
398.16	1338.79
398.35	1406.66
398.55	1392.62
398.74	1357.51
398.93	1465.18
399.12	1394.96
399.32	1343.47
399.51	1495.60
399.70	1427.73
399.90	1387.94
400.09	1458.15
400.28	1441.77
400.47	1563.48
400.67	1493.26
400.86	1502.62
401.05	1537.73
401.24	1544.75
401.44	1556.46
401.63	1556.46
401.82	1570.50
402.01	1519.01
402.21	1584.54
402.40	1682.85
402.59	1629.01
402.78	1633.69
402.97	1607.95
403.17	1593.90
403.36	1774.13
403.55	1680.50
403.74	1692.21
403.93	1678.16
404.13	1701.57
404.32	1673.48
404.51	1781.15
404.70	1785.83
404.89	1757.74
405.09	1902.86
405.28	1827.96
405.47	1816.26
405.66	1891.15
405.85	1846.68
406.05	1827.96
406.24	1834.98
406.43	1853.70
406.62	1975.41
406.81	1966.05
407.00	1944.99
407.20	1949.67
407.39	1909.88
407.58	2019.88
407.77	2080.74
407.96	2064.35
408.15	2186.06
408.34	2069.03
408.54	2155.63
408.73	2134.57
408.92	2115.84
409.11	2062.01
409.30	2143.93
409.49	2129.89
409.68	2146.27
409.87	2141.59
410.07	2228.19
410.26	2129.89
410.45	2204.78
410.64	2321.81
410.83	2204.78
411.02	2286.70
411.21	2429.48
411.40	2399.05
411.59	2385.01
411.78	2415.43
411.98	2431.82
412.17	2394.37
412.36	2558.21
412.55	2476.29
412.74	2539.48
412.93	2511.39
413.12	2541.82
413.31	2684.59
413.50	2649.49
413.69	2703.32
413.88	2647.15
414.07	2583.95
414.26	2815.66
414.45	2736.09
414.64	2803.96
414.83	2754.81
415.02	2796.94
415.22	2836.73
415.41	2935.03
415.60	2958.44
415.79	2874.18
415.98	2920.99
416.17	3028.65
416.36	3068.44
416.55	3007.59
416.74	3145.68
416.93	3169.09
417.12	3112.91
417.31	3131.64
417.50	3206.53
417.69	3159.72
417.88	3206.53
418.07	3265.05
418.26	3246.32
418.45	3220.58
418.64	3372.71
418.83	3339.94
419.02	3267.39
419.21	3375.05
419.39	3515.48
419.58	3311.86
419.77	3314.20
419.96	3382.07
420.15	3435.91
420.34	3463.99
420.53	3463.99
420.72	3588.04
420.91	3688.68
421.10	3623.15
421.29	3627.83
421.48	3513.14
421.67	3653.58
421.86	3576.34
422.05	3529.53
422.24	3471.01
422.43	3499.10
422.61	3576.34
422.80	3684.00
422.99	3653.58
423.18	3702.73
423.37	3595.06
423.56	3798.69
423.75	3740.18
423.94	3618.47
424.13	3463.99
424.32	3576.34
424.50	3588.04
424.69	3691.02
424.88	3918.06
425.07	3765.92
425.26	3754.22
425.45	3623.15
425.64	3681.66
425.83	3625.49
426.01	3754.22
426.20	3763.58
426.39	3669.96
426.58	3782.31
426.77	3786.99
426.96	3660.60
427.15	3768.26
427.33	3826.78
427.52	3857.20
427.71	3913.38
427.90	3906.35
428.09	3988.27
428.28	3899.33
428.46	3866.56
428.65	3915.72
428.84	4021.04
429.03	4124.02
429.22	3946.14
429.40	3892.31
429.59	3976.57
429.78	3712.09
429.97	3794.01
430.16	3831.46
430.34	4088.92
430.53	3969.55
430.72	4051.47
430.91	3976.57
431.10	3988.27
431.28	4184.88
431.47	4318.29
431.66	4250.41
431.85	4245.73
432.03	4306.59
432.22	4435.32
432.41	4376.80
432.60	4458.72
432.79	4369.78
432.97	4580.43
433.16	4407.23
433.35	4456.38
433.54	4351.06
433.72	4482.13
433.91	4440.00
434.10	4477.44
434.28	4456.38
434.47	4470.42
434.66	4526.60
434.85	4671.71
435.03	4552.34
435.22	4657.67
435.41	4940.87
435.59	4896.40
435.78	4816.82
435.97	4788.74
436.16	4858.95
436.34	4823.84
436.53	4777.03
436.72	4849.59
436.90	4739.58
437.09	4835.55
437.28	4812.14
437.46	4774.69
437.65	4999.38
437.84	4985.34
438.02	4863.63
438.21	4819.16
438.40	4786.40
438.58	5114.07
438.77	5200.67
438.96	5135.14
439.14	5139.82
439.33	5336.42
439.52	5385.57
439.70	5270.89
439.89	5451.11
440.08	5376.21
440.26	5397.28
440.45	5406.64
440.63	5472.17
440.82	5692.18
441.01	5582.18
441.19	5715.59
441.38	5724.95
441.57	5767.08
441.75	5865.38
441.94	5811.55
442.12	5750.70
442.31	6043.26
442.50	6050.28
442.68	5949.64
442.87	6017.52
443.05	5975.39
443.24	6167.31
443.43	6066.67
443.61	6024.54
443.80	6298.38
443.98	6073.69
444.17	5809.21
444.35	6221.14
444.54	6218.80
444.73	6122.84
444.91	6214.12
445.10	6038.58
445.28	6026.88
445.47	6043.26
445.65	6104.12
445.84	6047.94
446.02	6286.68
446.21	6155.61
446.39	6125.18
446.58	6202.42
446.77	6293.70
446.95	6097.10
447.14	6244.55
447.32	6274.98
447.51	6303.06
447.69	6335.83
447.88	6274.98
448.06	6169.65
448.25	6384.98
448.43	6244.55
448.62	6282.00
448.80	6237.53
448.99	6289.02
449.17	6415.41
449.36	6553.50
449.54	6588.61
449.73	6487.96
449.91	6658.82
450.10	6696.27
450.28	6668.19
450.46	6726.70
450.65	6693.93
450.83	6715.00
451.02	6745.42
451.20	6782.87
451.39	6649.46
451.57	6846.07
451.76	6705.63
451.94	6794.58
452.13	7019.27
452.31	6853.09
452.49	6759.47
452.68	6904.58
452.86	6850.75
453.05	6717.34
453.23	6923.30
453.42	6918.62
453.60	6834.36
453.78	7005.22
453.97	6825.00
454.15	7126.93
454.34	6984.16
454.52	7258.00
454.70	7138.63
454.89	7082.46
455.07	6981.82
455.26	7215.87
455.44	7269.70
455.62	7309.49
455.81	7461.63
455.99	7384.39
456.17	7276.73
456.36	7386.73
456.54	7342.26
456.73	7456.95
456.91	7693.34
457.09	7583.34
457.28	7588.02
457.46	7534.18
457.64	7737.81
457.83	7702.70
458.01	7604.40
458.19	7733.13
458.38	7545.89
458.56	7908.67
458.74	7669.94
458.93	7620.78
459.11	7772.92
459.29	7960.16
459.48	7901.65
459.66	7960.16
459.84	7941.44
460.03	8079.53
460.21	8142.72
460.39	7941.44
460.57	8009.31
460.76	7903.99
460.94	8147.40
461.12	8159.11
461.31	8336.99
461.49	8177.83
461.67	8060.80
461.85	8411.89
462.04	8138.04
462.22	8587.43
462.40	8360.39
462.59	8226.98
462.77	8393.16
462.95	8269.11
463.13	8234.00
463.32	8297.20
463.50	8505.51
463.68	8580.40
463.86	8465.72
464.05	8498.49
464.23	8542.96
464.41	8557.00
464.59	8524.23
464.78	8746.58
464.96	8624.87
465.14	8575.72
465.32	8812.12
465.50	8718.50
465.69	8744.24
465.87	8695.09
466.05	8931.48
466.23	8620.19
466.41	8615.51
466.60	8933.82
466.78	8762.97
466.96	8812.12
467.14	8826.16
467.32	8767.65
467.51	8868.29
467.69	8657.64
467.87	8720.84
468.05	8987.66
468.23	8688.07
468.41	9144.47
468.60	9011.06
468.78	9235.75
468.96	9233.41
469.14	9320.01
469.32	9312.99
469.50	8868.29
469.69	9282.56
469.87	9369.16
470.05	9261.50
470.23	9315.33
470.41	9291.93
470.59	9451.08
470.77	9378.53
470.95	9682.80
471.14	9664.07
471.32	9673.43
471.50	9731.95
471.68	9589.17
471.86	9998.77
472.04	9720.24
472.22	10047.92
472.40	9591.52
472.58	9645.35
472.77	9797.48
472.95	10017.49
473.13	10230.48
473.31	10047.92
473.49	9848.97
473.67	9818.55
473.85	10204.74
474.03	10352.19
474.21	10249.21
474.39	10305.38
474.57	10541.77
474.75	10569.86
474.93	10569.86
475.12	10506.66
475.30	10691.57
475.48	10752.42
475.66	10984.13
475.84	10623.69
476.02	10792.21
476.20	10537.09
476.38	10951.37
476.56	11246.27
476.74	11318.83
476.92	11145.63
477.10	11297.77
477.28	11468.62
477.46	11419.47
477.64	11599.70
477.82	11405.43
478.00	11719.06
478.18	11892.26
478.36	11934.39
478.54	11775.24
478.72	12013.97
478.90	12231.64
479.08	12187.17
479.26	12297.17
479.44	12355.69
479.62	12449.31
479.80	12505.48
479.98	12762.94
480.16	13062.53
480.34	12886.99
480.52	13104.66
480.70	12917.42
480.88	12966.57
481.06	13172.54
481.24	13308.29
481.41	13476.80
481.59	13462.76
481.77	13701.50
481.95	13879.38
482.13	13671.07
482.31	13907.46
482.49	14019.81
482.67	13895.76
482.85	14293.65
483.03	14190.67
483.21	14478.55
483.39	14672.82
483.57	14516.00
483.74	14843.68
483.92	14899.85
484.10	14626.01
484.28	14892.83
484.46	15159.65
484.64	15679.25
484.82	15309.44
485.00	15374.98
485.18	15559.88
485.35	15840.75
485.53	15424.13
485.71	15606.69
485.89	15822.02
486.07	16016.29
486.25	15847.77
486.43	16238.64
486.61	16320.56
486.78	16554.61
486.96	16163.74
487.14	16854.20
487.32	16641.21
487.50	16973.56
487.68	17221.66
487.85	17415.93
488.03	17364.43
488.21	17530.61
488.39	17434.65
488.57	17687.43
488.75	17926.16
488.92	18403.63
489.10	18185.96
489.28	18527.68
489.46	18757.05
489.64	18658.75
489.81	18991.11
489.99	19094.09
490.17	19012.17
490.35	19646.46
490.53	19147.92
490.70	19194.73
490.88	19342.19
491.06	19850.08
491.24	20046.69
491.41	19658.16
491.59	19939.02
491.77	19896.89
491.95	20023.28
492.13	20467.98
492.30	20402.45
492.48	20711.40
492.66	20830.77
492.84	20622.46
493.01	20985.24
493.19	21062.48
493.37	21305.90
493.54	21111.63
493.72	21385.47
493.90	21479.10
494.08	22106.36
494.25	21865.28
494.43	22349.78
494.61	22279.56
494.79	22104.02
494.96	22520.63
495.14	22345.09
495.32	22621.28
495.49	22721.92
495.67	22740.64
495.85	22752.35
496.02	23164.28
496.20	23396.00
496.38	23246.20
496.55	23293.01
496.73	24077.09
496.91	23101.09
497.09	23489.62
497.26	24027.94
497.44	23686.22
497.62	24159.01
497.79	24240.93
497.97	24034.96
498.14	24821.38
498.32	24383.70
498.50	24320.51
498.67	24662.22
498.85	25130.33
499.03	25085.86
499.20	25219.27
499.38	25060.12
499.56	25385.45
499.73	25514.18
499.91	25493.12
500.08	25509.50
500.26	25280.13
500.44	25518.86
500.61	25722.49
500.79	25277.79
500.97	25993.99
501.14	26354.43
501.32	26113.36
501.49	26038.46
501.67	26120.38
501.84	26359.11
502.02	26448.05
502.20	26883.39
502.37	26993.40
502.55	26469.12
502.72	26845.94
502.90	26675.09
503.07	26899.78
503.25	26623.59
503.43	26962.97
503.60	26993.40
503.78	27517.68
503.95	27173.62
504.13	27454.48
504.30	27386.61
504.48	27220.43
504.65	27667.47
504.83	27756.41
505.01	28037.28
505.18	27871.10
505.36	28198.77
505.53	28383.68
505.71	28362.61
505.88	28477.30
506.06	28175.37
506.23	28079.41
506.41	28116.86
506.58	28512.41
506.76	28830.72
506.93	28903.28
507.11	28833.06
507.28	28971.15
507.46	28802.63
507.63	28886.89
507.81	29008.60
507.98	29055.41
508.16	29097.54
508.33	29071.79
508.50	28903.28
508.68	29465.00
508.85	29909.71
509.03	29603.10
509.20	29846.51
509.38	29685.01
509.55	29930.77
509.73	30504.20
509.90	30274.83
510.08	29750.55
510.25	30202.27
510.42	30401.22
510.60	30452.71
510.77	30511.22
510.95	30951.24
511.12	30536.97
511.30	30785.07
511.47	30913.80
511.64	30368.45
511.82	31143.17
511.99	30958.27
512.17	31489.57
512.34	30698.47
512.51	31105.72
512.69	31505.95
512.86	31517.65
513.04	32079.38
513.21	31215.72
513.38	31316.37
513.56	31515.31
513.73	31508.29
513.90	31934.27
514.08	31452.12
514.25	32098.11
514.43	31777.45
514.60	31744.69
514.77	31749.37
514.95	32081.72
515.12	31878.10
515.29	32435.14
515.47	32350.88
515.64	32634.09
515.81	32706.65
515.99	32615.37
516.16	32872.82
516.33	32528.77
516.51	32926.66
516.68	32624.73
516.85	32098.11
517.03	32755.80
517.20	32861.12
517.37	33247.31
517.54	32999.21
517.72	33502.43
517.89	33144.33
518.06	32884.53
518.24	33064.75
518.41	33106.88
518.58	33074.11
518.75	33490.73
518.93	33869.89
519.10	33647.54
519.27	33844.15
519.45	33865.21
519.62	34087.56
519.79	33897.98
519.96	34199.91
520.14	34286.51
520.31	34127.35
520.48	34373.11
520.65	34043.09
520.83	34747.59
521.00	34436.30
521.17	34478.43
521.34	34696.10
521.52	34782.70
521.69	35009.73
521.86	35126.76
522.03	35421.67
522.20	34897.39
522.38	35164.21
522.55	35407.62
522.72	35489.54
522.89	35260.17
523.07	35377.20
523.24	35040.16
523.41	35393.58
523.58	35538.69
523.75	35910.84
523.92	35798.49
524.10	35908.50
524.27	36231.49
524.44	36144.89
524.61	35873.39
524.78	36187.02
524.96	36364.90
525.13	36240.86
525.30	36495.97
525.47	36673.85
525.64	36524.06
525.81	36184.68
525.98	36350.86
526.16	36046.59
526.33	36077.02
526.50	36746.41
526.67	36346.18
526.84	36486.61
527.01	36133.19
527.18	36870.46
527.36	36964.08
527.53	37230.90
527.70	37511.77
527.87	37160.69
528.04	37104.51
528.21	37542.19
528.38	37226.22
528.55	37235.58
528.72	37352.61
528.89	37546.87
529.07	37467.30
529.24	37331.54
529.41	37574.96
529.58	37860.51
529.75	37591.34
529.92	37998.60
530.09	37937.74
530.26	37869.87
530.43	38089.88
530.60	37860.51
530.77	37841.78
530.94	38731.18
531.11	38326.27
531.28	38052.43
531.46	38445.64
531.63	38520.54
531.80	38209.25
531.97	38260.74
532.14	38136.69
532.31	38377.76
532.48	38410.53
532.65	38677.35
532.82	38410.53
532.99	38581.39
533.16	38209.25
533.33	38904.38
533.50	38822.47
533.67	38593.09
533.84	38646.93
534.01	39115.03
534.18	38834.17
534.35	39058.86
534.52	39005.03
534.69	39178.23
534.86	39180.57
535.03	39009.71
535.20	39365.47
535.37	39758.68
535.54	39845.28
535.71	39707.19
535.88	39119.71
536.05	39559.73
536.22	39711.87
536.38	39510.58
536.55	39400.58
536.72	39234.40
536.89	39428.66
537.06	39292.91
537.23	39840.60
537.40	39590.16
537.57	40009.12
537.74	39796.13
537.91	40325.09
538.08	40100.40
538.25	40392.97
538.42	40250.19
538.59	40502.97
538.75	40098.06
538.92	39924.86
539.09	40315.73
539.26	40243.17
539.43	39868.69
539.60	40357.86
539.77	40179.98
539.94	40161.25
540.11	40531.06
540.28	40292.32
540.44	40598.93
540.61	40336.79
540.78	40657.45
540.95	40357.86
541.12	40673.83
541.29	40535.74
541.46	40994.48
541.62	40535.74
541.79	40713.62
541.96	40495.95
542.13	41085.76
542.30	40612.98
542.47	40797.88
542.63	41216.83
542.80	40877.46
542.97	41628.77
543.14	41748.14
543.31	41462.59
543.48	41535.15
543.64	41968.15
543.81	41551.53
543.98	41654.51
544.15	41408.76
544.32	41930.70
544.48	41766.86
544.65	41462.59
544.82	41633.45
544.99	41696.64
545.16	41752.82
545.32	41640.47
545.49	41729.41
545.66	42141.35
545.83	41918.99
546.00	42026.66
546.16	41890.91
546.33	41940.06
546.50	41806.65
546.67	41874.52
546.83	41441.53
547.00	42139.00
547.17	42295.82
547.34	42239.65
547.50	42560.30
547.67	42567.32
547.84	42490.09
548.00	42747.54
548.17	43033.09
548.34	42670.31
548.51	42518.17
548.67	42972.24
548.84	42892.66
549.01	42897.34
549.18	42604.77
549.34	43126.71
549.51	43147.78
549.68	42897.34
549.84	43819.51
550.01	43159.48
550.18	42342.63
550.34	43140.75
550.51	42932.45
550.68	42869.25
550.84	42876.27
551.01	43002.66
551.18	42787.33
551.34	42822.44
551.51	43136.07
551.68	43253.10
551.84	43243.74
552.01	43033.09
552.18	43054.15
552.34	42803.72
552.51	43440.34
552.68	43253.10
552.84	43892.07
553.01	43395.87
553.18	43566.73
553.34	43323.32
553.51	43122.03
553.67	43660.35
553.84	43789.08
554.01	43730.57
554.17	43852.28
554.34	43702.48
554.51	43552.69
554.67	43859.30
554.84	43475.45
555.00	43416.94
555.17	43735.25
555.33	43676.74
555.50	43777.38
555.67	43899.09
555.83	43863.98
556.00	43831.21
556.16	43875.68
556.33	43758.66
556.50	44280.60
556.66	43913.13
556.83	43929.51
556.99	44531.03
557.16	43943.56
557.32	43852.28
557.49	44694.87
557.65	43852.28
557.82	43557.37
557.98	44119.10
558.15	43871.00
558.32	44285.28
558.48	43934.20
558.65	44168.25
558.81	44243.15
558.98	44130.80
559.14	44406.98
559.31	44414.01
559.47	44346.13
559.64	44804.88
559.80	44435.07
559.97	44535.71
560.13	44175.27
560.30	44509.97
560.46	44720.62
560.63	44868.07
560.79	44612.95
560.96	44732.32
561.12	44575.50
561.29	44355.49
561.45	44479.54
561.61	44776.79
561.78	44753.38
561.94	44795.51
562.11	44671.46
562.27	44608.27
562.44	44748.70
562.60	44870.41
562.77	45043.61
562.93	44818.92
563.10	45399.37
563.26	44533.37
563.42	45076.38
563.59	44603.59
563.75	44671.46
563.92	44938.29
564.08	44856.37
564.24	44641.04
564.41	44706.57
564.57	44692.53
564.74	44863.39
564.90	44980.42
565.07	44973.39
565.23	44540.39
565.39	44973.39
565.56	45237.87
565.72	45116.17
565.88	45127.87
566.05	45326.81
566.21	44582.52
566.38	44938.29
566.54	44854.03
566.70	45191.06
566.87	45350.22
567.03	45076.38
567.19	45490.65
567.36	45504.70
567.52	45092.76
567.68	45125.53
567.85	44519.33
568.01	45184.04
568.17	44957.01
568.34	45099.78
568.50	44795.51
568.66	44837.64
568.83	45385.33
568.99	44561.46
569.15	45059.99
569.32	44821.26
569.48	45172.34
569.64	45294.05
569.81	45172.34
569.97	44821.26
570.13	45153.62
570.30	44669.12
570.46	44755.72
570.62	44692.53
570.78	45015.52
570.95	44889.13
571.11	45528.10
571.27	45256.60
571.43	45343.20
571.60	45432.14
571.76	45263.62
571.92	45069.36
572.09	45261.28
572.25	45186.38
572.41	45214.47
572.57	45179.36
572.74	45890.88
572.90	45359.58
573.06	45441.50
573.22	45443.84
573.38	45296.39
573.55	45104.46
573.71	45722.37
573.87	45443.84
574.03	45141.91
574.20	45127.87
574.36	45106.80
574.52	45397.03
574.68	45539.80
574.84	45642.79
575.01	45532.78
575.17	45607.68
575.33	45188.72
575.49	45081.06
575.65	45537.46
575.82	45645.13
575.98	45680.24
576.14	45024.89
576.30	45291.71
576.46	45118.51
576.62	45382.99
576.79	44982.76
576.95	44643.38
577.11	44900.84
577.27	45244.90
577.43	45560.87
577.59	45595.98
577.75	45556.19
577.92	44982.76
578.08	45275.32
578.24	44954.67
578.40	45422.78
578.56	45289.37
578.72	45504.70
578.88	45691.94
579.04	45659.17
579.21	45298.73
579.37	45399.37
579.53	45244.90
579.69	45062.33
579.85	45492.99
580.01	45333.84
580.17	45460.23
580.33	45668.53
580.49	45675.55
580.65	45614.70
580.82	45769.18
580.98	45336.18
581.14	45221.49
581.30	45645.13
581.46	45666.19
581.62	45743.43
581.78	45336.18
581.94	45612.36
582.10	45523.42
582.26	45717.68
582.42	45680.24
582.58	45794.92
582.74	45249.58
582.90	45904.93
583.06	45773.86
583.22	45607.68
583.38	45860.46
583.54	45436.82
583.70	45631.08
583.86	45766.84
584.02	45148.93
584.18	45764.49
584.34	45502.35
584.50	45593.64
584.66	45392.35
584.82	45392.35
584.98	45670.87
585.14	46092.17
585.30	45799.60
585.46	46134.30
585.62	45088.08
585.78	45287.03
585.94	45146.59
586.10	45453.20
586.26	45666.19
586.42	45911.95
586.58	45933.01
586.74	45357.24
586.90	45684.92
587.06	45668.53
587.22	45708.32
587.38	45436.82
587.54	45764.49
587.70	45696.62
587.86	45624.06
588.02	45900.25
588.18	45879.18
588.34	45832.37
588.49	45537.46
588.65	45345.54
588.81	45497.67
588.97	45361.92
589.13	45280.00
589.29	45059.99
589.45	45769.18
589.61	45523.42
589.77	45755.13
589.93	45443.84
590.08	45656.83
