SpectraSuite Data File
++++++++++++++++++++++++++++++++++++
Date: Fri Oct 25 11:33:40 EDT 2013
User: price-jones
Dark Spectrum Present: No
Reference Spectrum Present: No
Number of Sampled Component Spectra: 1
Spectrometers: USB2+H05261
Integration Time (usec): 100000 (USB2+H05261)
Spectra Averaged: 1 (USB2+H05261)
Boxcar Smoothing: 0 (USB2+H05261)
Correct for Electrical Dark: No (USB2+H05261)
Strobe/Lamp Enabled: No (USB2+H05261)
Correct for Detector Non-linearity: No (USB2+H05261)
Correct for Stray Light: No (USB2+H05261)
Number of Pixels in Processed Spectrum: 2048
>>>>>Begin Processed Spectral Data<<<<<
365.73	290.23
365.92	290.23
366.12	290.23
366.32	182.56
366.52	184.90
366.72	159.16
366.91	138.09
367.11	163.84
367.31	142.77
367.51	133.41
367.70	156.82
367.90	194.26
368.10	140.43
368.30	191.92
368.49	203.63
368.69	245.76
368.89	175.54
369.09	173.20
369.28	210.65
369.48	212.99
369.68	180.22
369.87	220.01
370.07	285.55
370.27	283.20
370.47	280.86
370.66	503.22
370.86	484.49
371.06	550.03
371.25	608.54
371.45	552.37
371.65	533.64
371.84	547.69
372.04	528.96
372.24	559.39
372.44	559.39
372.63	531.30
372.83	531.30
373.03	524.28
373.22	540.66
373.42	582.79
373.62	657.69
373.81	596.84
374.01	690.46
374.21	608.54
374.40	657.69
374.60	592.16
374.79	662.37
374.99	690.46
375.19	624.92
375.38	629.60
375.58	622.58
375.78	711.52
375.97	660.03
376.17	718.54
376.37	645.99
376.56	753.65
376.76	711.52
376.95	716.20
377.15	657.69
377.35	664.71
377.54	730.25
377.74	737.27
377.93	744.29
378.13	709.18
378.33	645.99
378.52	763.01
378.72	678.76
378.91	774.72
379.11	737.27
379.31	702.16
379.50	704.50
379.70	781.74
379.89	741.95
380.09	741.95
380.28	723.23
380.48	737.27
380.68	720.88
380.87	718.54
381.07	758.33
381.26	772.38
381.46	788.76
381.65	699.82
381.85	777.06
382.04	847.27
382.24	819.19
382.43	765.36
382.63	791.10
382.83	755.99
383.02	786.42
383.22	802.80
383.41	779.40
383.61	835.57
383.80	788.76
384.00	814.51
384.19	821.53
384.39	755.99
384.58	833.23
384.78	891.74
384.97	863.66
385.17	837.91
385.36	891.74
385.56	791.10
385.75	826.21
385.95	816.85
386.14	910.47
386.34	788.76
386.53	929.19
386.72	891.74
386.92	826.21
387.11	898.77
387.31	821.53
387.50	983.02
387.70	917.49
387.89	891.74
388.09	903.45
388.28	889.40
388.48	870.68
388.67	997.07
388.86	922.17
389.06	875.36
389.25	968.98
389.45	961.96
389.64	980.68
389.84	908.13
390.03	950.26
390.22	966.64
390.42	1032.18
390.61	952.60
390.81	1001.75
391.00	1022.81
391.19	1043.88
391.39	999.41
391.58	1041.54
391.78	997.07
391.97	1025.15
392.16	1025.15
392.36	1076.65
392.55	1064.94
392.75	1062.60
392.94	1107.07
393.13	1097.71
393.33	1036.86
393.52	1067.28
393.71	1121.12
393.91	1090.69
394.10	1055.58
394.29	1076.65
394.49	1004.09
394.68	1170.27
394.88	1186.65
395.07	1186.65
395.26	1076.65
395.46	1139.84
395.65	1193.67
395.84	1210.06
396.04	1205.38
396.23	1128.14
396.42	1210.06
396.62	1261.55
396.81	1142.18
397.00	1245.16
397.19	1315.38
397.39	1228.78
397.58	1268.57
397.77	1233.46
397.97	1256.87
398.16	1270.91
398.35	1341.13
398.55	1348.15
398.74	1301.34
398.93	1296.66
399.12	1406.66
399.32	1320.06
399.51	1364.53
399.70	1273.25
399.90	1394.96
400.09	1306.02
400.28	1301.34
400.47	1327.08
400.67	1469.86
400.86	1423.05
401.05	1413.68
401.24	1399.64
401.44	1369.21
401.63	1345.81
401.82	1488.58
402.01	1451.13
402.21	1448.79
402.40	1575.18
402.59	1575.18
402.78	1502.62
402.97	1526.03
403.17	1448.79
403.36	1582.20
403.55	1638.38
403.74	1598.59
403.93	1547.09
404.13	1572.84
404.32	1591.56
404.51	1603.27
404.70	1706.25
404.89	1610.29
405.09	1689.87
405.28	1778.81
405.47	1647.74
405.66	1696.89
405.85	1633.69
406.05	1764.76
406.24	1764.76
406.43	1849.02
406.62	1762.42
406.81	1834.98
407.00	1757.74
407.20	1727.32
407.39	1846.68
407.58	1858.39
407.77	1856.04
407.96	1886.47
408.15	1809.23
408.34	1884.13
408.54	1893.49
408.73	1898.17
408.92	1959.03
409.11	2036.27
409.30	1940.30
409.49	1926.26
409.68	1973.07
409.87	2026.90
410.07	2108.82
410.26	2064.35
410.45	2106.48
410.64	2108.82
410.83	2024.56
411.02	2148.61
411.21	2225.85
411.40	2143.93
411.59	2167.34
411.78	2232.87
411.98	2256.28
412.17	2335.85
412.36	2256.28
412.55	2319.47
412.74	2186.06
412.93	2317.13
413.12	2270.32
413.31	2551.18
413.50	2434.16
413.69	2394.37
413.88	2480.97
414.07	2380.32
414.26	2499.69
414.45	2420.11
414.64	2513.74
414.83	2546.50
415.02	2619.06
415.22	2619.06
415.41	2546.50
415.60	2658.85
415.79	2771.19
415.98	2729.06
416.17	2787.58
416.36	2722.04
416.55	2691.62
416.74	2806.30
416.93	2848.43
417.12	2813.32
417.31	2799.28
417.50	2862.48
417.69	2928.01
417.88	3042.70
418.07	2967.80
418.26	3005.25
418.45	3068.44
418.64	3164.40
418.83	3035.67
419.02	3103.55
419.21	3112.91
419.39	3150.36
419.58	3063.76
419.77	2988.86
419.96	3166.74
420.15	3077.80
420.34	3213.56
420.53	3199.51
420.72	3297.81
420.91	3241.64
421.10	3164.40
421.29	3297.81
421.48	3192.49
421.67	3307.18
421.86	3344.63
422.05	3353.99
422.24	3281.43
422.43	3283.77
422.61	3307.18
422.80	3449.95
422.99	3471.01
423.18	3356.33
423.37	3466.33
423.56	3506.12
423.75	3424.20
423.94	3311.86
424.13	3262.71
424.32	3286.11
424.50	3382.07
424.69	3557.61
424.88	3552.93
425.07	3421.86
425.26	3492.08
425.45	3473.36
425.64	3438.25
425.83	3485.06
426.01	3445.27
426.20	3440.59
426.39	3527.19
426.58	3485.06
426.77	3611.45
426.96	3508.46
427.15	3473.36
427.33	3665.28
427.52	3637.19
427.71	3613.79
427.90	3566.98
428.09	3742.52
428.28	3730.81
428.46	3536.55
428.65	3756.56
428.84	3803.37
429.03	3833.80
429.22	3665.28
429.40	3747.20
429.59	3688.68
429.78	3686.34
429.97	3489.74
430.16	3850.18
430.34	3838.48
430.53	3971.89
430.72	3824.44
430.91	3819.75
431.10	3817.41
431.28	4093.60
431.47	3908.69
431.66	3969.55
431.85	3955.51
432.03	4109.98
432.22	4086.58
432.41	3967.21
432.60	4175.52
432.79	4004.66
432.97	4180.20
433.16	4156.79
433.35	4072.53
433.54	4095.94
433.72	4077.21
433.91	4163.81
434.10	4248.07
434.28	4203.60
434.47	4142.75
434.66	4259.78
434.85	4299.56
435.03	4311.27
435.22	4297.22
435.41	4461.06
435.59	4409.57
435.78	4479.79
435.97	4496.17
436.16	4442.34
436.34	4243.39
436.53	4315.95
436.72	4435.32
436.90	4571.07
437.09	4489.15
437.28	4580.43
437.46	4503.19
437.65	4418.93
437.84	4648.30
438.02	4674.05
438.21	4629.58
438.40	4596.81
438.58	4910.44
438.77	4739.58
438.96	4739.58
439.14	4880.02
439.33	4924.49
439.52	4851.93
439.70	4945.55
439.89	5050.88
440.08	4912.78
440.26	4983.00
440.45	5111.73
440.63	5221.74
440.82	5212.37
441.01	5062.58
441.19	5238.12
441.38	5291.95
441.57	5378.55
441.75	5366.85
441.94	5521.32
442.12	5291.95
442.31	5603.24
442.50	5432.38
442.68	5343.44
442.87	5551.75
443.05	5605.58
443.24	5643.03
443.43	5640.69
443.61	5682.82
443.80	5617.29
443.98	5568.13
444.17	5448.77
444.35	5717.93
444.54	5790.49
444.73	5563.45
444.91	5657.07
445.10	5537.71
445.28	5558.77
445.47	5699.20
445.65	5774.10
445.84	5809.21
446.02	5837.30
446.21	5743.67
446.39	5844.32
446.58	5764.74
446.77	5689.84
446.95	5720.27
447.14	5628.99
447.32	5907.51
447.51	5905.17
447.69	5682.82
447.88	5673.46
448.06	5750.70
448.25	5846.66
448.43	5764.74
448.62	5874.74
448.80	5795.17
448.99	5888.79
449.17	5916.87
449.36	5881.77
449.54	5980.07
449.73	6106.46
449.91	6029.22
450.10	6125.18
450.28	6150.93
450.46	6239.87
450.65	6143.91
450.83	6099.44
451.02	6146.25
451.20	6424.77
451.39	6101.78
451.57	6207.10
451.76	6188.38
451.94	6389.66
452.13	6441.15
452.31	6382.64
452.49	6181.35
452.68	6509.03
452.86	6200.08
453.05	6368.60
453.23	6401.37
453.42	6462.22
453.60	6399.02
453.78	6469.24
453.97	6485.62
454.15	6399.02
454.34	6359.24
454.52	6588.61
454.70	6576.91
454.89	6700.95
455.07	6628.40
455.26	6794.58
455.44	6707.98
455.62	6572.22
455.81	6745.42
455.99	6736.06
456.17	6745.42
456.36	6843.73
456.54	6642.44
456.73	6864.79
456.91	7136.29
457.09	7110.55
457.28	7110.55
457.46	6953.73
457.64	7136.29
457.83	7152.68
458.01	6841.39
458.19	7176.08
458.38	7096.50
458.56	7274.38
458.74	7250.98
458.93	7194.81
459.11	7157.36
459.29	7260.34
459.48	7379.71
459.66	7290.77
459.84	7375.03
460.03	7433.54
460.21	7332.90
460.39	7410.14
460.57	7480.35
460.76	7508.44
460.94	7461.63
461.12	7573.97
461.31	7370.35
461.49	7482.69
461.67	7353.96
461.85	7737.81
462.04	7756.54
462.22	8025.70
462.40	7796.32
462.59	7819.73
462.77	7644.19
462.95	7857.18
463.13	7744.83
463.32	7873.56
463.50	8030.38
463.68	8262.09
463.86	7995.27
464.05	7953.14
464.23	7838.45
464.41	8147.40
464.59	7796.32
464.78	8170.81
464.96	8018.68
465.14	7981.23
465.32	7964.84
465.50	8149.75
465.69	8163.79
465.87	8140.38
466.05	8180.17
466.23	8065.49
466.41	8219.96
466.60	8250.39
466.78	8292.52
466.96	8266.77
467.14	8376.78
467.32	8472.74
467.51	8269.11
467.69	8002.29
467.87	8248.05
468.05	8498.49
468.23	8472.74
468.41	8355.71
468.60	8226.98
468.78	8397.84
468.96	8540.61
469.14	8645.94
469.32	8788.71
469.50	8430.61
469.69	8835.52
469.87	8840.20
470.05	8875.31
470.23	8816.80
470.41	8748.92
470.59	8884.67
470.77	8613.17
470.95	8767.65
471.14	9011.06
471.32	8898.72
471.50	9287.25
471.68	8999.36
471.86	8968.93
472.04	9149.15
472.22	9444.06
472.40	9177.24
472.58	9114.05
472.77	9277.88
472.95	9322.35
473.13	9713.22
473.31	9497.89
473.49	9605.56
473.67	9488.53
473.85	9549.39
474.03	9738.97
474.21	9724.93
474.39	9757.69
474.57	9783.44
474.75	10087.71
474.93	10078.35
475.12	9919.19
475.30	10061.96
475.48	10047.92
475.66	10204.74
475.84	10104.09
476.02	10104.09
476.20	10319.42
476.38	10389.64
476.56	10551.14
476.74	10539.43
476.92	10759.44
477.10	10523.05
477.28	10700.93
477.46	10537.09
477.64	11061.37
477.82	11019.24
478.00	11389.05
478.18	11183.08
478.36	11393.73
478.54	11419.47
478.72	11569.27
478.90	11658.21
479.08	11604.38
479.26	11686.29
479.44	11761.19
479.62	11906.31
479.80	12079.50
479.98	12060.78
480.16	12320.58
480.34	11976.52
480.52	12360.37
480.70	12248.02
480.88	12334.62
481.06	12449.31
481.24	12552.29
481.41	12718.47
481.59	12751.24
481.77	12819.11
481.95	12964.23
482.13	13006.36
482.31	13118.70
482.49	13357.44
482.67	13425.31
482.85	13404.25
483.03	13659.37
483.21	13575.11
483.39	13818.52
483.57	13944.91
483.74	14122.79
483.92	14113.43
484.10	13881.72
484.28	14244.50
484.46	14331.10
484.64	14803.89
484.82	14190.67
485.00	14621.33
485.18	14986.45
485.35	15021.56
485.53	15169.01
485.71	15276.68
485.89	15468.60
486.07	15283.70
486.25	15492.01
486.43	15747.12
486.61	15749.46
486.78	15737.76
486.96	15969.48
487.14	16032.67
487.32	16044.37
487.50	16446.94
487.68	16657.59
487.85	16627.17
488.03	17003.99
488.21	17160.81
488.39	17090.59
488.57	17046.12
488.75	17287.20
488.92	17425.29
489.10	17371.46
489.28	17680.41
489.46	17926.16
489.64	17853.61
489.81	18286.61
489.99	17900.42
490.17	18373.21
490.35	18347.46
490.53	18537.04
490.70	18607.26
490.88	18562.79
491.06	18836.63
491.24	18934.93
491.41	19056.64
491.59	19370.27
491.77	19421.77
491.95	19531.77
492.13	19398.36
492.30	19859.45
492.48	19920.30
492.66	19721.35
492.84	19880.51
493.01	20294.79
493.19	20201.16
493.37	20528.84
493.54	20411.81
493.72	20414.15
493.90	20851.83
494.08	20840.13
494.25	21256.75
494.43	21146.74
494.61	21233.34
494.79	21083.55
494.96	21153.76
495.14	21387.82
495.32	21799.75
495.49	21621.87
495.67	21671.02
495.85	22181.26
496.02	22253.81
496.20	22033.80
496.38	22272.54
496.55	22415.31
496.73	23023.85
496.91	22796.82
497.09	22911.50
497.26	22803.84
497.44	23096.41
497.62	23103.43
497.79	23541.11
497.97	23295.35
498.14	23440.47
498.32	23709.63
498.50	23793.89
498.67	23828.99
498.85	23878.15
499.03	24212.84
499.20	24247.95
499.38	24348.59
499.56	24290.08
499.73	24465.62
499.91	24662.22
500.08	24662.22
500.26	24840.11
500.44	24926.71
500.61	24795.64
500.79	24776.91
500.97	25149.06
501.14	25556.31
501.32	25266.08
501.49	25078.84
501.67	25432.26
501.84	25589.08
502.02	25692.06
502.20	25975.27
502.37	25722.49
502.55	25881.64
502.72	26122.72
502.90	26305.28
503.07	26127.40
503.25	26101.65
503.43	26178.89
503.60	26567.42
503.78	26647.00
503.95	26534.65
504.13	26235.06
504.30	26977.01
504.48	26960.63
504.65	26850.63
504.83	26977.01
505.01	27211.07
505.18	27157.24
505.36	27702.58
505.53	27283.62
505.71	27646.41
505.88	27328.10
506.06	27417.04
506.23	27634.71
506.41	27431.08
506.58	28037.28
506.76	27920.25
506.93	28512.41
507.11	28156.64
507.28	28247.93
507.46	28315.80
507.63	28383.68
507.81	28816.68
507.98	28423.47
508.16	28325.16
508.33	28716.03
508.50	29008.60
508.68	28898.59
508.85	28886.89
509.03	28914.98
509.20	29193.50
509.38	29565.65
509.55	29294.14
509.73	29252.02
509.90	29329.25
510.08	29546.92
510.25	29869.92
510.42	29518.84
510.60	29472.03
510.77	30352.07
510.95	29942.47
511.12	30305.26
511.30	29923.75
511.47	30099.29
511.64	30141.42
511.82	30841.24
511.99	30326.32
512.17	31147.85
512.34	30309.94
512.51	30862.30
512.69	31002.74
512.86	31089.34
513.04	31297.64
513.21	30822.51
513.38	31182.96
513.56	31072.95
513.73	31590.21
513.90	31307.01
514.08	31103.38
514.25	31952.99
514.43	31665.11
514.60	31536.38
514.77	31681.49
514.95	31807.88
515.12	31370.20
515.29	32077.04
515.47	32058.32
515.64	31737.66
515.81	31908.52
515.99	32414.08
516.16	32472.59
516.33	32662.18
516.51	32620.05
516.68	32470.25
516.85	32423.44
517.03	32701.96
517.20	32793.25
517.37	32921.98
517.54	32863.46
517.72	32912.61
517.89	33088.15
518.06	33310.50
518.24	33177.09
518.41	33369.02
518.58	33069.43
518.75	33193.48
518.93	33486.04
519.10	33408.81
519.27	33549.24
519.45	33464.98
519.62	34045.43
519.79	33879.25
519.96	33628.82
520.14	33968.19
520.31	33823.08
520.48	34565.03
520.65	34075.86
520.83	34600.14
521.00	34424.60
521.17	34403.53
521.34	34841.21
521.52	34452.69
521.69	34150.76
521.86	34916.11
522.03	34459.71
522.20	34932.50
522.38	34911.43
522.55	35028.46
522.72	35306.98
522.89	35000.37
523.07	35330.39
523.24	35416.99
523.41	35161.87
523.58	35299.96
523.75	35791.47
523.92	35648.70
524.10	35695.51
524.27	35555.08
524.44	35969.35
524.61	35686.15
524.78	35852.33
524.96	36280.64
525.13	36091.06
525.30	36229.15
525.47	36493.63
525.64	36205.75
525.81	36418.74
525.98	36149.57
526.16	36418.74
526.33	36135.53
526.50	36538.10
526.67	36439.80
526.84	36809.61
527.01	36425.76
527.18	36673.85
527.36	37088.13
527.53	36657.47
527.70	37174.73
527.87	37366.65
528.04	37095.15
528.21	37081.11
528.38	37553.90
528.55	37380.70
528.72	36931.31
528.89	37507.08
529.07	37359.63
529.24	37684.97
529.41	37460.27
529.58	38071.15
529.75	37670.92
529.92	37935.40
530.09	37963.49
530.26	38185.84
530.43	38277.12
530.60	37902.64
530.77	37858.17
530.94	38101.58
531.11	38127.33
531.28	37940.08
531.46	37713.05
531.63	38068.81
531.80	38242.01
531.97	38258.40
532.14	38761.61
532.31	38387.13
532.48	38607.14
532.65	38761.61
532.82	38323.93
532.99	38539.26
533.16	38609.48
533.33	39152.48
533.50	39042.48
533.67	38698.42
533.84	38653.95
534.01	38955.88
534.18	39218.02
534.35	39477.82
534.52	39236.74
534.69	39196.95
534.86	39564.42
535.03	39454.41
535.20	39555.05
535.37	39459.09
535.54	39662.72
535.71	39414.62
535.88	39847.62
536.05	39466.11
536.22	39885.07
536.38	39374.83
536.55	40058.27
536.72	39674.42
536.89	39569.10
537.06	40058.27
537.23	40587.23
537.40	39931.88
537.57	39538.67
537.74	39620.59
537.91	40421.05
538.08	40360.20
538.25	40137.85
538.42	40521.69
538.59	40652.76
538.75	40416.37
538.92	40437.44
539.09	41034.27
539.26	40636.38
539.43	40622.34
539.60	41095.13
539.77	40477.22
539.94	41095.13
540.11	40622.34
540.28	41062.36
540.44	40978.10
540.61	40886.82
540.78	40664.47
540.95	40727.66
541.12	40931.29
541.29	40603.61
541.46	40959.38
541.62	41336.20
541.79	41354.93
541.96	41123.21
542.13	40809.58
542.30	41471.95
542.47	41132.57
542.63	41570.25
542.80	41879.21
542.97	41881.55
543.14	42239.65
543.31	42195.18
543.48	42085.17
543.64	42113.26
543.81	42099.22
543.98	41979.85
544.15	42143.69
544.32	42127.30
544.48	42241.99
544.65	42471.36
544.82	42108.58
544.99	42139.00
545.16	42499.45
545.32	42710.10
545.49	42932.45
545.66	42827.12
545.83	42691.37
546.00	42873.93
546.16	42738.18
546.33	42682.01
546.50	42387.10
546.67	43028.41
546.83	42740.52
547.00	43016.71
547.17	42951.17
547.34	43089.26
547.50	43243.74
547.67	43377.15
547.84	42803.72
548.00	43517.58
548.17	43828.87
548.34	43323.32
548.51	43100.97
548.67	43407.58
548.84	43821.85
549.01	43498.86
549.18	43288.21
549.34	43658.01
549.51	43461.41
549.68	43629.93
549.84	43367.79
550.01	43756.32
550.18	43695.46
550.34	43728.23
550.51	44105.06
550.68	43892.07
550.84	43351.40
551.01	43934.20
551.18	43847.60
551.34	43768.02
551.51	43899.09
551.68	43761.00
551.84	44062.93
552.01	43407.58
552.18	44336.77
552.34	43833.55
552.51	44053.56
552.68	43796.10
552.84	44622.31
553.01	44479.54
553.18	44114.42
553.34	44236.12
553.51	44247.83
553.67	44439.75
553.84	44872.75
554.01	44626.99
554.17	44282.94
554.34	44905.52
554.51	44662.10
554.67	44545.08
554.84	44664.44
555.00	44753.38
555.17	44669.12
555.33	44435.07
555.50	44832.96
555.67	44680.83
555.83	44704.23
556.00	45226.17
556.16	45553.85
556.33	45078.72
556.50	44856.37
556.66	45228.51
556.83	44882.11
556.99	45495.33
557.16	45317.45
557.32	45127.87
557.49	45322.13
557.65	44907.86
557.82	45069.36
557.98	45177.02
558.15	45184.04
558.32	45413.41
558.48	45158.30
558.65	45209.79
558.81	45322.13
558.98	45350.22
559.14	45139.57
559.31	45099.78
559.47	45797.26
559.64	45610.02
559.80	45507.04
559.97	45287.03
560.13	45366.60
560.30	45439.16
560.46	45745.77
560.63	45603.00
560.79	46017.27
560.96	46059.40
561.12	45830.03
561.29	46124.94
561.45	45818.33
561.61	45682.58
561.78	45495.33
561.94	45741.09
562.11	45565.55
562.27	46089.83
562.44	46178.77
562.60	46012.59
562.77	45911.95
562.93	45684.92
563.10	46237.28
563.26	46164.73
563.42	46232.60
563.59	45968.12
563.75	46265.37
563.92	46368.35
564.08	46050.04
564.24	46337.93
564.41	45799.60
564.57	46167.07
564.74	46363.67
564.90	45832.37
565.07	46321.54
565.23	46316.86
565.39	46003.23
565.56	46520.49
565.72	46258.35
565.88	46527.51
566.05	46199.83
566.21	46171.75
566.38	46136.64
566.54	46473.68
566.70	46258.35
566.87	46880.93
567.03	46279.41
567.19	46726.46
567.36	46291.12
567.52	46241.96
567.68	46831.78
567.85	46600.07
568.01	46667.94
568.17	46241.96
568.34	46454.95
568.50	46389.42
568.66	46555.60
568.83	46560.28
568.99	46574.32
569.15	46824.76
569.32	46569.64
569.48	46340.27
569.64	47051.79
569.81	46899.65
569.97	46616.45
570.13	47122.01
570.30	46710.07
570.46	46880.93
570.62	46817.74
570.78	46747.52
570.95	46520.49
571.11	46731.14
571.27	46677.30
571.43	46490.06
571.60	46904.34
571.76	46920.72
571.92	47028.38
572.09	46628.15
572.25	46873.91
572.41	46679.64
572.57	47147.75
572.74	47358.40
572.90	46681.98
573.06	47171.16
573.22	47157.11
573.38	47473.09
573.55	47086.90
573.71	47313.93
573.87	47100.94
574.03	46958.17
574.20	46965.19
574.36	46820.08
574.52	47454.36
574.68	47143.07
574.84	47004.98
575.01	47229.67
575.17	47302.23
575.33	47229.67
575.49	47342.02
575.65	47276.48
575.82	47470.75
575.98	46916.04
576.14	47342.02
576.30	47835.87
576.46	47063.49
576.62	46997.96
576.79	47379.46
576.95	46845.82
577.11	46843.48
577.27	47084.56
577.43	47114.98
577.59	47407.55
577.75	47384.15
577.92	46754.54
578.08	47255.42
578.24	46972.21
578.40	47143.07
578.56	47068.17
578.72	47068.17
578.88	47473.09
579.04	47175.84
579.21	47084.56
579.37	47187.54
579.53	47210.95
579.69	47278.82
579.85	47316.27
580.01	46946.47
580.17	46993.28
580.33	47796.08
580.49	47386.49
580.65	47613.52
580.82	47196.90
580.98	47173.50
581.14	47063.49
581.30	47187.54
581.46	47384.15
581.62	47388.83
581.78	46953.49
581.94	47192.22
582.10	47288.18
582.26	47746.93
582.42	47559.69
582.58	47391.17
582.74	47077.54
582.90	47440.32
583.06	47313.93
583.22	47498.83
583.38	47182.86
583.54	47402.87
583.70	47833.53
583.86	47583.09
584.02	47276.48
584.18	47959.92
584.34	47730.54
584.50	47739.91
584.66	47463.72
584.82	47632.24
584.98	47863.96
585.14	47643.94
585.30	47564.37
585.46	47899.06
585.62	47374.78
585.78	47320.95
585.94	47091.58
586.10	47569.05
586.26	47517.56
586.42	47482.45
586.58	47753.95
586.74	47133.71
586.90	47515.22
587.06	47700.12
587.22	47576.07
587.38	47482.45
587.54	47756.29
587.70	48154.18
587.86	47613.52
588.02	47672.03
588.18	47285.84
588.34	47763.31
588.49	47580.75
588.65	47597.13
588.81	47564.37
588.97	47676.71
589.13	47508.19
589.29	47775.02
589.45	48011.41
589.61	47655.65
589.77	47765.65
589.93	47782.04
