SpectraSuite Data File
++++++++++++++++++++++++++++++++++++
Date: Fri Oct 25 11:23:50 EDT 2013
User: price-jones
Dark Spectrum Present: No
Reference Spectrum Present: No
Number of Sampled Component Spectra: 1
Spectrometers: USB2+H05261
Integration Time (usec): 100000 (USB2+H05261)
Spectra Averaged: 1 (USB2+H05261)
Boxcar Smoothing: 0 (USB2+H05261)
Correct for Electrical Dark: No (USB2+H05261)
Strobe/Lamp Enabled: No (USB2+H05261)
Correct for Detector Non-linearity: No (USB2+H05261)
Correct for Stray Light: No (USB2+H05261)
Number of Pixels in Processed Spectrum: 2048
>>>>>Begin Processed Spectral Data<<<<<
365.73	126.39
365.92	126.39
366.12	126.39
366.32	102.98
366.52	140.43
366.72	175.54
366.91	84.26
367.11	210.65
367.31	77.24
367.51	205.97
367.70	95.96
367.90	95.96
368.10	128.73
368.30	140.43
368.49	140.43
368.69	126.39
368.89	145.11
369.09	124.05
369.28	229.37
369.48	173.20
369.68	112.35
369.87	198.95
370.07	175.54
370.27	149.79
370.47	287.89
370.66	566.41
370.86	585.13
371.06	681.10
371.25	718.54
371.45	650.67
371.65	681.10
371.84	688.12
372.04	706.84
372.24	777.06
372.44	711.52
372.63	753.65
372.83	770.04
373.03	716.20
373.22	720.88
373.42	718.54
373.62	826.21
373.81	819.19
374.01	784.08
374.21	777.06
374.40	798.12
374.60	828.55
374.79	786.42
374.99	891.74
375.19	868.34
375.38	840.25
375.58	870.68
375.78	912.81
375.97	795.78
376.17	837.91
376.37	873.02
376.56	877.70
376.76	866.00
376.95	924.51
377.15	891.74
377.35	873.02
377.54	875.36
377.74	861.32
377.93	830.89
378.13	842.59
378.33	908.13
378.52	905.79
378.72	1027.50
378.91	978.34
379.11	964.30
379.31	910.47
379.50	966.64
379.70	931.53
379.89	987.71
380.09	938.55
380.28	973.66
380.48	1048.56
380.68	940.90
380.87	983.02
381.07	1008.77
381.26	1039.20
381.46	994.73
381.65	990.05
381.85	1036.86
382.04	968.98
382.24	1053.24
382.43	1027.50
382.63	1029.84
382.83	1013.45
383.02	1137.50
383.22	1123.46
383.41	1128.14
383.61	1196.01
383.80	1078.99
384.00	1097.71
384.19	1097.71
384.39	1165.59
384.58	1151.54
384.78	1177.29
384.97	1160.91
385.17	1163.25
385.36	1137.50
385.56	1179.63
385.75	1090.69
385.95	1104.73
386.14	1160.91
386.34	1221.76
386.53	1139.84
386.72	1193.67
386.92	1193.67
387.11	1259.21
387.31	1289.64
387.50	1284.95
387.70	1303.68
387.89	1324.74
388.09	1306.02
388.28	1219.42
388.48	1352.83
388.67	1259.21
388.86	1331.76
389.06	1263.89
389.25	1313.04
389.45	1411.34
389.64	1320.06
389.84	1282.61
390.03	1390.28
390.22	1423.05
390.42	1369.21
390.61	1380.92
390.81	1385.60
391.00	1481.56
391.19	1423.05
391.39	1387.94
391.58	1479.22
391.78	1500.28
391.97	1483.90
392.16	1479.22
392.36	1621.99
392.55	1514.33
392.75	1481.56
392.94	1474.54
393.13	1636.03
393.33	1563.48
393.52	1582.20
393.71	1504.96
393.91	1652.42
394.10	1593.90
394.29	1582.20
394.49	1544.75
394.68	1668.80
394.88	1706.25
395.07	1771.79
395.26	1720.29
395.46	1687.53
395.65	1788.17
395.84	1722.63
396.04	1652.42
396.23	1708.59
396.42	1739.02
396.62	1844.34
396.81	1839.66
397.00	1760.08
397.19	1769.44
397.39	1783.49
397.58	1732.00
397.77	1750.72
397.97	1820.94
398.16	1797.53
398.35	1818.60
398.55	1935.62
398.74	1795.19
398.93	1984.77
399.12	1783.49
399.32	1905.20
399.51	1947.33
399.70	2017.54
399.90	1942.64
400.09	2015.20
400.28	2012.86
400.47	2026.90
400.67	2139.25
400.86	2113.50
401.05	2108.82
401.24	2043.29
401.44	2176.70
401.63	2073.71
401.82	2125.21
402.01	2120.53
402.21	2090.10
402.40	2228.19
402.59	2235.21
402.78	2211.81
402.97	2359.26
403.17	2251.60
403.36	2239.89
403.55	2328.83
403.74	2356.92
403.93	2352.24
404.13	2303.09
404.32	2377.98
404.51	2335.85
404.70	2483.31
404.89	2427.14
405.09	2555.86
405.28	2422.45
405.47	2443.52
405.66	2464.58
405.85	2527.78
406.05	2480.97
406.24	2586.29
406.43	2605.02
406.62	2630.76
406.81	2623.74
407.00	2600.34
407.20	2700.98
407.39	2644.81
407.58	2731.41
407.77	2656.51
407.96	2773.53
408.15	2841.41
408.34	2656.51
408.54	2698.64
408.73	2658.85
408.92	2768.85
409.11	2942.05
409.30	2946.73
409.49	2932.69
409.68	2918.65
409.87	2803.96
410.07	2986.52
410.26	2928.01
410.45	2993.55
410.64	3068.44
410.83	3105.89
411.02	3068.44
411.21	3155.04
411.40	3023.97
411.59	3229.94
411.78	3211.22
411.98	3131.64
412.17	3206.53
412.36	3314.20
412.55	3403.14
412.74	3433.57
412.93	3417.18
413.12	3281.43
413.31	3527.19
413.50	3466.33
413.69	3522.51
413.88	3630.17
414.07	3555.27
414.26	3602.08
414.45	3660.60
414.64	3644.21
414.83	3749.54
415.02	3871.25
415.22	3822.09
415.41	3852.52
415.60	3831.46
415.79	3936.78
415.98	3950.82
416.17	3964.87
416.36	3908.69
416.55	4021.04
416.74	4067.85
416.93	3943.80
417.12	4161.47
417.31	4170.83
417.50	4229.35
417.69	4283.18
417.88	4131.05
418.07	4322.97
418.26	4355.74
418.45	4299.56
418.64	4383.82
418.83	4381.48
419.02	4411.91
419.21	4496.17
419.39	4617.88
419.58	4493.83
419.77	4470.42
419.96	4709.16
420.15	4624.90
420.34	4493.83
420.53	4564.04
420.72	4683.41
420.91	4805.12
421.10	4807.46
421.29	4760.65
421.48	4643.62
421.67	4692.77
421.86	4772.35
422.05	4880.02
422.24	4819.16
422.43	4854.27
422.61	4760.65
422.80	4870.65
422.99	4957.25
423.18	4968.96
423.37	5074.28
423.56	4709.16
423.75	4877.68
423.94	4851.93
424.13	4681.07
424.32	4648.30
424.50	5001.72
424.69	5149.18
424.88	4964.28
425.07	5015.77
425.26	4875.34
425.45	4945.55
425.64	4966.62
425.83	4985.34
426.01	4985.34
426.20	5011.09
426.39	4994.70
426.58	5013.43
426.77	5203.01
426.96	5104.71
427.15	5226.42
427.33	5341.10
427.52	5261.52
427.71	5221.74
427.90	5387.91
428.09	5214.71
428.28	5432.38
428.46	5390.25
428.65	5252.16
428.84	5619.63
429.03	5521.32
429.22	5563.45
429.40	5502.60
429.59	5666.44
429.78	5383.23
429.97	5151.52
430.16	5284.93
430.34	5514.30
430.53	5537.71
430.72	5533.03
430.91	5771.76
431.10	5657.07
431.28	5764.74
431.47	5809.21
431.66	5968.37
431.85	5722.61
432.03	5851.34
432.22	5942.62
432.41	6045.60
432.60	5991.77
432.79	5933.26
432.97	6059.65
433.16	6017.52
433.35	6106.46
433.54	6155.61
433.72	6038.58
433.91	6134.54
434.10	6272.64
434.28	6197.74
434.47	6211.78
434.66	6223.48
434.85	6347.53
435.03	6349.87
435.22	6338.17
435.41	6520.73
435.59	6296.04
435.78	6700.95
435.97	6523.07
436.16	6401.37
436.34	6473.92
436.53	6457.54
436.72	6661.16
436.90	6352.21
437.09	6492.65
437.28	6406.05
437.46	6604.99
437.65	6534.78
437.84	6752.45
438.02	6794.58
438.21	6867.13
438.40	6630.74
438.58	7007.56
438.77	7052.03
438.96	6918.62
439.14	7070.76
439.33	7190.13
439.52	7368.01
439.70	7356.30
439.89	7463.97
440.08	7300.13
440.26	7449.93
440.45	7360.98
440.63	7426.52
440.82	7681.64
441.01	7428.86
441.19	7700.36
441.38	7653.55
441.57	7747.17
441.75	7756.54
441.94	7985.91
442.12	8004.63
442.31	7997.61
442.50	8116.98
442.68	8086.55
442.87	8065.49
443.05	8131.02
443.24	8170.81
443.43	8138.04
443.61	8252.73
443.80	8439.97
443.98	8180.17
444.17	7896.97
444.35	8196.56
444.54	8365.07
444.73	8346.35
444.91	8231.66
445.10	8454.02
445.28	8278.47
445.47	8308.90
445.65	8166.13
445.84	8358.05
446.02	8393.16
446.21	8573.38
446.39	8332.31
446.58	8571.04
446.77	8451.67
446.95	8439.97
447.14	8332.31
447.32	8538.27
447.51	8692.75
447.69	8262.09
447.88	8589.77
448.06	8542.96
448.25	8638.92
448.43	8547.64
448.62	8725.52
448.80	8723.18
448.99	8613.17
449.17	8772.33
449.36	8751.26
449.54	8772.33
449.73	8854.25
449.91	8985.32
450.10	8887.01
450.28	9177.24
450.46	9006.38
450.65	9160.86
450.83	8943.19
451.02	8994.68
451.20	9305.97
451.39	9149.15
451.57	9083.62
451.76	8870.63
451.94	8994.68
452.13	9479.17
452.31	9301.29
452.49	9303.63
452.68	9411.29
452.86	9212.35
453.05	9399.59
453.23	9404.27
453.42	9455.76
453.60	9568.11
453.78	9650.03
453.97	9600.88
454.15	9652.37
454.34	9696.84
454.52	9921.53
454.70	9846.63
454.89	9701.52
455.07	9584.49
455.26	10031.54
455.44	10026.86
455.62	9755.35
455.81	10045.58
455.99	9928.55
456.17	10066.64
456.36	10108.77
456.54	10324.10
456.73	10202.40
456.91	10499.64
457.09	10436.45
457.28	10658.80
457.46	10239.84
457.64	10427.09
457.83	10588.58
458.01	10274.95
458.19	10696.25
458.38	10391.98
458.56	10663.48
458.74	10707.95
458.93	10714.97
459.11	10682.20
459.29	10792.21
459.48	10565.18
459.66	10759.44
459.84	10991.16
460.03	11021.58
460.21	10913.92
460.39	10984.13
460.57	10787.53
460.76	11353.94
460.94	11089.46
461.12	11119.89
461.31	11286.06
461.49	11318.83
461.67	11094.14
461.85	11351.60
462.04	11513.10
462.22	11466.28
462.40	11407.77
462.59	11545.86
462.77	11346.92
462.95	11599.70
463.13	11585.65
463.32	11627.78
463.50	11602.04
463.68	11857.15
463.86	11894.60
464.05	11803.32
464.23	11934.39
464.41	11964.82
464.59	11639.48
464.78	12245.68
464.96	12135.68
465.14	12011.63
465.32	12016.31
465.50	12255.04
465.69	12219.94
465.87	12142.70
466.05	12100.57
466.23	12081.85
466.41	12336.96
466.60	12365.05
466.78	12208.23
466.96	12194.19
467.14	12259.73
467.32	12458.67
467.51	12683.36
467.69	12306.54
467.87	12283.13
468.05	12681.02
468.23	12343.99
468.41	12533.57
468.60	12568.68
468.78	12814.43
468.96	12629.53
469.14	12751.24
469.32	13004.02
469.50	12662.30
469.69	12879.97
469.87	13226.37
470.05	13090.62
470.23	13247.43
470.41	13156.15
470.59	13329.35
470.77	13298.92
470.95	13390.20
471.14	13331.69
471.32	13139.77
471.50	13633.62
471.68	13565.74
471.86	13626.60
472.04	13607.87
472.22	14036.19
472.40	13652.34
472.58	13827.88
472.77	14134.50
472.95	14125.13
473.13	14527.71
473.31	14157.90
473.49	13996.40
473.67	14314.72
473.85	14160.24
474.03	14544.09
474.21	14733.67
474.39	14918.57
474.57	14499.62
474.75	15143.27
474.93	14946.66
475.12	15101.14
475.30	15281.36
475.48	15054.33
475.66	15206.46
475.84	15035.60
476.02	15194.76
476.20	15374.98
476.38	15695.63
476.56	16072.46
476.74	15988.20
476.92	15749.46
477.10	15896.92
477.28	15875.85
477.46	16372.05
477.64	16411.84
477.82	16690.36
478.00	17057.82
478.18	16982.93
478.36	16971.22
478.54	17319.96
478.72	17198.26
478.90	17528.27
479.08	17654.66
479.26	17879.35
479.44	17703.81
479.62	17944.89
479.80	17792.75
479.98	18010.42
480.16	18640.03
480.34	18314.69
480.52	18806.20
480.70	18314.69
480.88	18483.21
481.06	18754.71
481.24	18918.55
481.41	19304.74
481.59	19379.64
481.77	19651.14
481.95	19627.73
482.13	19922.64
482.31	19552.84
482.49	19847.74
482.67	20191.80
482.85	20219.89
483.03	20851.83
483.21	21076.52
483.39	21102.27
483.57	20950.14
483.74	21184.19
483.92	21429.94
484.10	21371.43
484.28	21771.66
484.46	21921.46
484.64	22230.41
484.82	22281.90
485.00	22476.16
485.18	22588.51
485.35	22852.99
485.53	22689.15
485.71	23049.60
485.89	23693.24
486.07	23281.31
486.25	23372.59
486.43	23576.22
486.61	23538.77
486.78	24016.24
486.96	24421.15
487.14	24664.57
487.32	24886.92
487.50	24875.21
487.68	25177.14
487.85	24950.11
488.03	25652.27
488.21	25692.06
488.39	26017.40
488.57	25998.67
488.75	26464.44
488.92	26265.49
489.10	27000.42
489.28	26642.32
489.46	27019.14
489.64	27426.40
489.81	27784.50
489.99	27672.15
490.17	27924.93
490.35	28149.62
490.53	28081.75
490.70	28826.04
490.88	28353.25
491.06	28964.13
491.24	28940.72
491.41	28917.32
491.59	29347.98
491.77	29734.17
491.95	29652.25
492.13	30127.38
492.30	29982.26
492.48	29783.32
492.66	29888.64
492.84	30211.64
493.01	30572.08
493.19	30696.13
493.37	30855.28
493.54	30986.35
493.72	31758.73
493.90	31491.91
494.08	31938.95
494.25	32182.37
494.43	32488.98
494.61	32428.12
494.79	32783.88
494.96	32687.92
495.14	32830.69
495.32	33050.70
495.49	33298.80
495.67	33149.01
495.85	33699.03
496.02	33825.42
496.20	34197.57
496.38	34003.30
496.55	34148.42
496.73	35171.23
496.91	34967.60
497.09	34895.05
497.26	35292.94
497.44	34752.27
497.62	35365.49
497.79	36034.89
497.97	35592.53
498.14	36147.23
498.32	36400.01
498.50	36264.26
498.67	36666.83
498.85	36823.65
499.03	36889.18
499.20	36992.17
499.38	36601.30
499.56	37340.91
499.73	36814.29
499.91	37181.75
500.08	37296.44
500.26	37537.51
500.44	38305.21
500.61	38155.41
500.79	38007.96
500.97	38384.79
501.14	38747.57
501.32	38401.17
501.49	38319.25
501.67	39133.76
501.84	39189.93
502.02	38677.35
502.20	39058.86
502.37	39676.76
502.55	39105.67
502.72	39487.18
502.90	39777.40
503.07	39871.03
503.25	39821.87
503.43	39950.60
503.60	39871.03
503.78	40128.48
503.95	40509.99
504.13	40495.95
504.30	40889.16
504.48	40273.60
504.65	40978.10
504.83	41125.55
505.01	41385.35
505.18	41336.20
505.36	41610.04
505.53	41195.77
505.71	42073.47
505.88	41853.46
506.06	41254.28
506.23	41923.68
506.41	41764.52
506.58	42462.00
506.76	42368.38
506.93	42340.29
507.11	42094.53
507.28	42653.92
507.46	42937.13
507.63	43143.09
507.81	43683.76
507.98	43086.92
508.16	43445.02
508.33	43531.62
508.50	43892.07
508.68	43728.23
508.85	44212.72
509.03	44034.84
509.20	44350.81
509.38	44577.84
509.55	44566.14
509.73	44392.94
509.90	44964.03
510.08	44788.49
510.25	44910.20
510.42	45062.33
510.60	44989.78
510.77	45333.84
510.95	45488.31
511.12	45275.32
511.30	45521.08
511.47	45640.45
511.64	45656.83
511.82	45911.95
511.99	45509.38
512.17	46064.08
512.34	45743.43
512.51	46106.21
512.69	46433.89
512.86	46188.13
513.04	46738.16
513.21	46672.62
513.38	46740.50
513.56	47292.86
513.73	46766.24
513.90	46773.27
514.08	46396.44
514.25	47379.46
514.43	47374.78
514.60	47650.97
514.77	47524.58
514.95	47831.19
515.12	47828.85
515.29	47604.16
515.47	47962.26
515.64	47866.30
515.81	48149.50
515.99	48458.45
516.16	48334.40
516.33	48292.27
516.51	49043.59
516.68	48699.53
516.85	48589.52
517.03	49038.90
517.20	49022.52
517.37	48507.60
517.54	49104.44
517.72	49162.95
517.89	49095.08
518.06	49275.30
518.24	49607.65
518.41	49628.72
518.58	49617.02
518.75	48980.39
518.93	49825.32
519.10	49539.78
519.27	49879.16
519.45	49776.17
519.62	50145.98
519.79	49947.03
519.96	50337.90
520.14	50291.09
520.31	50445.57
520.48	50775.58
520.65	50628.13
520.83	50962.82
521.00	50717.07
521.17	50513.44
521.34	51091.55
521.52	51100.92
521.69	51072.83
521.86	51023.68
522.03	50974.53
522.20	51529.23
522.38	51632.22
522.55	51489.45
522.72	51269.43
522.89	51459.02
523.07	51587.75
523.24	51697.75
523.41	51838.18
523.58	51379.44
523.75	51849.89
523.92	52044.15
524.10	52177.56
524.27	52154.16
524.44	52041.81
524.61	52226.71
524.78	52299.27
524.96	52257.14
525.13	52346.08
525.30	52163.52
525.47	52580.13
525.64	52465.45
525.81	52659.71
525.98	52743.97
526.16	52598.86
526.33	52683.12
526.50	53207.40
526.67	52872.70
526.84	52982.71
527.01	53055.26
527.18	52954.62
527.36	53076.33
527.53	53132.50
527.70	53392.30
527.87	53675.51
528.04	53523.37
528.21	53488.26
528.38	53570.18
528.55	53780.83
528.72	53254.21
528.89	53563.16
529.07	53425.07
529.24	53532.73
529.41	53806.58
529.58	53968.07
529.75	53705.93
529.92	53876.79
530.09	53970.41
530.26	54085.10
530.43	53928.28
530.60	54000.84
530.77	53729.34
530.94	54087.44
531.11	54145.95
531.28	54284.04
531.46	53902.54
531.63	54307.45
531.80	54129.57
531.97	54487.67
532.14	54740.45
532.31	54457.24
532.48	54721.72
532.65	54665.55
532.82	54616.40
532.99	54646.83
533.16	54752.15
533.33	54794.28
533.50	55274.09
533.67	55091.53
533.84	54836.41
534.01	54911.31
534.18	55161.75
534.35	55339.63
534.52	55138.34
534.69	55056.42
534.86	55341.97
535.03	55075.15
535.20	55461.33
535.37	55320.90
535.54	55463.67
535.71	55143.02
535.88	55606.45
536.05	55458.99
536.22	55831.14
536.38	55650.92
536.55	55700.07
536.72	55583.04
536.89	55547.93
537.06	55613.47
537.23	55929.44
537.40	55891.99
537.57	55920.08
537.74	56002.00
537.91	56072.21
538.08	55959.87
538.25	55683.69
538.42	56170.52
538.59	56200.94
538.75	56261.80
538.92	55976.25
539.09	56530.96
539.26	56165.84
539.43	56030.08
539.60	56327.33
539.77	56502.87
539.94	56470.11
540.11	56397.55
540.28	56549.68
540.44	56418.61
540.61	56516.92
540.78	56456.06
540.95	56273.50
541.12	56285.20
541.29	56608.20
541.46	56477.13
541.62	56514.58
541.79	56643.30
541.96	56554.36
542.13	56722.88
542.30	56816.50
542.47	56889.06
542.63	56973.32
542.80	57034.17
542.97	56968.64
543.14	57396.96
543.31	57146.52
543.48	57411.00
543.64	57457.81
543.81	57434.41
543.98	57504.62
544.15	57490.58
544.32	57722.29
544.48	57392.28
544.65	57378.23
544.82	57598.24
544.99	57408.66
545.16	57635.69
545.32	57689.52
545.49	57733.99
545.66	57719.95
545.83	57668.46
546.00	57818.25
546.16	57703.57
546.33	57535.05
546.50	57205.03
546.67	57733.99
546.83	57357.17
547.00	57846.34
547.17	57998.48
547.34	57647.39
547.50	57846.34
547.67	58358.92
547.84	58075.71
548.00	58094.44
548.17	58330.83
548.34	57935.28
548.51	58171.67
548.67	58433.81
548.84	58075.71
549.01	58230.19
549.18	58328.49
549.34	58459.56
549.51	58480.63
549.68	58489.99
549.84	58335.51
550.01	58466.58
550.18	58333.17
550.34	58522.76
550.51	58445.52
550.68	58447.86
550.84	58216.14
551.01	58597.65
551.18	58618.72
551.34	58766.17
551.51	58688.93
551.68	58597.65
551.84	58504.03
552.01	58569.57
552.18	58763.83
552.34	58520.41
552.51	58522.76
552.68	58511.05
552.84	58712.34
553.01	58937.03
553.18	58684.25
553.34	59014.27
553.51	58770.85
553.67	58768.51
553.84	58906.60
554.01	58803.62
554.17	58995.54
554.34	59072.78
554.51	58939.37
554.67	59304.49
554.84	59189.81
555.00	59140.66
555.17	58852.77
555.33	59206.19
555.50	59056.40
555.67	59040.01
555.83	59215.55
556.00	59377.05
556.16	59414.50
556.33	59255.34
556.50	59320.88
556.66	59384.07
556.83	58974.48
556.99	59327.90
557.16	59512.80
557.32	59585.36
557.49	59721.11
557.65	59306.83
557.82	59463.65
557.98	59576.00
558.15	59468.33
558.32	59496.42
558.48	59367.69
558.65	59405.14
558.81	59620.47
558.98	59573.66
559.14	59721.11
559.31	59845.16
559.47	59870.90
559.64	59880.27
559.80	59744.51
559.97	59973.89
560.13	59667.28
560.30	59767.92
560.46	59852.18
560.63	59976.23
560.79	59891.97
560.96	59831.11
561.12	59812.39
561.29	59948.14
561.45	59788.98
561.61	59931.76
561.78	59875.58
561.94	59945.80
562.11	59941.12
562.27	59725.79
562.44	60025.38
562.60	60207.94
562.77	59969.21
562.93	59667.28
563.10	60041.76
563.26	60093.25
563.42	60182.19
563.59	60147.09
563.75	60191.56
563.92	59980.91
564.08	60060.49
564.24	60083.89
564.41	60203.26
564.57	60170.49
564.74	60170.49
564.90	60240.71
565.07	60140.07
565.23	60233.69
565.39	60299.22
565.56	60346.03
565.72	60301.56
565.88	60346.03
566.05	60048.78
566.21	60331.99
566.38	60402.21
566.54	60294.54
566.70	60385.82
566.87	60339.01
567.03	60179.85
567.19	60418.59
567.36	60360.08
567.52	60301.56
567.68	60736.90
567.85	60449.02
568.01	60446.68
568.17	60259.43
568.34	60411.57
568.50	60362.42
568.66	60390.50
568.83	60441.99
568.99	60306.24
569.15	60327.31
569.32	60434.97
569.48	60500.51
569.64	60671.37
569.81	60547.32
569.97	60413.91
570.13	60605.83
570.30	60446.68
570.46	60535.62
570.62	60498.17
570.78	60725.20
570.95	60580.09
571.11	60701.79
571.27	60643.28
571.43	60692.43
571.60	60633.92
571.76	60605.83
571.92	60636.26
572.09	60718.18
572.25	60547.32
572.41	60903.08
572.57	60804.78
572.74	60889.04
572.90	60788.39
573.06	60793.07
573.22	60683.07
573.38	60650.30
573.55	60718.18
573.71	60940.53
573.87	60647.96
574.03	60612.85
574.20	60727.54
574.36	60615.19
574.52	60835.20
574.68	60757.97
574.84	61022.45
575.01	60615.19
575.17	60692.43
575.33	60694.77
575.49	60699.45
575.65	60797.76
575.82	60933.51
575.98	60900.74
576.14	60954.57
576.30	60980.32
576.46	60804.78
576.62	60849.25
576.79	60919.46
576.95	60865.63
577.11	60977.98
577.27	60809.46
577.43	60760.31
577.59	60842.23
577.75	60832.86
577.92	60743.92
578.08	60919.46
578.24	60849.25
578.40	60844.57
578.56	60795.42
578.72	60980.32
578.88	60973.30
579.04	61111.39
579.21	61050.53
579.37	61141.81
579.53	61071.60
579.69	60767.33
579.85	60835.20
580.01	60683.07
580.17	60797.76
580.33	61123.09
580.49	61120.75
580.65	61113.73
580.82	60825.84
580.98	60743.92
581.14	60942.87
581.30	61076.28
581.46	60914.78
581.62	61076.28
581.78	60942.87
581.94	61015.43
582.10	60938.19
582.26	60912.44
582.42	60837.54
582.58	60935.85
582.74	61134.79
582.90	61148.84
583.06	61073.94
583.22	60788.39
583.38	60975.64
583.54	61092.66
583.70	61258.84
583.86	61090.32
584.02	61134.79
584.18	61200.33
584.34	61029.47
584.50	61284.59
584.66	61034.15
584.82	60764.99
584.98	61214.37
585.14	61064.58
585.30	61027.13
585.46	60931.17
585.62	61038.83
585.78	61181.60
585.94	60769.67
586.10	60994.36
586.26	61008.40
586.42	61141.81
586.58	61359.48
586.74	61251.82
586.90	61038.83
587.06	61153.52
587.22	61235.44
587.38	61268.20
587.54	61385.23
587.70	61382.89
587.86	61179.26
588.02	61085.64
588.18	61017.77
588.34	61237.78
588.49	61064.58
