SpectraSuite Data File
++++++++++++++++++++++++++++++++++++
Date: Fri Oct 25 10:47:19 EDT 2013
User: price-jones
Dark Spectrum Present: No
Reference Spectrum Present: No
Number of Sampled Component Spectra: 1
Spectrometers: USB2+H05261
Integration Time (usec): 100000 (USB2+H05261)
Spectra Averaged: 1 (USB2+H05261)
Boxcar Smoothing: 0 (USB2+H05261)
Correct for Electrical Dark: No (USB2+H05261)
Strobe/Lamp Enabled: No (USB2+H05261)
Correct for Detector Non-linearity: No (USB2+H05261)
Correct for Stray Light: No (USB2+H05261)
Number of Pixels in Processed Spectrum: 2048
>>>>>Begin Processed Spectral Data<<<<<
365.73	133.41
365.92	133.41
366.12	133.41
366.32	133.41
366.52	14.04
366.72	86.60
366.91	51.49
367.11	110.01
367.31	30.43
367.51	0.00
367.70	60.85
367.90	42.13
368.10	0.00
368.30	32.77
368.49	14.04
368.69	107.66
368.89	11.70
369.09	35.11
369.28	105.32
369.48	0.00
369.68	37.45
369.87	98.30
370.07	58.51
370.27	91.28
370.47	166.18
370.66	325.33
370.86	334.70
371.06	388.53
371.25	479.81
371.45	374.49
371.65	498.53
371.84	442.36
372.04	465.77
372.24	507.90
372.44	491.51
372.63	493.85
372.83	564.07
373.03	425.98
373.22	458.74
373.42	526.62
373.62	475.13
373.81	425.98
374.01	540.66
374.21	489.17
374.40	547.69
374.60	561.73
374.79	594.50
374.99	512.58
375.19	425.98
375.38	564.07
375.58	571.09
375.78	615.56
375.97	528.96
376.17	599.18
376.37	622.58
376.56	620.24
376.76	624.92
376.95	564.07
377.15	559.39
377.35	585.13
377.54	599.18
377.74	552.37
377.93	606.20
378.13	645.99
378.33	552.37
378.52	592.16
378.72	671.73
378.91	667.05
379.11	575.77
379.31	571.09
379.50	615.56
379.70	716.20
379.89	631.94
380.09	629.60
380.28	648.33
380.48	704.50
380.68	650.67
380.87	636.63
381.07	624.92
381.26	657.69
381.46	606.20
381.65	585.13
381.85	704.50
382.04	641.31
382.24	608.54
382.43	723.23
382.63	697.48
382.83	627.26
383.02	720.88
383.22	758.33
383.41	725.57
383.61	655.35
383.80	741.95
384.00	638.97
384.19	784.08
384.39	718.54
384.58	702.16
384.78	709.18
384.97	727.91
385.17	725.57
385.36	720.88
385.56	692.80
385.75	746.63
385.95	725.57
386.14	697.48
386.34	814.51
386.53	732.59
386.72	741.95
386.92	798.12
387.11	798.12
387.31	910.47
387.50	723.23
387.70	774.72
387.89	826.21
388.09	861.32
388.28	842.59
388.48	835.57
388.67	880.04
388.86	875.36
389.06	833.23
389.25	894.08
389.45	835.57
389.64	826.21
389.84	882.38
390.03	842.59
390.22	950.26
390.42	889.40
390.61	943.24
390.81	844.93
391.00	936.21
391.19	842.59
391.39	931.53
391.58	861.32
391.78	940.90
391.97	983.02
392.16	915.15
392.36	961.96
392.55	947.92
392.75	950.26
392.94	954.94
393.13	952.60
393.33	931.53
393.52	924.51
393.71	1069.62
393.91	961.96
394.10	1071.97
394.29	1029.84
394.49	1053.24
394.68	1081.33
394.88	1055.58
395.07	1118.78
395.26	1027.50
395.46	1074.31
395.65	1139.84
395.84	1041.54
396.04	1184.31
396.23	1165.59
396.42	1167.93
396.62	1100.05
396.81	1064.94
397.00	1128.14
397.19	1078.99
397.39	1123.46
397.58	1153.88
397.77	1146.86
397.97	1261.55
398.16	1235.80
398.35	1315.38
398.55	1181.97
398.74	1224.10
398.93	1373.89
399.12	1273.25
399.32	1256.87
399.51	1240.48
399.70	1350.49
399.90	1380.92
400.09	1434.75
400.28	1444.11
400.47	1416.02
400.67	1357.51
400.86	1357.51
401.05	1399.64
401.24	1420.71
401.44	1409.00
401.63	1467.52
401.82	1451.13
402.01	1446.45
402.21	1406.66
402.40	1401.98
402.59	1322.40
402.78	1530.71
402.97	1465.18
403.17	1504.96
403.36	1448.79
403.55	1502.62
403.74	1633.69
403.93	1610.29
404.13	1603.27
404.32	1621.99
404.51	1612.63
404.70	1591.56
404.89	1589.22
405.09	1715.61
405.28	1764.76
405.47	1699.23
405.66	1666.46
405.85	1760.08
406.05	1661.78
406.24	1692.21
406.43	1734.34
406.62	1757.74
406.81	1732.00
407.00	1710.93
407.20	1792.85
407.39	1795.19
407.58	1832.64
407.77	1827.96
407.96	1900.52
408.15	1933.28
408.34	1797.53
408.54	1870.09
408.73	1959.03
408.92	1905.20
409.11	2012.86
409.30	1970.73
409.49	1902.86
409.68	1942.64
409.87	1937.96
410.07	2008.18
410.26	1987.11
410.45	2059.67
410.64	2090.10
410.83	2012.86
411.02	2085.42
411.21	2146.27
411.40	2204.78
411.59	2169.68
411.78	2174.36
411.98	2139.25
412.17	2232.87
412.36	2232.87
412.55	2216.49
412.74	2333.51
412.93	2253.94
413.12	2352.24
413.31	2385.01
413.50	2441.18
413.69	2448.20
413.88	2427.14
414.07	2413.09
414.26	2417.77
414.45	2394.37
414.64	2424.80
414.83	2565.23
415.02	2619.06
415.22	2583.95
415.41	2665.87
415.60	2630.76
415.79	2684.59
415.98	2686.94
416.17	2836.73
416.36	2710.34
416.55	2696.30
416.74	2792.26
416.93	2724.38
417.12	2895.24
417.31	2855.45
417.50	2857.79
417.69	2841.41
417.88	2998.23
418.07	2890.56
418.26	3075.46
418.45	3063.76
418.64	3087.17
418.83	2946.73
419.02	3206.53
419.21	3133.98
419.39	3040.36
419.58	3000.57
419.77	3089.51
419.96	3038.02
420.15	3169.09
420.34	3192.49
420.53	3208.87
420.72	3272.07
420.91	3339.94
421.10	3428.88
421.29	3351.65
421.48	3323.56
421.67	3332.92
421.86	3267.39
422.05	3215.90
422.24	3246.32
422.43	3267.39
422.61	3227.60
422.80	3375.05
422.99	3407.82
423.18	3363.35
423.37	3489.74
423.56	3351.65
423.75	3236.96
423.94	3351.65
424.13	3136.32
424.32	3185.47
424.50	3583.36
424.69	3510.80
424.88	3412.50
425.07	3262.71
425.26	3248.66
425.45	3510.80
425.64	3428.88
425.83	3368.03
426.01	3454.63
426.20	3684.00
426.39	3513.14
426.58	3426.54
426.77	3353.99
426.96	3489.74
427.15	3552.93
427.33	3602.08
427.52	3550.59
427.71	3578.68
427.90	3723.79
428.09	3571.66
428.28	3644.21
428.46	3627.83
428.65	3716.77
428.84	3691.02
429.03	3744.86
429.22	3529.53
429.40	3700.39
429.59	3763.58
429.78	3599.74
429.97	3555.27
430.16	3714.43
430.34	3749.54
430.53	3744.86
430.72	3779.97
430.91	3655.92
431.10	3875.93
431.28	3943.80
431.47	4009.34
431.66	3915.72
431.85	3936.78
432.03	4095.94
432.22	4145.09
432.41	4077.21
432.60	4114.66
432.79	4170.83
432.97	4177.86
433.16	4152.11
433.35	4079.55
433.54	4079.55
433.72	3974.23
433.91	4074.87
434.10	4212.96
434.28	4203.60
434.47	4386.16
434.66	4381.48
434.85	4351.06
435.03	4369.78
435.22	4292.54
435.41	4308.93
435.59	4423.61
435.78	4442.34
435.97	4355.74
436.16	4451.70
436.34	4458.72
436.53	4395.53
436.72	4688.09
436.90	4367.44
437.09	4486.81
437.28	4381.48
437.46	4486.81
437.65	4468.08
437.84	4580.43
438.02	4468.08
438.21	4596.81
438.40	4505.53
438.58	4692.77
438.77	4655.33
438.96	4636.60
439.14	4730.22
439.33	4929.17
439.52	4873.00
439.70	4938.53
439.89	4983.00
440.08	4943.21
440.26	4877.68
440.45	5032.15
440.63	5034.49
440.82	5041.51
441.01	5118.75
441.19	5235.78
441.38	5350.46
441.57	5364.51
441.75	5296.63
441.94	5479.19
442.12	5472.17
442.31	5425.36
442.50	5495.58
442.68	5469.83
442.87	5488.56
443.05	5547.07
443.24	5547.07
443.43	5652.39
443.61	5476.85
443.80	5694.52
443.98	5626.65
444.17	5268.55
444.35	5593.88
444.54	5802.19
444.73	5589.20
444.91	5565.79
445.10	5624.31
445.28	5621.97
445.47	5455.79
445.65	5619.63
445.84	5755.38
446.02	5809.21
446.21	5832.62
446.39	5640.69
446.58	5823.25
446.77	5980.07
446.95	5500.26
447.14	5708.57
447.32	5722.61
447.51	5867.72
447.69	5685.16
447.88	5781.12
448.06	5720.27
448.25	5682.82
448.43	5788.14
448.62	5717.93
448.80	5769.42
448.99	5846.66
449.17	5949.64
449.36	5928.58
449.54	5991.77
449.73	6061.99
449.91	6029.22
450.10	6162.63
450.28	6253.91
450.46	6193.06
450.65	6277.32
450.83	6223.48
451.02	6146.25
451.20	6300.72
451.39	6202.42
451.57	6289.02
451.76	6087.73
451.94	6319.45
452.13	6312.42
452.31	6200.08
452.49	6031.56
452.68	6373.28
452.86	6078.37
453.05	6274.98
453.23	6307.74
453.42	6218.80
453.60	6361.58
453.78	6567.54
453.97	6366.26
454.15	6403.71
454.34	6326.47
454.52	6539.46
454.70	6654.14
454.89	6665.85
455.07	6665.85
455.26	6628.40
455.44	6747.76
455.62	6740.74
455.81	6745.42
455.99	6738.40
456.17	6750.10
456.36	6679.89
456.54	6888.20
456.73	6782.87
456.91	7061.40
457.09	6977.14
457.28	7229.91
457.46	6787.55
457.64	7295.45
457.83	7061.40
458.01	6960.75
458.19	7246.30
458.38	7030.97
458.56	7325.88
458.74	7178.42
458.93	7119.91
459.11	7213.53
459.29	7269.70
459.48	7213.53
459.66	7398.43
459.84	7550.57
460.03	7480.35
460.21	7426.52
460.39	7337.58
460.57	7283.75
460.76	7297.79
460.94	7447.58
461.12	7536.52
461.31	7492.05
461.49	7478.01
461.67	7445.24
461.85	7712.07
462.04	7686.32
462.22	8035.06
462.40	7737.81
462.59	7623.12
462.77	7604.40
462.95	7714.41
463.13	7723.77
463.32	7840.79
463.50	7918.03
463.68	7983.57
463.86	7915.69
464.05	7721.43
464.23	7822.07
464.41	7798.66
464.59	7763.56
464.78	7955.48
464.96	7751.85
465.14	7892.29
465.32	8095.91
465.50	8208.26
465.69	8142.72
465.87	8042.08
466.05	8049.10
466.23	7906.33
466.41	8177.83
466.60	8098.25
466.78	7901.65
466.96	8168.47
467.14	8423.59
467.32	8238.69
467.51	8393.16
467.69	8205.92
467.87	8219.96
468.05	8425.93
468.23	8315.92
468.41	8280.82
468.60	8362.73
468.78	8463.38
468.96	8210.60
469.14	8351.03
469.32	8798.07
469.50	8250.39
469.69	8491.46
469.87	8709.13
470.05	8477.42
470.23	8613.17
470.41	8662.32
470.59	8702.11
470.77	8676.37
470.95	8840.20
471.14	8966.59
471.32	8669.34
471.50	9088.30
471.68	8795.73
471.86	9125.75
472.04	9071.92
472.22	9170.22
472.40	8926.80
472.58	9048.51
472.77	9376.19
472.95	9305.97
473.13	9556.41
473.31	9205.33
473.49	9312.99
473.67	9352.78
473.85	9577.47
474.03	9673.43
474.21	9635.99
474.39	9741.31
474.57	9703.86
474.75	9685.14
474.93	9863.02
475.12	9682.80
475.30	9703.86
475.48	9813.87
475.66	9980.04
475.84	10090.05
476.02	9949.62
476.20	9989.41
476.38	10228.14
476.56	10443.47
476.74	10272.61
476.92	10548.79
477.10	10553.48
477.28	10600.29
477.46	10640.08
477.64	10745.40
477.82	10834.34
478.00	11047.33
478.18	10981.79
478.36	11075.42
478.54	11349.26
478.72	11119.89
478.90	11133.93
479.08	11339.90
479.26	11550.54
479.44	11662.89
479.62	11590.33
479.80	11470.97
479.98	11634.80
480.16	11929.71
480.34	11838.43
480.52	11967.16
480.70	12365.05
480.88	12140.36
481.06	12189.51
481.24	12173.13
481.41	12507.82
481.59	12629.53
481.77	12746.56
481.95	12617.83
482.13	12901.03
482.31	13027.42
482.49	12896.35
482.67	13088.28
482.85	13521.27
483.03	13392.55
483.21	13380.84
483.39	13680.43
483.57	13598.51
483.74	13813.84
483.92	13973.00
484.10	13891.08
484.28	13996.40
484.46	14361.53
484.64	14579.20
484.82	14071.30
485.00	14260.88
485.18	14628.35
485.35	15075.39
485.53	14487.92
485.71	14471.53
485.89	15218.16
486.07	14707.93
486.25	15073.05
486.43	15264.97
486.61	15257.95
486.78	15604.35
486.96	15435.83
487.14	15882.88
487.32	15679.25
487.50	15941.39
487.68	16027.99
487.85	16283.11
488.03	16599.08
488.21	16627.17
488.39	16669.30
488.57	16837.81
488.75	16947.82
488.92	17123.36
489.10	17324.65
489.28	17109.32
489.46	17788.07
489.64	17493.16
489.81	17820.84
489.99	17923.82
490.17	17802.11
490.35	18113.41
490.53	18260.86
490.70	18225.75
490.88	18113.41
491.06	18782.80
491.24	18576.83
491.41	18469.17
491.59	18789.82
491.77	18806.20
491.95	18682.16
492.13	19337.51
492.30	19152.60
492.48	19459.21
492.66	19309.42
492.84	19770.51
493.01	19812.63
493.19	19744.76
493.37	19990.52
493.54	19889.87
493.72	19990.52
493.90	20180.10
494.08	20505.43
494.25	20512.46
494.43	20702.04
494.61	20739.49
494.79	21151.42
494.96	20877.58
495.14	21181.85
495.32	21179.51
495.49	21404.20
495.67	21270.79
495.85	21680.38
496.02	21563.36
496.20	22375.52
496.38	21942.52
496.55	21884.01
496.73	22551.06
496.91	22022.10
497.09	22356.80
497.26	22235.09
497.44	22157.85
497.62	22647.02
497.79	22855.33
497.97	22548.72
498.14	23054.28
498.32	23035.55
498.50	22855.33
498.67	23398.34
498.85	23187.69
499.03	23545.79
499.20	23435.78
499.38	23513.02
499.56	23756.44
499.73	23616.01
499.91	23749.42
500.08	24065.39
500.26	23814.95
500.44	24163.69
500.61	24034.96
500.79	24013.90
500.97	24116.88
501.14	24610.73
501.32	24952.45
501.49	24390.72
501.67	24767.55
501.84	24563.92
502.02	24781.59
502.20	25055.43
502.37	25362.04
502.55	25069.48
502.72	25226.29
502.90	25305.87
503.07	25387.79
503.25	25654.61
503.43	25479.07
503.60	25446.30
503.78	25680.36
503.95	25685.04
504.13	25783.34
504.30	25797.38
504.48	25837.17
504.65	26394.22
504.83	25937.82
505.01	26403.58
505.18	26181.23
505.36	26803.82
505.53	26363.79
505.71	26478.48
505.88	27103.40
506.06	26405.92
506.23	26827.22
506.41	26518.27
506.58	27028.51
506.76	26888.07
506.93	27026.17
507.11	27274.26
507.28	27061.27
507.46	27110.43
507.63	27360.86
507.81	27763.43
507.98	27262.56
508.16	27756.41
508.33	27510.66
508.50	27953.02
508.68	27976.42
508.85	27915.57
509.03	28163.67
509.20	28273.67
509.38	28299.42
509.55	28245.58
509.73	28393.04
509.90	28786.25
510.08	28133.24
510.25	28608.37
510.42	29083.50
510.60	28811.99
510.77	28975.83
510.95	29376.06
511.12	28814.34
511.30	29062.43
511.47	29134.99
511.64	29252.02
511.82	29640.54
511.99	28994.56
512.17	29226.27
512.34	29443.94
512.51	29675.65
512.69	29809.06
512.86	29626.50
513.04	29954.18
513.21	29888.64
513.38	30110.99
513.56	29937.79
513.73	30024.39
513.90	30492.50
514.08	30057.16
514.25	30286.53
514.43	30377.81
514.60	30155.46
514.77	30246.74
514.95	30714.85
515.12	30480.80
515.29	30871.67
515.47	31110.40
515.64	31140.83
515.81	30969.97
515.99	30930.18
516.16	31356.16
516.33	31079.97
516.51	31241.47
516.68	30976.99
516.85	31072.95
517.03	31117.42
517.20	31718.94
517.37	31468.50
517.54	31557.44
517.72	31505.95
517.89	31819.58
518.06	31653.40
518.24	31894.48
518.41	31370.20
518.58	31735.32
518.75	31758.73
518.93	32453.87
519.10	32027.89
519.27	32432.80
519.45	32025.55
519.62	32517.06
519.79	32615.37
519.96	32381.31
520.14	32959.42
520.31	32608.34
520.48	32762.82
520.65	32826.01
520.83	33081.13
521.00	33221.56
521.17	32987.51
521.34	33249.65
521.52	33139.65
521.69	32905.59
521.86	33453.28
522.03	33429.87
522.20	33163.05
522.38	33677.97
522.55	33874.57
522.72	33624.14
522.89	33956.49
523.07	33827.76
523.24	33727.12
523.41	33837.12
523.58	33860.53
523.75	34127.35
523.92	34235.02
524.10	34260.76
524.27	33832.44
524.44	34658.65
524.61	34277.15
524.78	34623.54
524.96	34623.54
525.13	34506.52
525.30	34855.26
525.47	34866.96
525.64	34686.74
525.81	34974.63
525.98	35016.75
526.16	34506.52
526.33	34677.38
526.50	34616.52
526.67	34513.54
526.84	34808.45
527.01	34869.30
527.18	34806.11
527.36	35171.23
527.53	35105.70
527.70	35545.72
527.87	35590.19
528.04	35555.08
528.21	35676.79
528.38	35604.23
528.55	35971.69
528.72	35768.07
528.89	35967.01
529.07	35864.03
529.24	35967.01
529.41	35454.44
529.58	35784.45
529.75	36065.31
529.92	35704.87
530.09	35974.03
530.26	36505.34
530.43	36147.23
530.60	36039.57
530.77	36077.02
530.94	36711.30
531.11	36444.48
531.28	36666.83
531.46	36109.78
531.63	36498.31
531.80	36814.29
531.97	36533.42
532.14	36563.85
532.31	36376.61
532.48	36708.96
532.65	37081.11
532.82	36617.68
532.99	36912.59
533.16	36851.73
533.33	36964.08
533.50	37235.58
533.67	37085.79
533.84	37123.24
534.01	37549.21
534.18	37146.64
534.35	37179.41
534.52	37254.31
534.69	37586.66
534.86	37291.76
535.03	37326.86
535.20	37642.84
535.37	38003.28
535.54	38281.80
535.71	37635.81
535.88	37706.03
536.05	37762.20
536.22	37890.93
536.38	37680.28
536.55	38050.09
536.72	38206.90
536.89	37879.23
537.06	38085.20
537.23	38377.76
537.40	38078.18
537.57	38230.31
537.74	38253.72
537.91	38710.12
538.08	38508.83
538.25	37926.04
538.42	38256.06
538.59	38686.71
538.75	38073.49
538.92	38352.02
539.09	38527.56
539.26	38588.41
539.43	38660.97
539.60	38756.93
539.77	38436.28
539.94	38747.57
540.11	38693.74
540.28	38698.42
540.44	38883.32
540.61	38595.43
540.78	38422.23
540.95	38675.01
541.12	38808.42
541.29	39164.18
541.46	38885.66
541.62	39061.20
541.79	39679.10
541.96	39047.16
542.13	39407.60
542.30	39358.45
542.47	39131.42
542.63	39056.52
542.80	39196.95
542.97	39976.35
543.14	40062.95
543.31	39765.70
543.48	39686.12
543.64	40044.23
543.81	40112.10
543.98	40208.06
544.15	39906.13
544.32	40224.45
544.48	40610.64
544.65	40514.67
544.82	40282.96
544.99	39423.98
545.16	40156.57
545.32	39901.45
545.49	40545.10
545.66	40435.10
545.83	40189.34
546.00	40556.80
546.16	40105.08
546.33	40479.57
546.50	39786.77
546.67	41045.97
546.83	40172.96
547.00	40580.21
547.17	40285.30
547.34	40514.67
547.50	40364.88
547.67	40945.33
547.84	40800.22
548.00	40802.56
548.17	41188.75
548.34	40755.75
548.51	41401.74
548.67	41095.13
548.84	41113.85
549.01	41041.29
549.18	41006.19
549.34	41422.80
549.51	41277.69
549.68	40966.40
549.84	40961.72
550.01	41422.80
550.18	41385.35
550.34	41486.00
550.51	41380.67
550.68	41275.35
550.84	40828.30
551.01	41247.26
551.18	41221.52
551.34	41420.46
551.51	41120.87
551.68	41832.39
551.84	42094.53
552.01	40910.22
552.18	41493.02
552.34	41289.39
552.51	41771.54
552.68	42199.86
552.84	42150.71
553.01	42375.40
553.18	41909.63
553.34	42209.22
553.51	41797.29
553.67	42029.00
553.84	42078.15
554.01	42253.69
554.17	42239.65
554.34	42021.98
554.51	41996.23
554.67	42139.00
554.84	41916.65
555.00	42244.33
555.17	42239.65
555.33	42284.12
555.50	42057.09
555.67	42572.00
555.83	42234.97
556.00	42279.44
556.16	42906.70
556.33	42515.83
556.50	42609.45
556.66	42576.69
556.83	41677.92
556.99	42728.82
557.16	42653.92
557.32	42869.25
557.49	42305.18
557.65	42054.75
557.82	42504.13
557.98	42174.11
558.15	42415.19
558.32	42763.93
558.48	42693.71
558.65	42895.00
558.81	42614.13
558.98	42831.80
559.14	43058.84
559.31	42897.34
559.47	42794.36
559.64	43143.09
559.80	43091.60
559.97	42976.92
560.13	42719.46
560.30	42761.59
560.46	42983.94
560.63	42792.01
560.79	43316.29
560.96	43136.07
561.12	43000.32
561.29	43372.47
561.45	42553.28
561.61	42920.74
561.78	43199.27
561.94	43119.69
562.11	43491.83
562.27	43133.73
562.44	43302.25
562.60	43243.74
562.77	43683.76
562.93	43068.20
563.10	43290.55
563.26	42955.85
563.42	43419.28
563.59	43335.02
563.75	42993.30
563.92	43430.98
564.08	43253.10
564.24	43690.78
564.41	43510.56
564.57	43466.09
564.74	43288.21
564.90	43571.41
565.07	43346.72
565.23	43679.08
565.39	43494.18
565.56	43538.65
565.72	43405.23
565.88	43171.18
566.05	43381.83
566.21	43372.47
566.38	43449.70
566.54	43400.55
566.70	43629.93
566.87	43426.30
567.03	43660.35
567.19	44179.95
567.36	43667.37
567.52	43196.93
567.68	43573.75
567.85	43494.18
568.01	43491.83
568.17	43318.64
568.34	43658.01
568.50	43585.46
568.66	43611.20
568.83	43407.58
568.99	43510.56
569.15	43702.48
569.32	43636.95
569.48	43117.35
569.64	44402.30
569.81	43800.79
569.97	43187.56
570.13	43639.29
570.30	43356.08
570.46	43339.70
570.62	43438.00
570.78	43880.36
570.95	43526.94
571.11	43775.04
571.27	43667.37
571.43	43391.19
571.60	43779.72
571.76	43875.68
571.92	43533.96
572.09	43758.66
572.25	43629.93
572.41	43662.69
572.57	43849.94
572.74	44472.52
572.90	44048.88
573.06	43634.61
573.22	43955.26
573.38	43676.74
573.55	43482.47
573.71	44051.22
573.87	43679.08
574.03	43454.39
574.20	44266.55
574.36	43863.98
574.52	43679.08
574.68	44184.63
574.84	44095.69
575.01	44088.67
575.17	43934.20
575.33	44222.08
575.49	43758.66
575.65	44322.72
575.82	44329.75
575.98	44107.40
576.14	44231.44
576.30	44093.35
576.46	43775.04
576.62	43693.12
576.79	43597.16
576.95	43992.71
577.11	44123.78
577.27	43915.47
577.43	43882.70
577.59	44140.16
577.75	43899.09
577.92	43634.61
578.08	43821.85
578.24	44163.57
578.40	43646.31
578.56	44339.11
578.72	43917.81
578.88	44186.97
579.04	44177.61
579.21	44102.71
579.37	44093.35
579.53	43826.53
579.69	43646.31
579.85	44348.47
580.01	44369.54
580.17	43964.62
580.33	44439.75
580.49	43999.73
580.65	44198.68
580.82	44334.43
580.98	44245.49
581.14	44076.97
581.30	44229.10
581.46	44367.20
581.62	44069.95
581.78	44182.29
581.94	44184.63
582.10	44381.24
582.26	44369.54
582.42	44261.87
582.58	44236.12
582.74	43936.54
582.90	44531.03
583.06	44329.75
583.22	44416.35
583.38	44083.99
583.54	44203.36
583.70	43894.41
583.86	43924.83
584.02	43728.23
584.18	44329.75
584.34	44240.81
584.50	44154.21
584.66	43915.47
584.82	44055.90
584.98	44748.70
585.14	44109.74
585.30	44137.82
585.46	44367.20
585.62	43688.44
585.78	44093.35
585.94	43821.85
586.10	43812.49
586.26	44547.42
586.42	44470.18
586.58	44245.49
586.74	44575.50
586.90	44554.44
587.06	44065.27
587.22	44685.51
587.38	44142.50
587.54	44531.03
587.70	44289.96
587.86	44266.55
588.02	44388.26
588.18	44549.76
588.34	44161.23
588.49	44041.86
588.65	44446.77
588.81	44318.04
588.97	43875.68
589.13	44121.44
589.29	44004.41
589.45	44404.64
589.61	44587.21
589.77	44741.68
589.93	44374.22
590.08	44252.51
590.24	44531.03
590.40	44446.77
