SpectraSuite Data File
++++++++++++++++++++++++++++++++++++
Date: Fri Oct 25 10:44:43 EDT 2013
User: price-jones
Dark Spectrum Present: No
Reference Spectrum Present: No
Number of Sampled Component Spectra: 1
Spectrometers: USB2+H05261
Integration Time (usec): 100000 (USB2+H05261)
Spectra Averaged: 1 (USB2+H05261)
Boxcar Smoothing: 0 (USB2+H05261)
Correct for Electrical Dark: No (USB2+H05261)
Strobe/Lamp Enabled: No (USB2+H05261)
Correct for Detector Non-linearity: No (USB2+H05261)
Correct for Stray Light: No (USB2+H05261)
Number of Pixels in Processed Spectrum: 2048
>>>>>Begin Processed Spectral Data<<<<<
365.73	182.56
365.92	182.56
366.12	182.56
366.32	70.22
366.52	7.02
366.72	74.90
366.91	37.45
367.11	56.17
367.31	0.00
367.51	37.45
367.70	102.98
367.90	56.17
368.10	60.85
368.30	39.79
368.49	0.00
368.69	0.00
368.89	100.64
369.09	35.11
369.28	79.58
369.48	49.15
369.68	102.98
369.87	44.47
370.07	56.17
370.27	128.73
370.47	149.79
370.66	353.42
370.86	447.04
371.06	348.74
371.25	360.44
371.45	428.32
371.65	456.40
371.84	376.83
372.04	458.74
372.24	491.51
372.44	458.74
372.63	456.40
372.83	468.11
373.03	496.19
373.22	517.26
373.42	444.70
373.62	507.90
373.81	543.00
374.01	503.22
374.21	507.90
374.40	517.26
374.60	547.69
374.79	519.60
374.99	486.83
375.19	601.52
375.38	608.54
375.58	545.34
375.78	582.79
375.97	613.22
376.17	592.16
376.37	545.34
376.56	603.86
376.76	568.75
376.95	564.07
377.15	580.45
377.35	589.82
377.54	653.01
377.74	528.96
377.93	629.60
378.13	601.52
378.33	638.97
378.52	674.07
378.72	716.20
378.91	685.78
379.11	521.94
379.31	564.07
379.50	697.48
379.70	653.01
379.89	587.47
380.09	681.10
380.28	713.86
380.48	657.69
380.68	517.26
380.87	676.41
381.07	636.63
381.26	784.08
381.46	617.90
381.65	657.69
381.85	720.88
382.04	697.48
382.24	706.84
382.43	704.50
382.63	615.56
382.83	669.39
383.02	653.01
383.22	744.29
383.41	720.88
383.61	667.05
383.80	746.63
384.00	784.08
384.19	709.18
384.39	744.29
384.58	737.27
384.78	739.61
384.97	737.27
385.17	744.29
385.36	767.70
385.56	741.95
385.75	727.91
385.95	744.29
386.14	772.38
386.34	765.36
386.53	802.80
386.72	746.63
386.92	894.08
387.11	784.08
387.31	851.96
387.50	812.17
387.70	784.08
387.89	840.25
388.09	784.08
388.28	868.34
388.48	821.53
388.67	873.02
388.86	844.93
389.06	917.49
389.25	908.13
389.45	861.32
389.64	908.13
389.84	903.45
390.03	884.72
390.22	915.15
390.42	945.58
390.61	976.00
390.81	938.55
391.00	903.45
391.19	968.98
391.39	940.90
391.58	1060.26
391.78	938.55
391.97	943.24
392.16	1011.11
392.36	1004.09
392.55	887.06
392.75	1057.92
392.94	919.83
393.13	945.58
393.33	910.47
393.52	976.00
393.71	1018.13
393.91	1027.50
394.10	1041.54
394.29	1039.20
394.49	1022.81
394.68	1076.65
394.88	1071.97
395.07	1142.18
395.26	1081.33
395.46	1128.14
395.65	1137.50
395.84	1149.20
396.04	1172.61
396.23	1109.41
396.42	1107.07
396.62	1053.24
396.81	1116.44
397.00	1137.50
397.19	1196.01
397.39	1212.40
397.58	1254.53
397.77	1172.61
397.97	1200.69
398.16	1338.79
398.35	1394.96
398.55	1212.40
398.74	1317.72
398.93	1387.94
399.12	1261.55
399.32	1331.76
399.51	1313.04
399.70	1306.02
399.90	1460.49
400.09	1380.92
400.28	1413.68
400.47	1310.70
400.67	1493.26
400.86	1444.11
401.05	1540.07
401.24	1462.83
401.44	1467.52
401.63	1490.92
401.82	1554.12
402.01	1563.48
402.21	1519.01
402.40	1521.35
402.59	1411.34
402.78	1579.86
402.97	1558.80
403.17	1682.85
403.36	1664.12
403.55	1582.20
403.74	1734.34
403.93	1776.47
404.13	1640.72
404.32	1739.02
404.51	1624.33
404.70	1650.08
404.89	1612.63
405.09	1739.02
405.28	1771.79
405.47	1739.02
405.66	1750.72
405.85	1783.49
406.05	1799.87
406.24	1792.85
406.43	1820.94
406.62	1724.97
406.81	1867.75
407.00	1858.39
407.20	1816.26
407.39	1849.02
407.58	1907.54
407.77	1977.75
407.96	2038.61
408.15	2022.22
408.34	1970.73
408.54	2022.22
408.73	1898.17
408.92	1998.82
409.11	2054.99
409.30	2087.76
409.49	1996.48
409.68	2050.31
409.87	2057.33
410.07	2132.23
410.26	2153.29
410.45	2139.25
410.64	2076.06
410.83	2085.42
411.02	2193.08
411.21	2385.01
411.40	2242.23
411.59	2370.96
411.78	2324.15
411.98	2256.28
412.17	2321.81
412.36	2366.28
412.55	2380.32
412.74	2466.92
412.93	2377.98
413.12	2345.22
413.31	2569.91
413.50	2546.50
413.69	2478.63
413.88	2532.46
414.07	2513.74
414.26	2579.27
414.45	2609.70
414.64	2724.38
414.83	2609.70
415.02	2724.38
415.22	2708.00
415.41	2698.64
415.60	2839.07
415.79	2799.28
415.98	2855.45
416.17	2836.73
416.36	2892.90
416.55	2883.54
416.74	3012.27
416.93	2944.39
417.12	2878.86
417.31	3042.70
417.50	2920.99
417.69	3152.70
417.88	3042.70
418.07	3068.44
418.26	3040.36
418.45	3059.08
418.64	3208.87
418.83	3183.13
419.02	3110.57
419.21	3255.69
419.39	3269.73
419.58	3363.35
419.77	3077.80
419.96	3274.41
420.15	3274.41
420.34	3342.28
420.53	3414.84
420.72	3475.70
420.91	3384.41
421.10	3391.44
421.29	3328.24
421.48	3274.41
421.67	3449.95
421.86	3438.25
422.05	3375.05
422.24	3454.63
422.43	3602.08
422.61	3510.80
422.80	3452.29
422.99	3480.38
423.18	3501.44
423.37	3471.01
423.56	3595.06
423.75	3552.93
423.94	3424.20
424.13	3344.63
424.32	3428.88
424.50	3590.38
424.69	3644.21
424.88	3630.17
425.07	3520.17
425.26	3651.24
425.45	3606.77
425.64	3625.49
425.83	3557.61
426.01	3581.02
426.20	3571.66
426.39	3644.21
426.58	3597.40
426.77	3585.70
426.96	3658.26
427.15	3765.92
427.33	3623.15
427.52	3707.41
427.71	3681.66
427.90	3777.62
428.09	3784.65
428.28	3763.58
428.46	3751.88
428.65	3845.50
428.84	3859.54
429.03	3749.54
429.22	3775.28
429.40	3733.15
429.59	3770.60
429.78	3653.58
429.97	3700.39
430.16	3765.92
430.34	3866.56
430.53	3878.27
430.72	3953.16
430.91	3929.76
431.10	3918.06
431.28	4126.36
431.47	4266.80
431.66	4182.54
431.85	3999.98
432.03	4236.37
432.22	4208.28
432.41	4114.66
432.60	4189.56
432.79	4138.07
432.97	4334.67
433.16	4245.73
433.35	4138.07
433.54	4245.73
433.72	4245.73
433.91	4100.62
434.10	4315.95
434.28	4285.52
434.47	4353.40
434.66	4379.14
434.85	4461.06
435.03	4306.59
435.22	4379.14
435.41	4638.94
435.59	4531.28
435.78	4535.96
435.97	4599.15
436.16	4601.49
436.34	4655.33
436.53	4554.68
436.72	4704.48
436.90	4760.65
437.09	4683.41
437.28	4517.23
437.46	4795.76
437.65	4674.05
437.84	4727.88
438.02	4727.88
438.21	4678.73
438.40	4587.45
438.58	4786.40
438.77	4997.04
438.96	4851.93
439.14	5032.15
439.33	5008.75
439.52	5069.60
439.70	5102.37
439.89	5090.67
440.08	5071.94
440.26	5149.18
440.45	5053.22
440.63	5277.91
440.82	5397.28
441.01	5490.90
441.19	5359.83
441.38	5439.40
441.57	5439.40
441.75	5488.56
441.94	5514.30
442.12	5540.05
442.31	5734.31
442.50	5696.86
442.68	5708.57
442.87	5685.16
443.05	5596.22
443.24	5816.23
443.43	5643.03
443.61	5760.06
443.80	6080.71
443.98	5895.81
444.17	5535.37
444.35	5806.87
444.54	5926.24
444.73	5912.19
444.91	5771.76
445.10	5940.28
445.28	5746.02
445.47	5734.31
445.65	5940.28
445.84	5825.59
446.02	5998.79
446.21	5811.55
446.39	5844.32
446.58	5975.39
446.77	5947.30
446.95	5769.42
447.14	5951.98
447.32	5977.73
447.51	5954.32
447.69	5940.28
447.88	5888.79
448.06	5909.85
448.25	6033.90
448.43	6064.33
448.62	6111.14
448.80	5961.34
448.99	6054.97
449.17	6033.90
449.36	6029.22
449.54	6258.59
449.73	6478.60
449.91	6328.81
450.10	6420.09
450.28	6443.49
450.46	6422.43
450.65	6459.88
450.83	6490.31
451.02	6384.98
451.20	6450.52
451.39	6408.39
451.57	6403.71
451.76	6441.15
451.94	6527.75
452.13	6485.62
452.31	6487.96
452.49	6499.67
452.68	6534.78
452.86	6546.48
453.05	6504.35
453.23	6682.23
453.42	6616.69
453.60	6616.69
453.78	6565.20
453.97	6593.29
454.15	6595.63
454.34	6637.76
454.52	6747.76
454.70	6918.62
454.89	6895.22
455.07	6731.38
455.26	7014.59
455.44	7059.06
455.62	6881.18
455.81	6860.11
455.99	6965.43
456.17	6832.02
456.36	7213.53
456.54	7192.47
456.73	7112.89
456.91	7157.36
457.09	7234.60
457.28	7377.37
457.46	7368.01
457.64	7236.94
457.83	7159.70
458.01	7028.63
458.19	7396.09
458.38	7176.08
458.56	7494.40
458.74	7454.61
458.93	7375.03
459.11	7452.27
459.29	7414.82
459.48	7517.80
459.66	7616.10
459.84	7517.80
460.03	7634.83
460.21	7742.49
460.39	7712.07
460.57	7573.97
460.76	7674.62
460.94	7836.11
461.12	8021.02
461.31	7765.90
461.49	7857.18
461.67	7632.49
461.85	7976.55
462.04	7681.64
462.22	8107.62
462.40	7957.82
462.59	7948.46
462.77	7922.71
462.95	7976.55
463.13	8175.49
463.32	8046.76
463.50	8116.98
463.68	8109.96
463.86	8063.15
464.05	7805.69
464.23	8098.25
464.41	8124.00
464.59	8058.46
464.78	8344.01
464.96	8201.24
465.14	8168.47
465.32	8243.37
465.50	8351.03
465.69	8479.76
465.87	8360.39
466.05	8456.36
466.23	8152.09
466.41	8341.67
466.60	8613.17
466.78	8346.35
466.96	8376.78
467.14	8386.14
467.32	8404.86
467.51	8542.96
467.69	8280.82
467.87	8512.53
468.05	8627.21
468.23	8449.33
468.41	8692.75
468.60	8664.66
468.78	8617.85
468.96	8669.34
469.14	8769.99
469.32	8753.60
469.50	8629.56
469.69	8791.05
469.87	8894.04
470.05	9041.49
470.23	9022.77
470.41	9039.15
470.59	9097.66
470.77	9069.58
470.95	9104.68
471.14	9245.12
471.32	8926.80
471.50	9263.84
471.68	9392.57
471.86	9320.01
472.04	9308.31
472.22	9603.22
472.40	9296.61
472.58	9460.45
472.77	9334.06
472.95	9610.24
473.13	9806.84
473.31	9549.39
473.49	9481.51
473.67	9830.25
473.85	9738.97
474.03	9874.72
474.21	9846.63
474.39	10026.86
474.57	9984.73
474.75	10120.48
474.93	10312.40
475.12	10094.73
475.30	10178.99
475.48	10167.29
475.66	10160.27
475.84	10178.99
476.02	10298.36
476.20	10324.10
476.38	10490.28
476.56	10750.08
476.74	10857.75
476.92	10836.68
477.10	10705.61
477.28	10771.15
477.46	11178.40
477.64	11089.46
477.82	11152.65
478.00	11531.82
478.18	11456.92
478.36	11463.94
478.54	11527.14
478.72	11651.19
478.90	11852.47
479.08	11854.81
479.26	12088.87
479.44	12187.17
479.62	11922.69
479.80	12046.74
479.98	12205.89
480.16	12339.30
480.34	12219.94
480.52	12358.03
480.70	12374.41
480.88	12615.49
481.06	12603.78
481.24	12732.51
481.41	12767.62
481.59	13083.59
481.77	13029.76
481.95	13158.49
482.13	13149.13
482.31	13128.06
482.49	13671.07
482.67	13710.86
482.85	13635.96
483.03	13703.84
483.21	14099.39
483.39	13825.54
483.57	14064.28
483.74	14052.58
483.92	14408.34
484.10	14010.45
484.28	14333.44
484.46	14820.27
484.64	14857.72
484.82	14452.81
485.00	14569.83
485.18	15239.23
485.35	15222.84
485.53	15026.24
485.71	14897.51
485.89	15201.78
486.07	15307.10
486.25	15508.39
486.43	15494.35
486.61	15819.68
486.78	15772.87
486.96	15824.36
487.14	15838.41
487.32	16287.79
487.50	16365.03
487.68	16673.98
487.85	16779.30
488.03	17013.35
488.21	17011.01
488.39	17231.02
488.57	17259.11
488.75	17242.73
488.92	17558.70
489.10	17776.37
489.28	17872.33
489.46	18256.18
489.64	18162.56
489.81	18143.83
489.99	18185.96
490.17	18333.42
490.35	18654.07
490.53	18761.73
490.70	19054.30
490.88	18869.40
491.06	19096.43
491.24	19068.34
491.41	18937.27
491.59	19145.58
491.77	19267.29
491.95	19529.43
492.13	19564.54
492.30	20018.60
492.48	19946.05
492.66	20027.96
492.84	19814.98
493.01	19999.88
493.19	20224.57
493.37	20730.12
493.54	20666.93
493.72	20662.25
493.90	20746.51
494.08	20945.45
494.25	21111.63
494.43	20996.95
494.61	21259.09
494.79	21542.29
494.96	21341.00
495.14	21516.54
495.32	21879.33
495.49	21586.76
495.67	21818.47
495.85	22010.40
496.02	22052.53
496.20	22394.25
496.38	22419.99
496.55	22537.02
496.73	23035.55
496.91	22553.40
497.09	22883.42
497.26	22998.10
497.44	23084.70
497.62	22965.34
497.79	23466.21
497.97	23140.88
498.14	23550.47
498.32	23571.54
498.50	23840.70
498.67	24156.67
498.85	23838.36
499.03	23896.87
499.20	24318.17
499.38	24238.59
499.56	24308.80
499.73	24245.61
499.91	24533.50
500.08	24496.05
500.26	24320.51
500.44	24734.78
500.61	24617.75
500.79	24606.05
500.97	24631.80
501.14	25254.38
501.32	25001.60
501.49	25029.69
501.67	25076.50
501.84	25500.14
502.02	25221.61
502.20	25656.95
502.37	25528.22
502.55	25883.98
502.72	25523.54
502.90	25607.80
503.07	25675.68
503.25	26141.44
503.43	25862.92
503.60	26092.29
503.78	26010.37
503.95	26057.18
504.13	26515.93
504.30	26408.26
504.48	26539.33
504.65	26766.37
504.83	26967.65
505.01	26941.91
505.18	26944.25
505.36	26965.31
505.53	27103.40
505.71	27260.22
505.88	27412.35
506.06	27147.87
506.23	27552.79
506.41	27501.29
506.58	27426.40
506.76	27655.77
506.93	27967.06
507.11	27784.50
507.28	27791.52
507.46	27901.53
507.63	27915.57
507.81	27688.54
507.98	28058.34
508.16	28039.62
508.33	28676.24
508.50	28191.75
508.68	28257.29
508.85	28840.08
509.03	28877.53
509.20	28861.15
509.38	28884.55
509.55	29020.30
509.73	29006.26
509.90	29074.13
510.08	29237.97
510.25	29387.77
510.42	29401.81
510.60	29385.43
510.77	29647.57
510.95	29940.13
511.12	28968.81
511.30	29724.80
511.47	29710.76
511.64	29736.51
511.82	29898.00
511.99	29900.34
512.17	30190.57
512.34	29958.86
512.51	30256.11
512.69	30441.01
512.86	30356.75
513.04	30551.01
513.21	30792.09
513.38	30965.29
513.56	30773.36
513.73	30384.83
513.90	30862.30
514.08	30948.90
514.25	30881.03
514.43	30890.39
514.60	30785.07
514.77	31124.44
514.95	31381.90
515.12	31337.43
515.29	31328.07
515.47	31744.69
515.64	31655.75
515.81	31438.08
515.99	31800.86
516.16	31683.83
516.33	31524.68
516.51	31559.78
516.68	31805.54
516.85	31328.07
517.03	31676.81
517.20	31740.00
517.37	32158.96
517.54	31768.09
517.72	32325.14
517.89	32327.48
518.06	32039.59
518.24	32247.90
518.41	32105.13
518.58	32315.78
518.75	32577.92
518.93	32671.54
519.10	32519.40
519.27	32755.80
519.45	32694.94
519.62	33024.96
519.79	33177.09
519.96	32870.48
520.14	33364.34
520.31	32840.06
520.48	33158.37
520.65	33343.27
520.83	33717.76
521.00	33464.98
521.17	33336.25
521.34	33666.27
521.52	33483.70
521.69	33579.67
521.86	33876.91
522.03	33825.42
522.20	34293.53
522.38	33860.53
522.55	33813.72
522.72	33799.68
522.89	34361.40
523.07	34370.77
523.24	34155.44
523.41	34380.13
523.58	34284.17
523.75	34946.54
523.92	34518.22
524.10	35119.74
524.27	35199.32
524.44	34759.30
524.61	35112.72
524.78	35089.31
524.96	35400.60
525.13	35358.47
525.30	35227.40
525.47	35367.84
525.64	35372.52
525.81	35730.62
525.98	35707.21
526.16	35349.11
526.33	35065.91
526.50	35749.34
526.67	34930.16
526.84	35093.99
527.01	35070.59
527.18	35587.85
527.36	36023.19
527.53	35768.07
527.70	36051.27
527.87	36233.83
528.04	36074.68
528.21	36446.82
528.38	35894.46
528.55	36479.59
528.72	36505.34
528.89	36362.56
529.07	36446.82
529.24	36250.22
529.41	36371.92
529.58	36362.56
529.75	36477.25
529.92	36987.49
530.09	36917.27
530.26	36456.18
530.43	36662.15
530.60	36479.59
530.77	36474.91
530.94	36884.50
531.11	36802.58
531.28	37102.17
531.46	37003.87
531.63	36950.04
531.80	37352.61
531.97	36896.20
532.14	37221.54
532.31	36919.61
532.48	36818.97
532.65	37247.29
532.82	37404.10
532.99	37415.80
533.16	37420.48
533.33	37816.04
533.50	37933.06
533.67	37565.60
533.84	37495.38
534.01	37668.58
534.18	37776.25
534.35	37731.78
534.52	38031.36
534.69	37928.38
534.86	37794.97
535.03	37904.98
535.20	38611.82
535.37	38911.41
535.54	38422.23
535.71	38689.06
535.88	37886.25
536.05	38085.20
536.22	38323.93
536.38	38543.94
536.55	38536.92
536.72	38244.35
536.89	38017.32
537.06	38291.16
537.23	38508.83
537.40	38660.97
537.57	38663.31
537.74	38904.38
537.91	39047.16
538.08	38983.96
538.25	38775.66
538.42	38714.80
538.59	39267.17
538.75	38822.47
538.92	38724.16
539.09	39255.46
539.26	39136.10
539.43	38820.13
539.60	39133.76
539.77	38941.83
539.94	38918.43
540.11	39084.61
540.28	39505.90
540.44	39143.12
540.61	39356.11
540.78	39075.24
540.95	39311.64
541.12	39414.62
541.29	39302.28
541.46	39189.93
541.62	39529.31
541.79	39761.02
541.96	39578.46
542.13	39824.22
542.30	39651.02
542.47	39526.97
542.63	39725.91
542.80	39814.85
542.97	40437.44
543.14	40294.66
543.31	40217.43
543.48	40439.78
543.64	40751.07
543.81	40385.94
543.98	40715.96
544.15	40301.68
544.32	40477.22
544.48	40950.01
544.65	40432.75
544.82	40912.56
544.99	40346.15
545.16	41064.70
545.32	40385.94
545.49	41137.26
545.66	41249.60
545.83	41221.52
546.00	41036.61
546.16	41350.24
546.33	41240.24
546.50	40980.44
546.67	41223.86
546.83	40297.00
547.00	40945.33
547.17	40999.16
547.34	40835.33
547.50	41022.57
547.67	41345.56
547.84	41109.17
548.00	41233.22
548.17	41883.89
548.34	41530.47
548.51	41823.03
548.67	41558.55
548.84	41539.83
549.01	41556.21
549.18	41265.99
549.34	41619.41
549.51	41813.67
549.68	41579.62
549.84	41752.82
550.01	41773.88
550.18	41490.68
550.34	41881.55
550.51	41928.36
550.68	41827.71
550.84	41677.92
551.01	42363.70
551.18	42295.82
551.34	41783.24
551.51	42277.10
551.68	42389.44
551.84	42043.04
552.01	41970.49
552.18	42309.86
552.34	41869.84
552.51	42223.26
552.68	41940.06
552.84	42380.08
553.01	42536.90
553.18	42122.62
553.34	42274.76
553.51	41972.83
553.67	42321.57
553.84	43143.09
554.01	42672.65
554.17	42478.38
554.34	42494.77
554.51	42632.86
554.67	42677.33
554.84	42349.65
555.00	42225.60
555.17	42410.51
555.33	43079.90
555.50	42983.94
555.67	42410.51
555.83	42635.20
556.00	42787.33
556.16	42759.25
556.33	42663.28
556.50	42646.90
556.66	42904.36
556.83	42466.68
556.99	43180.54
557.16	43234.38
557.32	42960.53
557.49	43093.94
557.65	43009.68
557.82	43058.84
557.98	43138.41
558.15	43178.20
558.32	43143.09
558.48	42679.67
558.65	42897.34
558.81	42967.55
558.98	43047.13
559.14	43206.29
559.31	43061.18
559.47	42913.72
559.64	43679.08
559.80	43538.65
559.97	43311.61
560.13	43072.88
560.30	43646.31
560.46	43447.36
560.63	43924.83
560.79	43459.07
560.96	43562.05
561.12	43234.38
561.29	43346.72
561.45	43063.52
561.61	43175.86
561.78	43744.61
561.94	43386.51
562.11	43131.39
562.27	43117.35
562.44	43386.51
562.60	43878.02
562.77	43662.69
562.93	43751.63
563.10	43803.13
563.26	42986.28
563.42	43559.71
563.59	43501.20
563.75	43641.63
563.92	43466.09
564.08	43929.51
564.24	43978.67
564.41	43576.09
564.57	43833.55
564.74	43903.77
564.90	43817.17
565.07	43332.68
565.23	43625.25
565.39	43573.75
565.56	43672.06
565.72	43519.92
565.88	43744.61
566.05	43545.67
566.21	43632.27
566.38	43768.02
566.54	43929.51
566.70	44147.18
566.87	44208.04
567.03	43873.34
567.19	44364.85
567.36	43742.27
567.52	43608.86
567.68	43856.96
567.85	43838.23
568.01	43842.92
568.17	43763.34
568.34	43892.07
568.50	43894.41
568.66	43622.90
568.83	44172.93
568.99	43803.13
569.15	44081.65
569.32	43531.62
569.48	43711.84
569.64	44163.57
569.81	44395.28
569.97	44292.30
570.13	44222.08
570.30	43695.46
570.46	43398.21
570.62	43768.02
570.78	43854.62
570.95	43840.57
571.11	44329.75
571.27	43882.70
571.43	44219.74
571.60	44081.65
571.76	43828.87
571.92	44119.10
572.09	43896.75
572.25	44217.40
572.41	43945.90
572.57	43931.86
572.74	44481.88
572.90	44154.21
573.06	44144.84
573.22	44435.07
573.38	44233.78
573.55	44369.54
573.71	44348.47
573.87	44069.95
574.03	43929.51
574.20	44083.99
574.36	44250.17
574.52	44226.76
574.68	44261.87
574.84	44023.14
575.01	43924.83
575.17	44311.02
575.33	43985.69
575.49	44055.90
575.65	44327.41
575.82	44559.12
575.98	43903.77
576.14	44804.88
576.30	44404.64
576.46	44432.73
576.62	44002.07
576.79	44327.41
576.95	44023.14
577.11	44130.80
577.27	44669.12
577.43	44179.95
577.59	44229.10
577.75	44271.23
577.92	44083.99
578.08	43840.57
578.24	43260.12
578.40	43849.94
578.56	44442.09
578.72	44222.08
578.88	44823.60
579.04	44392.94
579.21	44566.14
579.37	44350.81
579.53	44175.27
579.69	43959.94
579.85	44177.61
580.01	44694.87
580.17	44296.98
580.33	44619.97
580.49	44093.35
580.65	44659.76
580.82	44406.98
580.98	44116.76
581.14	44280.60
581.30	44552.10
581.46	44683.17
581.62	44388.26
581.78	44425.71
581.94	44528.69
582.10	43945.90
582.26	44399.96
582.42	44594.23
582.58	44531.03
582.74	44194.00
582.90	44769.77
583.06	44509.97
583.22	44746.36
583.38	44685.51
583.54	44739.34
583.70	44521.67
583.86	44149.53
584.02	43950.58
584.18	44610.61
584.34	44610.61
584.50	44336.77
584.66	44128.46
584.82	44261.87
584.98	44446.77
585.14	44516.99
585.30	44240.81
585.46	44694.87
585.62	44240.81
585.78	44254.85
585.94	43906.11
586.10	44186.97
586.26	44645.72
586.42	44406.98
586.58	44575.50
586.74	44807.22
586.90	44423.37
587.06	43995.05
587.22	44392.94
587.38	43950.58
587.54	44940.63
587.70	44729.98
587.86	44353.15
588.02	44271.23
588.18	44432.73
588.34	44505.29
588.49	44205.70
588.65	43789.08
588.81	43964.62
588.97	44034.84
589.13	44109.74
589.29	44091.01
589.45	44065.27
589.61	44619.97
589.77	44360.17
589.93	44795.51
590.08	44430.39
590.24	44524.01
