SpectraSuite Data File
++++++++++++++++++++++++++++++++++++
Date: Fri Oct 25 11:22:38 EDT 2013
User: price-jones
Dark Spectrum Present: No
Reference Spectrum Present: No
Number of Sampled Component Spectra: 1
Spectrometers: USB2+H05261
Integration Time (usec): 100000 (USB2+H05261)
Spectra Averaged: 1 (USB2+H05261)
Boxcar Smoothing: 0 (USB2+H05261)
Correct for Electrical Dark: No (USB2+H05261)
Strobe/Lamp Enabled: No (USB2+H05261)
Correct for Detector Non-linearity: No (USB2+H05261)
Correct for Stray Light: No (USB2+H05261)
Number of Pixels in Processed Spectrum: 2048
>>>>>Begin Processed Spectral Data<<<<<
365.73	248.10
365.92	248.10
366.12	248.10
366.32	70.22
366.52	168.52
366.72	126.39
366.91	98.30
367.11	117.03
367.31	133.41
367.51	149.79
367.70	140.43
367.90	187.24
368.10	177.88
368.30	74.90
368.49	177.88
368.69	95.96
368.89	124.05
369.09	126.39
369.28	121.71
369.48	124.05
369.68	135.75
369.87	205.97
370.07	152.13
370.27	290.23
370.47	308.95
370.66	629.60
370.86	596.84
371.06	601.52
371.25	671.73
371.45	613.22
371.65	763.01
371.84	638.97
372.04	702.16
372.24	702.16
372.44	791.10
372.63	828.55
372.83	751.31
373.03	758.33
373.22	734.93
373.42	805.14
373.62	786.42
373.81	800.46
374.01	800.46
374.21	816.85
374.40	840.25
374.60	779.40
374.79	779.40
374.99	849.61
375.19	882.38
375.38	847.27
375.58	842.59
375.78	889.40
375.97	908.13
376.17	770.04
376.37	828.55
376.56	863.66
376.76	826.21
376.95	891.74
377.15	835.57
377.35	898.77
377.54	877.70
377.74	891.74
377.93	884.72
378.13	814.51
378.33	924.51
378.52	908.13
378.72	1062.60
378.91	1018.13
379.11	976.00
379.31	917.49
379.50	957.28
379.70	1029.84
379.89	943.24
380.09	1008.77
380.28	1020.47
380.48	966.64
380.68	910.47
380.87	938.55
381.07	999.41
381.26	1006.43
381.46	957.28
381.65	945.58
381.85	1121.12
382.04	1043.88
382.24	929.19
382.43	1071.97
382.63	1029.84
382.83	1125.80
383.02	1093.03
383.22	1107.07
383.41	1090.69
383.61	1130.48
383.80	1203.04
384.00	1184.31
384.19	1088.35
384.39	1121.12
384.58	1174.95
384.78	1191.33
384.97	1165.59
385.17	1170.27
385.36	1151.54
385.56	1226.44
385.75	1151.54
385.95	1210.06
386.14	1193.67
386.34	1146.86
386.53	1205.38
386.72	1146.86
386.92	1275.59
387.11	1301.34
387.31	1247.51
387.50	1224.10
387.70	1221.76
387.89	1296.66
388.09	1277.93
388.28	1289.64
388.48	1299.00
388.67	1369.21
388.86	1315.38
389.06	1308.36
389.25	1376.24
389.45	1282.61
389.64	1334.11
389.84	1413.68
390.03	1350.49
390.22	1385.60
390.42	1383.26
390.61	1329.42
390.81	1352.83
391.00	1397.30
391.19	1406.66
391.39	1446.45
391.58	1376.24
391.78	1425.39
391.97	1401.98
392.16	1432.41
392.36	1544.75
392.55	1495.60
392.75	1542.41
392.94	1504.96
393.13	1448.79
393.33	1434.75
393.52	1540.07
393.71	1621.99
393.91	1533.05
394.10	1600.93
394.29	1568.16
394.49	1699.23
394.68	1645.40
394.88	1621.99
395.07	1600.93
395.26	1647.74
395.46	1753.06
395.65	1799.87
395.84	1827.96
396.04	1734.34
396.23	1692.21
396.42	1675.82
396.62	1727.32
396.81	1849.02
397.00	1895.83
397.19	1832.64
397.39	1750.72
397.58	1783.49
397.77	1781.15
397.97	1778.81
398.16	1856.04
398.35	1762.42
398.55	1902.86
398.74	2001.16
398.93	2008.18
399.12	1935.62
399.32	1856.04
399.51	1991.80
399.70	1930.94
399.90	2010.52
400.09	2008.18
400.28	2012.86
400.47	2022.22
400.67	2040.95
400.86	2012.86
401.05	2120.53
401.24	2010.52
401.44	2099.46
401.63	2129.89
401.82	2153.29
402.01	2054.99
402.21	2328.83
402.40	2172.02
402.59	2246.91
402.78	2209.47
402.97	2218.83
403.17	2272.66
403.36	2218.83
403.55	2408.41
403.74	2366.28
403.93	2354.58
404.13	2305.43
404.32	2354.58
404.51	2361.60
404.70	2424.80
404.89	2452.88
405.09	2480.97
405.28	2499.69
405.47	2490.33
405.66	2431.82
405.85	2626.08
406.05	2490.33
406.24	2576.93
406.43	2583.95
406.62	2590.97
406.81	2712.68
407.00	2616.72
407.20	2567.57
407.39	2658.85
407.58	2719.70
407.77	2663.53
407.96	2708.00
408.15	2832.05
408.34	2785.24
408.54	2801.62
408.73	2881.20
408.92	2890.56
409.11	2993.55
409.30	2944.39
409.49	3014.61
409.68	2874.18
409.87	2920.99
410.07	2892.90
410.26	2956.10
410.45	3045.04
410.64	3063.76
410.83	3138.66
411.02	3138.66
411.21	3190.15
411.40	3159.72
411.59	3281.43
411.78	3126.96
411.98	3260.37
412.17	3286.11
412.36	3375.05
412.55	3323.56
412.74	3431.23
412.93	3501.44
413.12	3199.51
413.31	3616.13
413.50	3452.29
413.69	3555.27
413.88	3566.98
414.07	3742.52
414.26	3632.51
414.45	3651.24
414.64	3721.45
414.83	3824.44
415.02	3658.26
415.22	3896.99
415.41	3983.59
415.60	3812.73
415.79	3929.76
415.98	4002.32
416.17	4009.34
416.36	3819.75
416.55	4081.89
416.74	4266.80
416.93	4086.58
417.12	4133.39
417.31	4023.38
417.50	4234.03
417.69	4299.56
417.88	4191.90
418.07	4369.78
418.26	4337.01
418.45	4290.20
418.64	4617.88
418.83	4458.72
419.02	4461.06
419.21	4524.26
419.39	4596.81
419.58	4545.32
419.77	4355.74
419.96	4624.90
420.15	4578.09
420.34	4535.96
420.53	4664.69
420.72	4777.03
420.91	4755.97
421.10	4786.40
421.29	4816.82
421.48	4739.58
421.67	4681.07
421.86	4868.31
422.05	4748.95
422.24	4739.58
422.43	4905.76
422.61	4795.76
422.80	5020.45
422.99	4880.02
423.18	5048.54
423.37	5125.77
423.56	5081.30
423.75	4873.00
423.94	4905.76
424.13	4526.60
424.32	4800.44
424.50	5085.98
424.69	5205.35
424.88	5107.05
425.07	4908.10
425.26	4926.83
425.45	5025.13
425.64	5013.43
425.83	4938.53
426.01	5207.69
426.20	4924.49
426.39	5053.22
426.58	4945.55
426.77	5036.83
426.96	5205.35
427.15	5046.20
427.33	5404.30
427.52	5348.12
427.71	5341.10
427.90	5100.03
428.09	5334.08
428.28	5495.58
428.46	5284.93
428.65	5362.17
428.84	5518.98
429.03	5411.32
429.22	5277.91
429.40	5432.38
429.59	5507.28
429.78	5408.98
429.97	5357.49
430.16	5666.44
430.34	5795.17
430.53	5724.95
430.72	5671.12
430.91	5715.59
431.10	5617.29
431.28	5830.27
431.47	5731.97
431.66	5912.19
431.85	5755.38
432.03	5804.53
432.22	6153.27
432.41	6202.42
432.60	6078.37
432.79	5921.56
432.97	6071.35
433.16	6127.52
433.35	6010.50
433.54	6069.01
433.72	6164.97
433.91	6218.80
434.10	6202.42
434.28	6019.86
434.47	6204.76
434.66	6225.82
434.85	6277.32
435.03	6223.48
435.22	6310.08
435.41	6471.58
435.59	6434.13
435.78	6408.39
435.97	6511.37
436.16	6485.62
436.34	6534.78
436.53	6459.88
436.72	6799.26
436.90	6567.54
437.09	6642.44
437.28	6553.50
437.46	6665.85
437.65	6616.69
437.84	6846.07
438.02	6883.52
438.21	6780.53
438.40	6761.81
438.58	7030.97
438.77	7096.50
438.96	6927.99
439.14	7283.75
439.33	7272.04
439.52	7330.56
439.70	7279.07
439.89	7499.08
440.08	7290.77
440.26	7417.16
440.45	7400.77
440.63	7566.95
440.82	7705.04
441.01	7662.91
441.19	7786.96
441.38	7906.33
441.57	7709.72
441.75	7871.22
441.94	8116.98
442.12	8016.33
442.31	8170.81
442.50	8149.75
442.68	8065.49
442.87	8039.74
443.05	8011.65
443.24	8170.81
443.43	8297.20
443.61	8294.86
443.80	8697.43
443.98	8327.63
444.17	7826.75
444.35	8332.31
444.54	8381.46
444.73	8353.37
444.91	8245.71
445.10	8407.20
445.28	8463.38
445.47	8336.99
445.65	8444.65
445.84	8468.06
446.02	8634.24
446.21	8383.80
446.39	8542.96
446.58	8552.32
446.77	8372.10
446.95	8430.61
447.14	8629.56
447.32	8706.79
447.51	8496.14
447.69	8659.98
447.88	8737.22
448.06	8671.68
448.25	8596.79
448.43	8798.07
448.62	8741.90
448.80	8617.85
448.99	8868.29
449.17	8720.84
449.36	8774.67
449.54	9029.79
449.73	9195.96
449.91	9039.15
450.10	9062.55
450.28	9184.26
450.46	9149.15
450.65	9163.20
450.83	9118.73
451.02	9142.13
451.20	9275.54
451.39	9097.66
451.57	9350.44
451.76	9142.13
451.94	9296.61
452.13	9350.44
452.31	9308.31
452.49	9214.69
452.68	9394.91
452.86	9427.68
453.05	9413.63
453.23	9415.98
453.42	9511.94
453.60	9486.19
453.78	9820.89
453.97	9518.96
454.15	9696.84
454.34	9476.83
454.52	9781.10
454.70	9851.31
454.89	9734.29
455.07	9923.87
455.26	9764.72
455.44	10012.81
455.62	9888.76
455.81	10078.35
455.99	9954.30
456.17	10113.45
456.36	10115.80
456.54	10150.90
456.73	10387.30
456.91	10689.23
457.09	10436.45
457.28	10560.50
457.46	10487.94
457.64	10670.50
457.83	10782.85
458.01	10466.88
458.19	10892.85
458.38	10642.42
458.56	10789.87
458.74	10611.99
458.93	10726.68
459.11	10705.61
459.29	10600.29
459.48	10902.22
459.66	10878.81
459.84	10984.13
460.03	11295.43
460.21	11117.54
460.39	11218.19
460.57	11138.61
460.76	11183.08
460.94	11094.14
461.12	10951.37
461.31	11311.81
461.49	11211.17
461.67	11206.48
461.85	11513.10
462.04	11307.13
462.22	11953.12
462.40	11620.76
462.59	11480.33
462.77	11674.59
462.95	11714.38
463.13	11646.51
463.32	11585.65
463.50	11709.70
463.68	11770.55
463.86	12002.27
464.05	11833.75
464.23	11983.54
464.41	12210.57
464.59	11761.19
464.78	12320.58
464.96	12156.74
465.14	11908.65
465.32	12009.29
465.50	12231.64
465.69	12175.47
465.87	12262.07
466.05	12292.49
466.23	12177.81
466.41	12416.54
466.60	12549.95
466.78	12421.22
466.96	12306.54
467.14	12334.62
467.32	12365.05
467.51	12681.02
467.69	12353.35
467.87	12381.43
468.05	12603.78
468.23	12264.41
468.41	12451.65
468.60	12786.35
468.78	12987.63
468.96	12493.78
469.14	12837.84
469.32	12971.25
469.50	12966.57
469.69	13247.43
469.87	13214.66
470.05	12865.92
470.23	13331.69
470.41	13205.30
470.59	13055.51
470.77	13125.72
470.95	13378.50
471.14	13769.37
471.32	13427.65
471.50	13771.71
471.68	13638.30
471.86	13877.04
472.04	13640.64
472.22	14267.91
472.40	13771.71
472.58	13912.14
472.77	13837.25
472.95	14228.12
473.13	14761.76
473.31	14143.86
473.49	14129.81
473.67	14097.05
473.85	14455.15
474.03	14448.13
474.21	14890.49
474.39	14904.53
474.57	14679.84
474.75	15164.33
474.93	15136.24
475.12	15014.54
475.30	15250.93
475.48	14979.43
475.66	15379.66
475.84	15410.09
476.02	15557.54
476.20	15407.75
476.38	15866.49
476.56	16093.52
476.74	16095.86
476.92	16243.32
477.10	16112.25
477.28	16259.70
477.46	16367.37
477.64	16184.80
477.82	16374.39
478.00	17043.78
478.18	16875.26
478.36	17039.10
478.54	17308.26
478.72	17415.93
478.90	17373.80
479.08	17657.00
479.26	18059.57
479.44	17874.67
479.62	17970.63
479.80	18157.88
479.98	18071.28
480.16	18773.44
480.34	18373.21
480.52	18806.20
480.70	18871.74
480.88	18625.98
481.06	18916.21
481.24	18958.34
481.41	19030.90
481.59	19566.88
481.77	19480.28
481.95	19606.67
482.13	19873.49
482.31	20009.24
482.49	20306.49
482.67	20252.66
482.85	20741.83
483.03	20718.42
483.21	20816.72
483.39	21050.78
483.57	20992.26
483.74	21577.40
483.92	21535.27
484.10	21181.85
484.28	21809.11
484.46	22242.11
484.64	22469.14
484.82	21837.20
485.00	22342.75
485.18	22766.39
485.35	23098.75
485.53	22951.29
485.71	23281.31
485.89	23562.17
486.07	23899.21
486.25	23522.38
486.43	23704.95
486.61	24151.99
486.78	24034.96
486.96	24545.20
487.14	24816.70
487.32	24863.51
487.50	25188.85
487.68	25275.45
487.85	25301.19
488.03	25895.69
488.21	25998.67
488.39	25923.77
488.57	26143.78
488.75	26473.80
488.92	26560.40
489.10	26717.22
489.28	27173.62
489.46	27236.81
489.64	27019.14
489.81	27812.59
489.99	28086.43
490.17	27835.99
490.35	28236.22
490.53	28077.07
490.70	28535.81
490.88	28643.48
491.06	28800.29
491.24	29619.48
491.41	29219.25
491.59	29722.46
491.77	29490.75
491.95	30122.69
492.13	29898.00
492.30	30239.72
492.48	30160.14
492.66	30363.77
492.84	30368.45
493.01	30789.75
493.19	30450.37
493.37	30965.29
493.54	30960.61
493.72	31786.82
493.90	31646.38
494.08	31847.67
494.25	32137.90
494.43	32301.73
494.61	32472.59
494.79	32559.19
494.96	32776.86
495.14	32975.81
495.32	33535.20
495.49	33593.71
495.67	33432.21
495.85	33914.36
496.02	33724.78
496.20	34319.28
496.38	34448.00
496.55	34274.80
496.73	35133.78
496.91	34529.92
497.09	35098.67
497.26	35040.16
497.44	35108.04
497.62	35728.28
497.79	36390.65
497.97	35660.40
498.14	36130.85
498.32	36397.67
498.50	36526.40
498.67	36598.96
498.85	36765.14
499.03	36655.13
499.20	36903.23
499.38	37013.23
499.56	37624.11
499.73	37205.16
499.91	37703.69
500.08	38164.78
500.26	37361.97
500.44	37851.14
500.61	37979.87
500.79	37645.18
500.97	38485.43
501.14	39182.91
501.32	38845.87
501.49	38473.73
501.67	39129.08
501.84	39552.71
502.02	38958.22
502.20	39199.29
502.37	39716.55
502.55	39707.19
502.72	39213.34
502.90	39955.29
503.07	39468.45
503.25	40084.01
503.43	40285.30
503.60	40273.60
503.78	40928.95
503.95	40252.53
504.13	40641.06
504.30	40964.06
504.48	40832.99
504.65	41102.15
504.83	41347.90
505.01	41780.90
505.18	41315.14
505.36	41549.19
505.53	41516.42
505.71	41724.73
505.88	42164.75
506.06	42452.64
506.23	42164.75
506.41	41961.12
506.58	42047.72
506.76	42593.07
506.93	42873.93
507.11	42728.82
507.28	42663.28
507.46	42852.87
507.63	43299.91
507.81	43349.06
507.98	42979.26
508.16	43388.85
508.33	43590.14
508.50	43557.37
508.68	44058.24
508.85	44158.89
509.03	44149.53
509.20	44421.03
509.38	44589.55
509.55	44622.31
509.73	44996.80
509.90	44746.36
510.08	44545.08
510.25	45102.12
510.42	45375.97
510.60	45106.80
510.77	45308.09
510.95	45736.41
511.12	45249.58
511.30	45272.98
511.47	45731.73
511.64	45710.66
511.82	45979.82
511.99	45893.22
512.17	46157.70
512.34	46525.17
512.51	46787.31
512.69	46380.06
512.86	46707.73
513.04	47208.61
513.21	46782.63
513.38	46745.18
513.56	47445.00
513.73	47131.37
513.90	47512.88
514.08	47114.98
514.25	47641.60
514.43	47405.21
514.60	47538.62
514.77	47838.21
514.95	48044.18
515.12	48062.90
515.29	48233.76
515.47	48287.59
515.64	48568.46
515.81	48215.04
515.99	48673.78
516.16	48727.61
516.33	48413.98
516.51	48739.32
516.68	48914.86
516.85	48460.79
517.03	49155.93
517.20	49298.70
517.37	48956.99
517.54	49530.42
517.72	49331.47
517.89	49254.23
518.06	49366.58
518.24	49673.19
518.41	49602.97
518.58	49804.26
518.75	49511.69
518.93	50113.21
519.10	49743.41
519.27	50401.10
519.45	49961.08
519.62	50155.34
519.79	50190.45
519.96	50314.50
520.14	50433.86
520.31	50405.78
520.48	50492.38
520.65	50686.64
520.83	51002.61
521.00	51023.68
521.17	50855.16
521.34	51103.26
521.52	51086.87
521.69	50974.53
521.86	51253.05
522.03	51250.71
522.20	51391.14
522.38	51990.32
522.55	51606.47
522.72	51414.55
522.89	51880.31
523.07	51760.95
523.24	51842.87
523.41	52074.58
523.58	51835.84
523.75	52041.81
523.92	52020.75
524.10	52378.85
524.27	52378.85
524.44	52325.02
524.61	52219.69
524.78	52643.33
524.96	52626.95
525.13	52753.33
525.30	52369.49
525.47	52823.55
525.64	52739.29
525.81	52676.10
525.98	52856.32
526.16	52973.34
526.33	52865.68
526.50	53181.65
526.67	52928.87
526.84	53291.66
527.01	52968.66
527.18	53090.37
527.36	53387.62
527.53	53408.68
527.70	53745.72
527.87	53446.13
528.04	53429.75
528.21	53638.06
528.38	53453.15
528.55	53640.40
528.72	53539.75
528.89	53539.75
529.07	53921.26
529.24	53602.95
529.41	54073.40
529.58	54068.72
529.75	53787.85
529.92	54012.54
530.09	54185.74
530.26	54312.13
530.43	54185.74
530.60	54045.31
530.77	54284.04
530.94	54267.66
531.11	54309.79
531.28	54424.48
531.46	54461.93
531.63	54468.95
531.80	54752.15
531.97	54550.87
532.14	54766.20
532.31	54784.92
532.48	54794.28
532.65	54838.75
532.82	54499.37
532.99	54920.67
533.16	54880.88
533.33	54742.79
533.50	55206.22
533.67	55004.93
533.84	55025.99
534.01	54939.39
534.18	55035.36
534.35	55477.72
534.52	55463.67
534.69	55386.44
534.86	55557.30
535.03	55152.38
535.20	55496.44
535.37	55519.85
535.54	55428.57
535.71	55353.67
535.88	55503.46
536.05	55552.62
536.22	55679.00
536.38	55880.29
536.55	55821.78
536.72	56037.11
536.89	55718.79
537.06	55662.62
537.23	55948.17
537.40	55875.61
537.57	56074.55
537.74	56051.15
537.91	56353.08
538.08	55887.31
538.25	55990.30
538.42	55973.91
538.59	56353.08
538.75	56060.51
538.92	56243.07
539.09	56404.57
539.26	56404.57
539.43	56224.35
539.60	56580.11
539.77	56266.48
539.94	56645.65
540.11	56495.85
540.28	56666.71
540.44	56252.44
540.61	56603.52
540.78	56575.43
540.95	56598.83
541.12	56477.13
541.29	56772.03
541.46	56872.68
541.62	56828.21
541.79	56830.55
541.96	56734.59
542.13	56779.06
542.30	56692.46
542.47	57113.75
542.63	57036.51
542.80	57076.30
542.97	57097.37
543.14	57415.68
543.31	57343.12
543.48	57378.23
543.64	57928.26
543.81	57649.74
543.98	57387.60
544.15	57488.24
544.32	57719.95
544.48	57801.87
544.65	57645.05
544.82	57537.39
544.99	57319.72
545.16	57619.31
545.32	57530.37
545.49	58085.07
545.66	57829.96
545.83	57862.72
546.00	57921.24
546.16	57839.32
546.33	57736.34
546.50	57616.97
546.67	57766.76
546.83	57748.04
547.00	58033.58
547.17	57848.68
547.34	57911.88
547.50	57946.98
547.67	58234.87
547.84	58092.10
548.00	58398.71
548.17	58532.12
548.34	58262.96
548.51	58482.97
548.67	58698.30
548.84	58408.07
549.01	58321.47
549.18	58443.18
549.34	58478.28
549.51	58096.78
549.68	58581.27
549.84	58672.55
550.01	58487.65
550.18	58440.84
550.34	58623.40
550.51	58555.52
550.68	58450.20
550.84	58630.42
551.01	58691.27
551.18	58534.46
551.34	58960.44
551.51	58777.87
551.68	58841.07
551.84	58773.19
552.01	58763.83
552.18	59138.32
552.34	58670.21
552.51	58941.71
552.68	58714.68
552.84	58653.82
553.01	59105.55
553.18	58920.65
553.34	59056.40
553.51	59171.08
553.67	59070.44
553.84	59222.58
554.01	59264.70
554.17	58995.54
554.34	59145.34
554.51	59255.34
554.67	59117.25
554.84	59180.45
555.00	59168.74
555.17	59173.42
555.33	59070.44
555.50	59077.46
555.67	59238.96
555.83	59114.91
556.00	59388.75
556.16	59540.89
556.33	59547.91
556.50	59379.39
556.66	59620.47
556.83	59292.79
556.99	59501.10
557.16	59693.02
557.32	59664.94
557.49	59941.12
557.65	59566.63
557.82	59576.00
557.98	59667.28
558.15	59671.96
558.32	59784.30
558.48	59576.00
558.65	59461.31
558.81	59718.77
558.98	59915.37
559.14	60041.76
559.31	59889.63
559.47	59819.41
559.64	59842.82
559.80	60104.96
559.97	59863.88
560.13	59849.84
560.30	59866.22
560.46	60133.04
560.63	59891.97
560.79	59880.27
560.96	60189.22
561.12	60184.54
561.29	60060.49
561.45	60198.58
561.61	60074.53
561.78	59913.03
561.94	60170.49
562.11	59955.16
562.27	60067.51
562.44	60018.36
562.60	60224.32
562.77	60116.66
562.93	60004.31
563.10	60430.29
563.26	60161.13
563.42	60327.31
563.59	60140.07
563.75	60210.28
563.92	60217.30
564.08	60217.30
564.24	60360.08
564.41	60236.03
564.57	60205.60
564.74	60065.17
564.90	60446.68
565.07	60369.44
565.23	60348.37
565.39	60432.63
565.56	60371.78
565.72	60376.46
565.88	60472.42
566.05	60310.92
566.21	60467.74
566.38	60364.76
566.54	60299.22
566.70	60458.38
566.87	60528.59
567.03	60203.26
567.19	60472.42
567.36	60647.96
567.52	60577.75
567.68	60472.42
567.85	60650.30
568.01	60549.66
568.17	60516.89
568.34	60502.85
568.50	60502.85
568.66	60329.65
568.83	60530.93
568.99	60669.03
569.15	60514.55
569.32	60662.00
569.48	60638.60
569.64	60842.23
569.81	60685.41
569.97	60563.70
570.13	60598.81
570.30	60542.64
570.46	60734.56
570.62	60856.27
570.78	60690.09
570.95	60746.26
571.11	60828.18
571.27	60825.84
571.43	60877.33
571.60	60856.27
571.76	60837.54
571.92	60732.22
572.09	60676.05
572.25	60732.22
572.41	60858.61
572.57	60811.80
572.74	60999.04
572.90	60692.43
573.06	60788.39
573.22	60594.13
573.38	60910.10
573.55	60952.23
573.71	60973.30
573.87	60851.59
574.03	60776.69
574.20	60942.87
574.36	60786.05
574.52	60566.04
574.68	60823.50
574.84	61097.34
575.01	60928.83
575.17	60804.78
575.33	60891.38
575.49	60879.67
575.65	61148.84
575.82	60994.36
575.98	60912.44
576.14	61003.72
576.30	61001.38
576.46	60835.20
576.62	60959.25
576.79	61073.94
576.95	60940.53
577.11	61064.58
577.27	60870.31
577.43	60856.27
577.59	60898.40
577.75	60924.14
577.92	60886.70
578.08	60931.17
578.24	60870.31
578.40	61095.00
578.56	61123.09
578.72	60867.97
578.88	61165.22
579.04	61256.50
579.21	61127.77
579.37	61137.13
579.53	61307.99
579.69	60727.54
579.85	61127.77
580.01	61010.74
580.17	61102.03
580.33	61155.86
580.49	61169.90
580.65	61071.60
580.82	60933.51
580.98	61029.47
581.14	60884.36
581.30	61071.60
581.46	61109.05
581.62	61420.34
581.78	61048.19
581.94	61104.37
582.10	61137.13
582.26	60975.64
582.42	61090.32
582.58	61219.05
582.74	60992.02
582.90	60968.61
583.06	61209.69
583.22	60846.91
583.38	61153.52
583.54	61085.64
583.70	61338.42
583.86	61249.48
584.02	61041.17
584.18	61165.22
584.34	61207.35
584.50	61322.04
584.66	60928.83
584.82	60996.70
584.98	61392.25
585.14	61062.24
585.30	60889.04
585.46	61120.75
585.62	61197.99
585.78	61233.10
585.94	60942.87
586.10	61057.56
586.26	61209.69
586.42	61216.71
586.58	61256.50
586.74	61195.65
586.90	61212.03
587.06	61219.05
587.22	61455.45
587.38	61373.53
587.54	61286.93
587.70	61455.45
587.86	61352.46
588.02	61247.14
588.18	61293.95
588.34	61160.54
588.49	61261.18
