SpectraSuite Data File
++++++++++++++++++++++++++++++++++++
Date: Fri Oct 25 11:23:34 EDT 2013
User: price-jones
Dark Spectrum Present: No
Reference Spectrum Present: No
Number of Sampled Component Spectra: 1
Spectrometers: USB2+H05261
Integration Time (usec): 100000 (USB2+H05261)
Spectra Averaged: 1 (USB2+H05261)
Boxcar Smoothing: 0 (USB2+H05261)
Correct for Electrical Dark: No (USB2+H05261)
Strobe/Lamp Enabled: No (USB2+H05261)
Correct for Detector Non-linearity: No (USB2+H05261)
Correct for Stray Light: No (USB2+H05261)
Number of Pixels in Processed Spectrum: 2048
>>>>>Begin Processed Spectral Data<<<<<
365.73	259.80
365.92	259.80
366.12	259.80
366.32	156.82
366.52	142.77
366.72	154.48
366.91	119.37
367.11	102.98
367.31	154.48
367.51	63.19
367.70	98.30
367.90	142.77
368.10	126.39
368.30	131.07
368.49	93.62
368.69	147.45
368.89	102.98
369.09	194.26
369.28	194.26
369.48	147.45
369.68	147.45
369.87	210.65
370.07	215.33
370.27	264.48
370.47	322.99
370.66	540.66
370.86	624.92
371.06	615.56
371.25	688.12
371.45	603.86
371.65	662.37
371.84	655.35
372.04	739.61
372.24	704.50
372.44	741.95
372.63	727.91
372.83	730.25
373.03	676.41
373.22	781.74
373.42	746.63
373.62	751.31
373.81	833.23
374.01	720.88
374.21	795.78
374.40	809.83
374.60	837.91
374.79	826.21
374.99	821.53
375.19	826.21
375.38	842.59
375.58	805.14
375.78	877.70
375.97	894.08
376.17	924.51
376.37	814.51
376.56	903.45
376.76	849.61
376.95	774.72
377.15	976.00
377.35	887.06
377.54	800.46
377.74	870.68
377.93	858.98
378.13	884.72
378.33	1001.75
378.52	903.45
378.72	1034.52
378.91	978.34
379.11	961.96
379.31	898.77
379.50	943.24
379.70	891.74
379.89	990.05
380.09	912.81
380.28	1015.79
380.48	952.60
380.68	894.08
380.87	971.32
381.07	1034.52
381.26	1109.41
381.46	1034.52
381.65	1060.26
381.85	1008.77
382.04	1102.39
382.24	1060.26
382.43	1093.03
382.63	1128.14
382.83	1046.22
383.02	1114.10
383.22	1086.01
383.41	1076.65
383.61	1081.33
383.80	1074.31
384.00	1128.14
384.19	1043.88
384.39	1076.65
384.58	1221.76
384.78	1174.95
384.97	1212.40
385.17	1090.69
385.36	1160.91
385.56	1135.16
385.75	1160.91
385.95	1118.78
386.14	1263.89
386.34	1179.63
386.53	1217.08
386.72	1256.87
386.92	1179.63
387.11	1181.97
387.31	1245.16
387.50	1263.89
387.70	1167.93
387.89	1299.00
388.09	1207.72
388.28	1350.49
388.48	1320.06
388.67	1327.08
388.86	1315.38
389.06	1324.74
389.25	1371.55
389.45	1329.42
389.64	1401.98
389.84	1362.19
390.03	1334.11
390.22	1425.39
390.42	1385.60
390.61	1432.41
390.81	1355.17
391.00	1434.75
391.19	1369.21
391.39	1493.26
391.58	1455.81
391.78	1474.54
391.97	1437.09
392.16	1465.18
392.36	1572.84
392.55	1509.65
392.75	1551.78
392.94	1523.69
393.13	1528.37
393.33	1523.69
393.52	1533.05
393.71	1523.69
393.91	1582.20
394.10	1554.12
394.29	1647.74
394.49	1652.42
394.68	1680.50
394.88	1558.80
395.07	1739.02
395.26	1652.42
395.46	1734.34
395.65	1626.67
395.84	1785.83
396.04	1820.94
396.23	1813.92
396.42	1748.38
396.62	1778.81
396.81	1802.21
397.00	1804.55
397.19	1783.49
397.39	1797.53
397.58	1792.85
397.77	1811.57
397.97	1916.90
398.16	1870.09
398.35	1940.30
398.55	1851.36
398.74	1860.73
398.93	2003.50
399.12	1935.62
399.32	1961.37
399.51	2003.50
399.70	2047.97
399.90	2008.18
400.09	2097.12
400.28	2043.29
400.47	1980.09
400.67	2057.33
400.86	2125.21
401.05	2092.44
401.24	2087.76
401.44	2143.93
401.63	2183.72
401.82	2127.55
402.01	2204.78
402.21	2047.97
402.40	2150.95
402.59	2225.85
402.78	2174.36
402.97	2202.44
403.17	2223.51
403.36	2333.51
403.55	2282.02
403.74	2408.41
403.93	2317.13
404.13	2431.82
404.32	2338.20
404.51	2347.56
404.70	2497.35
404.89	2312.45
405.09	2373.30
405.28	2487.99
405.47	2567.57
405.66	2562.89
405.85	2464.58
406.05	2565.23
406.24	2672.89
406.43	2595.65
406.62	2534.80
406.81	2775.88
407.00	2668.21
407.20	2649.49
407.39	2574.59
407.58	2698.64
407.77	2803.96
407.96	2871.84
408.15	2768.85
408.34	2752.47
408.54	2822.69
408.73	2810.98
408.92	2864.82
409.11	2977.16
409.30	2876.52
409.49	2967.80
409.68	2930.35
409.87	2876.52
410.07	2939.71
410.26	3049.72
410.45	2932.69
410.64	3028.65
410.83	3068.44
411.02	3145.68
411.21	3101.21
411.40	3131.64
411.59	3143.34
411.78	3131.64
411.98	3169.09
412.17	3304.84
412.36	3272.07
412.55	3227.60
412.74	3452.29
412.93	3412.50
413.12	3407.82
413.31	3562.30
413.50	3412.50
413.69	3382.07
413.88	3679.32
414.07	3606.77
414.26	3592.72
414.45	3609.11
414.64	3742.52
414.83	3782.31
415.02	3786.99
415.22	3852.52
415.41	3861.88
415.60	3859.54
415.79	3847.84
415.98	3934.44
416.17	4093.60
416.36	4053.81
416.55	3976.57
416.74	4093.60
416.93	4042.11
417.12	4114.66
417.31	4212.96
417.50	4205.94
417.69	4294.88
417.88	4224.67
418.07	4145.09
418.26	4252.75
418.45	4388.50
418.64	4388.50
418.83	4381.48
419.02	4386.16
419.21	4514.89
419.39	4559.36
419.58	4477.44
419.77	4489.15
419.96	4540.64
420.15	4528.94
420.34	4472.76
420.53	4568.73
420.72	4627.24
420.91	4592.13
421.10	4765.33
421.29	4727.88
421.48	4643.62
421.67	4861.29
421.86	4854.27
422.05	4800.44
422.24	4844.91
422.43	4858.95
422.61	4947.89
422.80	4959.60
422.99	4884.70
423.18	5020.45
423.37	5013.43
423.56	4950.23
423.75	4854.27
423.94	4784.06
424.13	4685.75
424.32	4720.86
424.50	5015.77
424.69	5050.88
424.88	5212.37
425.07	4968.96
425.26	4980.66
425.45	4968.96
425.64	5022.79
425.83	5125.77
426.01	4994.70
426.20	5186.63
426.39	4992.36
426.58	5013.43
426.77	5111.73
426.96	5004.07
427.15	5053.22
427.33	5137.48
427.52	5245.14
427.71	5317.70
427.90	5163.22
428.09	5483.88
428.28	5404.30
428.46	5336.42
428.65	5331.74
428.84	5696.86
429.03	5476.85
429.22	5359.83
429.40	5486.22
429.59	5462.81
429.78	5446.43
429.97	5235.78
430.16	5666.44
430.34	5654.73
430.53	5699.20
430.72	5645.37
430.91	5472.17
431.10	5636.01
431.28	5832.62
431.47	5867.72
431.66	5900.49
431.85	5867.72
432.03	5949.64
432.22	6040.92
432.41	5994.11
432.60	5921.56
432.79	5975.39
432.97	6066.67
433.16	6054.97
433.35	6076.03
433.54	6108.80
433.72	6169.65
433.91	6169.65
434.10	6244.55
434.28	6195.40
434.47	6120.50
434.66	6148.59
434.85	6216.46
435.03	6401.37
435.22	6361.58
435.41	6494.99
435.59	6324.13
435.78	6380.30
435.97	6555.84
436.16	6429.45
436.34	6457.54
436.53	6562.86
436.72	6792.23
436.90	6445.84
437.09	6665.85
437.28	6310.08
437.46	6640.10
437.65	6698.61
437.84	6750.10
438.02	6696.27
438.21	6869.47
438.40	6810.96
438.58	6846.07
438.77	7019.27
438.96	6878.83
439.14	7084.80
439.33	7192.47
439.52	7529.50
439.70	7290.77
439.89	7377.37
440.08	7433.54
440.26	7473.33
440.45	7349.28
440.63	7440.56
440.82	7590.36
441.01	7456.95
441.19	7723.77
441.38	7808.03
441.57	7742.49
441.75	7936.76
441.94	8060.80
442.12	7859.52
442.31	8140.38
442.50	8147.40
442.68	8016.33
442.87	8252.73
443.05	8215.28
443.24	8255.07
443.43	8173.15
443.61	8231.66
443.80	8482.10
443.98	7969.52
444.17	7878.24
444.35	8248.05
444.54	8269.11
444.73	8442.31
444.91	8341.67
445.10	8397.84
445.28	8292.52
445.47	8301.88
445.65	8533.59
445.84	8652.96
446.02	8575.72
446.21	8472.74
446.39	8339.33
446.58	8554.66
446.77	8458.70
446.95	8334.65
447.14	8575.72
447.32	8681.05
447.51	8528.91
447.69	8512.53
447.88	8535.93
448.06	8435.29
448.25	8554.66
448.43	8568.70
448.62	8622.53
448.80	8793.39
448.99	8648.28
449.17	8741.90
449.36	8779.35
449.54	8720.84
449.73	9004.04
449.91	8980.64
450.10	8903.40
450.28	9184.26
450.46	9245.12
450.65	9088.30
450.83	9006.38
451.02	8896.38
451.20	9221.71
451.39	9254.48
451.57	9132.77
451.76	9135.11
451.94	9331.72
452.13	9423.00
452.31	9474.49
452.49	9130.43
452.68	9352.78
452.86	9427.68
453.05	9530.66
453.23	9432.36
453.42	9427.68
453.60	9355.12
453.78	9823.23
453.97	9696.84
454.15	9586.83
454.34	9371.50
454.52	9619.60
454.70	9877.06
454.89	9851.31
455.07	9863.02
455.26	9846.63
455.44	9947.28
455.62	10141.54
455.81	9872.38
455.99	10167.29
456.17	10066.64
456.36	9877.06
456.54	10188.35
456.73	10260.91
456.91	10466.88
457.09	10471.56
457.28	10607.31
457.46	10391.98
457.64	10672.84
457.83	10670.50
458.01	10509.01
458.19	10462.19
458.38	10527.73
458.56	10726.68
458.74	10579.22
458.93	10651.78
459.11	10787.53
459.29	10736.04
459.48	10998.18
459.66	10972.43
459.84	11077.76
460.03	11002.86
460.21	10920.94
460.39	10995.84
460.57	11187.76
460.76	11309.47
460.94	11363.30
461.12	11115.20
461.31	11108.18
461.49	11293.08
461.67	11227.55
461.85	11690.98
462.04	11089.46
462.22	11587.99
462.40	11693.32
462.59	11625.44
462.77	11548.20
462.95	11641.82
463.13	11808.00
463.32	11824.39
463.50	11749.49
463.68	11934.39
463.86	12025.67
464.05	11707.36
464.23	11833.75
464.41	11927.37
464.59	11815.02
464.78	12194.19
464.96	12023.33
465.14	11906.31
465.32	12070.14
465.50	12159.08
465.69	12308.88
465.87	12091.21
466.05	12112.27
466.23	12002.27
466.41	12339.30
466.60	12510.16
466.78	12203.55
466.96	12353.35
467.14	12362.71
467.32	12477.40
467.51	12517.18
467.69	12451.65
467.87	12648.26
468.05	12638.89
468.23	12681.02
468.41	12514.84
468.60	12723.15
468.78	12641.23
468.96	12622.51
469.14	12840.18
469.32	12994.65
469.50	12641.23
469.69	13200.62
469.87	13261.48
470.05	13177.22
470.23	13291.90
470.41	13095.30
470.59	13191.26
470.77	13516.59
470.95	13181.90
471.14	13729.58
471.32	13149.13
471.50	13710.86
471.68	13638.30
471.86	13748.31
472.04	13570.43
472.22	14012.79
472.40	13771.71
472.58	13977.68
472.77	14026.83
472.95	14164.92
473.13	14572.18
473.31	14171.94
473.49	14087.68
473.67	14036.19
473.85	14380.25
474.03	14925.60
474.21	14656.43
474.39	14789.85
474.57	14920.92
474.75	15178.37
474.93	14876.44
475.12	15070.71
475.30	15213.48
475.48	15030.92
475.66	15286.04
475.84	15452.22
476.02	15506.05
476.20	15740.10
476.38	16006.92
476.56	15789.25
476.74	16004.58
476.92	16233.96
477.10	15990.54
477.28	16257.36
477.46	16147.36
477.64	16379.07
477.82	16716.11
478.00	17083.57
478.18	16748.87
478.36	16996.97
478.54	17280.18
478.72	17434.65
478.90	17277.83
479.08	17558.70
479.26	17921.48
479.44	18082.98
479.62	17987.02
479.80	18298.31
479.98	18375.55
480.16	18576.83
480.34	18321.71
480.52	18745.35
480.70	18604.92
480.88	18513.64
481.06	18801.52
481.24	18752.37
481.41	19122.18
481.59	19346.87
481.77	19609.01
481.95	19836.04
482.13	19620.71
482.31	19843.06
482.49	20362.66
482.67	20112.22
482.85	20830.77
483.03	20753.53
483.21	20858.85
483.39	21310.58
483.57	21219.30
483.74	21561.02
483.92	21418.24
484.10	21123.33
484.28	22188.28
484.46	21722.51
484.64	22501.91
484.82	22139.13
485.00	22483.19
485.18	22967.68
485.35	23330.46
485.53	23197.05
485.71	22991.08
485.89	23580.90
486.07	23185.35
486.25	23482.59
486.43	23726.01
486.61	24320.51
486.78	23971.77
486.96	24348.59
487.14	24449.24
487.32	25095.22
487.50	25242.68
487.68	24828.40
487.85	25509.50
488.03	25434.60
488.21	25762.28
488.39	26136.76
488.57	26452.73
488.75	26878.71
488.92	26656.36
489.10	26972.33
489.28	26946.59
489.46	27615.98
489.64	26927.86
489.81	27873.44
489.99	27969.40
490.17	27924.93
490.35	28435.17
490.53	28226.86
490.70	28854.12
490.88	28521.77
491.06	29266.06
491.24	29074.13
491.41	29132.65
491.59	29369.04
491.77	29315.21
491.95	29816.08
492.13	29839.49
492.30	29778.64
492.48	30244.40
492.66	30213.98
492.84	30487.82
493.01	31075.29
493.19	31098.70
493.37	31199.34
493.54	31473.18
493.72	31735.32
493.90	31606.59
494.08	31882.78
494.25	31894.48
494.43	32041.93
494.61	32364.93
494.79	32657.49
494.96	32795.59
495.14	33120.92
495.32	33020.28
495.49	33251.99
495.67	33544.56
495.85	33607.75
496.02	34185.86
496.20	34024.37
496.38	33930.75
496.55	34316.93
496.73	34972.28
496.91	34841.21
497.09	35129.10
497.26	35040.16
497.44	34988.67
497.62	35463.80
497.79	36086.38
497.97	35709.55
498.14	36364.90
498.32	36762.79
498.50	36233.83
498.67	36968.76
498.85	36472.57
499.03	37008.55
499.20	36699.60
499.38	37015.57
499.56	37380.70
499.73	37469.64
499.91	37198.13
500.08	37923.70
500.26	37703.69
500.44	37970.51
500.61	37965.83
500.79	37993.92
500.97	37916.68
501.14	38557.99
501.32	38359.04
501.49	38698.42
501.67	39250.78
501.84	39578.46
502.02	39009.71
502.20	39044.82
502.37	39400.58
502.55	39372.49
502.72	39704.85
502.90	39901.45
503.07	39496.54
503.25	40058.27
503.43	39828.90
503.60	40444.46
503.78	40243.17
503.95	40584.89
504.13	40306.37
504.30	40861.07
504.48	40531.06
504.65	41008.53
504.83	41631.11
505.01	41757.50
505.18	41443.87
505.36	42066.45
505.53	41450.89
505.71	42024.32
505.88	41996.23
506.06	41869.84
506.23	41944.74
506.41	41698.98
506.58	42370.72
506.76	42263.05
506.93	43009.68
507.11	42529.87
507.28	42895.00
507.46	42848.19
507.63	43026.07
507.81	43381.83
507.98	43086.92
508.16	43681.42
508.33	43157.14
508.50	44135.48
508.68	43533.96
508.85	44362.51
509.03	44168.25
509.20	44254.85
509.38	44610.61
509.55	44865.73
509.73	44634.02
509.90	45041.27
510.08	44877.43
510.25	44690.19
510.42	44650.40
510.60	45055.31
510.77	45539.80
510.95	45516.40
511.12	45270.64
511.30	45713.00
511.47	45750.45
511.64	45883.86
511.82	46361.33
511.99	45738.75
512.17	45935.35
512.34	46120.26
512.51	46719.43
512.69	46611.77
512.86	46155.36
513.04	46597.73
513.21	46618.79
513.38	46925.40
513.56	47370.10
513.73	47342.02
513.90	47320.95
514.08	47147.75
514.25	47564.37
514.43	48011.41
514.60	47526.92
514.77	47295.21
514.95	48009.07
515.12	47962.26
515.29	48165.88
515.47	48563.78
515.64	48200.99
515.81	48353.13
515.99	48619.95
516.16	48615.27
516.33	48261.85
516.51	48727.61
516.68	48746.34
516.85	48903.15
517.03	49167.63
517.20	49057.63
517.37	48701.87
517.54	48938.26
517.72	49387.64
517.89	49099.76
518.06	49193.38
518.24	49586.59
518.41	49308.07
518.58	49602.97
518.75	49186.36
518.93	49705.96
519.10	49441.48
519.27	49979.80
519.45	50106.19
519.62	50237.26
519.79	50155.34
519.96	50050.02
520.14	50277.05
520.31	50347.26
520.48	50279.39
520.65	50745.15
520.83	51145.39
521.00	51065.81
521.17	51028.36
521.34	51002.61
521.52	51121.98
521.69	51030.70
521.86	51157.09
522.03	51257.73
522.20	51608.81
522.38	51456.68
522.55	51564.34
522.72	51522.21
522.89	51419.23
523.07	51629.88
523.24	51906.06
523.41	51859.25
523.58	51613.49
523.75	52097.98
523.92	52083.94
524.10	52343.74
524.27	52069.90
524.44	52273.52
524.61	52409.28
524.78	52240.76
524.96	52594.18
525.13	52608.22
525.30	52708.86
525.47	52671.42
525.64	52891.43
525.81	52678.44
525.98	52828.23
526.16	52825.89
526.33	53123.14
526.50	53183.99
526.67	52985.05
526.84	53073.99
527.01	53006.11
527.18	52907.81
527.36	53104.41
527.53	53317.40
527.70	53523.37
527.87	53387.62
528.04	53268.25
528.21	53853.39
528.38	53780.83
528.55	53694.23
528.72	53338.47
528.89	53521.03
529.07	53652.10
529.24	53764.45
529.41	53928.28
529.58	53834.66
529.75	53745.72
529.92	53680.19
530.09	53909.56
530.26	54164.68
530.43	54206.81
530.60	54122.55
530.77	53970.41
530.94	54124.89
531.11	54045.31
531.28	54370.64
531.46	54328.52
531.63	54480.65
531.80	54401.07
531.97	54513.42
532.14	54710.02
532.31	54695.98
532.48	54777.90
532.65	55000.25
532.82	54719.38
532.99	54855.14
533.16	54796.62
533.33	54925.35
533.50	55150.04
533.67	54990.89
533.84	54614.06
534.01	55187.49
534.18	54962.80
534.35	55281.11
534.52	55271.75
534.69	55388.78
534.86	55253.03
535.03	55285.79
535.20	55482.40
535.37	55379.42
535.54	55606.45
535.71	55529.21
535.88	55552.62
536.05	55704.75
536.22	55625.17
536.38	55812.41
536.55	55992.64
536.72	55676.66
536.89	55599.43
537.06	55611.13
537.23	55744.54
537.40	55845.18
537.57	56119.02
537.74	55877.95
537.91	56149.45
538.08	56154.13
538.25	56039.45
538.42	56121.37
538.59	56229.03
538.75	55976.25
538.92	56266.48
539.09	56362.44
539.26	56222.01
539.43	56184.56
539.60	56409.25
539.77	56250.09
539.94	56512.23
540.11	56381.16
540.28	56743.95
540.44	56708.84
540.61	56598.83
540.78	56549.68
540.95	56631.60
541.12	56460.74
541.29	56711.18
541.46	56711.18
541.62	57106.73
541.79	56605.86
541.96	56603.52
542.13	56596.49
542.30	56814.16
542.47	57048.22
542.63	57099.71
542.80	57293.97
542.97	57256.53
543.14	57230.78
543.31	57277.59
543.48	57322.06
543.64	57591.22
543.81	57492.92
543.98	57513.98
544.15	57476.54
544.32	57490.58
544.48	57602.92
544.65	57420.36
544.82	57513.98
544.99	57525.69
545.16	57710.59
545.32	57602.92
545.49	57694.21
545.66	57979.75
545.83	57736.34
546.00	57834.64
546.16	58071.03
546.33	57553.77
546.50	57647.39
546.67	57836.98
546.83	57535.05
547.00	57895.49
547.17	57900.17
547.34	57975.07
547.50	58145.93
547.67	58244.23
547.84	58122.52
548.00	58197.42
548.17	58480.63
548.34	58248.91
548.51	58321.47
548.67	58361.26
548.84	58321.47
549.01	58138.91
549.18	58394.03
549.34	58595.31
549.51	58305.09
549.68	58433.81
549.84	58454.88
550.01	58478.28
550.18	58497.01
550.34	58534.46
550.51	58454.88
550.68	58728.72
550.84	58621.06
551.01	58700.64
551.18	58665.53
551.34	58721.70
551.51	58644.46
551.68	58738.08
551.84	58805.96
552.01	58693.61
552.18	58787.24
552.34	58616.38
552.51	58763.83
552.68	58562.54
552.84	58930.01
553.01	59133.63
553.18	59079.80
553.34	58990.86
553.51	58721.70
553.67	59063.42
553.84	59245.98
554.01	59159.38
554.17	59173.42
554.34	59070.44
554.51	59011.93
554.67	59346.62
554.84	59119.59
555.00	59302.15
555.17	59133.63
555.33	59267.05
555.50	59030.65
555.67	59084.48
555.83	59047.04
556.00	59002.56
556.16	59482.37
556.33	59456.63
556.50	59372.37
556.66	59482.37
556.83	59222.58
556.99	59515.14
557.16	59587.70
557.32	59639.19
557.49	59849.84
557.65	59311.52
557.82	59393.43
557.98	59419.18
558.15	59587.70
558.32	59400.46
558.48	59484.72
558.65	59723.45
558.81	59573.66
558.98	59863.88
559.14	59767.92
559.31	59681.32
559.47	59847.50
559.64	59990.27
559.80	60004.31
559.97	59763.24
560.13	59587.70
560.30	59632.17
560.46	59994.95
560.63	60067.51
560.79	59840.48
560.96	59955.16
561.12	59814.73
561.29	59962.18
561.45	60009.00
561.61	59917.71
561.78	59936.44
561.94	59934.10
562.11	60013.68
562.27	60168.15
562.44	60121.34
562.60	59985.59
562.77	60121.34
562.93	59812.39
563.10	60060.49
563.26	60104.96
563.42	60388.16
563.59	60236.03
563.75	60357.74
563.92	60221.98
564.08	59901.33
564.24	60144.75
564.41	60200.92
564.57	60360.08
564.74	60322.63
564.90	60212.62
565.07	60362.42
565.23	60266.45
565.39	60306.24
565.56	60285.18
565.72	60463.06
565.88	60411.57
566.05	60163.47
566.21	60336.67
566.38	60432.63
566.54	60205.60
566.70	60430.29
566.87	60425.61
567.03	60247.73
567.19	60552.00
567.36	60336.67
567.52	60343.69
567.68	60647.96
567.85	60554.34
568.01	60605.83
568.17	60294.54
568.34	60631.58
568.50	60608.17
568.66	60416.25
568.83	60512.21
568.99	60446.68
569.15	60556.68
569.32	60519.23
569.48	60514.55
569.64	60502.85
569.81	60823.50
569.97	60509.87
570.13	60540.30
570.30	60441.99
570.46	60643.28
570.62	60685.41
570.78	60652.64
570.95	60610.51
571.11	60860.95
571.27	60587.11
571.43	60563.70
571.60	60687.75
571.76	60764.99
571.92	60622.22
572.09	60657.32
572.25	60743.92
572.41	60811.80
572.57	60706.47
572.74	61006.06
572.90	60750.94
573.06	60746.26
573.22	60772.01
573.38	60643.28
573.55	61003.72
573.71	60910.10
573.87	61095.00
574.03	60699.45
574.20	60898.40
574.36	60608.17
574.52	60917.12
574.68	60715.84
574.84	60940.53
575.01	61137.13
575.17	61080.96
575.33	60683.07
575.49	60631.58
575.65	60720.52
575.82	61015.43
575.98	61024.79
576.14	60945.21
576.30	61003.72
576.46	60846.91
576.62	60732.22
576.79	60706.47
576.95	60725.20
577.11	60842.23
577.27	61076.28
577.43	61022.45
577.59	60807.12
577.75	60882.02
577.92	60830.52
578.08	60821.16
578.24	60732.22
578.40	61165.22
578.56	61055.21
578.72	61017.77
578.88	61148.84
579.04	61158.20
579.21	61020.11
579.37	61120.75
579.53	61078.62
579.69	60786.05
579.85	61022.45
580.01	61029.47
580.17	61017.77
580.33	61036.49
580.49	61137.13
580.65	61045.85
580.82	61148.84
580.98	61064.58
581.14	60872.65
581.30	60914.78
581.46	60994.36
581.62	61151.18
581.78	61080.96
581.94	61027.13
582.10	60893.72
582.26	61212.03
582.42	61212.03
582.58	61069.26
582.74	60931.17
582.90	60956.91
583.06	60942.87
583.22	60886.70
583.38	60931.17
583.54	61029.47
583.70	61059.90
583.86	60935.85
584.02	61111.39
584.18	61109.05
584.34	61071.60
584.50	61045.85
584.66	61010.74
584.82	60966.27
584.98	61216.71
585.14	61233.10
585.30	61102.03
585.46	61160.54
585.62	61331.40
585.78	61202.67
585.94	61186.28
586.10	61099.68
586.26	61296.29
586.42	61130.11
586.58	61347.78
586.74	61179.26
586.90	61059.90
587.06	61300.97
587.22	61087.98
587.38	61286.93
587.54	61322.04
587.70	61513.96
587.86	61055.21
588.02	61277.57
588.18	61565.45
588.34	61162.88
588.49	61092.66
