SpectraSuite Data File
++++++++++++++++++++++++++++++++++++
Date: Fri Oct 25 11:26:05 EDT 2013
User: price-jones
Dark Spectrum Present: No
Reference Spectrum Present: No
Number of Sampled Component Spectra: 1
Spectrometers: USB2+H05261
Integration Time (usec): 100000 (USB2+H05261)
Spectra Averaged: 1 (USB2+H05261)
Boxcar Smoothing: 0 (USB2+H05261)
Correct for Electrical Dark: No (USB2+H05261)
Strobe/Lamp Enabled: No (USB2+H05261)
Correct for Detector Non-linearity: No (USB2+H05261)
Correct for Stray Light: No (USB2+H05261)
Number of Pixels in Processed Spectrum: 2048
>>>>>Begin Processed Spectral Data<<<<<
365.73	203.63
365.92	203.63
366.12	203.63
366.32	145.11
366.52	161.50
366.72	152.13
366.91	114.69
367.11	110.01
367.31	112.35
367.51	95.96
367.70	95.96
367.90	119.37
368.10	126.39
368.30	133.41
368.49	166.18
368.69	147.45
368.89	79.58
369.09	184.90
369.28	152.13
369.48	133.41
369.68	147.45
369.87	191.92
370.07	163.84
370.27	224.69
370.47	372.15
370.66	561.73
370.86	657.69
371.06	594.50
371.25	617.90
371.45	660.03
371.65	634.29
371.84	655.35
372.04	697.48
372.24	767.70
372.44	781.74
372.63	702.16
372.83	718.54
373.03	854.30
373.22	725.57
373.42	760.67
373.62	798.12
373.81	777.06
374.01	795.78
374.21	868.34
374.40	751.31
374.60	837.91
374.79	830.89
374.99	805.14
375.19	866.00
375.38	812.17
375.58	889.40
375.78	854.30
375.97	856.64
376.17	891.74
376.37	870.68
376.56	903.45
376.76	866.00
376.95	842.59
377.15	891.74
377.35	877.70
377.54	1043.88
377.74	915.15
377.93	891.74
378.13	898.77
378.33	943.24
378.52	887.06
378.72	990.05
378.91	992.39
379.11	884.72
379.31	985.37
379.50	966.64
379.70	1043.88
379.89	964.30
380.09	952.60
380.28	999.41
380.48	894.08
380.68	983.02
380.87	1069.62
381.07	1053.24
381.26	1034.52
381.46	1050.90
381.65	1046.22
381.85	1029.84
382.04	1107.07
382.24	1053.24
382.43	1060.26
382.63	1036.86
382.83	1121.12
383.02	1095.37
383.22	1081.33
383.41	1078.99
383.61	1109.41
383.80	1188.99
384.00	1146.86
384.19	1128.14
384.39	1132.82
384.58	1128.14
384.78	1069.62
384.97	1219.42
385.17	1235.80
385.36	1196.01
385.56	1170.27
385.75	1170.27
385.95	1144.52
386.14	1284.95
386.34	1259.21
386.53	1240.48
386.72	1153.88
386.92	1245.16
387.11	1266.23
387.31	1317.72
387.50	1287.29
387.70	1315.38
387.89	1315.38
388.09	1282.61
388.28	1310.70
388.48	1277.93
388.67	1352.83
388.86	1355.17
389.06	1322.40
389.25	1310.70
389.45	1359.85
389.64	1411.34
389.84	1355.17
390.03	1310.70
390.22	1453.47
390.42	1416.02
390.61	1322.40
390.81	1359.85
391.00	1406.66
391.19	1437.09
391.39	1451.13
391.58	1345.81
391.78	1495.60
391.97	1455.81
392.16	1434.75
392.36	1535.39
392.55	1598.59
392.75	1572.84
392.94	1516.67
393.13	1547.09
393.33	1633.69
393.52	1547.09
393.71	1575.18
393.91	1526.03
394.10	1554.12
394.29	1629.01
394.49	1544.75
394.68	1638.38
394.88	1640.72
395.07	1724.97
395.26	1650.08
395.46	1762.42
395.65	1729.66
395.84	1717.95
396.04	1732.00
396.23	1783.49
396.42	1732.00
396.62	1753.06
396.81	1795.19
397.00	1767.10
397.19	1788.17
397.39	1717.95
397.58	1792.85
397.77	1849.02
397.97	1856.04
398.16	1947.33
398.35	1867.75
398.55	1846.68
398.74	1834.98
398.93	1961.37
399.12	1909.88
399.32	2003.50
399.51	1975.41
399.70	1956.69
399.90	1905.20
400.09	1961.37
400.28	2024.56
400.47	2043.29
400.67	2097.12
400.86	2087.76
401.05	2045.63
401.24	2136.91
401.44	2186.06
401.63	2197.76
401.82	2244.57
402.01	2188.40
402.21	2167.34
402.40	2190.74
402.59	2232.87
402.78	2186.06
402.97	2305.43
403.17	2289.04
403.36	2286.70
403.55	2202.44
403.74	2396.71
403.93	2347.56
404.13	2368.62
404.32	2436.50
404.51	2293.72
404.70	2389.69
404.89	2408.41
405.09	2476.29
405.28	2429.48
405.47	2509.05
405.66	2502.03
405.85	2495.01
406.05	2495.01
406.24	2485.65
406.43	2520.76
406.62	2586.29
406.81	2794.60
407.00	2588.63
407.20	2567.57
407.39	2672.89
407.58	2626.08
407.77	2869.50
407.96	2717.36
408.15	2782.90
408.34	2686.94
408.54	2796.94
408.73	2764.17
408.92	2855.45
409.11	2857.79
409.30	2967.80
409.49	2850.77
409.68	2789.92
409.87	2832.05
410.07	2984.18
410.26	2970.14
410.45	2960.78
410.64	3117.59
410.83	3091.85
411.02	3052.06
411.21	3192.49
411.40	3056.74
411.59	3159.72
411.78	3197.17
411.98	3122.27
412.17	3185.47
412.36	3435.91
412.55	3321.22
412.74	3353.99
412.93	3279.09
413.12	3241.64
413.31	3630.17
413.50	3454.63
413.69	3503.78
413.88	3667.62
414.07	3534.21
414.26	3496.76
414.45	3616.13
414.64	3740.18
414.83	3765.92
415.02	3829.12
415.22	3859.54
415.41	3772.94
415.60	3871.25
415.79	3864.22
415.98	3929.76
416.17	3992.95
416.36	3918.06
416.55	3997.64
416.74	4044.45
416.93	4117.00
417.12	4182.54
417.31	4105.30
417.50	4170.83
417.69	4306.59
417.88	4353.40
418.07	4100.62
418.26	4322.97
418.45	4325.31
418.64	4454.04
418.83	4428.29
419.02	4540.64
419.21	4409.57
419.39	4528.94
419.58	4477.44
419.77	4505.53
419.96	4624.90
420.15	4540.64
420.34	4608.51
420.53	4683.41
420.72	4751.29
420.91	4690.43
421.10	4709.16
421.29	4748.95
421.48	4606.17
421.67	4690.43
421.86	4739.58
422.05	4812.14
422.24	4849.59
422.43	4943.21
422.61	4835.55
422.80	4994.70
422.99	4709.16
423.18	4978.32
423.37	4952.57
423.56	5022.79
423.75	4910.44
423.94	4880.02
424.13	4685.75
424.32	4784.06
424.50	4863.63
424.69	5048.54
424.88	4882.36
425.07	4975.98
425.26	4884.70
425.45	4959.60
425.64	4968.96
425.83	5015.77
426.01	5011.09
426.20	5149.18
426.39	5078.96
426.58	4943.21
426.77	5074.28
426.96	5151.52
427.15	5153.86
427.33	5144.50
427.52	5149.18
427.71	5163.22
427.90	5188.97
428.09	5177.26
428.28	5383.23
428.46	5238.12
428.65	5158.54
428.84	5535.37
429.03	5416.00
429.22	5350.46
429.40	5542.39
429.59	5455.79
429.78	5331.74
429.97	5254.50
430.16	5579.84
430.34	5533.03
430.53	5706.23
430.72	5673.46
430.91	5596.22
431.10	5579.84
431.28	5738.99
431.47	5792.83
431.66	5830.27
431.85	5762.40
432.03	5909.85
432.22	6001.13
432.41	5832.62
432.60	5935.60
432.79	5858.36
432.97	5834.96
433.16	6029.22
433.35	6073.69
433.54	6111.14
433.72	6111.14
433.91	6099.44
434.10	6118.16
434.28	6155.61
434.47	6160.29
434.66	6256.25
434.85	6162.63
435.03	6312.42
435.22	6277.32
435.41	6600.31
435.59	6413.07
435.78	6399.02
435.97	6389.66
436.16	6518.39
436.34	6408.39
436.53	6403.71
436.72	6775.85
436.90	6576.91
437.09	6471.58
437.28	6476.26
437.46	6513.71
437.65	6548.82
437.84	6567.54
438.02	6635.42
438.21	6848.41
438.40	6637.76
438.58	6848.41
438.77	7012.24
438.96	6965.43
439.14	7101.19
439.33	7255.66
439.52	7265.02
439.70	7117.57
439.89	7133.95
440.08	7194.81
440.26	7454.61
440.45	7398.43
440.63	7358.64
440.82	7538.87
441.01	7499.08
441.19	7585.68
441.38	7602.06
441.57	7894.63
441.75	7763.56
441.94	8058.46
442.12	7974.21
442.31	8056.12
442.50	7929.74
442.68	7744.83
442.87	7978.89
443.05	8241.03
443.24	8248.05
443.43	8051.44
443.61	7913.35
443.80	8205.92
443.98	7906.33
444.17	7829.09
444.35	8241.03
444.54	8198.90
444.73	8351.03
444.91	8215.28
445.10	8332.31
445.28	8353.37
445.47	8109.96
445.65	8348.69
445.84	8533.59
446.02	8353.37
446.21	8465.72
446.39	8250.39
446.58	8718.50
446.77	8554.66
446.95	8170.81
447.14	8315.92
447.32	8538.27
447.51	8535.93
447.69	8304.22
447.88	8313.58
448.06	8573.38
448.25	8491.46
448.43	8760.63
448.62	8582.74
448.80	8468.06
448.99	8711.47
449.17	8732.54
449.36	8613.17
449.54	8779.35
449.73	8858.93
449.91	9114.05
450.10	8994.68
450.28	9081.28
450.46	9128.09
450.65	9177.24
450.83	9123.41
451.02	9025.11
451.20	8950.21
451.39	9139.79
451.57	9100.00
451.76	8997.02
451.94	9224.05
452.13	9355.12
452.31	9217.03
452.49	9057.87
452.68	9455.76
452.86	9139.79
453.05	9514.28
453.23	9366.82
453.42	9378.53
453.60	9296.61
453.78	9633.64
453.97	9430.02
454.15	9469.81
454.34	9624.28
454.52	9682.80
454.70	9795.14
454.89	9731.95
455.07	9863.02
455.26	9710.88
455.44	9760.03
455.62	9867.70
455.81	9900.47
455.99	10108.77
456.17	10071.33
456.36	9966.00
456.54	10005.79
456.73	10054.94
456.91	10373.25
457.09	10424.75
457.28	10532.41
457.46	10204.74
457.64	10434.11
457.83	10249.21
458.01	10497.30
458.19	10672.84
458.38	10616.67
458.56	10670.50
458.74	10679.86
458.93	10651.78
459.11	10768.80
459.29	10621.35
459.48	10656.46
459.66	10675.18
459.84	10885.83
460.03	10881.15
460.21	10942.00
460.39	10897.53
460.57	10920.94
460.76	10972.43
460.94	11227.55
461.12	11080.10
461.31	11145.63
461.49	11192.44
461.67	11239.25
461.85	11410.11
462.04	11344.58
462.22	11939.07
462.40	11599.70
462.59	11403.09
462.77	11243.93
462.95	11442.88
463.13	11398.41
463.32	11651.19
463.50	11878.22
463.68	11845.45
463.86	11838.43
464.05	11751.83
464.23	11557.57
464.41	11838.43
464.59	11688.64
464.78	12138.02
464.96	12116.95
465.14	12159.08
465.32	12098.23
465.50	12156.74
465.69	12084.19
465.87	12035.03
466.05	12039.72
466.23	12159.08
466.41	11918.01
466.60	12451.65
466.78	12196.53
466.96	12025.67
467.14	12159.08
467.32	12341.64
467.51	12524.21
467.69	12025.67
467.87	12255.04
468.05	12414.20
468.23	12505.48
468.41	12711.45
468.60	12524.21
468.78	12634.21
468.96	12596.76
469.14	12910.40
469.32	13046.15
469.50	12608.47
469.69	12989.97
469.87	13121.04
470.05	12940.82
470.23	13055.51
470.41	12842.52
470.59	13425.31
470.77	13121.04
470.95	13217.01
471.14	13460.42
471.32	13139.77
471.50	13586.81
471.68	13469.78
471.86	13511.91
472.04	13832.57
472.22	14080.66
472.40	13678.09
472.58	13802.14
472.77	13743.63
472.95	14047.90
473.13	14567.49
473.31	14068.96
473.49	14424.72
473.67	14272.59
473.85	14167.26
474.03	14764.10
474.21	14459.83
474.39	14558.13
474.57	14752.40
474.75	14771.12
474.93	15077.73
475.12	14904.53
475.30	14965.39
475.48	15098.80
475.66	15103.48
475.84	15101.14
476.02	15403.07
476.20	15384.34
476.38	15318.81
476.56	15702.65
476.74	15852.45
476.92	15901.60
477.10	15826.70
477.28	16027.99
477.46	15927.35
477.64	16402.47
477.82	16554.61
478.00	17111.66
478.18	16854.20
478.36	17153.79
478.54	16886.97
478.72	16968.88
478.90	17184.21
479.08	17439.33
479.26	17626.57
479.44	17755.30
479.62	17680.41
479.80	17687.43
479.98	18036.17
480.16	18307.67
480.34	18068.94
480.52	18408.31
480.70	18424.70
480.88	18181.28
481.06	18754.71
481.24	18647.05
481.41	18857.70
481.59	19353.89
481.77	19555.18
481.95	19550.49
482.13	19667.52
482.31	19487.30
482.49	19992.86
482.67	20123.93
482.85	20372.02
483.03	20343.94
483.21	21067.16
483.39	20690.34
483.57	20592.03
483.74	21429.94
483.92	21006.31
484.10	20996.95
484.28	21682.72
484.46	21795.07
484.64	22370.84
484.82	22136.79
485.00	22473.82
485.18	22663.41
485.35	22654.05
485.53	22761.71
485.71	23229.82
485.89	23304.71
486.07	23304.71
486.25	23365.57
486.43	23440.47
486.61	23864.10
486.78	23836.02
486.96	23953.04
487.14	24570.94
487.32	24638.82
487.50	24772.23
487.68	24851.81
487.85	25287.15
488.03	25205.23
488.21	26033.78
488.39	25427.58
488.57	26113.36
488.75	25993.99
488.92	26417.63
489.10	26733.60
489.28	26998.08
489.46	26810.84
489.64	26979.36
489.81	27470.87
489.99	27449.80
490.17	27419.38
490.35	27889.82
490.53	27761.09
490.70	28191.75
490.88	28154.30
491.06	28933.70
491.24	28739.44
491.41	28524.11
491.59	29654.59
491.77	29029.66
491.95	29415.85
492.13	29670.97
492.30	29890.98
492.48	29869.92
492.66	29818.42
492.84	30160.14
493.01	30422.28
493.19	30824.86
493.37	30684.42
493.54	31150.19
493.72	31428.71
493.90	31466.16
494.08	31704.90
494.25	32163.64
494.43	32135.56
494.61	32128.53
494.79	32505.36
494.96	32680.90
495.14	32535.79
495.32	32982.83
495.49	32893.89
495.67	33301.14
495.85	33467.32
496.02	33497.75
496.20	34132.03
496.38	34101.61
496.55	34075.86
496.73	34663.33
496.91	34352.04
497.09	34803.77
497.26	35140.80
497.44	35019.10
497.62	35204.00
497.79	35531.67
497.97	35360.81
498.14	36004.46
498.32	36191.70
498.50	35758.70
498.67	36582.57
498.85	36271.28
499.03	36893.86
499.20	36685.56
499.38	36596.62
499.56	36947.70
499.73	37109.19
499.91	36893.86
500.08	37834.76
500.26	37301.12
500.44	37380.70
500.61	37853.48
500.79	37886.25
500.97	37818.38
501.14	38525.22
501.32	38384.79
501.49	38504.15
501.67	38326.27
501.84	39152.48
502.02	39136.10
502.20	38445.64
502.37	38932.47
502.55	39526.97
502.72	39639.31
502.90	39299.94
503.07	39412.28
503.25	39611.23
503.43	39784.43
503.60	40060.61
503.78	40194.02
503.95	40280.62
504.13	40594.25
504.30	40638.72
504.48	40383.60
504.65	41045.97
504.83	40900.86
505.01	41029.59
505.18	41141.94
505.36	41326.84
505.53	41085.76
505.71	41691.96
505.88	41600.68
506.06	41542.17
506.23	42356.67
506.41	41581.96
506.58	42213.90
506.76	42057.09
506.93	42532.22
507.11	42101.56
507.28	42234.97
507.46	42550.94
507.63	42557.96
507.81	42934.79
507.98	42459.66
508.16	43372.47
508.33	43817.17
508.50	43407.58
508.68	43976.33
508.85	43896.75
509.03	43758.66
509.20	43770.36
509.38	44261.87
509.55	43995.05
509.73	44715.93
509.90	44112.08
510.08	44409.32
510.25	44641.04
510.42	44512.31
510.60	44865.73
510.77	45104.46
510.95	45361.92
511.12	45287.03
511.30	45090.42
511.47	45198.09
511.64	45553.85
511.82	46059.40
511.99	45542.14
512.17	46176.43
512.34	45832.37
512.51	46436.23
512.69	46251.33
512.86	46326.22
513.04	46796.67
513.21	46532.19
513.38	46557.94
513.56	46459.63
513.73	46717.09
513.90	46745.18
514.08	46976.89
514.25	47047.11
514.43	46934.76
514.60	47426.28
514.77	47098.60
514.95	47452.02
515.12	47339.68
515.29	47679.05
515.47	47885.02
515.64	47739.91
515.81	47316.27
515.99	48212.70
516.16	48584.84
516.33	47821.83
516.51	48800.17
516.68	48362.49
516.85	48175.25
517.03	48451.43
517.20	48940.60
517.37	48563.78
517.54	48570.80
517.72	48727.61
517.89	49076.35
518.06	48978.05
518.24	48961.67
518.41	49109.12
518.58	49333.81
518.75	48877.41
518.93	49279.98
519.10	49141.89
519.27	49794.90
519.45	49588.93
519.62	49982.14
519.79	49822.98
519.96	49827.66
520.14	50138.96
520.31	49937.67
520.48	50050.02
520.65	50665.58
520.83	50312.16
521.00	50857.50
521.17	50562.59
521.34	50365.99
521.52	50871.54
521.69	51004.95
521.86	50813.03
522.03	51065.81
522.20	51098.58
522.38	51136.02
522.55	50880.91
522.72	50911.33
522.89	51344.33
523.07	51606.47
523.24	51136.02
523.41	51634.56
523.58	51222.62
523.75	51667.33
523.92	51686.05
524.10	51903.72
524.27	51758.61
524.44	52037.13
524.61	51873.29
524.78	51952.87
524.96	51971.60
525.13	51945.85
525.30	52083.94
525.47	52226.71
525.64	52402.25
525.81	52505.24
525.98	52718.23
526.16	52584.82
526.33	52645.67
526.50	52804.83
526.67	52926.53
526.84	52673.76
527.01	52753.33
527.18	53057.60
527.36	52818.87
527.53	52776.74
527.70	53160.59
527.87	53139.52
528.04	52788.44
528.21	53361.87
528.38	53223.78
528.55	53464.86
528.72	53205.06
528.89	53282.30
529.07	53251.87
529.24	53446.13
529.41	53556.14
529.58	53588.91
529.75	53734.02
529.92	53783.17
530.09	53729.34
530.26	54082.76
530.43	53820.62
530.60	53792.53
530.77	53652.10
530.94	54265.32
531.11	54042.97
531.28	54145.95
531.46	54333.20
531.63	54054.67
531.80	54274.68
531.97	54211.49
532.14	54302.77
532.31	54490.01
532.48	54356.60
532.65	54581.29
532.82	54333.20
532.99	54581.29
533.16	54412.77
533.33	54667.89
533.50	54766.20
533.67	54564.91
533.84	54677.25
534.01	54932.37
534.18	55028.34
534.35	55138.34
534.52	55082.17
534.69	55014.29
534.86	55444.95
535.03	54883.22
535.20	55040.04
535.37	55276.43
535.54	55419.20
535.71	55065.78
535.88	55370.05
536.05	55173.45
536.22	55608.79
536.38	55454.31
536.55	55732.84
536.72	55508.14
536.89	55494.10
537.06	55538.57
537.23	55707.09
537.40	55487.08
537.57	55561.98
537.74	55569.00
537.91	55749.22
538.08	56074.55
538.25	55725.81
538.42	55824.12
538.59	56034.77
538.75	55882.63
538.92	55924.76
539.09	56140.09
539.26	56200.94
539.43	56296.91
539.60	56102.64
539.77	56006.68
539.94	56465.42
540.11	56444.36
540.28	56442.02
540.44	56168.18
540.61	56364.78
540.78	56306.27
540.95	56257.12
541.12	56210.31
541.29	56278.18
541.46	56451.38
541.62	56435.00
541.79	56509.89
541.96	56310.95
542.13	56523.94
542.30	56556.70
542.47	56989.70
542.63	56856.29
542.80	57069.28
542.97	56982.68
543.14	57059.92
543.31	56938.21
543.48	57130.14
543.64	57406.32
543.81	57186.31
543.98	57261.21
544.15	57301.00
544.32	57289.29
544.48	57303.34
544.65	57265.89
544.82	57560.79
544.99	57324.40
545.16	57530.37
545.32	57193.33
545.49	57584.20
545.66	57684.84
545.83	57352.49
546.00	57659.10
546.16	57719.95
546.33	57495.26
546.50	57368.87
546.67	57846.34
546.83	57612.29
547.00	57762.08
547.17	57560.79
547.34	57659.10
547.50	57773.78
547.67	57872.09
547.84	58012.52
548.00	57881.45
548.17	58246.57
548.34	58122.52
548.51	58223.17
548.67	58213.80
548.84	58024.22
549.01	57991.45
549.18	58169.33
549.34	57965.71
549.51	58176.36
549.68	58277.00
549.84	58185.72
550.01	58267.64
550.18	58066.35
550.34	58429.13
550.51	58468.92
550.68	58281.68
550.84	58061.67
551.01	58372.96
551.18	58443.18
551.34	58489.99
551.51	58436.16
551.68	58560.20
551.84	58312.11
552.01	58333.17
552.18	58857.45
552.34	58485.31
552.51	58546.16
552.68	58670.21
552.84	58433.81
553.01	58897.24
553.18	58775.53
553.34	58878.52
553.51	58939.37
553.67	58747.45
553.84	58951.07
554.01	58894.90
554.17	59128.95
554.34	58981.50
554.51	58808.30
554.67	58969.80
554.84	58911.28
555.00	59028.31
555.17	58920.65
555.33	59021.29
555.50	59075.12
555.67	58937.03
555.83	58892.56
556.00	58981.50
556.16	59348.96
556.33	59194.49
556.50	59047.04
556.66	59355.99
556.83	59112.57
556.99	59639.19
557.16	59288.11
557.32	59318.54
557.49	59512.80
557.65	59255.34
557.82	59447.27
557.98	59384.07
558.15	59416.84
558.32	59276.41
558.48	59283.43
558.65	59447.27
558.81	59496.42
558.98	59412.16
559.14	59552.59
559.31	59615.79
559.47	59671.96
559.64	59561.95
559.80	59812.39
559.97	59709.41
560.13	59646.21
560.30	59636.85
560.46	59496.42
560.63	59870.90
560.79	59758.56
560.96	59728.13
561.12	59585.36
561.29	59870.90
561.45	59882.61
561.61	59618.13
561.78	59863.88
561.94	59807.71
562.11	59707.07
562.27	59833.46
562.44	59868.56
562.60	59835.80
562.77	60004.31
562.93	60051.12
563.10	59894.31
563.26	59681.32
563.42	60055.81
563.59	59833.46
563.75	59779.62
563.92	59934.10
564.08	59917.71
564.24	60264.11
564.41	60053.47
564.57	59941.12
564.74	59964.52
564.90	60009.00
565.07	59908.35
565.23	59922.40
565.39	59931.76
565.56	60308.58
565.72	60102.62
565.88	60177.51
566.05	60072.19
566.21	59882.61
566.38	60069.85
566.54	60067.51
566.70	60273.48
566.87	60261.77
567.03	60109.64
567.19	60477.10
567.36	60156.45
567.52	60011.34
567.68	60498.17
567.85	60147.09
568.01	60226.66
568.17	60322.63
568.34	60512.21
568.50	60205.60
568.66	60278.16
568.83	60317.95
568.99	60418.59
569.15	60423.27
569.32	60313.26
569.48	60186.88
569.64	60446.68
569.81	60287.52
569.97	60402.21
570.13	60238.37
570.30	60282.84
570.46	60486.46
570.62	60313.26
570.78	60493.49
570.95	60411.57
571.11	60561.36
571.27	60378.80
571.43	60619.88
571.60	60437.31
571.76	60594.13
571.92	60355.39
572.09	60486.46
572.25	60467.74
572.41	60348.37
572.57	60596.47
572.74	60809.46
572.90	60420.93
573.06	60509.87
573.22	60743.92
573.38	60732.22
573.55	60463.06
573.71	60619.88
573.87	60622.22
574.03	60514.55
574.20	60748.60
574.36	60676.05
574.52	60697.11
574.68	60512.21
574.84	60640.94
575.01	60860.95
575.17	60523.91
575.33	60397.52
575.49	60608.17
575.65	60802.44
575.82	60734.56
575.98	60619.88
576.14	60853.93
576.30	60776.69
576.46	60725.20
576.62	60622.22
576.79	60568.38
576.95	60559.02
577.11	60753.29
577.27	60772.01
577.43	60800.10
577.59	60779.03
577.75	60755.63
577.92	60750.94
578.08	60619.88
578.24	60727.54
578.40	60954.57
578.56	61118.41
578.72	60811.80
578.88	60697.11
579.04	60985.00
579.21	60877.33
579.37	60882.02
579.53	60949.89
579.69	60797.76
579.85	60692.43
580.01	60846.91
580.17	60605.83
580.33	61020.11
580.49	60886.70
580.65	60779.03
580.82	60757.97
580.98	60793.07
581.14	60844.57
581.30	61010.74
581.46	60835.20
581.62	60790.73
581.78	60837.54
581.94	60992.02
582.10	60804.78
582.26	60837.54
582.42	60905.42
582.58	60877.33
582.74	60886.70
582.90	60743.92
583.06	60807.12
583.22	60736.90
583.38	60846.91
583.54	60807.12
583.70	60884.36
583.86	61083.30
584.02	60879.67
584.18	60804.78
584.34	60734.56
584.50	60825.84
584.66	60781.37
584.82	60732.22
584.98	61118.41
585.14	60982.66
585.30	60662.00
585.46	60940.53
585.62	60893.72
585.78	61092.66
585.94	60699.45
586.10	60802.44
586.26	60942.87
586.42	61120.75
586.58	60893.72
586.74	61123.09
586.90	61041.17
587.06	60865.63
587.22	61064.58
587.38	60877.33
587.54	61041.17
587.70	61190.97
587.86	60860.95
588.02	60947.55
588.18	61160.54
588.34	61036.49
588.49	61062.24
