SpectraSuite Data File
++++++++++++++++++++++++++++++++++++
Date: Fri Oct 25 11:34:34 EDT 2013
User: price-jones
Dark Spectrum Present: No
Reference Spectrum Present: No
Number of Sampled Component Spectra: 1
Spectrometers: USB2+H05261
Integration Time (usec): 100000 (USB2+H05261)
Spectra Averaged: 1 (USB2+H05261)
Boxcar Smoothing: 0 (USB2+H05261)
Correct for Electrical Dark: No (USB2+H05261)
Strobe/Lamp Enabled: No (USB2+H05261)
Correct for Detector Non-linearity: No (USB2+H05261)
Correct for Stray Light: No (USB2+H05261)
Number of Pixels in Processed Spectrum: 2048
>>>>>Begin Processed Spectral Data<<<<<
365.73	217.67
365.92	217.67
366.12	217.67
366.32	280.86
366.52	152.13
366.72	262.14
366.91	196.60
367.11	156.82
367.31	180.22
367.51	198.95
367.70	93.62
367.90	208.31
368.10	203.63
368.30	191.92
368.49	112.35
368.69	210.65
368.89	196.60
369.09	273.84
369.28	227.03
369.48	210.65
369.68	248.10
369.87	255.12
370.07	271.50
370.27	301.93
370.47	351.08
370.66	491.51
370.86	564.07
371.06	491.51
371.25	524.28
371.45	500.87
371.65	552.37
371.84	456.40
372.04	573.43
372.24	587.47
372.44	578.11
372.63	617.90
372.83	543.00
373.03	627.26
373.22	578.11
373.42	587.47
373.62	601.52
373.81	550.03
374.01	603.86
374.21	657.69
374.40	606.20
374.60	695.14
374.79	695.14
374.99	662.37
375.19	716.20
375.38	596.84
375.58	631.94
375.78	641.31
375.97	606.20
376.17	620.24
376.37	641.31
376.56	690.46
376.76	606.20
376.95	589.82
377.15	699.82
377.35	734.93
377.54	674.07
377.74	711.52
377.93	690.46
378.13	674.07
378.33	685.78
378.52	664.71
378.72	730.25
378.91	704.50
379.11	746.63
379.31	692.80
379.50	653.01
379.70	732.59
379.89	685.78
380.09	737.27
380.28	655.35
380.48	772.38
380.68	711.52
380.87	678.76
381.07	716.20
381.26	690.46
381.46	791.10
381.65	753.65
381.85	725.57
382.04	606.20
382.24	849.61
382.43	791.10
382.63	739.61
382.83	788.76
383.02	802.80
383.22	858.98
383.41	727.91
383.61	732.59
383.80	823.87
384.00	842.59
384.19	695.14
384.39	730.25
384.58	837.91
384.78	828.55
384.97	793.44
385.17	833.23
385.36	842.59
385.56	753.65
385.75	786.42
385.95	840.25
386.14	910.47
386.34	884.72
386.53	809.83
386.72	830.89
386.92	915.15
387.11	931.53
387.31	830.89
387.50	821.53
387.70	851.96
387.89	873.02
388.09	863.66
388.28	908.13
388.48	917.49
388.67	957.28
388.86	891.74
389.06	866.00
389.25	936.21
389.45	873.02
389.64	861.32
389.84	901.11
390.03	983.02
390.22	952.60
390.42	884.72
390.61	931.53
390.81	973.66
391.00	1001.75
391.19	983.02
391.39	1020.47
391.58	1095.37
391.78	931.53
391.97	1006.43
392.16	964.30
392.36	910.47
392.55	1078.99
392.75	1041.54
392.94	1088.35
393.13	1008.77
393.33	1048.56
393.52	1041.54
393.71	1116.44
393.91	1036.86
394.10	1001.75
394.29	1041.54
394.49	1039.20
394.68	1116.44
394.88	1083.67
395.07	1067.28
395.26	1081.33
395.46	1109.41
395.65	1034.52
395.84	1135.16
396.04	1107.07
396.23	1114.10
396.42	1186.65
396.62	1188.99
396.81	1153.88
397.00	1142.18
397.19	1165.59
397.39	1212.40
397.58	1205.38
397.77	1144.52
397.97	1210.06
398.16	1245.16
398.35	1245.16
398.55	1193.67
398.74	1313.04
398.93	1284.95
399.12	1163.25
399.32	1256.87
399.51	1299.00
399.70	1329.42
399.90	1334.11
400.09	1352.83
400.28	1315.38
400.47	1315.38
400.67	1378.58
400.86	1404.32
401.05	1341.13
401.24	1348.15
401.44	1390.28
401.63	1383.26
401.82	1315.38
402.01	1308.36
402.21	1378.58
402.40	1430.07
402.59	1406.66
402.78	1502.62
402.97	1514.33
403.17	1500.28
403.36	1502.62
403.55	1460.49
403.74	1565.82
403.93	1593.90
404.13	1591.56
404.32	1413.68
404.51	1528.37
404.70	1600.93
404.89	1593.90
405.09	1626.67
405.28	1598.59
405.47	1645.40
405.66	1694.55
405.85	1720.29
406.05	1671.14
406.24	1694.55
406.43	1671.14
406.62	1813.92
406.81	1762.42
407.00	1813.92
407.20	1678.16
407.39	1659.44
407.58	1783.49
407.77	1757.74
407.96	1860.73
408.15	1785.83
408.34	1844.34
408.54	1832.64
408.73	1781.15
408.92	1797.53
409.11	1872.43
409.30	1928.60
409.49	1823.28
409.68	1863.07
409.87	1888.81
410.07	1961.37
410.26	1952.01
410.45	1916.90
410.64	2005.84
410.83	2040.95
411.02	2047.97
411.21	2174.36
411.40	2080.74
411.59	2120.53
411.78	2113.50
411.98	2097.12
412.17	2090.10
412.36	2108.82
412.55	2225.85
412.74	2338.20
412.93	2270.32
413.12	2179.04
413.31	2424.80
413.50	2204.78
413.69	2270.32
413.88	2410.75
414.07	2363.94
414.26	2370.96
414.45	2422.45
414.64	2392.03
414.83	2548.84
415.02	2520.76
415.22	2600.34
415.41	2457.56
415.60	2642.46
415.79	2649.49
415.98	2658.85
416.17	2553.52
416.36	2597.99
416.55	2649.49
416.74	2661.19
416.93	2654.17
417.12	2717.36
417.31	2810.98
417.50	2754.81
417.69	2920.99
417.88	2792.26
418.07	2871.84
418.26	2782.90
418.45	2743.11
418.64	2974.82
418.83	3007.59
419.02	3066.10
419.21	2857.79
419.39	2965.46
419.58	2899.92
419.77	2967.80
419.96	2928.01
420.15	3052.06
420.34	3002.91
420.53	3138.66
420.72	2993.55
420.91	3063.76
421.10	3169.09
421.29	3052.06
421.48	3077.80
421.67	3208.87
421.86	3187.81
422.05	3162.06
422.24	3166.74
422.43	3274.41
422.61	3396.12
422.80	3190.15
422.99	3201.85
423.18	3094.19
423.37	3094.19
423.56	3197.17
423.75	3316.54
423.94	3096.53
424.13	2965.46
424.32	3129.30
424.50	3302.50
424.69	3379.73
424.88	3337.60
425.07	3241.64
425.26	3220.58
425.45	3353.99
425.64	3286.11
425.83	3398.46
426.01	3428.88
426.20	3398.46
426.39	3356.33
426.58	3323.56
426.77	3353.99
426.96	3328.24
427.15	3323.56
427.33	3510.80
427.52	3384.41
427.71	3463.99
427.90	3585.70
428.09	3552.93
428.28	3475.70
428.46	3564.64
428.65	3503.78
428.84	3634.85
429.03	3576.34
429.22	3545.91
429.40	3592.72
429.59	3606.77
429.78	3637.19
429.97	3361.01
430.16	3576.34
430.34	3597.40
430.53	3637.19
430.72	3737.84
430.91	3747.20
431.10	3634.85
431.28	3777.62
431.47	3777.62
431.66	3794.01
431.85	3906.35
432.03	3911.04
432.22	3896.99
432.41	4014.02
432.60	3906.35
432.79	3962.53
432.97	3934.44
433.16	3801.03
433.35	3988.27
433.54	4060.83
433.72	3939.12
433.91	3845.50
434.10	3885.29
434.28	4032.74
434.47	4035.08
434.66	4095.94
434.85	4105.30
435.03	4109.98
435.22	4079.55
435.41	4189.56
435.59	4147.43
435.78	4222.33
435.97	4264.46
436.16	4140.41
436.34	4238.71
436.53	4191.90
436.72	4313.61
436.90	4250.41
437.09	4351.06
437.28	4187.22
437.46	4264.46
437.65	4369.78
437.84	4432.97
438.02	4400.21
438.21	4393.19
438.40	4451.70
438.58	4503.19
438.77	4557.02
438.96	4411.91
439.14	4447.02
439.33	4751.29
439.52	4699.80
439.70	4727.88
439.89	4807.46
440.08	4826.18
440.26	4725.54
440.45	4781.71
440.63	4706.82
440.82	5036.83
441.01	4880.02
441.19	5050.88
441.38	4919.81
441.57	5006.41
441.75	5167.90
441.94	5085.98
442.12	5224.08
442.31	5069.60
442.50	5207.69
442.68	5277.91
442.87	5254.50
443.05	5228.76
443.24	5224.08
443.43	5341.10
443.61	5364.51
443.80	5479.19
443.98	5270.89
444.17	5212.37
444.35	5224.08
444.54	5490.90
444.73	5380.89
444.91	5305.99
445.10	5392.59
445.28	5331.74
445.47	5305.99
445.65	5343.44
445.84	5420.68
446.02	5401.96
446.21	5453.45
446.39	5465.15
446.58	5465.15
446.77	5357.49
446.95	5413.66
447.14	5488.56
447.32	5495.58
447.51	5481.53
447.69	5416.00
447.88	5533.03
448.06	5533.03
448.25	5514.30
448.43	5500.26
448.62	5628.99
448.80	5561.11
448.99	5584.52
449.17	5570.48
449.36	5624.31
449.54	5643.03
449.73	5657.07
449.91	5753.04
450.10	5748.36
450.28	5949.64
450.46	5816.23
450.65	5916.87
450.83	5844.32
451.02	5968.37
451.20	5980.07
451.39	6010.50
451.57	5849.00
451.76	6012.84
451.94	5984.75
452.13	5940.28
452.31	5921.56
452.49	6101.78
452.68	5912.19
452.86	6031.56
453.05	6160.29
453.23	6017.52
453.42	6022.20
453.60	6008.16
453.78	6125.18
453.97	5977.73
454.15	6153.27
454.34	6080.71
454.52	6392.00
454.70	6190.72
454.89	6319.45
455.07	6331.15
455.26	6462.22
455.44	6338.17
455.62	6162.63
455.81	6450.52
455.99	6502.01
456.17	6406.05
456.36	6715.00
456.54	6551.16
456.73	6590.95
456.91	6633.08
457.09	6782.87
457.28	6696.27
457.46	6541.80
457.64	6647.12
457.83	6693.93
458.01	6574.56
458.19	6890.54
458.38	6752.45
458.56	6920.96
458.74	6789.89
458.93	6892.88
459.11	6656.48
459.29	6963.09
459.48	6888.20
459.66	6946.71
459.84	6848.41
460.03	7007.56
460.21	7056.72
460.39	7103.53
460.57	7070.76
460.76	7215.87
460.94	7183.10
461.12	7232.26
461.31	7239.28
461.49	7075.44
461.67	7148.00
461.85	7075.44
462.04	7185.44
462.22	7728.45
462.40	7456.95
462.59	7199.49
462.77	7225.23
462.95	7489.71
463.13	7384.39
463.32	7597.38
463.50	7627.81
463.68	7765.90
463.86	7492.05
464.05	7424.18
464.23	7548.23
464.41	7428.86
464.59	7536.52
464.78	7716.75
464.96	7522.48
465.14	7499.08
465.32	7948.46
465.50	7637.17
465.69	7758.88
465.87	7801.01
466.05	7782.28
466.23	7639.51
466.41	7588.02
466.60	7976.55
466.78	7831.43
466.96	7803.35
467.14	7784.62
467.32	7782.28
467.51	8086.55
467.69	7845.48
467.87	7929.74
468.05	8067.83
468.23	8095.91
468.41	8173.15
468.60	7999.95
468.78	7939.10
468.96	8095.91
469.14	8152.09
469.32	8374.44
469.50	8032.72
469.69	8315.92
469.87	8393.16
470.05	8327.63
470.23	8468.06
470.41	8468.06
470.59	8592.11
470.77	8393.16
470.95	8507.85
471.14	8482.10
471.32	8252.73
471.50	8634.24
471.68	8491.46
471.86	8704.45
472.04	8774.67
472.22	8968.93
472.40	8870.63
472.58	8725.52
472.77	8915.10
472.95	8954.89
473.13	9212.35
473.31	8830.84
473.49	9046.17
473.67	8933.82
473.85	9020.42
474.03	9322.35
474.21	9198.31
474.39	9144.47
474.57	9383.21
474.75	9383.21
474.93	9598.54
475.12	9502.58
475.30	9570.45
475.48	9575.13
475.66	9528.32
475.84	9577.47
476.02	9781.10
476.20	9678.12
476.38	9907.49
476.56	10036.22
476.74	10127.50
476.92	10113.45
477.10	9977.70
477.28	10153.24
477.46	10251.55
477.64	10389.64
477.82	10359.21
478.00	10714.97
478.18	10553.48
478.36	10761.78
478.54	10792.21
478.72	10864.77
478.90	10993.50
479.08	11042.65
479.26	11049.67
479.44	11042.65
479.62	11262.66
479.80	11253.30
479.98	11309.47
480.16	11653.53
480.34	11431.18
480.52	11742.47
480.70	11571.61
480.88	11417.13
481.06	11765.87
481.24	11896.94
481.41	12236.32
481.59	12070.14
481.77	12278.45
481.95	12491.44
482.13	12404.84
482.31	12416.54
482.49	12634.21
482.67	12444.63
482.85	12760.60
483.03	12968.91
483.21	13064.87
483.39	13163.17
483.57	12872.95
483.74	13076.57
483.92	13343.39
484.10	13158.49
484.28	13561.06
484.46	13888.74
484.64	13874.70
484.82	13568.09
485.00	14047.90
485.18	13977.68
485.35	14340.46
485.53	13982.36
485.71	14480.89
485.89	14459.83
486.07	14494.94
486.25	14665.80
486.43	14960.70
486.61	14876.44
486.78	15051.99
486.96	14988.79
487.14	15236.89
487.32	15321.15
487.50	15686.27
487.68	15609.03
487.85	15822.02
488.03	15803.30
488.21	16201.19
488.39	16060.76
488.57	16166.08
488.75	16489.07
488.92	16599.08
489.10	16636.53
489.28	16533.54
489.46	16779.30
489.64	16751.21
489.81	17334.01
489.99	16985.27
490.17	17355.07
490.35	17493.16
490.53	17881.69
490.70	17951.91
490.88	17727.22
491.06	17980.00
491.24	18090.00
491.41	18066.60
491.59	18403.63
491.77	18097.02
491.95	18548.75
492.13	18822.59
492.30	19051.96
492.48	18628.32
492.66	18874.08
492.84	18909.19
493.01	19138.56
493.19	18799.18
493.37	19323.46
493.54	19278.99
493.72	19693.27
493.90	19873.49
494.08	19641.78
494.25	19932.00
494.43	19962.43
494.61	20184.78
494.79	20266.70
494.96	20119.24
495.14	20313.51
495.32	20786.30
495.49	20676.29
495.67	20472.67
495.85	20842.47
496.02	21034.39
496.20	21186.53
496.38	20945.45
496.55	21371.43
496.73	21837.20
496.91	21568.04
497.09	21717.83
497.26	21790.39
497.44	21556.33
497.62	22050.19
497.79	22405.95
497.97	22038.48
498.14	22546.38
498.32	22530.00
498.50	22719.58
498.67	22955.97
498.85	22948.95
499.03	23243.86
499.20	22906.82
499.38	23232.16
499.56	23044.91
499.73	23234.50
499.91	23150.24
500.08	23552.81
500.26	23321.10
500.44	23697.92
500.61	23770.48
500.79	23573.88
500.97	23377.27
501.14	24173.05
501.32	23859.42
501.49	24130.92
501.67	23845.38
501.84	24088.79
502.02	24425.83
502.20	24301.78
502.37	24463.28
502.55	24512.43
502.72	24446.90
502.90	24269.01
503.07	24568.60
503.25	24978.20
503.43	24783.93
503.60	24669.25
503.78	25458.01
503.95	24968.84
504.13	25221.61
504.30	25348.00
504.48	25420.56
504.65	25537.59
504.83	25453.33
505.01	25869.94
505.18	26150.81
505.36	26031.44
505.53	25867.60
505.71	26082.93
505.88	26288.90
506.06	25764.62
506.23	26288.90
506.41	26333.37
506.58	26518.27
506.76	26525.29
506.93	26412.95
507.11	26279.54
507.28	26375.50
507.46	26593.17
507.63	26705.51
507.81	27136.17
507.98	26614.23
508.16	27077.66
508.33	26991.06
508.50	27384.27
508.68	27386.61
508.85	27470.87
509.03	27522.36
509.20	27730.67
509.38	28205.80
509.55	27978.76
509.73	28102.81
509.90	27854.72
510.08	28168.35
510.25	28147.28
510.42	28053.66
510.60	28563.90
510.77	28070.04
510.95	28463.25
511.12	28168.35
511.30	28205.80
511.47	28463.25
511.64	28498.36
511.82	28856.46
511.99	28828.38
512.17	29118.60
512.34	29142.01
512.51	29174.78
512.69	29806.72
512.86	29249.67
513.04	29427.56
513.21	29530.54
513.38	29584.37
513.56	29797.36
513.73	29750.55
513.90	29673.31
514.08	29869.92
514.25	29806.72
514.43	29937.79
514.60	29841.83
514.77	30319.30
514.95	30391.86
515.12	30054.82
515.29	30029.07
515.47	30443.35
515.64	30424.62
515.81	30183.55
515.99	30314.62
516.16	31166.57
516.33	30562.72
516.51	30768.68
516.68	30682.08
516.85	30747.62
517.03	31318.71
517.20	31016.78
517.37	30714.85
517.54	31199.34
517.72	31222.75
517.89	31409.99
518.06	31534.04
518.24	31087.00
518.41	31056.57
518.58	31328.07
518.75	31527.02
518.93	32013.85
519.10	31807.88
519.27	31770.43
519.45	31943.63
519.62	32275.99
519.79	32053.64
519.96	31704.90
520.14	32041.93
520.31	32037.25
520.48	32369.61
520.65	32278.33
520.83	32938.36
521.00	32676.22
521.17	32432.80
521.34	32818.99
521.52	32739.41
521.69	33240.29
521.86	32971.13
522.03	33429.87
522.20	33254.33
522.38	33198.16
522.55	33179.43
522.72	33277.74
522.89	33088.15
523.07	33542.22
523.24	33263.69
523.41	33514.13
523.58	33567.96
523.75	33745.84
523.92	33551.58
524.10	33947.13
524.27	33862.87
524.44	33975.22
524.61	33956.49
524.78	33986.92
524.96	33954.15
525.13	34235.02
525.30	33895.64
525.47	34696.10
525.64	34253.74
525.81	34436.30
525.98	34405.88
526.16	34677.38
526.33	34225.65
526.50	34890.37
526.67	34843.56
526.84	34539.29
527.01	34565.03
527.18	34881.00
527.36	35030.80
527.53	34911.43
527.70	34998.03
527.87	35232.08
528.04	34607.16
528.21	35367.84
528.38	35510.61
528.55	35285.92
528.72	35264.85
528.89	35356.13
529.07	35295.28
529.24	35276.55
529.41	36062.97
529.58	35896.80
529.75	35833.60
529.92	35971.69
530.09	35805.52
530.26	35407.62
530.43	36231.49
530.60	35854.67
530.77	36030.21
530.94	35842.96
531.11	36025.53
531.28	36236.17
531.46	36254.90
531.63	36238.51
531.80	36025.53
531.97	36566.19
532.14	36432.78
532.31	35892.12
532.48	36507.68
532.65	36900.89
532.82	36463.21
532.99	36676.19
533.16	36243.20
533.33	36655.13
533.50	36669.17
533.67	36975.78
533.84	36575.55
534.01	36889.18
534.18	36849.39
534.35	37053.02
534.52	37282.39
534.69	37612.41
534.86	37443.89
535.03	37373.67
535.20	37170.05
535.37	37806.67
535.54	36992.17
535.71	37043.66
535.88	37584.32
536.05	37376.01
536.22	38003.28
536.38	37626.45
536.55	37565.60
536.72	37783.27
536.89	37909.66
537.06	37699.01
537.23	38113.28
537.40	37567.94
537.57	37624.11
537.74	37904.98
537.91	38286.48
538.08	38094.56
538.25	37668.58
538.42	38314.57
538.59	38513.52
538.75	38202.22
538.92	38321.59
539.09	38810.76
539.26	38593.09
539.43	38452.66
539.60	38733.53
539.77	38560.33
539.94	38920.77
540.11	39065.88
540.28	38883.32
540.44	38565.01
540.61	38660.97
540.78	38883.32
540.95	38986.30
541.12	38728.84
541.29	38955.88
541.46	38979.28
541.62	39173.55
541.79	39416.96
541.96	38803.74
542.13	38806.08
542.30	39033.11
542.47	38630.54
542.63	39496.54
542.80	39583.14
542.97	40032.52
543.14	39810.17
543.31	39634.63
543.48	39442.71
543.64	39941.24
543.81	40004.44
543.98	40004.44
544.15	39966.99
544.32	39945.92
544.48	40371.90
544.65	39882.73
544.82	40318.07
544.99	39835.92
545.16	39632.29
545.32	40449.14
545.49	40580.21
545.66	40942.99
545.83	40236.15
546.00	40598.93
546.16	40524.04
546.33	40549.78
546.50	40147.21
546.67	40563.82
546.83	40151.89
547.00	40610.64
547.17	40453.82
547.34	40617.66
547.50	40474.88
547.67	41195.77
547.84	40809.58
548.00	41368.97
548.17	41436.84
548.34	41298.75
548.51	41120.87
548.67	41354.93
548.84	41301.09
549.01	40687.87
549.18	41413.44
549.34	41511.74
549.51	41450.89
549.68	41778.56
549.84	41493.02
550.01	41621.75
550.18	41418.12
550.34	41345.56
550.51	41450.89
550.68	41404.08
550.84	41228.54
551.01	41591.32
551.18	41677.92
551.34	41895.59
551.51	41951.76
551.68	41378.33
551.84	41621.75
552.01	41078.74
552.18	41855.80
552.34	41345.56
552.51	41605.36
552.68	41532.81
552.84	42234.97
553.01	42433.91
553.18	41879.21
553.34	42284.12
553.51	42127.30
553.67	42139.00
553.84	42244.33
554.01	42014.96
554.17	42382.42
554.34	42368.38
554.51	42305.18
554.67	42618.81
554.84	42469.02
555.00	42279.44
555.17	42443.27
555.33	42216.24
555.50	42515.83
555.67	42101.56
555.83	42426.89
556.00	42328.59
556.16	43388.85
556.33	42829.46
556.50	42539.24
556.66	42803.72
556.83	42768.61
556.99	43028.41
557.16	43145.44
557.32	43079.90
557.49	43019.05
557.65	42808.40
557.82	43159.48
557.98	42696.05
558.15	42962.87
558.32	42857.55
558.48	42803.72
558.65	43070.54
558.81	42557.96
558.98	42672.65
559.14	43274.16
559.31	43068.20
559.47	43159.48
559.64	43360.76
559.80	42983.94
559.97	43058.84
560.13	43213.31
560.30	43428.64
560.46	43487.15
560.63	43388.85
560.79	44025.48
560.96	43697.80
561.12	43650.99
561.29	43555.03
561.45	43508.22
561.61	43473.11
561.78	43606.52
561.94	43463.75
562.11	43622.90
562.27	43206.29
562.44	43498.86
562.60	44079.31
562.77	44144.84
562.93	43466.09
563.10	44238.47
563.26	43414.60
563.42	44287.62
563.59	43763.34
563.75	43683.76
563.92	43957.60
564.08	44027.82
564.24	44109.74
564.41	43438.00
564.57	43690.78
564.74	44123.78
564.90	43955.26
565.07	43838.23
565.23	43978.67
565.39	44137.82
565.56	44268.89
565.72	43569.07
565.88	44172.93
566.05	43744.61
566.21	44500.61
566.38	44219.74
566.54	44041.86
566.70	43999.73
566.87	43920.15
567.03	44428.05
567.19	44493.58
567.36	44086.33
567.52	43793.76
567.68	44610.61
567.85	44158.89
568.01	44329.75
568.17	44020.80
568.34	44453.79
568.50	44346.13
568.66	44107.40
568.83	44144.84
568.99	44287.62
569.15	44243.15
569.32	44229.10
569.48	43892.07
569.64	44737.00
569.81	44767.43
569.97	44479.54
570.13	44444.43
570.30	44566.14
570.46	44556.78
570.62	44421.03
570.78	44512.31
570.95	44271.23
571.11	44624.65
571.27	44474.86
571.43	43973.98
571.60	44320.38
571.76	44755.72
571.92	44334.43
572.09	44601.25
572.25	44758.06
572.41	44498.26
572.57	44713.59
572.74	44748.70
572.90	44584.86
573.06	44797.85
573.22	44727.64
573.38	44914.88
573.55	44664.44
573.71	44989.78
573.87	44603.59
574.03	44554.44
574.20	45027.23
574.36	44406.98
574.52	44685.51
574.68	44933.60
574.84	44795.51
575.01	45027.23
575.17	44631.68
575.33	44755.72
575.49	44854.03
575.65	45226.17
575.82	45097.44
575.98	44542.74
576.14	45127.87
576.30	45130.21
576.46	44673.81
576.62	44776.79
576.79	44987.44
576.95	44650.40
577.11	44985.10
577.27	45038.93
577.43	45209.79
577.59	44837.64
577.75	44926.58
577.92	44552.10
578.08	44322.72
578.24	45034.25
578.40	45432.14
578.56	45390.01
578.72	45516.40
578.88	45195.74
579.04	45350.22
579.21	44512.31
579.37	44772.11
579.53	45041.27
579.69	44722.96
579.85	44711.25
580.01	44786.15
580.17	44655.08
580.33	45167.66
580.49	44711.25
580.65	44535.71
580.82	44818.92
580.98	45038.93
581.14	44479.54
581.30	44985.10
581.46	45069.36
581.62	44856.37
581.78	44800.19
581.94	45109.14
582.10	45085.74
582.26	45062.33
582.42	44973.39
582.58	45167.66
582.74	45045.95
582.90	45017.86
583.06	45205.11
583.22	44903.18
583.38	45172.34
583.54	45237.87
583.70	45188.72
583.86	45296.39
584.02	44802.53
584.18	45373.63
584.34	45324.47
584.50	45460.23
584.66	45097.44
584.82	45455.54
584.98	45394.69
585.14	45378.31
585.30	45357.24
585.46	45228.51
585.62	44732.32
585.78	45153.62
585.94	45013.18
586.10	45340.86
586.26	44865.73
586.42	45261.28
586.58	44912.54
586.74	45041.27
586.90	45078.72
587.06	45099.78
587.22	45757.47
587.38	45193.40
587.54	45670.87
587.70	45614.70
587.86	45024.89
588.02	45397.03
588.18	45382.99
588.34	45607.68
588.49	45097.44
588.65	45029.57
588.81	45474.27
588.97	45177.02
589.13	45301.07
589.29	45429.80
589.45	45542.14
589.61	45076.38
589.77	45191.06
589.93	45705.98
590.08	45750.45
