SpectraSuite Data File
++++++++++++++++++++++++++++++++++++
Date: Fri Oct 25 11:24:00 EDT 2013
User: price-jones
Dark Spectrum Present: No
Reference Spectrum Present: No
Number of Sampled Component Spectra: 1
Spectrometers: USB2+H05261
Integration Time (usec): 100000 (USB2+H05261)
Spectra Averaged: 1 (USB2+H05261)
Boxcar Smoothing: 0 (USB2+H05261)
Correct for Electrical Dark: No (USB2+H05261)
Strobe/Lamp Enabled: No (USB2+H05261)
Correct for Detector Non-linearity: No (USB2+H05261)
Correct for Stray Light: No (USB2+H05261)
Number of Pixels in Processed Spectrum: 2048
>>>>>Begin Processed Spectral Data<<<<<
365.73	238.73
365.92	238.73
366.12	238.73
366.32	161.50
366.52	117.03
366.72	182.56
366.91	121.71
367.11	152.13
367.31	95.96
367.51	88.94
367.70	102.98
367.90	168.52
368.10	152.13
368.30	119.37
368.49	170.86
368.69	142.77
368.89	196.60
369.09	126.39
369.28	203.63
369.48	159.16
369.68	145.11
369.87	189.58
370.07	191.92
370.27	189.58
370.47	299.59
370.66	615.56
370.86	596.84
371.06	713.86
371.25	638.97
371.45	678.76
371.65	685.78
371.84	748.97
372.04	624.92
372.24	669.39
372.44	636.63
372.63	725.57
372.83	692.80
373.03	795.78
373.22	779.40
373.42	755.99
373.62	753.65
373.81	784.08
374.01	767.70
374.21	833.23
374.40	866.00
374.60	873.02
374.79	755.99
374.99	863.66
375.19	919.83
375.38	889.40
375.58	795.78
375.78	856.64
375.97	828.55
376.17	912.81
376.37	954.94
376.56	971.32
376.76	887.06
376.95	842.59
377.15	873.02
377.35	903.45
377.54	833.23
377.74	835.57
377.93	870.68
378.13	889.40
378.33	978.34
378.52	938.55
378.72	976.00
378.91	901.11
379.11	880.04
379.31	828.55
379.50	980.68
379.70	964.30
379.89	1011.11
380.09	931.53
380.28	887.06
380.48	971.32
380.68	1004.09
380.87	992.39
381.07	971.32
381.26	1025.15
381.46	983.02
381.65	1093.03
381.85	1048.56
382.04	983.02
382.24	1069.62
382.43	1053.24
382.63	1053.24
382.83	1100.05
383.02	1067.28
383.22	1107.07
383.41	1097.71
383.61	1146.86
383.80	1205.38
384.00	1109.41
384.19	1121.12
384.39	1139.84
384.58	1060.26
384.78	1160.91
384.97	1130.48
385.17	1158.57
385.36	1086.01
385.56	1132.82
385.75	1233.46
385.95	1196.01
386.14	1217.08
386.34	1224.10
386.53	1041.54
386.72	1193.67
386.92	1291.98
387.11	1188.99
387.31	1245.16
387.50	1203.04
387.70	1284.95
387.89	1364.53
388.09	1275.59
388.28	1221.76
388.48	1289.64
388.67	1345.81
388.86	1289.64
389.06	1256.87
389.25	1404.32
389.45	1355.17
389.64	1362.19
389.84	1331.76
390.03	1409.00
390.22	1329.42
390.42	1348.15
390.61	1256.87
390.81	1385.60
391.00	1486.24
391.19	1444.11
391.39	1404.32
391.58	1465.18
391.78	1399.64
391.97	1446.45
392.16	1441.77
392.36	1526.03
392.55	1572.84
392.75	1493.26
392.94	1586.88
393.13	1610.29
393.33	1591.56
393.52	1521.35
393.71	1619.65
393.91	1448.79
394.10	1572.84
394.29	1666.46
394.49	1495.60
394.68	1727.32
394.88	1652.42
395.07	1614.97
395.26	1657.10
395.46	1612.63
395.65	1715.61
395.84	1703.91
396.04	1760.08
396.23	1785.83
396.42	1844.34
396.62	1781.15
396.81	1830.30
397.00	1830.30
397.19	1865.41
397.39	1771.79
397.58	1788.17
397.77	1851.36
397.97	1870.09
398.16	1832.64
398.35	1898.17
398.55	1877.11
398.74	1952.01
398.93	1923.92
399.12	1851.36
399.32	1916.90
399.51	2008.18
399.70	2010.52
399.90	1963.71
400.09	2012.86
400.28	2003.50
400.47	1928.60
400.67	2064.35
400.86	2085.42
401.05	2118.18
401.24	2064.35
401.44	2085.42
401.63	2148.61
401.82	2253.94
402.01	2167.34
402.21	2125.21
402.40	2174.36
402.59	2113.50
402.78	2272.66
402.97	2211.81
403.17	2326.49
403.36	2286.70
403.55	2331.17
403.74	2326.49
403.93	2200.10
404.13	2291.38
404.32	2375.64
404.51	2406.07
404.70	2462.24
404.89	2396.71
405.09	2466.92
405.28	2487.99
405.47	2473.95
405.66	2537.14
405.85	2534.80
406.05	2560.55
406.24	2490.33
406.43	2635.44
406.62	2661.19
406.81	2717.36
407.00	2530.12
407.20	2443.52
407.39	2689.28
407.58	2722.04
407.77	2733.75
407.96	2785.24
408.15	2820.35
408.34	2586.29
408.54	2839.07
408.73	2810.98
408.92	2869.50
409.11	2904.60
409.30	2843.75
409.49	2832.05
409.68	2981.84
409.87	2953.76
410.07	3075.46
410.26	2930.35
410.45	3000.57
410.64	3045.04
410.83	3136.32
411.02	3000.57
411.21	3171.43
411.40	3138.66
411.59	3283.77
411.78	3234.62
411.98	3122.27
412.17	3218.24
412.36	3353.99
412.55	3295.47
412.74	3407.82
412.93	3412.50
413.12	3363.35
413.31	3623.15
413.50	3480.38
413.69	3426.54
413.88	3534.21
414.07	3733.15
414.26	3667.62
414.45	3763.58
414.64	3688.68
414.83	3761.24
415.02	3829.12
415.22	3899.33
415.41	3887.63
415.60	3901.67
415.79	3822.09
415.98	4056.15
416.17	4091.26
416.36	4049.13
416.55	4086.58
416.74	4079.55
416.93	4140.41
417.12	4147.43
417.31	4229.35
417.50	4161.47
417.69	4369.78
417.88	4315.95
418.07	4400.21
418.26	4329.99
418.45	4390.84
418.64	4362.76
418.83	4489.15
419.02	4475.10
419.21	4489.15
419.39	4484.47
419.58	4617.88
419.77	4489.15
419.96	4550.00
420.15	4685.75
420.34	4540.64
420.53	4629.58
420.72	4842.57
420.91	4746.61
421.10	4634.26
421.29	4737.24
421.48	4730.22
421.67	4765.33
421.86	4826.18
422.05	4723.20
422.24	4699.80
422.43	5013.43
422.61	4964.28
422.80	5046.20
422.99	4990.02
423.18	4933.85
423.37	5027.47
423.56	5076.62
423.75	4997.04
423.94	4800.44
424.13	4664.69
424.32	4835.55
424.50	4997.04
424.69	5095.35
424.88	5088.32
425.07	4968.96
425.26	4908.10
425.45	4985.34
425.64	4990.02
425.83	4940.87
426.01	5172.58
426.20	5146.84
426.39	4971.30
426.58	5022.79
426.77	5078.96
426.96	5270.89
427.15	5128.11
427.33	5228.76
427.52	5121.09
427.71	5273.23
427.90	5296.63
428.09	5355.15
428.28	5226.42
428.46	5387.91
428.65	5287.27
428.84	5582.18
429.03	5600.90
429.22	5341.10
429.40	5437.06
429.59	5584.52
429.78	5345.78
429.97	5392.59
430.16	5418.34
430.34	5444.09
430.53	5738.99
430.72	5823.25
430.91	5535.37
431.10	5661.76
431.28	5799.85
431.47	5830.27
431.66	5912.19
431.85	5827.93
432.03	5930.92
432.22	5923.90
432.41	5895.81
432.60	6024.54
432.79	6019.86
432.97	6125.18
433.16	6087.73
433.35	5912.19
433.54	6127.52
433.72	6291.36
433.91	6097.10
434.10	6244.55
434.28	6069.01
434.47	6176.67
434.66	6171.99
434.85	6183.70
435.03	6452.86
435.22	6324.13
435.41	6473.92
435.59	6410.73
435.78	6473.92
435.97	6581.59
436.16	6588.61
436.34	6289.02
436.53	6537.12
436.72	6743.08
436.90	6502.01
437.09	6743.08
437.28	6537.12
437.46	6740.74
437.65	6626.06
437.84	6806.28
438.02	6579.25
438.21	6942.03
438.40	6707.98
438.58	6974.80
438.77	7087.14
438.96	7040.33
439.14	7162.04
439.33	7143.32
439.52	7286.09
439.70	7283.75
439.89	7676.96
440.08	7316.51
440.26	7433.54
440.45	7353.96
440.63	7433.54
440.82	7571.63
441.01	7405.46
441.19	7763.56
441.38	7658.23
441.57	7826.75
441.75	7948.46
441.94	7974.21
442.12	7906.33
442.31	8140.38
442.50	8046.76
442.68	7995.27
442.87	8163.79
443.05	8135.70
443.24	8304.22
443.43	8025.70
443.61	8191.88
443.80	8444.65
443.98	8308.90
444.17	7929.74
444.35	8236.35
444.54	8437.63
444.73	8250.39
444.91	8458.70
445.10	8549.98
445.28	8301.88
445.47	8409.54
445.65	8269.11
445.84	8332.31
446.02	8557.00
446.21	8535.93
446.39	8507.85
446.58	8479.76
446.77	8592.11
446.95	8402.52
447.14	8411.89
447.32	8891.70
447.51	8486.78
447.69	8468.06
447.88	8498.49
448.06	8643.60
448.25	8585.08
448.43	8669.34
448.62	8744.24
448.80	8629.56
448.99	8702.11
449.17	8688.07
449.36	8627.21
449.54	8959.57
449.73	8912.76
449.91	8987.66
450.10	9006.38
450.28	9137.45
450.46	9004.04
450.65	9135.11
450.83	9125.75
451.02	9214.69
451.20	9282.56
451.39	9448.74
451.57	9095.32
451.76	9104.68
451.94	9226.39
452.13	9467.47
452.31	9231.07
452.49	9207.67
452.68	9298.95
452.86	9291.93
453.05	9558.75
453.23	9586.83
453.42	9467.47
453.60	9334.06
453.78	9495.55
453.97	9451.08
454.15	9495.55
454.34	9320.01
454.52	9734.29
454.70	9722.59
454.89	9680.46
455.07	9914.51
455.26	9980.04
455.44	10087.71
455.62	10068.98
455.81	9837.27
455.99	9970.68
456.17	10150.90
456.36	10118.14
456.54	10066.64
456.73	10204.74
456.91	10429.43
457.09	10415.38
457.28	10443.47
457.46	10487.94
457.64	10764.12
457.83	10803.91
458.01	10602.63
458.19	10647.10
458.38	10700.93
458.56	10684.55
458.74	10630.71
458.93	10682.20
459.11	10642.42
459.29	10927.96
459.48	10918.60
459.66	10909.24
459.84	10960.73
460.03	11105.84
460.21	11126.91
460.39	10925.62
460.57	11164.36
460.76	11187.76
460.94	11157.33
461.12	11222.87
461.31	11190.10
461.49	11318.83
461.67	11166.70
461.85	11480.33
462.04	11330.53
462.22	11634.80
462.40	11709.70
462.59	11501.39
462.77	11569.27
462.95	11730.76
463.13	11803.32
463.32	11707.36
463.50	11850.13
463.68	11995.25
463.86	11953.12
464.05	11749.49
464.23	11653.53
464.41	12044.40
464.59	11595.01
464.78	12131.00
464.96	12051.42
465.14	11772.89
465.32	12128.66
465.50	12095.89
465.69	12074.82
465.87	12051.42
466.05	12180.15
466.23	12269.09
466.41	12161.42
466.60	12599.10
466.78	12184.83
466.96	12269.09
467.14	12308.88
467.32	12503.14
467.51	12723.15
467.69	12367.39
467.87	12439.95
468.05	12603.78
468.23	12465.69
468.41	12678.68
468.60	12816.77
468.78	12702.09
468.96	12823.80
469.14	12816.77
469.32	13025.08
469.50	12793.37
469.69	13202.96
469.87	13209.98
470.05	13195.94
470.23	13294.24
470.41	13238.07
470.59	13448.72
470.77	13167.85
470.95	13348.08
471.14	13720.22
471.32	13319.99
471.50	13633.62
471.68	13989.38
471.86	13874.70
472.04	13944.91
472.22	13886.40
472.40	13834.91
472.58	14022.15
472.77	14059.60
472.95	14576.86
473.13	14829.63
473.31	14073.64
473.49	14216.41
473.67	14064.28
473.85	14242.16
474.03	14438.76
474.21	14780.48
474.39	14768.78
474.57	14824.95
474.75	14796.87
474.93	15096.46
475.12	14906.87
475.30	15164.33
475.48	15051.99
475.66	15236.89
475.84	15192.42
476.02	15452.22
476.20	15396.04
476.38	15812.66
476.56	15974.16
476.74	16189.49
476.92	16042.03
477.10	16011.60
477.28	16313.53
477.46	16175.44
477.64	16334.60
477.82	16477.37
478.00	17034.42
478.18	16819.09
478.36	17123.36
478.54	17397.20
478.72	17355.07
478.90	17256.77
479.08	17497.84
479.26	17720.20
479.44	17921.48
479.62	17767.01
479.80	18258.52
479.98	18146.17
480.16	18604.92
480.34	18438.74
480.52	18530.02
480.70	18759.39
480.88	18747.69
481.06	19023.87
481.24	18881.10
481.41	19183.03
481.59	19660.50
481.77	19506.02
481.95	19655.82
482.13	19852.42
482.31	19758.80
482.49	20350.96
482.67	20467.98
482.85	20549.90
483.03	20936.09
483.21	21074.18
483.39	21104.61
483.57	20828.43
483.74	21434.63
483.92	21486.12
484.10	21366.75
484.28	21558.67
484.46	22148.49
484.64	22253.81
484.82	22246.79
485.00	22630.64
485.18	22864.69
485.35	22808.52
485.53	22923.21
485.71	23208.75
485.89	23522.38
486.07	23379.61
486.25	23489.62
486.43	23735.37
486.61	23887.51
486.78	24034.96
486.96	24161.35
487.14	24847.13
487.32	24556.90
487.50	25036.71
487.68	25226.29
487.85	25755.26
488.03	25944.84
488.21	25937.82
488.39	26258.47
488.57	26342.73
488.75	26120.38
488.92	26567.42
489.10	26909.14
489.28	26960.63
489.46	27140.85
489.64	27365.54
489.81	27936.63
489.99	28114.52
490.17	28037.28
490.35	28498.36
490.53	28135.58
490.70	28603.69
490.88	28463.25
491.06	28936.04
491.24	29036.69
491.41	29153.71
491.59	29453.30
491.77	29523.52
491.95	29621.82
492.13	29862.90
492.30	30148.44
492.48	29940.13
492.66	30291.21
492.84	30808.47
493.01	31178.28
493.19	31117.42
493.37	31515.31
493.54	31585.53
493.72	31637.02
493.90	31587.87
494.08	31857.03
494.25	32383.65
494.43	32231.52
494.61	32446.85
494.79	32397.70
494.96	32617.71
495.14	32793.25
495.32	33291.78
495.49	33600.73
495.67	33406.47
495.85	34059.48
496.02	34066.50
496.20	33989.26
496.38	34256.08
496.55	34291.19
496.73	35168.89
496.91	34686.74
497.09	34918.45
497.26	35344.43
497.44	35182.93
497.62	35281.24
497.79	35730.62
497.97	35772.75
498.14	36098.08
498.32	36409.37
498.50	36449.16
498.67	36739.39
498.85	36533.42
499.03	37071.75
499.20	36858.76
499.38	36919.61
499.56	37581.98
499.73	37708.37
499.91	37551.56
500.08	38094.56
500.26	37553.90
500.44	38345.00
500.61	37979.87
500.79	37902.64
500.97	38511.17
501.14	38962.90
501.32	38621.18
501.49	38705.44
501.67	38876.30
501.84	39351.43
502.02	39124.40
502.20	39447.39
502.37	39660.38
502.55	39487.18
502.72	39765.70
502.90	39538.67
503.07	39791.45
503.25	39913.16
503.43	39931.88
503.60	40498.29
503.78	40191.68
503.95	39936.56
504.13	40863.41
504.30	40985.12
504.48	40865.75
504.65	41102.15
504.83	41137.26
505.01	41989.21
505.18	41432.16
505.36	41354.93
505.53	41188.75
505.71	41869.84
505.88	42010.28
506.06	41855.80
506.23	41961.12
506.41	41818.35
506.58	42185.82
506.76	42541.58
506.93	42824.78
507.11	42997.98
507.28	43126.71
507.46	42967.55
507.63	43339.70
507.81	43775.04
507.98	42995.64
508.16	43550.35
508.33	43501.20
508.50	44275.91
508.68	43892.07
508.85	43903.77
509.03	43824.19
509.20	44374.22
509.38	44151.87
509.55	44428.05
509.73	44839.98
509.90	45003.82
510.08	45221.49
510.25	45031.91
510.42	45153.62
510.60	45478.95
510.77	45511.72
510.95	45652.15
511.12	45617.04
511.30	45497.67
511.47	45226.17
511.64	45294.05
511.82	46328.56
511.99	45956.42
512.17	46211.54
512.34	46298.14
512.51	46852.84
512.69	46791.99
512.86	46841.14
513.04	47065.83
513.21	46958.17
513.38	46674.96
513.56	47171.16
513.73	46892.63
513.90	47519.90
514.08	47023.70
514.25	47590.11
514.43	47339.68
514.60	47922.47
514.77	47665.01
514.95	47934.17
515.12	47505.85
515.29	47828.85
515.47	48135.46
515.64	48844.64
515.81	48020.77
515.99	48641.01
516.16	48577.82
516.33	48994.43
516.51	48994.43
516.68	48872.73
516.85	48942.94
517.03	49010.82
517.20	49198.06
517.37	48715.91
517.54	49184.02
517.72	48949.96
517.89	49289.34
518.06	49502.33
518.24	49214.44
518.41	49722.34
518.58	49574.89
518.75	49228.49
518.93	49738.72
519.10	49860.43
519.27	49712.98
519.45	50113.21
519.62	50082.78
519.79	50115.55
519.96	50064.06
520.14	50351.94
520.31	50176.40
520.48	50541.53
520.65	50445.57
520.83	50944.10
521.00	50941.76
521.17	50848.14
521.34	50829.41
521.52	51033.04
521.69	51262.41
521.86	51325.61
522.03	51288.16
522.20	50995.59
522.38	51643.92
522.55	51880.31
522.72	51384.12
522.89	51253.05
523.07	52018.41
523.24	51707.12
523.41	51772.65
523.58	51927.13
523.75	51969.26
523.92	51690.73
524.10	52004.36
524.27	52205.65
524.44	52093.30
524.61	52308.63
524.78	52317.99
524.96	52685.46
525.13	52610.56
525.30	52645.67
525.47	52956.96
525.64	52458.43
525.81	52762.70
525.98	52655.03
526.16	52900.79
526.33	53052.92
526.50	53399.32
526.67	53090.37
526.84	53235.48
527.01	53378.26
527.18	53169.95
527.36	53272.93
527.53	53195.70
527.70	53701.25
527.87	53645.08
528.04	53605.29
528.21	53867.43
528.38	53673.16
528.55	53712.95
528.72	53822.96
528.89	53708.27
529.07	53471.88
529.24	53584.22
529.41	53900.20
529.58	53939.99
529.75	53862.75
529.92	53893.18
530.09	54059.35
530.26	54003.18
530.43	54351.92
530.60	53982.12
530.77	54049.99
530.94	54244.26
531.11	54279.36
531.28	54375.33
531.46	54424.48
531.63	54520.44
531.80	54756.83
531.97	54635.13
532.14	54595.34
532.31	54396.39
532.48	54733.43
532.65	54712.36
532.82	54597.68
532.99	54944.08
533.16	54663.21
533.33	54841.09
533.50	55105.57
533.67	55096.21
533.84	55025.99
534.01	54862.16
534.18	55264.73
534.35	55337.29
534.52	55426.23
534.69	55091.53
534.86	55323.24
535.03	55220.26
535.20	55508.14
535.37	55334.95
535.54	55447.29
535.71	55414.52
535.88	55629.85
536.05	55716.45
536.22	56044.13
536.38	55728.16
536.55	55622.83
536.72	55796.03
536.89	55650.92
537.06	55662.62
537.23	55891.99
537.40	55835.82
537.57	55793.69
537.74	55978.59
537.91	55966.89
538.08	55973.91
538.25	56002.00
538.42	56009.02
538.59	56231.37
538.75	56238.39
538.92	56404.57
539.09	56250.09
539.26	56332.01
539.43	56371.80
539.60	56275.84
539.77	56523.94
539.94	56552.02
540.11	56442.02
540.28	56673.73
540.44	56629.26
540.61	56474.79
540.78	56486.49
540.95	56577.77
541.12	56692.46
541.29	56570.75
541.46	56671.39
541.62	56699.48
541.79	56882.04
541.96	56573.09
542.13	57034.17
542.30	56514.58
542.47	56863.32
542.63	57038.86
542.80	56713.52
542.97	57055.24
543.14	57261.21
543.31	57333.76
543.48	57399.30
543.64	57656.76
543.81	57513.98
543.98	57680.16
544.15	57272.91
544.32	57556.11
544.48	57876.77
544.65	57537.39
544.82	57638.03
544.99	57607.61
545.16	57532.71
545.32	57469.51
545.49	57918.90
545.66	57799.53
545.83	57535.05
546.00	57937.62
546.16	57839.32
546.33	57832.30
546.50	57600.58
546.67	58066.35
546.83	57836.98
547.00	57623.99
547.17	57942.30
547.34	57815.91
547.50	58220.83
547.67	58319.13
547.84	58136.57
548.00	58267.64
548.17	58408.07
548.34	58291.04
548.51	58356.58
548.67	58422.11
548.84	58401.05
549.01	58117.84
549.18	58443.18
549.34	58518.07
549.51	58316.79
549.68	58592.97
549.84	58539.14
550.01	58557.86
550.18	58387.00
550.34	58569.57
550.51	58646.80
550.68	58480.63
550.84	58560.20
551.01	58782.55
551.18	58639.78
551.34	58848.09
551.51	58904.26
551.68	58885.54
551.84	58702.98
552.01	58501.69
552.18	58726.38
552.34	58609.35
552.51	58913.62
552.68	58850.43
552.84	58759.15
553.01	59075.12
553.18	59058.74
553.34	59025.97
553.51	58777.87
553.67	58777.87
553.84	59058.74
554.01	59105.55
554.17	59016.61
554.34	59215.55
554.51	59159.38
554.67	59299.81
554.84	59023.63
555.00	59213.21
555.17	59236.62
555.33	59213.21
555.50	59072.78
555.67	59061.08
555.83	59100.87
556.00	59114.91
556.16	59264.70
556.33	59400.46
556.50	59330.24
556.66	59360.67
556.83	59363.01
556.99	59437.90
557.16	59597.06
557.32	59583.02
557.49	59910.69
557.65	59341.94
557.82	59419.18
557.98	59667.28
558.15	59561.95
558.32	59788.98
558.48	59447.27
558.65	59622.81
558.81	59739.83
558.98	59597.06
559.14	59484.72
559.31	59639.19
559.47	59906.01
559.64	59889.63
559.80	60048.78
559.97	59784.30
560.13	59821.75
560.30	59765.58
560.46	59915.37
560.63	60044.10
560.79	59777.28
560.96	60217.30
561.12	60060.49
561.29	59980.91
561.45	59861.54
561.61	59861.54
561.78	60102.62
561.94	59936.44
562.11	59906.01
562.27	60088.57
562.44	59943.46
562.60	60299.22
562.77	60193.90
562.93	59987.93
563.10	59945.80
563.26	59889.63
563.42	60339.01
563.59	60128.36
563.75	60144.75
563.92	59941.12
564.08	60058.15
564.24	60250.07
564.41	60214.96
564.57	60331.99
564.74	60355.39
564.90	60294.54
565.07	60364.76
565.23	60207.94
565.39	60205.60
565.56	60409.23
565.72	60170.49
565.88	60280.50
566.05	60238.37
566.21	60158.79
566.38	60346.03
566.54	60367.10
566.70	60493.49
566.87	60680.73
567.03	60268.79
567.19	60608.17
567.36	60584.77
567.52	60385.82
567.68	60434.97
567.85	60619.88
568.01	60575.40
568.17	60493.49
568.34	60633.92
568.50	60631.58
568.66	60523.91
568.83	60626.90
568.99	60486.46
569.15	60603.49
569.32	60402.21
569.48	60458.38
569.64	60762.65
569.81	60720.52
569.97	60514.55
570.13	60465.40
570.30	60339.01
570.46	60619.88
570.62	60596.47
570.78	60530.93
570.95	60755.63
571.11	60757.97
571.27	60636.26
571.43	60547.32
571.60	60708.82
571.76	60807.12
571.92	60664.35
572.09	60720.52
572.25	60636.26
572.41	60537.96
572.57	60807.12
572.74	61020.11
572.90	60851.59
573.06	60863.29
573.22	60540.30
573.38	60961.59
573.55	60865.63
573.71	60945.21
573.87	60786.05
574.03	60729.88
574.20	60830.52
574.36	60882.02
574.52	60802.44
574.68	60870.31
574.84	60942.87
575.01	60832.86
575.17	60917.12
575.33	60825.84
575.49	60774.35
575.65	60767.33
575.82	60940.53
575.98	60910.10
576.14	61113.73
576.30	61010.74
576.46	60739.24
576.62	60919.46
576.79	60905.42
576.95	60722.86
577.11	60914.78
577.27	60956.91
577.43	60980.32
577.59	60825.84
577.75	60938.19
577.92	60816.48
578.08	61008.40
578.24	60987.34
578.40	61223.73
578.56	61205.01
578.72	61020.11
578.88	61087.98
579.04	61190.97
579.21	61095.00
579.37	61048.19
579.53	61125.43
579.69	60736.90
579.85	60928.83
580.01	60924.14
580.17	61013.08
580.33	61003.72
580.49	61027.13
580.65	60910.10
580.82	60987.34
580.98	60956.91
581.14	60921.80
581.30	61057.56
581.46	60985.00
581.62	61097.34
581.78	61027.13
581.94	61286.93
582.10	61043.51
582.26	61029.47
582.42	60935.85
582.58	61099.68
582.74	61043.51
582.90	61008.40
583.06	60933.51
583.22	60931.17
583.38	61118.41
583.54	60912.44
583.70	61247.14
583.86	61230.75
584.02	61048.19
584.18	61216.71
584.34	61083.30
584.50	61057.56
584.66	61146.50
584.82	60879.67
584.98	61151.18
585.14	61207.35
585.30	60935.85
585.46	61396.93
585.62	61247.14
585.78	61277.57
585.94	61024.79
586.10	61263.52
586.26	61106.71
586.42	61109.05
586.58	61272.88
586.74	61123.09
586.90	61066.92
587.06	61132.45
587.22	61251.82
587.38	61069.26
587.54	61270.54
587.70	61420.34
587.86	61165.22
588.02	61165.22
588.18	61340.76
588.34	60825.84
588.49	61200.33
