SpectraSuite Data File
++++++++++++++++++++++++++++++++++++
Date: Fri Oct 25 10:47:56 EDT 2013
User: price-jones
Dark Spectrum Present: No
Reference Spectrum Present: No
Number of Sampled Component Spectra: 1
Spectrometers: USB2+H05261
Integration Time (usec): 100000 (USB2+H05261)
Spectra Averaged: 1 (USB2+H05261)
Boxcar Smoothing: 0 (USB2+H05261)
Correct for Electrical Dark: No (USB2+H05261)
Strobe/Lamp Enabled: No (USB2+H05261)
Correct for Detector Non-linearity: No (USB2+H05261)
Correct for Stray Light: No (USB2+H05261)
Number of Pixels in Processed Spectrum: 2048
>>>>>Begin Processed Spectral Data<<<<<
365.73	163.84
365.92	163.84
366.12	163.84
366.32	110.01
366.52	100.64
366.72	46.81
366.91	79.58
367.11	65.54
367.31	74.90
367.51	0.00
367.70	0.00
367.90	30.43
368.10	35.11
368.30	74.90
368.49	4.68
368.69	0.00
368.89	25.75
369.09	37.45
369.28	79.58
369.48	110.01
369.68	81.92
369.87	46.81
370.07	58.51
370.27	147.45
370.47	189.58
370.66	390.87
370.86	383.85
371.06	393.21
371.25	479.81
371.45	404.91
371.65	472.79
371.84	416.62
372.04	465.77
372.24	496.19
372.44	458.74
372.63	475.13
372.83	447.04
373.03	442.36
373.22	493.85
373.42	519.60
373.62	503.22
373.81	472.79
374.01	540.66
374.21	475.13
374.40	454.06
374.60	528.96
374.79	540.66
374.99	561.73
375.19	582.79
375.38	589.82
375.58	578.11
375.78	662.37
375.97	571.09
376.17	554.71
376.37	592.16
376.56	608.54
376.76	655.35
376.95	568.75
377.15	554.71
377.35	624.92
377.54	594.50
377.74	545.34
377.93	589.82
378.13	685.78
378.33	631.94
378.52	645.99
378.72	606.20
378.91	643.65
379.11	603.86
379.31	566.41
379.50	599.18
379.70	657.69
379.89	629.60
380.09	587.47
380.28	671.73
380.48	662.37
380.68	571.09
380.87	645.99
381.07	664.71
381.26	683.44
381.46	624.92
381.65	669.39
381.85	636.63
382.04	627.26
382.24	624.92
382.43	624.92
382.63	662.37
382.83	755.99
383.02	751.31
383.22	765.36
383.41	706.84
383.61	706.84
383.80	727.91
384.00	751.31
384.19	737.27
384.39	763.01
384.58	741.95
384.78	746.63
384.97	781.74
385.17	699.82
385.36	765.36
385.56	779.40
385.75	730.25
385.95	770.04
386.14	819.19
386.34	737.27
386.53	823.87
386.72	779.40
386.92	753.65
387.11	821.53
387.31	922.17
387.50	788.76
387.70	791.10
387.89	814.51
388.09	763.01
388.28	805.14
388.48	807.48
388.67	910.47
388.86	870.68
389.06	781.74
389.25	809.83
389.45	861.32
389.64	952.60
389.84	945.58
390.03	868.34
390.22	887.06
390.42	837.91
390.61	910.47
390.81	924.51
391.00	980.68
391.19	915.15
391.39	903.45
391.58	966.64
391.78	1004.09
391.97	938.55
392.16	952.60
392.36	1008.77
392.55	1034.52
392.75	973.66
392.94	1013.45
393.13	896.43
393.33	1027.50
393.52	994.73
393.71	1125.80
393.91	1006.43
394.10	980.68
394.29	1181.97
394.49	1015.79
394.68	1071.97
394.88	1123.46
395.07	1125.80
395.26	1135.16
395.46	1107.07
395.65	1144.52
395.84	1081.33
396.04	1100.05
396.23	1181.97
396.42	1130.48
396.62	1170.27
396.81	1167.93
397.00	1121.12
397.19	1191.33
397.39	1193.67
397.58	1320.06
397.77	1221.76
397.97	1259.21
398.16	1324.74
398.35	1317.72
398.55	1287.29
398.74	1310.70
398.93	1380.92
399.12	1320.06
399.32	1256.87
399.51	1284.95
399.70	1474.54
399.90	1303.68
400.09	1315.38
400.28	1345.81
400.47	1380.92
400.67	1474.54
400.86	1432.41
401.05	1519.01
401.24	1523.69
401.44	1549.43
401.63	1474.54
401.82	1582.20
402.01	1490.92
402.21	1561.14
402.40	1479.22
402.59	1455.81
402.78	1542.41
402.97	1605.61
403.17	1645.40
403.36	1694.55
403.55	1673.48
403.74	1626.67
403.93	1673.48
404.13	1692.21
404.32	1605.61
404.51	1734.34
404.70	1825.62
404.89	1568.16
405.09	1746.04
405.28	1647.74
405.47	1661.78
405.66	1790.51
405.85	1736.68
406.05	1755.40
406.24	1741.36
406.43	1701.57
406.62	1788.17
406.81	1907.54
407.00	1732.00
407.20	1750.72
407.39	1858.39
407.58	1930.94
407.77	2022.22
407.96	1977.75
408.15	1846.68
408.34	1973.07
408.54	1930.94
408.73	2012.86
408.92	2062.01
409.11	1975.41
409.30	2010.52
409.49	2040.95
409.68	2073.71
409.87	2162.66
410.07	2153.29
410.26	2146.27
410.45	2073.71
410.64	2104.14
410.83	2209.47
411.02	2204.78
411.21	2303.09
411.40	2169.68
411.59	2251.60
411.78	2260.96
411.98	2424.80
412.17	2319.47
412.36	2296.07
412.55	2382.67
412.74	2490.33
412.93	2466.92
413.12	2476.29
413.31	2485.65
413.50	2469.27
413.69	2532.46
413.88	2546.50
414.07	2565.23
414.26	2569.91
414.45	2633.10
414.64	2705.66
414.83	2649.49
415.02	2771.19
415.22	2656.51
415.41	2656.51
415.60	2736.09
415.79	2796.94
415.98	2869.50
416.17	2827.37
416.36	2867.16
416.55	2869.50
416.74	2909.29
416.93	2874.18
417.12	2906.95
417.31	3028.65
417.50	2937.37
417.69	3019.29
417.88	3056.74
418.07	3103.55
418.26	3103.55
418.45	3073.12
418.64	3155.04
418.83	3239.30
419.02	3215.90
419.21	3204.19
419.39	3239.30
419.58	3206.53
419.77	3293.13
419.96	3304.84
420.15	3272.07
420.34	3229.94
420.53	3215.90
420.72	3346.97
420.91	3351.65
421.10	3400.80
421.29	3485.06
421.48	3421.86
421.67	3403.14
421.86	3410.16
422.05	3370.37
422.24	3494.42
422.43	3499.10
422.61	3485.06
422.80	3459.31
422.99	3555.27
423.18	3492.08
423.37	3658.26
423.56	3625.49
423.75	3606.77
423.94	3506.12
424.13	3239.30
424.32	3438.25
424.50	3473.36
424.69	3644.21
424.88	3641.87
425.07	3538.89
425.26	3412.50
425.45	3412.50
425.64	3482.72
425.83	3541.23
426.01	3674.64
426.20	3522.51
426.39	3716.77
426.58	3644.21
426.77	3581.02
426.96	3534.21
427.15	3590.38
427.33	3585.70
427.52	3672.30
427.71	3730.81
427.90	3719.11
428.09	3904.01
428.28	3583.36
428.46	3782.31
428.65	3779.97
428.84	3822.09
429.03	3889.97
429.22	3824.44
429.40	3868.91
429.59	3798.69
429.78	3562.30
429.97	3765.92
430.16	3782.31
430.34	3829.12
430.53	3831.46
430.72	3889.97
430.91	3878.27
431.10	3847.84
431.28	4035.08
431.47	4217.65
431.66	4138.07
431.85	4007.00
432.03	4133.39
432.22	4339.35
432.41	4262.12
432.60	4184.88
432.79	4184.88
432.97	4297.22
433.16	4170.83
433.35	4198.92
433.54	4191.90
433.72	4348.72
433.91	4266.80
434.10	4243.39
434.28	4320.63
434.47	4271.48
434.66	4432.97
434.85	4407.23
435.03	4568.73
435.22	4388.50
435.41	4538.30
435.59	4652.98
435.78	4547.66
435.97	4571.07
436.16	4648.30
436.34	4606.17
436.53	4608.51
436.72	4713.84
436.90	4451.70
437.09	4634.26
437.28	4568.73
437.46	4709.16
437.65	4580.43
437.84	4821.50
438.02	4730.22
438.21	4688.09
438.40	4779.37
438.58	4868.31
438.77	4833.21
438.96	4784.06
439.14	4889.38
439.33	5100.03
439.52	4971.30
439.70	5074.28
439.89	5062.58
440.08	5245.14
440.26	5184.29
440.45	5151.52
440.63	5214.71
440.82	5493.24
441.01	5303.65
441.19	5357.49
441.38	5460.47
441.57	5385.57
441.75	5575.16
441.94	5488.56
442.12	5659.42
442.31	5607.92
442.50	5537.71
442.68	5666.44
442.87	5640.69
443.05	5628.99
443.24	5701.54
443.43	5687.50
443.61	5783.46
443.80	5865.38
443.98	5720.27
444.17	5472.17
444.35	5799.85
444.54	5858.36
444.73	5823.25
444.91	5708.57
445.10	5898.15
445.28	5659.42
445.47	5804.53
445.65	5841.98
445.84	5841.98
446.02	5912.19
446.21	5830.27
446.39	5713.25
446.58	5900.49
446.77	5827.93
446.95	5940.28
447.14	5982.41
447.32	5947.30
447.51	5968.37
447.69	5959.00
447.88	5940.28
448.06	6036.24
448.25	6043.26
448.43	6012.84
448.62	6043.26
448.80	5966.03
448.99	5975.39
449.17	6164.97
449.36	6108.80
449.54	6216.46
449.73	6370.94
449.91	6277.32
450.10	6380.30
450.28	6368.60
450.46	6356.90
450.65	6485.62
450.83	6375.62
451.02	6319.45
451.20	6373.28
451.39	6352.21
451.57	6455.20
451.76	6415.41
451.94	6497.33
452.13	6452.86
452.31	6417.75
452.49	6342.85
452.68	6553.50
452.86	6633.08
453.05	6558.18
453.23	6583.93
453.42	6651.80
453.60	6633.08
453.78	6670.53
453.97	6628.40
454.15	6668.19
454.34	6633.08
454.52	6740.74
454.70	6813.30
454.89	6670.53
455.07	6754.79
455.26	6895.22
455.44	6834.36
455.62	6860.11
455.81	6862.45
455.99	7056.72
456.17	6853.09
456.36	6930.33
456.54	7246.30
456.73	7108.21
456.91	7276.73
457.09	7176.08
457.28	7384.39
457.46	7302.47
457.64	7435.88
457.83	7314.17
458.01	7307.15
458.19	7440.56
458.38	7250.98
458.56	7506.10
458.74	7316.51
458.93	7463.97
459.11	7403.11
459.29	7368.01
459.48	7566.95
459.66	7503.76
459.84	7573.97
460.03	7683.98
460.21	7733.13
460.39	7611.42
460.57	7634.83
460.76	7747.17
460.94	7620.78
461.12	7815.05
461.31	7793.98
461.49	7763.56
461.67	7576.31
461.85	8002.29
462.04	7815.05
462.22	8446.99
462.40	8107.62
462.59	7922.71
462.77	8028.04
462.95	8126.34
463.13	7932.08
463.32	7927.39
463.50	8002.29
463.68	7906.33
463.86	8201.24
464.05	7964.84
464.23	8131.02
464.41	8161.45
464.59	8079.53
464.78	8168.47
464.96	8334.65
465.14	8236.35
465.32	8418.91
465.50	8299.54
465.69	8299.54
465.87	8138.04
466.05	8360.39
466.23	8322.94
466.41	8545.30
466.60	8617.85
466.78	8486.78
466.96	8306.56
467.14	8311.24
467.32	8566.36
467.51	8683.39
467.69	8255.07
467.87	8557.00
468.05	8589.77
468.23	8587.43
468.41	8489.12
468.60	8662.32
468.78	8870.63
468.96	8472.74
469.14	8784.03
469.32	8800.41
469.50	8470.40
469.69	8933.82
469.87	8961.91
470.05	8894.04
470.23	8915.10
470.41	8784.03
470.59	9088.30
470.77	8868.29
470.95	8847.22
471.14	9181.92
471.32	8819.14
471.50	9331.72
471.68	9242.78
471.86	9266.18
472.04	9345.76
472.22	9565.77
472.40	9238.09
472.58	9493.21
472.77	9380.87
472.95	9687.48
473.13	10118.14
473.31	9458.10
473.49	9425.34
473.67	9610.24
473.85	9682.80
474.03	9937.91
474.21	9872.38
474.39	10045.58
474.57	9863.02
474.75	10197.71
474.93	10195.37
475.12	10087.71
475.30	10183.67
475.48	10197.71
475.66	10111.11
475.84	10349.85
476.02	10410.70
476.20	10345.17
476.38	10623.69
476.56	10780.51
476.74	10520.71
476.92	10619.01
477.10	10714.97
477.28	11419.47
477.46	10850.72
477.64	11140.95
477.82	11040.31
478.00	11365.64
478.18	11297.77
478.36	11150.31
478.54	11412.45
478.72	11683.95
478.90	11754.17
479.08	12084.19
479.26	11922.69
479.44	11908.65
479.62	11920.35
479.80	11836.09
479.98	12152.06
480.16	12416.54
480.34	12159.08
480.52	12666.98
480.70	12556.97
480.88	12360.37
481.06	12472.71
481.24	12615.49
481.41	12779.32
481.59	12957.21
481.77	12936.14
481.95	12989.97
482.13	13205.30
482.31	13362.12
482.49	13521.27
482.67	13640.64
482.85	13905.12
483.03	13518.93
483.21	14040.87
483.39	13963.64
483.57	14108.75
483.74	14139.18
483.92	14340.46
484.10	14249.18
484.28	14354.51
484.46	14670.48
484.64	14609.62
484.82	14663.46
485.00	14733.67
485.18	14993.47
485.35	14972.41
485.53	14738.35
485.71	15290.72
485.89	15370.30
486.07	15096.46
486.25	15410.09
486.43	15559.88
486.61	15822.02
486.78	15948.41
486.96	15784.57
487.14	16629.51
487.32	16105.23
487.50	16435.24
487.68	16535.88
487.85	16776.96
488.03	16961.86
488.21	17109.32
488.39	17301.24
488.57	17151.45
488.75	17415.93
488.92	17638.28
489.10	17823.18
489.28	18024.47
489.46	18092.34
489.64	17855.95
489.81	18031.49
489.99	18265.54
490.17	18523.00
490.35	18525.34
490.53	18422.36
490.70	18738.33
490.88	18658.75
491.06	19150.26
491.24	18843.65
491.41	19070.68
491.59	19087.07
491.77	19218.14
491.95	19253.25
492.13	19690.93
492.30	19807.95
492.48	20114.56
492.66	20095.84
492.84	19906.26
493.01	20285.42
493.19	20247.97
493.37	20180.10
493.54	20606.08
493.72	20563.95
493.90	20952.48
494.08	20879.92
494.25	21128.02
494.43	21231.00
494.61	21537.61
494.79	21439.31
494.96	21762.30
495.14	21635.91
495.32	21626.55
495.49	21837.20
495.67	21823.16
495.85	21998.70
496.02	22087.64
496.20	22534.68
496.38	22759.37
496.55	22656.39
496.73	23051.94
496.91	22878.74
497.09	22810.86
497.26	23070.66
497.44	22937.25
497.62	22920.87
497.79	23723.67
497.97	23300.03
498.14	23667.50
498.32	23627.71
498.50	24027.94
498.67	24128.58
498.85	24046.66
499.03	24217.52
499.20	24219.86
499.38	24273.70
499.56	24203.48
499.73	24629.46
499.91	24243.27
500.08	24638.82
500.26	24208.16
500.44	24491.37
500.61	24828.40
500.79	24180.07
500.97	24783.93
501.14	24936.07
501.32	25532.90
501.49	25137.35
501.67	24982.88
501.84	25343.32
502.02	25441.62
502.20	25689.72
502.37	25591.42
502.55	25600.78
502.72	25724.83
502.90	26103.99
503.07	25628.87
503.25	26101.65
503.43	26012.71
503.60	26235.06
503.78	26270.17
503.95	26031.44
504.13	26441.03
504.30	26438.69
504.48	26377.84
504.65	26569.76
504.83	26986.38
505.01	26909.14
505.18	26988.72
505.36	27077.66
505.53	27087.02
505.71	27372.57
505.88	27381.93
506.06	27264.90
506.23	27080.00
506.41	27524.70
506.58	27744.71
506.76	27402.99
506.93	27761.09
507.11	27630.02
507.28	27871.10
507.46	28137.92
507.63	27927.27
507.81	28177.71
507.98	28259.63
508.16	28226.86
508.33	28273.67
508.50	28638.80
508.68	28491.34
508.85	28907.96
509.03	28694.97
509.20	28767.52
509.38	29315.21
509.55	28889.23
509.73	29298.83
509.90	29207.55
510.08	29418.19
510.25	29427.56
510.42	29745.87
510.60	29631.18
510.77	29682.67
510.95	29874.60
511.12	29727.14
511.30	29783.32
511.47	29841.83
511.64	30209.29
511.82	30078.22
511.99	29883.96
512.17	29956.52
512.34	29860.55
512.51	30775.70
512.69	30726.55
512.86	30452.71
513.04	30625.91
513.21	30862.30
513.38	30700.81
513.56	31122.10
513.73	30862.30
513.90	31054.23
514.08	30864.64
514.25	31033.16
514.43	30691.44
514.60	31126.78
514.77	31290.62
514.95	31564.46
515.12	31409.99
515.29	31442.76
515.47	31807.88
515.64	31985.76
515.81	31875.76
515.99	31580.85
516.16	31618.30
516.33	31585.53
516.51	31955.33
516.68	31571.49
516.85	31641.70
517.03	31566.81
517.20	31978.74
517.37	32037.25
517.54	32158.96
517.72	32215.13
517.89	32219.81
518.06	31868.73
518.24	32393.01
518.41	32203.43
518.58	32580.26
518.75	32552.17
518.93	32954.74
519.10	32449.19
519.27	32678.56
519.45	32584.94
519.62	33270.72
519.79	33071.77
519.96	33535.20
520.14	33764.57
520.31	33563.28
520.48	33528.17
520.65	33731.80
520.83	33652.22
521.00	33724.78
521.17	33790.31
521.34	33757.55
521.52	34033.73
521.69	33853.51
521.86	34115.65
522.03	34146.08
522.20	34150.76
522.38	33813.72
522.55	34380.13
522.72	34078.20
522.89	34192.89
523.07	34328.64
523.24	34057.14
523.41	34550.99
523.58	34338.00
523.75	34693.76
523.92	34569.71
524.10	34981.65
524.27	34738.23
524.44	34841.21
524.61	34998.03
524.78	35171.23
524.96	35477.84
525.13	35243.79
525.30	35131.44
525.47	35491.88
525.64	35276.55
525.81	35414.65
525.98	35225.06
526.16	35447.41
526.33	35440.39
526.50	35761.05
526.67	35189.95
526.84	35009.73
527.01	35349.11
527.18	35676.79
527.36	36123.83
527.53	35779.77
527.70	36208.09
527.87	36297.03
528.04	36156.60
528.21	36229.15
528.38	36084.04
528.55	36458.52
528.72	36456.18
528.89	36891.52
529.07	36341.50
529.24	36407.03
529.41	36404.69
529.58	36428.10
529.75	36371.92
529.92	37221.54
530.09	37120.90
530.26	36711.30
530.43	37148.98
530.60	36591.94
530.77	36945.36
530.94	37137.28
531.11	36985.15
531.28	37010.89
531.46	37179.41
531.63	37673.26
531.80	37116.22
531.97	37556.24
532.14	37600.71
532.31	37050.68
532.48	37399.42
532.65	37556.24
532.82	37460.27
532.99	37944.76
533.16	37624.11
533.33	37844.12
533.50	37607.73
533.67	38143.71
533.84	37949.45
534.01	37921.36
534.18	38010.30
534.35	38389.47
534.52	38263.08
534.69	38066.47
534.86	38171.80
535.03	38265.42
535.20	38375.42
535.37	38543.94
535.54	38756.93
535.71	38389.47
535.88	38160.09
536.05	38492.45
536.22	38859.91
536.38	38300.53
536.55	38546.28
536.72	39012.05
536.89	38607.14
537.06	38789.70
537.23	38567.35
537.40	38836.51
537.57	38630.54
537.74	38845.87
537.91	39391.22
538.08	38925.45
538.25	39199.29
538.42	39012.05
538.59	39332.70
538.75	39098.65
538.92	39014.39
539.09	39601.86
539.26	39182.91
539.43	39152.48
539.60	39569.10
539.77	39124.40
539.94	39541.01
540.11	39203.97
540.28	39377.17
540.44	39213.34
540.61	39651.02
540.78	39643.99
540.95	39325.68
541.12	39632.29
541.29	39702.51
541.46	39700.17
541.62	39629.95
541.79	40091.04
541.96	39835.92
542.13	39945.92
542.30	40378.92
542.47	39569.10
542.63	39587.82
542.80	40205.72
542.97	40928.95
543.14	40542.76
543.31	40587.23
543.48	40350.84
543.64	40678.51
543.81	40624.68
543.98	40297.00
544.15	40531.06
544.32	40893.84
544.48	41240.24
544.65	40992.14
544.82	41057.68
544.99	40458.50
545.16	41027.25
545.32	40751.07
545.49	41251.94
545.66	40933.63
545.83	41097.47
546.00	41235.56
546.16	41361.95
546.33	40968.74
546.50	40765.11
546.67	41324.50
546.83	41038.95
547.00	41294.07
547.17	41139.60
547.34	41228.54
547.50	41322.16
547.67	41694.30
547.84	41677.92
548.00	42014.96
548.17	41476.63
548.34	41764.52
548.51	41982.19
548.67	41516.42
548.84	41808.99
549.01	41738.77
549.18	41558.55
549.34	41652.17
549.51	42185.82
549.68	41631.11
549.84	42305.18
550.01	42195.18
550.18	41794.95
550.34	42000.91
550.51	41755.16
550.68	41993.89
550.84	41816.01
551.01	42054.75
551.18	41921.34
551.34	42323.91
551.51	42279.44
551.68	42579.03
551.84	42178.79
552.01	41996.23
552.18	42127.30
552.34	41928.36
552.51	42124.96
552.68	42469.02
552.84	42108.58
553.01	42857.55
553.18	42553.28
553.34	42880.95
553.51	42337.95
553.67	42572.00
553.84	42913.72
554.01	42389.44
554.17	42745.20
554.34	42742.86
554.51	42976.92
554.67	43056.50
554.84	42663.28
555.00	42609.45
555.17	42543.92
555.33	43306.93
555.50	42754.57
555.67	43461.41
555.83	42976.92
556.00	42766.27
556.16	43395.87
556.33	42862.23
556.50	43000.32
556.66	43416.94
556.83	42997.98
556.99	42721.80
557.16	43459.07
557.32	43309.27
557.49	43203.95
557.65	42899.68
557.82	43328.00
557.98	42497.11
558.15	43054.15
558.32	43278.85
558.48	43164.16
558.65	43257.78
558.81	43428.64
558.98	43618.22
559.14	43227.35
559.31	43243.74
559.47	43498.86
559.64	43990.37
559.80	43803.13
559.97	43803.13
560.13	43409.92
560.30	43573.75
560.46	43665.03
560.63	43487.15
560.79	43466.09
560.96	43669.72
561.12	43515.24
561.29	43875.68
561.45	43695.46
561.61	43978.67
561.78	44135.48
561.94	43494.18
562.11	43648.65
562.27	43999.73
562.44	43772.70
562.60	44280.60
562.77	44385.92
562.93	44055.90
563.10	43810.15
563.26	44037.18
563.42	44034.84
563.59	43835.89
563.75	44055.90
563.92	44182.29
564.08	44163.57
564.24	44128.46
564.41	43753.97
564.57	43700.14
564.74	43971.64
564.90	44306.34
565.07	44264.21
565.23	43889.73
565.39	44219.74
565.56	44594.23
565.72	43913.13
565.88	44687.85
566.05	44144.84
566.21	44264.21
566.38	43856.96
566.54	43880.36
566.70	44287.62
566.87	44636.36
567.03	44093.35
567.19	44748.70
567.36	44112.08
567.52	44055.90
567.68	44126.12
567.85	44360.17
568.01	44479.54
568.17	43959.94
568.34	44353.15
568.50	44519.33
568.66	44046.54
568.83	44217.40
568.99	44083.99
569.15	44191.65
569.32	44048.88
569.48	43908.45
569.64	44598.91
569.81	44374.22
569.97	44009.09
570.13	44229.10
570.30	44388.26
570.46	44521.67
570.62	44198.68
570.78	44182.29
570.95	44121.44
571.11	44884.45
571.27	44610.61
571.43	44406.98
571.60	44807.22
571.76	43929.51
571.92	44191.65
572.09	43973.98
572.25	44318.04
572.41	44751.04
572.57	44046.54
572.74	45064.67
572.90	44547.42
573.06	44570.82
573.22	44446.77
573.38	44430.39
573.55	44158.89
573.71	44891.48
573.87	44575.50
574.03	44186.97
574.20	44495.92
574.36	44509.97
574.52	44381.24
574.68	44973.39
574.84	44554.44
575.01	44573.16
575.17	44325.07
575.33	44402.30
575.49	44273.57
575.65	45219.15
575.82	44985.10
575.98	44737.00
576.14	44641.04
576.30	44584.86
576.46	44320.38
576.62	44779.13
576.79	44732.32
576.95	44678.49
577.11	44278.25
577.27	44694.87
577.43	44648.06
577.59	44924.24
577.75	44601.25
577.92	44582.52
578.08	43976.33
578.24	44203.36
578.40	44617.63
578.56	44467.84
578.72	44556.78
578.88	44940.63
579.04	44570.82
579.21	44755.72
579.37	44563.80
579.53	44861.05
579.69	44751.04
579.85	44662.10
580.01	44896.16
580.17	44355.49
580.33	45083.40
580.49	44619.97
580.65	44732.32
580.82	44912.54
580.98	44809.56
581.14	44540.39
581.30	44982.76
581.46	44549.76
581.62	44889.13
581.78	44690.19
581.94	44975.73
582.10	44868.07
582.26	44954.67
582.42	44872.75
582.58	44797.85
582.74	44715.93
582.90	44641.04
583.06	44617.63
583.22	45148.93
583.38	45024.89
583.54	44800.19
583.70	44662.10
583.86	44971.05
584.02	44631.68
584.18	44863.39
584.34	44584.86
584.50	44524.01
584.66	44535.71
584.82	44528.69
584.98	44917.22
585.14	44704.23
585.30	44617.63
585.46	44594.23
585.62	44463.16
585.78	44727.64
585.94	44315.70
586.10	44854.03
586.26	44935.95
586.42	44877.43
586.58	44786.15
586.74	44832.96
586.90	44486.56
587.06	44774.45
587.22	44954.67
587.38	44236.12
587.54	45095.10
587.70	45076.38
587.86	44957.01
588.02	44928.92
588.18	44879.77
588.34	44762.75
588.49	44533.37
588.65	45134.89
588.81	44729.98
588.97	44683.17
589.13	44463.16
589.29	44832.96
589.45	44814.24
589.61	44580.18
589.77	44989.78
589.93	44549.76
590.08	45038.93
590.24	45326.81
