SpectraSuite Data File
++++++++++++++++++++++++++++++++++++
Date: Fri Oct 25 11:25:08 EDT 2013
User: price-jones
Dark Spectrum Present: No
Reference Spectrum Present: No
Number of Sampled Component Spectra: 1
Spectrometers: USB2+H05261
Integration Time (usec): 100000 (USB2+H05261)
Spectra Averaged: 1 (USB2+H05261)
Boxcar Smoothing: 0 (USB2+H05261)
Correct for Electrical Dark: No (USB2+H05261)
Strobe/Lamp Enabled: No (USB2+H05261)
Correct for Detector Non-linearity: No (USB2+H05261)
Correct for Stray Light: No (USB2+H05261)
Number of Pixels in Processed Spectrum: 2048
>>>>>Begin Processed Spectral Data<<<<<
365.73	224.69
365.92	224.69
366.12	224.69
366.32	133.41
366.52	154.48
366.72	201.29
366.91	159.16
367.11	191.92
367.31	133.41
367.51	124.05
367.70	147.45
367.90	128.73
368.10	107.66
368.30	180.22
368.49	95.96
368.69	126.39
368.89	117.03
369.09	205.97
369.28	119.37
369.48	187.24
369.68	149.79
369.87	301.93
370.07	196.60
370.27	231.71
370.47	308.95
370.66	585.13
370.86	643.65
371.06	709.18
371.25	737.27
371.45	695.14
371.65	753.65
371.84	688.12
372.04	737.27
372.24	774.72
372.44	753.65
372.63	732.59
372.83	793.44
373.03	737.27
373.22	758.33
373.42	748.97
373.62	760.67
373.81	781.74
374.01	828.55
374.21	856.64
374.40	849.61
374.60	837.91
374.79	866.00
374.99	837.91
375.19	795.78
375.38	844.93
375.58	695.14
375.78	912.81
375.97	807.48
376.17	875.36
376.37	884.72
376.56	882.38
376.76	835.57
376.95	931.53
377.15	851.96
377.35	870.68
377.54	943.24
377.74	821.53
377.93	844.93
378.13	924.51
378.33	873.02
378.52	929.19
378.72	931.53
378.91	950.26
379.11	908.13
379.31	983.02
379.50	884.72
379.70	936.21
379.89	915.15
380.09	964.30
380.28	961.96
380.48	1015.79
380.68	978.34
380.87	1004.09
381.07	1006.43
381.26	1048.56
381.46	1048.56
381.65	983.02
381.85	1069.62
382.04	990.05
382.24	1008.77
382.43	1078.99
382.63	1015.79
382.83	1104.73
383.02	1123.46
383.22	1081.33
383.41	1081.33
383.61	1135.16
383.80	1165.59
384.00	1174.95
384.19	1111.75
384.39	1153.88
384.58	1247.51
384.78	1088.35
384.97	1116.44
385.17	1069.62
385.36	1165.59
385.56	1153.88
385.75	1074.31
385.95	1188.99
386.14	1268.57
386.34	1252.19
386.53	1210.06
386.72	1233.46
386.92	1282.61
387.11	1123.46
387.31	1277.93
387.50	1158.57
387.70	1324.74
387.89	1249.85
388.09	1177.29
388.28	1287.29
388.48	1310.70
388.67	1273.25
388.86	1287.29
389.06	1413.68
389.25	1277.93
389.45	1299.00
389.64	1352.83
389.84	1409.00
390.03	1355.17
390.22	1364.53
390.42	1397.30
390.61	1420.71
390.81	1423.05
391.00	1404.32
391.19	1413.68
391.39	1446.45
391.58	1460.49
391.78	1460.49
391.97	1582.20
392.16	1509.65
392.36	1556.46
392.55	1497.94
392.75	1612.63
392.94	1500.28
393.13	1605.61
393.33	1500.28
393.52	1586.88
393.71	1636.03
393.91	1696.89
394.10	1561.14
394.29	1612.63
394.49	1558.80
394.68	1643.06
394.88	1568.16
395.07	1806.89
395.26	1647.74
395.46	1659.44
395.65	1671.14
395.84	1610.29
396.04	1678.16
396.23	1703.91
396.42	1816.26
396.62	1799.87
396.81	1710.93
397.00	1762.42
397.19	1806.89
397.39	1834.98
397.58	1806.89
397.77	1790.51
397.97	1844.34
398.16	1851.36
398.35	1919.24
398.55	1898.17
398.74	1816.26
398.93	1879.45
399.12	1961.37
399.32	1928.60
399.51	1954.35
399.70	1998.82
399.90	2050.31
400.09	2005.84
400.28	2031.58
400.47	2129.89
400.67	2143.93
400.86	2083.08
401.05	2031.58
401.24	1975.41
401.44	2043.29
401.63	2118.18
401.82	2202.44
402.01	2129.89
402.21	2235.21
402.40	2204.78
402.59	2202.44
402.78	2139.25
402.97	2342.88
403.17	2270.32
403.36	2284.36
403.55	2396.71
403.74	2298.41
403.93	2342.88
404.13	2434.16
404.32	2354.58
404.51	2385.01
404.70	2490.33
404.89	2452.88
405.09	2443.52
405.28	2574.59
405.47	2539.48
405.66	2499.69
405.85	2551.18
406.05	2511.39
406.24	2607.36
406.43	2476.29
406.62	2693.96
406.81	2684.59
407.00	2438.84
407.20	2537.14
407.39	2548.84
407.58	2731.41
407.77	2705.66
407.96	2616.72
408.15	2806.30
408.34	2808.64
408.54	2839.07
408.73	2731.41
408.92	2822.69
409.11	2853.11
409.30	2862.48
409.49	2843.75
409.68	2911.63
409.87	2939.71
410.07	3019.29
410.26	3035.67
410.45	2920.99
410.64	3023.97
410.83	3070.78
411.02	3040.36
411.21	3094.19
411.40	3000.57
411.59	3220.58
411.78	3145.68
411.98	3059.08
412.17	3213.56
412.36	3447.61
412.55	3405.48
412.74	3426.54
412.93	3370.37
413.12	3384.41
413.31	3557.61
413.50	3459.31
413.69	3499.10
413.88	3566.98
414.07	3660.60
414.26	3644.21
414.45	3651.24
414.64	3709.75
414.83	3719.11
415.02	3751.88
415.22	3763.58
415.41	3812.73
415.60	3803.37
415.79	3974.23
415.98	3960.19
416.17	3943.80
416.36	3899.33
416.55	4063.17
416.74	4140.41
416.93	4077.21
417.12	4095.94
417.31	4124.02
417.50	4210.62
417.69	4154.45
417.88	4278.50
418.07	4205.94
418.26	4407.23
418.45	4402.55
418.64	4432.97
418.83	4365.10
419.02	4456.38
419.21	4395.53
419.39	4458.72
419.58	4397.87
419.77	4442.34
419.96	4503.19
420.15	4582.77
420.34	4695.11
420.53	4758.31
420.72	4648.30
420.91	4685.75
421.10	4526.60
421.29	4596.81
421.48	4643.62
421.67	4692.77
421.86	4748.95
422.05	4912.78
422.24	4875.34
422.43	4816.82
422.61	4746.61
422.80	4961.94
422.99	4959.60
423.18	4912.78
423.37	4931.51
423.56	4917.47
423.75	4990.02
423.94	4882.36
424.13	4634.26
424.32	4753.63
424.50	4884.70
424.69	4856.61
424.88	5165.56
425.07	4983.00
425.26	5013.43
425.45	4844.91
425.64	4929.17
425.83	4901.08
426.01	5027.47
426.20	5081.30
426.39	5036.83
426.58	5109.39
426.77	5132.79
426.96	5188.97
427.15	5041.51
427.33	5235.78
427.52	5247.48
427.71	5093.01
427.90	5210.03
428.09	5268.55
428.28	5289.61
428.46	5397.28
428.65	5359.83
428.84	5551.75
429.03	5549.41
429.22	5397.28
429.40	5308.34
429.59	5432.38
429.78	5151.52
429.97	5203.01
430.16	5579.84
430.34	5570.48
430.53	5687.50
430.72	5600.90
430.91	5462.81
431.10	5612.60
431.28	5598.56
431.47	5813.89
431.66	5877.09
431.85	5584.52
432.03	5834.96
432.22	5968.37
432.41	5884.11
432.60	5760.06
432.79	6003.47
432.97	5998.79
433.16	5970.71
433.35	5989.43
433.54	6129.86
433.72	6176.67
433.91	5937.94
434.10	6162.63
434.28	6064.33
434.47	6113.48
434.66	6366.26
434.85	6064.33
435.03	6347.53
435.22	6380.30
435.41	6258.59
435.59	6417.75
435.78	6377.96
435.97	6333.49
436.16	6445.84
436.34	6413.07
436.53	6619.04
436.72	6705.63
436.90	6399.02
437.09	6562.86
437.28	6377.96
437.46	6502.01
437.65	6595.63
437.84	6825.00
438.02	6541.80
438.21	6490.31
438.40	6752.45
438.58	7068.42
438.77	6958.41
438.96	6794.58
439.14	6918.62
439.33	7080.12
439.52	7061.40
439.70	7171.40
439.89	7272.04
440.08	7258.00
440.26	7279.07
440.45	7623.12
440.63	7391.41
440.82	7672.28
441.01	7492.05
441.19	7618.44
441.38	7641.85
441.57	7688.66
441.75	7955.48
441.94	8042.08
442.12	7885.26
442.31	7992.93
442.50	7843.14
442.68	7906.33
442.87	7957.82
443.05	7985.91
443.24	8121.66
443.43	8079.53
443.61	8109.96
443.80	8147.40
443.98	8023.36
444.17	7838.45
444.35	8138.04
444.54	8297.20
444.73	8264.43
444.91	8458.70
445.10	8393.16
445.28	8381.46
445.47	8093.57
445.65	8383.80
445.84	8418.91
446.02	8561.68
446.21	8416.57
446.39	8262.09
446.58	8421.25
446.77	8311.24
446.95	8276.13
447.14	8362.73
447.32	8500.83
447.51	8545.30
447.69	8416.57
447.88	8526.57
448.06	8224.64
448.25	8393.16
448.43	8430.61
448.62	8500.83
448.80	8444.65
448.99	8458.70
449.17	8746.58
449.36	8608.49
449.54	8723.18
449.73	8931.48
449.91	8887.01
450.10	9123.41
450.28	9116.39
450.46	9055.53
450.65	8856.59
450.83	9011.06
451.02	8964.25
451.20	9198.31
451.39	9317.67
451.57	9329.38
451.76	9001.70
451.94	9170.22
452.13	9359.80
452.31	9322.35
452.49	9081.28
452.68	9296.61
452.86	9233.41
453.05	9481.51
453.23	9390.23
453.42	9355.12
453.60	9268.52
453.78	9404.27
453.97	9357.46
454.15	9193.62
454.34	9418.32
454.52	9928.55
454.70	9664.07
454.89	9528.32
455.07	9738.97
455.26	9902.81
455.44	9680.46
455.62	9680.46
455.81	9916.85
455.99	9940.26
456.17	9846.63
456.36	9865.36
456.54	10040.90
456.73	10202.40
456.91	10377.94
457.09	10415.38
457.28	10478.58
457.46	10171.97
457.64	10415.38
457.83	10607.31
458.01	10384.96
458.19	10551.14
458.38	10394.32
458.56	10679.86
458.74	10602.63
458.93	10494.96
459.11	10698.59
459.29	10637.73
459.48	10824.98
459.66	10520.71
459.84	10876.47
460.03	11009.88
460.21	11012.22
460.39	10960.73
460.57	10864.77
460.76	11070.73
460.94	10986.47
461.12	11222.87
461.31	11152.65
461.49	11171.38
461.67	11269.68
461.85	11375.00
462.04	11019.24
462.22	11665.23
462.40	11475.65
462.59	11747.15
462.77	11571.61
462.95	11569.27
463.13	11595.01
463.32	11555.22
463.50	11693.32
463.68	11791.62
463.86	11798.64
464.05	11510.75
464.23	11625.44
464.41	11742.47
464.59	11784.60
464.78	12058.44
464.96	12184.83
465.14	11606.72
465.32	12107.59
465.50	12285.47
465.69	12376.75
465.87	12381.43
466.05	12009.29
466.23	12222.28
466.41	12187.17
466.60	12325.26
466.78	12269.09
466.96	12311.22
467.14	12198.87
467.32	12280.79
467.51	12472.71
467.69	12077.16
467.87	12486.76
468.05	12650.60
468.23	12437.61
468.41	12297.17
468.60	12456.33
468.78	12706.77
468.96	12414.20
469.14	12884.65
469.32	12922.10
469.50	12699.75
469.69	12788.69
469.87	12924.44
470.05	12727.83
470.23	13156.15
470.41	13266.16
470.59	13212.32
470.77	13135.09
470.95	13310.63
471.14	13387.86
471.32	12968.91
471.50	13530.64
471.68	13710.86
471.86	13642.98
472.04	13336.37
472.22	13982.36
472.40	13729.58
472.58	13738.94
472.77	13724.90
472.95	13914.48
473.13	14506.64
473.31	13963.64
473.49	14033.85
473.67	14122.79
473.85	14211.73
474.03	14483.24
474.21	14621.33
474.39	14644.73
474.57	14588.56
474.75	14626.01
474.93	14876.44
475.12	14647.07
475.30	15204.12
475.48	15213.48
475.66	15489.67
475.84	14850.70
476.02	15382.00
476.20	15124.54
476.38	15777.55
476.56	15868.83
476.74	15868.83
476.92	15903.94
477.10	15712.02
477.28	15854.79
477.46	16266.72
477.64	16374.39
477.82	16542.91
478.00	16699.72
478.18	16575.67
478.36	16767.60
478.54	17193.58
478.72	16915.05
478.90	17193.58
479.08	17589.13
479.26	17329.33
479.44	17556.36
479.62	17710.83
479.80	17902.76
479.98	18141.49
480.16	18448.10
480.34	18010.42
480.52	18300.65
480.70	18560.45
480.88	18335.76
481.06	18759.39
481.24	18831.95
481.41	19058.98
481.59	19126.86
481.77	19435.81
481.95	19325.80
482.13	19466.24
482.31	19339.85
482.49	19985.83
482.67	20002.22
482.85	20072.43
483.03	20519.48
483.21	20568.63
483.39	20989.92
483.57	20814.38
483.74	21106.95
483.92	21565.70
484.10	20961.84
484.28	21680.38
484.46	21958.91
484.64	22305.31
484.82	22043.17
485.00	22293.60
485.18	22501.91
485.35	22850.65
485.53	22590.85
485.71	22827.24
485.89	23271.95
486.07	23183.01
486.25	23154.92
486.43	23412.38
486.61	23772.82
486.78	23845.38
486.96	23690.90
487.14	24500.73
487.32	24559.24
487.50	24882.24
487.68	24865.85
487.85	25331.62
488.03	25633.55
488.21	25773.98
488.39	25717.81
488.57	25968.24
488.75	26230.38
488.92	26485.50
489.10	26525.29
489.28	26588.49
489.46	27180.64
489.64	27002.76
489.81	27592.58
489.99	27433.42
490.17	27704.92
490.35	28198.77
490.53	27931.95
490.70	28173.03
490.88	28046.64
491.06	28814.34
491.24	28629.43
491.41	28830.72
491.59	29170.10
491.77	29060.09
491.95	29624.16
492.13	29804.38
492.30	29795.02
492.48	29778.64
492.66	30387.18
492.84	30050.14
493.01	30485.48
493.19	30532.29
493.37	31213.38
493.54	30866.98
493.72	31419.35
493.90	31405.31
494.08	31702.56
494.25	32046.62
494.43	31910.86
494.61	31990.44
494.79	32580.26
494.96	32519.40
495.14	32877.51
495.32	33088.15
495.49	32919.63
495.67	33228.59
495.85	33596.05
496.02	33628.82
496.20	33692.01
496.38	33399.44
496.55	33762.23
496.73	34630.57
496.91	34433.96
497.09	34614.18
497.26	35206.34
497.44	34834.19
497.62	35143.14
497.79	35665.08
497.97	35129.10
498.14	35938.93
498.32	36133.19
498.50	35857.01
498.67	36353.20
498.85	36374.27
499.03	36369.58
499.20	36404.69
499.38	37043.66
499.56	37333.89
499.73	36959.40
499.91	37563.26
500.08	37619.43
500.26	37027.28
500.44	37233.24
500.61	37572.62
500.79	37935.40
500.97	38134.35
501.14	38251.38
501.32	37958.81
501.49	38836.51
501.67	38733.53
501.84	38871.62
502.02	38675.01
502.20	39129.08
502.37	39072.90
502.55	39047.16
502.72	39739.96
502.90	39519.95
503.07	39054.18
503.25	39948.26
503.43	39594.84
503.60	39856.98
503.78	40205.72
503.95	39957.63
504.13	40231.47
504.30	40437.44
504.48	40526.38
504.65	40685.53
504.83	40854.05
505.01	41191.09
505.18	41120.87
505.36	41200.45
505.53	41270.67
505.71	41174.70
505.88	41830.05
506.06	41179.39
506.23	41717.71
506.41	41954.10
506.58	41848.78
506.76	42319.23
506.93	42169.43
507.11	42445.62
507.28	42185.82
507.46	42026.66
507.63	42927.77
507.81	42806.06
507.98	42593.07
508.16	43225.01
508.33	43438.00
508.50	43494.18
508.68	43786.74
508.85	43653.33
509.03	43650.99
509.20	43934.20
509.38	43861.64
509.55	44219.74
509.73	43875.68
509.90	44224.42
510.08	44161.23
510.25	44395.28
510.42	44612.95
510.60	44797.85
510.77	45291.71
510.95	45336.18
511.12	45254.26
511.30	45120.85
511.47	45186.38
511.64	45116.17
511.82	45991.53
511.99	45467.25
512.17	45911.95
512.34	45656.83
512.51	46232.60
512.69	45998.55
512.86	46136.64
513.04	46342.61
513.21	46553.26
513.38	46431.55
513.56	46742.84
513.73	46635.17
513.90	46579.00
514.08	46611.77
514.25	47040.09
514.43	47056.47
514.60	47091.58
514.77	47222.65
514.95	47641.60
515.12	47421.59
515.29	47545.64
515.47	47810.12
515.64	47709.48
515.81	47751.61
515.99	47866.30
516.16	47983.32
516.33	48170.57
516.51	48156.52
516.68	48505.26
516.85	47938.85
517.03	48540.37
517.20	48821.23
517.37	48582.50
517.54	48493.56
517.72	49064.65
517.89	49109.12
518.06	48814.21
518.24	48956.99
518.41	48961.67
518.58	49200.40
518.75	49081.03
518.93	49137.21
519.10	49123.16
519.27	49560.84
519.45	49406.37
519.62	49734.04
519.79	49858.09
519.96	49731.70
520.14	49970.44
520.31	50440.89
520.48	50373.01
520.65	49930.65
520.83	50522.80
521.00	50342.58
521.17	50630.47
521.34	50440.89
521.52	50597.70
521.69	50962.82
521.86	50590.68
522.03	51000.27
522.20	51126.66
522.38	50965.17
522.55	51047.08
522.72	51313.90
522.89	51016.66
523.07	51442.63
523.24	51407.53
523.41	51215.60
523.58	51421.57
523.75	51681.37
523.92	51744.56
524.10	51856.91
524.27	51819.46
524.44	51629.88
524.61	52116.71
524.78	52025.43
524.96	52268.84
525.13	52032.45
525.30	52341.40
525.47	52137.77
525.64	52299.27
525.81	52629.29
525.98	52591.84
526.16	52425.66
526.33	52325.02
526.50	52851.64
526.67	52612.90
526.84	52811.85
527.01	53045.90
527.18	52596.52
527.36	52868.02
527.53	52743.97
527.70	53265.91
527.87	53457.84
528.04	53265.91
528.21	53361.87
528.38	53158.25
528.55	53308.04
528.72	53174.63
528.89	53343.15
529.07	53268.25
529.24	53219.10
529.41	53741.04
529.58	53841.68
529.75	53521.03
529.92	53797.21
530.09	53853.39
530.26	53741.04
530.43	53956.37
530.60	53595.93
530.77	53727.00
530.94	54188.08
531.11	53647.42
531.28	54028.93
531.46	54169.36
531.63	54092.12
531.80	54234.89
531.97	54394.05
532.14	54312.13
532.31	54291.07
532.48	54328.52
532.65	54597.68
532.82	54431.50
532.99	54635.13
533.16	54574.27
533.33	54419.80
533.50	54733.43
533.67	54717.04
533.84	54738.11
534.01	54930.03
534.18	54651.51
534.35	55147.70
534.52	54721.72
534.69	54906.63
534.86	55353.67
535.03	54803.64
535.20	55215.58
535.37	55220.26
535.54	55313.88
535.71	55089.19
535.88	55187.49
536.05	55274.09
536.22	55634.53
536.38	55454.31
536.55	55578.36
536.72	55503.46
536.89	55304.52
537.06	55538.57
537.23	55744.54
537.40	55681.34
537.57	55664.96
537.74	55760.92
537.91	55884.97
538.08	55796.03
538.25	55360.69
538.42	55791.35
538.59	56034.77
538.75	55849.86
538.92	56088.60
539.09	56041.79
539.26	56020.72
539.43	55999.66
539.60	56168.18
539.77	56212.65
539.94	56409.25
540.11	56388.19
540.28	56107.32
540.44	56233.71
540.61	56303.93
540.78	56217.33
540.95	56463.08
541.12	56334.35
541.29	56189.24
541.46	56481.81
541.62	56399.89
541.79	56397.55
541.96	56439.68
542.13	56324.99
542.30	56423.29
542.47	56739.27
542.63	57027.15
542.80	56935.87
542.97	56928.85
543.14	56933.53
543.31	56952.26
543.48	57052.90
543.64	57387.60
543.81	57174.61
543.98	57268.23
544.15	57223.76
544.32	57380.57
544.48	57411.00
544.65	57146.52
544.82	57439.09
544.99	57432.07
545.16	57340.78
545.32	57268.23
545.49	57427.38
545.66	57588.88
545.83	57537.39
546.00	57504.62
546.16	57591.22
546.33	57478.88
546.50	57251.84
546.67	57783.15
546.83	57394.62
547.00	57729.31
547.17	57738.68
547.34	57726.97
547.50	57790.17
547.67	58152.95
547.84	57733.99
548.00	58052.31
548.17	58103.80
548.34	57991.45
548.51	58232.53
548.67	58000.82
548.84	57968.05
549.01	58103.80
549.18	58143.59
549.34	58071.03
549.51	58342.53
549.68	58293.38
549.84	58326.15
550.01	58365.94
550.18	58255.93
550.34	58319.13
550.51	58513.39
550.68	58513.39
550.84	58202.10
551.01	58410.41
551.18	58405.73
551.34	58410.41
551.51	58349.56
551.68	58429.13
551.84	58609.35
552.01	58564.88
552.18	58691.27
552.34	58253.59
552.51	58759.15
552.68	58405.73
552.84	58487.65
553.01	58693.61
553.18	58630.42
553.34	58672.55
553.51	58482.97
553.67	58831.71
553.84	58768.51
554.01	58866.81
554.17	59023.63
554.34	58967.46
554.51	58698.30
554.67	58969.80
554.84	58920.65
555.00	58885.54
555.17	58815.32
555.33	58834.05
555.50	58873.84
555.67	58941.71
555.83	58906.60
556.00	59077.46
556.16	59238.96
556.33	59419.18
556.50	59093.85
556.66	59290.45
556.83	59000.22
556.99	59341.94
557.16	59456.63
557.32	59386.41
557.49	59564.29
557.65	59171.08
557.82	59248.32
557.98	59203.85
558.15	59344.28
558.32	59456.63
558.48	59377.05
558.65	59157.04
558.81	59480.03
558.98	59524.50
559.14	59470.67
559.31	59475.35
559.47	59510.46
559.64	59473.01
559.80	59695.36
559.97	59882.61
560.13	59693.02
560.30	59391.09
560.46	59531.53
560.63	59625.15
560.79	59826.43
560.96	59791.33
561.12	59671.96
561.29	59643.87
561.45	59681.32
561.61	59774.94
561.78	59597.06
561.94	59643.87
562.11	59587.70
562.27	59796.01
562.44	59873.24
562.60	60037.08
562.77	60016.02
562.93	59505.78
563.10	59999.63
563.26	59814.73
563.42	59917.71
563.59	59934.10
563.75	60001.97
563.92	59707.07
564.08	59887.29
564.24	59908.35
564.41	60020.70
564.57	60102.62
564.74	60137.72
564.90	59934.10
565.07	60046.44
565.23	59997.29
565.39	60079.21
565.56	60205.60
565.72	60147.09
565.88	60119.00
566.05	60149.43
566.21	60081.55
566.38	59924.74
566.54	60282.84
566.70	60329.65
566.87	60133.04
567.03	59997.29
567.19	60378.80
567.36	59999.63
567.52	60172.83
567.68	60404.55
567.85	60243.05
568.01	60378.80
568.17	60109.64
568.34	60317.95
568.50	60294.54
568.66	60233.69
568.83	60308.58
568.99	60165.81
569.15	60381.14
569.32	60292.20
569.48	60336.67
569.64	60402.21
569.81	60491.15
569.97	60367.10
570.13	60212.62
570.30	60172.83
570.46	60268.79
570.62	60285.18
570.78	60367.10
570.95	60175.17
571.11	60596.47
571.27	60320.29
571.43	60458.38
571.60	60577.75
571.76	60458.38
571.92	60629.24
572.09	60420.93
572.25	60535.62
572.41	60437.31
572.57	60395.18
572.74	60846.91
572.90	60502.85
573.06	60533.28
573.22	60544.98
573.38	60390.50
573.55	60367.10
573.71	60872.65
573.87	60624.56
574.03	60360.08
574.20	60537.96
574.36	60388.16
574.52	60683.07
574.68	60547.32
574.84	60764.99
575.01	60615.19
575.17	60598.81
575.33	60495.83
575.49	60603.49
575.65	60624.56
575.82	60811.80
575.98	60481.78
576.14	60788.39
576.30	60743.92
576.46	60544.98
576.62	60640.94
576.79	60786.05
576.95	60528.59
577.11	60697.11
577.27	60694.77
577.43	60865.63
577.59	60704.13
577.75	60566.04
577.92	60533.28
578.08	60652.64
578.24	60701.79
578.40	60968.61
578.56	60772.01
578.72	60680.73
578.88	60914.78
579.04	61057.56
579.21	60683.07
579.37	60942.87
579.53	61083.30
579.69	60722.86
579.85	60753.29
580.01	60640.94
580.17	60474.76
580.33	60500.51
580.49	60781.37
580.65	60989.68
580.82	60914.78
580.98	60772.01
581.14	60743.92
581.30	60903.08
581.46	60853.93
581.62	60706.47
581.78	60809.46
581.94	60980.32
582.10	60809.46
582.26	60605.83
582.42	60451.36
582.58	60828.18
582.74	60654.98
582.90	60793.07
583.06	60772.01
583.22	60673.71
583.38	60851.59
583.54	60917.12
583.70	60980.32
583.86	61029.47
584.02	60619.88
584.18	60917.12
584.34	60870.31
584.50	60732.22
584.66	61008.40
584.82	60856.27
584.98	61146.50
585.14	60928.83
585.30	60846.91
585.46	60760.31
585.62	61024.79
585.78	61064.58
585.94	60800.10
586.10	60839.89
586.26	60884.36
586.42	61059.90
586.58	60938.19
586.74	60924.14
586.90	60949.89
587.06	60795.42
587.22	60963.93
587.38	60938.19
587.54	61073.94
587.70	61080.96
587.86	61017.77
588.02	61064.58
588.18	61106.71
588.34	60905.42
588.49	60910.10
