SpectraSuite Data File
++++++++++++++++++++++++++++++++++++
Date: Fri Oct 25 11:33:09 EDT 2013
User: price-jones
Dark Spectrum Present: No
Reference Spectrum Present: No
Number of Sampled Component Spectra: 1
Spectrometers: USB2+H05261
Integration Time (usec): 100000 (USB2+H05261)
Spectra Averaged: 1 (USB2+H05261)
Boxcar Smoothing: 0 (USB2+H05261)
Correct for Electrical Dark: No (USB2+H05261)
Strobe/Lamp Enabled: No (USB2+H05261)
Correct for Detector Non-linearity: No (USB2+H05261)
Correct for Stray Light: No (USB2+H05261)
Number of Pixels in Processed Spectrum: 2048
>>>>>Begin Processed Spectral Data<<<<<
365.73	238.73
365.92	238.73
366.12	238.73
366.32	222.35
366.52	194.26
366.72	154.48
366.91	161.50
367.11	203.63
367.31	168.52
367.51	154.48
367.70	154.48
367.90	140.43
368.10	166.18
368.30	156.82
368.49	220.01
368.69	234.05
368.89	135.75
369.09	201.29
369.28	222.35
369.48	241.08
369.68	168.52
369.87	210.65
370.07	224.69
370.27	234.05
370.47	334.70
370.66	440.02
370.86	620.24
371.06	477.47
371.25	554.71
371.45	470.45
371.65	589.82
371.84	547.69
372.04	571.09
372.24	524.28
372.44	585.13
372.63	573.43
372.83	631.94
373.03	573.43
373.22	688.12
373.42	601.52
373.62	678.76
373.81	571.09
374.01	589.82
374.21	641.31
374.40	641.31
374.60	657.69
374.79	683.44
374.99	702.16
375.19	699.82
375.38	746.63
375.58	617.90
375.78	772.38
375.97	697.48
376.17	713.86
376.37	713.86
376.56	774.72
376.76	653.01
376.95	758.33
377.15	664.71
377.35	716.20
377.54	779.40
377.74	699.82
377.93	753.65
378.13	662.37
378.33	678.76
378.52	676.41
378.72	655.35
378.91	720.88
379.11	767.70
379.31	765.36
379.50	788.76
379.70	774.72
379.89	734.93
380.09	688.12
380.28	702.16
380.48	791.10
380.68	760.67
380.87	723.23
381.07	725.57
381.26	716.20
381.46	732.59
381.65	823.87
381.85	697.48
382.04	847.27
382.24	805.14
382.43	772.38
382.63	727.91
382.83	795.78
383.02	805.14
383.22	786.42
383.41	720.88
383.61	837.91
383.80	746.63
384.00	835.57
384.19	884.72
384.39	786.42
384.58	774.72
384.78	905.79
384.97	870.68
385.17	891.74
385.36	889.40
385.56	844.93
385.75	777.06
385.95	858.98
386.14	889.40
386.34	851.96
386.53	910.47
386.72	844.93
386.92	919.83
387.11	910.47
387.31	985.37
387.50	901.11
387.70	868.34
387.89	823.87
388.09	912.81
388.28	887.06
388.48	910.47
388.67	858.98
388.86	896.43
389.06	889.40
389.25	959.62
389.45	910.47
389.64	933.87
389.84	940.90
390.03	987.71
390.22	952.60
390.42	1004.09
390.61	980.68
390.81	978.34
391.00	1018.13
391.19	999.41
391.39	954.94
391.58	1027.50
391.78	933.87
391.97	999.41
392.16	1018.13
392.36	1100.05
392.55	1128.14
392.75	1043.88
392.94	1015.79
393.13	1076.65
393.33	997.07
393.52	990.05
393.71	1088.35
393.91	1018.13
394.10	1081.33
394.29	1146.86
394.49	1121.12
394.68	1224.10
394.88	1071.97
395.07	1165.59
395.26	1186.65
395.46	1071.97
395.65	1128.14
395.84	1144.52
396.04	1308.36
396.23	1275.59
396.42	1186.65
396.62	1219.42
396.81	1301.34
397.00	1181.97
397.19	1210.06
397.39	1252.19
397.58	1233.46
397.77	1270.91
397.97	1270.91
398.16	1186.65
398.35	1245.16
398.55	1270.91
398.74	1338.79
398.93	1334.11
399.12	1308.36
399.32	1282.61
399.51	1313.04
399.70	1308.36
399.90	1294.32
400.09	1355.17
400.28	1392.62
400.47	1427.73
400.67	1507.30
400.86	1404.32
401.05	1432.41
401.24	1521.35
401.44	1432.41
401.63	1516.67
401.82	1439.43
402.01	1434.75
402.21	1509.65
402.40	1507.30
402.59	1563.48
402.78	1519.01
402.97	1418.36
403.17	1554.12
403.36	1509.65
403.55	1614.97
403.74	1577.52
403.93	1568.16
404.13	1636.03
404.32	1591.56
404.51	1624.33
404.70	1636.03
404.89	1689.87
405.09	1750.72
405.28	1685.19
405.47	1764.76
405.66	1739.02
405.85	1724.97
406.05	1720.29
406.24	1689.87
406.43	1696.89
406.62	1813.92
406.81	1858.39
407.00	1757.74
407.20	1781.15
407.39	1809.23
407.58	1802.21
407.77	1844.34
407.96	1856.04
408.15	1912.22
408.34	1879.45
408.54	1909.88
408.73	1888.81
408.92	1994.14
409.11	1928.60
409.30	2017.54
409.49	1987.11
409.68	2033.93
409.87	2057.33
410.07	2005.84
410.26	2024.56
410.45	2127.55
410.64	2122.87
410.83	2022.22
411.02	2174.36
411.21	2169.68
411.40	2092.44
411.59	2221.17
411.78	2157.97
411.98	2188.40
412.17	2197.76
412.36	2244.57
412.55	2303.09
412.74	2340.54
412.93	2448.20
413.12	2289.04
413.31	2457.56
413.50	2389.69
413.69	2363.94
413.88	2476.29
414.07	2485.65
414.26	2483.31
414.45	2541.82
414.64	2619.06
414.83	2583.95
415.02	2651.83
415.22	2616.72
415.41	2679.91
415.60	2668.21
415.79	2719.70
415.98	2708.00
416.17	2794.60
416.36	2696.30
416.55	2839.07
416.74	2920.99
416.93	2780.56
417.12	2822.69
417.31	2895.24
417.50	2820.35
417.69	2984.18
417.88	3016.95
418.07	2920.99
418.26	2967.80
418.45	3052.06
418.64	3129.30
418.83	3084.83
419.02	3098.87
419.21	3002.91
419.39	3192.49
419.58	3119.93
419.77	3068.44
419.96	3110.57
420.15	3155.04
420.34	3171.43
420.53	3229.94
420.72	3269.73
420.91	3262.71
421.10	3386.76
421.29	3255.69
421.48	3300.16
421.67	3328.24
421.86	3337.60
422.05	3185.47
422.24	3281.43
422.43	3403.14
422.61	3449.95
422.80	3494.42
422.99	3452.29
423.18	3403.14
423.37	3515.48
423.56	3428.88
423.75	3431.23
423.94	3269.73
424.13	3283.77
424.32	3248.66
424.50	3524.85
424.69	3623.15
424.88	3466.33
425.07	3407.82
425.26	3262.71
425.45	3459.31
425.64	3342.28
425.83	3480.38
426.01	3473.36
426.20	3403.14
426.39	3676.98
426.58	3576.34
426.77	3459.31
426.96	3585.70
427.15	3559.95
427.33	3691.02
427.52	3545.91
427.71	3674.64
427.90	3686.34
428.09	3796.35
428.28	3789.33
428.46	3904.01
428.65	3559.95
428.84	3812.73
429.03	3850.18
429.22	3719.11
429.40	3812.73
429.59	3779.97
429.78	3712.09
429.97	3562.30
430.16	3859.54
430.34	3920.40
430.53	3894.65
430.72	3852.52
430.91	4014.02
431.10	3794.01
431.28	4011.68
431.47	4032.74
431.66	4023.38
431.85	4042.11
432.03	4081.89
432.22	4093.60
432.41	4049.13
432.60	4007.00
432.79	4044.45
432.97	4128.70
433.16	4264.46
433.35	4189.56
433.54	4245.73
433.72	4149.77
433.91	4147.43
434.10	4243.39
434.28	4124.02
434.47	4311.27
434.66	4344.03
434.85	4407.23
435.03	4259.78
435.22	4320.63
435.41	4360.42
435.59	4416.59
435.78	4444.68
435.97	4409.57
436.16	4414.25
436.34	4470.42
436.53	4381.48
436.72	4641.28
436.90	4437.66
437.09	4524.26
437.28	4585.11
437.46	4636.60
437.65	4528.94
437.84	4631.92
438.02	4559.36
438.21	4678.73
438.40	4533.62
438.58	4716.18
438.77	4905.76
438.96	4765.33
439.14	4964.28
439.33	4952.57
439.52	5004.07
439.70	5078.96
439.89	5135.14
440.08	5093.01
440.26	5027.47
440.45	4912.78
440.63	5085.98
440.82	5298.97
441.01	5146.84
441.19	5214.71
441.38	5186.63
441.57	5186.63
441.75	5341.10
441.94	5404.30
442.12	5334.08
442.31	5359.83
442.50	5350.46
442.68	5322.38
442.87	5305.99
443.05	5488.56
443.24	5486.22
443.43	5511.96
443.61	5605.58
443.80	5743.67
443.98	5455.79
444.17	5226.42
444.35	5474.51
444.54	5743.67
444.73	5659.42
444.91	5692.18
445.10	5734.31
445.28	5596.22
445.47	5591.54
445.65	5668.78
445.84	5743.67
446.02	5853.68
446.21	5720.27
446.39	5879.43
446.58	5933.26
446.77	5724.95
446.95	5600.90
447.14	5694.52
447.32	5724.95
447.51	5860.70
447.69	5926.24
447.88	5764.74
448.06	5682.82
448.25	5891.13
448.43	5650.05
448.62	5834.96
448.80	5956.66
448.99	5935.60
449.17	5996.45
449.36	5753.04
449.54	6043.26
449.73	6186.04
449.91	6200.08
450.10	6036.24
450.28	6197.74
450.46	6076.03
450.65	6155.61
450.83	6195.40
451.02	6157.95
451.20	6181.35
451.39	6324.13
451.57	6319.45
451.76	6157.95
451.94	6284.34
452.13	6380.30
452.31	6429.45
452.49	6256.25
452.68	6352.21
452.86	6380.30
453.05	6614.35
453.23	6553.50
453.42	6207.10
453.60	6380.30
453.78	6352.21
453.97	6420.09
454.15	6335.83
454.34	6494.99
454.52	6586.27
454.70	6604.99
454.89	6628.40
455.07	6670.53
455.26	6665.85
455.44	6757.13
455.62	6757.13
455.81	6707.98
455.99	6864.79
456.17	6878.83
456.36	6834.36
456.54	6890.54
456.73	6988.84
456.91	7222.89
457.09	7091.82
457.28	7192.47
457.46	7033.31
457.64	7169.06
457.83	7126.93
458.01	7080.12
458.19	7234.60
458.38	7227.57
458.56	7286.09
458.74	7199.49
458.93	7152.68
459.11	7255.66
459.29	7382.05
459.48	7323.54
459.66	7410.14
459.84	7346.94
460.03	7651.21
460.21	7400.77
460.39	7400.77
460.57	7473.33
460.76	7424.18
460.94	7798.66
461.12	7695.68
461.31	7691.00
461.49	7571.63
461.67	7487.37
461.85	7747.17
462.04	7559.93
462.22	8053.78
462.40	7826.75
462.59	7864.20
462.77	8002.29
462.95	7754.19
463.13	7974.21
463.32	7892.29
463.50	8009.31
463.68	7911.01
463.86	7957.82
464.05	7868.88
464.23	7950.80
464.41	8091.23
464.59	7978.89
464.78	8280.82
464.96	7908.67
465.14	7892.29
465.32	8145.06
465.50	8100.59
465.69	8138.04
465.87	8262.09
466.05	8372.10
466.23	8070.17
466.41	8250.39
466.60	8407.20
466.78	8423.59
466.96	8369.76
467.14	8222.30
467.32	8561.68
467.51	8521.89
467.69	8383.80
467.87	8435.29
468.05	8535.93
468.23	8493.80
468.41	8381.46
468.60	8610.83
468.78	8428.27
468.96	8704.45
469.14	8681.05
469.32	8662.32
469.50	8594.45
469.69	8669.34
469.87	8723.18
470.05	8784.03
470.23	8800.41
470.41	8882.33
470.59	9102.34
470.77	8767.65
470.95	8854.25
471.14	9057.87
471.32	8919.78
471.50	9174.90
471.68	9153.84
471.86	9142.13
472.04	9179.58
472.22	9235.75
472.40	9111.71
472.58	9268.52
472.77	9329.38
472.95	9434.70
473.13	9781.10
473.31	9231.07
473.49	9441.72
473.67	9483.85
473.85	9589.17
474.03	9898.13
474.21	9713.22
474.39	9792.80
474.57	9989.41
474.75	9940.26
474.93	10043.24
475.12	9886.42
475.30	10178.99
475.48	10221.12
475.66	10214.10
475.84	10061.96
476.02	10438.79
476.20	10483.26
476.38	10286.65
476.56	10649.44
476.74	10600.29
476.92	10541.77
477.10	10516.03
477.28	10850.72
477.46	10860.09
477.64	10829.66
477.82	11208.83
478.00	11332.87
478.18	11428.84
478.36	11154.99
478.54	11370.32
478.72	11470.97
478.90	11878.22
479.08	11826.73
479.26	11681.61
479.44	11517.78
479.62	11861.84
479.80	12016.31
479.98	11920.35
480.16	12189.51
480.34	12138.02
480.52	12301.86
480.70	12498.46
480.88	12376.75
481.06	12496.12
481.24	12610.81
481.41	12498.46
481.59	12781.67
481.77	12833.16
481.95	13013.38
482.13	12947.84
482.31	13116.36
482.49	13521.27
482.67	13404.25
482.85	13579.79
483.03	13521.27
483.21	13832.57
483.39	13958.96
483.57	13806.82
483.74	13834.91
483.92	14171.94
484.10	14019.81
484.28	14314.72
484.46	14750.06
484.64	14803.89
484.82	14373.23
485.00	14714.95
485.18	14934.96
485.35	15119.86
485.53	15073.05
485.71	15213.48
485.89	15503.71
486.07	15445.20
486.25	15854.79
486.43	15470.94
486.61	15733.08
486.78	15950.75
486.96	15950.75
487.14	16133.31
487.32	16135.65
487.50	16215.23
487.68	16383.75
487.85	16741.85
488.03	16957.18
488.21	17348.05
488.39	16966.54
488.57	17448.69
488.75	17060.16
488.92	17385.50
489.10	17797.43
489.28	17872.33
489.46	18036.17
489.64	17799.77
489.81	18101.70
489.99	18127.45
490.17	18490.23
490.35	18609.60
490.53	18354.48
490.70	18714.92
490.88	18815.57
491.06	18909.19
491.24	19075.37
491.41	19150.26
491.59	19185.37
491.77	19124.52
491.95	19742.42
492.13	19583.26
492.30	19894.55
492.48	19726.04
492.66	19941.36
492.84	19852.42
493.01	20226.91
493.19	20142.65
493.37	20819.07
493.54	20512.46
493.72	20807.36
493.90	20662.25
494.08	20718.42
494.25	21139.72
494.43	21703.79
494.61	21158.44
494.79	21680.38
494.96	21380.79
495.14	21647.61
495.32	21982.31
495.49	22132.11
495.67	21654.64
495.85	22207.00
496.02	22443.40
496.20	22567.45
496.38	22754.69
496.55	22562.76
496.73	23019.17
496.91	22878.74
497.09	23204.07
497.26	23164.28
497.44	22728.94
497.62	23672.18
497.79	23749.42
497.97	23793.89
498.14	23576.22
498.32	23892.19
498.50	23974.11
498.67	24287.74
498.85	24011.56
499.03	24231.57
499.20	24514.77
499.38	24580.31
499.56	24634.14
499.73	24456.26
499.91	24769.89
500.08	25050.75
500.26	24936.07
500.44	25062.46
500.61	24858.83
500.79	24840.11
500.97	25418.22
501.14	25743.55
501.32	25652.27
501.49	25408.86
501.67	25628.87
501.84	25671.00
502.02	25429.92
502.20	25673.34
502.37	26087.61
502.55	25848.88
502.72	26316.98
502.90	26459.76
503.07	26061.87
503.25	26176.55
503.43	26410.60
503.60	26534.65
503.78	26607.21
503.95	26490.18
504.13	26754.66
504.30	26902.12
504.48	27033.19
504.65	26991.06
504.83	27150.21
505.01	27777.48
505.18	27503.64
505.36	27704.92
505.53	27402.99
505.71	28048.98
505.88	27744.71
506.06	27641.73
506.23	27878.12
506.41	27618.32
506.58	27901.53
506.76	27756.41
506.93	28341.55
507.11	28041.96
507.28	28549.85
507.46	28533.47
507.63	28521.77
507.81	28809.65
507.98	28474.96
508.16	28694.97
508.33	28797.95
508.50	29125.63
508.68	28931.36
508.85	29205.20
509.03	29237.97
509.20	29371.38
509.38	29542.24
509.55	29532.88
509.73	29680.33
509.90	30244.40
510.08	29696.72
510.25	29731.83
510.42	29682.67
510.60	30087.59
510.77	30291.21
510.95	30335.68
511.12	30195.25
511.30	30127.38
511.47	30649.32
511.64	30541.65
511.82	30480.80
511.99	30565.06
512.17	30869.33
512.34	30845.92
512.51	30740.60
512.69	31332.75
512.86	31491.91
513.04	31063.59
513.21	31269.56
513.38	31433.39
513.56	31288.28
513.73	31695.53
513.90	31496.59
514.08	31353.82
514.25	31985.76
514.43	31960.02
514.60	31700.22
514.77	32016.19
514.95	31868.73
515.12	31967.04
515.29	31999.80
515.47	32421.10
515.64	32334.50
515.81	32084.06
515.99	32137.90
516.16	32753.46
516.33	32346.20
516.51	32687.92
516.68	32575.58
516.85	32643.45
517.03	32858.78
517.20	33308.16
517.37	32919.63
517.54	33132.62
517.72	32971.13
517.89	33123.26
518.06	33134.96
518.24	33165.39
518.41	33209.86
518.58	33429.87
518.75	33668.61
518.93	33429.87
519.10	33518.81
519.27	33663.93
519.45	34075.86
519.62	34263.10
519.79	33968.19
519.96	33820.74
520.14	34380.13
520.31	33893.30
520.48	34738.23
520.65	34373.11
520.83	34773.34
521.00	34445.66
521.17	34527.58
521.34	34829.51
521.52	35028.46
521.69	34670.36
521.86	34787.38
522.03	35101.01
522.20	35260.17
522.38	35323.36
522.55	35414.65
522.72	35075.27
522.89	35194.64
523.07	35758.70
523.24	35438.05
523.41	35756.36
523.58	35295.28
523.75	35665.08
523.92	35742.32
524.10	35831.26
524.27	36018.50
524.44	36074.68
524.61	36079.36
524.78	36318.09
524.96	36243.20
525.13	36416.40
525.30	36390.65
525.47	36479.59
525.64	36439.80
525.81	36615.34
525.98	36521.72
526.16	36830.67
526.33	36512.36
526.50	37109.19
526.67	36383.63
526.84	37060.04
527.01	36804.92
527.18	37247.29
527.36	36774.50
527.53	37354.95
527.70	37631.13
527.87	37324.52
528.04	37422.83
528.21	37282.39
528.38	37312.82
528.55	37287.07
528.72	37701.35
528.89	37612.41
529.07	37390.06
529.24	37455.59
529.41	37794.97
529.58	37823.06
529.75	37801.99
529.92	38146.05
530.09	38174.14
530.26	38185.84
530.43	38340.32
530.60	37471.98
530.77	37806.67
530.94	38155.41
531.11	38548.62
531.28	38494.79
531.46	38473.73
531.63	38525.22
531.80	38557.99
531.97	38621.18
532.14	38644.59
532.31	38485.43
532.48	38710.12
532.65	39023.75
532.82	38911.41
532.99	38731.18
533.16	38792.04
533.33	39208.65
533.50	39440.37
533.67	39194.61
533.84	38614.16
534.01	38939.49
534.18	39489.52
534.35	39271.85
534.52	39250.78
534.69	39924.86
534.86	39908.47
535.03	39899.11
535.20	39770.38
535.37	39852.30
535.54	39784.43
535.71	39695.49
535.88	39878.05
536.05	40034.86
536.22	39899.11
536.38	40222.11
536.55	40119.12
536.72	39887.41
536.89	40194.02
537.06	40079.33
537.23	40456.16
537.40	40236.15
537.57	39833.58
537.74	40086.36
537.91	40409.35
538.08	40566.16
538.25	40158.91
538.42	40711.28
538.59	40645.74
538.75	40212.74
538.92	41165.34
539.09	41216.83
539.26	40318.07
539.43	40868.09
539.60	40727.66
539.77	40741.71
539.94	41193.43
540.11	40961.72
540.28	41130.23
540.44	41219.17
540.61	40973.42
540.78	40678.51
540.95	41123.21
541.12	40769.79
541.29	41340.88
541.46	41305.77
541.62	41043.63
541.79	41649.83
541.96	41167.68
542.13	41116.19
542.30	41420.46
542.47	41933.04
542.63	41478.97
542.80	41907.29
542.97	42218.58
543.14	42412.85
543.31	42464.34
543.48	42087.51
543.64	42635.20
543.81	42398.80
543.98	42143.69
544.15	42518.17
544.32	42705.41
544.48	42958.19
544.65	42698.39
544.82	42609.45
544.99	42319.23
545.16	42590.73
545.32	42202.20
545.49	42927.77
545.66	43133.73
545.83	42892.66
546.00	42981.60
546.16	42918.40
546.33	43098.62
546.50	42824.78
546.67	43292.89
546.83	42473.70
547.00	42700.73
547.17	43026.07
547.34	42792.01
547.50	43508.22
547.67	43047.13
547.84	43063.52
548.00	43484.81
548.17	43412.26
548.34	43475.45
548.51	43777.38
548.67	43578.43
548.84	43449.70
549.01	43260.12
549.18	43793.76
549.34	43723.55
549.51	43709.50
549.68	43889.73
549.84	44119.10
550.01	44177.61
550.18	43861.64
550.34	44184.63
550.51	44116.76
550.68	44088.67
550.84	43627.59
551.01	43981.01
551.18	44088.67
551.34	44229.10
551.51	44212.72
551.68	43931.86
551.84	43849.94
552.01	43866.32
552.18	44573.16
552.34	44406.98
552.51	44610.61
552.68	44055.90
552.84	43707.16
553.01	44598.91
553.18	44528.69
553.34	44889.13
553.51	44561.46
553.67	44631.68
553.84	44545.08
554.01	44697.21
554.17	44463.16
554.34	44713.59
554.51	44889.13
554.67	44980.42
554.84	44830.62
555.00	44935.95
555.17	44591.89
555.33	44748.70
555.50	44905.52
555.67	45076.38
555.83	45139.57
556.00	45188.72
556.16	45429.80
556.33	45324.47
556.50	45078.72
556.66	45329.16
556.83	45174.68
556.99	45366.60
557.16	45668.53
557.32	45635.77
557.49	45708.32
557.65	45425.12
557.82	45312.77
557.98	45553.85
558.15	45357.24
558.32	45450.86
558.48	45591.30
558.65	45764.49
558.81	45591.30
558.98	45298.73
559.14	45848.75
559.31	45464.91
559.47	45155.96
559.64	45771.52
559.80	45661.51
559.97	45787.90
560.13	45970.46
560.30	45928.33
560.46	45837.05
560.63	46363.67
560.79	46160.05
560.96	45986.85
561.12	46059.40
561.29	45869.82
561.45	46064.08
561.61	45900.25
561.78	46206.86
561.94	45879.18
562.11	46050.04
562.27	45940.04
562.44	46291.12
562.60	46340.27
562.77	46026.63
562.93	45963.44
563.10	46579.00
563.26	45979.82
563.42	46319.20
563.59	46183.45
563.75	46277.07
563.92	46522.83
564.08	46115.58
564.24	46216.22
564.41	46248.99
564.57	46532.19
564.74	46508.79
564.90	46298.14
565.07	46176.43
565.23	46658.58
565.39	46452.61
565.56	46719.43
565.72	46017.27
565.88	46962.85
566.05	46543.89
566.21	46602.41
566.38	46284.09
566.54	46681.98
566.70	46600.07
566.87	46211.54
567.03	46270.05
567.19	46721.77
567.36	46672.62
567.52	46707.73
567.68	46974.55
567.85	46607.09
568.01	46759.22
568.17	46593.04
568.34	46887.95
568.50	46721.77
568.66	46590.70
568.83	46560.28
568.99	46583.68
569.15	46726.46
569.32	46972.21
569.48	47096.26
569.64	47201.58
569.81	46972.21
569.97	46857.52
570.13	47220.31
570.30	46817.74
570.46	46916.04
570.62	47002.64
570.78	47152.43
570.95	47192.22
571.11	47248.39
571.27	46581.34
571.43	46681.98
571.60	46953.49
571.76	46948.81
571.92	47033.07
572.09	47047.11
572.25	46522.83
572.41	46925.40
572.57	47285.84
572.74	47061.15
572.90	47175.84
573.06	47503.51
573.22	46930.08
573.38	47510.53
573.55	47316.27
573.71	47398.19
573.87	47337.33
574.03	47114.98
574.20	47339.68
574.36	47400.53
574.52	47512.88
574.68	47098.60
574.84	47543.30
575.01	47363.08
575.17	47625.22
575.33	47419.25
575.49	47292.86
575.65	47386.49
575.82	47349.04
575.98	47145.41
576.14	47669.69
576.30	47592.45
576.46	47445.00
576.62	47346.70
576.79	47257.76
576.95	47051.79
577.11	47229.67
577.27	47459.04
577.43	47171.16
577.59	47510.53
577.75	47423.93
577.92	47428.62
578.08	47409.89
578.24	47234.35
578.40	48025.45
578.56	47672.03
578.72	47578.41
578.88	47351.38
579.04	46993.28
579.21	47173.50
579.37	47693.10
579.53	47461.38
579.69	47620.54
579.85	47468.40
580.01	47763.31
580.17	47402.87
580.33	47824.17
580.49	47704.80
580.65	47512.88
580.82	47583.09
580.98	47306.91
581.14	47100.94
581.30	47337.33
581.46	47707.14
581.62	47342.02
581.78	47498.83
581.94	47487.13
582.10	47346.70
582.26	47779.70
582.42	47573.73
582.58	47597.13
582.74	47737.57
582.90	47941.19
583.06	47779.70
583.22	47473.09
583.38	47948.21
583.54	47374.78
583.70	47690.76
583.86	47419.25
584.02	47934.17
584.18	48205.67
584.34	47711.82
584.50	47805.44
584.66	48013.75
584.82	47751.61
584.98	47875.66
585.14	48109.71
585.30	47615.86
585.46	47826.51
585.62	47838.21
585.78	48186.95
585.94	47229.67
586.10	48079.28
586.26	47997.37
586.42	47753.95
586.58	47672.03
586.74	47643.94
586.90	47454.36
587.06	47695.44
587.22	48161.20
587.38	47555.00
587.54	47770.33
587.70	48020.77
587.86	47264.78
588.02	47765.65
588.18	47608.84
588.34	48027.79
588.49	47625.22
588.65	47718.84
588.81	47803.10
588.97	48327.38
589.13	47988.00
589.29	47578.41
589.45	48081.63
589.61	47913.11
589.77	47976.30
589.93	47819.49
590.08	48119.07
