SpectraSuite Data File
++++++++++++++++++++++++++++++++++++
Date: Fri Oct 25 10:47:40 EDT 2013
User: price-jones
Dark Spectrum Present: No
Reference Spectrum Present: No
Number of Sampled Component Spectra: 1
Spectrometers: USB2+H05261
Integration Time (usec): 100000 (USB2+H05261)
Spectra Averaged: 1 (USB2+H05261)
Boxcar Smoothing: 0 (USB2+H05261)
Correct for Electrical Dark: No (USB2+H05261)
Strobe/Lamp Enabled: No (USB2+H05261)
Correct for Detector Non-linearity: No (USB2+H05261)
Correct for Stray Light: No (USB2+H05261)
Number of Pixels in Processed Spectrum: 2048
>>>>>Begin Processed Spectral Data<<<<<
365.73	119.37
365.92	119.37
366.12	119.37
366.32	65.54
366.52	30.43
366.72	110.01
366.91	23.41
367.11	86.60
367.31	28.09
367.51	35.11
367.70	53.83
367.90	37.45
368.10	42.13
368.30	58.51
368.49	65.54
368.69	35.11
368.89	81.92
369.09	42.13
369.28	175.54
369.48	56.17
369.68	67.88
369.87	72.56
370.07	95.96
370.27	112.35
370.47	196.60
370.66	337.04
370.86	402.57
371.06	351.08
371.25	433.00
371.45	379.17
371.65	528.96
371.84	435.34
372.04	449.38
372.24	486.83
372.44	463.43
372.63	496.19
372.83	538.32
373.03	519.60
373.22	540.66
373.42	433.00
373.62	540.66
373.81	568.75
374.01	524.28
374.21	543.00
374.40	533.64
374.60	510.24
374.79	517.26
374.99	601.52
375.19	510.24
375.38	514.92
375.58	479.81
375.78	610.88
375.97	653.01
376.17	571.09
376.37	517.26
376.56	631.94
376.76	608.54
376.95	571.09
377.15	573.43
377.35	566.41
377.54	613.22
377.74	507.90
377.93	645.99
378.13	627.26
378.33	603.86
378.52	589.82
378.72	662.37
378.91	648.33
379.11	571.09
379.31	648.33
379.50	554.71
379.70	709.18
379.89	758.33
380.09	608.54
380.28	678.76
380.48	641.31
380.68	695.14
380.87	596.84
381.07	669.39
381.26	690.46
381.46	631.94
381.65	713.86
381.85	699.82
382.04	718.54
382.24	720.88
382.43	692.80
382.63	725.57
382.83	674.07
383.02	709.18
383.22	685.78
383.41	723.23
383.61	662.37
383.80	777.06
384.00	746.63
384.19	706.84
384.39	821.53
384.58	720.88
384.78	739.61
384.97	826.21
385.17	833.23
385.36	683.44
385.56	748.97
385.75	816.85
385.95	847.27
386.14	800.46
386.34	791.10
386.53	821.53
386.72	709.18
386.92	877.70
387.11	819.19
387.31	823.87
387.50	826.21
387.70	732.59
387.89	791.10
388.09	833.23
388.28	858.98
388.48	863.66
388.67	842.59
388.86	926.85
389.06	849.61
389.25	851.96
389.45	882.38
389.64	940.90
389.84	940.90
390.03	854.30
390.22	919.83
390.42	966.64
390.61	1046.22
390.81	976.00
391.00	940.90
391.19	961.96
391.39	1039.20
391.58	1034.52
391.78	1006.43
391.97	959.62
392.16	985.37
392.36	973.66
392.55	966.64
392.75	1006.43
392.94	952.60
393.13	954.94
393.33	877.70
393.52	1090.69
393.71	961.96
393.91	990.05
394.10	1013.45
394.29	1083.67
394.49	1071.97
394.68	1043.88
394.88	1114.10
395.07	1156.22
395.26	1093.03
395.46	1142.18
395.65	1203.04
395.84	1186.65
396.04	1240.48
396.23	1135.16
396.42	1193.67
396.62	1111.75
396.81	1130.48
397.00	1198.35
397.19	1144.52
397.39	1343.47
397.58	1249.85
397.77	1252.19
397.97	1263.89
398.16	1369.21
398.35	1245.16
398.55	1226.44
398.74	1252.19
398.93	1394.96
399.12	1371.55
399.32	1261.55
399.51	1341.13
399.70	1350.49
399.90	1401.98
400.09	1362.19
400.28	1411.34
400.47	1397.30
400.67	1373.89
400.86	1547.09
401.05	1406.66
401.24	1523.69
401.44	1579.86
401.63	1537.73
401.82	1511.99
402.01	1476.88
402.21	1556.46
402.40	1509.65
402.59	1586.88
402.78	1565.82
402.97	1570.50
403.17	1603.27
403.36	1654.76
403.55	1654.76
403.74	1596.25
403.93	1657.10
404.13	1624.33
404.32	1621.99
404.51	1689.87
404.70	1743.70
404.89	1650.08
405.09	1692.21
405.28	1806.89
405.47	1849.02
405.66	1895.83
405.85	1783.49
406.05	1767.10
406.24	1741.36
406.43	1806.89
406.62	1863.07
406.81	1874.77
407.00	1837.32
407.20	1790.51
407.39	1846.68
407.58	1940.30
407.77	1940.30
407.96	2069.03
408.15	2069.03
408.34	1952.01
408.54	1989.46
408.73	2022.22
408.92	2024.56
409.11	2064.35
409.30	2040.95
409.49	2083.08
409.68	2050.31
409.87	2071.37
410.07	2129.89
410.26	2244.57
410.45	2104.14
410.64	2190.74
410.83	2167.34
411.02	2165.00
411.21	2282.02
411.40	2251.60
411.59	2328.83
411.78	2359.26
411.98	2277.34
412.17	2314.79
412.36	2429.48
412.55	2366.28
412.74	2464.58
412.93	2415.43
413.12	2436.50
413.31	2630.76
413.50	2602.68
413.69	2490.33
413.88	2626.08
414.07	2780.56
414.26	2675.23
414.45	2663.53
414.64	2497.35
414.83	2677.57
415.02	2616.72
415.22	2785.24
415.41	2822.69
415.60	2806.30
415.79	2766.51
415.98	2867.16
416.17	3056.74
416.36	2916.31
416.55	3035.67
416.74	2911.63
416.93	2925.67
417.12	2988.86
417.31	3042.70
417.50	2906.95
417.69	3143.34
417.88	3091.85
418.07	3023.97
418.26	3143.34
418.45	3148.02
418.64	3262.71
418.83	3211.22
419.02	3103.55
419.21	3243.98
419.39	3213.56
419.58	3215.90
419.77	3159.72
419.96	3323.56
420.15	3449.95
420.34	3204.19
420.53	3356.33
420.72	3428.88
420.91	3269.73
421.10	3337.60
421.29	3461.65
421.48	3555.27
421.67	3358.67
421.86	3316.54
422.05	3330.58
422.24	3398.46
422.43	3482.72
422.61	3386.76
422.80	3578.68
422.99	3531.87
423.18	3609.11
423.37	3616.13
423.56	3588.04
423.75	3480.38
423.94	3480.38
424.13	3389.10
424.32	3400.80
424.50	3555.27
424.69	3616.13
424.88	3632.51
425.07	3599.74
425.26	3475.70
425.45	3506.12
425.64	3574.00
425.83	3618.47
426.01	3686.34
426.20	3779.97
426.39	3637.19
426.58	3592.72
426.77	3679.32
426.96	3541.23
427.15	3637.19
427.33	3667.62
427.52	3688.68
427.71	3772.94
427.90	3742.52
428.09	3740.18
428.28	3918.06
428.46	3679.32
428.65	3747.20
428.84	3908.69
429.03	3904.01
429.22	3747.20
429.40	3932.10
429.59	3791.67
429.78	3770.60
429.97	3592.72
430.16	3772.94
430.34	3728.47
430.53	3929.76
430.72	3948.48
430.91	3805.71
431.10	3953.16
431.28	4257.43
431.47	4086.58
431.66	4189.56
431.85	4102.96
432.03	4255.09
432.22	4229.35
432.41	4231.69
432.60	4320.63
432.79	4182.54
432.97	4327.65
433.16	4358.08
433.35	4329.99
433.54	4297.22
433.72	4344.03
433.91	4318.29
434.10	4432.97
434.28	4257.43
434.47	4470.42
434.66	4414.25
434.85	4578.09
435.03	4486.81
435.22	4486.81
435.41	4613.20
435.59	4521.92
435.78	4624.90
435.97	4737.24
436.16	4559.36
436.34	4599.15
436.53	4620.22
436.72	4882.36
436.90	4592.13
437.09	4802.78
437.28	4627.24
437.46	4688.09
437.65	4784.06
437.84	4784.06
438.02	4662.35
438.21	4767.67
438.40	4875.34
438.58	4910.44
438.77	4887.04
438.96	5025.13
439.14	5036.83
439.33	4992.36
439.52	5231.10
439.70	5259.18
439.89	5193.65
440.08	5256.84
440.26	5245.14
440.45	5259.18
440.63	5167.90
440.82	5430.04
441.01	5348.12
441.19	5469.83
441.38	5371.53
441.57	5561.11
441.75	5488.56
441.94	5762.40
442.12	5565.79
442.31	5731.97
442.50	5734.31
442.68	5685.16
442.87	5870.06
443.05	5645.37
443.24	5813.89
443.43	5860.70
443.61	5949.64
443.80	5837.30
443.98	5771.76
444.17	5612.60
444.35	5865.38
444.54	5930.92
444.73	5966.03
444.91	5837.30
445.10	5781.12
445.28	5797.51
445.47	5827.93
445.65	5841.98
445.84	5879.43
446.02	5795.17
446.21	5989.43
446.39	5963.68
446.58	6216.46
446.77	5935.60
446.95	5905.17
447.14	5940.28
447.32	6153.27
447.51	6115.82
447.69	5956.66
447.88	6059.65
448.06	6024.54
448.25	6099.44
448.43	6033.90
448.62	6120.50
448.80	6078.37
448.99	6171.99
449.17	6127.52
449.36	6174.33
449.54	6401.37
449.73	6314.77
449.91	6363.92
450.10	6544.14
450.28	6284.34
450.46	6544.14
450.65	6452.86
450.83	6476.26
451.02	6562.86
451.20	6476.26
451.39	6466.90
451.57	6499.67
451.76	6565.20
451.94	6438.81
452.13	6448.18
452.31	6693.93
452.49	6567.54
452.68	6633.08
452.86	6520.73
453.05	6590.95
453.23	6719.68
453.42	6693.93
453.60	6579.25
453.78	6803.94
453.97	6586.27
454.15	6583.93
454.34	6464.56
454.52	6752.45
454.70	6764.15
454.89	6635.42
455.07	6874.15
455.26	6808.62
455.44	6986.50
455.62	6967.77
455.81	6984.16
455.99	7016.93
456.17	6883.52
456.36	7108.21
456.54	7288.43
456.73	7391.41
456.91	7487.37
457.09	7368.01
457.28	7583.34
457.46	7344.60
457.64	7548.23
457.83	7314.17
458.01	7300.13
458.19	7461.63
458.38	7400.77
458.56	7604.40
458.74	7515.46
458.93	7442.90
459.11	7506.10
459.29	7576.31
459.48	7515.46
459.66	7569.29
459.84	7644.19
460.03	7796.32
460.21	7480.35
460.39	7543.55
460.57	7786.96
460.76	7714.41
460.94	7693.34
461.12	7845.48
461.31	7922.71
461.49	7742.49
461.67	7763.56
461.85	8077.19
462.04	7913.35
462.22	8489.12
462.40	8217.62
462.59	7978.89
462.77	8140.38
462.95	8255.07
463.13	8173.15
463.32	7934.42
463.50	8145.06
463.68	8241.03
463.86	8163.79
464.05	8219.96
464.23	8248.05
464.41	8388.48
464.59	8212.94
464.78	8262.09
464.96	8187.19
465.14	8393.16
465.32	8404.86
465.50	8388.48
465.69	8437.63
465.87	8554.66
466.05	8461.04
466.23	8360.39
466.41	8451.67
466.60	8685.73
466.78	8486.78
466.96	8538.27
467.14	8353.37
467.32	8468.06
467.51	8753.60
467.69	8465.72
467.87	8762.97
468.05	8592.11
468.23	8716.16
468.41	8638.92
468.60	8592.11
468.78	8908.08
468.96	8528.91
469.14	8594.45
469.32	8919.78
469.50	8807.44
469.69	8760.63
469.87	9008.72
470.05	9029.79
470.23	8947.87
470.41	9107.02
470.59	9076.60
470.77	9074.26
470.95	9076.60
471.14	9420.66
471.32	9053.19
471.50	9320.01
471.68	9430.02
471.86	9350.44
472.04	9378.53
472.22	9502.58
472.40	9123.41
472.58	9298.95
472.77	9547.05
472.95	9643.01
473.13	9872.38
473.31	9593.86
473.49	9879.40
473.67	9720.24
473.85	9888.76
474.03	10024.51
474.21	9963.66
474.39	10047.92
474.57	10150.90
474.75	10195.37
474.93	10200.05
475.12	10284.31
475.30	10373.25
475.48	10193.03
475.66	10296.02
475.84	10361.55
476.02	10427.09
476.20	10380.28
476.38	10757.10
476.56	10925.62
476.74	10759.44
476.92	10930.30
477.10	10843.70
477.28	11246.27
477.46	11002.86
477.64	11360.96
477.82	11297.77
478.00	11569.27
478.18	11194.78
478.36	11468.62
478.54	11396.07
478.72	11564.59
478.90	11932.05
479.08	11889.92
479.26	11939.07
479.44	12018.65
479.62	11901.62
479.80	12028.01
479.98	12210.57
480.16	12624.85
480.34	12416.54
480.52	12587.40
480.70	12573.36
480.88	12266.75
481.06	12634.21
481.24	12615.49
481.41	12999.34
481.59	13156.15
481.77	13284.88
481.95	13322.33
482.13	13626.60
482.31	13486.17
482.49	13624.26
482.67	13748.31
482.85	14120.45
483.03	14024.49
483.21	14057.26
483.39	13970.66
483.57	14178.97
483.74	14679.84
483.92	14469.19
484.10	14228.12
484.28	14743.03
484.46	14817.93
484.64	14979.43
484.82	14640.05
485.00	15103.48
485.18	15154.97
485.35	15089.43
485.53	15049.64
485.71	14967.73
485.89	15634.78
486.07	15084.75
486.25	15428.81
486.43	15658.18
486.61	15903.94
486.78	16098.20
486.96	16175.44
487.14	16472.69
487.32	16215.23
487.50	16589.72
487.68	16498.44
487.85	16924.41
488.03	16978.25
488.21	17378.48
488.39	17205.28
488.57	17488.48
488.75	17624.23
488.92	17685.09
489.10	17888.71
489.28	17752.96
489.46	17703.81
489.64	18141.49
489.81	18579.17
489.99	18473.85
490.17	18548.75
490.35	18752.37
490.53	18743.01
490.70	18827.27
490.88	18808.54
491.06	19386.66
491.24	19243.88
491.41	19377.30
491.59	19225.16
491.77	19735.40
491.95	19524.75
492.13	19669.86
492.30	19946.05
492.48	20168.40
492.66	19946.05
492.84	20198.82
493.01	20470.33
493.19	20264.36
493.37	20772.25
493.54	20816.72
493.72	20631.82
493.90	20933.75
494.08	21099.93
494.25	21324.62
494.43	21261.43
494.61	21701.45
494.79	21628.89
494.96	21656.98
495.14	21549.31
495.32	21839.54
495.49	22132.11
495.67	22054.87
495.85	22242.11
496.02	22497.23
496.20	22314.67
496.38	22799.16
496.55	22731.28
496.73	23253.22
496.91	22871.72
497.09	23082.36
497.26	23206.41
497.44	23271.95
497.62	23269.61
497.79	23913.25
497.97	23433.44
498.14	23686.22
498.32	23367.91
498.50	23796.23
498.67	24102.84
498.85	24095.82
499.03	24386.04
499.20	24430.51
499.38	24577.97
499.56	24673.93
499.73	24355.61
499.91	24474.98
500.08	24809.68
500.26	24683.29
500.44	24842.45
500.61	25113.95
500.79	24994.58
500.97	24952.45
501.14	25553.97
501.32	25556.31
501.49	24980.54
501.67	25439.28
501.84	25560.99
502.02	25734.19
502.20	25675.68
502.37	26017.40
502.55	25663.97
502.72	25944.84
502.90	25998.67
503.07	26064.21
503.25	26169.53
503.43	26630.62
503.60	26295.92
503.78	26555.72
503.95	26452.73
504.13	26300.60
504.30	26668.06
504.48	26759.34
504.65	27276.60
504.83	26965.31
505.01	27531.72
505.18	27051.91
505.36	27454.48
505.53	27473.21
505.71	27505.98
505.88	27648.75
506.06	27480.23
506.23	27843.01
506.41	27770.46
506.58	27475.55
506.76	27693.22
506.93	27995.15
507.11	27999.83
507.28	27983.44
507.46	28056.00
507.63	28198.77
507.81	28535.81
507.98	27974.08
508.16	28491.34
508.33	28540.49
508.50	28561.56
508.68	28992.22
508.85	29343.30
509.03	28690.29
509.20	28748.80
509.38	29127.97
509.55	29383.09
509.73	29429.90
509.90	29369.04
510.08	29289.46
510.25	29289.46
510.42	29392.45
510.60	29947.15
510.77	29584.37
510.95	30005.67
511.12	29818.42
511.30	29825.45
511.47	30473.78
511.64	30710.17
511.82	30499.52
511.99	30274.83
512.17	30492.50
512.34	30052.48
512.51	30338.02
512.69	30806.13
512.86	30663.36
513.04	30871.67
513.21	30998.06
513.38	30476.12
513.56	30789.75
513.73	30539.31
513.90	31243.81
514.08	30955.93
514.25	31037.84
514.43	31503.61
514.60	31248.49
514.77	31173.60
514.95	31592.55
515.12	31442.76
515.29	31821.92
515.47	31777.45
515.64	31971.72
515.81	31686.17
515.99	31693.19
516.16	31854.69
516.33	31997.46
516.51	31920.23
516.68	31842.99
516.85	31838.31
517.03	31728.30
517.20	32332.16
517.37	32156.62
517.54	32507.70
517.72	31971.72
517.89	32264.28
518.06	32151.94
518.24	32135.56
518.41	32479.61
518.58	32524.08
518.75	32547.49
518.93	33230.93
519.10	32765.16
519.27	33614.77
519.45	32889.21
519.62	33181.77
519.79	33165.39
519.96	33642.86
520.14	33574.98
520.31	33687.33
520.48	33684.99
520.65	33724.78
520.83	33984.58
521.00	34143.74
521.17	33727.12
521.34	33949.47
521.52	34101.61
521.69	34162.46
521.86	34359.06
522.03	34015.01
522.20	34536.94
522.38	34141.39
522.55	34300.55
522.72	34602.48
522.89	34438.64
523.07	34492.47
523.24	34377.79
523.41	34653.97
523.58	34892.71
523.75	35227.40
523.92	35271.87
524.10	35122.08
524.27	35302.30
524.44	35316.34
524.61	34918.45
524.78	35409.96
524.96	35374.86
525.13	35283.58
525.30	35828.92
525.47	35580.82
525.64	35468.48
525.81	35646.36
525.98	36081.70
526.16	35646.36
526.33	35391.24
526.50	35943.61
526.67	35475.50
526.84	35934.24
527.01	35700.19
527.18	35852.33
527.36	36130.85
527.53	35952.97
527.70	36706.62
527.87	36680.88
528.04	35983.40
528.21	36163.62
528.38	36247.88
528.55	36718.32
528.72	36856.42
528.89	37317.50
529.07	36779.18
529.24	36715.98
529.41	36627.04
529.58	36615.34
529.75	36715.98
529.92	36964.08
530.09	37256.65
530.26	37123.24
530.43	37294.10
530.60	36905.57
530.77	37071.75
530.94	37233.24
531.11	37462.61
531.28	37125.58
531.46	37357.29
531.63	37544.53
531.80	37357.29
531.97	37406.44
532.14	37823.06
532.31	37207.50
532.48	37823.06
532.65	37902.64
532.82	37624.11
532.99	37799.65
533.16	37928.38
533.33	37689.65
533.50	38230.31
533.67	38005.62
533.84	37935.40
534.01	38148.39
534.18	38012.64
534.35	38272.44
534.52	38490.11
534.69	38632.88
534.86	38539.26
535.03	38279.46
535.20	38934.81
535.37	39002.69
535.54	38967.58
535.71	38480.75
535.88	38513.52
536.05	38665.65
536.22	39079.92
536.38	38850.55
536.55	38614.16
536.72	38822.47
536.89	38703.10
537.06	38803.74
537.23	38756.93
537.40	39042.48
537.57	39096.31
537.74	38817.78
537.91	39299.94
538.08	39145.46
538.25	38983.96
538.42	39601.86
538.59	39386.54
538.75	39028.43
538.92	39285.89
539.09	39423.98
539.26	39470.79
539.43	39473.13
539.60	39519.95
539.77	39524.63
539.94	39943.58
540.11	39473.13
540.28	39419.30
540.44	39526.97
540.61	39915.50
540.78	39962.31
540.95	39793.79
541.12	39777.40
541.29	40158.91
541.46	39751.66
541.62	40130.83
541.79	40484.25
541.96	40025.50
542.13	39842.94
542.30	40247.85
542.47	40247.85
542.63	40247.85
542.80	40313.39
542.97	40891.50
543.14	40774.47
543.31	40690.21
543.48	40765.11
543.64	41275.35
543.81	41139.60
543.98	40964.06
544.15	40718.30
544.32	40856.39
544.48	41043.63
544.65	41043.63
544.82	41015.55
544.99	40566.16
545.16	40896.18
545.32	41170.02
545.49	41371.31
545.66	41415.78
545.83	40769.79
546.00	41624.09
546.16	41099.81
546.33	41502.38
546.50	40776.81
546.67	41244.92
546.83	41097.47
547.00	40868.09
547.17	41329.18
547.34	41394.71
547.50	41474.29
547.67	41872.18
547.84	41612.38
548.00	41729.41
548.17	41773.88
548.34	41876.86
548.51	41970.49
548.67	41954.10
548.84	42307.52
549.01	41979.85
549.18	41633.45
549.34	42113.26
549.51	42026.66
549.68	42300.50
549.84	41942.40
550.01	42347.31
550.18	42213.90
550.34	41935.38
550.51	42241.99
550.68	42024.32
550.84	41734.09
551.01	42373.06
551.18	42321.57
551.34	42426.89
551.51	42473.70
551.68	42462.00
551.84	42820.10
552.01	41874.52
552.18	42548.60
552.34	42220.92
552.51	42895.00
552.68	42335.61
552.84	42696.05
553.01	43182.88
553.18	42792.01
553.34	42810.74
553.51	42050.06
553.67	42883.30
553.84	43257.78
554.01	43033.09
554.17	43028.41
554.34	43140.75
554.51	43084.58
554.67	43182.88
554.84	42916.06
555.00	43049.47
555.17	42773.29
555.33	43229.69
555.50	42897.34
555.67	43196.93
555.83	42955.85
556.00	43229.69
556.16	43407.58
556.33	43227.35
556.50	43285.87
556.66	43569.07
556.83	43248.42
556.99	43501.20
557.16	43629.93
557.32	43622.90
557.49	43674.40
557.65	43005.00
557.82	43168.84
557.98	43175.86
558.15	43629.93
558.32	43309.27
558.48	43494.18
558.65	43442.68
558.81	43365.45
558.98	43398.21
559.14	43239.06
559.31	43487.15
559.47	43189.91
559.64	43751.63
559.80	43903.77
559.97	44194.00
560.13	43456.73
560.30	43608.86
560.46	43674.40
560.63	43725.89
560.79	43477.79
560.96	44179.95
561.12	44013.77
561.29	43650.99
561.45	43695.46
561.61	44065.27
561.78	44058.24
561.94	43309.27
562.11	43405.23
562.27	43370.13
562.44	43988.03
562.60	44020.80
562.77	44257.19
562.93	44044.20
563.10	44311.02
563.26	43571.41
563.42	43973.98
563.59	43840.57
563.75	44149.53
563.92	43763.34
564.08	44105.06
564.24	44163.57
564.41	44208.04
564.57	44563.80
564.74	44261.87
564.90	44556.78
565.07	44538.05
565.23	44170.59
565.39	44325.07
565.56	44292.30
565.72	44020.80
565.88	44430.39
566.05	44233.78
566.21	44416.35
566.38	44194.00
566.54	44105.06
566.70	44231.44
566.87	44343.79
567.03	43964.62
567.19	44254.85
567.36	44299.32
567.52	44306.34
567.68	44500.61
567.85	44182.29
568.01	44402.30
568.17	44016.11
568.34	44914.88
568.50	44725.30
568.66	44411.67
568.83	44598.91
568.99	44367.20
569.15	44250.17
569.32	44493.58
569.48	43901.43
569.64	44727.64
569.81	44619.97
569.97	44711.25
570.13	44727.64
570.30	44259.53
570.46	44325.07
570.62	44210.38
570.78	44404.64
570.95	44516.99
571.11	44825.94
571.27	44458.48
571.43	44603.59
571.60	44882.11
571.76	44519.33
571.92	44481.88
572.09	44708.91
572.25	44554.44
572.41	44318.04
572.57	44809.56
572.74	45055.31
572.90	44978.07
573.06	44524.01
573.22	45095.10
573.38	45013.18
573.55	44580.18
573.71	45181.70
573.87	44762.75
574.03	44774.45
574.20	44559.12
574.36	44353.15
574.52	44835.30
574.68	44751.04
574.84	44591.89
575.01	44690.19
575.17	44488.90
575.33	44561.46
575.49	44814.24
575.65	45069.36
575.82	45081.06
575.98	44561.46
576.14	44641.04
576.30	44643.38
576.46	44645.72
576.62	44512.31
576.79	44889.13
576.95	44502.95
577.11	44516.99
577.27	44734.66
577.43	44589.55
577.59	44306.34
577.75	44685.51
577.92	44854.03
578.08	44584.86
578.24	44769.77
578.40	44421.03
578.56	44687.85
578.72	44973.39
578.88	45085.74
579.04	44837.64
579.21	44516.99
579.37	44910.20
579.53	44816.58
579.69	44563.80
579.85	44435.07
580.01	44886.79
580.17	44758.06
580.33	45392.35
580.49	44800.19
580.65	45132.55
580.82	44643.38
580.98	44830.62
581.14	44779.13
581.30	45109.14
581.46	44652.74
581.62	44605.93
581.78	44875.09
581.94	45476.61
582.10	45172.34
582.26	45043.61
582.42	45263.62
582.58	44912.54
582.74	44662.10
582.90	44797.85
583.06	45315.11
583.22	45095.10
583.38	45081.06
583.54	44971.05
583.70	44783.81
583.86	44722.96
584.02	44535.71
584.18	44912.54
584.34	44847.00
584.50	45191.06
584.66	44671.46
584.82	44582.52
584.98	45282.34
585.14	44978.07
585.30	45144.25
585.46	44634.02
585.62	44458.48
585.78	44875.09
585.94	44395.28
586.10	45212.13
586.26	45137.23
586.42	45141.91
586.58	45296.39
586.74	44849.35
586.90	44868.07
587.06	45165.32
587.22	44996.80
587.38	44863.39
587.54	45167.66
587.70	45027.23
587.86	45352.56
588.02	44854.03
588.18	45022.54
588.34	45038.93
588.49	44992.12
588.65	44395.28
588.81	44163.57
588.97	44549.76
589.13	44619.97
589.29	44982.76
589.45	44811.90
589.61	44762.75
589.77	45057.65
589.93	45392.35
590.08	44935.95
590.24	45057.65
