SpectraSuite Data File
++++++++++++++++++++++++++++++++++++
Date: Fri Oct 25 10:44:10 EDT 2013
User: price-jones
Dark Spectrum Present: No
Reference Spectrum Present: No
Number of Sampled Component Spectra: 1
Spectrometers: USB2+H05261
Integration Time (usec): 100000 (USB2+H05261)
Spectra Averaged: 1 (USB2+H05261)
Boxcar Smoothing: 0 (USB2+H05261)
Correct for Electrical Dark: No (USB2+H05261)
Strobe/Lamp Enabled: No (USB2+H05261)
Correct for Detector Non-linearity: No (USB2+H05261)
Correct for Stray Light: No (USB2+H05261)
Number of Pixels in Processed Spectrum: 2048
>>>>>Begin Processed Spectral Data<<<<<
365.73	131.07
365.92	131.07
366.12	131.07
366.32	39.79
366.52	72.56
366.72	112.35
366.91	4.68
367.11	0.00
367.31	170.86
367.51	60.85
367.70	0.00
367.90	46.81
368.10	0.00
368.30	46.81
368.49	72.56
368.69	42.13
368.89	35.11
369.09	88.94
369.28	58.51
369.48	74.90
369.68	30.43
369.87	88.94
370.07	84.26
370.27	110.01
370.47	187.24
370.66	395.55
370.86	374.49
371.06	524.28
371.25	550.03
371.45	484.49
371.65	423.64
371.84	454.06
372.04	470.45
372.24	435.34
372.44	512.58
372.63	482.15
372.83	503.22
373.03	521.94
373.22	540.66
373.42	484.49
373.62	510.24
373.81	578.11
374.01	601.52
374.21	606.20
374.40	528.96
374.60	613.22
374.79	519.60
374.99	566.41
375.19	603.86
375.38	554.71
375.58	620.24
375.78	603.86
375.97	615.56
376.17	594.50
376.37	568.75
376.56	594.50
376.76	622.58
376.95	631.94
377.15	643.65
377.35	758.33
377.54	596.84
377.74	624.92
377.93	732.59
378.13	624.92
378.33	713.86
378.52	655.35
378.72	709.18
378.91	688.12
379.11	667.05
379.31	681.10
379.50	631.94
379.70	718.54
379.89	674.07
380.09	681.10
380.28	720.88
380.48	727.91
380.68	807.48
380.87	699.82
381.07	765.36
381.26	718.54
381.46	716.20
381.65	685.78
381.85	695.14
382.04	660.03
382.24	723.23
382.43	603.86
382.63	709.18
382.83	671.73
383.02	784.08
383.22	699.82
383.41	699.82
383.61	697.48
383.80	772.38
384.00	753.65
384.19	779.40
384.39	802.80
384.58	873.02
384.78	793.44
384.97	851.96
385.17	835.57
385.36	896.43
385.56	828.55
385.75	788.76
385.95	777.06
386.14	795.78
386.34	809.83
386.53	847.27
386.72	835.57
386.92	858.98
387.11	828.55
387.31	861.32
387.50	868.34
387.70	971.32
387.89	894.08
388.09	915.15
388.28	898.77
388.48	945.58
388.67	884.72
388.86	997.07
389.06	854.30
389.25	980.68
389.45	950.26
389.64	943.24
389.84	983.02
390.03	987.71
390.22	1078.99
390.42	929.19
390.61	1043.88
390.81	992.39
391.00	1100.05
391.19	1107.07
391.39	1006.43
391.58	1088.35
391.78	1006.43
391.97	1074.31
392.16	978.34
392.36	1015.79
392.55	978.34
392.75	1022.81
392.94	1015.79
393.13	999.41
393.33	1020.47
393.52	926.85
393.71	1132.82
393.91	1184.31
394.10	1114.10
394.29	1184.31
394.49	1130.48
394.68	1231.12
394.88	1207.72
395.07	1291.98
395.26	1174.95
395.46	1158.57
395.65	1142.18
395.84	1165.59
396.04	1254.53
396.23	1135.16
396.42	1139.84
396.62	1188.99
396.81	1228.78
397.00	1170.27
397.19	1324.74
397.39	1327.08
397.58	1331.76
397.77	1343.47
397.97	1373.89
398.16	1465.18
398.35	1467.52
398.55	1434.75
398.74	1526.03
398.93	1643.06
399.12	1509.65
399.32	1535.39
399.51	1537.73
399.70	1614.97
399.90	1516.67
400.09	1572.84
400.28	1584.54
400.47	1586.88
400.67	1673.48
400.86	1659.44
401.05	1678.16
401.24	1598.59
401.44	1666.46
401.63	1722.63
401.82	1734.34
402.01	1591.56
402.21	1708.59
402.40	1743.70
402.59	1701.57
402.78	1692.21
402.97	1675.82
403.17	1820.94
403.36	1874.77
403.55	1795.19
403.74	1914.56
403.93	1846.68
404.13	1877.11
404.32	1839.66
404.51	1900.52
404.70	1921.58
404.89	1846.68
405.09	1977.75
405.28	1902.86
405.47	1881.79
405.66	2022.22
405.85	1914.56
406.05	1874.77
406.24	1947.33
406.43	1994.14
406.62	2005.84
406.81	2045.63
407.00	2080.74
407.20	2003.50
407.39	2104.14
407.58	2057.33
407.77	2232.87
407.96	2211.81
408.15	2197.76
408.34	2204.78
408.54	2162.66
408.73	2298.41
408.92	2216.49
409.11	2347.56
409.30	2335.85
409.49	2284.36
409.68	2399.05
409.87	2338.20
410.07	2310.11
410.26	2338.20
410.45	2293.72
410.64	2459.90
410.83	2436.50
411.02	2492.67
411.21	2457.56
411.40	2635.44
411.59	2635.44
411.78	2588.63
411.98	2572.25
412.17	2612.04
412.36	2574.59
412.55	2731.41
412.74	2736.09
412.93	2696.30
413.12	2668.21
413.31	2981.84
413.50	2813.32
413.69	2850.77
413.88	2967.80
414.07	2935.03
414.26	2888.22
414.45	2771.19
414.64	2906.95
414.83	3077.80
415.02	2998.23
415.22	3119.93
415.41	3103.55
415.60	3166.74
415.79	3206.53
415.98	3349.31
416.17	3232.28
416.36	3201.85
416.55	3194.83
416.74	3206.53
416.93	3279.09
417.12	3269.73
417.31	3222.92
417.50	3337.60
417.69	3351.65
417.88	3342.28
418.07	3454.63
418.26	3424.20
418.45	3515.48
418.64	3506.12
418.83	3620.81
419.02	3463.99
419.21	3536.55
419.39	3515.48
419.58	3588.04
419.77	3599.74
419.96	3620.81
420.15	3817.41
420.34	3637.19
420.53	3597.40
420.72	3775.28
420.91	3852.52
421.10	3840.82
421.29	3875.93
421.48	3777.62
421.67	3794.01
421.86	3798.69
422.05	3868.91
422.24	3819.75
422.43	3805.71
422.61	3889.97
422.80	3868.91
422.99	3854.86
423.18	3974.23
423.37	3946.14
423.56	3850.18
423.75	3927.42
423.94	3794.01
424.13	3714.43
424.32	3730.81
424.50	3932.10
424.69	3904.01
424.88	4074.87
425.07	3904.01
425.26	3896.99
425.45	3929.76
425.64	3815.07
425.83	3925.08
426.01	3918.06
426.20	4072.53
426.39	4091.26
426.58	3936.78
426.77	3737.84
426.96	4016.36
427.15	3995.29
427.33	4175.52
427.52	4025.72
427.71	4159.13
427.90	4095.94
428.09	4121.68
428.28	4079.55
428.46	4105.30
428.65	4147.43
428.84	4191.90
429.03	4219.99
429.22	4098.28
429.40	4107.64
429.59	4243.39
429.78	3826.78
429.97	3915.72
430.16	4035.08
430.34	3995.29
430.53	4184.88
430.72	4280.84
430.91	4135.73
431.10	4374.46
431.28	4582.77
431.47	4566.39
431.66	4676.39
431.85	4521.92
432.03	4587.45
432.22	4755.97
432.41	4512.55
432.60	4575.75
432.79	4676.39
432.97	4690.43
433.16	4657.67
433.35	4559.36
433.54	4606.17
433.72	4596.81
433.91	4608.51
434.10	4683.41
434.28	4936.19
434.47	4882.36
434.66	4870.65
434.85	4973.64
435.03	4894.06
435.22	4919.81
435.41	5170.24
435.59	5074.28
435.78	5062.58
435.97	5085.98
436.16	5111.73
436.34	5067.26
436.53	5090.67
436.72	5118.75
436.90	5055.56
437.09	5128.11
437.28	5083.64
437.46	5085.98
437.65	5195.99
437.84	5284.93
438.02	5294.29
438.21	5313.02
438.40	5219.39
438.58	5481.53
438.77	5376.21
438.96	5390.25
439.14	5643.03
439.33	5706.23
439.52	5607.92
439.70	5575.16
439.89	5582.18
440.08	5486.22
440.26	5825.59
440.45	5624.31
440.63	5811.55
440.82	5963.68
441.01	5860.70
441.19	5881.77
441.38	5956.66
441.57	6153.27
441.75	6279.66
441.94	6176.67
442.12	6221.14
442.31	6361.58
442.50	6223.48
442.68	6289.02
442.87	6296.04
443.05	6279.66
443.24	6473.92
443.43	6408.39
443.61	6448.18
443.80	6696.27
443.98	6370.94
444.17	6202.42
444.35	6403.71
444.54	6579.25
444.73	6546.48
444.91	6415.41
445.10	6483.28
445.28	6370.94
445.47	6347.53
445.65	6366.26
445.84	6572.22
446.02	6607.33
446.21	6562.86
446.39	6509.03
446.58	6665.85
446.77	6614.35
446.95	6469.24
447.14	6689.25
447.32	6544.14
447.51	6691.59
447.69	6644.78
447.88	6677.55
448.06	6761.81
448.25	6651.80
448.43	6841.39
448.62	6516.05
448.80	6513.71
448.99	6942.03
449.17	6895.22
449.36	6604.99
449.54	6848.41
449.73	7066.08
449.91	7021.61
450.10	7105.87
450.28	7269.70
450.46	7204.17
450.65	7243.96
450.83	7103.53
451.02	7140.97
451.20	7136.29
451.39	7180.76
451.57	7201.83
451.76	7000.54
451.94	7094.16
452.13	7152.68
452.31	7136.29
452.49	7082.46
452.68	7220.55
452.86	7211.19
453.05	7192.47
453.23	7150.34
453.42	7246.30
453.60	7258.00
453.78	7389.07
453.97	7379.71
454.15	7255.66
454.34	7119.91
454.52	7382.05
454.70	7564.61
454.89	7445.24
455.07	7506.10
455.26	7824.41
455.44	7702.70
455.62	7768.24
455.81	7719.09
455.99	7698.02
456.17	7698.02
456.36	7726.11
456.54	7866.54
456.73	7985.91
456.91	8128.68
457.09	8032.72
457.28	8119.32
457.46	8018.68
457.64	8156.77
457.83	8013.99
458.01	8013.99
458.19	8084.21
458.38	8021.02
458.56	8376.78
458.74	8128.68
458.93	8187.19
459.11	8194.22
459.29	8229.32
459.48	8238.69
459.66	8135.70
459.84	8451.67
460.03	8367.42
460.21	8402.52
460.39	8578.06
460.57	8243.37
460.76	8458.70
460.94	8741.90
461.12	8554.66
461.31	8692.75
461.49	8613.17
461.67	8695.09
461.85	8786.37
462.04	8697.43
462.22	8800.41
462.40	8844.88
462.59	8865.95
462.77	8788.71
462.95	8877.65
463.13	8800.41
463.32	8919.78
463.50	8882.33
463.68	9064.89
463.86	8959.57
464.05	8889.35
464.23	8769.99
464.41	8978.30
464.59	8788.71
464.78	9130.43
464.96	9132.77
465.14	9109.36
465.32	9390.23
465.50	9130.43
465.69	9242.78
465.87	9329.38
466.05	9317.67
466.23	9200.65
466.41	9139.79
466.60	9235.75
466.78	9228.73
466.96	9334.06
467.14	9104.68
467.32	9336.40
467.51	9591.52
467.69	9160.86
467.87	9320.01
468.05	9425.34
468.23	9624.28
468.41	9315.33
468.60	9565.77
468.78	9563.43
468.96	9612.58
469.14	9757.69
469.32	9771.74
469.50	9469.81
469.69	9650.03
469.87	9867.70
470.05	9778.76
470.23	9792.80
470.41	9846.63
470.59	10104.09
470.77	9870.04
470.95	9966.00
471.14	10113.45
471.32	9795.14
471.50	10125.16
471.68	9994.09
471.86	10244.52
472.04	10251.55
472.22	10525.39
472.40	10232.82
472.58	10195.37
472.77	10506.66
472.95	10485.60
473.13	10808.59
473.31	10427.09
473.49	10478.58
473.67	10469.22
473.85	10689.23
474.03	11143.29
474.21	11049.67
474.39	10883.49
474.57	11276.70
474.75	11208.83
474.93	11042.65
475.12	11192.44
475.30	11110.52
475.48	11009.88
475.66	11513.10
475.84	11330.53
476.02	11199.46
476.20	11367.98
476.38	11609.06
476.56	11756.51
476.74	11676.93
476.92	11833.75
477.10	11770.55
477.28	12002.27
477.46	12037.38
477.64	12241.00
477.82	12245.68
478.00	12643.57
478.18	12425.90
478.36	12367.39
478.54	12826.14
478.72	12617.83
478.90	12765.28
479.08	12959.55
479.26	13217.01
479.44	13032.10
479.62	13298.92
479.80	13245.09
479.98	13397.23
480.16	13504.89
480.34	13291.90
480.52	13668.73
480.70	13907.46
480.88	13547.02
481.06	13797.46
481.24	13987.04
481.41	14157.90
481.59	14607.28
481.77	14139.18
481.95	14015.13
482.13	14700.90
482.31	14518.34
482.49	14867.08
482.67	14705.59
482.85	14906.87
483.03	15262.63
483.21	15122.20
483.39	15428.81
483.57	15321.15
483.74	15339.87
483.92	15690.95
484.10	15194.76
484.28	15669.89
484.46	16081.82
484.64	16266.72
484.82	15906.28
485.00	16128.63
485.18	16262.04
485.35	16266.72
485.53	16170.76
485.71	16255.02
485.89	16552.27
486.07	16353.32
486.25	16655.25
486.43	16868.24
486.61	17025.06
486.78	17256.77
486.96	17334.01
487.14	17444.01
487.32	17547.00
487.50	17743.60
487.68	18150.85
487.85	18087.66
488.03	18068.94
488.21	18633.00
488.39	18436.40
488.57	18515.98
488.75	18780.46
488.92	18977.06
489.10	19140.90
489.28	19356.23
489.46	19473.26
489.64	19454.53
489.81	19906.26
489.99	20011.58
490.17	20311.17
490.35	20287.76
490.53	20294.79
490.70	20400.11
490.88	20306.49
491.06	20919.71
491.24	20542.88
491.41	20643.52
491.59	20456.28
491.77	20971.20
491.95	21029.71
492.13	21371.43
492.30	21202.91
492.48	21729.53
492.66	21790.39
492.84	21692.08
493.01	21975.29
493.19	21837.20
493.37	21942.52
493.54	22387.22
493.72	22448.08
493.90	22373.18
494.08	22878.74
494.25	22890.44
494.43	23087.04
494.61	23550.47
494.79	23267.27
494.96	23426.42
495.14	23365.57
495.32	23468.55
495.49	23463.87
495.67	23880.49
495.85	23962.40
496.02	24093.47
496.20	24432.85
496.38	24393.06
496.55	24264.33
496.73	25177.14
496.91	24409.45
497.09	24868.19
497.26	25214.59
497.44	24865.85
497.62	25003.94
497.79	25727.17
497.97	25221.61
498.14	25287.15
498.32	25362.04
498.50	25481.41
498.67	26008.03
498.85	25556.31
499.03	25762.28
499.20	25926.11
499.38	26017.40
499.56	26183.57
499.73	26085.27
499.91	26483.16
500.08	26520.61
500.26	26188.25
500.44	26721.90
500.61	26775.73
500.79	26639.98
500.97	26731.26
501.14	27051.91
501.32	27374.91
501.49	26960.63
501.67	27054.25
501.84	27358.52
502.02	27721.30
502.20	27697.90
502.37	28018.55
502.55	27599.60
502.72	27852.38
502.90	27908.55
503.07	27971.74
503.25	28100.47
503.43	27838.33
503.60	27763.43
503.78	27950.68
503.95	28243.24
504.13	28030.26
504.30	28149.62
504.48	28355.59
504.65	28823.70
504.83	29003.92
505.01	28800.29
505.18	28861.15
505.36	29214.57
505.53	29317.55
505.71	29535.22
505.88	29436.92
506.06	29163.08
506.23	29633.52
506.41	29591.39
506.58	29324.57
506.76	29811.40
506.93	30094.61
507.11	29434.58
507.28	30101.63
507.46	30029.07
507.63	30368.45
507.81	30270.15
507.98	30326.32
508.16	30157.80
508.33	30462.07
508.50	30312.28
508.68	30609.53
508.85	31037.84
509.03	31014.44
509.20	30913.80
509.38	31545.74
509.55	30803.79
509.73	31152.53
509.90	31253.17
510.08	30895.07
510.25	31473.18
510.42	31489.57
510.60	31630.00
510.77	31772.77
510.95	31938.95
511.12	31571.49
511.30	31878.10
511.47	32093.43
511.64	32109.81
511.82	32671.54
511.99	31578.51
512.17	32411.74
512.34	32025.55
512.51	32400.04
512.69	32807.29
512.86	32992.19
513.04	33097.52
513.21	33191.14
513.38	32659.84
513.56	32545.15
513.73	32584.94
513.90	32891.55
514.08	33362.00
514.25	33357.32
514.43	33254.33
514.60	32884.53
514.77	33457.96
514.95	33570.30
515.12	33509.45
515.29	33715.42
515.47	33940.11
515.64	33766.91
515.81	33804.36
515.99	33820.74
516.16	33694.35
516.33	33401.79
516.51	33504.77
516.68	33139.65
516.85	33277.74
517.03	33675.63
517.20	33486.04
517.37	34330.98
517.54	34644.61
517.72	33895.64
517.89	34012.66
518.06	33930.75
518.24	33818.40
518.41	34230.33
518.58	34316.93
518.75	34518.22
518.93	35009.73
519.10	34574.39
519.27	34862.28
519.45	35201.66
519.62	35075.27
519.79	35218.04
519.96	35477.84
520.14	35168.89
520.31	35199.32
520.48	35473.16
520.65	35452.09
520.83	35634.66
521.00	36027.87
521.17	35967.01
521.34	36046.59
521.52	36680.88
521.69	36051.27
521.86	36219.79
522.03	35875.73
522.20	36268.94
522.38	36519.38
522.55	36311.07
522.72	36435.12
522.89	36121.49
523.07	36238.51
523.24	36034.89
523.41	36975.78
523.58	36678.54
523.75	37209.84
523.92	37144.30
524.10	37392.40
524.27	37200.47
524.44	36973.44
524.61	37488.36
524.78	37301.12
524.96	37741.14
525.13	37982.21
525.30	37415.80
525.47	38117.96
525.64	37591.34
525.81	37467.30
525.98	37443.89
526.16	37361.97
526.33	37345.59
526.50	37799.65
526.67	37270.69
526.84	37448.57
527.01	37567.94
527.18	37839.44
527.36	37684.97
527.53	38204.56
527.70	38539.26
527.87	38597.77
528.04	38265.42
528.21	38422.23
528.38	38707.78
528.55	38569.69
528.72	38902.04
528.89	38742.89
529.07	38703.10
529.24	38422.23
529.41	38532.24
529.58	39002.69
529.75	38576.71
529.92	39175.89
530.09	39264.83
530.26	39058.86
530.43	39257.81
530.60	38953.54
530.77	38904.38
530.94	39288.23
531.11	39182.91
531.28	39295.25
531.46	39819.53
531.63	39484.84
531.80	39543.35
531.97	39484.84
532.14	39552.71
532.31	39278.87
532.48	39185.25
532.65	39629.95
532.82	39636.97
532.99	39831.24
533.16	39929.54
533.33	39934.22
533.50	40315.73
533.67	39955.29
533.84	39632.29
534.01	40282.96
534.18	39515.26
534.35	40711.28
534.52	39995.07
534.69	40395.31
534.86	40385.94
535.03	40432.75
535.20	41237.90
535.37	40783.83
535.54	40945.33
535.71	40495.95
535.88	41174.70
536.05	40528.72
536.22	40751.07
536.38	40554.46
536.55	40708.94
536.72	40870.43
536.89	40519.35
537.06	40982.78
537.23	40919.59
537.40	41158.32
537.57	40973.42
537.74	41167.68
537.91	41127.89
538.08	40989.80
538.25	41153.64
538.42	41148.96
538.59	41549.19
538.75	40835.33
538.92	41064.70
539.09	41596.00
539.26	41085.76
539.43	41525.78
539.60	41675.58
539.77	40947.67
539.94	41324.50
540.11	41326.84
540.28	41352.58
540.44	41291.73
540.61	41263.64
540.78	41397.06
540.95	41397.06
541.12	41804.31
541.29	41858.14
541.46	41689.62
541.62	41916.65
541.79	41642.81
541.96	41680.26
542.13	42101.56
542.30	41621.75
542.47	42103.90
542.63	42291.14
542.80	42178.79
542.97	42380.08
543.14	42763.93
543.31	42155.39
543.48	43222.67
543.64	43281.19
543.81	42745.20
543.98	42824.78
544.15	42604.77
544.32	42522.85
544.48	43402.89
544.65	42911.38
544.82	42714.78
544.99	42637.54
545.16	43267.14
545.32	42967.55
545.49	43192.25
545.66	43243.74
545.83	43531.62
546.00	43311.61
546.16	43517.58
546.33	42962.87
546.50	42965.21
546.67	43384.17
546.83	42895.00
547.00	43110.33
547.17	42979.26
547.34	43147.78
547.50	42920.74
547.67	43491.83
547.84	43241.40
548.00	43791.42
548.17	44020.80
548.34	43910.79
548.51	43934.20
548.67	43536.30
548.84	43753.97
549.01	43650.99
549.18	43758.66
549.34	43913.13
549.51	44179.95
549.68	43828.87
549.84	43889.73
550.01	44507.63
550.18	43480.13
550.34	43910.79
550.51	43959.94
550.68	43885.04
550.84	43344.38
551.01	44198.68
551.18	43931.86
551.34	44076.97
551.51	44697.21
551.68	44350.81
551.84	44549.76
552.01	44282.94
552.18	44245.49
552.34	43688.44
552.51	44818.92
552.68	44428.05
552.84	44648.06
553.01	44495.92
553.18	44610.61
553.34	44151.87
553.51	44226.76
553.67	44451.45
553.84	44706.57
554.01	44619.97
554.17	44875.09
554.34	44591.89
554.51	44872.75
554.67	44851.69
554.84	45209.79
555.00	44673.81
555.17	44767.43
555.33	44914.88
555.50	44547.42
555.67	45036.59
555.83	44886.79
556.00	45216.81
556.16	45371.28
556.33	44931.26
556.50	44706.57
556.66	44725.30
556.83	44435.07
556.99	45116.17
557.16	45270.64
557.32	45448.52
557.49	45244.90
557.65	44978.07
557.82	45078.72
557.98	44734.66
558.15	45038.93
558.32	44783.81
558.48	45272.98
558.65	45015.52
558.81	44825.94
558.98	44521.67
559.14	45230.85
559.31	45268.30
559.47	45130.21
559.64	45411.07
559.80	45338.52
559.97	45212.13
560.13	45226.17
560.30	45413.41
560.46	45404.05
560.63	45523.42
560.79	45553.85
560.96	45457.88
561.12	45450.86
561.29	45375.97
561.45	45249.58
561.61	45394.69
561.78	44755.72
561.94	45212.13
562.11	45207.45
562.27	45415.76
562.44	45680.24
562.60	45577.25
562.77	45820.67
562.93	45698.96
563.10	45343.20
563.26	45347.88
563.42	45471.93
563.59	45507.04
563.75	45539.80
563.92	45530.44
564.08	45411.07
564.24	45404.05
564.41	45869.82
564.57	45551.51
564.74	45375.97
564.90	45684.92
565.07	46143.66
565.23	45563.21
565.39	45338.52
565.56	45846.41
565.72	45478.95
565.88	45523.42
566.05	45570.23
566.21	45813.65
566.38	45581.93
566.54	46024.29
566.70	45883.86
566.87	46251.33
567.03	45893.22
567.19	46452.61
567.36	45956.42
567.52	46078.13
567.68	45820.67
567.85	46078.13
568.01	46476.02
568.17	45698.96
568.34	46110.89
568.50	45729.39
568.66	45818.33
568.83	46026.63
568.99	45556.19
569.15	45963.44
569.32	45783.22
569.48	45720.02
569.64	46286.43
569.81	46218.56
569.97	45652.15
570.13	46038.34
570.30	45628.74
570.46	45794.92
570.62	45537.46
570.78	45790.24
570.95	45230.85
571.11	46211.54
571.27	45720.02
571.43	45687.26
571.60	45975.14
571.76	45649.81
571.92	46036.00
572.09	45883.86
572.25	45654.49
572.41	45865.14
572.57	46499.42
572.74	46323.88
572.90	46319.20
573.06	45951.74
573.22	46007.91
573.38	45965.78
573.55	45869.82
573.71	46375.37
573.87	46141.32
574.03	45923.65
574.20	46244.30
574.36	45640.45
574.52	45888.54
574.68	46124.94
574.84	46073.45
575.01	45975.14
575.17	45991.53
575.33	45813.65
575.49	45808.96
575.65	46286.43
575.82	46038.34
575.98	46054.72
576.14	46160.05
576.30	45958.76
576.46	46281.75
576.62	46223.24
576.79	46174.09
576.95	45778.54
577.11	45890.88
577.27	46150.68
577.43	46169.41
577.59	45677.90
577.75	46045.36
577.92	45841.73
578.08	46068.76
578.24	45834.71
578.40	45923.65
578.56	45975.14
578.72	46129.62
578.88	46218.56
579.04	46656.24
579.21	46038.34
579.37	45907.27
579.53	46216.22
579.69	45869.82
579.85	46122.60
580.01	46199.83
580.17	45895.56
580.33	46457.29
580.49	46344.95
580.65	46459.63
580.82	46246.65
580.98	46068.76
581.14	46094.51
581.30	46176.43
581.46	46391.76
581.62	46202.18
581.78	45947.06
581.94	46670.28
582.10	46391.76
582.26	46532.19
582.42	46204.52
582.58	46827.10
582.74	46492.40
582.90	46033.66
583.06	46632.83
583.22	46562.62
583.38	46384.74
583.54	46450.27
583.70	46314.52
583.86	46298.14
584.02	46136.64
584.18	46138.98
584.34	46316.86
584.50	45961.10
584.66	45977.48
584.82	46141.32
584.98	46490.06
585.14	46384.74
585.30	46160.05
585.46	45930.67
585.62	46459.63
585.78	46075.79
585.94	46120.26
586.10	46005.57
586.26	46204.52
586.42	46017.27
586.58	46492.40
586.74	46241.96
586.90	46522.83
587.06	46415.16
587.22	45710.66
587.38	45720.02
587.54	46232.60
587.70	46480.70
587.86	46508.79
588.02	46082.81
588.18	46354.31
588.34	46082.81
588.49	45928.33
588.65	45570.23
588.81	45567.89
588.97	45933.01
589.13	45694.28
589.29	46471.34
589.45	46410.48
589.61	45933.01
589.77	46272.39
589.93	46401.12
590.08	46649.22
