SpectraSuite Data File
++++++++++++++++++++++++++++++++++++
Date: Fri Oct 25 11:23:27 EDT 2013
User: price-jones
Dark Spectrum Present: No
Reference Spectrum Present: No
Number of Sampled Component Spectra: 1
Spectrometers: USB2+H05261
Integration Time (usec): 100000 (USB2+H05261)
Spectra Averaged: 1 (USB2+H05261)
Boxcar Smoothing: 0 (USB2+H05261)
Correct for Electrical Dark: No (USB2+H05261)
Strobe/Lamp Enabled: No (USB2+H05261)
Correct for Detector Non-linearity: No (USB2+H05261)
Correct for Stray Light: No (USB2+H05261)
Number of Pixels in Processed Spectrum: 2048
>>>>>Begin Processed Spectral Data<<<<<
365.73	245.76
365.92	245.76
366.12	245.76
366.32	117.03
366.52	79.58
366.72	124.05
366.91	121.71
367.11	86.60
367.31	28.09
367.51	102.98
367.70	121.71
367.90	110.01
368.10	142.77
368.30	128.73
368.49	128.73
368.69	152.13
368.89	110.01
369.09	131.07
369.28	161.50
369.48	110.01
369.68	217.67
369.87	135.75
370.07	191.92
370.27	271.50
370.47	327.68
370.66	550.03
370.86	582.79
371.06	678.76
371.25	732.59
371.45	690.46
371.65	671.73
371.84	664.71
372.04	674.07
372.24	784.08
372.44	671.73
372.63	704.50
372.83	713.86
373.03	772.38
373.22	716.20
373.42	758.33
373.62	758.33
373.81	805.14
374.01	786.42
374.21	816.85
374.40	795.78
374.60	833.23
374.79	816.85
374.99	840.25
375.19	856.64
375.38	875.36
375.58	889.40
375.78	901.11
375.97	835.57
376.17	858.98
376.37	940.90
376.56	847.27
376.76	903.45
376.95	840.25
377.15	919.83
377.35	861.32
377.54	905.79
377.74	856.64
377.93	863.66
378.13	882.38
378.33	994.73
378.52	903.45
378.72	917.49
378.91	952.60
379.11	936.21
379.31	933.87
379.50	945.58
379.70	1008.77
379.89	952.60
380.09	945.58
380.28	908.13
380.48	1086.01
380.68	926.85
380.87	926.85
381.07	1006.43
381.26	1015.79
381.46	1034.52
381.65	1015.79
381.85	1078.99
382.04	1022.81
382.24	1076.65
382.43	1053.24
382.63	980.68
382.83	1013.45
383.02	1107.07
383.22	1111.75
383.41	1034.52
383.61	1071.97
383.80	1118.78
384.00	1137.50
384.19	1116.44
384.39	1097.71
384.58	1137.50
384.78	1205.38
384.97	1153.88
385.17	1121.12
385.36	1130.48
385.56	1149.20
385.75	1132.82
385.95	1078.99
386.14	1203.04
386.34	1224.10
386.53	1259.21
386.72	1252.19
386.92	1226.44
387.11	1233.46
387.31	1231.12
387.50	1270.91
387.70	1270.91
387.89	1409.00
388.09	1313.04
388.28	1249.85
388.48	1238.14
388.67	1387.94
388.86	1308.36
389.06	1238.14
389.25	1413.68
389.45	1186.65
389.64	1261.55
389.84	1441.77
390.03	1451.13
390.22	1465.18
390.42	1416.02
390.61	1387.94
390.81	1416.02
391.00	1369.21
391.19	1439.43
391.39	1390.28
391.58	1490.92
391.78	1364.53
391.97	1514.33
392.16	1467.52
392.36	1495.60
392.55	1561.14
392.75	1547.09
392.94	1551.78
393.13	1519.01
393.33	1497.94
393.52	1568.16
393.71	1626.67
393.91	1617.31
394.10	1514.33
394.29	1626.67
394.49	1556.46
394.68	1596.25
394.88	1713.27
395.07	1673.48
395.26	1694.55
395.46	1661.78
395.65	1732.00
395.84	1645.40
396.04	1739.02
396.23	1736.68
396.42	1764.76
396.62	1806.89
396.81	1732.00
397.00	1671.14
397.19	1795.19
397.39	1757.74
397.58	1750.72
397.77	1823.28
397.97	1839.66
398.16	1769.44
398.35	1879.45
398.55	1806.89
398.74	1844.34
398.93	1905.20
399.12	1895.83
399.32	1893.49
399.51	1991.80
399.70	1982.43
399.90	1937.96
400.09	1968.39
400.28	1956.69
400.47	2043.29
400.67	2097.12
400.86	2167.34
401.05	2022.22
401.24	2115.84
401.44	2062.01
401.63	2197.76
401.82	2167.34
402.01	2253.94
402.21	2230.53
402.40	2122.87
402.59	2251.60
402.78	2265.64
402.97	2277.34
403.17	2160.31
403.36	2118.18
403.55	2228.19
403.74	2410.75
403.93	2251.60
404.13	2387.35
404.32	2361.60
404.51	2359.26
404.70	2450.54
404.89	2375.64
405.09	2480.97
405.28	2448.20
405.47	2394.37
405.66	2455.22
405.85	2544.16
406.05	2513.74
406.24	2490.33
406.43	2644.81
406.62	2689.28
406.81	2773.53
407.00	2597.99
407.20	2609.70
407.39	2635.44
407.58	2719.70
407.77	2750.13
407.96	2799.28
408.15	2740.77
408.34	2794.60
408.54	2825.03
408.73	2850.77
408.92	2764.17
409.11	2841.41
409.30	2949.08
409.49	3061.42
409.68	3009.93
409.87	2906.95
410.07	3143.34
410.26	3030.99
410.45	2923.33
410.64	3054.40
410.83	3056.74
411.02	3159.72
411.21	3253.34
411.40	3241.64
411.59	3171.43
411.78	3232.28
411.98	3190.15
412.17	3236.96
412.36	3428.88
412.55	3475.70
412.74	3370.37
412.93	3391.44
413.12	3365.69
413.31	3574.00
413.50	3466.33
413.69	3419.52
413.88	3669.96
414.07	3620.81
414.26	3702.73
414.45	3611.45
414.64	3733.15
414.83	3840.82
415.02	3817.41
415.22	3918.06
415.41	3896.99
415.60	3833.80
415.79	3934.44
415.98	4007.00
416.17	4030.40
416.36	4053.81
416.55	3967.21
416.74	4095.94
416.93	4058.49
417.12	4329.99
417.31	4189.56
417.50	4217.65
417.69	4241.05
417.88	4173.18
418.07	4245.73
418.26	4231.69
418.45	4348.72
418.64	4542.98
418.83	4418.93
419.02	4503.19
419.21	4620.22
419.39	4636.60
419.58	4491.49
419.77	4477.44
419.96	4519.57
420.15	4573.41
420.34	4521.92
420.53	4582.77
420.72	4741.93
420.91	4606.17
421.10	4699.80
421.29	4730.22
421.48	4720.86
421.67	4755.97
421.86	4795.76
422.05	4744.27
422.24	4727.88
422.43	4975.98
422.61	4870.65
422.80	4891.72
422.99	4903.42
423.18	4964.28
423.37	5111.73
423.56	4973.64
423.75	4957.25
423.94	4910.44
424.13	4601.49
424.32	4737.24
424.50	4882.36
424.69	5139.82
424.88	4997.04
425.07	4994.70
425.26	4844.91
425.45	4947.89
425.64	5125.77
425.83	4975.98
426.01	5036.83
426.20	4983.00
426.39	5032.15
426.58	5053.22
426.77	5050.88
426.96	5107.05
427.15	5135.14
427.33	5296.63
427.52	5163.22
427.71	5350.46
427.90	5364.51
428.09	5348.12
428.28	5434.72
428.46	5453.45
428.65	5390.25
428.84	5518.98
429.03	5708.57
429.22	5219.39
429.40	5441.75
429.59	5418.34
429.78	5280.25
429.97	5275.57
430.16	5420.68
430.34	5717.93
430.53	5851.34
430.72	5731.97
430.91	5563.45
431.10	5631.33
431.28	5727.29
431.47	5621.97
431.66	5916.87
431.85	5853.68
432.03	5977.73
432.22	6160.29
432.41	6005.81
432.60	5928.58
432.79	5963.68
432.97	5949.64
433.16	6010.50
433.35	6094.76
433.54	5961.34
433.72	5881.77
433.91	5980.07
434.10	6139.23
434.28	6129.86
434.47	6310.08
434.66	6310.08
434.85	6324.13
435.03	6335.83
435.22	6305.40
435.41	6347.53
435.59	6387.32
435.78	6399.02
435.97	6441.15
436.16	6380.30
436.34	6548.82
436.53	6480.94
436.72	6534.78
436.90	6689.25
437.09	6698.61
437.28	6516.05
437.46	6455.20
437.65	6558.18
437.84	6913.94
438.02	6665.85
438.21	6761.81
438.40	6740.74
438.58	6974.80
438.77	6967.77
438.96	6963.09
439.14	7204.17
439.33	7112.89
439.52	7398.43
439.70	7211.19
439.89	7405.46
440.08	7351.62
440.26	7517.80
440.45	7253.32
440.63	7332.90
440.82	7705.04
441.01	7447.58
441.19	7501.42
441.38	7808.03
441.57	7840.79
441.75	7815.05
441.94	7974.21
442.12	8044.42
442.31	7960.16
442.50	8112.30
442.68	7819.73
442.87	8070.17
443.05	8166.13
443.24	8224.64
443.43	8074.85
443.61	8191.88
443.80	8280.82
443.98	8058.46
444.17	7744.83
444.35	8095.91
444.54	8486.78
444.73	8374.44
444.91	8248.05
445.10	8205.92
445.28	8301.88
445.47	8250.39
445.65	8308.90
445.84	8688.07
446.02	8477.42
446.21	8491.46
446.39	8259.75
446.58	8547.64
446.77	8472.74
446.95	8255.07
447.14	8215.28
447.32	8325.29
447.51	8580.40
447.69	8667.00
447.88	8575.72
448.06	8414.23
448.25	8444.65
448.43	8629.56
448.62	8706.79
448.80	8561.68
448.99	8760.63
449.17	8603.81
449.36	8608.49
449.54	8863.61
449.73	9067.24
449.91	9114.05
450.10	8891.70
450.28	9064.89
450.46	9071.92
450.65	9062.55
450.83	9277.88
451.02	8865.95
451.20	9210.01
451.39	9004.04
451.57	9074.26
451.76	8994.68
451.94	9397.25
452.13	9172.56
452.31	9312.99
452.49	9132.77
452.68	9678.12
452.86	9404.27
453.05	9497.89
453.23	9589.17
453.42	9516.62
453.60	9465.13
453.78	9432.36
453.97	9729.61
454.15	9324.69
454.34	9521.30
454.52	9753.01
454.70	9631.30
454.89	9692.16
455.07	9841.95
455.26	9991.75
455.44	9802.16
455.62	9863.02
455.81	9963.66
455.99	9942.60
456.17	10017.49
456.36	10068.98
456.54	10216.44
456.73	10272.61
456.91	10338.15
457.09	10389.64
457.28	10450.49
457.46	10452.83
457.64	10420.06
457.83	10490.28
458.01	10441.13
458.19	10878.81
458.38	10595.61
458.56	10630.71
458.74	11028.60
458.93	10707.95
459.11	10611.99
459.29	10626.03
459.48	10820.30
459.66	10789.87
459.84	10998.18
460.03	10934.98
460.21	11056.69
460.39	11042.65
460.57	11033.29
460.76	11173.72
460.94	11386.71
461.12	11126.91
461.31	11187.76
461.49	11302.45
461.67	11225.21
461.85	11428.84
462.04	11314.15
462.22	11590.33
462.40	11569.27
462.59	11641.82
462.77	11545.86
462.95	11683.95
463.13	11627.78
463.32	11580.97
463.50	11918.01
463.68	11847.79
463.86	11918.01
464.05	11705.02
464.23	11749.49
464.41	11768.21
464.59	12079.50
464.78	12028.01
464.96	12142.70
465.14	11817.36
465.32	12180.15
465.50	12016.31
465.69	12079.50
465.87	12189.51
466.05	12201.21
466.23	12442.29
466.41	12311.22
466.60	12606.13
466.78	12280.79
466.96	12299.52
467.14	12283.13
467.32	12358.03
467.51	12549.95
467.69	12381.43
467.87	12662.30
468.05	12608.47
468.23	12496.12
468.41	12386.12
468.60	12636.55
468.78	12840.18
468.96	12475.06
469.14	12762.94
469.32	12765.28
469.50	12463.35
469.69	12973.59
469.87	13153.81
470.05	13420.63
470.23	13387.86
470.41	13231.05
470.59	13369.14
470.77	13027.42
470.95	13439.36
471.14	13317.65
471.32	13329.35
471.50	13724.90
471.68	13633.62
471.86	13687.45
472.04	13858.31
472.22	13914.48
472.40	13706.18
472.58	13781.07
472.77	14185.99
472.95	14132.15
473.13	14581.54
473.31	13900.44
473.49	14295.99
473.67	14139.18
473.85	14354.51
474.03	14572.18
474.21	14618.99
474.39	14644.73
474.57	14719.63
474.75	15009.86
474.93	15150.29
475.12	14764.10
475.30	15260.29
475.48	15531.80
475.66	15159.65
475.84	15007.52
476.02	15414.77
476.20	15611.37
476.38	15604.35
476.56	16058.42
476.74	16013.95
476.92	15917.98
477.10	15917.98
477.28	16175.44
477.46	16245.66
477.64	16381.41
477.82	16620.14
478.00	16837.81
478.18	16833.13
478.36	16985.27
478.54	17216.98
478.72	17132.72
478.90	17436.99
479.08	17631.26
479.26	17750.62
479.44	17783.39
479.62	17914.46
479.80	17745.94
479.98	18148.51
480.16	18359.16
480.34	18464.49
480.52	18487.89
480.70	18731.31
480.88	18548.75
481.06	19166.65
481.24	18918.55
481.41	18913.87
481.59	19681.56
481.77	19770.51
481.95	19517.73
482.13	19857.10
482.31	19737.74
482.49	20240.95
482.67	20217.55
482.85	20409.47
483.03	20526.50
483.21	20638.84
483.39	21078.86
483.57	21137.38
483.74	21259.09
483.92	21366.75
484.10	21317.60
484.28	21745.92
484.46	21823.16
484.64	22459.78
484.82	21865.28
485.00	22209.34
485.18	22707.88
485.35	22993.42
485.53	23117.47
485.71	23140.88
485.89	23894.53
486.07	23278.97
486.25	23522.38
486.43	23749.42
486.61	23894.53
486.78	24233.91
486.96	24109.86
487.14	24584.99
487.32	24610.73
487.50	25020.33
487.68	25280.13
487.85	25308.21
488.03	25521.20
488.21	25898.03
488.39	25722.49
488.57	26487.84
488.75	26029.10
488.92	26548.70
489.10	26848.29
489.28	26621.25
489.46	27161.92
489.64	26979.36
489.81	27594.92
489.99	27714.28
490.17	27765.78
490.35	28102.81
490.53	28439.85
490.70	28493.68
490.88	28414.10
491.06	29078.82
491.24	28545.17
491.41	29043.71
491.59	29439.26
491.77	29472.03
491.95	29724.80
492.13	29853.53
492.30	30057.16
492.48	30178.87
492.66	30143.76
492.84	30134.40
493.01	30583.78
493.19	30813.15
493.37	30864.64
493.54	31398.29
493.72	31655.75
493.90	31480.21
494.08	31751.71
494.25	32212.79
494.43	32041.93
494.61	32493.66
494.79	32311.10
494.96	32580.26
495.14	32680.90
495.32	33034.32
495.49	33347.95
495.67	33240.29
495.85	33565.62
496.02	33479.02
496.20	34171.82
496.38	33954.15
496.55	33886.28
496.73	35091.65
496.91	34424.60
497.09	34555.67
497.26	35119.74
497.44	34934.84
497.62	35421.67
497.79	35618.27
497.97	35751.68
498.14	36257.24
498.32	36240.86
498.50	36608.32
498.67	36575.55
498.85	36456.18
499.03	36545.12
499.20	37146.64
499.38	36940.68
499.56	37191.11
499.73	36851.73
499.91	37448.57
500.08	37876.89
500.26	37509.43
500.44	37600.71
500.61	37900.29
500.79	38164.78
500.97	38291.16
501.14	38635.22
501.32	38888.00
501.49	38639.90
501.67	38817.78
501.84	39070.56
502.02	39187.59
502.20	38998.01
502.37	39559.73
502.55	39065.88
502.72	39784.43
502.90	39854.64
503.07	39681.44
503.25	40091.04
503.43	39941.24
503.60	40135.51
503.78	40219.77
503.95	40697.24
504.13	40900.86
504.30	40928.95
504.48	40828.30
504.65	40828.30
504.83	41216.83
505.01	41240.24
505.18	41516.42
505.36	41832.39
505.53	41617.07
505.71	41586.64
505.88	42141.35
506.06	41642.81
506.23	41933.04
506.41	41916.65
506.58	41996.23
506.76	42085.17
506.93	42724.14
507.11	42527.53
507.28	42796.70
507.46	42768.61
507.63	42916.06
507.81	43119.69
507.98	43089.26
508.16	43166.50
508.33	43566.73
508.50	43201.61
508.68	43817.17
508.85	44023.14
509.03	43814.83
509.20	44168.25
509.38	44367.20
509.55	44648.06
509.73	44610.61
509.90	44439.75
510.08	45041.27
510.25	44783.81
510.42	44804.88
510.60	45158.30
510.77	45565.55
510.95	45610.02
511.12	44924.24
511.30	45516.40
511.47	45556.19
511.64	45415.76
511.82	45951.74
511.99	45659.17
512.17	46237.28
512.34	46415.16
512.51	46632.83
512.69	46520.49
512.86	46686.67
513.04	46602.41
513.21	46759.22
513.38	47023.70
513.56	46934.76
513.73	46784.97
513.90	46813.05
514.08	46838.80
514.25	47229.67
514.43	47779.70
514.60	47789.06
514.77	47550.32
514.95	47885.02
515.12	47791.40
515.29	47952.90
515.47	47955.24
515.64	48315.68
515.81	48268.87
515.99	48313.34
516.16	48786.13
516.33	48486.54
516.51	48385.89
516.68	48350.79
516.85	48648.03
517.03	49118.48
517.20	49366.58
517.37	48783.79
517.54	48968.69
517.72	49291.68
517.89	48760.38
518.06	49443.82
518.24	49251.89
518.41	49432.11
518.58	49720.00
518.75	49249.55
518.93	49406.37
519.10	49373.60
519.27	50033.63
519.45	49834.69
519.62	50241.94
519.79	50103.85
519.96	49783.19
520.14	50358.97
520.31	50068.74
520.48	50204.49
520.65	50953.46
520.83	50529.83
521.00	50890.27
521.17	50796.65
521.34	50518.12
521.52	50724.09
521.69	51250.71
521.86	51370.08
522.03	51093.89
522.20	51363.06
522.38	51433.27
522.55	51011.98
522.72	51512.85
522.89	51255.39
523.07	51826.48
523.24	51812.44
523.41	51899.04
523.58	51498.81
523.75	51742.22
523.92	52093.30
524.10	52364.81
524.27	52034.79
524.44	52203.31
524.61	52486.51
524.78	52107.35
524.96	52067.56
525.13	52313.31
525.30	52547.37
525.47	52299.27
525.64	52584.82
525.81	52474.81
525.98	52701.84
526.16	52633.97
526.33	52804.83
526.50	52856.32
526.67	52886.74
526.84	52966.32
527.01	52640.99
527.18	52643.33
527.36	53081.01
527.53	53109.10
527.70	53301.02
527.87	53516.35
528.04	53570.18
528.21	53766.79
528.38	53404.00
528.55	53928.28
528.72	53329.11
528.89	53525.71
529.07	53509.33
529.24	53301.02
529.41	53895.52
529.58	53691.89
529.75	53705.93
529.92	54024.25
530.09	53886.15
530.26	54057.01
530.43	54021.90
530.60	53904.88
530.77	54047.65
530.94	53942.33
531.11	54092.12
531.28	54202.13
531.46	54092.12
531.63	54506.40
531.80	54246.60
531.97	54492.35
532.14	54805.98
532.31	54588.31
532.48	54447.88
532.65	55042.38
532.82	54721.72
532.99	54859.82
533.16	54293.41
533.33	54731.09
533.50	54915.99
533.67	54958.12
533.84	54883.22
534.01	54986.21
534.18	54859.82
534.35	55327.92
534.52	55126.64
534.69	55299.84
534.86	55456.65
535.03	55159.41
535.20	55229.62
535.37	55379.42
535.54	55341.97
535.71	55334.95
535.88	55491.76
536.05	55348.99
536.22	55906.04
536.38	55711.77
536.55	55693.05
536.72	55622.83
536.89	55430.91
537.06	55807.73
537.23	56126.05
537.40	55746.88
537.57	55725.81
537.74	56051.15
537.91	56203.28
538.08	56032.42
538.25	55552.62
538.42	55950.51
538.59	56116.68
538.75	55704.75
538.92	56018.38
539.09	56313.29
539.26	56140.09
539.43	56303.93
539.60	56252.44
539.77	56289.88
539.94	56378.82
540.11	56420.95
540.28	56486.49
540.44	56339.04
540.61	56266.48
540.78	56404.57
540.95	56690.12
541.12	56601.18
541.29	56671.39
541.46	56643.30
541.62	56577.77
541.79	56729.90
541.96	56521.60
542.13	56757.99
542.30	56978.00
542.47	56774.37
542.63	57006.09
542.80	56865.66
542.97	57317.38
543.14	57090.35
543.31	57162.90
543.48	57254.18
543.64	57588.88
543.81	57460.15
543.98	57319.72
544.15	57581.86
544.32	57553.77
544.48	57586.54
544.65	57359.51
544.82	57563.14
544.99	57301.00
545.16	57612.29
545.32	57719.95
545.49	57841.66
545.66	57956.35
545.83	57614.63
546.00	57689.52
546.16	57759.74
546.33	57652.08
546.50	57719.95
546.67	57778.46
546.83	57565.48
547.00	57986.77
547.17	57853.36
547.34	57954.00
547.50	57996.13
547.67	58174.02
547.84	58033.58
548.00	58244.23
548.17	58267.64
548.34	58181.04
548.51	58738.08
548.67	58262.96
548.84	58288.70
549.01	58066.35
549.18	58232.53
549.34	58375.30
549.51	58174.02
549.68	58532.12
549.84	58415.09
550.01	58323.81
550.18	58211.46
550.34	58415.09
550.51	58485.31
550.68	58527.44
550.84	58571.91
551.01	58714.68
551.18	58501.69
551.34	58532.12
551.51	58578.93
551.68	58637.44
551.84	58478.28
552.01	58569.57
552.18	58663.19
552.34	58438.50
552.51	58829.37
552.68	58539.14
552.84	58693.61
553.01	58897.24
553.18	58934.69
553.34	59023.63
553.51	58754.47
553.67	58967.46
553.84	59061.08
554.01	59140.66
554.17	59150.02
554.34	59180.45
554.51	59152.36
554.67	59079.80
554.84	59016.61
555.00	58941.71
555.17	59121.93
555.33	59035.33
555.50	59007.25
555.67	59042.35
555.83	59194.49
556.00	59161.72
556.16	59283.43
556.33	59526.84
556.50	59185.13
556.66	59447.27
556.83	59126.61
556.99	59477.69
557.16	59632.17
557.32	59463.65
557.49	59756.22
557.65	59433.22
557.82	59358.33
557.98	59547.91
558.15	59384.07
558.32	59650.89
558.48	59498.76
558.65	59468.33
558.81	59533.87
558.98	59632.17
559.14	59711.75
559.31	59732.81
559.47	59732.81
559.64	60060.49
559.80	59700.04
559.97	59650.89
560.13	59512.80
560.30	59838.14
560.46	59908.35
560.63	59835.80
560.79	59880.27
560.96	60076.87
561.12	60121.34
561.29	59796.01
561.45	60030.06
561.61	59735.15
561.78	59952.82
561.94	59833.46
562.11	59929.42
562.27	59882.61
562.44	59903.67
562.60	60149.43
562.77	60055.81
562.93	59880.27
563.10	60095.60
563.26	60011.34
563.42	60226.66
563.59	59917.71
563.75	60097.94
563.92	60238.37
564.08	60074.53
564.24	60296.88
564.41	60200.92
564.57	60121.34
564.74	60219.64
564.90	59849.84
565.07	60079.21
565.23	60360.08
565.39	59955.16
565.56	60259.43
565.72	60278.16
565.88	60346.03
566.05	60140.07
566.21	60238.37
566.38	60264.11
566.54	60491.15
566.70	60465.40
566.87	60563.70
567.03	60212.62
567.19	60514.55
567.36	60654.98
567.52	60247.73
567.68	60526.25
567.85	60498.17
568.01	60573.06
568.17	60392.84
568.34	60430.29
568.50	60336.67
568.66	60385.82
568.83	60362.42
568.99	60472.42
569.15	60441.99
569.32	60498.17
569.48	60547.32
569.64	60570.72
569.81	60449.02
569.97	60350.71
570.13	60694.77
570.30	60502.85
570.46	60544.98
570.62	60669.03
570.78	60610.51
570.95	60573.06
571.11	60746.26
571.27	60528.59
571.43	60514.55
571.60	60764.99
571.76	60523.91
571.92	60800.10
572.09	60800.10
572.25	60914.78
572.41	60711.16
572.57	60769.67
572.74	60842.23
572.90	60697.11
573.06	60603.49
573.22	60540.30
573.38	60746.26
573.55	60776.69
573.71	60874.99
573.87	60970.96
574.03	60575.40
574.20	60783.71
574.36	60680.73
574.52	60877.33
574.68	60748.60
574.84	60898.40
575.01	60685.41
575.17	60832.86
575.33	60884.36
575.49	60701.79
575.65	60889.04
575.82	60856.27
575.98	60889.04
576.14	61043.51
576.30	60816.48
576.46	60741.58
576.62	60704.13
576.79	60823.50
576.95	60814.14
577.11	60874.99
577.27	60910.10
577.43	60769.67
577.59	60772.01
577.75	60776.69
577.92	60687.75
578.08	60893.72
578.24	60994.36
578.40	61041.17
578.56	61006.06
578.72	60985.00
578.88	61022.45
579.04	61041.17
579.21	61069.26
579.37	61179.26
579.53	60980.32
579.69	60734.56
579.85	61015.43
580.01	61144.16
580.17	60762.65
580.33	61071.60
580.49	60858.61
580.65	60804.78
580.82	60786.05
580.98	60877.33
581.14	60741.58
581.30	61085.64
581.46	60947.55
581.62	60985.00
581.78	60914.78
581.94	61118.41
582.10	61041.17
582.26	60940.53
582.42	61036.49
582.58	61137.13
582.74	60907.76
582.90	61020.11
583.06	60959.25
583.22	61073.94
583.38	61249.48
583.54	61092.66
583.70	61106.71
583.86	60874.99
584.02	60896.06
584.18	61167.56
584.34	61134.79
584.50	60837.54
584.66	60982.66
584.82	60924.14
584.98	61256.50
585.14	61092.66
585.30	60975.64
585.46	61270.54
585.62	61134.79
585.78	60994.36
585.94	61083.30
586.10	61064.58
586.26	60994.36
586.42	61076.28
586.58	61219.05
586.74	61181.60
586.90	61125.43
587.06	60945.21
587.22	61247.14
587.38	61230.75
587.54	61146.50
587.70	61399.27
587.86	61036.49
588.02	61125.43
588.18	61303.31
588.34	61090.32
588.49	61045.85
