SpectraSuite Data File
++++++++++++++++++++++++++++++++++++
Date: Fri Oct 25 10:43:48 EDT 2013
User: price-jones
Dark Spectrum Present: No
Reference Spectrum Present: No
Number of Sampled Component Spectra: 1
Spectrometers: USB2+H05261
Integration Time (usec): 100000 (USB2+H05261)
Spectra Averaged: 1 (USB2+H05261)
Boxcar Smoothing: 0 (USB2+H05261)
Correct for Electrical Dark: No (USB2+H05261)
Strobe/Lamp Enabled: No (USB2+H05261)
Correct for Detector Non-linearity: No (USB2+H05261)
Correct for Stray Light: No (USB2+H05261)
Number of Pixels in Processed Spectrum: 2048
>>>>>Begin Processed Spectral Data<<<<<
365.73	149.79
365.92	149.79
366.12	149.79
366.32	0.00
366.52	37.45
366.72	14.04
366.91	0.00
367.11	0.00
367.31	4.68
367.51	53.83
367.70	0.00
367.90	0.00
368.10	0.00
368.30	0.00
368.49	0.00
368.69	107.66
368.89	2.34
369.09	23.41
369.28	42.13
369.48	63.19
369.68	112.35
369.87	0.00
370.07	7.02
370.27	166.18
370.47	177.88
370.66	390.87
370.86	367.46
371.06	372.15
371.25	435.34
371.45	418.96
371.65	425.98
371.84	496.19
372.04	482.15
372.24	435.34
372.44	407.25
372.63	517.26
372.83	489.17
373.03	458.74
373.22	496.19
373.42	479.81
373.62	580.45
373.81	535.98
374.01	573.43
374.21	566.41
374.40	575.77
374.60	557.05
374.79	568.75
374.99	564.07
375.19	603.86
375.38	624.92
375.58	557.05
375.78	550.03
375.97	592.16
376.17	669.39
376.37	613.22
376.56	582.79
376.76	594.50
376.95	620.24
377.15	594.50
377.35	547.69
377.54	720.88
377.74	601.52
377.93	603.86
378.13	571.09
378.33	671.73
378.52	622.58
378.72	664.71
378.91	683.44
379.11	568.75
379.31	650.67
379.50	674.07
379.70	685.78
379.89	779.40
380.09	624.92
380.28	615.56
380.48	622.58
380.68	688.12
380.87	650.67
381.07	699.82
381.26	765.36
381.46	711.52
381.65	671.73
381.85	671.73
382.04	706.84
382.24	697.48
382.43	669.39
382.63	641.31
382.83	720.88
383.02	770.04
383.22	765.36
383.41	737.27
383.61	723.23
383.80	767.70
384.00	798.12
384.19	718.54
384.39	835.57
384.58	781.74
384.78	819.19
384.97	779.40
385.17	784.08
385.36	802.80
385.56	720.88
385.75	837.91
385.95	805.14
386.14	758.33
386.34	870.68
386.53	840.25
386.72	875.36
386.92	966.64
387.11	805.14
387.31	905.79
387.50	809.83
387.70	870.68
387.89	835.57
388.09	896.43
388.28	868.34
388.48	901.11
388.67	905.79
388.86	873.02
389.06	919.83
389.25	938.55
389.45	961.96
389.64	926.85
389.84	971.32
390.03	966.64
390.22	1029.84
390.42	1013.45
390.61	980.68
390.81	1064.94
391.00	1083.67
391.19	1055.58
391.39	1011.11
391.58	1041.54
391.78	1032.18
391.97	1018.13
392.16	1055.58
392.36	950.26
392.55	1060.26
392.75	1053.24
392.94	1022.81
393.13	1039.20
393.33	1008.77
393.52	1062.60
393.71	1184.31
393.91	1069.62
394.10	1132.82
394.29	1268.57
394.49	1156.22
394.68	1104.73
394.88	1142.18
395.07	1233.46
395.26	1186.65
395.46	1172.61
395.65	1277.93
395.84	1254.53
396.04	1226.44
396.23	1128.14
396.42	1174.95
396.62	1153.88
396.81	1184.31
397.00	1226.44
397.19	1369.21
397.39	1254.53
397.58	1416.02
397.77	1320.06
397.97	1418.36
398.16	1401.98
398.35	1481.56
398.55	1430.07
398.74	1481.56
398.93	1483.90
399.12	1523.69
399.32	1446.45
399.51	1500.28
399.70	1603.27
399.90	1507.30
400.09	1582.20
400.28	1481.56
400.47	1701.57
400.67	1589.22
400.86	1610.29
401.05	1706.25
401.24	1699.23
401.44	1640.72
401.63	1659.44
401.82	1678.16
402.01	1741.36
402.21	1753.06
402.40	1827.96
402.59	1720.29
402.78	1708.59
402.97	1696.89
403.17	1797.53
403.36	1724.97
403.55	1832.64
403.74	1816.26
403.93	1928.60
404.13	1881.79
404.32	1881.79
404.51	1849.02
404.70	1914.56
404.89	1865.41
405.09	1968.39
405.28	2019.88
405.47	1867.75
405.66	1954.35
405.85	2101.80
406.05	1987.11
406.24	1933.28
406.43	2078.40
406.62	2101.80
406.81	2024.56
407.00	2043.29
407.20	2069.03
407.39	2045.63
407.58	2118.18
407.77	2272.66
407.96	2239.89
408.15	2225.85
408.34	2251.60
408.54	2153.29
408.73	2244.57
408.92	2263.30
409.11	2345.22
409.30	2310.11
409.49	2190.74
409.68	2193.08
409.87	2228.19
410.07	2392.03
410.26	2312.45
410.45	2354.58
410.64	2359.26
410.83	2424.80
411.02	2478.63
411.21	2457.56
411.40	2504.37
411.59	2553.52
411.78	2569.91
411.98	2530.12
412.17	2555.86
412.36	2614.38
412.55	2630.76
412.74	2747.79
412.93	2766.51
413.12	2738.43
413.31	2935.03
413.50	2757.15
413.69	2899.92
413.88	2942.05
414.07	2939.71
414.26	2946.73
414.45	2981.84
414.64	2918.65
414.83	3030.99
415.02	2878.86
415.22	2960.78
415.41	3141.00
415.60	3030.99
415.79	3307.18
415.98	3239.30
416.17	3316.54
416.36	3199.51
416.55	3251.00
416.74	3178.45
416.93	3169.09
417.12	3204.19
417.31	3323.56
417.50	3234.62
417.69	3372.71
417.88	3494.42
418.07	3243.98
418.26	3412.50
418.45	3475.70
418.64	3557.61
418.83	3562.30
419.02	3489.74
419.21	3463.99
419.39	3527.19
419.58	3538.89
419.77	3510.80
419.96	3623.15
420.15	3765.92
420.34	3726.13
420.53	3655.92
420.72	3749.54
420.91	3754.22
421.10	3866.56
421.29	3875.93
421.48	3838.48
421.67	3686.34
421.86	3836.14
422.05	3735.50
422.24	3775.28
422.43	3693.37
422.61	3805.71
422.80	3904.01
422.99	3946.14
423.18	3915.72
423.37	3927.42
423.56	3906.35
423.75	3873.59
423.94	3904.01
424.13	3681.66
424.32	3714.43
424.50	3978.91
424.69	4063.17
424.88	3882.95
425.07	3922.74
425.26	3829.12
425.45	3899.33
425.64	3794.01
425.83	3836.14
426.01	3957.85
426.20	4049.13
426.39	4018.70
426.58	3885.29
426.77	3936.78
426.96	4021.04
427.15	3983.59
427.33	4098.28
427.52	4098.28
427.71	4114.66
427.90	4142.75
428.09	4198.92
428.28	4077.21
428.46	4177.86
428.65	4058.49
428.84	4283.18
429.03	4238.71
429.22	4131.05
429.40	4180.20
429.59	4025.72
429.78	4081.89
429.97	3817.41
430.16	4077.21
430.34	4018.70
430.53	4168.49
430.72	4196.58
430.91	4248.07
431.10	4140.41
431.28	4454.04
431.47	4652.98
431.66	4889.38
431.85	4489.15
432.03	4484.47
432.22	4550.00
432.41	4685.75
432.60	4582.77
432.79	4676.39
432.97	4772.35
433.16	4564.04
433.35	4606.17
433.54	4578.09
433.72	4631.92
433.91	4533.62
434.10	4671.71
434.28	4809.80
434.47	4861.29
434.66	4727.88
434.85	4910.44
435.03	4926.83
435.22	4770.01
435.41	5104.71
435.59	5093.01
435.78	5032.15
435.97	5088.32
436.16	5118.75
436.34	5064.92
436.53	5132.79
436.72	5235.78
436.90	5118.75
437.09	5198.33
437.28	5179.61
437.46	5198.33
437.65	5217.05
437.84	4933.85
438.02	5095.35
438.21	5188.97
438.40	5100.03
438.58	5329.40
438.77	5416.00
438.96	5416.00
439.14	5549.41
439.33	5547.07
439.52	5706.23
439.70	5586.86
439.89	5561.11
440.08	5647.71
440.26	5724.95
440.45	5734.31
440.63	5860.70
440.82	5951.98
441.01	5989.43
441.19	5809.21
441.38	6113.48
441.57	5954.32
441.75	6033.90
441.94	6300.72
442.12	6106.46
442.31	6333.49
442.50	6298.38
442.68	6155.61
442.87	6076.03
443.05	6331.15
443.24	6366.26
443.43	6253.91
443.61	6466.90
443.80	6539.46
443.98	6282.00
444.17	6214.12
444.35	6396.68
444.54	6581.59
444.73	6494.99
444.91	6415.41
445.10	6502.01
445.28	6473.92
445.47	6443.49
445.65	6452.86
445.84	6595.63
446.02	6644.78
446.21	6530.09
446.39	6537.12
446.58	6686.91
446.77	6574.56
446.95	6623.72
447.14	6602.65
447.32	6707.98
447.51	6609.67
447.69	6703.29
447.88	6581.59
448.06	6616.69
448.25	6614.35
448.43	6663.51
448.62	6626.06
448.80	6857.77
448.99	6869.47
449.17	6850.75
449.36	6703.29
449.54	7098.84
449.73	6916.28
449.91	7159.70
450.10	6972.46
450.28	7258.00
450.46	7206.51
450.65	7094.16
450.83	7353.96
451.02	6927.99
451.20	7279.07
451.39	7096.50
451.57	7122.25
451.76	7105.87
451.94	7171.40
452.13	7173.74
452.31	7157.36
452.49	7082.46
452.68	7117.57
452.86	7073.10
453.05	7178.42
453.23	7290.77
453.42	6930.33
453.60	7108.21
453.78	7660.57
453.97	7337.58
454.15	7478.01
454.34	7452.27
454.52	7400.77
454.70	7513.12
454.89	7552.91
455.07	7679.30
455.26	7733.13
455.44	7838.45
455.62	7644.19
455.81	7627.81
455.99	7625.47
456.17	7637.17
456.36	7882.92
456.54	7906.33
456.73	7985.91
456.91	8037.40
457.09	7918.03
457.28	8336.99
457.46	7866.54
457.64	8168.47
457.83	8175.49
458.01	8032.72
458.19	8201.24
458.38	8252.73
458.56	8262.09
458.74	8154.43
458.93	8124.00
459.11	8325.29
459.29	8397.84
459.48	8414.23
459.66	8276.13
459.84	8336.99
460.03	8549.98
460.21	8381.46
460.39	8538.27
460.57	8652.96
460.76	8470.40
460.94	8718.50
461.12	8484.44
461.31	8739.56
461.49	8634.24
461.67	8603.81
461.85	8987.66
462.04	8723.18
462.22	8812.12
462.40	8805.10
462.59	8723.18
462.77	8889.35
462.95	8875.31
463.13	8835.52
463.32	8929.14
463.50	8887.01
463.68	8975.95
463.86	8791.05
464.05	9139.79
464.23	8856.59
464.41	9205.33
464.59	8823.82
464.78	9174.90
464.96	9036.81
465.14	8882.33
465.32	9266.18
465.50	9205.33
465.69	9132.77
465.87	9107.02
466.05	8971.27
466.23	8945.53
466.41	9228.73
466.60	9399.59
466.78	9013.40
466.96	9116.39
467.14	9217.03
467.32	9345.76
467.51	9387.89
467.69	9261.50
467.87	9383.21
468.05	9392.57
468.23	9427.68
468.41	9472.15
468.60	9439.38
468.78	9549.39
468.96	9413.63
469.14	9671.09
469.32	9570.45
469.50	9397.25
469.69	9837.27
469.87	9771.74
470.05	9837.27
470.23	9776.42
470.41	9966.00
470.59	9879.40
470.77	9736.63
470.95	9877.06
471.14	9867.70
471.32	10073.67
471.50	10050.26
471.68	10178.99
471.86	10476.24
472.04	10548.79
472.22	10780.51
472.40	10087.71
472.58	10242.18
472.77	10509.01
472.95	10441.13
473.13	10932.64
473.31	10567.52
473.49	10551.14
473.67	10670.50
473.85	10464.54
474.03	10768.80
474.21	10871.79
474.39	10949.03
474.57	10953.71
474.75	10862.43
474.93	10981.79
475.12	11066.05
475.30	11218.19
475.48	10918.60
475.66	11274.36
475.84	11021.58
476.02	11569.27
476.20	11185.42
476.38	11737.79
476.56	11796.30
476.74	11751.83
476.92	11669.91
477.10	11871.20
477.28	12180.15
477.46	11974.18
477.64	12437.61
477.82	12262.07
478.00	12549.95
478.18	12210.57
478.36	12760.60
478.54	12372.07
478.72	12507.82
478.90	12922.10
479.08	12809.75
479.26	13076.57
479.44	13123.38
479.62	13254.45
479.80	13378.50
479.98	13195.94
480.16	13617.24
480.34	13476.80
480.52	13825.54
480.70	13603.19
480.88	13617.24
481.06	13713.20
481.24	13919.17
481.41	13996.40
481.59	14523.02
481.77	14235.14
481.95	14249.18
482.13	14600.26
482.31	14185.99
482.49	14841.34
482.67	14714.95
482.85	14988.79
483.03	15241.57
483.21	15192.42
483.39	15370.30
483.57	15351.57
483.74	15218.16
483.92	15300.08
484.10	15300.08
484.28	15920.32
484.46	15990.54
484.64	16084.16
484.82	15889.90
485.00	16400.13
485.18	16484.39
485.35	16606.10
485.53	16126.29
485.71	16163.74
485.89	16688.02
486.07	16390.77
486.25	16376.73
486.43	16760.58
486.61	17137.40
486.78	17329.33
486.96	17135.06
487.14	17783.39
487.32	17472.10
487.50	17757.64
487.68	17767.01
487.85	18183.62
488.03	18574.49
488.21	18738.33
488.39	18441.08
488.57	18431.72
488.75	18478.53
488.92	19157.28
489.10	18925.57
489.28	19183.03
489.46	19660.50
489.64	19665.18
489.81	20215.21
489.99	19974.13
490.17	19864.13
490.35	20538.20
490.53	20119.24
490.70	20482.03
490.88	20264.36
491.06	20856.51
491.24	20587.35
491.41	20631.82
491.59	20746.51
491.77	20514.80
491.95	20769.91
492.13	21170.15
492.30	21518.89
492.48	21647.61
492.66	21656.98
492.84	21687.40
493.01	22040.82
493.19	21844.22
493.37	21926.14
493.54	22153.17
493.72	22445.74
493.90	22293.60
494.08	23030.87
494.25	23054.28
494.43	23122.15
494.61	23510.68
494.79	23658.14
494.96	23185.35
495.14	23278.97
495.32	23136.20
495.49	23726.01
495.67	23676.86
495.85	24271.36
496.02	24027.94
496.20	23962.40
496.38	24283.06
496.55	24156.67
496.73	25104.59
496.91	24737.12
497.09	24568.60
497.26	24697.33
497.44	24746.48
497.62	25160.76
497.79	25472.05
497.97	25043.73
498.14	25158.42
498.32	25394.81
498.50	25701.42
498.67	25820.79
498.85	25493.12
499.03	26150.81
499.20	26401.24
499.38	26190.59
499.56	26335.71
499.73	26359.11
499.91	26354.43
500.08	26544.02
500.26	26480.82
500.44	26527.63
500.61	26726.58
500.79	26478.48
500.97	26251.45
501.14	27042.55
501.32	27002.76
501.49	27161.92
501.67	27222.77
501.84	27307.03
502.02	27576.19
502.20	27655.77
502.37	27367.88
502.55	27585.55
502.72	27859.40
502.90	28126.22
503.07	27770.46
503.25	27999.83
503.43	27941.32
503.60	27960.04
503.78	28002.17
503.95	28072.39
504.13	28545.17
504.30	28404.74
504.48	28575.60
504.65	28463.25
504.83	28982.85
505.01	28980.51
505.18	29179.46
505.36	29392.45
505.53	29228.61
505.71	29570.33
505.88	29425.22
506.06	29099.88
506.23	29380.74
506.41	29355.00
506.58	29474.37
506.76	29766.93
506.93	30176.53
507.11	29853.53
507.28	29970.56
507.46	29696.72
507.63	29600.76
507.81	29923.75
507.98	29841.83
508.16	30103.97
508.33	30309.94
508.50	30499.52
508.68	30199.93
508.85	30859.96
509.03	30651.66
509.20	31016.78
509.38	30937.20
509.55	30998.06
509.73	31274.24
509.90	31278.92
510.08	31377.22
510.25	31253.17
510.42	31407.65
510.60	31613.62
510.77	31587.87
510.95	32280.67
511.12	31866.39
511.30	32198.75
511.47	32198.75
511.64	32240.88
511.82	32205.77
511.99	31929.59
512.17	32837.72
512.34	32210.45
512.51	32397.70
512.69	32697.28
512.86	32748.78
513.04	32610.68
513.21	32713.67
513.38	32814.31
513.56	33212.20
513.73	32734.73
513.90	33097.52
514.08	32837.72
514.25	33277.74
514.43	32828.35
514.60	33163.05
514.77	33275.40
514.95	33406.47
515.12	33610.09
515.29	33472.00
515.47	33787.97
515.64	34164.80
515.81	33488.38
515.99	33589.03
516.16	33785.63
516.33	33275.40
516.51	33823.08
516.68	32905.59
516.85	33237.95
517.03	33617.11
517.20	33783.29
517.37	34206.93
517.54	33968.19
517.72	34314.59
517.89	33972.88
518.06	33982.24
518.24	33560.94
518.41	34361.40
518.58	34335.66
518.75	34539.29
518.93	34705.46
519.10	34567.37
519.27	35119.74
519.45	34841.21
519.62	35124.42
519.79	35063.57
519.96	35679.13
520.14	35489.54
520.31	35297.62
520.48	35044.84
520.65	35171.23
520.83	35501.25
521.00	35718.92
521.17	35732.96
521.34	36046.59
521.52	36060.63
521.69	36091.06
521.86	36109.78
522.03	36252.56
522.20	36215.11
522.38	36493.63
522.55	36067.66
522.72	36273.62
522.89	36156.60
523.07	36465.55
523.24	36404.69
523.41	36605.98
523.58	36676.19
523.75	37425.17
523.92	37069.40
524.10	37219.20
524.27	36952.38
524.44	37097.49
524.61	37221.54
524.78	37553.90
524.96	37088.13
525.13	37479.00
525.30	37844.12
525.47	38087.54
525.64	37570.28
525.81	37289.42
525.98	37469.64
526.16	37148.98
526.33	37427.51
526.50	37439.21
526.67	36818.97
526.84	37195.79
527.01	37153.66
527.18	37860.51
527.36	38059.45
527.53	37762.20
527.70	37998.60
527.87	38188.18
528.04	37942.42
528.21	37886.25
528.38	38195.20
528.55	38457.34
528.72	38845.87
528.89	38719.48
529.07	38625.86
529.24	38667.99
529.41	39051.84
529.58	38333.29
529.75	38539.26
529.92	38714.80
530.09	39051.84
530.26	38993.32
530.43	38925.45
530.60	39292.91
530.77	38995.67
530.94	39578.46
531.11	39227.38
531.28	39070.56
531.46	39407.60
531.63	39864.00
531.80	39194.61
531.97	39182.91
532.14	39166.52
532.31	38981.62
532.48	39461.43
532.65	39412.28
532.82	39175.89
532.99	39564.42
533.16	39695.49
533.33	39559.73
533.50	39810.17
533.67	40194.02
533.84	39831.24
534.01	39995.07
534.18	40112.10
534.35	40137.85
534.52	40109.76
534.69	40226.79
534.86	40374.24
535.03	40697.24
535.20	40786.18
535.37	41102.15
535.54	40807.24
535.71	40800.22
535.88	41057.68
536.05	40444.46
536.22	40659.79
536.38	40514.67
536.55	40357.86
536.72	40767.45
536.89	40144.87
537.06	40446.80
537.23	41060.02
537.40	40825.96
537.57	40889.16
537.74	40673.83
537.91	41565.57
538.08	41560.89
538.25	40896.18
538.42	41184.07
538.59	41340.88
538.75	40638.72
538.92	41228.54
539.09	41017.89
539.26	41469.61
539.43	41076.40
539.60	41130.23
539.77	41022.57
539.94	41514.08
540.11	41041.29
540.28	41659.20
540.44	41572.60
540.61	41230.88
540.78	40933.63
540.95	41228.54
541.12	41368.97
541.29	41546.85
541.46	41432.16
541.62	41790.27
541.79	41977.51
541.96	41331.52
542.13	41633.45
542.30	41813.67
542.47	41663.88
542.63	41792.61
542.80	42174.11
542.97	42021.98
543.14	42822.44
543.31	42529.87
543.48	42557.96
543.64	43262.46
543.81	43110.33
543.98	42656.26
544.15	42852.87
544.32	42628.18
544.48	43072.88
544.65	42792.01
544.82	43194.59
544.99	42674.99
545.16	43082.24
545.32	42808.40
545.49	42841.17
545.66	43096.28
545.83	42976.92
546.00	43217.99
546.16	43297.57
546.33	43152.46
546.50	42518.17
546.67	43159.48
546.83	42887.98
547.00	42883.30
547.17	42848.19
547.34	42738.18
547.50	43129.05
547.67	43349.06
547.84	43351.40
548.00	43957.60
548.17	43758.66
548.34	44072.29
548.51	43845.26
548.67	43835.89
548.84	43751.63
549.01	43356.08
549.18	43730.57
549.34	43606.52
549.51	43433.32
549.68	43707.16
549.84	43826.53
550.01	43945.90
550.18	43737.59
550.34	43625.25
550.51	44172.93
550.68	43714.19
550.84	43297.57
551.01	44086.33
551.18	43491.83
551.34	44032.50
551.51	44538.05
551.68	44577.84
551.84	44289.96
552.01	44212.72
552.18	44224.42
552.34	43845.26
552.51	43791.42
552.68	43899.09
552.84	44210.38
553.01	44652.74
553.18	44002.07
553.34	44348.47
553.51	44039.52
553.67	44467.84
553.84	44966.37
554.01	44603.59
554.17	44339.11
554.34	44753.38
554.51	44720.62
554.67	44664.44
554.84	44481.88
555.00	44779.13
555.17	44474.86
555.33	44699.55
555.50	44751.04
555.67	44521.67
555.83	44741.68
556.00	44411.67
556.16	45041.27
556.33	44875.09
556.50	44769.77
556.66	44839.98
556.83	44474.86
556.99	45059.99
557.16	45085.74
557.32	44994.46
557.49	45036.59
557.65	44830.62
557.82	44994.46
557.98	45270.64
558.15	45296.39
558.32	45193.40
558.48	44870.41
558.65	44968.71
558.81	45064.67
558.98	44748.70
559.14	45081.06
559.31	45090.42
559.47	45179.36
559.64	44952.33
559.80	45151.27
559.97	45254.26
560.13	44828.28
560.30	45223.83
560.46	45045.95
560.63	45563.21
560.79	45663.85
560.96	45406.39
561.12	45015.52
561.29	44907.86
561.45	45308.09
561.61	45528.10
561.78	45310.43
561.94	44989.78
562.11	45261.28
562.27	44711.25
562.44	45624.06
562.60	45633.42
562.77	45930.67
562.93	45340.86
563.10	45570.23
563.26	45598.32
563.42	45593.64
563.59	45659.17
563.75	45509.38
563.92	45977.48
564.08	45509.38
564.24	45404.05
564.41	45324.47
564.57	45572.57
564.74	45441.50
564.90	45453.20
565.07	45645.13
565.23	45570.23
565.39	45607.68
565.56	45551.51
565.72	45067.02
565.88	45387.67
566.05	44959.35
566.21	45375.97
566.38	45490.65
566.54	45525.76
566.70	46082.81
566.87	45834.71
567.03	45766.84
567.19	46014.93
567.36	45794.92
567.52	45984.51
567.68	45904.93
567.85	45684.92
568.01	45649.81
568.17	45731.73
568.34	45881.52
568.50	45830.03
568.66	45776.20
568.83	45855.78
568.99	45696.62
569.15	46033.66
569.32	45652.15
569.48	45443.84
569.64	45951.74
569.81	45797.26
569.97	45551.51
570.13	45134.89
570.30	45567.89
570.46	45272.98
570.62	45205.11
570.78	45673.21
570.95	45432.14
571.11	45743.43
571.27	45216.81
571.43	45860.46
571.60	45574.91
571.76	45687.26
571.92	45689.60
572.09	45801.94
572.25	45886.20
572.41	45830.03
572.57	46335.59
572.74	46223.24
572.90	46244.30
573.06	46127.28
573.22	45689.60
573.38	46061.74
573.55	45661.51
573.71	46204.52
573.87	46328.56
574.03	45799.60
574.20	45879.18
574.36	46213.88
574.52	46138.98
574.68	45806.62
574.84	46103.87
575.01	45387.67
575.17	45771.52
575.33	45570.23
575.49	45722.37
575.65	45923.65
575.82	45893.22
575.98	45628.74
576.14	45968.12
576.30	46424.53
576.46	46447.93
576.62	46218.56
576.79	45933.01
576.95	45584.27
577.11	46043.02
577.27	45883.86
577.43	45904.93
577.59	45427.46
577.75	45975.14
577.92	45443.84
578.08	45528.10
578.24	45883.86
578.40	45923.65
578.56	45628.74
578.72	46176.43
578.88	46122.60
579.04	46667.94
579.21	45965.78
579.37	46050.04
579.53	45766.84
579.69	45734.07
579.85	46087.49
580.01	45940.04
580.17	45785.56
580.33	45839.39
580.49	45984.51
580.65	45907.27
580.82	46075.79
580.98	46209.20
581.14	45366.60
581.30	46190.47
581.46	45907.27
581.62	46176.43
581.78	46230.26
581.94	46342.61
582.10	46038.34
582.26	46522.83
582.42	46256.01
582.58	46525.17
582.74	45738.75
582.90	46363.67
583.06	46375.37
583.22	46160.05
583.38	46581.34
583.54	46295.80
583.70	46209.20
583.86	46368.35
584.02	45958.76
584.18	46028.98
584.34	46178.77
584.50	46223.24
584.66	45832.37
584.82	46181.11
584.98	46445.59
585.14	45937.69
585.30	46199.83
585.46	45790.24
585.62	45677.90
585.78	46087.49
585.94	45944.72
586.10	46014.93
586.26	45801.94
586.42	46138.98
586.58	45703.64
586.74	46373.03
586.90	46220.90
587.06	46340.27
587.22	46382.40
587.38	46190.47
587.54	46150.68
587.70	46234.94
587.86	46131.96
588.02	45911.95
588.18	46138.98
588.34	45764.49
588.49	45661.51
588.65	45584.27
588.81	45729.39
588.97	45633.42
589.13	45420.44
589.29	45897.91
589.45	46148.34
589.61	45820.67
589.77	46525.17
589.93	46410.48
590.08	46167.07
