SpectraSuite Data File
++++++++++++++++++++++++++++++++++++
Date: Fri Oct 25 11:23:31 EDT 2013
User: price-jones
Dark Spectrum Present: No
Reference Spectrum Present: No
Number of Sampled Component Spectra: 1
Spectrometers: USB2+H05261
Integration Time (usec): 100000 (USB2+H05261)
Spectra Averaged: 1 (USB2+H05261)
Boxcar Smoothing: 0 (USB2+H05261)
Correct for Electrical Dark: No (USB2+H05261)
Strobe/Lamp Enabled: No (USB2+H05261)
Correct for Detector Non-linearity: No (USB2+H05261)
Correct for Stray Light: No (USB2+H05261)
Number of Pixels in Processed Spectrum: 2048
>>>>>Begin Processed Spectral Data<<<<<
365.73	222.35
365.92	222.35
366.12	222.35
366.32	86.60
366.52	110.01
366.72	93.62
366.91	91.28
367.11	112.35
367.31	140.43
367.51	70.22
367.70	58.51
367.90	194.26
368.10	112.35
368.30	114.69
368.49	138.09
368.69	168.52
368.89	194.26
369.09	159.16
369.28	149.79
369.48	168.52
369.68	173.20
369.87	196.60
370.07	198.95
370.27	205.97
370.47	243.42
370.66	514.92
370.86	648.33
371.06	683.44
371.25	669.39
371.45	662.37
371.65	657.69
371.84	739.61
372.04	697.48
372.24	732.59
372.44	758.33
372.63	699.82
372.83	767.70
373.03	732.59
373.22	725.57
373.42	781.74
373.62	781.74
373.81	791.10
374.01	854.30
374.21	786.42
374.40	835.57
374.60	826.21
374.79	786.42
374.99	851.96
375.19	819.19
375.38	903.45
375.58	779.40
375.78	903.45
375.97	849.61
376.17	994.73
376.37	861.32
376.56	861.32
376.76	896.43
376.95	877.70
377.15	943.24
377.35	926.85
377.54	861.32
377.74	842.59
377.93	915.15
378.13	875.36
378.33	954.94
378.52	901.11
378.72	940.90
378.91	1020.47
379.11	990.05
379.31	964.30
379.50	966.64
379.70	1022.81
379.89	980.68
380.09	929.19
380.28	950.26
380.48	933.87
380.68	1013.45
380.87	908.13
381.07	896.43
381.26	1053.24
381.46	938.55
381.65	1039.20
381.85	1086.01
382.04	978.34
382.24	1053.24
382.43	1081.33
382.63	1062.60
382.83	1032.18
383.02	1071.97
383.22	1071.97
383.41	1090.69
383.61	1055.58
383.80	1062.60
384.00	1121.12
384.19	1132.82
384.39	1198.35
384.58	1090.69
384.78	1207.72
384.97	1156.22
385.17	1050.90
385.36	1188.99
385.56	1151.54
385.75	1149.20
385.95	1224.10
386.14	1153.88
386.34	1160.91
386.53	1163.25
386.72	1245.16
386.92	1291.98
387.11	1245.16
387.31	1266.23
387.50	1284.95
387.70	1228.78
387.89	1280.27
388.09	1261.55
388.28	1280.27
388.48	1343.47
388.67	1345.81
388.86	1275.59
389.06	1275.59
389.25	1317.72
389.45	1308.36
389.64	1315.38
389.84	1371.55
390.03	1369.21
390.22	1427.73
390.42	1430.07
390.61	1378.58
390.81	1394.96
391.00	1448.79
391.19	1392.62
391.39	1399.64
391.58	1502.62
391.78	1458.15
391.97	1411.34
392.16	1441.77
392.36	1561.14
392.55	1577.52
392.75	1490.92
392.94	1554.12
393.13	1535.39
393.33	1540.07
393.52	1542.41
393.71	1640.72
393.91	1511.99
394.10	1591.56
394.29	1589.22
394.49	1614.97
394.68	1563.48
394.88	1678.16
395.07	1626.67
395.26	1647.74
395.46	1675.82
395.65	1664.12
395.84	1732.00
396.04	1732.00
396.23	1689.87
396.42	1703.91
396.62	1837.32
396.81	1746.04
397.00	1703.91
397.19	1825.62
397.39	1743.70
397.58	1710.93
397.77	1809.23
397.97	1853.70
398.16	1895.83
398.35	1893.49
398.55	1776.47
398.74	1968.39
398.93	1987.11
399.12	1884.13
399.32	1827.96
399.51	1944.99
399.70	2026.90
399.90	1947.33
400.09	1989.46
400.28	2092.44
400.47	2162.66
400.67	2050.31
400.86	2115.84
401.05	1961.37
401.24	2115.84
401.44	1961.37
401.63	2054.99
401.82	2090.10
402.01	2015.20
402.21	2127.55
402.40	2143.93
402.59	2263.30
402.78	2235.21
402.97	2305.43
403.17	2296.07
403.36	2249.25
403.55	2298.41
403.74	2399.05
403.93	2396.71
404.13	2377.98
404.32	2291.38
404.51	2317.13
404.70	2389.69
404.89	2380.32
405.09	2459.90
405.28	2544.16
405.47	2523.10
405.66	2450.54
405.85	2530.12
406.05	2600.34
406.24	2525.44
406.43	2504.37
406.62	2698.64
406.81	2740.77
407.00	2469.27
407.20	2539.48
407.39	2574.59
407.58	2642.46
407.77	2796.94
407.96	2825.03
408.15	2822.69
408.34	2661.19
408.54	2745.45
408.73	2813.32
408.92	2780.56
409.11	2916.31
409.30	2960.78
409.49	2965.46
409.68	3056.74
409.87	2850.77
410.07	3014.61
410.26	2965.46
410.45	3007.59
410.64	3131.64
410.83	3075.46
411.02	3115.25
411.21	3112.91
411.40	3152.70
411.59	3108.23
411.78	3077.80
411.98	3178.45
412.17	3293.13
412.36	3358.67
412.55	3375.05
412.74	3475.70
412.93	3513.14
413.12	3541.23
413.31	3655.92
413.50	3548.25
413.69	3534.21
413.88	3595.06
414.07	3541.23
414.26	3569.32
414.45	3672.30
414.64	3658.26
414.83	3817.41
415.02	3854.86
415.22	3843.16
415.41	3971.89
415.60	3817.41
415.79	3859.54
415.98	3943.80
416.17	3990.61
416.36	4011.68
416.55	3887.63
416.74	4042.11
416.93	4049.13
417.12	4058.49
417.31	4175.52
417.50	4201.26
417.69	4219.99
417.88	4308.93
418.07	4170.83
418.26	4227.01
418.45	4362.76
418.64	4409.57
418.83	4355.74
419.02	4383.82
419.21	4554.68
419.39	4442.34
419.58	4587.45
419.77	4580.43
419.96	4594.47
420.15	4620.22
420.34	4533.62
420.53	4484.47
420.72	4678.73
420.91	4662.35
421.10	4746.61
421.29	4770.01
421.48	4723.20
421.67	4692.77
421.86	4788.74
422.05	4851.93
422.24	4875.34
422.43	4973.64
422.61	4940.87
422.80	4851.93
422.99	5062.58
423.18	4814.48
423.37	4999.38
423.56	5083.64
423.75	4975.98
423.94	4936.19
424.13	4713.84
424.32	4683.41
424.50	4973.64
424.69	4978.32
424.88	5114.07
425.07	4968.96
425.26	5018.11
425.45	4947.89
425.64	5132.79
425.83	5097.69
426.01	5048.54
426.20	4903.42
426.39	5022.79
426.58	5085.98
426.77	5015.77
426.96	5057.90
427.15	5090.67
427.33	5240.46
427.52	5324.72
427.71	5348.12
427.90	5305.99
428.09	5465.15
428.28	5284.93
428.46	5535.37
428.65	5348.12
428.84	5305.99
429.03	5502.60
429.22	5245.14
429.40	5526.00
429.59	5575.16
429.78	5205.35
429.97	5188.97
430.16	5493.24
430.34	5682.82
430.53	5692.18
430.72	5626.65
430.91	5675.80
431.10	5696.86
431.28	5809.21
431.47	5701.54
431.66	5909.85
431.85	5774.10
432.03	5947.30
432.22	6008.16
432.41	5961.34
432.60	5909.85
432.79	5877.09
432.97	6043.26
433.16	5994.11
433.35	5891.13
433.54	6069.01
433.72	6129.86
433.91	6087.73
434.10	6155.61
434.28	6167.31
434.47	6263.27
434.66	6146.25
434.85	6242.21
435.03	6420.09
435.22	6160.29
435.41	6480.94
435.59	6450.52
435.78	6485.62
435.97	6581.59
436.16	6480.94
436.34	6450.52
436.53	6478.60
436.72	6888.20
436.90	6525.41
437.09	6637.76
437.28	6445.84
437.46	6626.06
437.65	6768.83
437.84	6745.42
438.02	6775.85
438.21	6705.63
438.40	6637.76
438.58	6906.92
438.77	7157.36
438.96	6920.96
439.14	7155.02
439.33	7098.84
439.52	7133.95
439.70	7260.34
439.89	7396.09
440.08	7449.93
440.26	7435.88
440.45	7396.09
440.63	7548.23
440.82	7660.57
441.01	7508.44
441.19	7604.40
441.38	7709.72
441.57	7779.94
441.75	7819.73
441.94	8011.65
442.12	8002.29
442.31	8009.31
442.50	8124.00
442.68	7943.78
442.87	7925.05
443.05	8102.93
443.24	8386.14
443.43	8177.83
443.61	8262.09
443.80	8416.57
443.98	8175.49
444.17	7730.79
444.35	8297.20
444.54	8566.36
444.73	8306.56
444.91	8351.03
445.10	8093.57
445.28	8252.73
445.47	8355.71
445.65	8510.19
445.84	8580.40
446.02	8498.49
446.21	8322.94
446.39	8428.27
446.58	8430.61
446.77	8540.61
446.95	8243.37
447.14	8411.89
447.32	8601.47
447.51	8339.33
447.69	8652.96
447.88	8397.84
448.06	8507.85
448.25	8678.71
448.43	8716.16
448.62	8538.27
448.80	8737.22
448.99	8800.41
449.17	8765.31
449.36	8716.16
449.54	8908.08
449.73	8819.14
449.91	9006.38
450.10	8837.86
450.28	8999.36
450.46	9121.07
450.65	9071.92
450.83	9020.42
451.02	9060.21
451.20	9240.44
451.39	9137.45
451.57	9205.33
451.76	9226.39
451.94	9055.53
452.13	9331.72
452.31	9511.94
452.49	9210.01
452.68	9217.03
452.86	9231.07
453.05	9521.30
453.23	9507.26
453.42	9427.68
453.60	9418.32
453.78	9610.24
453.97	9418.32
454.15	9612.58
454.34	9303.63
454.52	9614.92
454.70	9603.22
454.89	9797.48
455.07	9914.51
455.26	9865.36
455.44	9776.42
455.62	9914.51
455.81	9865.36
455.99	10031.54
456.17	10078.35
456.36	9944.94
456.54	10076.01
456.73	10001.11
456.91	10516.03
457.09	10553.48
457.28	10792.21
457.46	10471.56
457.64	10506.66
457.83	10527.73
458.01	10450.49
458.19	10768.80
458.38	10546.45
458.56	10848.38
458.74	10689.23
458.93	10719.65
459.11	10665.82
459.29	10801.57
459.48	10789.87
459.66	10796.89
459.84	10984.13
460.03	10890.51
460.21	10883.49
460.39	11110.52
460.57	10836.68
460.76	11073.07
460.94	11297.77
461.12	10939.66
461.31	11108.18
461.49	11140.95
461.67	11293.08
461.85	11576.29
462.04	11257.98
462.22	12081.85
462.40	11899.28
462.59	11468.62
462.77	11286.06
462.95	11836.09
463.13	11555.22
463.32	11627.78
463.50	11751.83
463.68	11976.52
463.86	11833.75
464.05	11716.72
464.23	11852.47
464.41	11983.54
464.59	11618.42
464.78	12149.72
464.96	12156.74
465.14	11894.60
465.32	12070.14
465.50	12142.70
465.69	12020.99
465.87	12304.20
466.05	12273.77
466.23	12341.64
466.41	12390.80
466.60	12327.60
466.78	12486.76
466.96	12135.68
467.14	12463.35
467.32	12580.38
467.51	12720.81
467.69	12269.09
467.87	12688.04
468.05	12643.57
468.23	12468.03
468.41	12416.54
468.60	12870.61
468.78	12732.51
468.96	12685.70
469.14	12870.61
469.32	13153.81
469.50	12669.32
469.69	13008.70
469.87	13355.10
470.05	12912.74
470.23	13160.83
470.41	13209.98
470.59	13137.43
470.77	13214.66
470.95	13500.21
471.14	13750.65
471.32	13118.70
471.50	13710.86
471.68	13703.84
471.86	13621.92
472.04	13994.06
472.22	14022.15
472.40	13474.46
472.58	13874.70
472.77	14139.18
472.95	14197.69
473.13	14733.67
473.31	14181.31
473.49	14115.77
473.67	14359.19
473.85	14368.55
474.03	14867.08
474.21	14445.79
474.39	14801.55
474.57	14656.43
474.75	15063.69
474.93	14878.79
475.12	15140.93
475.30	15433.49
475.48	15290.72
475.66	15370.30
475.84	15222.84
476.02	15260.29
476.20	15587.97
476.38	15829.04
476.56	15817.34
476.74	16081.82
476.92	15779.89
477.10	15679.25
477.28	16063.10
477.46	16067.78
477.64	16411.84
477.82	16468.01
478.00	17186.55
478.18	17092.93
478.36	16982.93
478.54	17188.89
478.72	17296.56
478.90	17453.37
479.08	17778.71
479.26	17811.48
479.44	17699.13
479.62	17965.95
479.80	18104.04
479.98	18436.40
480.16	18625.98
480.34	18345.12
480.52	18663.43
480.70	18808.54
480.88	18403.63
481.06	18768.76
481.24	18932.59
481.41	19229.84
481.59	19407.72
481.77	19604.33
481.95	19548.15
482.13	19707.31
482.31	19454.53
482.49	20526.50
482.67	20327.55
482.85	20884.60
483.03	20720.76
483.21	20676.29
483.39	21069.50
483.57	21116.31
483.74	21233.34
483.92	21511.86
484.10	21280.15
484.28	21715.49
484.46	22094.66
484.64	22506.59
484.82	21891.03
485.00	22314.67
485.18	22848.31
485.35	23534.09
485.53	22930.23
485.71	22801.50
485.89	23828.99
486.07	23550.47
486.25	23655.79
486.43	23440.47
486.61	23814.95
486.78	24198.80
486.96	24409.45
487.14	24917.34
487.32	24910.32
487.50	25064.80
487.68	25200.55
487.85	25287.15
488.03	25652.27
488.21	25582.06
488.39	26122.72
488.57	26307.62
488.75	26562.74
488.92	26321.66
489.10	26771.05
489.28	26675.09
489.46	27164.26
489.64	27124.47
489.81	27936.63
489.99	27889.82
490.17	27950.68
490.35	28226.86
490.53	28294.74
490.70	28716.03
490.88	28381.34
491.06	28858.81
491.24	29151.37
491.41	29027.32
491.59	29373.72
491.77	29532.88
491.95	29673.31
492.13	29780.98
492.30	29951.84
492.48	30806.13
492.66	30471.43
492.84	30153.12
493.01	30951.24
493.19	30745.28
493.37	31033.16
493.54	31297.64
493.72	31644.04
493.90	31672.13
494.08	31777.45
494.25	32149.60
494.43	31974.06
494.61	32334.50
494.79	32734.73
494.96	32662.18
495.14	33242.63
495.32	33273.06
495.49	33448.60
495.67	33881.60
495.85	33933.09
496.02	34195.23
496.20	33998.62
496.38	34209.27
496.55	34691.42
496.73	34759.30
496.91	34710.14
497.09	35002.71
497.26	35208.68
497.44	34878.66
497.62	35611.25
497.79	36081.70
497.97	35910.84
498.14	36088.72
498.32	36154.26
498.50	36236.17
498.67	36907.91
498.85	36587.25
499.03	37041.32
499.20	36669.17
499.38	37109.19
499.56	37151.32
499.73	37177.07
499.91	37448.57
500.08	37329.20
500.26	37617.09
500.44	38075.84
500.61	38646.93
500.79	38148.39
500.97	38415.21
501.14	39049.50
501.32	38845.87
501.49	38864.60
501.67	38864.60
501.84	39147.80
502.02	39159.50
502.20	39082.27
502.37	39477.82
502.55	39754.00
502.72	39585.48
502.90	39922.52
503.07	39662.72
503.25	40109.76
503.43	39695.49
503.60	40297.00
503.78	40472.54
503.95	40128.48
504.13	40758.09
504.30	40933.63
504.48	40662.13
504.65	40643.40
504.83	41359.61
505.01	41581.96
505.18	41460.25
505.36	41645.15
505.53	41521.10
505.71	41958.78
505.88	42078.15
506.06	41769.20
506.23	42316.89
506.41	41986.87
506.58	42628.18
506.76	42733.50
506.93	42557.96
507.11	42389.44
507.28	42887.98
507.46	42796.70
507.63	43105.65
507.81	43725.89
507.98	42555.62
508.16	43117.35
508.33	43185.22
508.50	43814.83
508.68	43660.35
508.85	44142.50
509.03	43711.84
509.20	43744.61
509.38	44605.93
509.55	44612.95
509.73	44683.17
509.90	44744.02
510.08	44924.24
510.25	45123.19
510.42	45272.98
510.60	45441.50
510.77	45181.70
510.95	45481.29
511.12	45415.76
511.30	45464.91
511.47	45839.39
511.64	45612.36
511.82	46174.09
511.99	45844.07
512.17	45855.78
512.34	46539.21
512.51	46368.35
512.69	46583.68
512.86	46267.71
513.04	46897.31
513.21	46777.95
513.38	46923.06
513.56	46789.65
513.73	46791.99
513.90	47526.92
514.08	46843.48
514.25	47468.40
514.43	47913.11
514.60	47421.59
514.77	47716.50
514.95	47782.04
515.12	48004.39
515.29	47543.30
515.47	48175.25
515.64	48196.31
515.81	48172.91
515.99	48545.05
516.16	48392.92
516.33	48577.82
516.51	48999.12
516.68	48966.35
516.85	48851.66
517.03	49397.01
517.20	49165.29
517.37	49090.40
517.54	49111.46
517.72	49258.91
517.89	49034.22
518.06	49282.32
518.24	49574.89
518.41	49240.19
518.58	49495.31
518.75	49481.27
518.93	49790.22
519.10	49668.51
519.27	50174.06
519.45	50061.72
519.62	50064.06
519.79	50167.04
519.96	50122.57
520.14	50202.15
520.31	50272.37
520.48	50361.31
520.65	50131.93
520.83	50955.80
521.00	50894.95
521.17	50688.98
521.34	51140.71
521.52	51016.66
521.69	50649.19
521.86	51412.21
522.03	51725.84
522.20	51533.92
522.38	51676.69
522.55	51505.83
522.72	51674.35
522.89	51437.95
523.07	51704.77
523.24	51374.76
523.41	51997.34
523.58	51318.59
523.75	51915.42
523.92	52053.51
524.10	52168.20
524.27	52020.75
524.44	52058.20
524.61	52130.75
524.78	52381.19
524.96	52308.63
525.13	52374.17
525.30	52406.94
525.47	52484.17
525.64	52514.60
525.81	52889.09
525.98	53102.07
526.16	52722.91
526.33	52926.53
526.50	53286.98
526.67	52971.00
526.84	53132.50
527.01	53265.91
527.18	53090.37
527.36	52853.98
527.53	53294.00
527.70	53413.37
527.87	53457.84
528.04	53373.58
528.21	53497.62
528.38	53832.32
528.55	53420.39
528.72	53308.04
528.89	53464.86
529.07	53633.38
529.24	53666.14
529.41	53897.86
529.58	53619.33
529.75	53581.88
529.92	53982.12
530.09	53734.02
530.26	54213.83
530.43	54199.79
530.60	53925.94
530.77	54101.48
530.94	54464.27
531.11	54181.06
531.28	54319.15
531.46	54370.64
531.63	54457.24
531.80	54417.46
531.97	54719.38
532.14	54609.38
532.31	54695.98
532.48	54901.95
532.65	54621.08
532.82	55002.59
532.99	54738.11
533.16	55100.89
533.33	54979.18
533.50	55269.41
533.67	55103.23
533.84	54962.80
534.01	55021.31
534.18	55096.21
534.35	55407.50
534.52	55260.05
534.69	55201.53
534.86	55494.10
535.03	55054.08
535.20	55421.55
535.37	55217.92
535.54	55358.35
535.71	55543.25
535.88	55629.85
536.05	55732.84
536.22	55667.30
536.38	55604.11
536.55	55667.30
536.72	55749.22
536.89	55826.46
537.06	55789.01
537.23	55800.71
537.40	55760.92
537.57	55739.86
537.74	55758.58
537.91	55786.67
538.08	56217.33
538.25	55737.52
538.42	56112.00
538.59	56353.08
538.75	56025.40
538.92	56016.04
539.09	56425.64
539.26	56289.88
539.43	56177.54
539.60	56449.04
539.77	56233.71
539.94	56617.56
540.11	56647.99
540.28	56615.22
540.44	56439.68
540.61	56739.27
540.78	56465.42
540.95	56521.60
541.12	56521.60
541.29	56828.21
541.46	56814.16
541.62	56837.57
541.79	56781.40
541.96	56547.34
542.13	56823.53
542.30	56807.14
542.47	56828.21
542.63	57050.56
542.80	57073.96
542.97	57380.57
543.14	57418.02
543.31	57354.83
543.48	57326.74
543.64	57539.73
543.81	57502.28
543.98	57385.25
544.15	57485.90
544.32	57549.09
544.48	57670.80
544.65	57556.11
544.82	57293.97
544.99	57464.83
545.16	57530.37
545.32	57738.68
545.49	57832.30
545.66	57815.91
545.83	57748.04
546.00	57946.98
546.16	57757.40
546.33	57876.77
546.50	57542.07
546.67	57794.85
546.83	57668.46
547.00	57822.93
547.17	57881.45
547.34	58143.59
547.50	58094.44
547.67	58115.50
547.84	57900.17
548.00	58131.89
548.17	58302.74
548.34	58466.58
548.51	58337.85
548.67	58326.15
548.84	58300.40
549.01	58234.87
549.18	58321.47
549.34	58475.94
549.51	58578.93
549.68	58424.45
549.84	58485.31
550.01	58571.91
550.18	58440.84
550.34	58578.93
550.51	58714.68
550.68	58642.12
550.84	58480.63
551.01	58660.85
551.18	58665.53
551.34	58571.91
551.51	58515.73
551.68	58810.64
551.84	58653.82
552.01	58721.70
552.18	58717.02
552.34	58656.17
552.51	58824.68
552.68	58482.97
552.84	58808.30
553.01	59068.10
553.18	58759.15
553.34	59042.35
553.51	59133.63
553.67	58960.44
553.84	59224.92
554.01	59011.93
554.17	59119.59
554.34	59128.95
554.51	59131.29
554.67	59173.42
554.84	58876.18
555.00	59065.76
555.17	58822.34
555.33	59224.92
555.50	59234.28
555.67	59028.31
555.83	59220.23
556.00	59166.40
556.16	59489.40
556.33	59529.19
556.50	59327.90
556.66	59641.53
556.83	59463.65
556.99	59503.44
557.16	59611.10
557.32	59554.93
557.49	59674.30
557.65	59428.54
557.82	59536.21
557.98	59678.98
558.15	59489.40
558.32	59554.93
558.48	59405.14
558.65	59730.47
558.81	59515.14
558.98	59774.94
559.14	59917.71
559.31	59739.83
559.47	59732.81
559.64	59798.35
559.80	59765.58
559.97	59788.98
560.13	59779.62
560.30	59917.71
560.46	59812.39
560.63	59870.90
560.79	60023.04
560.96	60184.54
561.12	59959.84
561.29	60009.00
561.45	59894.31
561.61	59880.27
561.78	59952.82
561.94	59962.18
562.11	59945.80
562.27	59887.29
562.44	60184.54
562.60	60034.74
562.77	60030.06
562.93	60001.97
563.10	60252.41
563.26	59978.57
563.42	60381.14
563.59	60090.91
563.75	60060.49
563.92	60046.44
564.08	59870.90
564.24	60285.18
564.41	60186.88
564.57	60268.79
564.74	60114.32
564.90	60275.82
565.07	60245.39
565.23	60472.42
565.39	60299.22
565.56	60346.03
565.72	60392.84
565.88	60467.74
566.05	60383.48
566.21	60254.75
566.38	60385.82
566.54	60172.83
566.70	60430.29
566.87	60353.05
567.03	60210.28
567.19	60542.64
567.36	60507.53
567.52	60385.82
567.68	60683.07
567.85	60491.15
568.01	60509.87
568.17	60264.11
568.34	60664.35
568.50	60420.93
568.66	60458.38
568.83	60589.45
568.99	60441.99
569.15	60582.43
569.32	60559.02
569.48	60383.48
569.64	60725.20
569.81	60629.24
569.97	60488.80
570.13	60430.29
570.30	60584.77
570.46	60645.62
570.62	60619.88
570.78	60561.36
570.95	60697.11
571.11	60748.60
571.27	60598.81
571.43	60580.09
571.60	60617.53
571.76	60757.97
571.92	60727.54
572.09	60708.82
572.25	60706.47
572.41	60874.99
572.57	60823.50
572.74	60736.90
572.90	60851.59
573.06	60874.99
573.22	60673.71
573.38	60662.00
573.55	60636.26
573.71	60956.91
573.87	60659.66
574.03	60547.32
574.20	60809.46
574.36	60626.90
574.52	60954.57
574.68	60767.33
574.84	60970.96
575.01	60835.20
575.17	60816.48
575.33	60662.00
575.49	60748.60
575.65	60800.10
575.82	61062.24
575.98	60844.57
576.14	60931.17
576.30	61015.43
576.46	60867.97
576.62	60760.31
576.79	60947.55
576.95	60790.73
577.11	60891.38
577.27	61045.85
577.43	60839.89
577.59	60842.23
577.75	60945.21
577.92	60788.39
578.08	60992.02
578.24	60977.98
578.40	60987.34
578.56	61221.39
578.72	60874.99
578.88	60985.00
579.04	61087.98
579.21	60926.49
579.37	61010.74
579.53	60996.70
579.69	60977.98
579.85	60942.87
580.01	60996.70
580.17	60975.64
580.33	60846.91
580.49	60844.57
580.65	60938.19
580.82	61036.49
580.98	60743.92
581.14	60889.04
581.30	61008.40
581.46	60837.54
581.62	60938.19
581.78	60945.21
581.94	61099.68
582.10	61137.13
582.26	60961.59
582.42	61190.97
582.58	61034.15
582.74	60912.44
582.90	61057.56
583.06	61111.39
583.22	60849.25
583.38	60961.59
583.54	61134.79
583.70	61176.92
583.86	61029.47
584.02	60982.66
584.18	61193.31
584.34	61116.07
584.50	61027.13
584.66	60987.34
584.82	61027.13
584.98	61272.88
585.14	61083.30
585.30	61003.72
585.46	61270.54
585.62	61118.41
585.78	61387.57
585.94	60980.32
586.10	60942.87
586.26	61097.34
586.42	60987.34
586.58	61099.68
586.74	61155.86
586.90	61010.74
587.06	60970.96
587.22	61350.12
587.38	61181.60
587.54	61432.04
587.70	61368.85
587.86	61254.16
588.02	61359.48
588.18	61233.10
588.34	61050.53
588.49	61015.43
