SpectraSuite Data File
++++++++++++++++++++++++++++++++++++
Date: Fri Oct 25 10:43:32 EDT 2013
User: price-jones
Dark Spectrum Present: No
Reference Spectrum Present: No
Number of Sampled Component Spectra: 1
Spectrometers: USB2+H05261
Integration Time (usec): 100000 (USB2+H05261)
Spectra Averaged: 1 (USB2+H05261)
Boxcar Smoothing: 0 (USB2+H05261)
Correct for Electrical Dark: No (USB2+H05261)
Strobe/Lamp Enabled: No (USB2+H05261)
Correct for Detector Non-linearity: No (USB2+H05261)
Correct for Stray Light: No (USB2+H05261)
Number of Pixels in Processed Spectrum: 2048
>>>>>Begin Processed Spectral Data<<<<<
365.73	201.29
365.92	201.29
366.12	201.29
366.32	42.13
366.52	0.00
366.72	44.47
366.91	86.60
367.11	0.00
367.31	65.54
367.51	0.00
367.70	74.90
367.90	70.22
368.10	67.88
368.30	105.32
368.49	0.00
368.69	16.38
368.89	7.02
369.09	23.41
369.28	79.58
369.48	35.11
369.68	46.81
369.87	37.45
370.07	140.43
370.27	170.86
370.47	138.09
370.66	346.40
370.86	383.85
371.06	484.49
371.25	465.77
371.45	397.89
371.65	475.13
371.84	482.15
372.04	374.49
372.24	503.22
372.44	498.53
372.63	496.19
372.83	468.11
373.03	531.30
373.22	430.66
373.42	533.64
373.62	475.13
373.81	526.62
374.01	535.98
374.21	638.97
374.40	521.94
374.60	582.79
374.79	589.82
374.99	648.33
375.19	528.96
375.38	615.56
375.58	559.39
375.78	613.22
375.97	528.96
376.17	631.94
376.37	566.41
376.56	592.16
376.76	603.86
376.95	662.37
377.15	660.03
377.35	587.47
377.54	615.56
377.74	610.88
377.93	615.56
378.13	638.97
378.33	603.86
378.52	578.11
378.72	643.65
378.91	645.99
379.11	627.26
379.31	667.05
379.50	575.77
379.70	681.10
379.89	692.80
380.09	662.37
380.28	690.46
380.48	669.39
380.68	643.65
380.87	678.76
381.07	699.82
381.26	702.16
381.46	676.41
381.65	720.88
381.85	678.76
382.04	753.65
382.24	655.35
382.43	741.95
382.63	800.46
382.83	699.82
383.02	758.33
383.22	734.93
383.41	753.65
383.61	706.84
383.80	772.38
384.00	772.38
384.19	779.40
384.39	737.27
384.58	772.38
384.78	826.21
384.97	765.36
385.17	840.25
385.36	805.14
385.56	793.44
385.75	866.00
385.95	791.10
386.14	800.46
386.34	772.38
386.53	1008.77
386.72	889.40
386.92	901.11
387.11	891.74
387.31	924.51
387.50	849.61
387.70	873.02
387.89	828.55
388.09	884.72
388.28	854.30
388.48	870.68
388.67	968.98
388.86	957.28
389.06	947.92
389.25	1006.43
389.45	931.53
389.64	924.51
389.84	1086.01
390.03	987.71
390.22	1008.77
390.42	877.70
390.61	1013.45
390.81	1011.11
391.00	1053.24
391.19	1039.20
391.39	999.41
391.58	1041.54
391.78	1060.26
391.97	1109.41
392.16	971.32
392.36	1050.90
392.55	1011.11
392.75	1078.99
392.94	999.41
393.13	1067.28
393.33	929.19
393.52	952.60
393.71	1076.65
393.91	1151.54
394.10	1053.24
394.29	1135.16
394.49	1074.31
394.68	1226.44
394.88	1238.14
395.07	1205.38
395.26	1116.44
395.46	1203.04
395.65	1341.13
395.84	1280.27
396.04	1245.16
396.23	1149.20
396.42	1177.29
396.62	1167.93
396.81	1177.29
397.00	1186.65
397.19	1287.29
397.39	1214.74
397.58	1404.32
397.77	1352.83
397.97	1329.42
398.16	1371.55
398.35	1439.43
398.55	1495.60
398.74	1530.71
398.93	1596.25
399.12	1401.98
399.32	1514.33
399.51	1434.75
399.70	1540.07
399.90	1554.12
400.09	1598.59
400.28	1572.84
400.47	1582.20
400.67	1610.29
400.86	1703.91
401.05	1624.33
401.24	1694.55
401.44	1654.76
401.63	1589.22
401.82	1710.93
402.01	1678.16
402.21	1820.94
402.40	1682.85
402.59	1844.34
402.78	1699.23
402.97	1739.02
403.17	1743.70
403.36	1799.87
403.55	1818.60
403.74	1785.83
403.93	1830.30
404.13	1872.43
404.32	1856.04
404.51	1940.30
404.70	1912.22
404.89	1816.26
405.09	1991.80
405.28	1989.46
405.47	1937.96
405.66	2040.95
405.85	2019.88
406.05	2022.22
406.24	2017.54
406.43	1912.22
406.62	2033.93
406.81	1954.35
407.00	2085.42
407.20	2080.74
407.39	1984.77
407.58	2148.61
407.77	2127.55
407.96	2298.41
408.15	2272.66
408.34	2230.53
408.54	2310.11
408.73	2260.96
408.92	2263.30
409.11	2363.94
409.30	2333.51
409.49	2174.36
409.68	2321.81
409.87	2307.77
410.07	2347.56
410.26	2333.51
410.45	2375.64
410.64	2450.54
410.83	2373.30
411.02	2532.46
411.21	2487.99
411.40	2537.14
411.59	2605.02
411.78	2537.14
411.98	2590.97
412.17	2764.17
412.36	2743.11
412.55	2698.64
412.74	2719.70
412.93	2686.94
413.12	2724.38
413.31	2801.62
413.50	2799.28
413.69	2778.22
413.88	2970.14
414.07	2860.13
414.26	2946.73
414.45	2963.12
414.64	2991.20
414.83	3028.65
415.02	2984.18
415.22	3166.74
415.41	3094.19
415.60	3232.28
415.79	3166.74
415.98	3218.24
416.17	3248.66
416.36	3272.07
416.55	3192.49
416.74	3295.47
416.93	3164.40
417.12	3375.05
417.31	3325.90
417.50	3372.71
417.69	3403.14
417.88	3433.57
418.07	3417.18
418.26	3419.52
418.45	3442.93
418.64	3590.38
418.83	3541.23
419.02	3562.30
419.21	3548.25
419.39	3531.87
419.58	3534.21
419.77	3454.63
419.96	3611.45
420.15	3688.68
420.34	3655.92
420.53	3765.92
420.72	3969.55
420.91	3808.05
421.10	3831.46
421.29	3805.71
421.48	3684.00
421.67	3866.56
421.86	3716.77
422.05	3864.22
422.24	3803.37
422.43	3716.77
422.61	3707.41
422.80	3868.91
422.99	4014.02
423.18	3967.21
423.37	3955.51
423.56	3831.46
423.75	3896.99
423.94	3894.65
424.13	3791.67
424.32	3779.97
424.50	3922.74
424.69	3948.48
424.88	4004.66
425.07	3974.23
425.26	3934.44
425.45	3805.71
425.64	3934.44
425.83	4035.08
426.01	4018.70
426.20	4058.49
426.39	3927.42
426.58	3985.93
426.77	3765.92
426.96	3941.46
427.15	4009.34
427.33	4215.30
427.52	3988.27
427.71	4086.58
427.90	4215.30
428.09	4222.33
428.28	4154.45
428.46	4070.19
428.65	4128.70
428.84	4287.86
429.03	4294.88
429.22	4063.17
429.40	4032.74
429.59	4133.39
429.78	3974.23
429.97	3892.31
430.16	3896.99
430.34	4102.96
430.53	4109.98
430.72	4205.94
430.91	4161.47
431.10	4231.69
431.28	4566.39
431.47	4564.04
431.66	4559.36
431.85	4432.97
432.03	4685.75
432.22	4636.60
432.41	4786.40
432.60	4674.05
432.79	4615.54
432.97	4741.93
433.16	4772.35
433.35	4528.94
433.54	4613.20
433.72	4634.26
433.91	4662.35
434.10	4791.08
434.28	4821.50
434.47	4924.49
434.66	4760.65
434.85	4950.23
435.03	4903.42
435.22	4922.15
435.41	5055.56
435.59	5130.45
435.78	5114.07
435.97	5151.52
436.16	5034.49
436.34	5050.88
436.53	5191.31
436.72	5338.76
436.90	4999.38
437.09	5069.60
437.28	5174.92
437.46	5214.71
437.65	5132.79
437.84	5109.39
438.02	5125.77
438.21	5158.54
438.40	4933.85
438.58	5172.58
438.77	5289.61
438.96	5359.83
439.14	5495.58
439.33	5561.11
439.52	5533.03
439.70	5617.29
439.89	5589.20
440.08	5713.25
440.26	5708.57
440.45	5657.07
440.63	5767.08
440.82	5905.17
441.01	5785.80
441.19	5963.68
441.38	6078.37
441.57	6059.65
441.75	6038.58
441.94	6221.14
442.12	6284.34
442.31	6263.27
442.50	6298.38
442.68	6246.89
442.87	6190.72
443.05	6277.32
443.24	6338.17
443.43	6443.49
443.61	6403.71
443.80	6527.75
443.98	6253.91
444.17	6085.39
444.35	6450.52
444.54	6724.36
444.73	6532.44
444.91	6516.05
445.10	6546.48
445.28	6300.72
445.47	6326.47
445.65	6384.98
445.84	6307.74
446.02	6506.69
446.21	6581.59
446.39	6530.09
446.58	6637.76
446.77	6644.78
446.95	6455.20
447.14	6623.72
447.32	6705.63
447.51	6614.35
447.69	6504.35
447.88	6626.06
448.06	6698.61
448.25	6607.33
448.43	6668.19
448.62	6731.38
448.80	6724.36
448.99	6902.24
449.17	6895.22
449.36	6658.82
449.54	6878.83
449.73	6920.96
449.91	7122.25
450.10	6998.20
450.28	7180.76
450.46	7040.33
450.65	7037.99
450.83	7030.97
451.02	6967.77
451.20	7101.19
451.39	7077.78
451.57	6946.71
451.76	7101.19
451.94	7108.21
452.13	7258.00
452.31	7007.56
452.49	7059.06
452.68	7265.02
452.86	7183.10
453.05	7379.71
453.23	7253.32
453.42	7297.79
453.60	7281.41
453.78	7534.18
453.97	7258.00
454.15	7133.95
454.34	7360.98
454.52	7478.01
454.70	7297.79
454.89	7564.61
455.07	7407.80
455.26	7515.46
455.44	7515.46
455.62	7812.71
455.81	7681.64
455.99	7892.29
456.17	7833.77
456.36	7918.03
456.54	7833.77
456.73	7997.61
456.91	8142.72
457.09	8046.76
457.28	7995.27
457.46	7903.99
457.64	8056.12
457.83	8074.85
458.01	8025.70
458.19	8241.03
458.38	8070.17
458.56	8006.97
458.74	8098.25
458.93	8226.98
459.11	7983.57
459.29	8325.29
459.48	8327.63
459.66	8336.99
459.84	8376.78
460.03	8465.72
460.21	8465.72
460.39	8362.73
460.57	8411.89
460.76	8592.11
460.94	8779.35
461.12	8664.66
461.31	8482.10
461.49	8578.06
461.67	8606.15
461.85	8758.28
462.04	8573.38
462.22	9139.79
462.40	8837.86
462.59	8718.50
462.77	8784.03
462.95	8746.58
463.13	9008.72
463.32	8704.45
463.50	8999.36
463.68	9015.74
463.86	9088.30
464.05	8774.67
464.23	8926.80
464.41	9071.92
464.59	8805.10
464.78	9139.79
464.96	8943.19
465.14	8919.78
465.32	9092.98
465.50	9291.93
465.69	9184.26
465.87	9142.13
466.05	9184.26
466.23	8952.55
466.41	9158.52
466.60	9320.01
466.78	9041.49
466.96	9123.41
467.14	9329.38
467.32	9228.73
467.51	9256.82
467.69	9100.00
467.87	9179.58
468.05	9525.98
468.23	9479.17
468.41	9397.25
468.60	9488.53
468.78	9612.58
468.96	9448.74
469.14	9619.60
469.32	9556.41
469.50	9434.70
469.69	9930.89
469.87	9703.86
470.05	9717.90
470.23	9638.33
470.41	9717.90
470.59	9825.57
470.77	9741.31
470.95	9919.19
471.14	10015.15
471.32	9984.73
471.50	10157.92
471.68	10333.47
471.86	10157.92
472.04	10530.07
472.22	10466.88
472.40	10001.11
472.58	10403.68
472.77	10497.30
472.95	10679.86
473.13	10951.37
473.31	10338.15
473.49	10354.53
473.67	10567.52
473.85	10455.17
474.03	10745.40
474.21	10909.24
474.39	11164.36
474.57	11016.90
474.75	10897.53
474.93	11346.92
475.12	11243.93
475.30	11215.85
475.48	11173.72
475.66	11400.75
475.84	11162.01
476.02	11520.12
476.20	11246.27
476.38	11529.48
476.56	11953.12
476.74	11822.05
476.92	11700.34
477.10	11786.94
477.28	12128.66
477.46	12028.01
477.64	12191.85
477.82	12336.96
478.00	12671.66
478.18	12425.90
478.36	12531.23
478.54	12542.93
478.72	12655.28
478.90	12992.31
479.08	13235.73
479.26	12999.34
479.44	13006.36
479.62	13121.04
479.80	13324.67
479.98	13345.73
480.16	13703.84
480.34	13657.03
480.52	13645.32
480.70	13565.74
480.88	13635.96
481.06	13900.44
481.24	13940.23
481.41	14071.30
481.59	14136.84
481.77	14113.43
481.95	14431.74
482.13	14429.40
482.31	14527.71
482.49	14972.41
482.67	14712.61
482.85	14724.31
483.03	15033.26
483.21	15063.69
483.39	15433.49
483.57	15126.88
483.74	15328.17
483.92	15463.92
484.10	15428.81
484.28	15646.48
484.46	16025.65
484.64	16372.05
484.82	15908.62
485.00	15932.03
485.18	16140.33
485.35	16603.76
485.53	16095.86
485.71	15988.20
485.89	16283.11
486.07	16374.39
486.25	16615.46
486.43	16737.17
486.61	16844.84
486.78	17142.08
486.96	17469.76
487.14	17369.12
487.32	17619.55
487.50	17816.16
487.68	18183.62
487.85	18178.94
488.03	18431.72
488.21	18412.99
488.39	18314.69
488.57	18574.49
488.75	18338.10
488.92	18967.70
489.10	19168.99
489.28	19154.94
489.46	19882.85
489.64	19456.87
489.81	20147.33
489.99	20240.95
490.17	20123.93
490.35	20255.00
490.53	20152.01
490.70	20439.90
490.88	20135.63
491.06	20823.75
491.24	20496.07
491.41	20334.57
491.59	20753.53
491.77	20622.46
491.95	20952.48
492.13	21174.83
492.30	21593.78
492.48	21465.05
492.66	21231.00
492.84	21724.85
493.01	21769.32
493.19	21759.96
493.37	22279.56
493.54	22375.52
493.72	22513.61
493.90	22548.72
494.08	22618.94
494.25	22740.64
494.43	23037.89
494.61	23496.64
494.79	23559.83
494.96	23133.86
495.14	23199.39
495.32	23604.30
495.49	23693.24
495.67	23576.22
495.85	23749.42
496.02	23742.39
496.20	24334.55
496.38	23927.30
496.55	24381.36
496.73	25193.53
496.91	24797.98
497.09	24676.27
497.26	25046.07
497.44	25060.12
497.62	25069.48
497.79	25195.87
497.97	24858.83
498.14	25240.34
498.32	25371.41
498.50	25483.75
498.67	25809.09
498.85	25778.66
499.03	25755.26
499.20	25984.63
499.38	26181.23
499.56	25891.01
499.73	26022.08
499.91	26199.96
500.08	26054.84
500.26	26150.81
500.44	26520.61
500.61	26333.37
500.79	26291.24
500.97	26689.13
501.14	26981.70
501.32	27026.17
501.49	26824.88
501.67	27061.27
501.84	27140.85
502.02	26986.38
502.20	27227.45
502.37	27466.19
502.55	27721.30
502.72	27831.31
502.90	27676.83
503.07	27903.87
503.25	27896.85
503.43	27728.33
503.60	27847.69
503.78	27824.29
503.95	27777.48
504.13	28063.02
504.30	28561.56
504.48	28231.54
504.65	28418.78
504.83	28929.02
505.01	28800.29
505.18	28650.50
505.36	29340.96
505.53	29214.57
505.71	29685.01
505.88	29401.81
506.06	29530.54
506.23	29619.48
506.41	29200.52
506.58	29752.89
506.76	29818.42
506.93	29624.16
507.11	29762.25
507.28	29790.34
507.46	29935.45
507.63	29490.75
507.81	29764.59
507.98	29692.04
508.16	29958.86
508.33	30319.30
508.50	30600.16
508.68	30555.69
508.85	31061.25
509.03	30754.64
509.20	31056.57
509.38	31302.32
509.55	30721.87
509.73	31171.25
509.90	30927.84
510.08	31232.11
510.25	30925.50
510.42	30883.37
510.60	31714.26
510.77	31601.91
510.95	31683.83
511.12	31637.02
511.30	31761.07
511.47	32102.79
511.64	32154.28
511.82	32088.74
511.99	32210.45
512.17	32074.70
512.34	32079.38
512.51	32360.25
512.69	32786.22
512.86	32816.65
513.04	32797.93
513.21	32662.18
513.38	32451.53
513.56	32353.23
513.73	32533.45
513.90	32561.53
514.08	32598.98
514.25	32994.53
514.43	33244.97
514.60	33193.48
514.77	32961.76
514.95	33151.35
515.12	32835.38
515.29	33289.44
515.47	33757.55
515.64	33879.25
515.81	33764.57
515.99	33600.73
516.16	33359.66
516.33	33172.41
516.51	33741.16
516.68	33095.18
516.85	32971.13
517.03	33464.98
517.20	33834.78
517.37	33809.04
517.54	34080.54
517.72	33507.11
517.89	34183.52
518.06	33942.45
518.24	34085.22
518.41	34073.52
518.58	34190.55
518.75	34490.13
518.93	34677.38
519.10	34471.41
519.27	34712.49
519.45	34913.77
519.62	34773.34
519.79	35739.98
519.96	35215.70
520.14	35159.53
520.31	34785.04
520.48	35325.71
520.65	35379.54
520.83	35543.38
521.00	36023.19
521.17	35604.23
521.34	35871.05
521.52	36060.63
521.69	35786.79
521.86	36032.55
522.03	36151.91
522.20	36273.62
522.38	36219.79
522.55	36180.00
522.72	35718.92
522.89	36341.50
523.07	36694.92
523.24	36739.39
523.41	36535.76
523.58	36966.42
523.75	36952.38
523.92	37083.45
524.10	36985.15
524.27	36952.38
524.44	37251.97
524.61	37338.57
524.78	37074.09
524.96	36912.59
525.13	37022.59
525.30	37275.37
525.47	37434.53
525.64	37038.98
525.81	37429.85
525.98	37268.35
526.16	37191.11
526.33	37043.66
526.50	37366.65
526.67	37071.75
526.84	37275.37
527.01	36912.59
527.18	37408.78
527.36	37900.29
527.53	38188.18
527.70	38567.35
527.87	38033.71
528.04	38000.94
528.21	38286.48
528.38	38387.13
528.55	38569.69
528.72	38572.03
528.89	38747.57
529.07	38623.52
529.24	38057.11
529.41	38696.08
529.58	38136.69
529.75	38398.83
529.92	39040.14
530.09	38920.77
530.26	38738.21
530.43	39033.11
530.60	38995.67
530.77	38911.41
530.94	39093.97
531.11	39435.69
531.28	38810.76
531.46	39042.48
531.63	39002.69
531.80	39173.55
531.97	39571.44
532.14	39007.37
532.31	38803.74
532.48	39178.23
532.65	39482.50
532.82	39152.48
532.99	39487.18
533.16	39335.04
533.33	39676.76
533.50	39564.42
533.67	39716.55
533.84	39768.04
534.01	39676.76
534.18	39725.91
534.35	40187.00
534.52	39498.88
534.69	40315.73
534.86	40467.86
535.03	40107.42
535.20	40575.53
535.37	40804.90
535.54	40465.52
535.71	40238.49
535.88	40240.83
536.05	40271.26
536.22	40861.07
536.38	40563.82
536.55	40776.81
536.72	40240.83
536.89	40247.85
537.06	40549.78
537.23	40837.67
537.40	40659.79
537.57	41041.29
537.74	40830.65
537.91	41235.56
538.08	41174.70
538.25	40875.12
538.42	40893.84
538.59	41099.81
538.75	40399.99
538.92	40996.82
539.09	41315.14
539.26	40987.46
539.43	41022.57
539.60	40987.46
539.77	41317.48
539.94	41174.70
540.11	41076.40
540.28	41338.54
540.44	41368.97
540.61	41078.74
540.78	41282.37
540.95	41336.20
541.12	41226.20
541.29	41038.95
541.46	41457.91
541.62	41476.63
541.79	41579.62
541.96	41336.20
542.13	41752.82
542.30	41703.67
542.47	41841.76
542.63	41596.00
542.80	42038.36
542.97	42440.93
543.14	42120.28
543.31	42199.86
543.48	42499.45
543.64	42632.86
543.81	43072.88
543.98	42440.93
544.15	42560.30
544.32	42698.39
544.48	43494.18
544.65	42356.67
544.82	42927.77
544.99	42134.32
545.16	43040.11
545.32	42300.50
545.49	43084.58
545.66	42920.74
545.83	42955.85
546.00	42859.89
546.16	42794.36
546.33	42948.83
546.50	42309.86
546.67	42902.02
546.83	42464.34
547.00	43206.29
547.17	43079.90
547.34	42726.48
547.50	43276.51
547.67	43412.26
547.84	43143.09
548.00	43299.91
548.17	43746.95
548.34	43056.50
548.51	43679.08
548.67	43545.67
548.84	43328.00
549.01	43438.00
549.18	43597.16
549.34	43587.80
549.51	43433.32
549.68	43587.80
549.84	43484.81
550.01	43873.34
550.18	43543.33
550.34	43412.26
550.51	43660.35
550.68	43662.69
550.84	43304.59
551.01	43571.41
551.18	43608.86
551.34	43576.09
551.51	44123.78
551.68	43606.52
551.84	44123.78
552.01	44126.12
552.18	44016.11
552.34	43526.94
552.51	43936.54
552.68	43889.73
552.84	43711.84
553.01	44261.87
553.18	44177.61
553.34	44296.98
553.51	43962.28
553.67	44091.01
553.84	44446.77
554.01	44868.07
554.17	44252.51
554.34	44666.78
554.51	44720.62
554.67	44748.70
554.84	44444.43
555.00	44463.16
555.17	43871.00
555.33	44582.52
555.50	44601.25
555.67	44697.21
555.83	44753.38
556.00	44598.91
556.16	44931.26
556.33	44325.07
556.50	44624.65
556.66	44645.72
556.83	44151.87
556.99	44395.28
557.16	44856.37
557.32	45162.98
557.49	44678.49
557.65	44299.32
557.82	44823.60
557.98	44659.76
558.15	44935.95
558.32	44839.98
558.48	44531.03
558.65	44751.04
558.81	44479.54
558.98	44603.59
559.14	44942.97
559.31	44360.17
559.47	44619.97
559.64	45209.79
559.80	44919.56
559.97	45343.20
560.13	44992.12
560.30	44949.99
560.46	44863.39
560.63	45291.71
560.79	44765.09
560.96	45265.96
561.12	45146.59
561.29	45006.16
561.45	45102.12
561.61	45120.85
561.78	45036.59
561.94	45116.17
562.11	44900.84
562.27	44917.22
562.44	45127.87
562.60	45361.92
562.77	45378.31
562.93	45137.23
563.10	45368.94
563.26	45160.64
563.42	45221.49
563.59	45106.80
563.75	45071.70
563.92	45485.97
564.08	45162.98
564.24	45514.06
564.41	45492.99
564.57	45237.87
564.74	45420.44
564.90	45537.46
565.07	45352.56
565.23	45556.19
565.39	45043.61
565.56	45518.74
565.72	44842.32
565.88	45179.36
566.05	45315.11
566.21	45186.38
566.38	45045.95
566.54	45439.16
566.70	46089.83
566.87	45832.37
567.03	45830.03
567.19	45694.28
567.36	45565.55
567.52	45478.95
567.68	45673.21
567.85	45205.11
568.01	45748.11
568.17	45682.58
568.34	45827.69
568.50	45626.40
568.66	45048.29
568.83	45181.70
568.99	45368.94
569.15	45549.17
569.32	45385.33
569.48	45766.84
569.64	46007.91
569.81	45516.40
569.97	45778.54
570.13	46019.61
570.30	45118.51
570.46	44760.40
570.62	45221.49
570.78	45013.18
570.95	45588.95
571.11	45586.61
571.27	45450.86
571.43	45830.03
571.60	45691.94
571.76	45490.65
571.92	45507.04
572.09	45911.95
572.25	45961.10
572.41	45977.48
572.57	45834.71
572.74	46260.69
572.90	45411.07
573.06	45820.67
573.22	45710.66
573.38	45720.02
573.55	45876.84
573.71	45942.38
573.87	45680.24
574.03	45471.93
574.20	45603.00
574.36	45935.35
574.52	45443.84
574.68	45556.19
574.84	45497.67
575.01	45738.75
575.17	45787.90
575.33	45160.64
575.49	45907.27
575.65	45626.40
575.82	46092.17
575.98	45209.79
576.14	45979.82
576.30	46050.04
576.46	45675.55
576.62	45518.74
576.79	45923.65
576.95	45544.48
577.11	45944.72
577.27	45722.37
577.43	45745.77
577.59	45265.96
577.75	45670.87
577.92	45432.14
578.08	45701.30
578.24	45780.88
578.40	45455.54
578.56	45701.30
578.72	45612.36
578.88	46223.24
579.04	46129.62
579.21	45640.45
579.37	45591.30
579.53	45998.55
579.69	45530.44
579.85	45628.74
580.01	46131.96
580.17	45202.77
580.33	45764.49
580.49	45801.94
580.65	46054.72
580.82	46052.38
580.98	45797.26
581.14	45579.59
581.30	46576.66
581.46	45785.56
581.62	45918.97
581.78	45745.77
581.94	46059.40
582.10	46188.13
582.26	45762.15
582.42	45638.11
582.58	45635.77
582.74	46092.17
582.90	46033.66
583.06	46127.28
583.22	46075.79
583.38	46288.77
583.54	46251.33
583.70	46057.06
583.86	45823.01
584.02	45727.05
584.18	45993.87
584.34	46014.93
584.50	46153.02
584.66	45970.46
584.82	45649.81
584.98	45790.24
585.14	45731.73
585.30	45652.15
585.46	45769.18
585.62	45492.99
585.78	45865.14
585.94	45581.93
586.10	45579.59
586.26	45773.86
586.42	46120.26
586.58	46583.68
586.74	45787.90
586.90	45979.82
587.06	46263.03
587.22	46244.30
587.38	45839.39
587.54	45808.96
587.70	46190.47
587.86	45837.05
588.02	45958.76
588.18	46110.89
588.34	45904.93
588.49	45551.51
588.65	45682.58
588.81	45303.41
588.97	45741.09
589.13	45067.02
589.29	45123.19
589.45	45603.00
589.61	45895.56
589.77	46007.91
589.93	46445.59
