SpectraSuite Data File
++++++++++++++++++++++++++++++++++++
Date: Fri Oct 25 11:22:37 EDT 2013
User: price-jones
Dark Spectrum Present: No
Reference Spectrum Present: No
Number of Sampled Component Spectra: 1
Spectrometers: USB2+H05261
Integration Time (usec): 100000 (USB2+H05261)
Spectra Averaged: 1 (USB2+H05261)
Boxcar Smoothing: 0 (USB2+H05261)
Correct for Electrical Dark: No (USB2+H05261)
Strobe/Lamp Enabled: No (USB2+H05261)
Correct for Detector Non-linearity: No (USB2+H05261)
Correct for Stray Light: No (USB2+H05261)
Number of Pixels in Processed Spectrum: 2048
>>>>>Begin Processed Spectral Data<<<<<
365.73	236.39
365.92	236.39
366.12	236.39
366.32	114.69
366.52	149.79
366.72	163.84
366.91	21.06
367.11	58.51
367.31	63.19
367.51	114.69
367.70	77.24
367.90	145.11
368.10	126.39
368.30	114.69
368.49	53.83
368.69	161.50
368.89	147.45
369.09	67.88
369.28	145.11
369.48	161.50
369.68	124.05
369.87	88.94
370.07	189.58
370.27	236.39
370.47	315.97
370.66	547.69
370.86	559.39
371.06	655.35
371.25	706.84
371.45	690.46
371.65	739.61
371.84	758.33
372.04	732.59
372.24	650.67
372.44	755.99
372.63	730.25
372.83	755.99
373.03	720.88
373.22	755.99
373.42	774.72
373.62	833.23
373.81	819.19
374.01	777.06
374.21	727.91
374.40	807.48
374.60	898.77
374.79	847.27
374.99	835.57
375.19	812.17
375.38	828.55
375.58	770.04
375.78	854.30
375.97	807.48
376.17	905.79
376.37	856.64
376.56	854.30
376.76	884.72
376.95	870.68
377.15	908.13
377.35	964.30
377.54	891.74
377.74	858.98
377.93	912.81
378.13	924.51
378.33	854.30
378.52	912.81
378.72	844.93
378.91	891.74
379.11	858.98
379.31	938.55
379.50	894.08
379.70	985.37
379.89	1011.11
380.09	1006.43
380.28	987.71
380.48	945.58
380.68	1032.18
380.87	971.32
381.07	1064.94
381.26	964.30
381.46	1008.77
381.65	1076.65
381.85	1015.79
382.04	1078.99
382.24	1036.86
382.43	1093.03
382.63	968.98
382.83	1057.92
383.02	1057.92
383.22	1062.60
383.41	1062.60
383.61	1102.39
383.80	1095.37
384.00	1114.10
384.19	1057.92
384.39	1036.86
384.58	1153.88
384.78	1123.46
384.97	1088.35
385.17	1170.27
385.36	1238.14
385.56	1153.88
385.75	1179.63
385.95	1102.39
386.14	1146.86
386.34	1151.54
386.53	1177.29
386.72	1219.42
386.92	1282.61
387.11	1310.70
387.31	1247.51
387.50	1177.29
387.70	1247.51
387.89	1296.66
388.09	1238.14
388.28	1259.21
388.48	1334.11
388.67	1294.32
388.86	1329.42
389.06	1256.87
389.25	1331.76
389.45	1376.24
389.64	1336.45
389.84	1366.87
390.03	1355.17
390.22	1437.09
390.42	1320.06
390.61	1383.26
390.81	1371.55
391.00	1411.34
391.19	1432.41
391.39	1397.30
391.58	1493.26
391.78	1509.65
391.97	1460.49
392.16	1446.45
392.36	1535.39
392.55	1493.26
392.75	1509.65
392.94	1563.48
393.13	1544.75
393.33	1547.09
393.52	1486.24
393.71	1511.99
393.91	1610.29
394.10	1526.03
394.29	1694.55
394.49	1614.97
394.68	1666.46
394.88	1600.93
395.07	1715.61
395.26	1680.50
395.46	1626.67
395.65	1760.08
395.84	1638.38
396.04	1750.72
396.23	1760.08
396.42	1689.87
396.62	1856.04
396.81	1816.26
397.00	1825.62
397.19	1769.44
397.39	1853.70
397.58	1844.34
397.77	1675.82
397.97	1907.54
398.16	1830.30
398.35	2019.88
398.55	1914.56
398.74	1919.24
398.93	2054.99
399.12	1954.35
399.32	1996.48
399.51	1877.11
399.70	1994.14
399.90	2015.20
400.09	1949.67
400.28	2054.99
400.47	1928.60
400.67	2059.67
400.86	2162.66
401.05	2031.58
401.24	2155.63
401.44	2150.95
401.63	2181.38
401.82	2216.49
402.01	2193.08
402.21	2155.63
402.40	2179.04
402.59	2155.63
402.78	2167.34
402.97	2132.23
403.17	2272.66
403.36	2289.04
403.55	2270.32
403.74	2375.64
403.93	2363.94
404.13	2284.36
404.32	2296.07
404.51	2345.22
404.70	2366.28
404.89	2448.20
405.09	2588.63
405.28	2590.97
405.47	2541.82
405.66	2499.69
405.85	2586.29
406.05	2551.18
406.24	2600.34
406.43	2537.14
406.62	2640.12
406.81	2679.91
407.00	2597.99
407.20	2605.02
407.39	2663.53
407.58	2689.28
407.77	2679.91
407.96	2829.71
408.15	2815.66
408.34	2640.12
408.54	2888.22
408.73	2750.13
408.92	2796.94
409.11	2815.66
409.30	2876.52
409.49	2906.95
409.68	2897.58
409.87	2949.08
410.07	3077.80
410.26	3028.65
410.45	3012.27
410.64	3089.51
410.83	3073.12
411.02	3075.46
411.21	3141.00
411.40	3112.91
411.59	3283.77
411.78	3255.69
411.98	3208.87
412.17	3318.88
412.36	3382.07
412.55	3414.84
412.74	3454.63
412.93	3384.41
413.12	3463.99
413.31	3639.53
413.50	3583.36
413.69	3438.25
413.88	3679.32
414.07	3616.13
414.26	3728.47
414.45	3756.56
414.64	3581.02
414.83	3730.81
415.02	3854.86
415.22	3768.26
415.41	3927.42
415.60	3899.33
415.79	4088.92
415.98	4081.89
416.17	4063.17
416.36	4049.13
416.55	4100.62
416.74	4065.51
416.93	4093.60
417.12	4217.65
417.31	4273.82
417.50	4231.69
417.69	4379.14
417.88	4327.65
418.07	4313.61
418.26	4327.65
418.45	4432.97
418.64	4517.23
418.83	4425.95
419.02	4526.60
419.21	4573.41
419.39	4631.92
419.58	4521.92
419.77	4299.56
419.96	4634.26
420.15	4601.49
420.34	4608.51
420.53	4669.37
420.72	4603.83
420.91	4718.52
421.10	4704.48
421.29	4856.61
421.48	4807.46
421.67	4704.48
421.86	4905.76
422.05	4908.10
422.24	4814.48
422.43	4800.44
422.61	4961.94
422.80	4873.00
422.99	4884.70
423.18	4910.44
423.37	5032.15
423.56	4908.10
423.75	5100.03
423.94	4905.76
424.13	4702.14
424.32	4875.34
424.50	5067.26
424.69	5032.15
424.88	5132.79
425.07	5015.77
425.26	5064.92
425.45	5043.85
425.64	4891.72
425.83	4987.68
426.01	5135.14
426.20	5055.56
426.39	5231.10
426.58	5067.26
426.77	5118.75
426.96	5165.56
427.15	5172.58
427.33	5219.39
427.52	5177.26
427.71	5327.06
427.90	5118.75
428.09	5423.02
428.28	5394.93
428.46	5291.95
428.65	5294.29
428.84	5500.26
429.03	5703.89
429.22	5329.40
429.40	5591.54
429.59	5554.09
429.78	5270.89
429.97	5376.21
430.16	5586.86
430.34	5561.11
430.53	5699.20
430.72	5664.10
430.91	5680.48
431.10	5495.58
431.28	5870.06
431.47	5877.09
431.66	5914.53
431.85	5863.04
432.03	5982.41
432.22	6101.78
432.41	5951.98
432.60	6064.33
432.79	6115.82
432.97	6038.58
433.16	6078.37
433.35	6146.25
433.54	6157.95
433.72	6164.97
433.91	6157.95
434.10	6251.57
434.28	6129.86
434.47	6225.82
434.66	6258.59
434.85	6331.15
435.03	6494.99
435.22	6511.37
435.41	6506.69
435.59	6511.37
435.78	6452.86
435.97	6579.25
436.16	6574.56
436.34	6502.01
436.53	6553.50
436.72	6630.74
436.90	6654.14
437.09	6736.06
437.28	6602.65
437.46	6752.45
437.65	6590.95
437.84	6906.92
438.02	6743.08
438.21	6787.55
438.40	6670.53
438.58	7063.74
438.77	7138.63
438.96	6937.35
439.14	7140.97
439.33	7213.53
439.52	7356.30
439.70	7215.87
439.89	7398.43
440.08	7276.73
440.26	7346.94
440.45	7550.57
440.63	7559.93
440.82	7515.46
441.01	7578.65
441.19	7758.88
441.38	7768.24
441.57	7866.54
441.75	7698.02
441.94	8053.78
442.12	8102.93
442.31	8056.12
442.50	8112.30
442.68	8053.78
442.87	8091.23
443.05	8194.22
443.24	8346.35
443.43	8379.12
443.61	8283.16
443.80	8564.02
443.98	8177.83
444.17	7913.35
444.35	8198.90
444.54	8365.07
444.73	8425.93
444.91	8231.66
445.10	8411.89
445.28	8400.18
445.47	8554.66
445.65	8489.12
445.84	8638.92
446.02	8446.99
446.21	8578.06
446.39	8348.69
446.58	8512.53
446.77	8510.19
446.95	8461.04
447.14	8500.83
447.32	8662.32
447.51	8772.33
447.69	8493.80
447.88	8545.30
448.06	8746.58
448.25	8643.60
448.43	8727.86
448.62	8655.30
448.80	8746.58
448.99	8786.37
449.17	8807.44
449.36	8664.66
449.54	9008.72
449.73	9137.45
449.91	9029.79
450.10	9118.73
450.28	9039.15
450.46	9090.64
450.65	9064.89
450.83	9198.31
451.02	9025.11
451.20	9317.67
451.39	9200.65
451.57	9090.64
451.76	9121.07
451.94	9156.18
452.13	9455.76
452.31	9408.95
452.49	9298.95
452.68	9397.25
452.86	9504.92
453.05	9830.25
453.23	9617.26
453.42	9607.90
453.60	9493.21
453.78	9387.89
453.97	9462.79
454.15	9430.02
454.34	9549.39
454.52	9825.57
454.70	9699.18
454.89	9774.08
455.07	9813.87
455.26	9980.04
455.44	9865.36
455.62	10265.59
455.81	9895.78
455.99	10045.58
456.17	9994.09
456.36	10349.85
456.54	10370.91
456.73	10333.47
456.91	10466.88
457.09	10429.43
457.28	10658.80
457.46	10415.38
457.64	10705.61
457.83	10626.03
458.01	10445.81
458.19	10733.70
458.38	10576.88
458.56	10946.69
458.74	10714.97
458.93	10850.72
459.11	10553.48
459.29	10785.19
459.48	10960.73
459.66	10986.47
459.84	10916.26
460.03	11040.31
460.21	11061.37
460.39	11016.90
460.57	11091.80
460.76	11288.40
460.94	11293.08
461.12	11169.04
461.31	11325.85
461.49	11365.64
461.67	11372.66
461.85	11641.82
462.04	11307.13
462.22	11910.99
462.40	11630.12
462.59	11672.25
462.77	11470.97
462.95	11854.81
463.13	11887.58
463.32	12070.14
463.50	11997.59
463.68	11655.87
463.86	12037.38
464.05	11836.09
464.23	11840.77
464.41	12077.16
464.59	11690.98
464.78	12343.99
464.96	11913.33
465.14	11880.56
465.32	12222.28
465.50	12217.60
465.69	12138.02
465.87	12372.07
466.05	12297.17
466.23	12133.34
466.41	12334.62
466.60	12627.19
466.78	12512.50
466.96	12573.36
467.14	12318.24
467.32	12599.10
467.51	12564.00
467.69	12187.17
467.87	12652.94
468.05	12875.29
468.23	12690.38
468.41	12753.58
468.60	12620.17
468.78	12795.71
468.96	12432.93
469.14	12795.71
469.32	13032.10
469.50	12971.25
469.69	13174.88
469.87	13165.51
470.05	13205.30
470.23	13490.85
470.41	13240.41
470.59	13657.03
470.77	13334.03
470.95	13514.25
471.14	13940.23
471.32	13540.00
471.50	13652.34
471.68	13774.05
471.86	13919.17
472.04	13769.37
472.22	13937.89
472.40	13886.40
472.58	13870.01
472.77	14202.37
472.95	14134.50
473.13	14822.61
473.31	14242.16
473.49	14473.87
473.67	14288.97
473.85	14691.54
474.03	14820.27
474.21	14740.69
474.39	14911.55
474.57	15098.80
474.75	14822.61
474.93	15393.70
475.12	14780.48
475.30	15335.19
475.48	15143.27
475.66	15349.23
475.84	15396.04
476.02	15541.16
476.20	15323.49
476.38	16013.95
476.56	16224.59
476.74	16173.10
476.92	15896.92
477.10	16109.91
477.28	16191.83
477.46	16156.72
477.64	16290.13
477.82	16753.55
478.00	17050.80
478.18	16709.08
478.36	17064.85
478.54	17436.99
478.72	17294.22
478.90	17572.74
479.08	17891.06
479.26	17813.82
479.44	18085.32
479.62	17914.46
479.80	17907.44
479.98	18249.16
480.16	18941.96
480.34	18471.51
480.52	18611.94
480.70	18977.06
480.88	18670.45
481.06	18750.03
481.24	18932.59
481.41	19321.12
481.59	19491.98
481.77	19831.36
481.95	19660.50
482.13	19978.81
482.31	20095.84
482.49	20472.67
482.67	20334.57
482.85	20524.16
483.03	20821.41
483.21	20863.54
483.39	21214.62
483.57	21104.61
483.74	21252.06
483.92	21572.72
484.10	21561.02
484.28	21986.99
484.46	21853.58
484.64	22148.49
484.82	22094.66
485.00	22677.45
485.18	22689.15
485.35	23316.42
485.53	22801.50
485.71	23316.42
485.89	23967.09
486.07	23875.80
486.25	23751.76
486.43	23828.99
486.61	24601.37
486.78	24283.06
486.96	24369.66
487.14	24526.47
487.32	25067.14
487.50	25233.32
487.68	25280.13
487.85	25453.33
488.03	26012.71
488.21	25972.92
488.39	25961.22
488.57	26478.48
488.75	26508.91
488.92	26625.93
489.10	26778.07
489.28	26899.78
489.46	27412.35
489.64	27339.80
489.81	27910.89
489.99	27826.63
490.17	27730.67
490.35	28444.53
490.53	28631.77
490.70	28861.15
490.88	28692.63
491.06	29181.80
491.24	28823.70
491.41	29415.85
491.59	29413.51
491.77	29589.05
491.95	29532.88
492.13	29986.94
492.30	30349.73
492.48	30321.64
492.66	30569.74
492.84	30693.79
493.01	31234.45
493.19	30850.60
493.37	31510.63
493.54	31550.42
493.72	32130.87
493.90	31447.44
494.08	32320.46
494.25	31964.70
494.43	32180.03
494.61	32432.80
494.79	32964.10
494.96	32877.51
495.14	33214.54
495.32	33214.54
495.49	33399.44
495.67	33401.79
495.85	33905.00
496.02	34171.82
496.20	34146.08
496.38	34281.83
496.55	34623.54
496.73	34983.99
496.91	34883.34
497.09	34834.19
497.26	35526.99
497.44	35124.42
497.62	35526.99
497.79	36268.94
497.97	35821.90
498.14	36273.62
498.32	36479.59
498.50	36378.95
498.67	36882.16
498.85	36638.75
499.03	37184.09
499.20	37205.16
499.38	37556.24
499.56	37319.84
499.73	37958.81
499.91	37745.82
500.08	38038.39
500.26	38253.72
500.44	37930.72
500.61	38281.80
500.79	37862.85
500.97	38340.32
501.14	38663.31
501.32	38600.12
501.49	38899.70
501.67	39147.80
501.84	39182.91
502.02	39054.18
502.20	39447.39
502.37	39676.76
502.55	39744.64
502.72	39775.06
502.90	39999.76
503.07	39906.13
503.25	40212.74
503.43	39613.57
503.60	40495.95
503.78	40584.89
503.95	40928.95
504.13	40594.25
504.30	40720.64
504.48	41174.70
504.65	41378.33
504.83	41661.54
505.01	41734.09
505.18	41848.78
505.36	41876.86
505.53	41516.42
505.71	42176.45
505.88	42452.64
506.06	41745.80
506.23	42546.26
506.41	42415.19
506.58	42387.10
506.76	42417.53
506.93	42941.81
507.11	42443.27
507.28	43054.15
507.46	42906.70
507.63	43173.52
507.81	43335.02
507.98	43143.09
508.16	43201.61
508.33	44236.12
508.50	43711.84
508.68	44065.27
508.85	44737.00
509.03	44442.09
509.20	44524.01
509.38	45029.57
509.55	45052.97
509.73	44755.72
509.90	44907.86
510.08	44973.39
510.25	45076.38
510.42	45036.59
510.60	45322.13
510.77	45722.37
510.95	45792.58
511.12	45425.12
511.30	45537.46
511.47	45750.45
511.64	46312.18
511.82	46410.48
511.99	45722.37
512.17	45970.46
512.34	45916.63
512.51	46284.09
512.69	46946.47
512.86	46192.81
513.04	46904.34
513.21	46904.34
513.38	47330.31
513.56	47227.33
513.73	47248.39
513.90	47309.25
514.08	47370.10
514.25	47433.30
514.43	47538.62
514.60	47854.59
514.77	48079.28
514.95	47751.61
515.12	48034.81
515.29	48105.03
515.47	48526.33
515.64	48633.99
515.81	48348.45
515.99	48633.99
516.16	48734.63
516.33	48781.45
516.51	49329.13
516.68	48456.11
516.85	49038.90
517.03	49275.30
517.20	49230.83
517.37	48835.28
517.54	49240.19
517.72	49528.08
517.89	49471.90
518.06	49319.77
518.24	49319.77
518.41	49502.33
518.58	49607.65
518.75	50033.63
518.93	49951.71
519.10	49930.65
519.27	50171.72
519.45	50403.44
519.62	50532.17
519.79	50412.80
519.96	50206.83
520.14	50497.06
520.31	50483.01
520.48	50653.87
520.65	50576.64
520.83	51295.18
521.00	50988.57
521.17	50796.65
521.34	51161.77
521.52	51136.02
521.69	51136.02
521.86	51552.64
522.03	51475.40
522.20	51913.08
522.38	51903.72
522.55	51707.12
522.72	51627.54
522.89	51807.76
523.07	52083.94
523.24	51807.76
523.41	51985.64
523.58	51826.48
523.75	52329.70
523.92	52163.52
524.10	52151.82
524.27	52327.36
524.44	52598.86
524.61	52456.09
524.78	52676.10
524.96	52219.69
525.13	52776.74
525.30	52858.66
525.47	52931.22
525.64	52982.71
525.81	52669.08
525.98	53081.01
526.16	53057.60
526.33	52963.98
526.50	53270.59
526.67	52863.34
526.84	53296.34
527.01	53301.02
527.18	53329.11
527.36	53200.38
527.53	53361.87
527.70	53729.34
527.87	53703.59
528.04	53481.24
528.21	53675.51
528.38	53682.53
528.55	54188.08
528.72	53872.11
528.89	53778.49
529.07	53436.77
529.24	53712.95
529.41	53984.46
529.58	54071.06
529.75	53860.41
529.92	54220.85
530.09	54103.82
530.26	54277.02
530.43	54272.34
530.60	53979.78
530.77	54387.03
530.94	54424.48
531.11	54581.29
531.28	54335.54
531.46	54461.93
531.63	54593.00
531.80	54525.12
531.97	54883.22
532.14	54986.21
532.31	54637.47
532.48	54930.03
532.65	55072.81
532.82	54796.62
532.99	54967.48
533.16	54953.44
533.33	55049.40
533.50	55260.05
533.67	54899.61
533.84	55220.26
534.01	55089.19
534.18	55241.32
534.35	55578.36
534.52	55470.70
534.69	55480.06
534.86	55491.76
535.03	55475.38
535.20	55533.89
535.37	55571.34
535.54	55526.87
535.71	55505.80
535.88	55573.68
536.05	55433.25
536.22	55847.52
536.38	55765.60
536.55	55922.42
536.72	55964.55
536.89	55957.53
537.06	55959.87
537.23	56147.11
537.40	55945.83
537.57	56245.41
537.74	56062.85
537.91	56222.01
538.08	56142.43
538.25	56137.75
538.42	56315.63
538.59	56240.73
538.75	56271.16
538.92	56456.06
539.09	56315.63
539.26	56444.36
539.43	56416.27
539.60	56287.54
539.77	56610.54
539.94	56598.83
540.11	56460.74
540.28	56830.55
540.44	56746.29
540.61	56638.62
540.78	56746.29
540.95	56598.83
541.12	56664.37
541.29	56610.54
541.46	56975.66
541.62	56970.98
541.79	57017.79
541.96	56765.01
542.13	56760.33
542.30	56907.79
542.47	57071.62
542.63	56919.49
542.80	57275.25
542.97	57193.33
543.14	57556.11
543.31	57408.66
543.48	57464.83
543.64	57368.87
543.81	57497.60
543.98	57612.29
544.15	57675.48
544.32	57783.15
544.48	57883.79
544.65	57642.71
544.82	57771.44
544.99	57570.16
545.16	57853.36
545.32	57717.61
545.49	58071.03
545.66	57778.46
545.83	58019.54
546.00	58035.92
546.16	57907.19
546.33	57998.48
546.50	57914.22
546.67	58113.16
546.83	57867.40
547.00	57930.60
547.17	57874.43
547.34	58089.76
547.50	58094.44
547.67	58457.22
547.84	58075.71
548.00	58527.44
548.17	58447.86
548.34	58356.58
548.51	58602.33
548.67	58574.25
548.84	58323.81
549.01	58419.77
549.18	58286.36
549.34	58457.22
549.51	58398.71
549.68	58763.83
549.84	58616.38
550.01	58550.84
550.18	58632.76
550.34	58609.35
550.51	58787.24
550.68	58717.02
550.84	58478.28
551.01	58857.45
551.18	58789.58
551.34	58831.71
551.51	58927.67
551.68	58784.90
551.84	58745.11
552.01	58691.27
552.18	59107.89
552.34	58780.21
552.51	59192.15
552.68	58906.60
552.84	59138.32
553.01	59306.83
553.18	59171.08
553.34	58979.16
553.51	59037.67
553.67	58901.92
553.84	59086.82
554.01	59365.35
554.17	59229.60
554.34	59274.07
554.51	59112.57
554.67	59164.06
554.84	59360.67
555.00	59255.34
555.17	59189.81
555.33	59208.53
555.50	59189.81
555.67	59255.34
555.83	59498.76
556.00	59365.35
556.16	59765.58
556.33	59737.49
556.50	59365.35
556.66	59653.23
556.83	59435.56
556.99	59629.83
557.16	59601.74
557.32	59653.23
557.49	59845.16
557.65	59540.89
557.82	59625.15
557.98	59620.47
558.15	59433.22
558.32	59620.47
558.48	59625.15
558.65	59552.59
558.81	59671.96
558.98	59936.44
559.14	59859.20
559.31	59959.84
559.47	59948.14
559.64	60088.57
559.80	60149.43
559.97	59943.46
560.13	59686.00
560.30	59770.26
560.46	59896.65
560.63	59973.89
560.79	60104.96
560.96	60130.70
561.12	60154.11
561.29	60196.24
561.45	60116.66
561.61	60282.84
561.78	59997.29
561.94	59882.61
562.11	60093.25
562.27	60107.30
562.44	60090.91
562.60	60362.42
562.77	60186.88
562.93	60051.12
563.10	60282.84
563.26	60100.28
563.42	60547.32
563.59	60294.54
563.75	60226.66
563.92	60184.54
564.08	60362.42
564.24	60544.98
564.41	60474.76
564.57	60596.47
564.74	60437.31
564.90	60376.46
565.07	60327.31
565.23	60423.27
565.39	60378.80
565.56	60530.93
565.72	60240.71
565.88	60587.11
566.05	60334.33
566.21	60554.34
566.38	60376.46
566.54	60596.47
566.70	60795.42
566.87	60739.24
567.03	60432.63
567.19	60659.66
567.36	60563.70
567.52	60669.03
567.68	60846.91
567.85	60470.08
568.01	60711.16
568.17	60498.17
568.34	60654.98
568.50	60397.52
568.66	60561.36
568.83	60336.67
568.99	60683.07
569.15	60673.71
569.32	60687.75
569.48	60498.17
569.64	60690.09
569.81	60790.73
569.97	60629.24
570.13	60687.75
570.30	60594.13
570.46	60650.30
570.62	60928.83
570.78	60720.52
570.95	60772.01
571.11	60779.03
571.27	60743.92
571.43	60638.60
571.60	60999.04
571.76	60779.03
571.92	60886.70
572.09	60823.50
572.25	60767.33
572.41	60659.66
572.57	60697.11
572.74	61066.92
572.90	60886.70
573.06	60795.42
573.22	60788.39
573.38	60933.51
573.55	60863.29
573.71	60865.63
573.87	60818.82
574.03	60807.12
574.20	61141.81
574.36	60853.93
574.52	60905.42
574.68	60931.17
574.84	61095.00
575.01	61013.08
575.17	61015.43
575.33	61013.08
575.49	60842.23
575.65	60968.61
575.82	60982.66
575.98	61034.15
576.14	61022.45
576.30	61113.73
576.46	60985.00
576.62	60921.80
576.79	61055.21
576.95	60818.82
577.11	61106.71
577.27	61176.92
577.43	61183.94
577.59	60889.04
577.75	60992.02
577.92	61066.92
578.08	61151.18
578.24	61162.88
578.40	61099.68
578.56	61165.22
578.72	60977.98
578.88	61036.49
579.04	61289.27
579.21	61270.54
579.37	61134.79
579.53	61221.39
579.69	60891.38
579.85	61286.93
580.01	61195.65
580.17	60935.85
580.33	61064.58
580.49	61235.44
580.65	61228.41
580.82	61052.87
580.98	61214.37
581.14	60912.44
581.30	61237.78
581.46	61165.22
581.62	61221.39
581.78	61116.07
581.94	61268.20
582.10	61034.15
582.26	61029.47
582.42	61214.37
582.58	61083.30
582.74	61024.79
582.90	61226.07
583.06	61261.18
583.22	61045.85
583.38	61235.44
583.54	60903.08
583.70	61322.04
583.86	61380.55
584.02	61242.46
584.18	61420.34
584.34	61408.64
584.50	61237.78
584.66	61125.43
584.82	61099.68
584.98	61263.52
585.14	61380.55
585.30	61282.25
585.46	61221.39
585.62	61188.63
585.78	61331.40
585.94	61174.58
586.10	61256.50
586.26	61216.71
586.42	61059.90
586.58	61223.73
586.74	61090.32
586.90	61205.01
587.06	61352.46
587.22	61415.66
587.38	61272.88
587.54	61469.49
587.70	61537.36
587.86	61319.70
588.02	61237.78
588.18	61539.71
588.34	61469.49
588.49	61373.53
