SpectraSuite Data File
++++++++++++++++++++++++++++++++++++
Date: Fri Oct 25 11:26:10 EDT 2013
User: price-jones
Dark Spectrum Present: No
Reference Spectrum Present: No
Number of Sampled Component Spectra: 1
Spectrometers: USB2+H05261
Integration Time (usec): 100000 (USB2+H05261)
Spectra Averaged: 1 (USB2+H05261)
Boxcar Smoothing: 0 (USB2+H05261)
Correct for Electrical Dark: No (USB2+H05261)
Strobe/Lamp Enabled: No (USB2+H05261)
Correct for Detector Non-linearity: No (USB2+H05261)
Correct for Stray Light: No (USB2+H05261)
Number of Pixels in Processed Spectrum: 2048
>>>>>Begin Processed Spectral Data<<<<<
365.73	271.50
365.92	271.50
366.12	271.50
366.32	138.09
366.52	140.43
366.72	189.58
366.91	156.82
367.11	133.41
367.31	70.22
367.51	124.05
367.70	112.35
367.90	110.01
368.10	147.45
368.30	117.03
368.49	35.11
368.69	166.18
368.89	152.13
369.09	194.26
369.28	177.88
369.48	184.90
369.68	212.99
369.87	140.43
370.07	203.63
370.27	297.25
370.47	250.44
370.66	634.29
370.86	613.22
371.06	674.07
371.25	716.20
371.45	645.99
371.65	685.78
371.84	674.07
372.04	725.57
372.24	657.69
372.44	718.54
372.63	802.80
372.83	739.61
373.03	739.61
373.22	755.99
373.42	795.78
373.62	826.21
373.81	788.76
374.01	814.51
374.21	765.36
374.40	772.38
374.60	814.51
374.79	889.40
374.99	851.96
375.19	854.30
375.38	877.70
375.58	863.66
375.78	945.58
375.97	844.93
376.17	905.79
376.37	788.76
376.56	800.46
376.76	800.46
376.95	917.49
377.15	901.11
377.35	898.77
377.54	898.77
377.74	926.85
377.93	952.60
378.13	936.21
378.33	912.81
378.52	917.49
378.72	926.85
378.91	926.85
379.11	992.39
379.31	919.83
379.50	873.02
379.70	983.02
379.89	898.77
380.09	978.34
380.28	985.37
380.48	1039.20
380.68	952.60
380.87	985.37
381.07	1020.47
381.26	1111.75
381.46	1074.31
381.65	1093.03
381.85	1034.52
382.04	1086.01
382.24	1060.26
382.43	1074.31
382.63	1081.33
382.83	1027.50
383.02	1116.44
383.22	1156.22
383.41	1090.69
383.61	1135.16
383.80	1282.61
384.00	1121.12
384.19	1046.22
384.39	1139.84
384.58	1090.69
384.78	1139.84
384.97	1167.93
385.17	1200.69
385.36	1170.27
385.56	1121.12
385.75	1118.78
385.95	1118.78
386.14	1263.89
386.34	1179.63
386.53	1247.51
386.72	1233.46
386.92	1188.99
387.11	1327.08
387.31	1313.04
387.50	1233.46
387.70	1256.87
387.89	1331.76
388.09	1231.12
388.28	1214.74
388.48	1261.55
388.67	1350.49
388.86	1277.93
389.06	1301.34
389.25	1364.53
389.45	1289.64
389.64	1406.66
389.84	1406.66
390.03	1348.15
390.22	1373.89
390.42	1373.89
390.61	1322.40
390.81	1409.00
391.00	1294.32
391.19	1533.05
391.39	1451.13
391.58	1343.47
391.78	1542.41
391.97	1387.94
392.16	1373.89
392.36	1469.86
392.55	1462.83
392.75	1540.07
392.94	1521.35
393.13	1425.39
393.33	1570.50
393.52	1537.73
393.71	1563.48
393.91	1577.52
394.10	1617.31
394.29	1568.16
394.49	1549.43
394.68	1575.18
394.88	1652.42
395.07	1664.12
395.26	1783.49
395.46	1781.15
395.65	1741.36
395.84	1809.23
396.04	1802.21
396.23	1694.55
396.42	1804.55
396.62	1816.26
396.81	1778.81
397.00	1757.74
397.19	1736.68
397.39	1813.92
397.58	1881.79
397.77	1806.89
397.97	1940.30
398.16	1863.07
398.35	1886.47
398.55	1870.09
398.74	1771.79
398.93	1928.60
399.12	1870.09
399.32	2008.18
399.51	1991.80
399.70	2057.33
399.90	1865.41
400.09	2036.27
400.28	2015.20
400.47	2064.35
400.67	2099.46
400.86	2118.18
401.05	2064.35
401.24	2083.08
401.44	2157.97
401.63	2143.93
401.82	2214.15
402.01	2050.31
402.21	2209.47
402.40	2129.89
402.59	2265.64
402.78	2251.60
402.97	2352.24
403.17	2150.95
403.36	2282.02
403.55	2209.47
403.74	2324.15
403.93	2408.41
404.13	2340.54
404.32	2310.11
404.51	2422.45
404.70	2333.51
404.89	2363.94
405.09	2485.65
405.28	2466.92
405.47	2427.14
405.66	2509.05
405.85	2429.48
406.05	2530.12
406.24	2464.58
406.43	2443.52
406.62	2539.48
406.81	2567.57
407.00	2555.86
407.20	2572.25
407.39	2562.89
407.58	2693.96
407.77	2630.76
407.96	2644.81
408.15	2780.56
408.34	2691.62
408.54	2743.11
408.73	2794.60
408.92	2729.06
409.11	2850.77
409.30	2904.60
409.49	2904.60
409.68	2932.69
409.87	2878.86
410.07	3089.51
410.26	2991.20
410.45	3108.23
410.64	3014.61
410.83	3131.64
411.02	2946.73
411.21	3047.38
411.40	3108.23
411.59	3215.90
411.78	3192.49
411.98	3087.17
412.17	3155.04
412.36	3274.41
412.55	3417.18
412.74	3295.47
412.93	3440.59
413.12	3269.73
413.31	3524.85
413.50	3468.67
413.69	3363.35
413.88	3646.55
414.07	3588.04
414.26	3569.32
414.45	3728.47
414.64	3538.89
414.83	3688.68
415.02	3740.18
415.22	3838.48
415.41	3892.31
415.60	3838.48
415.79	3922.74
415.98	3941.46
416.17	3873.59
416.36	3983.59
416.55	3936.78
416.74	3971.89
416.93	4121.68
417.12	4044.45
417.31	4180.20
417.50	4131.05
417.69	4421.27
417.88	4243.39
418.07	4067.85
418.26	4292.54
418.45	4269.14
418.64	4440.00
418.83	4285.52
419.02	4461.06
419.21	4542.98
419.39	4367.44
419.58	4479.79
419.77	4383.82
419.96	4411.91
420.15	4615.54
420.34	4526.60
420.53	4550.00
420.72	4610.86
420.91	4662.35
421.10	4711.50
421.29	4704.48
421.48	4676.39
421.67	4716.18
421.86	4788.74
422.05	4840.23
422.24	4755.97
422.43	4882.36
422.61	4821.50
422.80	4889.38
422.99	4968.96
423.18	4950.23
423.37	4919.81
423.56	5074.28
423.75	5046.20
423.94	4887.04
424.13	4465.74
424.32	4723.20
424.50	4997.04
424.69	5130.45
424.88	5207.69
425.07	4837.89
425.26	4905.76
425.45	4807.46
425.64	4952.57
425.83	5020.45
426.01	5097.69
426.20	4961.94
426.39	4865.97
426.58	4924.49
426.77	5074.28
426.96	5181.95
427.15	5188.97
427.33	5198.33
427.52	5067.26
427.71	5228.76
427.90	5254.50
428.09	5350.46
428.28	5301.31
428.46	5214.71
428.65	5254.50
428.84	5488.56
429.03	5668.78
429.22	5254.50
429.40	5406.64
429.59	5465.15
429.78	5118.75
429.97	5298.97
430.16	5518.98
430.34	5455.79
430.53	5731.97
430.72	5664.10
430.91	5652.39
431.10	5413.66
431.28	5589.20
431.47	5713.25
431.66	5813.89
431.85	5809.21
432.03	5930.92
432.22	5998.79
432.41	5954.32
432.60	5919.21
432.79	5912.19
432.97	5980.07
433.16	6061.99
433.35	5799.85
433.54	5949.64
433.72	6260.93
433.91	6169.65
434.10	6052.63
434.28	5973.05
434.47	6160.29
434.66	6317.11
434.85	6277.32
435.03	6221.14
435.22	6230.51
435.41	6511.37
435.59	6333.49
435.78	6464.56
435.97	6565.20
436.16	6436.47
436.34	6296.04
436.53	6441.15
436.72	6614.35
436.90	6424.77
437.09	6747.76
437.28	6502.01
437.46	6502.01
437.65	6691.59
437.84	6803.94
438.02	6759.47
438.21	6857.77
438.40	6635.42
438.58	6876.49
438.77	7019.27
438.96	6970.12
439.14	7215.87
439.33	7295.45
439.52	7155.02
439.70	7293.11
439.89	7349.28
440.08	7412.48
440.26	7258.00
440.45	7414.82
440.63	7485.03
440.82	7632.49
441.01	7588.02
441.19	7581.00
441.38	7639.51
441.57	7957.82
441.75	7791.64
441.94	7878.24
442.12	7840.79
442.31	7953.14
442.50	7978.89
442.68	8042.08
442.87	7997.61
443.05	7995.27
443.24	8133.36
443.43	8058.46
443.61	8025.70
443.80	8444.65
443.98	7976.55
444.17	7826.75
444.35	8229.32
444.54	8299.54
444.73	8266.77
444.91	8250.39
445.10	8191.88
445.28	8311.24
445.47	8269.11
445.65	8327.63
445.84	8444.65
446.02	8372.10
446.21	8503.17
446.39	8388.48
446.58	8512.53
446.77	8456.36
446.95	8299.54
447.14	8332.31
447.32	8528.91
447.51	8500.83
447.69	8568.70
447.88	8559.34
448.06	8489.12
448.25	8442.31
448.43	8568.70
448.62	8725.52
448.80	8645.94
448.99	8587.43
449.17	8564.02
449.36	8772.33
449.54	8795.73
449.73	9015.74
449.91	9128.09
450.10	9008.72
450.28	9149.15
450.46	8926.80
450.65	8933.82
450.83	9135.11
451.02	8980.64
451.20	8994.68
451.39	9205.33
451.57	8954.89
451.76	9174.90
451.94	9137.45
452.13	9156.18
452.31	9273.20
452.49	9107.02
452.68	9247.46
452.86	9259.16
453.05	9568.11
453.23	9420.66
453.42	9385.55
453.60	9348.10
453.78	9596.20
453.97	9350.44
454.15	9305.97
454.34	9717.90
454.52	9727.27
454.70	9727.27
454.89	9776.42
455.07	9827.91
455.26	9673.43
455.44	10029.20
455.62	9820.89
455.81	9762.37
455.99	9898.13
456.17	10150.90
456.36	9966.00
456.54	10104.09
456.73	10115.80
456.91	10487.94
457.09	10284.31
457.28	10389.64
457.46	10204.74
457.64	10560.50
457.83	10429.43
458.01	10317.08
458.19	10480.92
458.38	10394.32
458.56	10778.17
458.74	10492.62
458.93	10607.31
459.11	10581.56
459.29	10724.33
459.48	10958.39
459.66	10661.14
459.84	10916.26
460.03	11000.52
460.21	11255.64
460.39	10916.26
460.57	10988.82
460.76	11082.44
460.94	10977.11
461.12	11215.85
461.31	11173.72
461.49	11091.80
461.67	11056.69
461.85	11323.51
462.04	11311.81
462.22	11672.25
462.40	11386.71
462.59	11604.38
462.77	11328.19
462.95	11651.19
463.13	11702.68
463.32	11602.04
463.50	11805.66
463.68	11880.56
463.86	11665.23
464.05	11522.46
464.23	11887.58
464.41	11918.01
464.59	11552.88
464.78	12030.35
464.96	11836.09
465.14	11667.57
465.32	12032.69
465.50	12149.72
465.69	12163.76
465.87	12105.25
466.05	11990.56
466.23	12184.83
466.41	12194.19
466.60	12627.19
466.78	11995.25
466.96	12133.34
467.14	12126.32
467.32	12269.09
467.51	12545.27
467.69	12180.15
467.87	12369.73
468.05	12259.73
468.23	12215.26
468.41	12414.20
468.60	12688.04
468.78	12781.67
468.96	12603.78
469.14	12784.01
469.32	12744.22
469.50	12498.46
469.69	12919.76
469.87	12940.82
470.05	13224.03
470.23	13067.21
470.41	13107.00
470.59	13266.16
470.77	13287.22
470.95	13231.05
471.14	13549.36
471.32	13158.49
471.50	13266.16
471.68	13558.72
471.86	13781.07
472.04	13750.65
472.22	13916.83
472.40	13750.65
472.58	13961.30
472.77	13912.14
472.95	14181.31
473.13	14394.29
473.31	14155.56
473.49	14155.56
473.67	13947.25
473.85	14279.61
474.03	14726.65
474.21	14586.22
474.39	14679.84
474.57	14565.15
474.75	14553.45
474.93	14949.00
475.12	14930.28
475.30	14892.83
475.48	15133.90
475.66	15185.40
475.84	15211.14
476.02	15293.06
476.20	15433.49
476.38	15707.34
476.56	15742.44
476.74	15913.30
476.92	15826.70
477.10	15669.89
477.28	16060.76
477.46	16250.34
477.64	16126.29
477.82	16388.43
478.00	16739.51
478.18	16966.54
478.36	16718.45
478.54	16929.09
478.72	17137.40
478.90	17455.72
479.08	17762.33
479.26	17729.56
479.44	17713.17
479.62	17689.77
479.80	18045.53
479.98	18090.00
480.16	18504.28
480.34	18403.63
480.52	18523.00
480.70	18541.72
480.88	18347.46
481.06	18853.02
481.24	18478.53
481.41	19112.81
481.59	19356.23
481.77	19278.99
481.95	19407.72
482.13	19634.75
482.31	19662.84
482.49	20154.35
482.67	20327.55
482.85	20540.54
483.03	20826.09
483.21	20697.36
483.39	21029.71
483.57	20638.84
483.74	21177.17
483.92	21226.32
484.10	21156.10
484.28	21586.76
484.46	22040.82
484.64	22183.60
484.82	22068.91
485.00	22073.59
485.18	22686.81
485.35	22728.94
485.53	22742.99
485.71	22981.72
485.89	23693.24
486.07	23187.69
486.25	22913.84
486.43	23496.64
486.61	23927.30
486.78	24184.76
486.96	23779.84
487.14	24486.68
487.32	24531.15
487.50	24975.86
487.68	24996.92
487.85	25263.74
488.03	25617.16
488.21	25781.00
488.39	25649.93
488.57	25809.09
488.75	26197.62
488.92	26139.10
489.10	26981.70
489.28	26710.19
489.46	27201.71
489.64	26960.63
489.81	27737.69
489.99	27681.52
490.17	27599.60
490.35	28332.18
490.53	27690.88
490.70	28348.57
490.88	28114.52
491.06	28655.18
491.24	28950.09
491.41	28875.19
491.59	28989.88
491.77	28982.85
491.95	29469.69
492.13	29439.26
492.30	30300.58
492.48	29907.37
492.66	29900.34
492.84	30457.39
493.01	30543.99
493.19	30558.03
493.37	30792.09
493.54	30768.68
493.72	31655.75
493.90	31175.94
494.08	31707.24
494.25	31768.09
494.43	31976.40
494.61	32053.64
494.79	32327.48
494.96	32334.50
495.14	32603.66
495.32	32725.37
495.49	33036.66
495.67	33329.23
495.85	33216.88
496.02	33544.56
496.20	33998.62
496.38	33820.74
496.55	34050.11
496.73	34670.36
496.91	34609.50
497.09	34705.46
497.26	34707.80
497.44	35412.31
497.62	35154.85
497.79	35519.97
497.97	35054.20
498.14	35835.94
498.32	35634.66
498.50	36044.25
498.67	36552.15
498.85	36669.17
499.03	36505.34
499.20	36451.50
499.38	36367.24
499.56	37195.79
499.73	37340.91
499.91	37387.72
500.08	37172.39
500.26	36989.83
500.44	37717.73
500.61	37787.95
500.79	37617.09
500.97	37668.58
501.14	38609.48
501.32	38464.36
501.49	38501.81
501.67	38323.93
501.84	38883.32
502.02	38756.93
502.20	39136.10
502.37	39108.01
502.55	39105.67
502.72	39555.05
502.90	39342.06
503.07	39110.35
503.25	39910.82
503.43	39838.26
503.60	39761.02
503.78	39821.87
503.95	40126.14
504.13	40203.38
504.30	40053.59
504.48	40432.75
504.65	40348.50
504.83	40636.38
505.01	41174.70
505.18	41024.91
505.36	41647.49
505.53	41160.66
505.71	41511.74
505.88	41755.16
506.06	41357.27
506.23	41722.39
506.41	42108.58
506.58	41911.97
506.76	41986.87
506.93	42129.64
507.11	42131.98
507.28	42403.49
507.46	42316.89
507.63	42532.22
507.81	42972.24
507.98	43065.86
508.16	42843.51
508.33	43126.71
508.50	43330.34
508.68	43409.92
508.85	43735.25
509.03	43196.93
509.20	43859.30
509.38	44540.39
509.55	43973.98
509.73	44215.06
509.90	44313.36
510.08	44011.43
510.25	44425.71
510.42	44666.78
510.60	44828.28
510.77	45202.77
510.95	45111.49
511.12	45212.13
511.30	45242.56
511.47	44952.33
511.64	45673.21
511.82	45799.60
511.99	45361.92
512.17	45294.05
512.34	45727.05
512.51	46141.32
512.69	46014.93
512.86	46113.23
513.04	46614.11
513.21	46670.28
513.38	46817.74
513.56	46749.86
513.73	46808.37
513.90	46876.25
514.08	47239.03
514.25	46906.68
514.43	47437.98
514.60	47014.34
514.77	47061.15
514.95	47660.33
515.12	47175.84
515.29	47655.65
515.47	47480.11
515.64	47765.65
515.81	47517.56
515.99	48048.86
516.16	48800.17
516.33	47810.12
516.51	48619.95
516.68	48121.41
516.85	48275.89
517.03	48835.28
517.20	48844.64
517.37	48615.27
517.54	48568.46
517.72	48942.94
517.89	48311.00
518.06	48837.62
518.24	49148.91
518.41	48924.22
518.58	49291.68
518.75	49132.53
518.93	49249.55
519.10	49432.11
519.27	49340.83
519.45	49521.05
519.62	49712.98
519.79	49773.83
519.96	49956.39
520.14	50169.38
520.31	49895.54
520.48	50162.36
520.65	49874.48
520.83	50340.24
521.00	50415.14
521.17	50211.51
521.34	50330.88
521.52	50443.23
521.69	50644.51
521.86	50911.33
522.03	51033.04
522.20	51243.69
522.38	51444.98
522.55	51243.69
522.72	51292.84
522.89	50965.17
523.07	51288.16
523.24	51323.27
523.41	51920.10
523.58	51295.18
523.75	51803.08
523.92	51679.03
524.10	51758.61
524.27	51716.48
524.44	51777.33
524.61	51941.17
524.78	52030.11
524.96	52151.82
525.13	51955.21
525.30	52329.70
525.47	52215.01
525.64	52521.62
525.81	52399.91
525.98	52502.90
526.16	52542.69
526.33	52547.37
526.50	53020.16
526.67	52704.18
526.84	52987.39
527.01	52853.98
527.18	52786.10
527.36	52662.05
527.53	52760.36
527.70	53340.81
527.87	53073.99
528.04	53024.84
528.21	53249.53
528.38	53282.30
528.55	53481.24
528.72	53331.45
528.89	53385.28
529.07	53258.89
529.24	53233.14
529.41	53396.98
529.58	53469.54
529.75	53605.29
529.92	53799.55
530.09	53687.21
530.26	53516.35
530.43	53895.52
530.60	53640.40
530.77	53799.55
530.94	53799.55
531.11	54066.38
531.28	53734.02
531.46	53947.01
531.63	54134.25
531.80	54244.26
531.97	54494.69
532.14	54307.45
532.31	54321.49
532.48	54248.94
532.65	54588.31
532.82	54167.02
532.99	54562.57
533.16	54440.86
533.33	54529.80
533.50	54546.18
533.67	54422.14
533.84	54417.46
534.01	54679.60
534.18	54747.47
534.35	55257.71
534.52	55114.94
534.69	54986.21
534.86	54962.80
535.03	54913.65
535.20	55164.09
535.37	55271.75
535.54	55096.21
535.71	54869.18
535.88	55093.87
536.05	55599.43
536.22	55569.00
536.38	55489.42
536.55	55381.76
536.72	55674.32
536.89	55243.66
537.06	55576.02
537.23	55852.20
537.40	55423.89
537.57	55620.49
537.74	55494.10
537.91	55561.98
538.08	56058.17
538.25	55669.64
538.42	55639.22
538.59	56210.31
538.75	55716.45
538.92	56154.13
539.09	56083.92
539.26	55899.01
539.43	55983.27
539.60	56030.08
539.77	56086.26
539.94	56299.25
540.11	56224.35
540.28	56156.47
540.44	56332.01
540.61	56062.85
540.78	56299.25
540.95	56198.60
541.12	56240.73
541.29	56409.25
541.46	56505.21
541.62	56554.36
541.79	56420.95
541.96	56488.83
542.13	56596.49
542.30	56662.03
542.47	56793.10
542.63	56598.83
542.80	56823.53
542.97	57031.83
543.14	56956.94
543.31	56935.87
543.48	57071.62
543.64	57378.23
543.81	57249.50
543.98	57254.18
544.15	57209.71
544.32	57270.57
544.48	57478.88
544.65	57162.90
544.82	57116.09
544.99	57076.30
545.16	57450.79
545.32	57331.42
545.49	57518.67
545.66	57586.54
545.83	57413.34
546.00	57691.86
546.16	57614.63
546.33	57516.32
546.50	57277.59
546.67	57666.12
546.83	57448.45
547.00	57745.70
547.17	57513.98
547.34	57804.21
547.50	57968.05
547.67	57909.53
547.84	57939.96
548.00	57968.05
548.17	57860.38
548.34	58349.56
548.51	58075.71
548.67	58092.10
548.84	58171.67
549.01	57984.43
549.18	58064.01
549.34	58136.57
549.51	58138.91
549.68	58265.30
549.84	58117.84
550.01	58244.23
550.18	58026.56
550.34	58206.78
550.51	58391.68
550.68	58319.13
550.84	58096.78
551.01	58244.23
551.18	58342.53
551.34	58321.47
551.51	58560.20
551.68	58646.80
551.84	58281.68
552.01	58183.38
552.18	58693.61
552.34	58436.16
552.51	58660.85
552.68	58284.02
552.84	58761.49
553.01	58801.28
553.18	58529.78
553.34	58892.56
553.51	58651.48
553.67	58805.96
553.84	58988.52
554.01	58791.92
554.17	58798.94
554.34	58866.81
554.51	58906.60
554.67	58906.60
554.84	58927.67
555.00	58922.99
555.17	58801.28
555.33	59016.61
555.50	58740.42
555.67	58820.00
555.83	58775.53
556.00	58827.02
556.16	59234.28
556.33	59168.74
556.50	59096.19
556.66	59143.00
556.83	59025.97
556.99	59206.19
557.16	59358.33
557.32	59358.33
557.49	59306.83
557.65	59206.19
557.82	59187.47
557.98	59274.07
558.15	59405.14
558.32	59334.92
558.48	59231.94
558.65	59238.96
558.81	59592.38
558.98	59540.89
559.14	59451.95
559.31	59456.63
559.47	59629.83
559.64	59430.88
559.80	59512.80
559.97	59620.47
560.13	59505.78
560.30	59522.16
560.46	59512.80
560.63	59744.51
560.79	59767.92
560.96	59718.77
561.12	59690.68
561.29	59669.62
561.45	59756.22
561.61	59643.87
561.78	59791.33
561.94	59618.13
562.11	59772.60
562.27	59688.34
562.44	59763.24
562.60	59849.84
562.77	59973.89
562.93	59622.81
563.10	59936.44
563.26	59882.61
563.42	60126.02
563.59	59962.18
563.75	59908.35
563.92	59866.22
564.08	59847.50
564.24	59994.95
564.41	60051.12
564.57	59999.63
564.74	60023.04
564.90	59959.84
565.07	60107.30
565.23	60179.85
565.39	59980.91
565.56	60088.57
565.72	59955.16
565.88	60041.76
566.05	59906.01
566.21	59952.82
566.38	60186.88
566.54	60090.91
566.70	60416.25
566.87	60292.20
567.03	60147.09
567.19	60486.46
567.36	60128.36
567.52	60261.77
567.68	60493.49
567.85	60252.41
568.01	60165.81
568.17	60364.76
568.34	60130.70
568.50	60285.18
568.66	60102.62
568.83	60207.94
568.99	60285.18
569.15	60341.35
569.32	60313.26
569.48	60240.71
569.64	60395.18
569.81	60390.50
569.97	60229.01
570.13	60484.12
570.30	60264.11
570.46	60327.31
570.62	60355.39
570.78	60327.31
570.95	60395.18
571.11	60528.59
571.27	60381.14
571.43	60425.61
571.60	60491.15
571.76	60416.25
571.92	60633.92
572.09	60879.67
572.25	60434.97
572.41	60388.16
572.57	60292.20
572.74	60615.19
572.90	60631.58
573.06	60437.31
573.22	60519.23
573.38	60596.47
573.55	60582.43
573.71	60516.89
573.87	60561.36
574.03	60491.15
574.20	60647.96
574.36	60491.15
574.52	60701.79
574.68	60608.17
574.84	60753.29
575.01	60659.66
575.17	60507.53
575.33	60491.15
575.49	60427.95
575.65	60664.35
575.82	60556.68
575.98	60774.35
576.14	60828.18
576.30	60708.82
576.46	60683.07
576.62	60603.49
576.79	60708.82
576.95	60683.07
577.11	60711.16
577.27	60851.59
577.43	60872.65
577.59	60491.15
577.75	60591.79
577.92	60530.93
578.08	60530.93
578.24	60800.10
578.40	60802.44
578.56	60858.61
578.72	60699.45
578.88	60781.37
579.04	60959.25
579.21	60755.63
579.37	60825.84
579.53	61078.62
579.69	60268.79
579.85	60659.66
580.01	60762.65
580.17	60713.50
580.33	60863.29
580.49	60872.65
580.65	60877.33
580.82	60727.54
580.98	60811.80
581.14	60683.07
581.30	60919.46
581.46	60624.56
581.62	60718.18
581.78	60835.20
581.94	60835.20
582.10	60645.62
582.26	60736.90
582.42	60671.37
582.58	60699.45
582.74	60757.97
582.90	60942.87
583.06	60884.36
583.22	60633.92
583.38	60708.82
583.54	60907.76
583.70	60856.27
583.86	60764.99
584.02	60905.42
584.18	61045.85
584.34	60760.31
584.50	60825.84
584.66	60748.60
584.82	60764.99
584.98	61064.58
585.14	60811.80
585.30	60856.27
585.46	60968.61
585.62	61064.58
585.78	61125.43
585.94	60811.80
586.10	60753.29
586.26	60968.61
586.42	60814.14
586.58	60870.31
586.74	61055.21
586.90	60872.65
587.06	60961.59
587.22	60968.61
587.38	60896.06
587.54	61151.18
587.70	61146.50
587.86	60935.85
588.02	60823.50
588.18	61116.07
588.34	60893.72
588.49	60837.54
