SpectraSuite Data File
++++++++++++++++++++++++++++++++++++
Date: Fri Oct 25 11:25:40 EDT 2013
User: price-jones
Dark Spectrum Present: No
Reference Spectrum Present: No
Number of Sampled Component Spectra: 1
Spectrometers: USB2+H05261
Integration Time (usec): 100000 (USB2+H05261)
Spectra Averaged: 1 (USB2+H05261)
Boxcar Smoothing: 0 (USB2+H05261)
Correct for Electrical Dark: No (USB2+H05261)
Strobe/Lamp Enabled: No (USB2+H05261)
Correct for Detector Non-linearity: No (USB2+H05261)
Correct for Stray Light: No (USB2+H05261)
Number of Pixels in Processed Spectrum: 2048
>>>>>Begin Processed Spectral Data<<<<<
365.73	241.08
365.92	241.08
366.12	241.08
366.32	161.50
366.52	42.13
366.72	222.35
366.91	152.13
367.11	142.77
367.31	112.35
367.51	110.01
367.70	102.98
367.90	170.86
368.10	152.13
368.30	79.58
368.49	105.32
368.69	105.32
368.89	187.24
369.09	182.56
369.28	149.79
369.48	180.22
369.68	217.67
369.87	166.18
370.07	231.71
370.27	152.13
370.47	299.59
370.66	573.43
370.86	660.03
371.06	678.76
371.25	690.46
371.45	610.88
371.65	653.01
371.84	699.82
372.04	667.05
372.24	695.14
372.44	699.82
372.63	763.01
372.83	739.61
373.03	763.01
373.22	779.40
373.42	695.14
373.62	695.14
373.81	821.53
374.01	770.04
374.21	777.06
374.40	821.53
374.60	802.80
374.79	870.68
374.99	793.44
375.19	819.19
375.38	929.19
375.58	854.30
375.78	835.57
375.97	891.74
376.17	877.70
376.37	779.40
376.56	828.55
376.76	898.77
376.95	908.13
377.15	954.94
377.35	819.19
377.54	880.04
377.74	856.64
377.93	910.47
378.13	882.38
378.33	983.02
378.52	936.21
378.72	844.93
378.91	987.71
379.11	950.26
379.31	947.92
379.50	919.83
379.70	976.00
379.89	1097.71
380.09	1050.90
380.28	983.02
380.48	870.68
380.68	971.32
380.87	1039.20
381.07	1074.31
381.26	1060.26
381.46	1008.77
381.65	1006.43
381.85	1076.65
382.04	1174.95
382.24	1090.69
382.43	1111.75
382.63	1032.18
382.83	1027.50
383.02	1076.65
383.22	1057.92
383.41	1053.24
383.61	1039.20
383.80	1097.71
384.00	1167.93
384.19	1151.54
384.39	1153.88
384.58	1224.10
384.78	1142.18
384.97	1116.44
385.17	1090.69
385.36	1149.20
385.56	1214.74
385.75	1130.48
385.95	1165.59
386.14	1224.10
386.34	1280.27
386.53	1224.10
386.72	1259.21
386.92	1163.25
387.11	1165.59
387.31	1282.61
387.50	1203.04
387.70	1226.44
387.89	1299.00
388.09	1308.36
388.28	1277.93
388.48	1240.48
388.67	1242.82
388.86	1343.47
389.06	1327.08
389.25	1284.95
389.45	1296.66
389.64	1308.36
389.84	1362.19
390.03	1397.30
390.22	1341.13
390.42	1268.57
390.61	1380.92
390.81	1458.15
391.00	1359.85
391.19	1490.92
391.39	1493.26
391.58	1460.49
391.78	1563.48
391.97	1444.11
392.16	1434.75
392.36	1509.65
392.55	1556.46
392.75	1490.92
392.94	1495.60
393.13	1537.73
393.33	1409.00
393.52	1565.82
393.71	1528.37
393.91	1540.07
394.10	1614.97
394.29	1591.56
394.49	1661.78
394.68	1643.06
394.88	1629.01
395.07	1614.97
395.26	1762.42
395.46	1748.38
395.65	1708.59
395.84	1636.03
396.04	1767.10
396.23	1659.44
396.42	1685.19
396.62	1710.93
396.81	1682.85
397.00	1792.85
397.19	1722.63
397.39	1860.73
397.58	1846.68
397.77	1851.36
397.97	1860.73
398.16	1811.57
398.35	1863.07
398.55	1893.49
398.74	1881.79
398.93	1849.02
399.12	1989.46
399.32	1891.15
399.51	2012.86
399.70	2069.03
399.90	2017.54
400.09	1980.09
400.28	2029.24
400.47	1956.69
400.67	1989.46
400.86	1984.77
401.05	2181.38
401.24	2108.82
401.44	2106.48
401.63	2127.55
401.82	2169.68
402.01	2106.48
402.21	2080.74
402.40	2136.91
402.59	2146.27
402.78	2195.42
402.97	2176.70
403.17	2246.91
403.36	2202.44
403.55	2317.13
403.74	2272.66
403.93	2267.98
404.13	2244.57
404.32	2193.08
404.51	2370.96
404.70	2417.77
404.89	2354.58
405.09	2530.12
405.28	2438.84
405.47	2502.03
405.66	2431.82
405.85	2469.27
406.05	2473.95
406.24	2429.48
406.43	2462.24
406.62	2642.46
406.81	2635.44
407.00	2487.99
407.20	2502.03
407.39	2684.59
407.58	2661.19
407.77	2705.66
407.96	2635.44
408.15	2780.56
408.34	2672.89
408.54	2794.60
408.73	2848.43
408.92	2871.84
409.11	2808.64
409.30	2883.54
409.49	2808.64
409.68	2986.52
409.87	2979.50
410.07	2991.20
410.26	3049.72
410.45	2932.69
410.64	2939.71
410.83	3138.66
411.02	3101.21
411.21	3098.87
411.40	3040.36
411.59	3061.42
411.78	3117.59
411.98	3190.15
412.17	3311.86
412.36	3281.43
412.55	3382.07
412.74	3351.65
412.93	3274.41
413.12	3166.74
413.31	3461.65
413.50	3510.80
413.69	3475.70
413.88	3541.23
414.07	3522.51
414.26	3517.83
414.45	3592.72
414.64	3602.08
414.83	3744.86
415.02	3798.69
415.22	3808.05
415.41	3854.86
415.60	3770.60
415.79	3873.59
415.98	4002.32
416.17	4032.74
416.36	3927.42
416.55	3887.63
416.74	4084.23
416.93	3960.19
417.12	3983.59
417.31	4245.73
417.50	4177.86
417.69	4252.75
417.88	4329.99
418.07	4224.67
418.26	4332.33
418.45	4231.69
418.64	4423.61
418.83	4285.52
419.02	4468.08
419.21	4503.19
419.39	4500.85
419.58	4526.60
419.77	4367.44
419.96	4524.26
420.15	4477.44
420.34	4540.64
420.53	4500.85
420.72	4669.37
420.91	4723.20
421.10	4503.19
421.29	4744.27
421.48	4629.58
421.67	4634.26
421.86	4798.10
422.05	4741.93
422.24	4770.01
422.43	4915.12
422.61	4842.57
422.80	4952.57
422.99	4898.74
423.18	4933.85
423.37	4957.25
423.56	4905.76
423.75	4903.42
423.94	4849.59
424.13	4657.67
424.32	4751.29
424.50	5013.43
424.69	5095.35
424.88	5027.47
425.07	4952.57
425.26	4940.87
425.45	4954.91
425.64	4917.47
425.83	4964.28
426.01	5128.11
426.20	5057.90
426.39	4896.40
426.58	5018.11
426.77	4954.91
426.96	5193.65
427.15	5097.69
427.33	5203.01
427.52	5210.03
427.71	5224.08
427.90	5153.86
428.09	5205.35
428.28	5378.55
428.46	5394.93
428.65	5378.55
428.84	5462.81
429.03	5565.79
429.22	5411.32
429.40	5427.70
429.59	5495.58
429.78	5128.11
429.97	5289.61
430.16	5439.40
430.34	5500.26
430.53	5666.44
430.72	5668.78
430.91	5565.79
431.10	5654.73
431.28	5717.93
431.47	5734.31
431.66	5722.61
431.85	5598.56
432.03	5776.44
432.22	5795.17
432.41	5774.10
432.60	5818.57
432.79	5820.91
432.97	5921.56
433.16	5970.71
433.35	5984.75
433.54	6038.58
433.72	5954.32
433.91	6010.50
434.10	5989.43
434.28	6195.40
434.47	6010.50
434.66	6150.93
434.85	6235.19
435.03	6328.81
435.22	6399.02
435.41	6267.95
435.59	6267.95
435.78	6286.68
435.97	6300.72
436.16	6324.13
436.34	6492.65
436.53	6394.34
436.72	6588.61
436.90	6382.64
437.09	6668.19
437.28	6710.32
437.46	6710.32
437.65	6562.86
437.84	6675.21
438.02	6520.73
438.21	6715.00
438.40	6745.42
438.58	7009.90
438.77	6904.58
438.96	6832.02
439.14	7129.27
439.33	7000.54
439.52	7080.12
439.70	6986.50
439.89	7288.43
440.08	7316.51
440.26	7400.77
440.45	7281.41
440.63	7410.14
440.82	7592.70
441.01	7538.87
441.19	7595.04
441.38	7831.43
441.57	7520.14
441.75	7772.92
441.94	7939.10
442.12	7885.26
442.31	8095.91
442.50	7953.14
442.68	7719.09
442.87	7948.46
443.05	8037.40
443.24	8037.40
443.43	8229.32
443.61	8006.97
443.80	8248.05
443.98	7976.55
444.17	7985.91
444.35	8224.64
444.54	8341.67
444.73	8264.43
444.91	8259.75
445.10	8306.56
445.28	8369.76
445.47	8184.85
445.65	8329.97
445.84	8376.78
446.02	8451.67
446.21	8266.77
446.39	8294.86
446.58	8346.35
446.77	8451.67
446.95	8072.51
447.14	8292.52
447.32	8477.42
447.51	8390.82
447.69	8243.37
447.88	8505.51
448.06	8549.98
448.25	8210.60
448.43	8542.96
448.62	8730.20
448.80	8470.40
448.99	8652.96
449.17	8571.04
449.36	8468.06
449.54	8861.27
449.73	8887.01
449.91	8748.92
450.10	8959.57
450.28	9041.49
450.46	8856.59
450.65	9085.96
450.83	9095.32
451.02	9048.51
451.20	9034.47
451.39	9329.38
451.57	9004.04
451.76	9006.38
451.94	9188.94
452.13	9160.86
452.31	9263.84
452.49	9322.35
452.68	9270.86
452.86	9401.93
453.05	9308.31
453.23	9483.85
453.42	9210.01
453.60	9350.44
453.78	9486.19
453.97	9341.08
454.15	9633.64
454.34	9572.79
454.52	9736.63
454.70	9638.33
454.89	9823.23
455.07	9760.03
455.26	9708.54
455.44	9867.70
455.62	9825.57
455.81	9858.34
455.99	10052.60
456.17	9968.34
456.36	10043.24
456.54	9949.62
456.73	10356.87
456.91	10422.41
457.09	10462.19
457.28	10506.66
457.46	10307.72
457.64	10485.60
457.83	10349.85
458.01	10394.32
458.19	10665.82
458.38	10583.90
458.56	10574.54
458.74	10619.01
458.93	10693.91
459.11	10796.89
459.29	10511.35
459.48	10621.35
459.66	10743.06
459.84	10707.95
460.03	10967.75
460.21	10956.05
460.39	10974.77
460.57	10848.38
460.76	11040.31
460.94	11052.01
461.12	10911.58
461.31	11417.13
461.49	11154.99
461.67	11070.73
461.85	11412.45
462.04	11255.64
462.22	11522.46
462.40	11393.73
462.59	11335.21
462.77	11367.98
462.95	11646.51
463.13	11475.65
463.32	11604.38
463.50	11726.08
463.68	11648.85
463.86	11651.19
464.05	11669.91
464.23	11527.14
464.41	11819.71
464.59	11679.27
464.78	11946.09
464.96	12079.50
465.14	11662.89
465.32	11988.22
465.50	11903.96
465.69	12168.45
465.87	11868.86
466.05	12121.63
466.23	12044.40
466.41	12170.79
466.60	12461.01
466.78	12343.99
466.96	12170.79
467.14	12177.81
467.32	12416.54
467.51	12671.66
467.69	12105.25
467.87	12404.84
468.05	12659.96
468.23	12250.36
468.41	12620.17
468.60	12718.47
468.78	12393.14
468.96	12950.18
469.14	12659.96
469.32	12872.95
469.50	12746.56
469.69	13029.76
469.87	12931.46
470.05	12957.21
470.23	13025.08
470.41	13130.41
470.59	13252.11
470.77	12863.58
470.95	13137.43
471.14	13474.46
471.32	13116.36
471.50	13516.59
471.68	13502.55
471.86	13577.45
472.04	13607.87
472.22	13865.33
472.40	13891.08
472.58	13532.98
472.77	14078.32
472.95	13832.57
473.13	14394.29
473.31	13855.97
473.49	14078.32
473.67	14036.19
473.85	14139.18
474.03	14356.85
474.21	14635.37
474.39	14623.67
474.57	14696.22
474.75	15080.07
474.93	14944.32
475.12	14974.75
475.30	14883.47
475.48	15005.17
475.66	15386.68
475.84	15026.24
476.02	15161.99
476.20	15276.68
476.38	15531.80
476.56	15747.12
476.74	15777.55
476.92	15632.44
477.10	15651.16
477.28	16100.55
477.46	16114.59
477.64	16088.84
477.82	16545.25
478.00	16734.83
478.18	17034.42
478.36	17027.40
478.54	16985.27
478.72	17032.08
478.90	17280.18
479.08	17680.41
479.26	17549.34
479.44	17617.21
479.62	17841.90
479.80	17628.92
479.98	18031.49
480.16	18401.29
480.34	18068.94
480.52	18780.46
480.70	18251.50
480.88	18410.65
481.06	18848.33
481.24	18965.36
481.41	18792.16
481.59	19473.26
481.77	19124.52
481.95	19534.11
482.13	19466.24
482.31	19459.21
482.49	19880.51
482.67	20170.74
482.85	19969.45
483.03	20453.94
483.21	20678.63
483.39	20563.95
483.57	21076.52
483.74	20755.87
483.92	21383.13
484.10	21034.39
484.28	21722.51
484.46	21886.35
484.64	22232.75
484.82	21521.23
485.00	21921.46
485.18	22321.69
485.35	22794.48
485.53	22630.64
485.71	22831.93
485.89	23419.40
486.07	23590.26
486.25	23449.83
486.43	23168.96
486.61	23740.05
486.78	23772.82
486.96	23875.80
487.14	24589.67
487.32	24666.91
487.50	24694.99
487.68	24603.71
487.85	24943.09
488.03	25228.63
488.21	25771.64
488.39	25610.14
488.57	25844.20
488.75	25876.96
488.92	26218.68
489.10	26567.42
489.28	26279.54
489.46	27190.00
489.64	26780.41
489.81	27290.65
489.99	27531.72
490.17	27674.49
490.35	27850.03
490.53	28350.91
490.70	28009.19
490.88	28168.35
491.06	28786.25
491.24	28650.50
491.41	28563.90
491.59	29195.84
491.77	29535.22
491.95	29467.34
492.13	29179.46
492.30	29399.47
492.48	30263.13
492.66	29996.31
492.84	30270.15
493.01	30766.34
493.19	30476.12
493.37	30817.83
493.54	30558.03
493.72	31417.01
493.90	31255.51
494.08	31388.92
494.25	31791.50
494.43	32016.19
494.61	32481.95
494.79	32173.00
494.96	32156.62
495.14	32245.56
495.32	33275.40
495.49	32905.59
495.67	33095.18
495.85	33347.95
496.02	33354.97
496.20	33841.81
496.38	34167.14
496.55	33986.92
496.73	34550.99
496.91	34232.68
497.09	34539.29
497.26	34871.64
497.44	34630.57
497.62	35288.26
497.79	35686.15
497.97	35040.16
498.14	35426.35
498.32	35522.31
498.50	35971.69
498.67	36397.67
498.85	36212.77
499.03	36285.33
499.20	36149.57
499.38	36804.92
499.56	37001.53
499.73	36959.40
499.91	37261.33
500.08	37305.80
500.26	37060.04
500.44	36847.05
500.61	37261.33
500.79	37516.45
500.97	38087.54
501.14	38115.62
501.32	38419.89
501.49	38522.88
501.67	38438.62
501.84	38534.58
502.02	38597.77
502.20	38485.43
502.37	39199.29
502.55	38869.28
502.72	39468.45
502.90	39077.58
503.07	39442.71
503.25	39611.23
503.43	39550.37
503.60	39707.19
503.78	40098.06
503.95	39786.77
504.13	40013.80
504.30	40788.52
504.48	40376.58
504.65	40610.64
504.83	40910.22
505.01	41160.66
505.18	40978.10
505.36	41570.25
505.53	41476.63
505.71	41530.47
505.88	41876.86
506.06	41305.77
506.23	41722.39
506.41	41422.80
506.58	42099.22
506.76	41621.75
506.93	41993.89
507.11	42188.16
507.28	42349.65
507.46	42572.00
507.63	43063.52
507.81	42726.48
507.98	42600.09
508.16	42906.70
508.33	42887.98
508.50	43159.48
508.68	43868.66
508.85	43615.88
509.03	43199.27
509.20	43920.15
509.38	44268.89
509.55	44126.12
509.73	44231.44
509.90	44301.66
510.08	44257.19
510.25	44023.14
510.42	44666.78
510.60	44893.82
510.77	44968.71
510.95	45022.54
511.12	45010.84
511.30	44664.44
511.47	44940.63
511.64	45170.00
511.82	45516.40
511.99	45659.17
512.17	45677.90
512.34	45598.32
512.51	45993.87
512.69	46199.83
512.86	46010.25
513.04	46471.34
513.21	46691.35
513.38	46522.83
513.56	47061.15
513.73	46452.61
513.90	46469.00
514.08	46447.93
514.25	46894.97
514.43	46869.23
514.60	47239.03
514.77	47239.03
514.95	47672.03
515.12	47260.10
515.29	47187.54
515.47	47700.12
515.64	47477.77
515.81	47569.05
515.99	47760.97
516.16	48343.77
516.33	48102.69
516.51	48406.96
516.68	47861.61
516.85	48318.02
517.03	48727.61
517.20	48697.19
517.37	48397.60
517.54	48598.88
517.72	48549.73
517.89	48868.05
518.06	49015.50
518.24	49322.11
518.41	49263.60
518.58	49235.51
518.75	49368.92
518.93	49088.06
519.10	49312.75
519.27	49301.04
519.45	49460.20
519.62	49368.92
519.79	49392.33
519.96	49876.82
520.14	50110.87
520.31	49446.16
520.48	50019.59
520.65	50227.90
520.83	50342.58
521.00	50255.98
521.17	50045.33
521.34	50548.55
521.52	50578.98
521.69	50454.93
521.86	50735.79
522.03	50876.22
522.20	51234.33
522.38	51461.36
522.55	51313.90
522.72	51079.85
522.89	50646.85
523.07	51569.02
523.24	51201.56
523.41	51173.47
523.58	51278.80
523.75	51824.14
523.92	51501.15
524.10	51562.00
524.27	51765.63
524.44	51929.47
524.61	51840.53
524.78	51929.47
524.96	52095.64
525.13	52121.39
525.30	52196.29
525.47	52404.59
525.64	52135.43
525.81	52404.59
525.98	52495.88
526.16	52463.11
526.33	52346.08
526.50	52767.38
526.67	52451.41
526.84	52776.74
527.01	52746.31
527.18	52584.82
527.36	52652.69
527.53	52725.25
527.70	53453.15
527.87	53165.27
528.04	53120.80
528.21	53123.14
528.38	53193.36
528.55	53448.47
528.72	53071.65
528.89	53125.48
529.07	53162.93
529.24	53226.12
529.41	53506.99
529.58	53609.97
529.75	53738.70
529.92	53474.22
530.09	53862.75
530.26	53572.52
530.43	53862.75
530.60	53518.69
530.77	53614.65
530.94	53897.86
531.11	53925.94
531.28	54120.21
531.46	53972.75
531.63	54003.18
531.80	54066.38
531.97	54335.54
532.14	54281.70
532.31	54108.50
532.48	54370.64
532.65	54534.48
532.82	54574.27
532.99	54485.33
533.16	54382.35
533.33	54377.67
533.50	54733.43
533.67	54607.04
533.84	54372.99
534.01	54838.75
534.18	54550.87
534.35	54990.89
534.52	54600.02
534.69	54986.21
534.86	55030.68
535.03	54798.96
535.20	55150.04
535.37	55295.16
535.54	55257.71
535.71	55016.63
535.88	55374.73
536.05	55072.81
536.22	55636.87
536.38	55594.74
536.55	55274.09
536.72	55421.55
536.89	55126.64
537.06	55290.48
537.23	55550.27
537.40	55283.45
537.57	55571.34
537.74	55456.65
537.91	55697.73
538.08	55779.65
538.25	55559.64
538.42	55671.98
538.59	55828.80
538.75	55962.21
538.92	55964.55
539.09	55952.85
539.26	55941.14
539.43	55835.82
539.60	56032.42
539.77	56093.28
539.94	56341.38
540.11	56285.20
540.28	56147.11
540.44	56238.39
540.61	56151.79
540.78	56418.61
540.95	56357.76
541.12	56336.69
541.29	56385.85
541.46	56460.74
541.62	56523.94
541.79	56547.34
541.96	56465.42
542.13	56659.69
542.30	56329.67
542.47	56779.06
542.63	56807.14
542.80	56652.67
542.97	57099.71
543.14	57073.96
543.31	57052.90
543.48	57293.97
543.64	57343.12
543.81	57265.89
543.98	57279.93
544.15	57265.89
544.32	57102.05
544.48	57279.93
544.65	57088.01
544.82	57326.74
544.99	57071.62
545.16	57415.68
545.32	57083.33
545.49	57553.77
545.66	57329.08
545.83	57656.76
546.00	57595.90
546.16	57602.92
546.33	57279.93
546.50	57434.41
546.67	57513.98
546.83	57083.33
547.00	57586.54
547.17	57403.98
547.34	57663.78
547.50	57654.42
547.67	57935.28
547.84	57956.35
548.00	57968.05
548.17	58115.50
548.34	57769.10
548.51	58026.56
548.67	57963.37
548.84	57834.64
549.01	57865.06
549.18	57829.96
549.34	57979.75
549.51	58251.25
549.68	58302.74
549.84	58085.07
550.01	58262.96
550.18	58010.18
550.34	58232.53
550.51	58365.94
550.68	58178.70
550.84	58267.64
551.01	58375.30
551.18	58337.85
551.34	58230.19
551.51	58604.67
551.68	58326.15
551.84	58621.06
552.01	58342.53
552.18	58534.46
552.34	58272.32
552.51	58511.05
552.68	58408.07
552.84	58361.26
553.01	58791.92
553.18	58592.97
553.34	58890.22
553.51	58447.86
553.67	58761.49
553.84	58906.60
554.01	59030.65
554.17	58866.81
554.34	58796.60
554.51	58944.05
554.67	58880.86
554.84	58859.79
555.00	58794.26
555.17	58922.99
555.33	58948.73
555.50	58915.96
555.67	58859.79
555.83	58815.32
556.00	59152.36
556.16	59117.25
556.33	59311.52
556.50	58990.86
556.66	59217.89
556.83	58873.84
556.99	59180.45
557.16	59224.92
557.32	59135.98
557.49	59491.74
557.65	59082.14
557.82	59234.28
557.98	59091.51
558.15	59327.90
558.32	59419.18
558.48	59171.08
558.65	59391.09
558.81	59353.65
558.98	59370.03
559.14	59604.08
559.31	59543.23
559.47	59611.10
559.64	59370.03
559.80	59592.38
559.97	59587.70
560.13	59444.93
560.30	59540.89
560.46	59508.12
560.63	59622.81
560.79	59524.50
560.96	59702.38
561.12	59587.70
561.29	59664.94
561.45	59880.27
561.61	59540.89
561.78	59564.29
561.94	59568.97
562.11	59412.16
562.27	59891.97
562.44	59805.37
562.60	59985.59
562.77	59828.77
562.93	59643.87
563.10	59873.24
563.26	59800.69
563.42	59966.87
563.59	59901.33
563.75	59821.75
563.92	59915.37
564.08	59924.74
564.24	60020.70
564.41	59936.44
564.57	60060.49
564.74	59915.37
564.90	60013.68
565.07	59917.71
565.23	59908.35
565.39	59831.11
565.56	60121.34
565.72	59819.41
565.88	60037.08
566.05	59688.34
566.21	60224.32
566.38	60109.64
566.54	60126.02
566.70	59969.21
566.87	60247.73
567.03	59920.05
567.19	60182.19
567.36	60060.49
567.52	60273.48
567.68	60594.13
567.85	60250.07
568.01	60296.88
568.17	60058.15
568.34	60168.15
568.50	60369.44
568.66	60240.71
568.83	60430.29
568.99	60224.32
569.15	60252.41
569.32	60060.49
569.48	60254.75
569.64	60287.52
569.81	60133.04
569.97	60048.78
570.13	60381.14
570.30	60434.97
570.46	60186.88
570.62	60079.21
570.78	60477.10
570.95	60198.58
571.11	60537.96
571.27	60313.26
571.43	60441.99
571.60	60582.43
571.76	60420.93
571.92	60507.53
572.09	60575.40
572.25	60444.33
572.41	60432.63
572.57	60533.28
572.74	60610.51
572.90	60238.37
573.06	60472.42
573.22	60528.59
573.38	60584.77
573.55	60505.19
573.71	60762.65
573.87	60591.79
574.03	60416.25
574.20	60523.91
574.36	60460.72
574.52	60762.65
574.68	60591.79
574.84	60474.76
575.01	60640.94
575.17	60355.39
575.33	60662.00
575.49	60427.95
575.65	60498.17
575.82	60582.43
575.98	60727.54
576.14	60893.72
576.30	60711.16
576.46	60502.85
576.62	60580.09
576.79	60566.04
576.95	60507.53
577.11	60622.22
577.27	60762.65
577.43	60589.45
577.59	60727.54
577.75	60535.62
577.92	60577.75
578.08	60673.71
578.24	60727.54
578.40	60860.95
578.56	60933.51
578.72	60495.83
578.88	60715.84
579.04	60924.14
579.21	60736.90
579.37	60942.87
579.53	60921.80
579.69	60570.72
579.85	60512.21
580.01	60720.52
580.17	60715.84
580.33	60788.39
580.49	60926.49
580.65	60652.64
580.82	60715.84
580.98	60788.39
581.14	60734.56
581.30	60760.31
581.46	60762.65
581.62	60767.33
581.78	60654.98
581.94	60844.57
582.10	60842.23
582.26	60671.37
582.42	60743.92
582.58	60748.60
582.74	60706.47
582.90	60844.57
583.06	60837.54
583.22	60746.26
583.38	60874.99
583.54	60940.53
583.70	60779.03
583.86	60783.71
584.02	60626.90
584.18	60837.54
584.34	60708.82
584.50	60729.88
584.66	60662.00
584.82	60633.92
584.98	60959.25
585.14	60985.00
585.30	60603.49
585.46	60905.42
585.62	60795.42
585.78	60926.49
585.94	60753.29
586.10	60924.14
586.26	60846.91
586.42	61034.15
586.58	60830.52
586.74	60851.59
586.90	60898.40
587.06	60938.19
587.22	61064.58
587.38	60952.23
587.54	61038.83
587.70	61013.08
587.86	61048.19
588.02	60837.54
588.18	60975.64
588.34	60882.02
588.49	60931.17
