SpectraSuite Data File
++++++++++++++++++++++++++++++++++++
Date: Fri Oct 25 10:47:13 EDT 2013
User: price-jones
Dark Spectrum Present: No
Reference Spectrum Present: No
Number of Sampled Component Spectra: 1
Spectrometers: USB2+H05261
Integration Time (usec): 100000 (USB2+H05261)
Spectra Averaged: 1 (USB2+H05261)
Boxcar Smoothing: 0 (USB2+H05261)
Correct for Electrical Dark: No (USB2+H05261)
Strobe/Lamp Enabled: No (USB2+H05261)
Correct for Detector Non-linearity: No (USB2+H05261)
Correct for Stray Light: No (USB2+H05261)
Number of Pixels in Processed Spectrum: 2048
>>>>>Begin Processed Spectral Data<<<<<
365.73	95.96
365.92	95.96
366.12	95.96
366.32	2.34
366.52	100.64
366.72	86.60
366.91	81.92
367.11	84.26
367.31	79.58
367.51	25.75
367.70	23.41
367.90	16.38
368.10	2.34
368.30	60.85
368.49	119.37
368.69	128.73
368.89	100.64
369.09	56.17
369.28	79.58
369.48	84.26
369.68	105.32
369.87	86.60
370.07	49.15
370.27	156.82
370.47	217.67
370.66	327.68
370.86	393.21
371.06	475.13
371.25	463.43
371.45	475.13
371.65	433.00
371.84	437.68
372.04	402.57
372.24	418.96
372.44	517.26
372.63	550.03
372.83	498.53
373.03	543.00
373.22	512.58
373.42	435.34
373.62	512.58
373.81	496.19
374.01	535.98
374.21	552.37
374.40	521.94
374.60	552.37
374.79	552.37
374.99	475.13
375.19	498.53
375.38	573.43
375.58	561.73
375.78	624.92
375.97	547.69
376.17	622.58
376.37	589.82
376.56	533.64
376.76	531.30
376.95	531.30
377.15	514.92
377.35	657.69
377.54	669.39
377.74	610.88
377.93	634.29
378.13	566.41
378.33	655.35
378.52	594.50
378.72	669.39
378.91	596.84
379.11	606.20
379.31	561.73
379.50	559.39
379.70	734.93
379.89	638.97
380.09	645.99
380.28	592.16
380.48	610.88
380.68	578.11
380.87	601.52
381.07	620.24
381.26	664.71
381.46	690.46
381.65	636.63
381.85	653.01
382.04	589.82
382.24	657.69
382.43	587.47
382.63	697.48
382.83	716.20
383.02	767.70
383.22	711.52
383.41	641.31
383.61	634.29
383.80	685.78
384.00	629.60
384.19	716.20
384.39	741.95
384.58	755.99
384.78	737.27
384.97	678.76
385.17	678.76
385.36	767.70
385.56	702.16
385.75	704.50
385.95	737.27
386.14	821.53
386.34	805.14
386.53	835.57
386.72	746.63
386.92	875.36
387.11	889.40
387.31	746.63
387.50	709.18
387.70	763.01
387.89	781.74
388.09	816.85
388.28	802.80
388.48	765.36
388.67	833.23
388.86	898.77
389.06	901.11
389.25	896.43
389.45	896.43
389.64	795.78
389.84	896.43
390.03	964.30
390.22	858.98
390.42	821.53
390.61	912.81
390.81	849.61
391.00	854.30
391.19	959.62
391.39	943.24
391.58	898.77
391.78	947.92
391.97	968.98
392.16	952.60
392.36	954.94
392.55	1027.50
392.75	987.71
392.94	933.87
393.13	978.34
393.33	966.64
393.52	994.73
393.71	980.68
393.91	983.02
394.10	1025.15
394.29	987.71
394.49	1020.47
394.68	1050.90
394.88	1053.24
395.07	936.21
395.26	1015.79
395.46	1053.24
395.65	1109.41
395.84	1057.92
396.04	1074.31
396.23	1057.92
396.42	1125.80
396.62	1114.10
396.81	1083.67
397.00	1128.14
397.19	1170.27
397.39	1163.25
397.58	1088.35
397.77	1245.16
397.97	1254.53
398.16	1231.12
398.35	1259.21
398.55	1270.91
398.74	1401.98
398.93	1242.82
399.12	1320.06
399.32	1228.78
399.51	1296.66
399.70	1317.72
399.90	1322.40
400.09	1397.30
400.28	1359.85
400.47	1343.47
400.67	1385.60
400.86	1376.24
401.05	1390.28
401.24	1369.21
401.44	1380.92
401.63	1392.62
401.82	1467.52
402.01	1413.68
402.21	1481.56
402.40	1474.54
402.59	1472.20
402.78	1497.94
402.97	1462.83
403.17	1500.28
403.36	1584.54
403.55	1528.37
403.74	1600.93
403.93	1544.75
404.13	1668.80
404.32	1629.01
404.51	1589.22
404.70	1575.18
404.89	1692.21
405.09	1687.53
405.28	1647.74
405.47	1713.27
405.66	1593.90
405.85	1675.82
406.05	1645.40
406.24	1792.85
406.43	1757.74
406.62	1682.85
406.81	1799.87
407.00	1827.96
407.20	1675.82
407.39	1790.51
407.58	1858.39
407.77	1895.83
407.96	1987.11
408.15	1886.47
408.34	2017.54
408.54	1966.05
408.73	1952.01
408.92	1947.33
409.11	1982.43
409.30	1830.30
409.49	1944.99
409.68	1989.46
409.87	1973.07
410.07	2001.16
410.26	1975.41
410.45	2097.12
410.64	2071.37
410.83	2179.04
411.02	2073.71
411.21	2129.89
411.40	2197.76
411.59	2242.23
411.78	2249.25
411.98	2221.17
412.17	2289.04
412.36	2436.50
412.55	2239.89
412.74	2300.75
412.93	2298.41
413.12	2251.60
413.31	2459.90
413.50	2438.84
413.69	2466.92
413.88	2616.72
414.07	2492.67
414.26	2532.46
414.45	2518.42
414.64	2534.80
414.83	2595.65
415.02	2600.34
415.22	2595.65
415.41	2682.25
415.60	2647.15
415.79	2689.28
415.98	2843.75
416.17	2895.24
416.36	2771.19
416.55	2679.91
416.74	2789.92
416.93	2736.09
417.12	2986.52
417.31	2916.31
417.50	2909.29
417.69	2949.08
417.88	2897.58
418.07	2984.18
418.26	3028.65
418.45	3073.12
418.64	3038.02
418.83	3119.93
419.02	3098.87
419.21	3045.04
419.39	3136.32
419.58	3052.06
419.77	2965.46
419.96	3208.87
420.15	3173.77
420.34	3183.13
420.53	3173.77
420.72	3115.25
420.91	3103.55
421.10	3274.41
421.29	3330.58
421.48	3288.45
421.67	3187.81
421.86	3251.00
422.05	3225.26
422.24	3288.45
422.43	3290.79
422.61	3417.18
422.80	3377.39
422.99	3346.97
423.18	3428.88
423.37	3363.35
423.56	3309.52
423.75	3375.05
423.94	3370.37
424.13	3143.34
424.32	3339.94
424.50	3438.25
424.69	3576.34
424.88	3569.32
425.07	3361.01
425.26	3328.24
425.45	3384.41
425.64	3463.99
425.83	3440.59
426.01	3431.23
426.20	3531.87
426.39	3400.80
426.58	3508.46
426.77	3489.74
426.96	3520.17
427.15	3616.13
427.33	3625.49
427.52	3559.95
427.71	3562.30
427.90	3737.84
428.09	3653.58
428.28	3604.42
428.46	3639.53
428.65	3681.66
428.84	3822.09
429.03	3712.09
429.22	3581.02
429.40	3761.24
429.59	3749.54
429.78	3473.36
429.97	3616.13
430.16	3653.58
430.34	3721.45
430.53	3735.50
430.72	3941.46
430.91	3798.69
431.10	3826.78
431.28	3899.33
431.47	3962.53
431.66	3941.46
431.85	3936.78
432.03	4203.60
432.22	4177.86
432.41	4084.23
432.60	4114.66
432.79	4091.26
432.97	4182.54
433.16	4093.60
433.35	3978.91
433.54	4184.88
433.72	4175.52
433.91	4285.52
434.10	4322.97
434.28	4121.68
434.47	4285.52
434.66	4259.78
434.85	4414.25
435.03	4304.25
435.22	4332.33
435.41	4409.57
435.59	4222.33
435.78	4444.68
435.97	4486.81
436.16	4355.74
436.34	4479.79
436.53	4322.97
436.72	4566.39
436.90	4432.97
437.09	4496.17
437.28	4470.42
437.46	4617.88
437.65	4479.79
437.84	4465.74
438.02	4561.70
438.21	4669.37
438.40	4461.06
438.58	4718.52
438.77	4856.61
438.96	4716.18
439.14	4880.02
439.33	4901.08
439.52	4870.65
439.70	4940.87
439.89	5053.22
440.08	4936.19
440.26	5015.77
440.45	5046.20
440.63	5050.88
440.82	5130.45
441.01	5291.95
441.19	5212.37
441.38	5273.23
441.57	5291.95
441.75	5390.25
441.94	5296.63
442.12	5591.54
442.31	5586.86
442.50	5401.96
442.68	5408.98
442.87	5493.24
443.05	5582.18
443.24	5579.84
443.43	5556.43
443.61	5572.82
443.80	5638.35
443.98	5556.43
444.17	5345.78
444.35	5540.05
444.54	5785.80
444.73	5586.86
444.91	5607.92
445.10	5895.81
445.28	5720.27
445.47	5526.00
445.65	5799.85
445.84	5827.93
446.02	5748.36
446.21	5764.74
446.39	5729.63
446.58	5951.98
446.77	5722.61
446.95	5694.52
447.14	5870.06
447.32	5825.59
447.51	5841.98
447.69	5870.06
447.88	5790.49
448.06	5802.19
448.25	5706.23
448.43	5806.87
448.62	5706.23
448.80	5673.46
448.99	5895.81
449.17	5841.98
449.36	5937.94
449.54	6031.56
449.73	6209.44
449.91	6223.48
450.10	6307.74
450.28	6260.93
450.46	6078.37
450.65	6333.49
450.83	6122.84
451.02	6176.67
451.20	6129.86
451.39	6272.64
451.57	6101.78
451.76	6267.95
451.94	6260.93
452.13	6347.53
452.31	6279.66
452.49	6183.70
452.68	6424.77
452.86	6389.66
453.05	6289.02
453.23	6382.64
453.42	6410.73
453.60	6417.75
453.78	6478.60
453.97	6333.49
454.15	6384.98
454.34	6438.81
454.52	6609.67
454.70	6518.39
454.89	6712.66
455.07	6740.74
455.26	6602.65
455.44	6787.55
455.62	6658.82
455.81	6675.21
455.99	6754.79
456.17	6846.07
456.36	6796.92
456.54	6972.46
456.73	7002.88
456.91	7129.27
457.09	7148.00
457.28	7283.75
457.46	6939.69
457.64	7133.95
457.83	7162.04
458.01	6944.37
458.19	7112.89
458.38	6925.65
458.56	7173.74
458.74	7241.62
458.93	7356.30
459.11	7297.79
459.29	7253.32
459.48	7391.41
459.66	7386.73
459.84	7309.49
460.03	7393.75
460.21	7407.80
460.39	7328.22
460.57	7428.86
460.76	7473.33
460.94	7524.82
461.12	7644.19
461.31	7482.69
461.49	7552.91
461.67	7456.95
461.85	7658.23
462.04	7536.52
462.22	8215.28
462.40	7920.37
462.59	7798.66
462.77	7646.53
462.95	7683.98
463.13	7714.41
463.32	7791.64
463.50	8053.78
463.68	8074.85
463.86	7836.11
464.05	7693.34
464.23	7894.63
464.41	8114.64
464.59	7894.63
464.78	8098.25
464.96	7901.65
465.14	7957.82
465.32	8255.07
465.50	8262.09
465.69	8266.77
465.87	8173.15
466.05	8322.94
466.23	8222.30
466.41	8222.30
466.60	8290.18
466.78	8189.53
466.96	8121.66
467.14	8152.09
467.32	8409.54
467.51	8381.46
467.69	8170.81
467.87	8439.97
468.05	8379.12
468.23	8482.10
468.41	8226.98
468.60	8365.07
468.78	8482.10
468.96	8549.98
469.14	8664.66
469.32	8526.57
469.50	8367.42
469.69	8599.13
469.87	8552.32
470.05	8557.00
470.23	8578.06
470.41	8837.86
470.59	8842.54
470.77	8727.86
470.95	8840.20
471.14	8711.47
471.32	8851.91
471.50	9139.79
471.68	9006.38
471.86	9149.15
472.04	9139.79
472.22	9172.56
472.40	9193.62
472.58	8990.00
472.77	9174.90
472.95	9308.31
473.13	9757.69
473.31	9430.02
473.49	9427.68
473.67	9378.53
473.85	9437.04
474.03	9806.84
474.21	9671.09
474.39	9919.19
474.57	9626.62
474.75	9884.08
474.93	9717.90
475.12	10008.13
475.30	9937.91
475.48	10031.54
475.66	10195.37
475.84	9958.98
476.02	10078.35
476.20	10052.60
476.38	10443.47
476.56	10368.57
476.74	10471.56
476.92	10574.54
477.10	10448.15
477.28	10597.95
477.46	10541.77
477.64	10862.43
477.82	10757.10
478.00	11178.40
478.18	10993.50
478.36	11204.14
478.54	11318.83
478.72	11297.77
478.90	11538.84
479.08	11393.73
479.26	11833.75
479.44	11573.95
479.62	11906.31
479.80	11800.98
479.98	11810.34
480.16	12025.67
480.34	12088.87
480.52	12217.60
480.70	12189.51
480.88	12049.08
481.06	12231.64
481.24	12416.54
481.41	12421.22
481.59	12709.11
481.77	12690.38
481.95	12849.54
482.13	13069.55
482.31	12858.90
482.49	13500.21
482.67	13011.04
482.85	13415.95
483.03	13610.22
483.21	13523.62
483.39	13731.92
483.57	14024.49
483.74	13902.78
483.92	13846.61
484.10	13652.34
484.28	14148.54
484.46	14368.55
484.64	14497.28
484.82	14335.78
485.00	14436.42
485.18	14438.76
485.35	15070.71
485.53	14855.38
485.71	14927.94
485.89	14965.39
486.07	15199.44
486.25	14974.75
486.43	15297.74
486.61	15428.81
486.78	15651.16
486.96	15421.79
487.14	15868.83
487.32	15995.22
487.50	16018.63
487.68	16037.35
487.85	16608.44
488.03	16650.57
488.21	16652.91
488.39	16823.77
488.57	16690.36
488.75	16648.23
488.92	17247.41
489.10	17394.86
489.28	17142.08
489.46	17387.84
489.64	17406.56
489.81	18019.78
489.99	18209.37
490.17	17989.36
490.35	18113.41
490.53	18504.28
490.70	18436.40
490.88	18342.78
491.06	18616.62
491.24	18738.33
491.41	18525.34
491.59	19035.58
491.77	18979.40
491.95	19248.57
492.13	19271.97
492.30	19719.01
492.48	19459.21
492.66	19669.86
492.84	19634.75
493.01	19814.98
493.19	19702.63
493.37	19885.19
493.54	20259.68
493.72	20346.28
493.90	20308.83
494.08	20819.07
494.25	20877.58
494.43	20706.72
494.61	20959.50
494.79	21013.33
494.96	21034.39
495.14	20992.26
495.32	21596.12
495.49	21596.12
495.67	21539.95
495.85	21546.97
496.02	21537.61
496.20	21876.99
496.38	21757.62
496.55	22104.02
496.73	22558.08
496.91	22267.86
497.09	22181.26
497.26	22583.83
497.44	22443.40
497.62	23014.49
497.79	22801.50
497.97	22934.91
498.14	23065.98
498.32	22829.59
498.50	23171.30
498.67	23548.13
498.85	23159.60
499.03	23611.32
499.20	23630.05
499.38	23803.25
499.56	23847.72
499.73	24006.87
499.91	23723.67
500.08	24201.14
500.26	23814.95
500.44	24208.16
500.61	24273.70
500.79	23894.53
500.97	24467.96
501.14	24587.33
501.32	24884.58
501.49	24554.56
501.67	24692.65
501.84	24877.55
502.02	24992.24
502.20	25156.08
502.37	25022.67
502.55	25460.35
502.72	25401.83
502.90	25411.20
503.07	25390.13
503.25	25928.45
503.43	25479.07
503.60	25895.69
503.78	25661.63
503.95	25598.44
504.13	25811.43
504.30	26078.25
504.48	26202.30
504.65	26150.81
504.83	26157.83
505.01	26363.79
505.18	26569.76
505.36	26448.05
505.53	26768.71
505.71	26714.87
505.88	26822.54
506.06	26686.79
506.23	26948.93
506.41	26801.47
506.58	27161.92
506.76	27468.53
506.93	27374.91
507.11	26962.97
507.28	27321.07
507.46	27623.00
507.63	27938.97
507.81	27821.95
507.98	27681.52
508.16	27641.73
508.33	27941.32
508.50	28086.43
508.68	28280.69
508.85	28575.60
509.03	28191.75
509.20	28231.54
509.38	28444.53
509.55	28554.54
509.73	28573.26
509.90	28582.62
510.08	28526.45
510.25	28683.27
510.42	28760.50
510.60	28842.42
510.77	29153.71
510.95	29298.83
511.12	28788.59
511.30	29200.52
511.47	29289.46
511.64	29635.86
511.82	29830.13
511.99	29490.75
512.17	29773.95
512.34	29390.11
512.51	30029.07
512.69	29982.26
512.86	29841.83
513.04	29975.24
513.21	30249.08
513.38	29766.93
513.56	29914.39
513.73	29886.30
513.90	30478.46
514.08	29895.66
514.25	30443.35
514.43	30370.79
514.60	30438.67
514.77	30525.27
514.95	30864.64
515.12	30726.55
515.29	30724.21
515.47	30979.33
515.64	31222.75
515.81	31051.89
515.99	31206.36
516.16	31225.09
516.33	31468.50
516.51	31433.39
516.68	31192.32
516.85	30944.22
517.03	31229.77
517.20	31709.58
517.37	31332.75
517.54	31906.18
517.72	31749.37
517.89	31641.70
518.06	31967.04
518.24	31704.90
518.41	31999.80
518.58	31873.42
518.75	31620.64
518.93	32098.11
519.10	31950.65
519.27	32751.12
519.45	32116.83
519.62	32102.79
519.79	32584.94
519.96	32701.96
520.14	32758.14
520.31	32716.01
520.48	32933.68
520.65	32835.38
520.83	32744.09
521.00	32982.83
521.17	33298.80
521.34	32889.21
521.52	33165.39
521.69	33120.92
521.86	33516.47
522.03	33219.22
522.20	33766.91
522.38	34108.63
522.55	33872.23
522.72	33432.21
522.89	33837.12
523.07	34099.26
523.24	33677.97
523.41	34345.02
523.58	33818.40
523.75	34169.48
523.92	34569.71
524.10	34106.29
524.27	34628.23
524.44	34340.34
524.61	34611.84
524.78	34609.50
524.96	34527.58
525.13	34609.50
525.30	35112.72
525.47	34899.73
525.64	34838.87
525.81	34960.58
525.98	35180.59
526.16	34859.94
526.33	34733.55
526.50	35150.17
526.67	35005.05
526.84	34707.80
527.01	35204.00
527.18	35311.66
527.36	35199.32
527.53	35538.69
527.70	35866.37
527.87	35873.39
528.04	35349.11
528.21	35611.25
528.38	35569.12
528.55	36208.09
528.72	36093.40
528.89	35810.20
529.07	35920.20
529.24	35864.03
529.41	35995.10
529.58	35967.01
529.75	35938.93
529.92	36149.57
530.09	36315.75
530.26	36327.45
530.43	36467.89
530.60	36542.78
530.77	35981.06
530.94	36704.28
531.11	36308.73
531.28	36627.04
531.46	36414.05
531.63	36814.29
531.80	36708.96
531.97	36634.06
532.14	36814.29
532.31	36573.21
532.48	37219.20
532.65	37230.90
532.82	37092.81
532.99	37151.32
533.16	36648.11
533.33	37186.43
533.50	37261.33
533.67	37373.67
533.84	37137.28
534.01	37319.84
534.18	37546.87
534.35	37734.12
534.52	37392.40
534.69	37418.14
534.86	37397.08
535.03	37656.88
535.20	37579.64
535.37	38052.43
535.54	37809.01
535.71	38216.27
535.88	38036.05
536.05	37848.80
536.22	38469.04
536.38	38305.21
536.55	38419.89
536.72	38106.26
536.89	37825.40
537.06	38352.02
537.23	38513.52
537.40	37993.92
537.57	38354.36
537.74	38550.96
537.91	38866.94
538.08	38658.63
538.25	38157.75
538.42	38403.51
538.59	38850.55
538.75	37965.83
538.92	38546.28
539.09	38955.88
539.26	38555.64
539.43	38703.10
539.60	38902.04
539.77	38728.84
539.94	39065.88
540.11	38890.34
540.28	38712.46
540.44	38815.44
540.61	38693.74
540.78	38761.61
540.95	39194.61
541.12	38770.97
541.29	38883.32
541.46	39278.87
541.62	39297.59
541.79	39459.09
541.96	39122.05
542.13	39578.46
542.30	39285.89
542.47	39447.39
542.63	39419.30
542.80	39597.18
542.97	40074.65
543.14	40177.64
543.31	39952.94
543.48	39929.54
543.64	40568.51
543.81	40275.94
543.98	39957.63
544.15	40273.60
544.32	40135.51
544.48	40554.46
544.65	40161.25
544.82	40018.48
544.99	40020.82
545.16	40282.96
545.32	40392.97
545.49	40158.91
545.66	40849.37
545.83	40861.07
546.00	40999.16
546.16	41263.64
546.33	40130.83
546.50	40081.67
546.67	40877.46
546.83	40128.48
547.00	40266.58
547.17	40669.15
547.34	40453.82
547.50	40627.02
547.67	41193.43
547.84	41186.41
548.00	41024.91
548.17	41345.56
548.34	40605.95
548.51	41380.67
548.67	40938.31
548.84	41673.24
549.01	40926.61
549.18	41111.51
549.34	41270.67
549.51	41394.71
549.68	41462.59
549.84	41322.16
550.01	41345.56
550.18	41453.23
550.34	41411.10
550.51	41237.90
550.68	41265.99
550.84	41474.29
551.01	41560.89
551.18	41834.74
551.34	41797.29
551.51	41752.82
551.68	41579.62
551.84	41977.51
552.01	41738.77
552.18	41918.99
552.34	42021.98
552.51	41745.80
552.68	41937.72
552.84	42094.53
553.01	42139.00
553.18	42021.98
553.34	42129.64
553.51	42010.28
553.67	41890.91
553.84	42447.96
554.01	42071.13
554.17	42424.55
554.34	42759.25
554.51	42157.73
554.67	42391.78
554.84	42391.78
555.00	42206.88
555.17	41848.78
555.33	42314.55
555.50	42436.25
555.67	42202.20
555.83	42405.83
556.00	42550.94
556.16	42454.98
556.33	42941.81
556.50	42635.20
556.66	42815.42
556.83	42162.41
556.99	43019.05
557.16	42895.00
557.32	43159.48
557.49	42979.26
557.65	42267.73
557.82	42600.09
557.98	42794.36
558.15	43232.04
558.32	42794.36
558.48	43023.73
558.65	42951.17
558.81	42658.60
558.98	42642.22
559.14	42953.51
559.31	42974.58
559.47	42618.81
559.64	43040.11
559.80	43023.73
559.97	43182.88
560.13	42972.24
560.30	43110.33
560.46	42887.98
560.63	43203.95
560.79	43323.32
560.96	43882.70
561.12	42848.19
561.29	42986.28
561.45	43033.09
561.61	43243.74
561.78	43475.45
561.94	42829.46
562.11	43103.31
562.27	43416.94
562.44	43023.73
562.60	43107.99
562.77	43615.88
562.93	43246.08
563.10	43440.34
563.26	43349.06
563.42	43550.35
563.59	43573.75
563.75	43180.54
563.92	43819.51
564.08	43093.94
564.24	43468.43
564.41	43688.44
564.57	43728.23
564.74	43871.00
564.90	43749.29
565.07	43309.27
565.23	43721.21
565.39	43679.08
565.56	44158.89
565.72	43192.25
565.88	43878.02
566.05	43730.57
566.21	43320.98
566.38	43613.54
566.54	43498.86
566.70	43580.78
566.87	44086.33
567.03	43613.54
567.19	43866.32
567.36	43826.53
567.52	43482.47
567.68	43981.01
567.85	43587.80
568.01	43672.06
568.17	43466.09
568.34	43718.87
568.50	43578.43
568.66	43721.21
568.83	43665.03
568.99	43583.12
569.15	44067.61
569.32	44041.86
569.48	43550.35
569.64	44065.27
569.81	44044.20
569.97	43803.13
570.13	44133.14
570.30	43878.02
570.46	43681.42
570.62	43569.07
570.78	44053.56
570.95	44189.31
571.11	44072.29
571.27	44074.63
571.43	43658.01
571.60	43863.98
571.76	43686.10
571.92	43611.20
572.09	43985.69
572.25	43739.93
572.41	43800.79
572.57	44041.86
572.74	44175.27
572.90	43887.39
573.06	43981.01
573.22	43735.25
573.38	43990.37
573.55	43964.62
573.71	44030.16
573.87	43894.41
574.03	43695.46
574.20	43758.66
574.36	43859.30
574.52	44231.44
574.68	43920.15
574.84	44217.40
575.01	44123.78
575.17	43828.87
575.33	43634.61
575.49	44177.61
575.65	44367.20
575.82	44467.84
575.98	44053.56
576.14	44301.66
576.30	44458.48
576.46	43753.97
576.62	43917.81
576.79	44252.51
576.95	43611.20
577.11	44027.82
577.27	44507.63
577.43	44229.10
577.59	44198.68
577.75	44079.31
577.92	44048.88
578.08	43648.65
578.24	44210.38
578.40	44446.77
578.56	44243.15
578.72	44135.48
578.88	44643.38
579.04	43981.01
579.21	43950.58
579.37	44179.95
579.53	44212.72
579.69	43882.70
579.85	44332.09
580.01	44404.64
580.17	44608.27
580.33	44357.83
580.49	44912.54
580.65	44313.36
580.82	44226.76
580.98	43945.90
581.14	44266.55
581.30	44409.32
581.46	44507.63
581.62	44463.16
581.78	44123.78
581.94	44816.58
582.10	44582.52
582.26	44467.84
582.42	44348.47
582.58	44570.82
582.74	44194.00
582.90	44114.42
583.06	44755.72
583.22	44444.43
583.38	44603.59
583.54	43868.66
583.70	44201.02
583.86	44203.36
584.02	44095.69
584.18	44395.28
584.34	44584.86
584.50	44545.08
584.66	44397.62
584.82	44004.41
584.98	44474.86
585.14	44299.32
585.30	44217.40
585.46	44601.25
585.62	44105.06
585.78	44065.27
585.94	44013.77
586.10	44453.79
586.26	44294.64
586.42	44531.03
586.58	44456.14
586.74	44278.25
586.90	44226.76
587.06	44030.16
587.22	44535.71
587.38	43934.20
587.54	44629.34
587.70	44449.11
587.86	44411.67
588.02	44587.21
588.18	44563.80
588.34	44095.69
588.49	44191.65
588.65	44664.44
588.81	43990.37
588.97	44423.37
589.13	43997.39
589.29	44179.95
589.45	44636.36
589.61	44226.76
589.77	44985.10
589.93	44519.33
590.08	44704.23
590.24	44734.66
590.40	44776.79
