SpectraSuite Data File
++++++++++++++++++++++++++++++++++++
Date: Fri Oct 25 10:44:12 EDT 2013
User: price-jones
Dark Spectrum Present: No
Reference Spectrum Present: No
Number of Sampled Component Spectra: 1
Spectrometers: USB2+H05261
Integration Time (usec): 100000 (USB2+H05261)
Spectra Averaged: 1 (USB2+H05261)
Boxcar Smoothing: 0 (USB2+H05261)
Correct for Electrical Dark: No (USB2+H05261)
Strobe/Lamp Enabled: No (USB2+H05261)
Correct for Detector Non-linearity: No (USB2+H05261)
Correct for Stray Light: No (USB2+H05261)
Number of Pixels in Processed Spectrum: 2048
>>>>>Begin Processed Spectral Data<<<<<
365.73	117.03
365.92	117.03
366.12	117.03
366.32	9.36
366.52	37.45
366.72	0.00
366.91	0.00
367.11	0.00
367.31	7.02
367.51	39.79
367.70	0.00
367.90	21.06
368.10	58.51
368.30	51.49
368.49	0.00
368.69	32.77
368.89	58.51
369.09	25.75
369.28	18.72
369.48	0.00
369.68	81.92
369.87	70.22
370.07	93.62
370.27	117.03
370.47	168.52
370.66	400.23
370.86	376.83
371.06	355.76
371.25	395.55
371.45	430.66
371.65	454.06
371.84	407.25
372.04	421.30
372.24	496.19
372.44	512.58
372.63	521.94
372.83	482.15
373.03	531.30
373.22	465.77
373.42	547.69
373.62	561.73
373.81	500.87
374.01	589.82
374.21	580.45
374.40	533.64
374.60	615.56
374.79	608.54
374.99	627.26
375.19	599.18
375.38	594.50
375.58	559.39
375.78	643.65
375.97	615.56
376.17	657.69
376.37	538.32
376.56	671.73
376.76	596.84
376.95	641.31
377.15	638.97
377.35	662.37
377.54	631.94
377.74	624.92
377.93	692.80
378.13	662.37
378.33	650.67
378.52	648.33
378.72	648.33
378.91	723.23
379.11	641.31
379.31	568.75
379.50	608.54
379.70	695.14
379.89	704.50
380.09	697.48
380.28	681.10
380.48	732.59
380.68	746.63
380.87	617.90
381.07	781.74
381.26	786.42
381.46	704.50
381.65	695.14
381.85	725.57
382.04	674.07
382.24	751.31
382.43	702.16
382.63	664.71
382.83	753.65
383.02	674.07
383.22	744.29
383.41	692.80
383.61	716.20
383.80	748.97
384.00	816.85
384.19	765.36
384.39	814.51
384.58	884.72
384.78	919.83
384.97	777.06
385.17	777.06
385.36	748.97
385.56	812.17
385.75	758.33
385.95	873.02
386.14	898.77
386.34	828.55
386.53	863.66
386.72	781.74
386.92	795.78
387.11	861.32
387.31	844.93
387.50	802.80
387.70	905.79
387.89	800.46
388.09	887.06
388.28	863.66
388.48	802.80
388.67	880.04
388.86	1011.11
389.06	954.94
389.25	1029.84
389.45	898.77
389.64	987.71
389.84	1029.84
390.03	1029.84
390.22	1008.77
390.42	992.39
390.61	903.45
390.81	1048.56
391.00	1053.24
391.19	1078.99
391.39	1071.97
391.58	1069.62
391.78	1050.90
391.97	1027.50
392.16	997.07
392.36	1055.58
392.55	1041.54
392.75	1048.56
392.94	915.15
393.13	966.64
393.33	1015.79
393.52	968.98
393.71	1053.24
393.91	1146.86
394.10	1090.69
394.29	1149.20
394.49	1118.78
394.68	1186.65
394.88	1233.46
395.07	1226.44
395.26	1303.68
395.46	1233.46
395.65	1296.66
395.84	1235.80
396.04	1249.85
396.23	1181.97
396.42	1174.95
396.62	1198.35
396.81	1156.22
397.00	1226.44
397.19	1249.85
397.39	1277.93
397.58	1394.96
397.77	1397.30
397.97	1355.17
398.16	1413.68
398.35	1519.01
398.55	1444.11
398.74	1465.18
398.93	1561.14
399.12	1514.33
399.32	1472.20
399.51	1490.92
399.70	1462.83
399.90	1558.80
400.09	1687.53
400.28	1722.63
400.47	1551.78
400.67	1572.84
400.86	1682.85
401.05	1771.79
401.24	1661.78
401.44	1778.81
401.63	1701.57
401.82	1753.06
402.01	1720.29
402.21	1533.05
402.40	1750.72
402.59	1717.95
402.78	1760.08
402.97	1795.19
403.17	1727.32
403.36	1764.76
403.55	1788.17
403.74	1741.36
403.93	1860.73
404.13	1909.88
404.32	1912.22
404.51	1865.41
404.70	1872.43
404.89	1830.30
405.09	2015.20
405.28	1942.64
405.47	1935.62
405.66	1834.98
405.85	2010.52
406.05	1975.41
406.24	1933.28
406.43	2019.88
406.62	2003.50
406.81	2080.74
407.00	2029.24
407.20	1909.88
407.39	2111.16
407.58	2176.70
407.77	2186.06
407.96	2200.10
408.15	2267.98
408.34	2195.42
408.54	2328.83
408.73	2326.49
408.92	2312.45
409.11	2221.17
409.30	2214.15
409.49	2211.81
409.68	2200.10
409.87	2298.41
410.07	2354.58
410.26	2363.94
410.45	2356.92
410.64	2422.45
410.83	2389.69
411.02	2532.46
411.21	2607.36
411.40	2595.65
411.59	2633.10
411.78	2626.08
411.98	2506.71
412.17	2541.82
412.36	2691.62
412.55	2583.95
412.74	2661.19
412.93	2705.66
413.12	2642.46
413.31	2876.52
413.50	2796.94
413.69	2827.37
413.88	2977.16
414.07	2942.05
414.26	2836.73
414.45	2930.35
414.64	2874.18
414.83	2963.12
415.02	2984.18
415.22	3122.27
415.41	3112.91
415.60	3138.66
415.79	3002.91
415.98	3272.07
416.17	3283.77
416.36	3201.85
416.55	3197.17
416.74	3325.90
416.93	3328.24
417.12	3398.46
417.31	3325.90
417.50	3330.58
417.69	3445.27
417.88	3396.12
418.07	3316.54
418.26	3365.69
418.45	3435.91
418.64	3592.72
418.83	3489.74
419.02	3606.77
419.21	3571.66
419.39	3698.05
419.58	3492.08
419.77	3644.21
419.96	3651.24
420.15	3777.62
420.34	3627.83
420.53	3847.84
420.72	3756.56
420.91	3850.18
421.10	3786.99
421.29	3843.16
421.48	3784.65
421.67	3801.03
421.86	3758.90
422.05	3786.99
422.24	3794.01
422.43	3733.15
422.61	3744.86
422.80	3868.91
422.99	3857.20
423.18	3939.12
423.37	3904.01
423.56	3758.90
423.75	3932.10
423.94	3866.56
424.13	3674.64
424.32	3613.79
424.50	4035.08
424.69	3934.44
424.88	3957.85
425.07	3925.08
425.26	3953.16
425.45	3962.53
425.64	3873.59
425.83	3936.78
426.01	4032.74
426.20	4011.68
426.39	3990.61
426.58	4009.34
426.77	3960.19
426.96	3866.56
427.15	3967.21
427.33	4058.49
427.52	4156.79
427.71	4189.56
427.90	4189.56
428.09	4273.82
428.28	4163.81
428.46	4203.60
428.65	4088.92
428.84	4271.48
429.03	4219.99
429.22	4180.20
429.40	4175.52
429.59	4056.15
429.78	3995.29
429.97	3957.85
430.16	4065.51
430.34	4112.32
430.53	4086.58
430.72	4252.75
430.91	4217.65
431.10	4348.72
431.28	4484.47
431.47	4564.04
431.66	4554.68
431.85	4306.59
432.03	4610.86
432.22	4690.43
432.41	4737.24
432.60	4786.40
432.79	4620.22
432.97	4547.66
433.16	4774.69
433.35	4718.52
433.54	4667.03
433.72	4650.64
433.91	4671.71
434.10	4606.17
434.28	4725.54
434.47	4821.50
434.66	4957.25
434.85	4961.94
435.03	4809.80
435.22	4816.82
435.41	5095.35
435.59	5097.69
435.78	4968.96
435.97	5039.17
436.16	5074.28
436.34	5085.98
436.53	5149.18
436.72	5158.54
436.90	5214.71
437.09	5050.88
437.28	5013.43
437.46	5125.77
437.65	5160.88
437.84	5210.03
438.02	5011.09
438.21	5064.92
438.40	5160.88
438.58	5273.23
438.77	5345.78
438.96	5296.63
439.14	5640.69
439.33	5654.73
439.52	5640.69
439.70	5444.09
439.89	5666.44
440.08	5652.39
440.26	5724.95
440.45	5593.88
440.63	5776.44
440.82	5968.37
441.01	5893.47
441.19	5914.53
441.38	6204.76
441.57	5975.39
441.75	6111.14
441.94	6256.25
442.12	6368.60
442.31	6246.89
442.50	6331.15
442.68	6216.46
442.87	6186.04
443.05	6342.85
443.24	6377.96
443.43	6263.27
443.61	6445.84
443.80	6410.73
443.98	6307.74
444.17	6059.65
444.35	6340.51
444.54	6436.47
444.73	6345.19
444.91	6298.38
445.10	6457.54
445.28	6502.01
445.47	6279.66
445.65	6399.02
445.84	6457.54
446.02	6441.15
446.21	6497.33
446.39	6438.81
446.58	6560.52
446.77	6626.06
446.95	6670.53
447.14	6775.85
447.32	6806.28
447.51	6710.32
447.69	6565.20
447.88	6569.88
448.06	6700.95
448.25	6691.59
448.43	6909.26
448.62	6609.67
448.80	6590.95
448.99	6619.04
449.17	6892.88
449.36	6579.25
449.54	6946.71
449.73	6967.77
449.91	7080.12
450.10	6953.73
450.28	7260.34
450.46	7176.08
450.65	6953.73
450.83	7178.42
451.02	7082.46
451.20	7136.29
451.39	6958.41
451.57	7279.07
451.76	7173.74
451.94	7262.68
452.13	7232.26
452.31	7190.13
452.49	7145.66
452.68	7241.62
452.86	7208.85
453.05	7140.97
453.23	7290.77
453.42	7250.98
453.60	7239.28
453.78	7314.17
453.97	7461.63
454.15	7391.41
454.34	7246.30
454.52	7421.84
454.70	7339.92
454.89	7691.00
455.07	7578.65
455.26	7520.14
455.44	7702.70
455.62	7756.54
455.81	7896.97
455.99	7606.74
456.17	7749.51
456.36	7756.54
456.54	7805.69
456.73	8011.65
456.91	8049.10
457.09	8021.02
457.28	8367.42
457.46	8065.49
457.64	8102.93
457.83	8088.89
458.01	8065.49
458.19	8219.96
458.38	7971.86
458.56	8116.98
458.74	8201.24
458.93	8273.79
459.11	8355.71
459.29	8044.42
459.48	8222.30
459.66	8236.35
459.84	8189.53
460.03	8496.14
460.21	8325.29
460.39	8535.93
460.57	8578.06
460.76	8465.72
460.94	8627.21
461.12	8765.31
461.31	8601.47
461.49	8617.85
461.67	8617.85
461.85	8741.90
462.04	8709.13
462.22	8791.05
462.40	8894.04
462.59	8954.89
462.77	9022.77
462.95	8887.01
463.13	8898.72
463.32	8849.57
463.50	9025.11
463.68	9097.66
463.86	8786.37
464.05	8844.88
464.23	8940.85
464.41	9116.39
464.59	8826.16
464.78	9006.38
464.96	9092.98
465.14	9057.87
465.32	9104.68
465.50	9305.97
465.69	9289.59
465.87	9067.24
466.05	9165.54
466.23	9071.92
466.41	9142.13
466.60	9467.47
466.78	9210.01
466.96	9287.25
467.14	9338.74
467.32	9432.36
467.51	9341.08
467.69	9132.77
467.87	9228.73
468.05	9554.07
468.23	9369.16
468.41	9378.53
468.60	9420.66
468.78	9727.27
468.96	9315.33
469.14	9755.35
469.32	9762.37
469.50	9401.93
469.69	9701.52
469.87	9708.54
470.05	9441.72
470.23	9537.68
470.41	9870.04
470.59	10073.67
470.77	10022.17
470.95	9834.93
471.14	9893.44
471.32	9853.66
471.50	10186.01
471.68	10310.06
471.86	10134.52
472.04	10314.74
472.22	10633.05
472.40	10045.58
472.58	10244.52
472.77	10523.05
472.95	10490.28
473.13	10644.76
473.31	10518.37
473.49	10490.28
473.67	10391.98
473.85	10537.09
474.03	10810.93
474.21	10902.22
474.39	11124.57
474.57	10977.11
474.75	11028.60
474.93	11234.57
475.12	11026.26
475.30	10874.13
475.48	11197.12
475.66	11360.96
475.84	11335.21
476.02	11353.94
476.20	11459.26
476.38	11391.39
476.56	11772.89
476.74	11859.49
476.92	11786.94
477.10	11534.16
477.28	11868.86
477.46	12028.01
477.64	11978.86
477.82	12248.02
478.00	12655.28
478.18	12489.10
478.36	12404.84
478.54	12617.83
478.72	12926.78
478.90	12800.39
479.08	12915.08
479.26	13270.84
479.44	13114.02
479.62	13121.04
479.80	13259.13
479.98	13404.25
480.16	13647.66
480.34	13645.32
480.52	13671.07
480.70	13692.13
480.88	13490.85
481.06	13802.14
481.24	14029.17
481.41	14059.60
481.59	14527.71
481.77	14541.75
481.95	14469.19
482.13	14193.01
482.31	14684.52
482.49	15138.58
482.67	14923.26
482.85	15138.58
483.03	15091.77
483.21	15267.31
483.39	15297.74
483.57	15187.74
483.74	15587.97
483.92	15494.35
484.10	15524.77
484.28	15737.76
484.46	16168.42
484.64	16198.85
484.82	15868.83
485.00	15868.83
485.18	16538.23
485.35	16191.83
485.53	16149.70
485.71	16236.30
485.89	16273.74
486.07	16425.88
486.25	16788.66
486.43	16664.61
486.61	16884.62
486.78	17329.33
486.96	17460.40
487.14	17652.32
487.32	17535.29
487.50	17771.69
487.68	17951.91
487.85	18312.35
488.03	18602.58
488.21	18473.85
488.39	18544.06
488.57	18410.65
488.75	18721.95
488.92	18829.61
489.10	19477.94
489.28	19293.04
489.46	19449.85
489.64	19583.26
489.81	19885.19
489.99	20116.90
490.17	20173.08
490.35	20404.79
490.53	20182.44
490.70	20177.76
490.88	20531.18
491.06	21060.14
491.24	20617.78
491.41	20884.60
491.59	20737.15
491.77	20844.81
491.95	21069.50
492.13	21245.04
492.30	21610.17
492.48	21556.33
492.66	21720.17
492.84	21673.36
493.01	22015.08
493.19	21989.33
493.37	22335.73
493.54	22288.92
493.72	22511.27
493.90	22298.28
494.08	22890.44
494.25	22904.48
494.43	23136.20
494.61	23028.53
494.79	23154.92
494.96	23548.13
495.14	23594.94
495.32	23557.49
495.49	23522.38
495.67	23704.95
495.85	23845.38
496.02	23941.34
496.20	24229.23
496.38	24184.76
496.55	24470.30
496.73	25017.99
496.91	24830.74
497.09	24982.88
497.26	24982.88
497.44	24933.73
497.62	24931.39
497.79	25596.10
497.97	25106.93
498.14	25120.97
498.32	25490.77
498.50	25436.94
498.67	25841.85
498.85	25748.23
499.03	26487.84
499.20	26157.83
499.38	26045.48
499.56	26642.32
499.73	26541.68
499.91	26426.99
500.08	26522.95
500.26	26211.66
500.44	26347.41
500.61	26534.65
500.79	26478.48
500.97	26607.21
501.14	27101.06
501.32	27033.19
501.49	26899.78
501.67	27056.59
501.84	27164.26
502.02	27150.21
502.20	27641.73
502.37	27768.12
502.55	27639.39
502.72	27927.27
502.90	28196.43
503.07	27498.95
503.25	28081.75
503.43	27915.57
503.60	28353.25
503.78	28154.30
503.95	28016.21
504.13	28280.69
504.30	28329.84
504.48	28561.56
504.65	28517.09
504.83	29027.32
505.01	29521.18
505.18	29120.95
505.36	29212.23
505.53	29439.26
505.71	29738.85
505.88	29404.15
506.06	29233.29
506.23	29528.20
506.41	29626.50
506.58	30113.33
506.76	29785.66
506.93	30038.44
507.11	29956.52
507.28	29823.11
507.46	29708.42
507.63	30010.35
507.81	30204.61
507.98	29942.47
508.16	30050.14
508.33	30305.26
508.50	30799.11
508.68	30899.75
508.85	31075.29
509.03	30808.47
509.20	31070.61
509.38	31091.68
509.55	31601.91
509.73	31374.88
509.90	31225.09
510.08	31412.33
510.25	31330.41
510.42	31236.79
510.60	31878.10
510.77	31791.50
510.95	31864.05
511.12	31875.76
511.30	32098.11
511.47	32133.21
511.64	32170.66
511.82	32067.68
511.99	31861.71
512.17	32334.50
512.34	32376.63
512.51	32790.91
512.69	32636.43
512.86	32713.67
513.04	33036.66
513.21	32914.95
513.38	32369.61
513.56	32893.89
513.73	32606.00
513.90	32957.08
514.08	32856.44
514.25	33511.79
514.43	33137.30
514.60	33085.81
514.77	33713.08
514.95	33603.07
515.12	33329.23
515.29	33762.23
515.47	34024.37
515.64	33895.64
515.81	34108.63
515.99	34150.76
516.16	33909.68
516.33	33357.32
516.51	33713.08
516.68	33450.94
516.85	33401.79
517.03	33467.32
517.20	33825.42
517.37	34380.13
517.54	34244.38
517.72	34225.65
517.89	34038.41
518.06	34127.35
518.24	34178.84
518.41	34178.84
518.58	34253.74
518.75	34443.32
518.93	35175.91
519.10	34857.60
519.27	35000.37
519.45	35395.92
519.62	35189.95
519.79	35061.22
519.96	35299.96
520.14	35374.86
520.31	34937.18
520.48	35913.18
520.65	35115.06
520.83	35665.08
521.00	35723.60
521.17	36030.21
521.34	36163.62
521.52	35601.89
521.69	36334.48
521.86	36573.21
522.03	36423.42
522.20	35931.90
522.38	36329.80
522.55	36636.41
522.72	36261.92
522.89	36453.84
523.07	36486.61
523.24	36542.78
523.41	36818.97
523.58	36430.44
523.75	37324.52
523.92	37010.89
524.10	37385.38
524.27	37174.73
524.44	37298.78
524.61	37057.70
524.78	37312.82
524.96	37312.82
525.13	37607.73
525.30	37642.84
525.47	37752.84
525.64	37530.49
525.81	37525.81
525.98	37516.45
526.16	37158.34
526.33	37312.82
526.50	37462.61
526.67	37394.74
526.84	37446.23
527.01	37434.53
527.18	37619.43
527.36	38300.53
527.53	37907.32
527.70	38431.60
527.87	38672.67
528.04	38342.66
528.21	38965.24
528.38	38600.12
528.55	38792.04
528.72	38857.57
528.89	39225.04
529.07	38969.92
529.24	38513.52
529.41	39051.84
529.58	38359.04
529.75	38616.50
529.92	38848.21
530.09	39000.35
530.26	39051.84
530.43	39302.28
530.60	38785.02
530.77	38946.51
530.94	39601.86
531.11	39508.24
531.28	39440.37
531.46	39641.65
531.63	39541.01
531.80	39262.49
531.97	39929.54
532.14	39395.90
532.31	39079.92
532.48	39522.29
532.65	39470.79
532.82	39524.63
532.99	39440.37
533.16	39442.71
533.33	39709.53
533.50	40121.46
533.67	40156.57
533.84	39737.62
534.01	40058.27
534.18	40259.55
534.35	40542.76
534.52	40474.88
534.69	40210.40
534.86	40678.51
535.03	40769.79
535.20	40706.60
535.37	41132.57
535.54	41116.19
535.71	40732.34
535.88	40519.35
536.05	40168.27
536.22	40580.21
536.38	40865.75
536.55	40388.28
536.72	40760.43
536.89	39894.43
537.06	40793.20
537.23	41219.17
537.40	41226.20
537.57	41263.64
537.74	41202.79
537.91	41368.97
538.08	41488.34
538.25	40903.20
538.42	41497.70
538.59	41345.56
538.75	40900.86
538.92	41148.96
539.09	41411.10
539.26	41624.09
539.43	41275.35
539.60	41200.45
539.77	41383.01
539.94	41202.79
540.11	41251.94
540.28	41556.21
540.44	41303.43
540.61	41130.23
540.78	41691.96
540.95	41390.03
541.12	41759.84
541.29	41422.80
541.46	41766.86
541.62	42146.03
541.79	42169.43
541.96	41462.59
542.13	41734.09
542.30	42040.70
542.47	41928.36
542.63	42000.91
542.80	41834.74
542.97	42511.15
543.14	43234.38
543.31	42405.83
543.48	42424.55
543.64	43178.20
543.81	43000.32
543.98	43154.80
544.15	42848.19
544.32	42459.66
544.48	43234.38
544.65	43131.39
544.82	42941.81
544.99	42784.99
545.16	43019.05
545.32	43112.67
545.49	43529.28
545.66	43173.52
545.83	43459.07
546.00	43627.59
546.16	43138.41
546.33	42841.17
546.50	43005.00
546.67	43164.16
546.83	43056.50
547.00	42930.11
547.17	43274.16
547.34	42981.60
547.50	43292.89
547.67	43473.11
547.84	43812.49
548.00	43931.86
548.17	43676.74
548.34	43634.61
548.51	44210.38
548.67	43540.99
548.84	43800.79
549.01	43344.38
549.18	43639.29
549.34	43765.68
549.51	43906.11
549.68	43786.74
549.84	44355.49
550.01	44130.80
550.18	43819.51
550.34	43821.85
550.51	43749.29
550.68	44360.17
550.84	43555.03
551.01	44058.24
551.18	44116.76
551.34	44425.71
551.51	43955.26
551.68	44360.17
551.84	44437.41
552.01	44203.36
552.18	44306.34
552.34	44011.43
552.51	44341.45
552.68	44268.89
552.84	44488.90
553.01	44638.70
553.18	44505.29
553.34	44453.79
553.51	44041.86
553.67	44264.21
553.84	44893.82
554.01	44861.05
554.17	44980.42
554.34	44851.69
554.51	44650.40
554.67	44966.37
554.84	44851.69
555.00	44832.96
555.17	44524.01
555.33	44896.16
555.50	44673.81
555.67	44907.86
555.83	44603.59
556.00	44790.83
556.16	44938.29
556.33	44734.66
556.50	44952.33
556.66	44708.91
556.83	44687.85
556.99	44779.13
557.16	44945.31
557.32	44992.12
557.49	44924.24
557.65	44987.44
557.82	45174.68
557.98	44987.44
558.15	44924.24
558.32	45003.82
558.48	44781.47
558.65	44966.37
558.81	44889.13
558.98	44751.04
559.14	45160.64
559.31	44863.39
559.47	45333.84
559.64	45312.77
559.80	45401.71
559.97	45380.65
560.13	45029.57
560.30	45085.74
560.46	45324.47
560.63	45525.76
560.79	45577.25
560.96	45539.80
561.12	45570.23
561.29	45654.49
561.45	45558.53
561.61	45132.55
561.78	45586.61
561.94	45488.31
562.11	45397.03
562.27	45359.58
562.44	45668.53
562.60	46094.51
562.77	45453.20
562.93	45893.22
563.10	45556.19
563.26	45125.53
563.42	45825.35
563.59	45703.64
563.75	45743.43
563.92	45720.02
564.08	45713.00
564.24	46092.17
564.41	45944.72
564.57	45642.79
564.74	45097.44
564.90	45801.94
565.07	45698.96
565.23	45902.59
565.39	45759.81
565.56	45507.04
565.72	45631.08
565.88	45518.74
566.05	45911.95
566.21	45830.03
566.38	45455.54
566.54	45869.82
566.70	45933.01
566.87	46050.04
567.03	45815.99
567.19	46555.60
567.36	46031.32
567.52	46045.36
567.68	45909.61
567.85	45628.74
568.01	46476.02
568.17	45783.22
568.34	45460.23
568.50	45404.05
568.66	46148.34
568.83	45839.39
568.99	45923.65
569.15	45698.96
569.32	45694.28
569.48	45434.48
569.64	45673.21
569.81	45984.51
569.97	45944.72
570.13	45586.61
570.30	45593.64
570.46	45333.84
570.62	45359.58
570.78	45336.18
570.95	45532.78
571.11	45879.18
571.27	45743.43
571.43	45556.19
571.60	45757.47
571.76	45834.71
571.92	46033.66
572.09	46260.69
572.25	46092.17
572.41	46143.66
572.57	46300.48
572.74	46227.92
572.90	46124.94
573.06	45897.91
573.22	46153.02
573.38	46223.24
573.55	45694.28
573.71	46307.50
573.87	46209.20
574.03	45958.76
574.20	46028.98
574.36	46129.62
574.52	46223.24
574.68	46059.40
574.84	46113.23
575.01	46230.26
575.17	45975.14
575.33	45560.87
575.49	45879.18
575.65	46134.30
575.82	46248.99
575.98	45998.55
576.14	46248.99
576.30	46108.55
576.46	45968.12
576.62	45935.35
576.79	46422.19
576.95	45928.33
577.11	46263.03
577.27	46010.25
577.43	46164.73
577.59	46024.29
577.75	45928.33
577.92	45808.96
578.08	45860.46
578.24	45951.74
578.40	45881.52
578.56	46239.62
578.72	46232.60
578.88	46113.23
579.04	46433.89
579.21	45780.88
579.37	46466.66
579.53	45954.08
579.69	46007.91
579.85	46251.33
580.01	46431.55
580.17	45757.47
580.33	46213.88
580.49	45947.06
580.65	46429.21
580.82	46117.92
580.98	45591.30
581.14	46146.00
581.30	46375.37
581.46	46241.96
581.62	46452.61
581.78	46066.42
581.94	46513.47
582.10	45846.41
582.26	46380.06
582.42	45977.48
582.58	46127.28
582.74	46195.15
582.90	46342.61
583.06	46265.37
583.22	46344.95
583.38	46651.56
583.54	46681.98
583.70	45921.31
583.86	46408.14
584.02	45937.69
584.18	46518.15
584.34	46258.35
584.50	46302.82
584.66	45954.08
584.82	45975.14
584.98	46452.61
585.14	46426.87
585.30	46466.66
585.46	46513.47
585.62	45954.08
585.78	46312.18
585.94	45579.59
586.10	46305.16
586.26	46017.27
586.42	46195.15
586.58	46293.46
586.74	46579.00
586.90	46501.76
587.06	46241.96
587.22	46478.36
587.38	45949.40
587.54	46181.11
587.70	46241.96
587.86	46230.26
588.02	46422.19
588.18	46370.69
588.34	46272.39
588.49	45881.52
588.65	45474.27
588.81	46096.85
588.97	45893.22
589.13	45951.74
589.29	45560.87
589.45	46108.55
589.61	46433.89
589.77	46195.15
589.93	46387.08
590.08	46520.49
