SpectraSuite Data File
++++++++++++++++++++++++++++++++++++
Date: Fri Oct 25 11:26:42 EDT 2013
User: price-jones
Dark Spectrum Present: No
Reference Spectrum Present: No
Number of Sampled Component Spectra: 1
Spectrometers: USB2+H05261
Integration Time (usec): 100000 (USB2+H05261)
Spectra Averaged: 1 (USB2+H05261)
Boxcar Smoothing: 0 (USB2+H05261)
Correct for Electrical Dark: No (USB2+H05261)
Strobe/Lamp Enabled: No (USB2+H05261)
Correct for Detector Non-linearity: No (USB2+H05261)
Correct for Stray Light: No (USB2+H05261)
Number of Pixels in Processed Spectrum: 2048
>>>>>Begin Processed Spectral Data<<<<<
365.73	308.95
365.92	308.95
366.12	308.95
366.32	152.13
366.52	107.66
366.72	227.03
366.91	152.13
367.11	149.79
367.31	112.35
367.51	147.45
367.70	168.52
367.90	187.24
368.10	105.32
368.30	102.98
368.49	140.43
368.69	152.13
368.89	124.05
369.09	152.13
369.28	210.65
369.48	135.75
369.68	198.95
369.87	208.31
370.07	191.92
370.27	273.84
370.47	304.27
370.66	634.29
370.86	690.46
371.06	650.67
371.25	711.52
371.45	643.65
371.65	702.16
371.84	671.73
372.04	730.25
372.24	685.78
372.44	746.63
372.63	798.12
372.83	681.10
373.03	784.08
373.22	770.04
373.42	788.76
373.62	723.23
373.81	842.59
374.01	851.96
374.21	723.23
374.40	809.83
374.60	926.85
374.79	856.64
374.99	880.04
375.19	748.97
375.38	863.66
375.58	854.30
375.78	884.72
375.97	943.24
376.17	917.49
376.37	814.51
376.56	931.53
376.76	866.00
376.95	908.13
377.15	884.72
377.35	952.60
377.54	896.43
377.74	912.81
377.93	938.55
378.13	983.02
378.33	1006.43
378.52	954.94
378.72	959.62
378.91	863.66
379.11	964.30
379.31	938.55
379.50	877.70
379.70	1020.47
379.89	1078.99
380.09	971.32
380.28	947.92
380.48	1071.97
380.68	1013.45
380.87	1004.09
381.07	1032.18
381.26	1046.22
381.46	985.37
381.65	985.37
381.85	1067.28
382.04	1018.13
382.24	1055.58
382.43	1123.46
382.63	1036.86
382.83	1090.69
383.02	1149.20
383.22	1107.07
383.41	1057.92
383.61	1128.14
383.80	1153.88
384.00	1102.39
384.19	1174.95
384.39	1107.07
384.58	1055.58
384.78	1139.84
384.97	1231.12
385.17	1114.10
385.36	1146.86
385.56	1116.44
385.75	1151.54
385.95	1235.80
386.14	1282.61
386.34	1104.73
386.53	1313.04
386.72	1186.65
386.92	1240.48
387.11	1203.04
387.31	1245.16
387.50	1228.78
387.70	1261.55
387.89	1291.98
388.09	1214.74
388.28	1348.15
388.48	1205.38
388.67	1266.23
388.86	1301.34
389.06	1423.05
389.25	1359.85
389.45	1399.64
389.64	1299.00
389.84	1404.32
390.03	1320.06
390.22	1263.89
390.42	1306.02
390.61	1418.36
390.81	1390.28
391.00	1362.19
391.19	1432.41
391.39	1568.16
391.58	1483.90
391.78	1481.56
391.97	1483.90
392.16	1514.33
392.36	1495.60
392.55	1516.67
392.75	1504.96
392.94	1479.22
393.13	1535.39
393.33	1479.22
393.52	1617.31
393.71	1593.90
393.91	1652.42
394.10	1516.67
394.29	1551.78
394.49	1603.27
394.68	1729.66
394.88	1647.74
395.07	1769.44
395.26	1664.12
395.46	1708.59
395.65	1710.93
395.84	1708.59
396.04	1785.83
396.23	1755.40
396.42	1701.57
396.62	1849.02
396.81	1785.83
397.00	1767.10
397.19	1853.70
397.39	1830.30
397.58	1818.60
397.77	1870.09
397.97	1919.24
398.16	1944.99
398.35	1893.49
398.55	2019.88
398.74	1909.88
398.93	1966.05
399.12	1842.00
399.32	1900.52
399.51	1937.96
399.70	1973.07
399.90	1989.46
400.09	2129.89
400.28	2118.18
400.47	2080.74
400.67	2122.87
400.86	2069.03
401.05	2193.08
401.24	2106.48
401.44	2010.52
401.63	2188.40
401.82	2120.53
402.01	2122.87
402.21	2120.53
402.40	2258.62
402.59	2275.00
402.78	2169.68
402.97	2249.25
403.17	2256.28
403.36	2296.07
403.55	2347.56
403.74	2312.45
403.93	2377.98
404.13	2359.26
404.32	2216.49
404.51	2356.92
404.70	2422.45
404.89	2436.50
405.09	2403.73
405.28	2534.80
405.47	2485.65
405.66	2539.48
405.85	2600.34
406.05	2480.97
406.24	2607.36
406.43	2658.85
406.62	2637.78
406.81	2602.68
407.00	2644.81
407.20	2663.53
407.39	2637.78
407.58	2724.38
407.77	2614.38
407.96	2654.17
408.15	2736.09
408.34	2736.09
408.54	2750.13
408.73	2832.05
408.92	2722.04
409.11	2827.37
409.30	2930.35
409.49	2918.65
409.68	2899.92
409.87	2906.95
410.07	3033.33
410.26	3054.40
410.45	2932.69
410.64	3110.57
410.83	3068.44
411.02	3145.68
411.21	3229.94
411.40	3159.72
411.59	3232.28
411.78	3150.36
411.98	3286.11
412.17	3389.10
412.36	3335.26
412.55	3274.41
412.74	3459.31
412.93	3403.14
413.12	3363.35
413.31	3545.91
413.50	3611.45
413.69	3620.81
413.88	3585.70
414.07	3609.11
414.26	3721.45
414.45	3754.22
414.64	3693.37
414.83	3763.58
415.02	3786.99
415.22	3782.31
415.41	3927.42
415.60	3896.99
415.79	3955.51
415.98	3950.82
416.17	3920.40
416.36	4042.11
416.55	3969.55
416.74	4056.15
416.93	4231.69
417.12	4140.41
417.31	4196.58
417.50	4205.94
417.69	4189.56
417.88	4400.21
418.07	4255.09
418.26	4257.43
418.45	4379.14
418.64	4444.68
418.83	4477.44
419.02	4498.51
419.21	4594.47
419.39	4493.83
419.58	4477.44
419.77	4498.51
419.96	4664.69
420.15	4777.03
420.34	4608.51
420.53	4718.52
420.72	4720.86
420.91	4842.57
421.10	4711.50
421.29	4884.70
421.48	4638.94
421.67	4765.33
421.86	4772.35
422.05	4933.85
422.24	4863.63
422.43	4746.61
422.61	4959.60
422.80	4887.04
422.99	4992.36
423.18	4854.27
423.37	4997.04
423.56	4854.27
423.75	4947.89
423.94	4966.62
424.13	4676.39
424.32	4802.78
424.50	4968.96
424.69	5088.32
424.88	5153.86
425.07	5006.41
425.26	4915.12
425.45	5046.20
425.64	4854.27
425.83	4959.60
426.01	5102.37
426.20	5104.71
426.39	5111.73
426.58	5132.79
426.77	4896.40
426.96	5191.31
427.15	5207.69
427.33	5266.21
427.52	5242.80
427.71	5217.05
427.90	5324.72
428.09	5418.34
428.28	5385.57
428.46	5277.91
428.65	5343.44
428.84	5547.07
429.03	5561.11
429.22	5240.46
429.40	5582.18
429.59	5650.05
429.78	5411.32
429.97	5268.55
430.16	5554.09
430.34	5460.47
430.53	5748.36
430.72	5795.17
430.91	5617.29
431.10	5619.63
431.28	5731.97
431.47	5659.42
431.66	5776.44
431.85	5820.91
432.03	5921.56
432.22	6064.33
432.41	5914.53
432.60	5996.45
432.79	5991.77
432.97	5982.41
433.16	6111.14
433.35	5923.90
433.54	6040.92
433.72	6087.73
433.91	6249.23
434.10	6113.48
434.28	6132.20
434.47	6211.78
434.66	6237.53
434.85	6321.79
435.03	6162.63
435.22	6413.07
435.41	6417.75
435.59	6523.07
435.78	6534.78
435.97	6448.18
436.16	6380.30
436.34	6382.64
436.53	6633.08
436.72	6626.06
436.90	6457.54
437.09	6455.20
437.28	6628.40
437.46	6621.38
437.65	6883.52
437.84	6890.54
438.02	6729.04
438.21	6850.75
438.40	6672.87
438.58	6979.48
438.77	6911.60
438.96	6782.87
439.14	7206.51
439.33	7155.02
439.52	7152.68
439.70	7267.36
439.89	7433.54
440.08	7304.81
440.26	7419.50
440.45	7447.58
440.63	7550.57
440.82	7634.83
441.01	7578.65
441.19	7695.68
441.38	7833.77
441.57	7861.86
441.75	7840.79
441.94	7859.52
442.12	8264.43
442.31	8060.80
442.50	7943.78
442.68	8170.81
442.87	8161.45
443.05	8088.89
443.24	8198.90
443.43	8250.39
443.61	8224.64
443.80	8519.55
443.98	8060.80
444.17	7887.61
444.35	8430.61
444.54	8470.40
444.73	8271.45
444.91	8353.37
445.10	8353.37
445.28	8285.50
445.47	8271.45
445.65	8510.19
445.84	8652.96
446.02	8697.43
446.21	8538.27
446.39	8524.23
446.58	8554.66
446.77	8362.73
446.95	8360.39
447.14	8407.20
447.32	8472.74
447.51	8542.96
447.69	8533.59
447.88	8528.91
448.06	8554.66
448.25	8662.32
448.43	8716.16
448.62	8777.01
448.80	8486.78
448.99	8566.36
449.17	8805.10
449.36	8643.60
449.54	8978.30
449.73	9020.42
449.91	9081.28
450.10	9064.89
450.28	9041.49
450.46	9109.36
450.65	9221.71
450.83	8987.66
451.02	9121.07
451.20	9256.82
451.39	9064.89
451.57	9357.46
451.76	9210.01
451.94	9378.53
452.13	9399.59
452.31	9521.30
452.49	9233.41
452.68	9483.85
452.86	9338.74
453.05	9537.68
453.23	9640.67
453.42	9411.29
453.60	9383.21
453.78	9668.75
453.97	9640.67
454.15	9437.04
454.34	9533.00
454.52	9872.38
454.70	9895.78
454.89	9956.64
455.07	9795.14
455.26	9994.09
455.44	9980.04
455.62	9914.51
455.81	10033.88
455.99	10050.26
456.17	10160.27
456.36	10148.56
456.54	10347.51
456.73	10314.74
456.91	10448.15
457.09	10452.83
457.28	10815.62
457.46	10506.66
457.64	10626.03
457.83	10789.87
458.01	10406.02
458.19	10457.51
458.38	10509.01
458.56	10944.34
458.74	10707.95
458.93	10899.87
459.11	11005.20
459.29	10860.09
459.48	10691.57
459.66	10923.28
459.84	11007.54
460.03	11290.74
460.21	11047.33
460.39	11075.42
460.57	11044.99
460.76	11133.93
460.94	11276.70
461.12	11279.04
461.31	11211.17
461.49	11286.06
461.67	11309.47
461.85	11426.50
462.04	11534.16
462.22	11515.44
462.40	11765.87
462.59	11482.67
462.77	11538.84
462.95	11730.76
463.13	11761.19
463.32	11896.94
463.50	11765.87
463.68	11819.71
463.86	11960.14
464.05	11875.88
464.23	11779.92
464.41	12290.15
464.59	11770.55
464.78	12030.35
464.96	11866.52
465.14	11882.90
465.32	12056.10
465.50	12212.92
465.69	12184.83
465.87	12084.19
466.05	12458.67
466.23	12327.60
466.41	12264.41
466.60	12554.63
466.78	12290.15
466.96	12121.63
467.14	12404.84
467.32	12336.96
467.51	12662.30
467.69	12339.30
467.87	12514.84
468.05	12786.35
468.23	12610.81
468.41	12491.44
468.60	12812.09
468.78	12823.80
468.96	12411.86
469.14	13034.44
469.32	13050.83
469.50	12657.62
469.69	12868.27
469.87	13221.69
470.05	13060.19
470.23	13355.10
470.41	13191.26
470.59	13355.10
470.77	13226.37
470.95	13233.39
471.14	13586.81
471.32	13193.60
471.50	13476.80
471.68	13816.18
471.86	13802.14
472.04	13792.78
472.22	13738.94
472.40	13771.71
472.58	13926.19
472.77	13994.06
472.95	14300.67
473.13	14752.40
473.31	14305.35
473.49	14424.72
473.67	14174.28
473.85	14476.21
474.03	14621.33
474.21	14689.20
474.39	14925.60
474.57	14754.74
474.75	14773.46
474.93	14986.45
475.12	14895.17
475.30	15164.33
475.48	15042.62
475.66	15372.64
475.84	15316.47
476.02	15616.05
476.20	15349.23
476.38	15807.98
476.56	16084.16
476.74	16037.35
476.92	15955.43
477.10	15637.12
477.28	16203.53
477.46	16301.83
477.64	16067.78
477.82	16695.04
478.00	17095.27
478.18	17067.19
478.36	16982.93
478.54	16992.29
478.72	17355.07
478.90	17481.46
479.08	17476.78
479.26	17874.67
479.44	17727.22
479.62	17844.24
479.80	18232.77
479.98	18071.28
480.16	18714.92
480.34	18391.93
480.52	18611.94
480.70	18649.39
480.88	18441.08
481.06	18628.32
481.24	18925.57
481.41	19159.63
481.59	19609.01
481.77	19580.92
481.95	19723.69
482.13	19611.35
482.31	20084.14
482.49	20343.94
482.67	20669.27
482.85	20411.81
483.03	20847.15
483.21	20680.97
483.39	20994.61
483.57	21144.40
483.74	20851.83
483.92	21584.42
484.10	21142.06
484.28	21958.91
484.46	21708.47
484.64	22340.41
484.82	21926.14
485.00	22317.01
485.18	22628.30
485.35	22967.68
485.53	23023.85
485.71	23098.75
485.89	23433.44
486.07	23150.24
486.25	23197.05
486.43	24020.92
486.61	24173.05
486.78	24140.29
486.96	24243.27
487.14	24685.63
487.32	25008.62
487.50	24814.36
487.68	25216.93
487.85	25214.59
488.03	25359.70
488.21	25860.58
488.39	26120.38
488.57	26211.66
488.75	26274.85
488.92	26548.70
489.10	27154.90
489.28	26658.70
489.46	26881.05
489.64	27131.49
489.81	27786.84
489.99	27791.52
490.17	27981.10
490.35	28198.77
490.53	28512.41
490.70	28697.31
490.88	28561.56
491.06	28929.02
491.24	29034.35
491.41	29055.41
491.59	29465.00
491.77	29394.79
491.95	29846.51
492.13	29914.39
492.30	30054.82
492.48	30354.41
492.66	30417.60
492.84	30405.90
493.01	30707.83
493.19	30794.43
493.37	31009.76
493.54	31534.04
493.72	31646.38
493.90	31775.11
494.08	32009.17
494.25	32187.05
494.43	32191.73
494.61	32390.67
494.79	32584.94
494.96	32460.89
495.14	33127.94
495.32	33394.76
495.49	33153.69
495.67	33600.73
495.85	33862.87
496.02	34054.79
496.20	34445.66
496.38	34213.95
496.55	34366.09
496.73	34897.39
496.91	34810.79
497.09	35288.26
497.26	35489.54
497.44	34951.22
497.62	35634.66
497.79	35840.62
497.97	35782.11
498.14	36039.57
498.32	36589.59
498.50	36158.94
498.67	37031.96
498.85	36180.00
499.03	36961.74
499.20	36893.86
499.38	37345.59
499.56	37034.30
499.73	37113.87
499.91	37715.39
500.08	37874.55
500.26	37277.71
500.44	37907.32
500.61	38113.28
500.79	37717.73
500.97	38246.69
501.14	38679.69
501.32	38773.31
501.49	38576.71
501.67	38937.15
501.84	39328.02
502.02	39325.68
502.20	39351.43
502.37	39407.60
502.55	39475.48
502.72	39725.91
502.90	39814.85
503.07	39395.90
503.25	40020.82
503.43	40128.48
503.60	40025.50
503.78	40582.55
503.95	40334.45
504.13	40711.28
504.30	40645.74
504.48	40439.78
504.65	41050.66
504.83	41345.56
505.01	41179.39
505.18	41628.77
505.36	41638.13
505.53	41296.41
505.71	41780.90
505.88	41731.75
506.06	41628.77
506.23	42256.03
506.41	41727.07
506.58	42398.80
506.76	42326.25
506.93	42913.72
507.11	42223.26
507.28	42466.68
507.46	42824.78
507.63	43306.93
507.81	43416.94
507.98	43061.18
508.16	43398.21
508.33	43756.32
508.50	43681.42
508.68	43959.94
508.85	44306.34
509.03	43796.10
509.20	44524.01
509.38	44711.25
509.55	44481.88
509.73	44495.92
509.90	44896.16
510.08	44624.65
510.25	44961.69
510.42	45254.26
510.60	45368.94
510.77	45858.12
510.95	45624.06
511.12	45397.03
511.30	45455.54
511.47	45724.71
511.64	45420.44
511.82	46178.77
511.99	45858.12
512.17	46246.65
512.34	46375.37
512.51	46698.37
512.69	46590.70
512.86	46904.34
513.04	46693.69
513.21	46480.70
513.38	46827.10
513.56	46824.76
513.73	47110.30
513.90	47253.08
514.08	47587.77
514.25	47454.36
514.43	47622.88
514.60	47510.53
514.77	47576.07
514.95	48044.18
515.12	47763.31
515.29	47908.43
515.47	48067.58
515.64	48067.58
515.81	47618.20
515.99	47971.62
516.16	48657.40
516.33	48428.02
516.51	49043.59
516.68	48371.85
516.85	48371.85
517.03	48982.73
517.20	48823.58
517.37	49052.95
517.54	49034.22
517.72	49502.33
517.89	49326.79
518.06	49387.64
518.24	49368.92
518.41	49340.83
518.58	49345.51
518.75	49514.03
518.93	50094.49
519.10	49588.93
519.27	50038.31
519.45	49773.83
519.62	50239.60
519.79	50197.47
519.96	50234.92
520.14	50511.10
520.31	50576.64
520.48	50808.35
520.65	50515.78
520.83	50927.72
521.00	50754.52
521.17	50677.28
521.34	50754.52
521.52	50834.10
521.69	51002.61
521.86	51150.07
522.03	51325.61
522.20	51187.52
522.38	51821.80
522.55	51248.37
522.72	51332.63
522.89	51667.33
523.07	51688.39
523.24	51765.63
523.41	51980.96
523.58	51690.73
523.75	52044.15
523.92	51779.67
524.10	52058.20
524.27	51924.78
524.44	52310.97
524.61	52025.43
524.78	52474.81
524.96	52163.52
525.13	52313.31
525.30	52355.44
525.47	52879.72
525.64	52582.48
525.81	52708.86
525.98	52743.97
526.16	52809.51
526.33	52685.46
526.50	52971.00
526.67	53066.97
526.84	53146.54
527.01	52917.17
527.18	52982.71
527.36	53139.52
527.53	53324.43
527.70	53539.75
527.87	53450.81
528.04	53263.57
528.21	53443.79
528.38	53488.26
528.55	53691.89
528.72	53478.90
528.89	53703.59
529.07	53565.50
529.24	53450.81
529.41	53560.82
529.58	53624.01
529.75	53968.07
529.92	53752.74
530.09	54061.69
530.26	54160.00
530.43	54260.64
530.60	53965.73
530.77	54138.93
530.94	54171.70
531.11	54071.06
531.28	54426.82
531.46	54316.81
531.63	54431.50
531.80	54157.66
531.97	54674.91
532.14	54791.94
532.31	54597.68
532.48	54841.09
532.65	55035.36
532.82	54651.51
532.99	54595.34
533.16	54770.88
533.33	54763.85
533.50	55070.46
533.67	54892.58
533.84	54967.48
534.01	55234.30
534.18	54979.18
534.35	55295.16
534.52	55224.94
534.69	55426.23
534.86	55309.20
535.03	55058.76
535.20	55571.34
535.37	55407.50
535.54	55613.47
535.71	55269.41
535.88	55477.72
536.05	55566.66
536.22	55505.80
536.38	55646.24
536.55	55641.56
536.72	55978.59
536.89	55454.31
537.06	55669.64
537.23	55810.07
537.40	55735.18
537.57	55838.16
537.74	55650.92
537.91	55980.93
538.08	56292.22
538.25	55791.35
538.42	56090.94
538.59	56041.79
538.75	55922.42
538.92	56034.77
539.09	56353.08
539.26	56275.84
539.43	56285.20
539.60	56479.47
539.77	56292.22
539.94	56463.08
540.11	56395.21
540.28	56355.42
540.44	56437.34
540.61	56554.36
540.78	56486.49
540.95	56591.81
541.12	56364.78
541.29	56633.94
541.46	56865.66
541.62	56669.05
541.79	56987.36
541.96	56652.67
542.13	56580.11
542.30	56715.86
542.47	57146.52
542.63	57118.43
542.80	57066.94
542.97	57127.80
543.14	57272.91
543.31	57310.36
543.48	57293.97
543.64	57748.04
543.81	57272.91
543.98	57506.96
544.15	57544.41
544.32	57446.11
544.48	57652.08
544.65	57371.21
544.82	57443.77
544.99	57446.11
545.16	57476.54
545.32	57467.17
545.49	57748.04
545.66	57874.43
545.83	57956.35
546.00	57609.95
546.16	57684.84
546.33	57806.55
546.50	57645.05
546.67	57829.96
546.83	57588.88
547.00	57867.40
547.17	57865.06
547.34	57851.02
547.50	57921.24
547.67	58237.21
547.84	58099.12
548.00	58209.12
548.17	58379.98
548.34	58202.10
548.51	58368.28
548.67	58382.32
548.84	58349.56
549.01	58106.14
549.18	58262.96
549.34	58272.32
549.51	58284.02
549.68	58581.27
549.84	58489.99
550.01	58677.23
550.18	58370.62
550.34	58590.63
550.51	58752.13
550.68	58581.27
550.84	58255.93
551.01	58848.09
551.18	58642.12
551.34	58585.95
551.51	58637.44
551.68	58468.92
551.84	58597.65
552.01	58564.88
552.18	58838.73
552.34	58541.48
552.51	58679.57
552.68	58698.30
552.84	58520.41
553.01	59098.53
553.18	58618.72
553.34	59070.44
553.51	59000.22
553.67	58894.90
553.84	59131.29
554.01	59377.05
554.17	59082.14
554.34	59257.68
554.51	59145.34
554.67	59058.74
554.84	59278.75
555.00	59110.23
555.17	59072.78
555.33	59178.10
555.50	59194.49
555.67	59257.68
555.83	59353.65
556.00	59030.65
556.16	59444.93
556.33	59327.90
556.50	59327.90
556.66	59538.55
556.83	59334.92
556.99	59641.53
557.16	59681.32
557.32	59468.33
557.49	59660.26
557.65	59283.43
557.82	59374.71
557.98	59398.12
558.15	59629.83
558.32	59716.43
558.48	59320.88
558.65	59667.28
558.81	59531.53
558.98	59707.07
559.14	59732.81
559.31	59732.81
559.47	59697.70
559.64	59812.39
559.80	59765.58
559.97	59676.64
560.13	59927.08
560.30	59833.46
560.46	59629.83
560.63	59929.42
560.79	59807.71
560.96	59959.84
561.12	60067.51
561.29	59948.14
561.45	59821.75
561.61	59934.10
561.78	59934.10
561.94	59854.52
562.11	59807.71
562.27	60018.36
562.44	59870.90
562.60	60179.85
562.77	60111.98
562.93	59992.61
563.10	60116.66
563.26	60053.47
563.42	60292.20
563.59	60280.50
563.75	60018.36
563.92	60243.05
564.08	60142.41
564.24	60317.95
564.41	60444.33
564.57	60104.96
564.74	60109.64
564.90	60219.64
565.07	60360.08
565.23	60196.24
565.39	60011.34
565.56	60580.09
565.72	60331.99
565.88	60463.06
566.05	60470.08
566.21	60289.86
566.38	60463.06
566.54	60432.63
566.70	60271.14
566.87	60458.38
567.03	60362.42
567.19	60673.71
567.36	60533.28
567.52	60364.76
567.68	60704.13
567.85	60444.33
568.01	60374.12
568.17	60420.93
568.34	60500.51
568.50	60289.86
568.66	60355.39
568.83	60711.16
568.99	60472.42
569.15	60514.55
569.32	60596.47
569.48	60521.57
569.64	60477.10
569.81	60495.83
569.97	60444.33
570.13	60612.85
570.30	60369.44
570.46	60530.93
570.62	60622.22
570.78	60573.06
570.95	60598.81
571.11	60612.85
571.27	60577.75
571.43	60441.99
571.60	60804.78
571.76	60626.90
571.92	60692.43
572.09	60537.96
572.25	60594.13
572.41	60577.75
572.57	60589.45
572.74	60844.57
572.90	60559.02
573.06	60643.28
573.22	60734.56
573.38	60874.99
573.55	60814.14
573.71	61083.30
573.87	60764.99
574.03	60685.41
574.20	60860.95
574.36	60790.73
574.52	60889.04
574.68	60919.46
574.84	60914.78
575.01	60938.19
575.17	60739.24
575.33	60711.16
575.49	60872.65
575.65	60800.10
575.82	60889.04
575.98	60800.10
576.14	61069.26
576.30	60699.45
576.46	60879.67
576.62	60882.02
576.79	60879.67
576.95	60823.50
577.11	60942.87
577.27	60853.93
577.43	60994.36
577.59	60879.67
577.75	60940.53
577.92	60664.35
578.08	61071.60
578.24	60961.59
578.40	61132.45
578.56	61092.66
578.72	61010.74
578.88	61293.95
579.04	61052.87
579.21	61041.17
579.37	60877.33
579.53	61003.72
579.69	60692.43
579.85	60853.93
580.01	60800.10
580.17	60741.58
580.33	61064.58
580.49	60928.83
580.65	60954.57
580.82	60905.42
580.98	60931.17
581.14	61017.77
581.30	61146.50
581.46	61022.45
581.62	61031.81
581.78	60980.32
581.94	61036.49
582.10	60835.20
582.26	60987.34
582.42	61029.47
582.58	60938.19
582.74	61167.56
582.90	61010.74
583.06	61099.68
583.22	61083.30
583.38	61078.62
583.54	61050.53
583.70	61190.97
583.86	61186.28
584.02	61102.03
584.18	61188.63
584.34	61188.63
584.50	61001.38
584.66	60961.59
584.82	61055.21
584.98	61317.35
585.14	61329.06
585.30	61186.28
585.46	61006.06
585.62	61062.24
585.78	61265.86
585.94	61015.43
586.10	61237.78
586.26	60903.08
586.42	61230.75
586.58	61141.81
586.74	61125.43
586.90	61176.92
587.06	61261.18
587.22	61219.05
587.38	61200.33
587.54	61254.16
587.70	61340.76
587.86	61148.84
588.02	61109.05
588.18	61322.04
588.34	61017.77
