SpectraSuite Data File
++++++++++++++++++++++++++++++++++++
Date: Fri Oct 25 11:34:23 EDT 2013
User: price-jones
Dark Spectrum Present: No
Reference Spectrum Present: No
Number of Sampled Component Spectra: 1
Spectrometers: USB2+H05261
Integration Time (usec): 100000 (USB2+H05261)
Spectra Averaged: 1 (USB2+H05261)
Boxcar Smoothing: 0 (USB2+H05261)
Correct for Electrical Dark: No (USB2+H05261)
Strobe/Lamp Enabled: No (USB2+H05261)
Correct for Detector Non-linearity: No (USB2+H05261)
Correct for Stray Light: No (USB2+H05261)
Number of Pixels in Processed Spectrum: 2048
>>>>>Begin Processed Spectral Data<<<<<
365.73	301.93
365.92	301.93
366.12	301.93
366.32	201.29
366.52	250.44
366.72	184.90
366.91	131.07
367.11	229.37
367.31	154.48
367.51	79.58
367.70	184.90
367.90	163.84
368.10	191.92
368.30	229.37
368.49	205.97
368.69	215.33
368.89	208.31
369.09	196.60
369.28	227.03
369.48	182.56
369.68	184.90
369.87	222.35
370.07	278.52
370.27	315.97
370.47	294.91
370.66	447.04
370.86	543.00
371.06	545.34
371.25	507.90
371.45	540.66
371.65	552.37
371.84	552.37
372.04	608.54
372.24	514.92
372.44	568.75
372.63	510.24
372.83	540.66
373.03	601.52
373.22	587.47
373.42	657.69
373.62	603.86
373.81	627.26
374.01	599.18
374.21	650.67
374.40	592.16
374.60	660.03
374.79	603.86
374.99	592.16
375.19	620.24
375.38	688.12
375.58	664.71
375.78	638.97
375.97	643.65
376.17	678.76
376.37	676.41
376.56	664.71
376.76	660.03
376.95	676.41
377.15	784.08
377.35	655.35
377.54	746.63
377.74	667.05
377.93	718.54
378.13	664.71
378.33	695.14
378.52	720.88
378.72	636.63
378.91	734.93
379.11	692.80
379.31	711.52
379.50	720.88
379.70	777.06
379.89	744.29
380.09	716.20
380.28	624.92
380.48	716.20
380.68	643.65
380.87	709.18
381.07	725.57
381.26	802.80
381.46	690.46
381.65	772.38
381.85	748.97
382.04	830.89
382.24	805.14
382.43	763.01
382.63	683.44
382.83	758.33
383.02	758.33
383.22	821.53
383.41	741.95
383.61	833.23
383.80	791.10
384.00	809.83
384.19	786.42
384.39	816.85
384.58	823.87
384.78	861.32
384.97	826.21
385.17	779.40
385.36	873.02
385.56	861.32
385.75	826.21
385.95	842.59
386.14	816.85
386.34	795.78
386.53	777.06
386.72	926.85
386.92	882.38
387.11	819.19
387.31	887.06
387.50	887.06
387.70	940.90
387.89	826.21
388.09	880.04
388.28	847.27
388.48	936.21
388.67	924.51
388.86	917.49
389.06	919.83
389.25	950.26
389.45	910.47
389.64	938.55
389.84	983.02
390.03	901.11
390.22	894.08
390.42	931.53
390.61	936.21
390.81	1032.18
391.00	980.68
391.19	1029.84
391.39	917.49
391.58	1036.86
391.78	954.94
391.97	1050.90
392.16	992.39
392.36	1057.92
392.55	997.07
392.75	945.58
392.94	1011.11
393.13	1036.86
393.33	877.70
393.52	1029.84
393.71	1013.45
393.91	1041.54
394.10	1039.20
394.29	1041.54
394.49	1055.58
394.68	1163.25
394.88	1057.92
395.07	1050.90
395.26	1053.24
395.46	1170.27
395.65	1224.10
395.84	1097.71
396.04	1205.38
396.23	1179.63
396.42	1247.51
396.62	1212.40
396.81	1259.21
397.00	1226.44
397.19	1193.67
397.39	1224.10
397.58	1203.04
397.77	1207.72
397.97	1191.33
398.16	1217.08
398.35	1296.66
398.55	1238.14
398.74	1324.74
398.93	1280.27
399.12	1336.45
399.32	1193.67
399.51	1369.21
399.70	1306.02
399.90	1249.85
400.09	1373.89
400.28	1362.19
400.47	1392.62
400.67	1359.85
400.86	1364.53
401.05	1373.89
401.24	1418.36
401.44	1394.96
401.63	1385.60
401.82	1366.87
402.01	1406.66
402.21	1409.00
402.40	1416.02
402.59	1446.45
402.78	1465.18
402.97	1598.59
403.17	1570.50
403.36	1481.56
403.55	1455.81
403.74	1521.35
403.93	1507.30
404.13	1685.19
404.32	1509.65
404.51	1540.07
404.70	1621.99
404.89	1619.65
405.09	1540.07
405.28	1575.18
405.47	1584.54
405.66	1689.87
405.85	1781.15
406.05	1643.06
406.24	1757.74
406.43	1701.57
406.62	1710.93
406.81	1755.40
407.00	1720.29
407.20	1657.10
407.39	1631.35
407.58	1842.00
407.77	1870.09
407.96	1870.09
408.15	1863.07
408.34	1870.09
408.54	1849.02
408.73	1872.43
408.92	1886.47
409.11	1884.13
409.30	1933.28
409.49	1921.58
409.68	1935.62
409.87	1874.77
410.07	2022.22
410.26	2050.31
410.45	1968.39
410.64	2054.99
410.83	2111.16
411.02	2176.70
411.21	2054.99
411.40	2106.48
411.59	2197.76
411.78	2062.01
411.98	2033.93
412.17	2263.30
412.36	2176.70
412.55	2263.30
412.74	2155.63
412.93	2275.00
413.12	2267.98
413.31	2347.56
413.50	2307.77
413.69	2275.00
413.88	2492.67
414.07	2354.58
414.26	2375.64
414.45	2324.15
414.64	2429.48
414.83	2455.22
415.02	2597.99
415.22	2546.50
415.41	2518.42
415.60	2532.46
415.79	2768.85
415.98	2621.40
416.17	2651.83
416.36	2733.75
416.55	2761.83
416.74	2630.76
416.93	2684.59
417.12	2670.55
417.31	2754.81
417.50	2796.94
417.69	2869.50
417.88	2789.92
418.07	2937.37
418.26	2808.64
418.45	2911.63
418.64	3059.08
418.83	2878.86
419.02	2916.31
419.21	2953.76
419.39	2998.23
419.58	2977.16
419.77	2979.50
419.96	3030.99
420.15	3075.46
420.34	3005.25
420.53	3091.85
420.72	3169.09
420.91	3131.64
421.10	3169.09
421.29	3281.43
421.48	3295.47
421.67	3082.49
421.86	3108.23
422.05	3070.78
422.24	3115.25
422.43	3232.28
422.61	3276.75
422.80	3169.09
422.99	3164.40
423.18	3332.92
423.37	3300.16
423.56	3281.43
423.75	3187.81
423.94	3194.83
424.13	3042.70
424.32	3213.56
424.50	3339.94
424.69	3445.27
424.88	3424.20
425.07	3304.84
425.26	3339.94
425.45	3206.53
425.64	3314.20
425.83	3386.76
426.01	3428.88
426.20	3363.35
426.39	3478.04
426.58	3332.92
426.77	3396.12
426.96	3445.27
427.15	3339.94
427.33	3485.06
427.52	3358.67
427.71	3478.04
427.90	3494.42
428.09	3492.08
428.28	3475.70
428.46	3562.30
428.65	3449.95
428.84	3672.30
429.03	3646.55
429.22	3625.49
429.40	3702.73
429.59	3658.26
429.78	3576.34
429.97	3463.99
430.16	3714.43
430.34	3719.11
430.53	3702.73
430.72	3761.24
430.91	3566.98
431.10	3714.43
431.28	3789.33
431.47	3927.42
431.66	3887.63
431.85	3676.98
432.03	3707.41
432.22	3939.12
432.41	3829.12
432.60	3822.09
432.79	3920.40
432.97	4049.13
433.16	4037.42
433.35	4021.04
433.54	4070.19
433.72	4065.51
433.91	4021.04
434.10	4145.09
434.28	4053.81
434.47	4032.74
434.66	4121.68
434.85	4152.11
435.03	4210.62
435.22	4128.70
435.41	4222.33
435.59	4234.03
435.78	4168.49
435.97	4348.72
436.16	4329.99
436.34	4194.24
436.53	4257.43
436.72	4318.29
436.90	4224.67
437.09	4489.15
437.28	4259.78
437.46	4318.29
437.65	4173.18
437.84	4432.97
438.02	4416.59
438.21	4430.63
438.40	4348.72
438.58	4699.80
438.77	4697.46
438.96	4599.15
439.14	4610.86
439.33	4730.22
439.52	4828.53
439.70	4849.59
439.89	4809.80
440.08	4744.27
440.26	4767.67
440.45	4678.73
440.63	4877.68
440.82	5032.15
441.01	4894.06
441.19	4882.36
441.38	5050.88
441.57	5018.11
441.75	5137.48
441.94	5252.16
442.12	5261.52
442.31	5221.74
442.50	5247.48
442.68	5238.12
442.87	5238.12
443.05	5376.21
443.24	5383.23
443.43	5198.33
443.61	5219.39
443.80	5526.00
443.98	5308.34
444.17	5142.16
444.35	5399.62
444.54	5579.84
444.73	5507.28
444.91	5315.36
445.10	5444.09
445.28	5277.91
445.47	5343.44
445.65	5371.53
445.84	5430.04
446.02	5603.24
446.21	5434.72
446.39	5444.09
446.58	5458.13
446.77	5621.97
446.95	5394.93
447.14	5469.83
447.32	5788.14
447.51	5603.24
447.69	5614.95
447.88	5472.17
448.06	5598.56
448.25	5467.49
448.43	5640.69
448.62	5717.93
448.80	5738.99
448.99	5540.05
449.17	5731.97
449.36	5788.14
449.54	5731.97
449.73	5851.34
449.91	5771.76
450.10	5839.64
450.28	5928.58
450.46	5834.96
450.65	5886.45
450.83	5954.32
451.02	5998.79
451.20	6108.80
451.39	6263.27
451.57	5996.45
451.76	5898.15
451.94	6066.67
452.13	6118.16
452.31	6167.31
452.49	6146.25
452.68	6134.54
452.86	6085.39
453.05	6270.30
453.23	6202.42
453.42	6008.16
453.60	6071.35
453.78	6200.08
453.97	6190.72
454.15	6071.35
454.34	6143.91
454.52	6298.38
454.70	6333.49
454.89	6277.32
455.07	6160.29
455.26	6403.71
455.44	6633.08
455.62	6356.90
455.81	6347.53
455.99	6436.47
456.17	6590.95
456.36	6661.16
456.54	6532.44
456.73	6595.63
456.91	6593.29
457.09	6878.83
457.28	7005.22
457.46	6801.60
457.64	6993.52
457.83	6787.55
458.01	6665.85
458.19	6956.07
458.38	6902.24
458.56	6761.81
458.74	6951.39
458.93	6860.11
459.11	6995.86
459.29	6892.88
459.48	7096.50
459.66	6927.99
459.84	7056.72
460.03	7148.00
460.21	7171.40
460.39	7117.57
460.57	7112.89
460.76	7419.50
460.94	7049.69
461.12	7304.81
461.31	7281.41
461.49	7112.89
461.67	7229.91
461.85	7592.70
462.04	7389.07
462.22	7936.76
462.40	7489.71
462.59	7513.12
462.77	7480.35
462.95	7461.63
463.13	7524.82
463.32	7527.16
463.50	7606.74
463.68	7456.95
463.86	7726.11
464.05	7620.78
464.23	7503.76
464.41	7735.47
464.59	7442.90
464.78	7740.15
464.96	7967.18
465.14	7602.06
465.32	7646.53
465.50	7733.13
465.69	7885.26
465.87	7864.20
466.05	7803.35
466.23	7964.84
466.41	7819.73
466.60	8079.53
466.78	7826.75
466.96	7885.26
467.14	8006.97
467.32	8112.30
467.51	8231.66
467.69	7843.14
467.87	7847.82
468.05	7990.59
468.23	7840.79
468.41	8002.29
468.60	8070.17
468.78	8348.69
468.96	8198.90
469.14	8287.84
469.32	8451.67
469.50	8154.43
469.69	8489.12
469.87	8503.17
470.05	8393.16
470.23	8397.84
470.41	8566.36
470.59	8500.83
470.77	8409.54
470.95	8482.10
471.14	8641.26
471.32	8411.89
471.50	8648.28
471.68	8688.07
471.86	8711.47
472.04	8688.07
472.22	8875.31
472.40	8814.46
472.58	8919.78
472.77	9043.83
472.95	8985.32
473.13	9317.67
473.31	8875.31
473.49	9041.49
473.67	9046.17
473.85	8982.98
474.03	9362.14
474.21	9376.19
474.39	9605.56
474.57	9451.08
474.75	9406.61
474.93	9446.40
475.12	9460.45
475.30	9689.82
475.48	9643.01
475.66	9753.01
475.84	9846.63
476.02	9856.00
476.20	9844.29
476.38	10033.88
476.56	10090.05
476.74	10274.95
476.92	10083.03
477.10	10113.45
477.28	10207.08
477.46	10253.89
477.64	10485.60
477.82	10485.60
478.00	10972.43
478.18	10562.84
478.36	10761.78
478.54	10789.87
478.72	10991.16
478.90	11105.84
479.08	11080.10
479.26	11300.11
479.44	11145.63
479.62	11211.17
479.80	11267.34
479.98	11613.74
480.16	11810.34
480.34	11651.19
480.52	11737.79
480.70	11843.11
480.88	11815.02
481.06	11861.84
481.24	11885.24
481.41	12138.02
481.59	12205.89
481.77	12224.62
481.95	12379.09
482.13	12484.42
482.31	12313.56
482.49	12966.57
482.67	12606.13
482.85	12847.20
483.03	13233.39
483.21	13275.52
483.39	13277.86
483.57	13128.06
483.74	13406.59
483.92	13308.29
484.10	13577.45
484.28	13745.97
484.46	14043.21
484.64	13912.14
484.82	13928.53
485.00	14134.50
485.18	14317.06
485.35	14471.53
485.53	14530.05
485.71	14501.96
485.89	14967.73
486.07	14885.81
486.25	14766.44
486.43	14911.55
486.61	15075.39
486.78	15325.83
486.96	15295.40
487.14	15269.66
487.32	15452.22
487.50	15700.31
487.68	15662.86
487.85	15777.55
488.03	15920.32
488.21	16587.38
488.39	16166.08
488.57	16482.05
488.75	16781.64
488.92	16884.62
489.10	17109.32
489.28	17144.42
489.46	17242.73
489.64	17179.53
489.81	17385.50
489.99	17502.53
490.17	17645.30
490.35	17774.03
490.53	17820.84
490.70	18384.91
490.88	17909.78
491.06	18228.09
491.24	17729.56
491.41	17935.53
491.59	18710.24
491.77	18398.95
491.95	18567.47
492.13	18724.29
492.30	18799.18
492.48	18937.27
492.66	19297.72
492.84	19054.30
493.01	19494.32
493.19	19449.85
493.37	19690.93
493.54	19510.71
493.72	19513.05
493.90	20006.90
494.08	19983.49
494.25	20023.28
494.43	20187.12
494.61	20210.53
494.79	20177.76
494.96	20367.34
495.14	20648.21
495.32	20636.50
495.49	20802.68
495.67	21146.74
495.85	20966.52
496.02	21240.36
496.20	21184.19
496.38	21556.33
496.55	21551.65
496.73	22024.44
496.91	21675.70
497.09	21825.50
497.26	22225.73
497.44	22078.27
497.62	22073.59
497.79	22506.59
497.97	22757.03
498.14	22782.77
498.32	22717.24
498.50	22895.12
498.67	23129.17
498.85	22913.84
499.03	23246.20
499.20	23541.11
499.38	22986.40
499.56	23295.35
499.73	23637.07
499.91	23737.71
500.08	23845.38
500.26	24030.28
500.44	23470.89
500.61	23573.88
500.79	23908.57
500.97	23992.83
501.14	24393.06
501.32	24393.06
501.49	24226.89
501.67	24446.90
501.84	24746.48
502.02	24657.54
502.20	24446.90
502.37	24985.22
502.55	25113.95
502.72	25198.21
502.90	24973.52
503.07	24987.56
503.25	25010.96
503.43	25209.91
503.60	25261.40
503.78	25612.48
503.95	25467.37
504.13	25839.51
504.30	25818.45
504.48	25458.01
504.65	25881.64
504.83	25839.51
505.01	25778.66
505.18	26139.10
505.36	26366.13
505.53	26302.94
505.71	26157.83
505.88	26375.50
506.06	26221.02
506.23	26429.33
506.41	26480.82
506.58	26572.10
506.76	26974.67
506.93	26761.69
507.11	26597.85
507.28	27337.46
507.46	26881.05
507.63	26871.69
507.81	27498.95
507.98	27248.52
508.16	27559.81
508.33	27559.81
508.50	27321.07
508.68	27295.33
508.85	28086.43
509.03	27756.41
509.20	27946.00
509.38	28229.20
509.55	28208.14
509.73	27983.44
509.90	28058.34
510.08	28114.52
510.25	28507.72
510.42	28610.71
510.60	28655.18
510.77	28669.22
510.95	28748.80
511.12	29156.05
511.30	28854.12
511.47	28898.59
511.64	28877.53
511.82	29053.07
511.99	29259.04
512.17	29083.50
512.34	29216.91
512.51	29706.08
512.69	29401.81
512.86	29701.40
513.04	29596.07
513.21	30064.18
513.38	29493.09
513.56	29890.98
513.73	29558.63
513.90	30326.32
514.08	30150.78
514.25	30160.14
514.43	30216.32
514.60	30373.13
514.77	30340.36
514.95	30618.89
515.12	30305.26
515.29	30195.25
515.47	30815.49
515.64	31136.15
515.81	30731.23
515.99	30686.76
516.16	31079.97
516.33	31131.47
516.51	31019.12
516.68	30785.07
516.85	31321.05
517.03	31321.05
517.20	31644.04
517.37	31447.44
517.54	31412.33
517.72	31667.45
517.89	31571.49
518.06	31503.61
518.24	31407.65
518.41	32034.91
518.58	31566.81
518.75	31751.71
518.93	32542.81
519.10	32215.13
519.27	31660.43
519.45	32355.57
519.62	32449.19
519.79	32215.13
519.96	32505.36
520.14	32727.71
520.31	32275.99
520.48	32432.80
520.65	32713.67
520.83	33273.06
521.00	33275.40
521.17	32954.74
521.34	33380.72
521.52	33345.61
521.69	33036.66
521.86	33413.49
522.03	33273.06
522.20	33787.97
522.38	33589.03
522.55	33862.87
522.72	33703.71
522.89	33633.50
523.07	34003.30
523.24	33287.10
523.41	33771.59
523.58	33989.26
523.75	34211.61
523.92	34298.21
524.10	33947.13
524.27	34522.90
524.44	34410.56
524.61	34263.10
524.78	34160.12
524.96	34658.65
525.13	34562.69
525.30	34806.11
525.47	34635.25
525.64	34403.53
525.81	35131.44
525.98	34829.51
526.16	34897.39
526.33	34766.32
526.50	34768.66
526.67	35264.85
526.84	35400.60
527.01	34969.94
527.18	35346.77
527.36	35571.46
527.53	35791.47
527.70	35892.12
527.87	35644.02
528.04	35487.20
528.21	35461.46
528.38	35866.37
528.55	36039.57
528.72	35812.54
528.89	35845.30
529.07	35569.12
529.24	35779.77
529.41	35721.26
529.58	35526.99
529.75	36175.32
529.92	36091.06
530.09	36266.60
530.26	35978.72
530.43	36439.80
530.60	36140.21
530.77	36493.63
530.94	36788.54
531.11	36456.18
531.28	36430.44
531.46	36748.75
531.63	36517.04
531.80	36746.41
531.97	36758.11
532.14	36760.45
532.31	36896.20
532.48	37064.72
532.65	36966.42
532.82	37003.87
532.99	37181.75
533.16	36669.17
533.33	36952.38
533.50	37542.19
533.67	37165.37
533.84	37404.10
534.01	37596.03
534.18	37483.68
534.35	37556.24
534.52	37706.03
534.69	37888.59
534.86	37621.77
535.03	37600.71
535.20	37853.48
535.37	37902.64
535.54	37720.07
535.71	38087.54
535.88	38064.13
536.05	37865.19
536.22	38122.65
536.38	38132.01
536.55	37949.45
536.72	38499.47
536.89	37748.16
537.06	38183.50
537.23	38436.28
537.40	38618.84
537.57	38302.87
537.74	38288.82
537.91	38693.74
538.08	38565.01
538.25	38263.08
538.42	38939.49
538.59	39016.73
538.75	38733.53
538.92	38939.49
539.09	38733.53
539.26	38742.89
539.43	39103.33
539.60	39391.22
539.77	39173.55
539.94	39529.31
540.11	39290.57
540.28	39346.75
540.44	38885.66
540.61	39304.62
540.78	39487.18
540.95	39271.85
541.12	39241.42
541.29	39409.94
541.46	39604.20
541.62	39449.73
541.79	39742.30
541.96	39271.85
542.13	39611.23
542.30	39646.33
542.47	39856.98
542.63	39686.12
542.80	40250.19
542.97	40376.58
543.14	40390.62
543.31	40156.57
543.48	40327.43
543.64	40540.42
543.81	40524.04
543.98	40708.94
544.15	39866.34
544.32	40205.72
544.48	40704.26
544.65	41027.25
544.82	40797.88
544.99	40591.91
545.16	40629.36
545.32	40877.46
545.49	40957.03
545.66	40947.67
545.83	41083.42
546.00	40645.74
546.16	40788.52
546.33	40774.47
546.50	40603.61
546.67	41116.19
546.83	40748.73
547.00	41064.70
547.17	41170.02
547.34	40680.85
547.50	41633.45
547.67	41539.83
547.84	41406.42
548.00	41474.29
548.17	42447.96
548.34	41851.12
548.51	41621.75
548.67	41563.23
548.84	41329.18
549.01	41888.57
549.18	41661.54
549.34	41914.31
549.51	41972.83
549.68	41722.39
549.84	41598.34
550.01	42007.94
550.18	41427.48
550.34	42171.77
550.51	41993.89
550.68	42277.10
550.84	41607.70
551.01	42480.72
551.18	42019.64
551.34	42101.56
551.51	42085.17
551.68	42326.25
551.84	42256.03
552.01	41951.76
552.18	42068.79
552.34	42199.86
552.51	42429.23
552.68	42061.77
552.84	42033.68
553.01	42499.45
553.18	42866.91
553.34	42281.78
553.51	42267.73
553.67	42160.07
553.84	42918.40
554.01	42742.86
554.17	42639.88
554.34	42871.59
554.51	42609.45
554.67	42782.65
554.84	42969.90
555.00	42979.26
555.17	42878.61
555.33	42923.08
555.50	42864.57
555.67	42770.95
555.83	43161.82
556.00	43367.79
556.16	43833.55
556.33	43241.40
556.50	43182.88
556.66	42878.61
556.83	42738.18
556.99	43267.14
557.16	43288.21
557.32	43306.93
557.49	43395.87
557.65	43234.38
557.82	43667.37
557.98	43342.04
558.15	43309.27
558.32	43562.05
558.48	43264.80
558.65	43220.33
558.81	43540.99
558.98	43260.12
559.14	43522.26
559.31	43473.11
559.47	43782.06
559.64	43798.44
559.80	43627.59
559.97	43786.74
560.13	43718.87
560.30	43892.07
560.46	44100.37
560.63	44294.64
560.79	43515.24
560.96	43835.89
561.12	44025.48
561.29	44140.16
561.45	44151.87
561.61	43796.10
561.78	43590.14
561.94	43943.56
562.11	44573.16
562.27	44296.98
562.44	44067.61
562.60	44055.90
562.77	44278.25
562.93	44596.57
563.10	44346.13
563.26	43988.03
563.42	44980.42
563.59	44231.44
563.75	44130.80
563.92	44371.88
564.08	44397.62
564.24	44472.52
564.41	44030.16
564.57	44535.71
564.74	44460.82
564.90	44737.00
565.07	44341.45
565.23	44282.94
565.39	44147.18
565.56	44676.15
565.72	44685.51
565.88	44364.85
566.05	44612.95
566.21	44608.27
566.38	44465.50
566.54	44608.27
566.70	44811.90
566.87	44409.32
567.03	44432.73
567.19	44800.19
567.36	45048.29
567.52	44751.04
567.68	44762.75
567.85	44720.62
568.01	44980.42
568.17	44849.35
568.34	44788.49
568.50	44854.03
568.66	44582.52
568.83	45198.09
568.99	45057.65
569.15	44596.57
569.32	44615.29
569.48	44505.29
569.64	45289.37
569.81	44814.24
569.97	45134.89
570.13	45673.21
570.30	44870.41
570.46	44973.39
570.62	44781.47
570.78	45008.50
570.95	44706.57
571.11	45280.00
571.27	45008.50
571.43	45074.04
571.60	45214.47
571.76	44875.09
571.92	44849.35
572.09	45205.11
572.25	44907.86
572.41	44741.68
572.57	44870.41
572.74	45223.83
572.90	44884.45
573.06	45373.63
573.22	45347.88
573.38	45408.73
573.55	45471.93
573.71	45256.60
573.87	45359.58
574.03	45478.95
574.20	45272.98
574.36	45315.11
574.52	45202.77
574.68	45132.55
574.84	45146.59
575.01	45340.86
575.17	45553.85
575.33	45490.65
575.49	45340.86
575.65	45460.23
575.82	45254.26
575.98	44959.35
576.14	45287.03
576.30	45741.09
576.46	45610.02
576.62	45404.05
576.79	45301.07
576.95	45195.74
577.11	45144.25
577.27	45155.96
577.43	45338.52
577.59	45059.99
577.75	45258.94
577.92	45118.51
578.08	45146.59
578.24	45436.82
578.40	45556.19
578.56	45532.78
578.72	45759.81
578.88	45071.70
579.04	45303.41
579.21	45371.28
579.37	45584.27
579.53	45813.65
579.69	45378.31
579.85	45595.98
580.01	45628.74
580.17	45336.18
580.33	45085.74
580.49	45558.53
580.65	45619.38
580.82	45160.64
580.98	45254.26
581.14	45354.90
581.30	45804.28
581.46	45186.38
581.62	45567.89
581.78	45397.03
581.94	45450.86
582.10	45659.17
582.26	45872.16
582.42	45696.62
582.58	45165.32
582.74	45778.54
582.90	45743.43
583.06	45624.06
583.22	45317.45
583.38	45556.19
583.54	45478.95
583.70	45778.54
583.86	45448.52
584.02	45865.14
584.18	45928.33
584.34	45684.92
584.50	46220.90
584.66	45783.22
584.82	45724.71
584.98	45827.69
585.14	45560.87
585.30	45490.65
585.46	45734.07
585.62	45476.61
585.78	45689.60
585.94	45397.03
586.10	45502.35
586.26	45476.61
586.42	45757.47
586.58	45684.92
586.74	46043.02
586.90	45736.41
587.06	45771.52
587.22	45649.81
587.38	45762.15
587.54	45635.77
587.70	45890.88
587.86	45722.37
588.02	45766.84
588.18	45570.23
588.34	45628.74
588.49	45703.64
588.65	45757.47
588.81	45872.16
588.97	46169.41
589.13	45684.92
589.29	46073.45
589.45	46244.30
589.61	45687.26
589.77	46241.96
589.93	45755.13
590.08	45811.31
