SpectraSuite Data File
++++++++++++++++++++++++++++++++++++
Date: Fri Oct 25 11:23:46 EDT 2013
User: price-jones
Dark Spectrum Present: No
Reference Spectrum Present: No
Number of Sampled Component Spectra: 1
Spectrometers: USB2+H05261
Integration Time (usec): 100000 (USB2+H05261)
Spectra Averaged: 1 (USB2+H05261)
Boxcar Smoothing: 0 (USB2+H05261)
Correct for Electrical Dark: No (USB2+H05261)
Strobe/Lamp Enabled: No (USB2+H05261)
Correct for Detector Non-linearity: No (USB2+H05261)
Correct for Stray Light: No (USB2+H05261)
Number of Pixels in Processed Spectrum: 2048
>>>>>Begin Processed Spectral Data<<<<<
365.73	250.44
365.92	250.44
366.12	250.44
366.32	163.84
366.52	114.69
366.72	142.77
366.91	152.13
367.11	131.07
367.31	112.35
367.51	184.90
367.70	60.85
367.90	138.09
368.10	154.48
368.30	95.96
368.49	159.16
368.69	152.13
368.89	110.01
369.09	112.35
369.28	194.26
369.48	114.69
369.68	184.90
369.87	191.92
370.07	182.56
370.27	217.67
370.47	292.57
370.66	610.88
370.86	592.16
371.06	627.26
371.25	650.67
371.45	610.88
371.65	631.94
371.84	594.50
372.04	648.33
372.24	629.60
372.44	760.67
372.63	730.25
372.83	767.70
373.03	718.54
373.22	809.83
373.42	748.97
373.62	821.53
373.81	772.38
374.01	779.40
374.21	809.83
374.40	739.61
374.60	856.64
374.79	842.59
374.99	802.80
375.19	819.19
375.38	821.53
375.58	805.14
375.78	915.15
375.97	938.55
376.17	873.02
376.37	849.61
376.56	884.72
376.76	903.45
376.95	887.06
377.15	903.45
377.35	894.08
377.54	833.23
377.74	863.66
377.93	837.91
378.13	924.51
378.33	931.53
378.52	922.17
378.72	994.73
378.91	931.53
379.11	968.98
379.31	945.58
379.50	971.32
379.70	940.90
379.89	1055.58
380.09	870.68
380.28	947.92
380.48	901.11
380.68	985.37
380.87	959.62
381.07	980.68
381.26	1130.48
381.46	1015.79
381.65	1057.92
381.85	1029.84
382.04	1069.62
382.24	1011.11
382.43	992.39
382.63	1041.54
382.83	1064.94
383.02	1088.35
383.22	1053.24
383.41	1029.84
383.61	1004.09
383.80	1238.14
384.00	1165.59
384.19	1132.82
384.39	1203.04
384.58	1156.22
384.78	1181.97
384.97	1107.07
385.17	1160.91
385.36	1069.62
385.56	1153.88
385.75	1160.91
385.95	1139.84
386.14	1174.95
386.34	1238.14
386.53	1259.21
386.72	1163.25
386.92	1205.38
387.11	1200.69
387.31	1198.35
387.50	1263.89
387.70	1294.32
387.89	1352.83
388.09	1233.46
388.28	1299.00
388.48	1315.38
388.67	1249.85
388.86	1277.93
389.06	1306.02
389.25	1343.47
389.45	1308.36
389.64	1331.76
389.84	1401.98
390.03	1441.77
390.22	1404.32
390.42	1462.83
390.61	1366.87
390.81	1409.00
391.00	1488.58
391.19	1432.41
391.39	1490.92
391.58	1504.96
391.78	1577.52
391.97	1430.07
392.16	1406.66
392.36	1556.46
392.55	1591.56
392.75	1495.60
392.94	1493.26
393.13	1563.48
393.33	1497.94
393.52	1504.96
393.71	1495.60
393.91	1605.61
394.10	1612.63
394.29	1558.80
394.49	1596.25
394.68	1710.93
394.88	1638.38
395.07	1696.89
395.26	1692.21
395.46	1678.16
395.65	1696.89
395.84	1736.68
396.04	1884.13
396.23	1739.02
396.42	1729.66
396.62	1818.60
396.81	1671.14
397.00	1729.66
397.19	1795.19
397.39	1884.13
397.58	1722.63
397.77	1879.45
397.97	1923.92
398.16	1928.60
398.35	1996.48
398.55	1851.36
398.74	1902.86
398.93	1921.58
399.12	1970.73
399.32	2008.18
399.51	1968.39
399.70	1982.43
399.90	1949.67
400.09	1996.48
400.28	1963.71
400.47	2043.29
400.67	2092.44
400.86	2057.33
401.05	2155.63
401.24	2136.91
401.44	2160.31
401.63	2183.72
401.82	2181.38
402.01	2113.50
402.21	2167.34
402.40	2136.91
402.59	2228.19
402.78	2218.83
402.97	2235.21
403.17	2279.68
403.36	2317.13
403.55	2338.20
403.74	2366.28
403.93	2380.32
404.13	2459.90
404.32	2375.64
404.51	2483.31
404.70	2462.24
404.89	2417.77
405.09	2551.18
405.28	2544.16
405.47	2399.05
405.66	2485.65
405.85	2595.65
406.05	2551.18
406.24	2551.18
406.43	2539.48
406.62	2668.21
406.81	2621.40
407.00	2656.51
407.20	2579.27
407.39	2644.81
407.58	2642.46
407.77	2949.08
407.96	2719.70
408.15	2867.16
408.34	2803.96
408.54	2806.30
408.73	2951.42
408.92	2778.22
409.11	2895.24
409.30	2883.54
409.49	2862.48
409.68	2918.65
409.87	2937.37
410.07	3014.61
410.26	3002.91
410.45	2946.73
410.64	3112.91
410.83	3089.51
411.02	3171.43
411.21	3159.72
411.40	3045.04
411.59	3180.79
411.78	3052.06
411.98	3269.73
412.17	3365.69
412.36	3246.32
412.55	3459.31
412.74	3487.40
412.93	3382.07
413.12	3318.88
413.31	3583.36
413.50	3440.59
413.69	3438.25
413.88	3618.47
414.07	3566.98
414.26	3691.02
414.45	3637.19
414.64	3667.62
414.83	3866.56
415.02	3833.80
415.22	3798.69
415.41	3882.95
415.60	3899.33
415.79	3911.04
415.98	3896.99
416.17	4117.00
416.36	3908.69
416.55	3957.85
416.74	4198.92
416.93	4046.79
417.12	4121.68
417.31	4191.90
417.50	4196.58
417.69	4397.87
417.88	4229.35
418.07	4224.67
418.26	4234.03
418.45	4353.40
418.64	4547.66
418.83	4578.09
419.02	4507.87
419.21	4610.86
419.39	4580.43
419.58	4442.34
419.77	4421.27
419.96	4613.20
420.15	4484.47
420.34	4645.96
420.53	4650.64
420.72	4723.20
420.91	4554.68
421.10	4826.18
421.29	4873.00
421.48	4709.16
421.67	4777.03
421.86	4709.16
422.05	4699.80
422.24	4821.50
422.43	4929.17
422.61	4851.93
422.80	4997.04
422.99	5025.13
423.18	4917.47
423.37	5130.45
423.56	4959.60
423.75	4957.25
423.94	4940.87
424.13	4521.92
424.32	4952.57
424.50	4992.36
424.69	5025.13
424.88	5109.39
425.07	5013.43
425.26	4828.53
425.45	4905.76
425.64	5013.43
425.83	4994.70
426.01	5039.17
426.20	5078.96
426.39	5200.67
426.58	5001.72
426.77	5064.92
426.96	5165.56
427.15	5111.73
427.33	5235.78
427.52	5259.18
427.71	5071.94
427.90	5252.16
428.09	5298.97
428.28	5371.53
428.46	5125.77
428.65	5336.42
428.84	5551.75
429.03	5542.39
429.22	5357.49
429.40	5617.29
429.59	5626.65
429.78	5277.91
429.97	5369.19
430.16	5551.75
430.34	5699.20
430.53	5687.50
430.72	5640.69
430.91	5626.65
431.10	5493.24
431.28	5797.51
431.47	5860.70
431.66	5811.55
431.85	5605.58
432.03	5849.00
432.22	6019.86
432.41	5951.98
432.60	5914.53
432.79	5944.96
432.97	6003.47
433.16	6244.55
433.35	5998.79
433.54	6141.57
433.72	6136.88
433.91	6122.84
434.10	6237.53
434.28	5989.43
434.47	6223.48
434.66	6249.23
434.85	6195.40
435.03	6387.32
435.22	6232.85
435.41	6429.45
435.59	6441.15
435.78	6551.16
435.97	6539.46
436.16	6593.29
436.34	6478.60
436.53	6539.46
436.72	6656.48
436.90	6541.80
437.09	6740.74
437.28	6499.67
437.46	6560.52
437.65	6635.42
437.84	6881.18
438.02	6778.19
438.21	6855.43
438.40	6829.68
438.58	7019.27
438.77	7075.44
438.96	6951.39
439.14	7155.02
439.33	7178.42
439.52	7082.46
439.70	7375.03
439.89	7520.14
440.08	7452.27
440.26	7515.46
440.45	7431.20
440.63	7524.82
440.82	7749.51
441.01	7442.90
441.19	7592.70
441.38	7836.11
441.57	7887.61
441.75	7941.44
441.94	8191.88
442.12	7925.05
442.31	7812.71
442.50	8011.65
442.68	7950.80
442.87	7953.14
443.05	8273.79
443.24	8079.53
443.43	8163.79
443.61	8435.29
443.80	8461.04
443.98	7918.03
444.17	8021.02
444.35	8177.83
444.54	8444.65
444.73	8299.54
444.91	8304.22
445.10	8416.57
445.28	8404.86
445.47	8355.71
445.65	8344.01
445.84	8568.70
446.02	8510.19
446.21	8578.06
446.39	8414.23
446.58	8622.53
446.77	8528.91
446.95	8292.52
447.14	8482.10
447.32	8669.34
447.51	8510.19
447.69	8484.44
447.88	8521.89
448.06	8493.80
448.25	8667.00
448.43	8594.45
448.62	8720.84
448.80	8535.93
448.99	8645.94
449.17	8702.11
449.36	8634.24
449.54	8987.66
449.73	9018.08
449.91	8990.00
450.10	9027.45
450.28	9193.62
450.46	9078.94
450.65	8936.17
450.83	9006.38
451.02	9090.64
451.20	9177.24
451.39	9301.29
451.57	9282.56
451.76	9165.54
451.94	9231.07
452.13	9291.93
452.31	9427.68
452.49	9296.61
452.68	9455.76
452.86	9352.78
453.05	9579.81
453.23	9533.00
453.42	9256.82
453.60	9202.99
453.78	9542.36
453.97	9502.58
454.15	9589.17
454.34	9568.11
454.52	9734.29
454.70	9820.89
454.89	9909.83
455.07	9799.82
455.26	9907.49
455.44	9949.62
455.62	10003.45
455.81	9846.63
455.99	9994.09
456.17	10171.97
456.36	10104.09
456.54	10026.86
456.73	10361.55
456.91	10604.97
457.09	10429.43
457.28	10684.55
457.46	10291.34
457.64	10466.88
457.83	10640.08
458.01	10600.29
458.19	10761.78
458.38	10586.24
458.56	10780.51
458.74	10693.91
458.93	10611.99
459.11	10623.69
459.29	10775.83
459.48	10839.02
459.66	10754.76
459.84	10977.11
460.03	11044.99
460.21	10911.58
460.39	11061.37
460.57	10958.39
460.76	11293.08
460.94	11190.10
461.12	11218.19
461.31	11293.08
461.49	11344.58
461.67	11208.83
461.85	11475.65
462.04	11515.44
462.22	11604.38
462.40	11648.85
462.59	11632.46
462.77	11393.73
462.95	11531.82
463.13	11770.55
463.32	11709.70
463.50	11922.69
463.68	11791.62
463.86	12035.03
464.05	11763.53
464.23	11758.85
464.41	12006.95
464.59	11714.38
464.78	12276.11
464.96	11941.41
465.14	11782.26
465.32	12056.10
465.50	12039.72
465.69	12325.26
465.87	12194.19
466.05	12149.72
466.23	12343.99
466.41	12339.30
466.60	12645.91
466.78	12116.95
466.96	12271.43
467.14	12198.87
467.32	12615.49
467.51	12383.77
467.69	11983.54
467.87	12561.66
468.05	12666.98
468.23	12610.81
468.41	12746.56
468.60	12655.28
468.78	12915.08
468.96	12774.64
469.14	12945.50
469.32	12940.82
469.50	12772.30
469.69	12912.74
469.87	13408.93
470.05	13242.75
470.23	13338.71
470.41	13184.24
470.59	13432.33
470.77	13455.74
470.95	13554.04
471.14	13565.74
471.32	13181.90
471.50	13607.87
471.68	13785.76
471.86	13703.84
472.04	13809.16
472.22	14047.90
472.40	13893.42
472.58	14019.81
472.77	13862.99
472.95	14209.39
473.13	14703.25
473.31	14132.15
473.49	14120.45
473.67	14295.99
473.85	14422.38
474.03	14569.83
474.21	14621.33
474.39	14951.34
474.57	14700.90
474.75	14836.66
474.93	15061.35
475.12	15243.91
475.30	15257.95
475.48	15040.28
475.66	15220.50
475.84	15468.60
476.02	15594.99
476.20	15449.88
476.38	15662.86
476.56	16135.65
476.74	16201.19
476.92	15967.13
477.10	16053.73
477.28	16240.98
477.46	16079.48
477.64	16329.92
477.82	16519.50
478.00	16842.50
478.18	17029.74
478.36	17039.10
478.54	17055.48
478.72	17032.08
478.90	17479.12
479.08	17631.26
479.26	17926.16
479.44	18087.66
479.62	17982.34
479.80	17895.74
479.98	18246.82
480.16	18707.90
480.34	18352.14
480.52	18923.23
480.70	18644.71
480.88	18291.29
481.06	18958.34
481.24	18984.09
481.41	19491.98
481.59	19131.54
481.77	19791.57
481.95	19730.72
482.13	19719.01
482.31	19707.31
482.49	20313.51
482.67	20360.32
482.85	20283.08
483.03	20999.29
483.21	20765.23
483.39	21270.79
483.57	21003.97
483.74	21057.80
483.92	21528.25
484.10	21572.72
484.28	22106.36
484.46	21851.24
484.64	22017.42
484.82	22033.80
485.00	22899.80
485.18	23002.78
485.35	23197.05
485.53	23175.98
485.71	23136.20
485.89	23372.59
486.07	23658.14
486.25	23197.05
486.43	23707.29
486.61	23962.40
486.78	24226.89
486.96	24205.82
487.14	24411.79
487.32	24713.72
487.50	24891.60
487.68	25336.30
487.85	25413.54
488.03	25846.54
488.21	26473.80
488.39	26134.42
488.57	26251.45
488.75	26340.39
488.92	26946.59
489.10	26733.60
489.28	26668.06
489.46	26988.72
489.64	26909.14
489.81	27908.55
489.99	27882.80
490.17	28053.66
490.35	28589.64
490.53	28601.35
490.70	28713.69
490.88	28645.82
491.06	28931.36
491.24	29060.09
491.41	29242.65
491.59	29317.55
491.77	29949.50
491.95	29699.06
492.13	29792.68
492.30	30192.91
492.48	30288.87
492.66	30476.12
492.84	30457.39
493.01	30878.69
493.19	31051.89
493.37	31299.98
493.54	31255.51
493.72	31821.92
493.90	31519.99
494.08	31885.12
494.25	32299.39
494.43	32039.59
494.61	32357.91
494.79	32678.56
494.96	32634.09
495.14	32924.32
495.32	33511.79
495.49	33186.46
495.67	33684.99
495.85	33797.34
496.02	33802.02
496.20	34396.51
496.38	34190.55
496.55	34040.75
496.73	35033.14
496.91	34911.43
497.09	34869.30
497.26	35110.38
497.44	35330.39
497.62	35763.39
497.79	35622.95
497.97	35730.62
498.14	36313.41
498.32	36605.98
498.50	36264.26
498.67	36795.56
498.85	37099.83
499.03	37352.61
499.20	36861.10
499.38	37130.26
499.56	37036.64
499.73	37312.82
499.91	37684.97
500.08	37525.81
500.26	37689.65
500.44	38033.71
500.61	38188.18
500.79	38117.96
500.97	38452.66
501.14	38754.59
501.32	38557.99
501.49	39063.54
501.67	38951.20
501.84	39133.76
502.02	39274.19
502.20	39079.92
502.37	39594.84
502.55	39470.79
502.72	39489.52
502.90	39868.69
503.07	39896.77
503.25	39906.13
503.43	39751.66
503.60	40233.81
503.78	40088.70
503.95	40378.92
504.13	40552.12
504.30	40978.10
504.48	40760.43
504.65	41324.50
504.83	41125.55
505.01	41844.10
505.18	41352.58
505.36	41717.71
505.53	41350.24
505.71	41638.13
505.88	41937.72
506.06	41631.11
506.23	41982.19
506.41	42543.92
506.58	42192.84
506.76	42000.91
506.93	42887.98
507.11	42623.50
507.28	42241.99
507.46	43007.34
507.63	43173.52
507.81	43213.31
507.98	43419.28
508.16	43697.80
508.33	43608.86
508.50	43915.47
508.68	43723.55
508.85	44123.78
509.03	43871.00
509.20	44528.69
509.38	44694.87
509.55	44868.07
509.73	44669.12
509.90	45022.54
510.08	44952.33
510.25	44816.58
510.42	44769.77
510.60	45127.87
510.77	45457.88
510.95	45713.00
511.12	45296.39
511.30	45572.57
511.47	45514.06
511.64	45635.77
511.82	45982.16
511.99	46106.21
512.17	45708.32
512.34	46377.72
512.51	46562.62
512.69	46571.98
512.86	46588.36
513.04	47140.73
513.21	46473.68
513.38	47243.71
513.56	46492.40
513.73	46850.50
513.90	47330.31
514.08	46892.63
514.25	47349.04
514.43	47667.35
514.60	47978.64
514.77	47573.73
514.95	48144.82
515.12	47873.32
515.29	47496.49
515.47	48313.34
515.64	48416.32
515.81	48259.51
515.99	48231.42
516.16	48786.13
516.33	48835.28
516.51	48615.27
516.68	48598.88
516.85	48734.63
517.03	49029.54
517.20	49389.98
517.37	49214.44
517.54	48975.71
517.72	49282.32
517.89	49289.34
518.06	49174.66
518.24	49521.05
518.41	49485.95
518.58	49703.62
518.75	49656.81
518.93	49940.01
519.10	49523.40
519.27	49666.17
519.45	49860.43
519.62	50520.46
519.79	50312.16
519.96	50052.36
520.14	50246.62
520.31	50211.51
520.48	50677.28
520.65	50218.53
520.83	50576.64
521.00	50873.88
521.17	50740.47
521.34	50974.53
521.52	51002.61
521.69	50843.46
521.86	51306.88
522.03	51562.00
522.20	51339.65
522.38	51812.44
522.55	51203.90
522.72	51468.38
522.89	51707.12
523.07	51990.32
523.24	51842.87
523.41	51999.68
523.58	51934.15
523.75	51980.96
523.92	51896.70
524.10	52151.82
524.27	52343.74
524.44	52154.16
524.61	52240.76
524.78	52474.81
524.96	52252.46
525.13	52685.46
525.30	52542.69
525.47	52652.69
525.64	52755.68
525.81	52521.62
525.98	52678.44
526.16	52900.79
526.33	52692.48
526.50	53125.48
526.67	52825.89
526.84	53221.44
527.01	52987.39
527.18	53006.11
527.36	53324.43
527.53	53146.54
527.70	53825.30
527.87	53549.12
528.04	53420.39
528.21	53504.65
528.38	53478.90
528.55	53656.78
528.72	53230.80
528.89	53844.02
529.07	53460.18
529.24	53305.70
529.41	53822.96
529.58	53932.96
529.75	53764.45
529.92	53790.19
530.09	54024.25
530.26	53951.69
530.43	54248.94
530.60	53801.89
530.77	53958.71
530.94	54131.91
531.11	54113.19
531.28	54522.78
531.46	54384.69
531.63	54482.99
531.80	54241.92
531.97	54387.03
532.14	54581.29
532.31	54595.34
532.48	54485.33
532.65	54850.45
532.82	54567.25
532.99	54637.47
533.16	54735.77
533.33	55077.49
533.50	55189.83
533.67	54780.24
533.84	55000.25
534.01	55063.44
534.18	55334.95
534.35	55391.12
534.52	55360.69
534.69	55695.39
534.86	55545.59
535.03	54848.11
535.20	55374.73
535.37	55318.56
535.54	55561.98
535.71	55540.91
535.88	55458.99
536.05	55571.34
536.22	55702.41
536.38	55557.30
536.55	55693.05
536.72	55913.06
536.89	55826.46
537.06	55639.22
537.23	56142.43
537.40	55803.05
537.57	55915.40
537.74	55983.27
537.91	56086.26
538.08	56069.87
538.25	55910.72
538.42	56076.90
538.59	56051.15
538.75	56137.75
538.92	56315.63
539.09	56383.51
539.26	56329.67
539.43	56079.24
539.60	56355.42
539.77	56500.53
539.94	56545.00
540.11	56425.64
540.28	56512.23
540.44	56343.72
540.61	56608.20
540.78	56566.07
540.95	56750.97
541.12	56575.43
541.29	56757.99
541.46	56498.19
541.62	56877.36
541.79	56954.60
541.96	56657.35
542.13	56825.87
542.30	56865.66
542.47	56933.53
542.63	57198.01
542.80	56879.70
542.97	57326.74
543.14	57504.62
543.31	57373.55
543.48	57485.90
543.64	57418.02
543.81	57275.25
543.98	57401.64
544.15	57462.49
544.32	57572.50
544.48	57661.44
544.65	57448.45
544.82	57661.44
544.99	57399.30
545.16	57614.63
545.32	57640.37
545.49	57991.45
545.66	57937.62
545.83	57780.81
546.00	57993.79
546.16	57827.62
546.33	57609.95
546.50	57752.72
546.67	57804.21
546.83	57752.72
547.00	57822.93
547.17	57930.60
547.34	57897.83
547.50	57986.77
547.67	58260.62
547.84	58113.16
548.00	58291.04
548.17	58389.34
548.34	58047.63
548.51	58354.24
548.67	58267.64
548.84	58138.91
549.01	58148.27
549.18	58176.36
549.34	58351.90
549.51	58688.93
549.68	58529.78
549.84	58548.50
550.01	58663.19
550.18	58319.13
550.34	58651.48
550.51	58681.91
550.68	58782.55
550.84	58368.28
551.01	58604.67
551.18	58742.77
551.34	58773.19
551.51	58705.32
551.68	58754.47
551.84	58768.51
552.01	58475.94
552.18	58773.19
552.34	58553.18
552.51	58885.54
552.68	58745.11
552.84	58890.22
553.01	59096.19
553.18	58918.31
553.34	58817.66
553.51	58738.08
553.67	58911.28
553.84	59140.66
554.01	59037.67
554.17	59187.47
554.34	59180.45
554.51	59248.32
554.67	59302.15
554.84	59157.04
555.00	59241.30
555.17	59250.66
555.33	59222.58
555.50	59018.95
555.67	59131.29
555.83	59098.53
556.00	59231.94
556.16	59664.94
556.33	59463.65
556.50	59229.60
556.66	59433.22
556.83	59213.21
556.99	59456.63
557.16	59550.25
557.32	59409.82
557.49	59639.19
557.65	59484.72
557.82	59641.53
557.98	59374.71
558.15	59545.57
558.32	59585.36
558.48	59456.63
558.65	59627.49
558.81	59615.79
558.98	59608.76
559.14	59973.89
559.31	59817.07
559.47	59840.48
559.64	59891.97
559.80	59882.61
559.97	59849.84
560.13	59856.86
560.30	59810.05
560.46	59870.90
560.63	59861.54
560.79	59700.04
560.96	59990.27
561.12	60090.91
561.29	59936.44
561.45	60074.53
561.61	60037.08
561.78	60018.36
561.94	59700.04
562.11	59793.67
562.27	60175.17
562.44	60175.17
562.60	60163.47
562.77	60027.72
562.93	60119.00
563.10	60205.60
563.26	60083.89
563.42	60331.99
563.59	60203.26
563.75	60207.94
563.92	60238.37
564.08	60095.60
564.24	60158.79
564.41	60224.32
564.57	60193.90
564.74	60336.67
564.90	60353.05
565.07	60107.30
565.23	60322.63
565.39	60133.04
565.56	60324.97
565.72	60289.86
565.88	60280.50
566.05	60250.07
566.21	60191.56
566.38	60437.31
566.54	60306.24
566.70	60493.49
566.87	60467.74
567.03	60399.86
567.19	60594.13
567.36	60535.62
567.52	60441.99
567.68	60720.52
567.85	60465.40
568.01	60580.09
568.17	60610.51
568.34	60484.12
568.50	60420.93
568.66	60460.72
568.83	60505.19
568.99	60456.04
569.15	60427.95
569.32	60573.06
569.48	60327.31
569.64	60800.10
569.81	60418.59
569.97	60254.75
570.13	60708.82
570.30	60357.74
570.46	60669.03
570.62	60582.43
570.78	60685.41
570.95	60596.47
571.11	60741.58
571.27	60767.33
571.43	60650.30
571.60	60779.03
571.76	60697.11
571.92	60633.92
572.09	60748.60
572.25	60821.16
572.41	60699.45
572.57	60807.12
572.74	60963.93
572.90	60776.69
573.06	60776.69
573.22	61073.94
573.38	60720.52
573.55	60846.91
573.71	61069.26
573.87	60800.10
574.03	60701.79
574.20	60764.99
574.36	60552.00
574.52	60797.76
574.68	60856.27
574.84	60867.97
575.01	60987.34
575.17	60774.35
575.33	60762.65
575.49	60725.20
575.65	61027.13
575.82	61024.79
575.98	60989.68
576.14	61029.47
576.30	61027.13
576.46	60917.12
576.62	60706.47
576.79	60851.59
576.95	60807.12
577.11	60999.04
577.27	60935.85
577.43	60753.29
577.59	60982.66
577.75	60879.67
577.92	60860.95
578.08	60804.78
578.24	60842.23
578.40	60977.98
578.56	61202.67
578.72	60982.66
578.88	61055.21
579.04	61148.84
579.21	61111.39
579.37	60975.64
579.53	61024.79
579.69	60921.80
579.85	60926.49
580.01	60924.14
580.17	60856.27
580.33	60975.64
580.49	61212.03
580.65	61083.30
580.82	60910.10
580.98	61085.64
581.14	61132.45
581.30	61249.48
581.46	61134.79
581.62	61064.58
581.78	60982.66
581.94	61221.39
582.10	60886.70
582.26	61069.26
582.42	61031.81
582.58	60952.23
582.74	61010.74
582.90	60860.95
583.06	61087.98
583.22	60898.40
583.38	60893.72
583.54	61212.03
583.70	61141.81
583.86	61190.97
584.02	61083.30
584.18	60947.55
584.34	61062.24
584.50	61097.34
584.66	60968.61
584.82	60872.65
584.98	61209.69
585.14	61141.81
585.30	61059.90
585.46	61167.56
585.62	61263.52
585.78	61385.23
585.94	61001.38
586.10	61141.81
586.26	61043.51
586.42	61141.81
586.58	61270.54
586.74	61286.93
586.90	61066.92
587.06	60910.10
587.22	61188.63
587.38	61165.22
587.54	61317.35
587.70	61120.75
587.86	61258.84
588.02	61186.28
588.18	61261.18
588.34	61359.48
588.49	61324.38
