SpectraSuite Data File
++++++++++++++++++++++++++++++++++++
Date: Fri Oct 25 11:33:20 EDT 2013
User: price-jones
Dark Spectrum Present: No
Reference Spectrum Present: No
Number of Sampled Component Spectra: 1
Spectrometers: USB2+H05261
Integration Time (usec): 100000 (USB2+H05261)
Spectra Averaged: 1 (USB2+H05261)
Boxcar Smoothing: 0 (USB2+H05261)
Correct for Electrical Dark: No (USB2+H05261)
Strobe/Lamp Enabled: No (USB2+H05261)
Correct for Detector Non-linearity: No (USB2+H05261)
Correct for Stray Light: No (USB2+H05261)
Number of Pixels in Processed Spectrum: 2048
>>>>>Begin Processed Spectral Data<<<<<
365.73	304.27
365.92	304.27
366.12	304.27
366.32	196.60
366.52	198.95
366.72	152.13
366.91	166.18
367.11	210.65
367.31	161.50
367.51	156.82
367.70	231.71
367.90	231.71
368.10	175.54
368.30	175.54
368.49	114.69
368.69	154.48
368.89	126.39
369.09	159.16
369.28	259.80
369.48	196.60
369.68	205.97
369.87	222.35
370.07	248.10
370.27	229.37
370.47	271.50
370.66	470.45
370.86	526.62
371.06	573.43
371.25	571.09
371.45	514.92
371.65	566.41
371.84	648.33
372.04	613.22
372.24	578.11
372.44	575.77
372.63	594.50
372.83	610.88
373.03	592.16
373.22	615.56
373.42	669.39
373.62	655.35
373.81	660.03
374.01	655.35
374.21	615.56
374.40	664.71
374.60	622.58
374.79	585.13
374.99	667.05
375.19	711.52
375.38	692.80
375.58	730.25
375.78	660.03
375.97	657.69
376.17	741.95
376.37	655.35
376.56	704.50
376.76	653.01
376.95	660.03
377.15	723.23
377.35	674.07
377.54	610.88
377.74	730.25
377.93	690.46
378.13	688.12
378.33	725.57
378.52	770.04
378.72	671.73
378.91	793.44
379.11	758.33
379.31	718.54
379.50	631.94
379.70	695.14
379.89	755.99
380.09	772.38
380.28	664.71
380.48	681.10
380.68	774.72
380.87	723.23
381.07	660.03
381.26	753.65
381.46	781.74
381.65	784.08
381.85	763.01
382.04	716.20
382.24	866.00
382.43	793.44
382.63	786.42
382.83	819.19
383.02	781.74
383.22	805.14
383.41	755.99
383.61	844.93
383.80	805.14
384.00	849.61
384.19	826.21
384.39	915.15
384.58	802.80
384.78	814.51
384.97	896.43
385.17	826.21
385.36	819.19
385.56	816.85
385.75	802.80
385.95	901.11
386.14	861.32
386.34	835.57
386.53	795.78
386.72	842.59
386.92	961.96
387.11	915.15
387.31	849.61
387.50	901.11
387.70	945.58
387.89	908.13
388.09	943.24
388.28	931.53
388.48	922.17
388.67	971.32
388.86	875.36
389.06	961.96
389.25	912.81
389.45	910.47
389.64	1001.75
389.84	1041.54
390.03	968.98
390.22	1032.18
390.42	983.02
390.61	964.30
390.81	994.73
391.00	1032.18
391.19	990.05
391.39	936.21
391.58	1071.97
391.78	997.07
391.97	1013.45
392.16	976.00
392.36	966.64
392.55	1004.09
392.75	1100.05
392.94	1048.56
393.13	1053.24
393.33	1078.99
393.52	1090.69
393.71	1121.12
393.91	1128.14
394.10	1088.35
394.29	1128.14
394.49	1048.56
394.68	1078.99
394.88	1048.56
395.07	1163.25
395.26	1181.97
395.46	1104.73
395.65	1158.57
395.84	1153.88
396.04	1299.00
396.23	1205.38
396.42	1188.99
396.62	1252.19
396.81	1207.72
397.00	1240.48
397.19	1200.69
397.39	1238.14
397.58	1214.74
397.77	1233.46
397.97	1331.76
398.16	1245.16
398.35	1177.29
398.55	1301.34
398.74	1289.64
398.93	1369.21
399.12	1371.55
399.32	1273.25
399.51	1280.27
399.70	1380.92
399.90	1331.76
400.09	1401.98
400.28	1486.24
400.47	1413.68
400.67	1390.28
400.86	1317.72
401.05	1460.49
401.24	1406.66
401.44	1394.96
401.63	1476.88
401.82	1420.71
402.01	1490.92
402.21	1460.49
402.40	1483.90
402.59	1547.09
402.78	1516.67
402.97	1570.50
403.17	1523.69
403.36	1535.39
403.55	1710.93
403.74	1582.20
403.93	1528.37
404.13	1659.44
404.32	1643.06
404.51	1586.88
404.70	1554.12
404.89	1685.19
405.09	1790.51
405.28	1575.18
405.47	1666.46
405.66	1657.10
405.85	1809.23
406.05	1678.16
406.24	1720.29
406.43	1813.92
406.62	1797.53
406.81	1856.04
407.00	1825.62
407.20	1797.53
407.39	1874.77
407.58	1785.83
407.77	1865.41
407.96	1867.75
408.15	1973.07
408.34	1914.56
408.54	1877.11
408.73	1996.48
408.92	1998.82
409.11	1944.99
409.30	1987.11
409.49	1991.80
409.68	2029.24
409.87	2062.01
410.07	2003.50
410.26	2108.82
410.45	2071.37
410.64	2033.93
410.83	2062.01
411.02	2127.55
411.21	2228.19
411.40	2146.27
411.59	2223.51
411.78	2148.61
411.98	2207.13
412.17	2324.15
412.36	2298.41
412.55	2284.36
412.74	2331.17
412.93	2410.75
413.12	2340.54
413.31	2476.29
413.50	2427.14
413.69	2377.98
413.88	2541.82
414.07	2492.67
414.26	2417.77
414.45	2530.12
414.64	2588.63
414.83	2665.87
415.02	2565.23
415.22	2649.49
415.41	2600.34
415.60	2724.38
415.79	2810.98
415.98	2649.49
416.17	2766.51
416.36	2640.12
416.55	2822.69
416.74	2871.84
416.93	2747.79
417.12	2794.60
417.31	2785.24
417.50	2937.37
417.69	3045.04
417.88	2895.24
418.07	2904.60
418.26	2991.20
418.45	3059.08
418.64	3068.44
418.83	2965.46
419.02	3054.40
419.21	3030.99
419.39	3138.66
419.58	3073.12
419.77	3094.19
419.96	3112.91
420.15	3180.79
420.34	3220.58
420.53	3309.52
420.72	3234.62
420.91	3309.52
421.10	3344.63
421.29	3269.73
421.48	3267.39
421.67	3349.31
421.86	3251.00
422.05	3295.47
422.24	3279.09
422.43	3461.65
422.61	3386.76
422.80	3379.73
422.99	3576.34
423.18	3496.76
423.37	3452.29
423.56	3407.82
423.75	3384.41
423.94	3471.01
424.13	3087.17
424.32	3253.34
424.50	3454.63
424.69	3578.68
424.88	3487.40
425.07	3351.65
425.26	3396.12
425.45	3487.40
425.64	3515.48
425.83	3393.78
426.01	3559.95
426.20	3609.11
426.39	3651.24
426.58	3435.91
426.77	3480.38
426.96	3667.62
427.15	3592.72
427.33	3597.40
427.52	3520.17
427.71	3686.34
427.90	3714.43
428.09	3641.87
428.28	3726.13
428.46	3686.34
428.65	3768.26
428.84	3831.46
429.03	3899.33
429.22	3712.09
429.40	3676.98
429.59	3854.86
429.78	3688.68
429.97	3714.43
430.16	3667.62
430.34	3882.95
430.53	3885.29
430.72	4025.72
430.91	3922.74
431.10	3887.63
431.28	3866.56
431.47	4105.30
431.66	3920.40
431.85	3922.74
432.03	4060.83
432.22	4091.26
432.41	4198.92
432.60	4093.60
432.79	4250.41
432.97	4219.99
433.16	4161.47
433.35	4196.58
433.54	4128.70
433.72	4203.60
433.91	4145.09
434.10	4248.07
434.28	4257.43
434.47	4222.33
434.66	4234.03
434.85	4255.09
435.03	4428.29
435.22	4367.44
435.41	4348.72
435.59	4411.91
435.78	4311.27
435.97	4425.95
436.16	4362.76
436.34	4444.68
436.53	4505.53
436.72	4475.10
436.90	4479.79
437.09	4386.16
437.28	4397.87
437.46	4521.92
437.65	4514.89
437.84	4809.80
438.02	4641.28
438.21	4617.88
438.40	4683.41
438.58	4767.67
438.77	4774.69
438.96	4704.48
439.14	4718.52
439.33	4814.48
439.52	4791.08
439.70	4917.47
439.89	5022.79
440.08	5114.07
440.26	5046.20
440.45	5165.56
440.63	5172.58
440.82	5200.67
441.01	5259.18
441.19	5053.22
441.38	5305.99
441.57	5277.91
441.75	5219.39
441.94	5425.36
442.12	5523.66
442.31	5488.56
442.50	5540.05
442.68	5416.00
442.87	5364.51
443.05	5345.78
443.24	5633.67
443.43	5511.96
443.61	5617.29
443.80	5762.40
443.98	5523.66
444.17	5401.96
444.35	5570.48
444.54	5647.71
444.73	5654.73
444.91	5689.84
445.10	5596.22
445.28	5823.25
445.47	5645.37
445.65	5631.33
445.84	5727.29
446.02	5860.70
446.21	5743.67
446.39	5685.16
446.58	5893.47
446.77	5834.96
446.95	5849.00
447.14	5687.50
447.32	5909.85
447.51	5729.63
447.69	5654.73
447.88	5858.36
448.06	5898.15
448.25	5844.32
448.43	5767.08
448.62	5919.21
448.80	5724.95
448.99	5944.96
449.17	5886.45
449.36	5933.26
449.54	5909.85
449.73	6253.91
449.91	6228.17
450.10	6083.05
450.28	6251.57
450.46	6183.70
450.65	6115.82
450.83	6155.61
451.02	6111.14
451.20	6382.64
451.39	6246.89
451.57	6303.06
451.76	6087.73
451.94	6242.21
452.13	6146.25
452.31	6363.92
452.49	6272.64
452.68	6471.58
452.86	6270.30
453.05	6392.00
453.23	6504.35
453.42	6492.65
453.60	6373.28
453.78	6459.88
453.97	6455.20
454.15	6457.54
454.34	6469.24
454.52	6672.87
454.70	6506.69
454.89	6537.12
455.07	6754.79
455.26	6551.16
455.44	6712.66
455.62	6794.58
455.81	6729.04
455.99	6902.24
456.17	6904.58
456.36	6860.11
456.54	6834.36
456.73	6885.86
456.91	7129.27
457.09	7049.69
457.28	7077.78
457.46	6995.86
457.64	7180.76
457.83	7279.07
458.01	6963.09
458.19	7384.39
458.38	7232.26
458.56	7382.05
458.74	7360.98
458.93	7239.28
459.11	7225.23
459.29	7248.64
459.48	7260.34
459.66	7414.82
459.84	7314.17
460.03	7552.91
460.21	7524.82
460.39	7461.63
460.57	7602.06
460.76	7487.37
460.94	7630.15
461.12	7639.51
461.31	7683.98
461.49	7527.16
461.67	7485.03
461.85	7915.69
462.04	7665.25
462.22	8248.05
462.40	7815.05
462.59	7885.26
462.77	7826.75
462.95	7859.52
463.13	7939.10
463.32	7784.62
463.50	8023.36
463.68	8042.08
463.86	8009.31
464.05	7918.03
464.23	7988.25
464.41	8021.02
464.59	7789.30
464.78	8168.47
464.96	7985.91
465.14	8109.96
465.32	8013.99
465.50	8124.00
465.69	8430.61
465.87	8208.26
466.05	8243.37
466.23	8334.65
466.41	8461.04
466.60	8372.10
466.78	8292.52
466.96	8416.57
467.14	8215.28
467.32	8248.05
467.51	8596.79
467.69	8425.93
467.87	8358.05
468.05	8568.70
468.23	8351.03
468.41	8322.94
468.60	8528.91
468.78	8475.08
468.96	8594.45
469.14	8678.71
469.32	8777.01
469.50	8465.72
469.69	8582.74
469.87	8727.86
470.05	8830.84
470.23	8940.85
470.41	8762.97
470.59	8898.72
470.77	8847.22
470.95	8816.80
471.14	9057.87
471.32	8788.71
471.50	9198.31
471.68	8959.57
471.86	9188.94
472.04	9181.92
472.22	9273.20
472.40	9081.28
472.58	9352.78
472.77	9408.95
472.95	9537.68
473.13	9926.21
473.31	9331.72
473.49	9362.14
473.67	9626.62
473.85	9675.77
474.03	9998.77
474.21	9867.70
474.39	9771.74
474.57	9872.38
474.75	10134.52
474.93	10078.35
475.12	9947.28
475.30	10092.39
475.48	10190.69
475.66	10066.64
475.84	9947.28
476.02	10345.17
476.20	10335.81
476.38	10595.61
476.56	10775.83
476.74	10590.92
476.92	10553.48
477.10	10567.52
477.28	10693.91
477.46	10621.35
477.64	11063.71
477.82	11178.40
478.00	11403.09
478.18	11140.95
478.36	11190.10
478.54	11391.39
478.72	11384.37
478.90	11667.57
479.08	11606.72
479.26	11646.51
479.44	11620.76
479.62	11761.19
479.80	12088.87
479.98	11988.22
480.16	12372.07
480.34	12320.58
480.52	12486.76
480.70	12428.24
480.88	12320.58
481.06	12276.11
481.24	12453.99
481.41	12774.64
481.59	12807.41
481.77	12992.31
481.95	12875.29
482.13	13287.22
482.31	13135.09
482.49	13408.93
482.67	13235.73
482.85	13523.62
483.03	13607.87
483.21	13757.67
483.39	14061.94
483.57	13804.48
483.74	13989.38
483.92	14043.21
484.10	14148.54
484.28	14513.66
484.46	14647.07
484.64	14937.30
484.82	14499.62
485.00	14759.42
485.18	15035.60
485.35	15201.78
485.53	15257.95
485.71	15353.91
485.89	15396.04
486.07	15433.49
486.25	15728.40
486.43	15777.55
486.61	15878.19
486.78	15950.75
486.96	15971.82
487.14	16313.53
487.32	16166.08
487.50	16507.80
487.68	16533.54
487.85	16762.92
488.03	17083.57
488.21	17224.00
488.39	17158.47
488.57	17170.17
488.75	17413.59
488.92	17652.32
489.10	17638.28
489.28	17710.83
489.46	17893.40
489.64	17982.34
489.81	18265.54
489.99	18408.31
490.17	18647.05
490.35	18387.25
490.53	18471.51
490.70	18609.60
490.88	18817.91
491.06	19000.47
491.24	19218.14
491.41	19370.27
491.59	19288.35
491.77	19073.03
491.95	19690.93
492.13	19515.39
492.30	19906.26
492.48	19864.13
492.66	19829.02
492.84	20009.24
493.01	20400.11
493.19	20341.60
493.37	20381.38
493.54	20556.93
493.72	20971.20
493.90	20765.23
494.08	20805.02
494.25	21144.40
494.43	21029.71
494.61	21558.67
494.79	21350.37
494.96	21645.27
495.14	21666.34
495.32	22010.40
495.49	21989.33
495.67	22082.95
495.85	22359.14
496.02	22139.13
496.20	22317.01
496.38	22888.10
496.55	22640.00
496.73	23119.81
496.91	22710.22
497.09	23208.75
497.26	22731.28
497.44	23232.16
497.62	23129.17
497.79	23569.19
497.97	23126.83
498.14	23821.97
498.32	23669.84
498.50	23929.64
498.67	24027.94
498.85	24095.82
499.03	24259.65
499.20	24285.40
499.38	24540.52
499.56	24379.02
499.73	24858.83
499.91	24907.98
500.08	25046.07
500.26	24936.07
500.44	25151.40
500.61	24809.68
500.79	24879.89
500.97	25308.21
501.14	25727.17
501.32	25729.51
501.49	25319.92
501.67	25685.04
501.84	25998.67
502.02	25773.98
502.20	25923.77
502.37	25778.66
502.55	26136.76
502.72	26410.60
502.90	26562.74
503.07	26033.78
503.25	26647.00
503.43	26167.19
503.60	26654.02
503.78	26609.55
503.95	26721.90
504.13	27065.96
504.30	26969.99
504.48	26686.79
504.65	26820.20
504.83	27421.72
505.01	27632.36
505.18	27021.48
505.36	27777.48
505.53	27665.13
505.71	27594.92
505.88	27496.61
506.06	27573.85
506.23	27747.05
506.41	27847.69
506.58	27880.46
506.76	28180.05
506.93	28297.08
507.11	28463.25
507.28	28364.95
507.46	28645.82
507.63	28725.39
507.81	28837.74
507.98	28599.01
508.16	28730.08
508.33	28484.32
508.50	29415.85
508.68	29071.79
508.85	29350.32
509.03	29453.30
509.20	29408.83
509.38	29504.79
509.55	29713.10
509.73	29685.01
509.90	29624.16
510.08	29619.48
510.25	29575.01
510.42	29977.58
510.60	30235.04
510.77	30410.58
510.95	30171.85
511.12	30167.16
511.30	30218.66
511.47	30635.27
511.64	30155.46
511.82	30497.18
511.99	30768.68
512.17	30649.32
512.34	30672.72
512.51	31051.89
512.69	31166.57
512.86	31157.21
513.04	31482.55
513.21	30911.46
513.38	31307.01
513.56	31761.07
513.73	31218.07
513.90	31047.21
514.08	31325.73
514.25	31622.98
514.43	31969.38
514.60	31871.07
514.77	31880.44
514.95	32135.56
515.12	31866.39
515.29	31917.89
515.47	32376.63
515.64	32238.54
515.81	32198.75
515.99	32772.18
516.16	32573.24
516.33	32697.28
516.51	32936.02
516.68	32762.82
516.85	32449.19
517.03	32973.47
517.20	32924.32
517.37	32828.35
517.54	33085.81
517.72	33202.84
517.89	33146.67
518.06	33060.07
518.24	33053.05
518.41	33397.10
518.58	33450.94
518.75	33298.80
518.93	33729.46
519.10	34071.18
519.27	33790.31
519.45	33881.60
519.62	34349.70
519.79	34396.51
519.96	33818.40
520.14	34529.92
520.31	34073.52
520.48	34150.76
520.65	34328.64
520.83	34696.10
521.00	34827.17
521.17	34424.60
521.34	34506.52
521.52	34946.54
521.69	34836.53
521.86	34972.28
522.03	35211.02
522.20	35278.89
522.38	35323.36
522.55	35185.27
522.72	35192.30
522.89	35409.96
523.07	35892.12
523.24	35442.73
523.41	35543.38
523.58	35634.66
523.75	35786.79
523.92	35543.38
524.10	35606.57
524.27	36158.94
524.44	36240.86
524.61	35962.33
524.78	36037.23
524.96	35971.69
525.13	36364.90
525.30	36392.99
525.47	36526.40
525.64	36084.04
525.81	36685.56
525.98	36861.10
526.16	36643.43
526.33	36577.89
526.50	37289.42
526.67	36692.58
526.84	36828.33
527.01	36821.31
527.18	37109.19
527.36	37078.77
527.53	36938.33
527.70	37574.96
527.87	37436.87
528.04	37380.70
528.21	37565.60
528.38	37296.44
528.55	37794.97
528.72	37872.21
528.89	37666.24
529.07	37610.07
529.24	37453.25
529.41	37558.58
529.58	37818.38
529.75	37670.92
529.92	38036.05
530.09	37624.11
530.26	37909.66
530.43	38183.50
530.60	37844.12
530.77	37993.92
530.94	38455.00
531.11	37895.61
531.28	38520.54
531.46	38452.66
531.63	38572.03
531.80	38321.59
531.97	38557.99
532.14	38787.36
532.31	38766.29
532.48	39145.46
532.65	39129.08
532.82	38852.89
532.99	39213.34
533.16	38789.70
533.33	39079.92
533.50	39250.78
533.67	39192.27
533.84	38761.61
534.01	39269.51
534.18	39079.92
534.35	39868.69
534.52	39215.68
534.69	40065.29
534.86	39543.35
535.03	39625.27
535.20	39508.24
535.37	39655.70
535.54	39636.97
535.71	39899.11
535.88	40002.10
536.05	40371.90
536.22	39957.63
536.38	39899.11
536.55	39697.83
536.72	39995.07
536.89	39718.89
537.06	40313.39
537.23	40318.07
537.40	39981.03
537.57	40182.32
537.74	40114.44
537.91	40435.10
538.08	40692.55
538.25	40140.19
538.42	40636.38
538.59	40781.49
538.75	40605.95
538.92	41085.76
539.09	40928.95
539.26	40591.91
539.43	40769.79
539.60	40921.93
539.77	41226.20
539.94	41233.22
540.11	41174.70
540.28	41179.39
540.44	41193.43
540.61	41216.83
540.78	41305.77
540.95	41223.86
541.12	41090.44
541.29	41137.26
541.46	41490.68
541.62	41053.00
541.79	42064.11
541.96	41120.87
542.13	41572.60
542.30	41780.90
542.47	41818.35
542.63	41727.07
542.80	41991.55
542.97	42588.39
543.14	42354.33
543.31	41989.21
543.48	42202.20
543.64	42534.56
543.81	42644.56
543.98	42534.56
544.15	42335.61
544.32	42843.51
544.48	42581.37
544.65	42536.90
544.82	42916.06
544.99	42368.38
545.16	42763.93
545.32	42370.72
545.49	42883.30
545.66	43182.88
545.83	42904.36
546.00	42988.62
546.16	43407.58
546.33	42782.65
546.50	42679.67
546.67	43161.82
546.83	42260.71
547.00	42981.60
547.17	42974.58
547.34	43271.82
547.50	43360.76
547.67	43412.26
547.84	43641.63
548.00	43562.05
548.17	43400.55
548.34	43952.92
548.51	44032.50
548.67	43676.74
548.84	43653.33
549.01	43496.52
549.18	43505.88
549.34	43711.84
549.51	43978.67
549.68	44137.82
549.84	43751.63
550.01	43728.23
550.18	43552.69
550.34	43601.84
550.51	44252.51
550.68	44334.43
550.84	43433.32
551.01	44554.44
551.18	43833.55
551.34	44009.09
551.51	44224.42
551.68	44165.91
551.84	44348.47
552.01	44336.77
552.18	44552.10
552.34	44194.00
552.51	44760.40
552.68	44444.43
552.84	44495.92
553.01	44538.05
553.18	44765.09
553.34	44526.35
553.51	44657.42
553.67	44509.97
553.84	44896.16
554.01	45097.44
554.17	44704.23
554.34	44851.69
554.51	44350.81
554.67	44673.81
554.84	45268.30
555.00	44837.64
555.17	44898.50
555.33	44858.71
555.50	45191.06
555.67	45069.36
555.83	45057.65
556.00	45104.46
556.16	45567.89
556.33	44910.20
556.50	45174.68
556.66	45265.96
556.83	44980.42
556.99	45481.29
557.16	45523.42
557.32	45408.73
557.49	45738.75
557.65	45081.06
557.82	45670.87
557.98	45366.60
558.15	45799.60
558.32	45834.71
558.48	45743.43
558.65	45603.00
558.81	45790.24
558.98	45392.35
559.14	45317.45
559.31	45741.09
559.47	45420.44
559.64	45481.29
559.80	45801.94
559.97	46251.33
560.13	45881.52
560.30	46078.13
560.46	46064.08
560.63	46033.66
560.79	46155.36
560.96	46202.18
561.12	45717.68
561.29	45951.74
561.45	46401.12
561.61	45827.69
561.78	46323.88
561.94	46012.59
562.11	45935.35
562.27	46237.28
562.44	46424.53
562.60	46354.31
562.77	46115.58
562.93	45993.87
563.10	46747.52
563.26	46344.95
563.42	46770.93
563.59	46239.62
563.75	46351.97
563.92	46361.33
564.08	46333.24
564.24	46085.15
564.41	46368.35
564.57	46417.50
564.74	46401.12
564.90	46445.59
565.07	46333.24
565.23	46469.00
565.39	46579.00
565.56	46281.75
565.72	46487.72
565.88	46712.41
566.05	46263.03
566.21	46602.41
566.38	46775.61
566.54	46618.79
566.70	46761.56
566.87	46787.31
567.03	46677.30
567.19	46862.21
567.36	46429.21
567.52	46752.20
567.68	46806.03
567.85	46838.80
568.01	47049.45
568.17	47012.00
568.34	47210.95
568.50	46932.42
568.66	46628.15
568.83	46850.50
568.99	46689.01
569.15	47044.77
569.32	47089.24
569.48	46710.07
569.64	47086.90
569.81	47189.88
569.97	46967.53
570.13	46852.84
570.30	46986.25
570.46	46925.40
570.62	46918.38
570.78	47297.55
570.95	47012.00
571.11	47175.84
571.27	47079.88
571.43	46583.68
571.60	46930.08
571.76	47007.32
571.92	47089.24
572.09	46817.74
572.25	46913.70
572.41	46799.01
572.57	47192.22
572.74	47463.72
572.90	47131.37
573.06	47505.85
573.22	47433.30
573.38	47629.90
573.55	47618.20
573.71	47751.61
573.87	47334.99
574.03	47316.27
574.20	47690.76
574.36	47435.64
574.52	47681.39
574.68	47227.33
574.84	47407.55
575.01	47569.05
575.17	47274.14
575.33	47433.30
575.49	47220.31
575.65	47180.52
575.82	47353.72
575.98	47285.84
576.14	47529.26
576.30	47515.22
576.46	47463.72
576.62	47419.25
576.79	47194.56
576.95	47250.74
577.11	47079.88
577.27	47056.47
577.43	47470.75
577.59	47531.60
577.75	47276.48
577.92	47082.22
578.08	47529.26
578.24	47592.45
578.40	47489.47
578.56	47386.49
578.72	47540.96
578.88	47526.92
579.04	47665.01
579.21	47770.33
579.37	47557.35
579.53	47498.83
579.69	47288.18
579.85	47613.52
580.01	47711.82
580.17	47524.58
580.33	47445.00
580.49	47938.85
580.65	47707.14
580.82	47264.78
580.98	47084.56
581.14	47253.08
581.30	47594.79
581.46	47587.77
581.62	47367.76
581.78	47686.07
581.94	47079.88
582.10	47447.34
582.26	48184.61
582.42	47367.76
582.58	47349.04
582.74	47573.73
582.90	48027.79
583.06	47655.65
583.22	47709.48
583.38	47775.02
583.54	47657.99
583.70	47679.05
583.86	48027.79
584.02	47592.45
584.18	47779.70
584.34	47948.21
584.50	47985.66
584.66	47601.82
584.82	47908.43
584.98	48205.67
585.14	47784.38
585.30	47510.53
585.46	47351.38
585.62	47501.17
585.78	48067.58
585.94	47470.75
586.10	47398.19
586.26	47557.35
586.42	47419.25
586.58	47903.74
586.74	47461.38
586.90	47702.46
587.06	47618.20
587.22	47812.46
587.38	47856.93
587.54	47723.52
587.70	48135.46
587.86	48140.14
588.02	47590.11
588.18	48046.52
588.34	47896.72
588.49	47889.70
588.65	47681.39
588.81	47892.04
588.97	47936.51
589.13	48158.86
589.29	47622.88
589.45	48296.95
589.61	47929.49
589.77	47978.64
589.93	48053.54
