SpectraSuite Data File
++++++++++++++++++++++++++++++++++++
Date: Fri Oct 25 11:26:31 EDT 2013
User: price-jones
Dark Spectrum Present: No
Reference Spectrum Present: No
Number of Sampled Component Spectra: 1
Spectrometers: USB2+H05261
Integration Time (usec): 100000 (USB2+H05261)
Spectra Averaged: 1 (USB2+H05261)
Boxcar Smoothing: 0 (USB2+H05261)
Correct for Electrical Dark: No (USB2+H05261)
Strobe/Lamp Enabled: No (USB2+H05261)
Correct for Detector Non-linearity: No (USB2+H05261)
Correct for Stray Light: No (USB2+H05261)
Number of Pixels in Processed Spectrum: 2048
>>>>>Begin Processed Spectral Data<<<<<
365.73	266.82
365.92	266.82
366.12	266.82
366.32	110.01
366.52	234.05
366.72	124.05
366.91	149.79
367.11	77.24
367.31	86.60
367.51	107.66
367.70	182.56
367.90	177.88
368.10	147.45
368.30	142.77
368.49	154.48
368.69	175.54
368.89	72.56
369.09	170.86
369.28	217.67
369.48	175.54
369.68	220.01
369.87	205.97
370.07	229.37
370.27	173.20
370.47	330.02
370.66	599.18
370.86	594.50
371.06	655.35
371.25	650.67
371.45	772.38
371.65	688.12
371.84	624.92
372.04	753.65
372.24	802.80
372.44	784.08
372.63	690.46
372.83	741.95
373.03	851.96
373.22	727.91
373.42	819.19
373.62	772.38
373.81	844.93
374.01	819.19
374.21	791.10
374.40	770.04
374.60	837.91
374.79	772.38
374.99	816.85
375.19	821.53
375.38	830.89
375.58	863.66
375.78	922.17
375.97	884.72
376.17	917.49
376.37	844.93
376.56	917.49
376.76	910.47
376.95	861.32
377.15	889.40
377.35	858.98
377.54	873.02
377.74	863.66
377.93	999.41
378.13	968.98
378.33	936.21
378.52	947.92
378.72	938.55
378.91	926.85
379.11	964.30
379.31	1008.77
379.50	973.66
379.70	1006.43
379.89	985.37
380.09	1060.26
380.28	1006.43
380.48	1060.26
380.68	1015.79
380.87	912.81
381.07	997.07
381.26	1034.52
381.46	919.83
381.65	997.07
381.85	1036.86
382.04	1032.18
382.24	1116.44
382.43	1102.39
382.63	1050.90
382.83	1170.27
383.02	1107.07
383.22	1111.75
383.41	1170.27
383.61	1088.35
383.80	1198.35
384.00	1118.78
384.19	1165.59
384.39	1156.22
384.58	1121.12
384.78	1188.99
384.97	1174.95
385.17	1221.76
385.36	1149.20
385.56	1142.18
385.75	1158.57
385.95	1121.12
386.14	1289.64
386.34	1203.04
386.53	1203.04
386.72	1121.12
386.92	1231.12
387.11	1238.14
387.31	1329.42
387.50	1277.93
387.70	1343.47
387.89	1207.72
388.09	1273.25
388.28	1203.04
388.48	1315.38
388.67	1394.96
388.86	1313.04
389.06	1315.38
389.25	1320.06
389.45	1263.89
389.64	1259.21
389.84	1350.49
390.03	1399.64
390.22	1399.64
390.42	1401.98
390.61	1425.39
390.81	1404.32
391.00	1481.56
391.19	1486.24
391.39	1460.49
391.58	1446.45
391.78	1486.24
391.97	1446.45
392.16	1495.60
392.36	1537.73
392.55	1432.41
392.75	1490.92
392.94	1547.09
393.13	1582.20
393.33	1481.56
393.52	1645.40
393.71	1614.97
393.91	1596.25
394.10	1549.43
394.29	1558.80
394.49	1633.69
394.68	1558.80
394.88	1631.35
395.07	1736.68
395.26	1753.06
395.46	1680.50
395.65	1694.55
395.84	1652.42
396.04	1668.80
396.23	1696.89
396.42	1727.32
396.62	1837.32
396.81	1825.62
397.00	1720.29
397.19	1813.92
397.39	1891.15
397.58	1933.28
397.77	1928.60
397.97	1879.45
398.16	1844.34
398.35	1923.92
398.55	1966.05
398.74	1905.20
398.93	1898.17
399.12	1834.98
399.32	1973.07
399.51	1944.99
399.70	2111.16
399.90	2024.56
400.09	2129.89
400.28	2106.48
400.47	1933.28
400.67	2181.38
400.86	2106.48
401.05	2069.03
401.24	2132.23
401.44	2069.03
401.63	2157.97
401.82	2099.46
402.01	2148.61
402.21	2246.91
402.40	2195.42
402.59	2134.57
402.78	2209.47
402.97	2321.81
403.17	2211.81
403.36	2197.76
403.55	2312.45
403.74	2310.11
403.93	2293.72
404.13	2328.83
404.32	2417.77
404.51	2310.11
404.70	2429.48
404.89	2326.49
405.09	2499.69
405.28	2462.24
405.47	2509.05
405.66	2459.90
405.85	2675.23
406.05	2553.52
406.24	2595.65
406.43	2698.64
406.62	2689.28
406.81	2672.89
407.00	2644.81
407.20	2572.25
407.39	2548.84
407.58	2761.83
407.77	2693.96
407.96	2846.09
408.15	2708.00
408.34	2708.00
408.54	2771.19
408.73	2871.84
408.92	2761.83
409.11	2951.42
409.30	2782.90
409.49	2885.88
409.68	3033.33
409.87	2906.95
410.07	2888.22
410.26	3021.63
410.45	3009.93
410.64	3059.08
410.83	3155.04
411.02	3075.46
411.21	3164.40
411.40	3159.72
411.59	3246.32
411.78	3068.44
411.98	3201.85
412.17	3309.52
412.36	3194.83
412.55	3384.41
412.74	3323.56
412.93	3398.46
413.12	3438.25
413.31	3538.89
413.50	3417.18
413.69	3548.25
413.88	3585.70
414.07	3641.87
414.26	3641.87
414.45	3576.34
414.64	3655.92
414.83	3836.14
415.02	3796.35
415.22	3866.56
415.41	3852.52
415.60	3969.55
415.79	3981.25
415.98	4091.26
416.17	4007.00
416.36	4072.53
416.55	4105.30
416.74	4100.62
416.93	4095.94
417.12	4159.13
417.31	4315.95
417.50	4189.56
417.69	4421.27
417.88	4332.33
418.07	4299.56
418.26	4318.29
418.45	4397.87
418.64	4538.30
418.83	4482.13
419.02	4498.51
419.21	4545.32
419.39	4580.43
419.58	4547.66
419.77	4521.92
419.96	4681.07
420.15	4557.02
420.34	4727.88
420.53	4629.58
420.72	4692.77
420.91	4676.39
421.10	4732.56
421.29	4905.76
421.48	4772.35
421.67	4884.70
421.86	4814.48
422.05	4828.53
422.24	4847.25
422.43	4805.12
422.61	4929.17
422.80	5064.92
422.99	4966.62
423.18	5177.26
423.37	5088.32
423.56	5039.17
423.75	5020.45
423.94	4779.37
424.13	4723.20
424.32	4945.55
424.50	5074.28
424.69	5130.45
424.88	4987.68
425.07	4968.96
425.26	4971.30
425.45	5055.56
425.64	5114.07
425.83	5067.26
426.01	5109.39
426.20	5121.09
426.39	5064.92
426.58	5135.14
426.77	5132.79
426.96	5050.88
427.15	5095.35
427.33	5172.58
427.52	5053.22
427.71	5324.72
427.90	5259.18
428.09	5380.89
428.28	5378.55
428.46	5507.28
428.65	5500.26
428.84	5488.56
429.03	5640.69
429.22	5385.57
429.40	5549.41
429.59	5301.31
429.78	5287.27
429.97	5366.85
430.16	5472.17
430.34	5380.89
430.53	5666.44
430.72	5806.87
430.91	5549.41
431.10	5640.69
431.28	5799.85
431.47	5762.40
431.66	5746.02
431.85	5741.33
432.03	5982.41
432.22	6015.18
432.41	5825.59
432.60	5984.75
432.79	6040.92
432.97	6314.77
433.16	6202.42
433.35	6204.76
433.54	5989.43
433.72	6169.65
433.91	6050.28
434.10	6129.86
434.28	6181.35
434.47	6279.66
434.66	6417.75
434.85	6232.85
435.03	6384.98
435.22	6356.90
435.41	6455.20
435.59	6452.86
435.78	6340.51
435.97	6597.97
436.16	6635.42
436.34	6377.96
436.53	6546.48
436.72	6736.06
436.90	6448.18
437.09	6614.35
437.28	6642.44
437.46	6523.07
437.65	6565.20
437.84	6827.34
438.02	6822.66
438.21	6789.89
438.40	6780.53
438.58	6920.96
438.77	6855.43
438.96	7152.68
439.14	7157.36
439.33	7194.81
439.52	7239.28
439.70	7220.55
439.89	7330.56
440.08	7433.54
440.26	7459.29
440.45	7375.03
440.63	7534.18
440.82	7777.60
441.01	7424.18
441.19	7648.87
441.38	7730.79
441.57	7885.26
441.75	7840.79
441.94	8002.29
442.12	7822.07
442.31	8283.16
442.50	8004.63
442.68	7995.27
442.87	8053.78
443.05	8306.56
443.24	8168.47
443.43	8112.30
443.61	8294.86
443.80	8294.86
443.98	8121.66
444.17	7892.29
444.35	8294.86
444.54	8336.99
444.73	8416.57
444.91	8451.67
445.10	8341.67
445.28	8521.89
445.47	8315.92
445.65	8304.22
445.84	8652.96
446.02	8592.11
446.21	8393.16
446.39	8379.12
446.58	8587.43
446.77	8496.14
446.95	8437.63
447.14	8329.97
447.32	8545.30
447.51	8571.04
447.69	8589.77
447.88	8608.49
448.06	8587.43
448.25	8542.96
448.43	8638.92
448.62	8865.95
448.80	8468.06
448.99	8795.73
449.17	8875.31
449.36	8667.00
449.54	8821.48
449.73	9050.85
449.91	9158.52
450.10	9034.47
450.28	9195.96
450.46	9048.51
450.65	9128.09
450.83	9130.43
451.02	9149.15
451.20	9331.72
451.39	9041.49
451.57	9212.35
451.76	9291.93
451.94	9226.39
452.13	9200.65
452.31	9092.98
452.49	9315.33
452.68	9430.02
452.86	9324.69
453.05	9437.04
453.23	9430.02
453.42	9406.61
453.60	9530.66
453.78	9720.24
453.97	9500.23
454.15	9605.56
454.34	9453.42
454.52	9900.47
454.70	9511.94
454.89	9643.01
455.07	9731.95
455.26	9781.10
455.44	10050.26
455.62	9741.31
455.81	10024.51
455.99	10125.16
456.17	9940.26
456.36	10317.08
456.54	10296.02
456.73	10324.10
456.91	10635.39
457.09	10644.76
457.28	10394.32
457.46	10298.36
457.64	10700.93
457.83	10532.41
458.01	10408.36
458.19	10778.17
458.38	10714.97
458.56	10789.87
458.74	10787.53
458.93	10799.23
459.11	10841.36
459.29	10836.68
459.48	11044.99
459.66	10817.96
459.84	10869.45
460.03	11105.84
460.21	10965.41
460.39	11042.65
460.57	10937.32
460.76	11304.79
460.94	11159.67
461.12	11105.84
461.31	11377.34
461.49	11248.61
461.67	11349.26
461.85	11396.07
462.04	11330.53
462.22	11648.85
462.40	11534.16
462.59	11852.47
462.77	11477.99
462.95	11726.08
463.13	11625.44
463.32	11918.01
463.50	11641.82
463.68	11887.58
463.86	11936.73
464.05	11716.72
464.23	11903.96
464.41	11957.80
464.59	11592.67
464.78	12327.60
464.96	12060.78
465.14	11808.00
465.32	12065.46
465.50	12271.43
465.69	12285.47
465.87	12322.92
466.05	12100.57
466.23	12126.32
466.41	12306.54
466.60	12315.90
466.78	12018.65
466.96	12182.49
467.14	12465.69
467.32	12348.67
467.51	12360.37
467.69	12395.48
467.87	12329.94
468.05	12737.20
468.23	12414.20
468.41	12484.42
468.60	12416.54
468.78	12622.51
468.96	12542.93
469.14	13158.49
469.32	13111.68
469.50	12821.45
469.69	13149.13
469.87	13226.37
470.05	13046.15
470.23	13289.56
470.41	13144.45
470.59	13427.65
470.77	13415.95
470.95	13467.44
471.14	13434.68
471.32	13319.99
471.50	13380.84
471.68	13497.87
471.86	13605.53
472.04	13699.16
472.22	14295.99
472.40	13867.67
472.58	13727.24
472.77	13928.53
472.95	14073.64
473.13	14537.07
473.31	14015.13
473.49	14132.15
473.67	14167.26
473.85	14146.20
474.03	14640.05
474.21	14611.96
474.39	14794.53
474.57	14862.40
474.75	15080.07
474.93	14967.73
475.12	15197.10
475.30	15243.91
475.48	14934.96
475.66	15082.41
475.84	15103.48
476.02	15363.28
476.20	15480.30
476.38	15906.28
476.56	16180.12
476.74	16053.73
476.92	16016.29
477.10	15798.62
477.28	16210.55
477.46	16231.62
477.64	16596.74
477.82	16505.46
478.00	16908.03
478.18	16634.19
478.36	16968.88
478.54	16945.48
478.72	17280.18
478.90	17385.50
479.08	17792.75
479.26	17799.77
479.44	17734.24
479.62	17942.55
479.80	18181.28
479.98	18192.98
480.16	18778.12
480.34	18429.38
480.52	18757.05
480.70	18946.64
480.88	18707.90
481.06	18944.30
481.24	19026.21
481.41	19147.92
481.59	19297.72
481.77	19665.18
481.95	19363.25
482.13	20098.18
482.31	19807.95
482.49	20453.94
482.67	20236.27
482.85	20549.90
483.03	20673.95
483.21	21067.16
483.39	20882.26
483.57	21186.53
483.74	21546.97
483.92	21486.12
484.10	21563.36
484.28	21713.15
484.46	22054.87
484.64	22492.55
484.82	21998.70
485.00	22338.07
485.18	23009.81
485.35	23040.23
485.53	22869.37
485.71	23304.71
485.89	23637.07
486.07	23166.62
486.25	23723.67
486.43	23931.98
486.61	24109.86
486.78	23924.96
486.96	24503.07
487.14	24643.50
487.32	24662.22
487.50	25048.41
487.68	25331.62
487.85	25544.61
488.03	25900.37
488.21	26036.12
488.39	25989.31
488.57	26483.16
488.75	26188.25
488.92	26380.18
489.10	26773.39
489.28	27122.13
489.46	27323.41
489.64	27391.29
489.81	27969.40
489.99	27946.00
490.17	27887.48
490.35	28341.55
490.53	28364.95
490.70	28446.87
490.88	28386.02
491.06	28924.34
491.24	28828.38
491.41	29324.57
491.59	29462.66
491.77	29446.28
491.95	29853.53
492.13	29612.46
492.30	29832.47
492.48	30424.62
492.66	30478.46
492.84	30352.07
493.01	30555.69
493.19	30731.23
493.37	31035.50
493.54	31037.84
493.72	31700.22
493.90	31477.86
494.08	31679.15
494.25	32133.21
494.43	32414.08
494.61	32697.28
494.79	32205.77
494.96	32914.95
495.14	32875.16
495.32	33481.36
495.49	33055.39
495.67	33523.49
495.85	33331.57
496.02	33930.75
496.20	34209.27
496.38	34686.74
496.55	34380.13
496.73	35295.28
496.91	35026.12
497.09	35012.07
497.26	34998.03
497.44	35154.85
497.62	35747.00
497.79	35562.10
497.97	35756.36
498.14	35845.30
498.32	36212.77
498.50	35971.69
498.67	36933.65
498.85	36392.99
499.03	36833.01
499.20	36861.10
499.38	36737.05
499.56	37535.17
499.73	37202.82
499.91	37830.08
500.08	37584.32
500.26	37352.61
500.44	37715.39
500.61	38045.41
500.79	38050.09
500.97	38052.43
501.14	39056.52
501.32	38986.30
501.49	38560.33
501.67	38838.85
501.84	39510.58
502.02	38600.12
502.20	38841.19
502.37	39201.63
502.55	39583.14
502.72	39271.85
502.90	39952.94
503.07	39283.55
503.25	39608.89
503.43	39377.17
503.60	40215.08
503.78	40215.08
503.95	40439.78
504.13	40816.60
504.30	40840.01
504.48	40446.80
504.65	41104.49
504.83	41392.37
505.01	41273.01
505.18	41116.19
505.36	41776.22
505.53	41308.11
505.71	41677.92
505.88	42064.11
506.06	41544.51
506.23	42162.41
506.41	41888.57
506.58	42094.53
506.76	42253.69
506.93	42745.20
507.11	41989.21
507.28	42820.10
507.46	42904.36
507.63	43255.44
507.81	43152.46
507.98	43484.81
508.16	43110.33
508.33	43126.71
508.50	43332.68
508.68	43955.26
508.85	43775.04
509.03	44175.27
509.20	44102.71
509.38	44786.15
509.55	44851.69
509.73	44706.57
509.90	44748.70
510.08	45310.43
510.25	44835.30
510.42	44891.48
510.60	45137.23
510.77	45067.02
510.95	45647.47
511.12	45436.82
511.30	45378.31
511.47	45844.07
511.64	46131.96
511.82	46094.51
511.99	45813.65
512.17	45820.67
512.34	45928.33
512.51	46384.74
512.69	46089.83
512.86	46361.33
513.04	46555.60
513.21	46831.78
513.38	47215.63
513.56	47140.73
513.73	46925.40
513.90	47119.66
514.08	47246.05
514.25	47201.58
514.43	47550.32
514.60	47578.41
514.77	47772.67
514.95	47903.74
515.12	47491.81
515.29	47716.50
515.47	47959.92
515.64	48222.06
515.81	48179.93
515.99	48512.28
516.16	48795.49
516.33	49008.48
516.51	48596.54
516.68	48451.43
516.85	48701.87
517.03	48875.07
517.20	48900.81
517.37	48877.41
517.54	49102.10
517.72	49301.04
517.89	49287.00
518.06	49228.49
518.24	49469.56
518.41	49471.90
518.58	49476.58
518.75	49794.90
518.93	49539.78
519.10	49834.69
519.27	50080.44
519.45	49378.28
519.62	50239.60
519.79	50138.96
519.96	50417.48
520.14	50475.99
520.31	50485.36
520.48	50497.06
520.65	50277.05
520.83	50906.65
521.00	50901.97
521.17	50686.64
521.34	50684.30
521.52	50871.54
521.69	50798.99
521.86	51498.81
522.03	51215.60
522.20	51344.33
522.38	51821.80
522.55	51519.87
522.72	51332.63
522.89	51578.39
523.07	51805.42
523.24	51791.37
523.41	51929.47
523.58	51503.49
523.75	52020.75
523.92	52105.01
524.10	51664.99
524.27	52140.11
524.44	52231.40
524.61	52158.84
524.78	52329.70
524.96	52575.45
525.13	52439.70
525.30	52575.45
525.47	52470.13
525.64	52729.93
525.81	52587.16
525.98	52928.87
526.16	52743.97
526.33	52861.00
526.50	53038.88
526.67	52879.72
526.84	53301.02
527.01	53024.84
527.18	53223.78
527.36	53024.84
527.53	53282.30
527.70	53483.58
527.87	53448.47
528.04	53404.00
528.21	53535.07
528.38	53701.25
528.55	53691.89
528.72	53495.28
528.89	53696.57
529.07	53570.18
529.24	53308.04
529.41	53815.94
529.58	53647.42
529.75	53820.62
529.92	53778.49
530.09	53762.11
530.26	54085.10
530.43	54298.09
530.60	53911.90
530.77	54017.22
530.94	54064.03
531.11	53970.41
531.28	54218.51
531.46	54122.55
531.63	54330.86
531.80	54335.54
531.97	54635.13
532.14	54616.40
532.31	54628.10
532.48	54653.85
532.65	55002.59
532.82	54670.23
532.99	54684.28
533.16	54941.74
533.33	54770.88
533.50	55100.89
533.67	54885.56
533.84	54784.92
534.01	54983.86
534.18	55079.83
534.35	55370.05
534.52	55159.41
534.69	55274.09
534.86	55199.19
535.03	55051.74
535.20	55341.97
535.37	55381.76
535.54	55604.11
535.71	55458.99
535.88	55416.86
536.05	55447.29
536.22	55721.13
536.38	55622.83
536.55	55646.24
536.72	55770.28
536.89	55468.36
537.06	55756.24
537.23	56121.37
537.40	55671.98
537.57	55845.18
537.74	55618.15
537.91	56116.68
538.08	56013.70
538.25	55697.73
538.42	56172.86
538.59	56074.55
538.75	55917.74
538.92	56055.83
539.09	56161.15
539.26	56360.10
539.43	56011.36
539.60	56343.72
539.77	56261.80
539.94	56458.40
540.11	56423.29
540.28	56526.28
540.44	56334.35
540.61	56442.02
540.78	56416.27
540.95	56594.15
541.12	56566.07
541.29	56573.09
541.46	56605.86
541.62	56825.87
541.79	56753.31
541.96	56580.11
542.13	56666.71
542.30	56542.66
542.47	57125.46
542.63	57181.63
542.80	57200.35
542.97	57027.15
543.14	57460.15
543.31	57052.90
543.48	57289.29
543.64	57474.20
543.81	57457.81
543.98	57305.68
544.15	57319.72
544.32	57649.74
544.48	57963.37
544.65	57612.29
544.82	57345.47
544.99	57319.72
545.16	57663.78
545.32	57635.69
545.49	57621.65
545.66	57822.93
545.83	57762.08
546.00	57918.90
546.16	57766.76
546.33	57694.21
546.50	57488.24
546.67	57818.25
546.83	57696.55
547.00	57696.55
547.17	57862.72
547.34	57862.72
547.50	57759.74
547.67	58251.25
547.84	58326.15
548.00	58110.82
548.17	58230.19
548.34	57998.48
548.51	58293.38
548.67	58262.96
548.84	58183.38
549.01	58122.52
549.18	58347.21
549.34	58096.78
549.51	58284.02
549.68	58578.93
549.84	58480.63
550.01	58417.43
550.18	58405.73
550.34	58614.04
550.51	58541.48
550.68	58609.35
550.84	58431.47
551.01	58515.73
551.18	58508.71
551.34	58602.33
551.51	58763.83
551.68	58820.00
551.84	58646.80
552.01	58394.03
552.18	58681.91
552.34	58707.66
552.51	58894.90
552.68	58653.82
552.84	58726.38
553.01	58906.60
553.18	59110.23
553.34	58974.48
553.51	58775.53
553.67	58871.49
553.84	59044.69
554.01	59288.11
554.17	59065.76
554.34	58878.52
554.51	59145.34
554.67	59004.91
554.84	59032.99
555.00	59173.42
555.17	58988.52
555.33	59229.60
555.50	59061.08
555.67	58904.26
555.83	59143.00
556.00	59121.93
556.16	59728.13
556.33	59400.46
556.50	59262.36
556.66	59391.09
556.83	59138.32
556.99	59512.80
557.16	59470.67
557.32	59585.36
557.49	59655.57
557.65	59313.86
557.82	59634.51
557.98	59255.34
558.15	59669.62
558.32	59662.60
558.48	59552.59
558.65	59700.04
558.81	59636.85
558.98	59473.01
559.14	59629.83
559.31	59578.34
559.47	59669.62
559.64	59966.87
559.80	59599.40
559.97	59898.99
560.13	59735.15
560.30	59774.94
560.46	59891.97
560.63	59856.86
560.79	59936.44
560.96	59976.23
561.12	59992.61
561.29	59868.56
561.45	59945.80
561.61	60158.79
561.78	59833.46
561.94	59891.97
562.11	59805.37
562.27	60090.91
562.44	59859.20
562.60	59994.95
562.77	59999.63
562.93	59983.25
563.10	60217.30
563.26	60009.00
563.42	60343.69
563.59	60280.50
563.75	60011.34
563.92	60032.40
564.08	60212.62
564.24	60296.88
564.41	60196.24
564.57	60339.01
564.74	60247.73
564.90	60165.81
565.07	60289.86
565.23	60360.08
565.39	60121.34
565.56	60353.05
565.72	60245.39
565.88	60413.91
566.05	60243.05
566.21	60275.82
566.38	60193.90
566.54	60229.01
566.70	60395.18
566.87	60397.52
567.03	60280.50
567.19	60556.68
567.36	60331.99
567.52	60491.15
567.68	60612.85
567.85	60540.30
568.01	60481.78
568.17	60383.48
568.34	60556.68
568.50	60430.29
568.66	60446.68
568.83	60598.81
568.99	60491.15
569.15	60451.36
569.32	60605.83
569.48	60559.02
569.64	60622.22
569.81	60652.64
569.97	60317.95
570.13	60638.60
570.30	60245.39
570.46	60488.80
570.62	60844.57
570.78	60727.54
570.95	60554.34
571.11	60645.62
571.27	60594.13
571.43	60605.83
571.60	60793.07
571.76	60685.41
571.92	60690.09
572.09	60711.16
572.25	60669.03
572.41	60786.05
572.57	60671.37
572.74	60959.25
572.90	60680.73
573.06	60818.82
573.22	60732.22
573.38	60757.97
573.55	60664.35
573.71	61219.05
573.87	60715.84
574.03	60664.35
574.20	60830.52
574.36	60748.60
574.52	60767.33
574.68	60870.31
574.84	61106.71
575.01	60879.67
575.17	60725.20
575.33	60769.67
575.49	60764.99
575.65	60912.44
575.82	60725.20
575.98	60825.84
576.14	60938.19
576.30	60935.85
576.46	60715.84
576.62	61038.83
576.79	61078.62
576.95	60713.50
577.11	60954.57
577.27	60874.99
577.43	61008.40
577.59	60963.93
577.75	60910.10
577.92	60809.46
578.08	60851.59
578.24	60800.10
578.40	61041.17
578.56	60956.91
578.72	60640.94
578.88	61073.94
579.04	61188.63
579.21	61055.21
579.37	60935.85
579.53	61111.39
579.69	60786.05
579.85	60750.94
580.01	60760.31
580.17	60832.86
580.33	61052.87
580.49	61179.26
580.65	61087.98
580.82	60872.65
580.98	60797.76
581.14	60963.93
581.30	61186.28
581.46	60917.12
581.62	60914.78
581.78	60842.23
581.94	60987.34
582.10	61022.45
582.26	60900.74
582.42	61195.65
582.58	60968.61
582.74	60816.48
582.90	60977.98
583.06	61190.97
583.22	60952.23
583.38	61148.84
583.54	61050.53
583.70	60914.78
583.86	61223.73
584.02	61123.09
584.18	60982.66
584.34	61165.22
584.50	61003.72
584.66	60966.27
584.82	61020.11
584.98	61277.57
585.14	61045.85
585.30	60797.76
585.46	61165.22
585.62	61165.22
585.78	61307.99
585.94	60945.21
586.10	61064.58
586.26	61235.44
586.42	61455.45
586.58	61076.28
586.74	61144.16
586.90	61031.81
587.06	61139.47
587.22	61247.14
587.38	61116.07
587.54	61256.50
587.70	61076.28
587.86	61123.09
588.02	60996.70
588.18	61319.70
588.34	61216.71
588.49	61092.66
