SpectraSuite Data File
++++++++++++++++++++++++++++++++++++
Date: Fri Oct 25 10:48:07 EDT 2013
User: price-jones
Dark Spectrum Present: No
Reference Spectrum Present: No
Number of Sampled Component Spectra: 1
Spectrometers: USB2+H05261
Integration Time (usec): 100000 (USB2+H05261)
Spectra Averaged: 1 (USB2+H05261)
Boxcar Smoothing: 0 (USB2+H05261)
Correct for Electrical Dark: No (USB2+H05261)
Strobe/Lamp Enabled: No (USB2+H05261)
Correct for Detector Non-linearity: No (USB2+H05261)
Correct for Stray Light: No (USB2+H05261)
Number of Pixels in Processed Spectrum: 2048
>>>>>Begin Processed Spectral Data<<<<<
365.73	187.24
365.92	187.24
366.12	187.24
366.32	77.24
366.52	9.36
366.72	70.22
366.91	0.00
367.11	7.02
367.31	35.11
367.51	60.85
367.70	28.09
367.90	44.47
368.10	16.38
368.30	9.36
368.49	37.45
368.69	53.83
368.89	74.90
369.09	114.69
369.28	98.30
369.48	46.81
369.68	51.49
369.87	67.88
370.07	67.88
370.27	191.92
370.47	184.90
370.66	400.23
370.86	461.09
371.06	479.81
371.25	451.72
371.45	447.04
371.65	482.15
371.84	433.00
372.04	482.15
372.24	456.40
372.44	519.60
372.63	477.47
372.83	500.87
373.03	519.60
373.22	503.22
373.42	557.05
373.62	519.60
373.81	592.16
374.01	554.71
374.21	587.47
374.40	547.69
374.60	531.30
374.79	524.28
374.99	545.34
375.19	580.45
375.38	650.67
375.58	550.03
375.78	596.84
375.97	580.45
376.17	608.54
376.37	559.39
376.56	582.79
376.76	589.82
376.95	566.41
377.15	629.60
377.35	561.73
377.54	535.98
377.74	540.66
377.93	500.87
378.13	585.13
378.33	585.13
378.52	657.69
378.72	631.94
378.91	580.45
379.11	543.00
379.31	601.52
379.50	667.05
379.70	702.16
379.89	655.35
380.09	596.84
380.28	545.34
380.48	594.50
380.68	704.50
380.87	622.58
381.07	669.39
381.26	606.20
381.46	641.31
381.65	634.29
381.85	699.82
382.04	681.10
382.24	695.14
382.43	671.73
382.63	599.18
382.83	648.33
383.02	702.16
383.22	760.67
383.41	681.10
383.61	760.67
383.80	688.12
384.00	629.60
384.19	795.78
384.39	634.29
384.58	800.46
384.78	781.74
384.97	758.33
385.17	763.01
385.36	734.93
385.56	725.57
385.75	765.36
385.95	741.95
386.14	826.21
386.34	739.61
386.53	681.10
386.72	786.42
386.92	870.68
387.11	767.70
387.31	814.51
387.50	748.97
387.70	744.29
387.89	798.12
388.09	781.74
388.28	788.76
388.48	849.61
388.67	894.08
388.86	828.55
389.06	765.36
389.25	896.43
389.45	894.08
389.64	863.66
389.84	826.21
390.03	933.87
390.22	901.11
390.42	905.79
390.61	936.21
390.81	844.93
391.00	926.85
391.19	933.87
391.39	940.90
391.58	887.06
391.78	992.39
391.97	931.53
392.16	959.62
392.36	957.28
392.55	940.90
392.75	950.26
392.94	922.17
393.13	985.37
393.33	940.90
393.52	997.07
393.71	1036.86
393.91	1006.43
394.10	985.37
394.29	1057.92
394.49	1018.13
394.68	1074.31
394.88	1086.01
395.07	1114.10
395.26	1144.52
395.46	1121.12
395.65	1071.97
395.84	1046.22
396.04	1097.71
396.23	1100.05
396.42	1100.05
396.62	1095.37
396.81	1137.50
397.00	1158.57
397.19	1158.57
397.39	1165.59
397.58	1256.87
397.77	1210.06
397.97	1198.35
398.16	1294.32
398.35	1313.04
398.55	1214.74
398.74	1362.19
398.93	1345.81
399.12	1266.23
399.32	1259.21
399.51	1263.89
399.70	1322.40
399.90	1369.21
400.09	1441.77
400.28	1385.60
400.47	1394.96
400.67	1387.94
400.86	1472.20
401.05	1416.02
401.24	1362.19
401.44	1502.62
401.63	1493.26
401.82	1469.86
402.01	1432.41
402.21	1453.47
402.40	1493.26
402.59	1514.33
402.78	1486.24
402.97	1547.09
403.17	1605.61
403.36	1490.92
403.55	1540.07
403.74	1619.65
403.93	1558.80
404.13	1598.59
404.32	1591.56
404.51	1645.40
404.70	1626.67
404.89	1577.52
405.09	1717.95
405.28	1783.49
405.47	1755.40
405.66	1727.32
405.85	1699.23
406.05	1652.42
406.24	1732.00
406.43	1732.00
406.62	1767.10
406.81	1905.20
407.00	1727.32
407.20	1877.11
407.39	1919.24
407.58	1811.57
407.77	1823.28
407.96	1788.17
408.15	1933.28
408.34	1994.14
408.54	1930.94
408.73	1893.49
408.92	1944.99
409.11	1982.43
409.30	2036.27
409.49	1954.35
409.68	1895.83
409.87	1987.11
410.07	2017.54
410.26	2076.06
410.45	2059.67
410.64	2059.67
410.83	2162.66
411.02	2172.02
411.21	2296.07
411.40	2246.91
411.59	2209.47
411.78	2253.94
411.98	2237.55
412.17	2282.02
412.36	2237.55
412.55	2326.49
412.74	2410.75
412.93	2473.95
413.12	2438.84
413.31	2469.27
413.50	2502.03
413.69	2399.05
413.88	2572.25
414.07	2382.67
414.26	2527.78
414.45	2544.16
414.64	2630.76
414.83	2668.21
415.02	2654.17
415.22	2649.49
415.41	2677.57
415.60	2775.88
415.79	2775.88
415.98	2878.86
416.17	2839.07
416.36	2682.25
416.55	2995.89
416.74	2855.45
416.93	2942.05
417.12	2836.73
417.31	2888.22
417.50	2888.22
417.69	3098.87
417.88	3063.76
418.07	3023.97
418.26	2974.82
418.45	3148.02
418.64	3091.85
418.83	3201.85
419.02	3129.30
419.21	3119.93
419.39	3054.40
419.58	3159.72
419.77	3094.19
419.96	3180.79
420.15	3300.16
420.34	3197.17
420.53	3243.98
420.72	3279.09
420.91	3131.64
421.10	3276.75
421.29	3384.41
421.48	3262.71
421.67	3351.65
421.86	3325.90
422.05	3410.16
422.24	3290.79
422.43	3276.75
422.61	3452.29
422.80	3506.12
422.99	3471.01
423.18	3597.40
423.37	3452.29
423.56	3641.87
423.75	3375.05
423.94	3393.78
424.13	3253.34
424.32	3290.79
424.50	3426.54
424.69	3466.33
424.88	3543.57
425.07	3400.80
425.26	3339.94
425.45	3510.80
425.64	3466.33
425.83	3445.27
426.01	3599.74
426.20	3555.27
426.39	3517.83
426.58	3485.06
426.77	3499.10
426.96	3658.26
427.15	3562.30
427.33	3485.06
427.52	3550.59
427.71	3627.83
427.90	3740.18
428.09	3712.09
428.28	3744.86
428.46	3721.45
428.65	3784.65
428.84	3702.73
429.03	3786.99
429.22	3665.28
429.40	3688.68
429.59	3735.50
429.78	3581.02
429.97	3531.87
430.16	3646.55
430.34	3679.32
430.53	3857.20
430.72	3847.84
430.91	3749.54
431.10	3861.88
431.28	3985.93
431.47	3971.89
431.66	4056.15
431.85	4100.62
432.03	4060.83
432.22	4145.09
432.41	4133.39
432.60	4051.47
432.79	4142.75
432.97	4238.71
433.16	4166.15
433.35	4007.00
433.54	4227.01
433.72	4133.39
433.91	4124.02
434.10	4276.16
434.28	4227.01
434.47	4203.60
434.66	4346.37
434.85	4339.35
435.03	4292.54
435.22	4306.59
435.41	4472.76
435.59	4461.06
435.78	4341.69
435.97	4554.68
436.16	4411.91
436.34	4496.17
436.53	4423.61
436.72	4603.83
436.90	4496.17
437.09	4559.36
437.28	4526.60
437.46	4449.36
437.65	4741.93
437.84	4652.98
438.02	4519.57
438.21	4594.47
438.40	4461.06
438.58	4861.29
438.77	4961.94
438.96	4807.46
439.14	4910.44
439.33	4854.27
439.52	4908.10
439.70	4959.60
439.89	4985.34
440.08	4999.38
440.26	5013.43
440.45	5107.05
440.63	5111.73
440.82	5219.39
441.01	5233.44
441.19	5329.40
441.38	5268.55
441.57	5177.26
441.75	5371.53
441.94	5542.39
442.12	5582.18
442.31	5483.88
442.50	5572.82
442.68	5617.29
442.87	5432.38
443.05	5504.94
443.24	5628.99
443.43	5748.36
443.61	5731.97
443.80	5895.81
443.98	5411.32
444.17	5603.24
444.35	5804.53
444.54	6019.86
444.73	5720.27
444.91	5671.12
445.10	5668.78
445.28	5872.40
445.47	5605.58
445.65	5687.50
445.84	5928.58
446.02	5664.10
446.21	5717.93
446.39	5827.93
446.58	5872.40
446.77	5790.49
446.95	5561.11
447.14	5898.15
447.32	5940.28
447.51	5802.19
447.69	5926.24
447.88	5984.75
448.06	5877.09
448.25	5898.15
448.43	6054.97
448.62	6059.65
448.80	5961.34
448.99	5942.62
449.17	5837.30
449.36	5951.98
449.54	6204.76
449.73	6190.72
449.91	6207.10
450.10	6251.57
450.28	6317.11
450.46	6136.88
450.65	6263.27
450.83	6179.01
451.02	6328.81
451.20	6277.32
451.39	6450.52
451.57	6387.32
451.76	6324.13
451.94	6399.02
452.13	6417.75
452.31	6387.32
452.49	6090.07
452.68	6448.18
452.86	6359.24
453.05	6647.12
453.23	6431.79
453.42	6389.66
453.60	6516.05
453.78	6658.82
453.97	6567.54
454.15	6352.21
454.34	6490.31
454.52	6586.27
454.70	6658.82
454.89	6736.06
455.07	6703.29
455.26	6710.32
455.44	6857.77
455.62	6644.78
455.81	6745.42
455.99	6740.74
456.17	6827.34
456.36	6839.05
456.54	6715.00
456.73	7087.14
456.91	7019.27
457.09	7173.74
457.28	7204.17
457.46	6965.43
457.64	7061.40
457.83	7152.68
458.01	7054.37
458.19	7370.35
458.38	7190.13
458.56	7302.47
458.74	7253.32
458.93	7204.17
459.11	7239.28
459.29	7358.64
459.48	7204.17
459.66	7248.64
459.84	7241.62
460.03	7625.47
460.21	7463.97
460.39	7499.08
460.57	7375.03
460.76	7581.00
460.94	7573.97
461.12	7555.25
461.31	7634.83
461.49	7494.40
461.67	7552.91
461.85	7789.30
462.04	7585.68
462.22	8159.11
462.40	7786.96
462.59	7922.71
462.77	7705.04
462.95	7836.11
463.13	7672.28
463.32	7843.14
463.50	8051.44
463.68	8124.00
463.86	8004.63
464.05	7953.14
464.23	7939.10
464.41	8170.81
464.59	7997.61
464.78	8140.38
464.96	7932.08
465.14	8070.17
465.32	8131.02
465.50	8259.75
465.69	8329.97
465.87	8168.47
466.05	8360.39
466.23	8205.92
466.41	8021.02
466.60	8386.14
466.78	8234.00
466.96	8215.28
467.14	8299.54
467.32	8245.71
467.51	8533.59
467.69	8131.02
467.87	8444.65
468.05	8468.06
468.23	8390.82
468.41	8297.20
468.60	8547.64
468.78	8638.92
468.96	8388.48
469.14	8407.20
469.32	8952.55
469.50	8606.15
469.69	8655.30
469.87	8718.50
470.05	8760.63
470.23	8573.38
470.41	8823.82
470.59	8929.14
470.77	8971.27
470.95	8821.48
471.14	8896.38
471.32	8652.96
471.50	9071.92
471.68	9172.56
471.86	9146.81
472.04	8980.64
472.22	9448.74
472.40	9240.44
472.58	9296.61
472.77	9399.59
472.95	9296.61
473.13	9614.92
473.31	9242.78
473.49	9462.79
473.67	9584.49
473.85	9514.28
474.03	9767.06
474.21	9701.52
474.39	9710.88
474.57	9956.64
474.75	9940.26
474.93	9785.78
475.12	9900.47
475.30	9958.98
475.48	10001.11
475.66	10080.69
475.84	9902.81
476.02	10176.65
476.20	10136.86
476.38	10431.77
476.56	10785.19
476.74	10691.57
476.92	10492.62
477.10	10562.84
477.28	10881.15
477.46	10656.46
477.64	10778.17
477.82	10972.43
478.00	11068.39
478.18	11246.27
478.36	11262.66
478.54	11309.47
478.72	11325.85
478.90	11620.76
479.08	11489.69
479.26	11910.99
479.44	11791.62
479.62	11749.49
479.80	11639.48
479.98	12056.10
480.16	12257.39
480.34	11655.87
480.52	12308.88
480.70	12372.07
480.88	11932.05
481.06	12390.80
481.24	12343.99
481.41	12795.71
481.59	12662.30
481.77	12816.77
481.95	12978.27
482.13	13207.64
482.31	13027.42
482.49	13245.09
482.67	13284.88
482.85	13312.97
483.03	13671.07
483.21	13671.07
483.39	13734.26
483.57	13593.83
483.74	13767.03
483.92	13994.06
484.10	13888.74
484.28	14291.31
484.46	14307.69
484.64	14438.76
484.82	14284.29
485.00	14441.11
485.18	14782.82
485.35	15007.52
485.53	14796.87
485.71	14759.42
485.89	15061.35
486.07	15047.30
486.25	14885.81
486.43	15417.11
486.61	15761.17
486.78	15363.28
486.96	15534.14
487.14	16063.10
487.32	15885.22
487.50	16334.60
487.68	16203.53
487.85	16695.04
488.03	16746.53
488.21	16854.20
488.39	16500.78
488.57	16748.87
488.75	16971.22
488.92	17444.01
489.10	17483.80
489.28	17352.73
489.46	17448.69
489.64	17607.85
489.81	18185.96
489.99	17813.82
490.17	17991.70
490.35	18263.20
490.53	18286.61
490.70	18499.59
490.88	18787.48
491.06	18895.14
491.24	18904.51
491.41	18637.69
491.59	18892.80
491.77	19000.47
491.95	19005.15
492.13	19716.67
492.30	19501.34
492.48	19463.90
492.66	19484.96
492.84	19562.20
493.01	19845.40
493.19	20107.54
493.37	19969.45
493.54	19946.05
493.72	20159.03
493.90	20336.91
494.08	20545.22
494.25	20994.61
494.43	20940.77
494.61	20959.50
494.79	20940.77
494.96	21032.05
495.14	21069.50
495.32	20992.26
495.49	21741.24
495.67	21696.77
495.85	21656.98
496.02	21881.67
496.20	22059.55
496.38	21991.67
496.55	21729.53
496.73	22714.90
496.91	22214.02
497.09	22295.94
497.26	22740.64
497.44	22618.94
497.62	22848.31
497.79	22965.34
497.97	22632.98
498.14	22993.42
498.32	23171.30
498.50	23264.92
498.67	23625.37
498.85	23573.88
499.03	23931.98
499.20	23611.32
499.38	23632.39
499.56	23931.98
499.73	24184.76
499.91	23728.35
500.08	24130.92
500.26	23934.32
500.44	24252.63
500.61	24648.18
500.79	24400.08
500.97	24613.07
501.14	25034.37
501.32	24596.69
501.49	24823.72
501.67	24732.44
501.84	25118.63
502.02	24943.09
502.20	25137.35
502.37	25336.30
502.55	25387.79
502.72	25532.90
502.90	25624.18
503.07	25390.13
503.25	25446.30
503.43	25851.22
503.60	25755.26
503.78	26005.69
503.95	26178.89
504.13	26288.90
504.30	26125.06
504.48	26237.41
504.65	26417.63
504.83	26466.78
505.01	26768.71
505.18	26422.31
505.36	26731.26
505.53	26459.76
505.71	26972.33
505.88	27292.99
506.06	26710.19
506.23	27197.02
506.41	26979.36
506.58	27332.78
506.76	27140.85
506.93	27452.14
507.11	27269.58
507.28	27302.35
507.46	27597.26
507.63	27697.90
507.81	27681.52
507.98	27611.30
508.16	27632.36
508.33	27901.53
508.50	27924.93
508.68	27737.69
508.85	28407.08
509.03	28570.92
509.20	28364.95
509.38	28350.91
509.55	28711.35
509.73	28535.81
509.90	29202.86
510.08	28851.78
510.25	28961.79
510.42	29228.61
510.60	29226.27
510.77	29347.98
510.95	29654.59
511.12	29010.94
511.30	29167.76
511.47	29465.00
511.64	29579.69
511.82	29336.27
511.99	29783.32
512.17	30087.59
512.34	29745.87
512.51	29970.56
512.69	30047.80
512.86	30244.40
513.04	30347.39
513.21	30354.41
513.38	30450.37
513.56	30235.04
513.73	30178.87
513.90	30426.96
514.08	30265.47
514.25	30705.49
514.43	30801.45
514.60	30328.66
514.77	30625.91
514.95	30836.56
515.12	31213.38
515.29	31019.12
515.47	30850.60
515.64	31014.44
515.81	30616.55
515.99	31328.07
516.16	31147.85
516.33	31328.07
516.51	31412.33
516.68	31204.02
516.85	31342.11
517.03	31225.09
517.20	31721.28
517.37	31889.80
517.54	31903.84
517.72	32105.13
517.89	31957.67
518.06	31742.35
518.24	31770.43
518.41	31725.96
518.58	31779.79
518.75	32091.09
518.93	32552.17
519.10	32521.74
519.27	32500.68
519.45	32346.20
519.62	32905.59
519.79	32521.74
519.96	32959.42
520.14	32833.04
520.31	32444.51
520.48	33244.97
520.65	33055.39
520.83	33418.17
521.00	33268.37
521.17	33010.92
521.34	33347.95
521.52	33535.20
521.69	33755.21
521.86	33488.38
522.03	33394.76
522.20	33724.78
522.38	33703.71
522.55	33872.23
522.72	33991.60
522.89	33769.25
523.07	34251.40
523.24	34075.86
523.41	34096.92
523.58	33773.93
523.75	34550.99
523.92	34106.29
524.10	34541.63
524.27	34747.59
524.44	34270.12
524.61	34813.13
524.78	34731.21
524.96	34679.72
525.13	34930.16
525.30	35618.27
525.47	34895.05
525.64	35377.20
525.81	35096.33
525.98	34939.52
526.16	35012.07
526.33	35086.97
526.50	35634.66
526.67	35077.61
526.84	35304.64
527.01	35070.59
527.18	35154.85
527.36	35386.56
527.53	35655.72
527.70	36154.26
527.87	35681.47
528.04	35665.08
528.21	35915.52
528.38	35908.50
528.55	36395.33
528.72	35861.69
528.89	36624.70
529.07	36107.44
529.24	35849.99
529.41	36381.29
529.58	36266.60
529.75	35833.60
529.92	36566.19
530.09	36264.26
530.26	36512.36
530.43	36182.34
530.60	36067.66
530.77	36652.79
530.94	36493.63
531.11	36603.64
531.28	36575.55
531.46	37015.57
531.63	37062.38
531.80	36966.42
531.97	36788.54
532.14	36943.02
532.31	36790.88
532.48	37200.47
532.65	37333.89
532.82	37193.45
532.99	37366.65
533.16	36931.31
533.33	37776.25
533.50	37556.24
533.67	37942.42
533.84	37490.70
534.01	37603.05
534.18	37539.85
534.35	38087.54
534.52	37097.49
534.69	38050.09
534.86	37844.12
535.03	37752.84
535.20	37947.11
535.37	38176.48
535.54	38305.21
535.71	37907.32
535.88	38075.84
536.05	37844.12
536.22	37996.26
536.38	38328.61
536.55	38401.17
536.72	38497.13
536.89	38164.78
537.06	37958.81
537.23	38422.23
537.40	38216.27
537.57	38520.54
537.74	38354.36
537.91	38981.62
538.08	38487.77
538.25	38202.22
538.42	38345.00
538.59	39189.93
538.75	38422.23
538.92	38536.92
539.09	38579.05
539.26	38939.49
539.43	38990.98
539.60	39016.73
539.77	38939.49
539.94	38946.51
540.11	38754.59
540.28	39152.48
540.44	38918.43
540.61	38831.83
540.78	38937.15
540.95	38663.31
541.12	38710.12
541.29	39405.26
541.46	39529.31
541.62	39288.23
541.79	39510.58
541.96	39075.24
542.13	39194.61
542.30	39737.62
542.47	39585.48
542.63	39632.29
542.80	40198.70
542.97	40231.47
543.14	40156.57
543.31	40058.27
543.48	40318.07
543.64	40655.11
543.81	40095.72
543.98	40376.58
544.15	40421.05
544.32	40582.55
544.48	40685.53
544.65	40587.23
544.82	40683.19
544.99	39971.67
545.16	40203.38
545.32	40786.18
545.49	40580.21
545.66	40718.30
545.83	40811.92
546.00	40627.02
546.16	40645.74
546.33	40428.07
546.50	40261.90
546.67	40282.96
546.83	40390.62
547.00	40928.95
547.17	41081.08
547.34	40818.94
547.50	41186.41
547.67	41069.38
547.84	41003.85
548.00	41106.83
548.17	41481.31
548.34	41357.27
548.51	41371.31
548.67	41364.29
548.84	41509.40
549.01	40861.07
549.18	41202.79
549.34	41790.27
549.51	41354.93
549.68	41558.55
549.84	41596.00
550.01	41652.17
550.18	41294.07
550.34	41439.18
550.51	41551.53
550.68	41415.78
550.84	40938.31
551.01	41591.32
551.18	41614.72
551.34	41762.18
551.51	41830.05
551.68	42267.73
551.84	41893.25
552.01	41549.19
552.18	42150.71
552.34	41848.78
552.51	41947.08
552.68	41757.50
552.84	42394.12
553.01	42075.81
553.18	42092.19
553.34	41668.56
553.51	42197.52
553.67	41720.05
553.84	42277.10
554.01	42478.38
554.17	42651.58
554.34	42768.61
554.51	42574.34
554.67	42567.32
554.84	42394.12
555.00	42071.13
555.17	42120.28
555.33	42560.30
555.50	42492.43
555.67	42590.73
555.83	42478.38
556.00	42281.78
556.16	42726.48
556.33	42794.36
556.50	42726.48
556.66	42995.64
556.83	42667.97
556.99	43068.20
557.16	42707.76
557.32	43112.67
557.49	42651.58
557.65	42452.64
557.82	42710.10
557.98	42576.69
558.15	42679.67
558.32	42658.60
558.48	43035.43
558.65	42508.81
558.81	43075.22
558.98	42696.05
559.14	42845.85
559.31	43009.68
559.47	43309.27
559.64	43442.68
559.80	43189.91
559.97	43304.59
560.13	43213.31
560.30	43136.07
560.46	43159.48
560.63	42803.72
560.79	42981.60
560.96	43227.35
561.12	43573.75
561.29	43299.91
561.45	43182.88
561.61	43220.33
561.78	43360.76
561.94	43220.33
562.11	43257.78
562.27	43243.74
562.44	43201.61
562.60	43789.08
562.77	43648.65
562.93	43225.01
563.10	43620.56
563.26	43545.67
563.42	43952.92
563.59	43693.12
563.75	43320.98
563.92	43423.96
564.08	43452.05
564.24	43746.95
564.41	43309.27
564.57	43716.53
564.74	43592.48
564.90	43634.61
565.07	43700.14
565.23	43234.38
565.39	43531.62
565.56	43863.98
565.72	43819.51
565.88	43655.67
566.05	43400.55
566.21	43615.88
566.38	43782.06
566.54	43569.07
566.70	43548.01
566.87	43915.47
567.03	43559.71
567.19	44175.27
567.36	43807.81
567.52	43590.14
567.68	44210.38
567.85	43627.59
568.01	43861.64
568.17	44135.48
568.34	43995.05
568.50	43824.19
568.66	43576.09
568.83	43674.40
568.99	43915.47
569.15	43819.51
569.32	43761.00
569.48	44119.10
569.64	44355.49
569.81	43863.98
569.97	44098.03
570.13	43906.11
570.30	43700.14
570.46	44044.20
570.62	43814.83
570.78	43358.42
570.95	43702.48
571.11	44027.82
571.27	44362.51
571.43	44107.40
571.60	44069.95
571.76	44222.08
571.92	43952.92
572.09	43924.83
572.25	43634.61
572.41	44336.77
572.57	44203.36
572.74	44729.98
572.90	44296.98
573.06	43983.35
573.22	44135.48
573.38	44130.80
573.55	43892.07
573.71	43571.41
573.87	44069.95
574.03	43885.04
574.20	44456.14
574.36	43990.37
574.52	44177.61
574.68	44149.53
574.84	44531.03
575.01	44030.16
575.17	44201.02
575.33	44027.82
575.49	44098.03
575.65	44444.43
575.82	44397.62
575.98	44123.78
576.14	44514.65
576.30	44102.71
576.46	44343.79
576.62	43856.96
576.79	43929.51
576.95	43679.08
577.11	44208.04
577.27	43995.05
577.43	44168.25
577.59	44381.24
577.75	44322.72
577.92	43723.55
578.08	43908.45
578.24	43955.26
578.40	43732.91
578.56	44479.54
578.72	44453.79
578.88	44268.89
579.04	43744.61
579.21	44547.42
579.37	43878.02
579.53	44123.78
579.69	44067.61
579.85	44339.11
580.01	44210.38
580.17	44589.55
580.33	44051.22
580.49	44605.93
580.65	44561.46
580.82	44067.61
580.98	44729.98
581.14	44624.65
581.30	44563.80
581.46	44498.26
581.62	44870.41
581.78	44172.93
581.94	44516.99
582.10	44402.30
582.26	44868.07
582.42	44521.67
582.58	44399.96
582.74	44493.58
582.90	44409.32
583.06	44479.54
583.22	44872.75
583.38	44664.44
583.54	44311.02
583.70	44318.04
583.86	44629.34
584.02	43686.10
584.18	44051.22
584.34	44304.00
584.50	44612.95
584.66	44205.70
584.82	44746.36
584.98	44655.08
585.14	44671.46
585.30	44105.06
585.46	44659.76
585.62	44376.56
585.78	44067.61
585.94	43730.57
586.10	43847.60
586.26	44030.16
586.42	44779.13
586.58	44767.43
586.74	44636.36
586.90	44135.48
587.06	43950.58
587.22	44493.58
587.38	44339.11
587.54	44655.08
587.70	44521.67
587.86	44521.67
588.02	44580.18
588.18	44800.19
588.34	44421.03
588.49	44114.42
588.65	44184.63
588.81	44093.35
588.97	44329.75
589.13	44406.98
589.29	44308.68
589.45	44790.83
589.61	44690.19
589.77	44758.06
589.93	44341.45
590.08	44659.76
590.24	44259.53
590.40	44470.18
