SpectraSuite Data File
++++++++++++++++++++++++++++++++++++
Date: Fri Oct 25 11:25:01 EDT 2013
User: price-jones
Dark Spectrum Present: No
Reference Spectrum Present: No
Number of Sampled Component Spectra: 1
Spectrometers: USB2+H05261
Integration Time (usec): 100000 (USB2+H05261)
Spectra Averaged: 1 (USB2+H05261)
Boxcar Smoothing: 0 (USB2+H05261)
Correct for Electrical Dark: No (USB2+H05261)
Strobe/Lamp Enabled: No (USB2+H05261)
Correct for Detector Non-linearity: No (USB2+H05261)
Correct for Stray Light: No (USB2+H05261)
Number of Pixels in Processed Spectrum: 2048
>>>>>Begin Processed Spectral Data<<<<<
365.73	189.58
365.92	189.58
366.12	189.58
366.32	117.03
366.52	210.65
366.72	208.31
366.91	124.05
367.11	147.45
367.31	117.03
367.51	145.11
367.70	173.20
367.90	159.16
368.10	147.45
368.30	135.75
368.49	140.43
368.69	145.11
368.89	145.11
369.09	154.48
369.28	184.90
369.48	180.22
369.68	180.22
369.87	191.92
370.07	189.58
370.27	248.10
370.47	379.17
370.66	554.71
370.86	678.76
371.06	631.94
371.25	732.59
371.45	739.61
371.65	655.35
371.84	655.35
372.04	711.52
372.24	798.12
372.44	730.25
372.63	643.65
372.83	760.67
373.03	779.40
373.22	706.84
373.42	716.20
373.62	805.14
373.81	844.93
374.01	784.08
374.21	851.96
374.40	739.61
374.60	784.08
374.79	777.06
374.99	866.00
375.19	828.55
375.38	814.51
375.58	802.80
375.78	837.91
375.97	922.17
376.17	898.77
376.37	905.79
376.56	915.15
376.76	856.64
376.95	908.13
377.15	828.55
377.35	854.30
377.54	901.11
377.74	858.98
377.93	877.70
378.13	875.36
378.33	961.96
378.52	882.38
378.72	887.06
378.91	938.55
379.11	992.39
379.31	924.51
379.50	835.57
379.70	1025.15
379.89	1057.92
380.09	1006.43
380.28	1029.84
380.48	1029.84
380.68	997.07
380.87	1020.47
381.07	1022.81
381.26	1142.18
381.46	1086.01
381.65	1067.28
381.85	1039.20
382.04	1053.24
382.24	1090.69
382.43	1109.41
382.63	1074.31
382.83	1109.41
383.02	1062.60
383.22	1095.37
383.41	1086.01
383.61	1125.80
383.80	1144.52
384.00	1062.60
384.19	1111.75
384.39	1107.07
384.58	1158.57
384.78	1100.05
384.97	1177.29
385.17	1128.14
385.36	1128.14
385.56	1102.39
385.75	1128.14
385.95	1163.25
386.14	1254.53
386.34	1156.22
386.53	1221.76
386.72	1214.74
386.92	1188.99
387.11	1210.06
387.31	1254.53
387.50	1277.93
387.70	1254.53
387.89	1348.15
388.09	1191.33
388.28	1266.23
388.48	1280.27
388.67	1357.51
388.86	1291.98
389.06	1313.04
389.25	1240.48
389.45	1299.00
389.64	1362.19
389.84	1469.86
390.03	1366.87
390.22	1399.64
390.42	1352.83
390.61	1362.19
390.81	1427.73
391.00	1355.17
391.19	1467.52
391.39	1357.51
391.58	1364.53
391.78	1458.15
391.97	1458.15
392.16	1451.13
392.36	1547.09
392.55	1600.93
392.75	1502.62
392.94	1542.41
393.13	1495.60
393.33	1511.99
393.52	1558.80
393.71	1563.48
393.91	1624.33
394.10	1549.43
394.29	1551.78
394.49	1547.09
394.68	1694.55
394.88	1591.56
395.07	1720.29
395.26	1689.87
395.46	1603.27
395.65	1743.70
395.84	1771.79
396.04	1741.36
396.23	1804.55
396.42	1762.42
396.62	1788.17
396.81	1746.04
397.00	1720.29
397.19	1802.21
397.39	1629.01
397.58	1914.56
397.77	1811.57
397.97	1865.41
398.16	1818.60
398.35	1872.43
398.55	1802.21
398.74	1937.96
398.93	1891.15
399.12	1891.15
399.32	1905.20
399.51	1973.07
399.70	1956.69
399.90	1956.69
400.09	1989.46
400.28	2134.57
400.47	1970.73
400.67	2071.37
400.86	2026.90
401.05	2073.71
401.24	2043.29
401.44	2057.33
401.63	2176.70
401.82	2111.16
402.01	2113.50
402.21	2176.70
402.40	2113.50
402.59	2127.55
402.78	2193.08
402.97	2155.63
403.17	2345.22
403.36	2303.09
403.55	2246.91
403.74	2333.51
403.93	2387.35
404.13	2429.48
404.32	2377.98
404.51	2277.34
404.70	2335.85
404.89	2443.52
405.09	2436.50
405.28	2356.92
405.47	2478.63
405.66	2436.50
405.85	2541.82
406.05	2490.33
406.24	2539.48
406.43	2509.05
406.62	2679.91
406.81	2623.74
407.00	2607.36
407.20	2530.12
407.39	2675.23
407.58	2740.77
407.77	2658.85
407.96	2686.94
408.15	2792.26
408.34	2792.26
408.54	2747.79
408.73	2771.19
408.92	2801.62
409.11	2808.64
409.30	3012.27
409.49	2885.88
409.68	2960.78
409.87	2909.29
410.07	2965.46
410.26	3094.19
410.45	3007.59
410.64	3021.63
410.83	3178.45
411.02	3016.95
411.21	3145.68
411.40	3138.66
411.59	3197.17
411.78	3232.28
411.98	3199.51
412.17	3353.99
412.36	3166.74
412.55	3262.71
412.74	3571.66
412.93	3410.16
413.12	3440.59
413.31	3452.29
413.50	3485.06
413.69	3562.30
413.88	3471.01
414.07	3634.85
414.26	3662.94
414.45	3613.79
414.64	3571.66
414.83	3794.01
415.02	3826.78
415.22	3782.31
415.41	3819.75
415.60	3955.51
415.79	3983.59
415.98	3911.04
416.17	3885.29
416.36	3843.16
416.55	3971.89
416.74	4145.09
416.93	4093.60
417.12	4042.11
417.31	4145.09
417.50	4210.62
417.69	4304.25
417.88	4184.88
418.07	4241.05
418.26	4318.29
418.45	4259.78
418.64	4379.14
418.83	4432.97
419.02	4477.44
419.21	4510.21
419.39	4432.97
419.58	4575.75
419.77	4505.53
419.96	4526.60
420.15	4697.46
420.34	4571.07
420.53	4484.47
420.72	4758.31
420.91	4568.73
421.10	4770.01
421.29	4837.89
421.48	4510.21
421.67	4793.42
421.86	4746.61
422.05	4711.50
422.24	4861.29
422.43	4821.50
422.61	4917.47
422.80	4933.85
422.99	4816.82
423.18	4851.93
423.37	5008.75
423.56	4805.12
423.75	4931.51
423.94	4910.44
424.13	4648.30
424.32	4772.35
424.50	4873.00
424.69	5081.30
424.88	5104.71
425.07	4945.55
425.26	4950.23
425.45	4985.34
425.64	5069.60
425.83	5048.54
426.01	4973.64
426.20	5020.45
426.39	5102.37
426.58	5085.98
426.77	4973.64
426.96	5104.71
427.15	5114.07
427.33	5207.69
427.52	5156.20
427.71	5245.14
427.90	5137.48
428.09	5254.50
428.28	5420.68
428.46	5387.91
428.65	5401.96
428.84	5516.64
429.03	5465.15
429.22	5313.02
429.40	5598.56
429.59	5420.68
429.78	5366.85
429.97	5383.23
430.16	5558.77
430.34	5703.89
430.53	5727.29
430.72	5542.39
430.91	5465.15
431.10	5680.48
431.28	5771.76
431.47	5820.91
431.66	5933.26
431.85	5628.99
432.03	5963.68
432.22	5926.24
432.41	5921.56
432.60	5933.26
432.79	6038.58
432.97	6022.20
433.16	5966.03
433.35	5830.27
433.54	6174.33
433.72	6033.90
433.91	6005.81
434.10	6059.65
434.28	6066.67
434.47	6190.72
434.66	6286.68
434.85	6284.34
435.03	6298.38
435.22	6319.45
435.41	6509.03
435.59	6399.02
435.78	6408.39
435.97	6422.43
436.16	6518.39
436.34	6382.64
436.53	6499.67
436.72	6424.77
436.90	6399.02
437.09	6558.18
437.28	6506.69
437.46	6583.93
437.65	6707.98
437.84	6677.55
438.02	6731.38
438.21	6757.13
438.40	6576.91
438.58	7073.10
438.77	7169.06
438.96	6953.73
439.14	7080.12
439.33	7293.11
439.52	7131.61
439.70	7143.32
439.89	7344.60
440.08	7449.93
440.26	7475.67
440.45	7433.54
440.63	7449.93
440.82	7538.87
441.01	7571.63
441.19	7531.84
441.38	7812.71
441.57	7761.22
441.75	7859.52
441.94	7974.21
442.12	7857.18
442.31	8004.63
442.50	8102.93
442.68	8131.02
442.87	8149.75
443.05	8105.28
443.24	8084.21
443.43	7948.46
443.61	8114.64
443.80	8322.94
443.98	8039.74
444.17	7798.66
444.35	8208.26
444.54	8348.69
444.73	8290.18
444.91	8180.17
445.10	8255.07
445.28	8442.31
445.47	8095.91
445.65	8187.19
445.84	8423.59
446.02	8540.61
446.21	8374.44
446.39	8201.24
446.58	8461.04
446.77	8344.01
446.95	8142.72
447.14	8517.21
447.32	8624.87
447.51	8475.08
447.69	8432.95
447.88	8521.89
448.06	8681.05
448.25	8484.44
448.43	8697.43
448.62	8688.07
448.80	8439.97
448.99	8631.90
449.17	8692.75
449.36	8624.87
449.54	9008.72
449.73	8884.67
449.91	8877.65
450.10	9146.81
450.28	9135.11
450.46	9013.40
450.65	9004.04
450.83	9184.26
451.02	9137.45
451.20	9071.92
451.39	9195.96
451.57	9200.65
451.76	8978.30
451.94	9291.93
452.13	9418.32
452.31	9493.21
452.49	9167.88
452.68	9336.40
452.86	9497.89
453.05	9528.32
453.23	9488.53
453.42	9235.75
453.60	9327.03
453.78	9586.83
453.97	9490.87
454.15	9341.08
454.34	9533.00
454.52	9738.97
454.70	9888.76
454.89	9750.67
455.07	9671.09
455.26	9678.12
455.44	10190.69
455.62	9755.35
455.81	9797.48
455.99	10012.81
456.17	10052.60
456.36	9914.51
456.54	10497.30
456.73	10015.15
456.91	10368.57
457.09	10436.45
457.28	10359.21
457.46	10136.86
457.64	10530.07
457.83	10277.29
458.01	10377.94
458.19	10626.03
458.38	10541.77
458.56	10731.36
458.74	10448.15
458.93	10689.23
459.11	10792.21
459.29	10876.47
459.48	10785.19
459.66	10803.91
459.84	10911.58
460.03	10967.75
460.21	10792.21
460.39	11136.27
460.57	11112.86
460.76	11262.66
460.94	11246.27
461.12	11206.48
461.31	11124.57
461.49	11239.25
461.67	11178.40
461.85	11562.25
462.04	11248.61
462.22	11742.47
462.40	11602.04
462.59	11267.34
462.77	11323.51
462.95	11971.84
463.13	11674.59
463.32	11653.53
463.50	11681.61
463.68	11716.72
463.86	11686.29
464.05	11602.04
464.23	11487.35
464.41	11971.84
464.59	11623.10
464.78	11974.18
464.96	11857.15
465.14	11908.65
465.32	12142.70
465.50	11815.02
465.69	12077.16
465.87	12086.53
466.05	12053.76
466.23	12243.34
466.41	12358.03
466.60	12423.56
466.78	12123.98
466.96	12290.15
467.14	12306.54
467.32	12585.06
467.51	12692.73
467.69	12259.73
467.87	12521.87
468.05	12674.00
468.23	12456.33
468.41	12510.16
468.60	12713.79
468.78	12517.18
468.96	12636.55
469.14	12837.84
469.32	12891.67
469.50	12566.34
469.69	12987.63
469.87	13062.53
470.05	13111.68
470.23	13324.67
470.41	13263.82
470.59	13348.08
470.77	13200.62
470.95	13315.31
471.14	13530.64
471.32	13214.66
471.50	13757.67
471.68	13561.06
471.86	13701.50
472.04	13664.05
472.22	14129.81
472.40	13650.00
472.58	13996.40
472.77	13930.87
472.95	14401.32
473.13	14731.33
473.31	14012.79
473.49	14239.82
473.67	14061.94
473.85	14387.27
474.03	14696.22
474.21	14609.62
474.39	14689.20
474.57	14768.78
474.75	14920.92
474.93	14689.20
475.12	14721.97
475.30	14895.17
475.48	15208.80
475.66	15307.10
475.84	15260.29
476.02	15330.51
476.20	15456.90
476.38	15723.72
476.56	16042.03
476.74	16006.92
476.92	15885.22
477.10	15779.89
477.28	16290.13
477.46	16159.06
477.64	16196.51
477.82	16414.18
478.00	17062.51
478.18	16898.67
478.36	16884.62
478.54	17074.21
478.72	17202.94
478.90	17406.56
479.08	17617.21
479.26	17598.49
479.44	17806.80
479.62	17809.14
479.80	18054.89
479.98	18115.75
480.16	18728.97
480.34	18457.46
480.52	18775.78
480.70	18630.66
480.88	18445.76
481.06	18576.83
481.24	19021.53
481.41	18979.40
481.59	19126.86
481.77	19403.04
481.95	19337.51
482.13	19882.85
482.31	19330.48
482.49	20142.65
482.67	19913.28
482.85	20315.85
483.03	20748.85
483.21	20688.00
483.39	20987.58
483.57	20680.97
483.74	21111.63
483.92	21195.89
484.10	20982.90
484.28	21605.49
484.46	21806.77
484.64	22342.75
484.82	22026.78
485.00	22148.49
485.18	23065.98
485.35	22920.87
485.53	22838.95
485.71	23297.69
485.89	23117.47
486.07	23281.31
486.25	23026.19
486.43	23592.60
486.61	24163.69
486.78	24189.44
486.96	24032.62
487.14	24723.08
487.32	24514.77
487.50	24774.57
487.68	25408.86
487.85	25242.68
488.03	25600.78
488.21	25612.48
488.39	26146.12
488.57	26045.48
488.75	26281.88
488.92	26228.04
489.10	26932.54
489.28	26597.85
489.46	26984.04
489.64	26757.00
489.81	27580.87
489.99	27435.76
490.17	27838.33
490.35	28051.32
490.53	28402.40
490.70	28458.57
490.88	28636.45
491.06	28961.79
491.24	28669.22
491.41	29104.56
491.59	29369.04
491.77	29048.39
491.95	29638.20
492.13	29582.03
492.30	29912.05
492.48	29745.87
492.66	30157.80
492.84	30338.02
493.01	30806.13
493.19	30719.53
493.37	31094.02
493.54	31051.89
493.72	31571.49
493.90	31168.91
494.08	31845.33
494.25	31981.08
494.43	32130.87
494.61	32364.93
494.79	32095.77
494.96	32252.58
495.14	32840.06
495.32	33104.54
495.49	33008.58
495.67	33216.88
495.85	33263.69
496.02	34033.73
496.20	34003.30
496.38	33834.78
496.55	34010.32
496.73	35131.44
496.91	34499.50
497.09	34895.05
497.26	34728.87
497.44	34637.59
497.62	35084.63
497.79	35723.60
497.97	35175.91
498.14	35821.90
498.32	36130.85
498.50	36498.31
498.67	36463.21
498.85	36528.74
499.03	36776.84
499.20	36992.17
499.38	36828.33
499.56	37137.28
499.73	36732.37
499.91	37511.77
500.08	37268.35
500.26	37610.07
500.44	37507.08
500.61	37811.35
500.79	37729.44
500.97	38335.63
501.14	38796.72
501.32	38206.90
501.49	38010.30
501.67	38707.78
501.84	38773.31
502.02	38550.96
502.20	38710.12
502.37	39009.71
502.55	38953.54
502.72	39622.93
502.90	39576.12
503.07	38976.94
503.25	40020.82
503.43	39178.23
503.60	40109.76
503.78	40067.63
503.95	39938.90
504.13	40460.84
504.30	40844.69
504.48	40495.95
504.65	40811.92
504.83	41415.78
505.01	41322.16
505.18	41123.21
505.36	41268.33
505.53	41525.78
505.71	41453.23
505.88	41432.16
506.06	41249.60
506.23	42029.00
506.41	42124.96
506.58	42202.20
506.76	42127.30
506.93	43016.71
507.11	42438.59
507.28	42562.64
507.46	42808.40
507.63	42721.80
507.81	43461.41
507.98	43267.14
508.16	43040.11
508.33	43381.83
508.50	43475.45
508.68	43772.70
508.85	43962.28
509.03	43695.46
509.20	43959.94
509.38	44095.69
509.55	44252.51
509.73	44266.55
509.90	44392.94
510.08	44219.74
510.25	44795.51
510.42	44884.45
510.60	45015.52
510.77	45174.68
510.95	45628.74
511.12	44926.58
511.30	45406.39
511.47	45242.56
511.64	45610.02
511.82	45738.75
511.99	45490.65
512.17	46054.72
512.34	46031.32
512.51	46284.09
512.69	46312.18
512.86	46040.68
513.04	46726.46
513.21	46096.85
513.38	46539.21
513.56	46997.96
513.73	46569.64
513.90	46913.70
514.08	47110.30
514.25	47070.51
514.43	47374.78
514.60	47262.44
514.77	47351.38
514.95	47959.92
515.12	47636.92
515.29	47856.93
515.47	47973.96
515.64	47920.13
515.81	48292.27
515.99	48439.73
516.16	48444.41
516.33	48315.68
516.51	48491.22
516.68	48636.33
516.85	48336.74
517.03	48987.41
517.20	48767.40
517.37	48858.68
517.54	48713.57
517.72	48849.32
517.89	49406.37
518.06	49113.80
518.24	49024.86
518.41	49476.58
518.58	49455.52
518.75	49397.01
518.93	49462.54
519.10	49357.22
519.27	49874.48
519.45	49710.64
519.62	49773.83
519.79	49900.22
519.96	50078.10
520.14	50253.64
520.31	50178.75
520.48	50047.68
520.65	50464.29
520.83	50550.89
521.00	50742.81
521.17	50293.43
521.34	50651.53
521.52	50691.32
521.69	50681.96
521.86	51147.73
522.03	51117.30
522.20	51278.80
522.38	51880.31
522.55	51105.60
522.72	51112.62
522.89	51473.06
523.07	51344.33
523.24	51662.64
523.41	51655.62
523.58	51646.26
523.75	51868.61
523.92	51807.76
524.10	51894.36
524.27	52336.72
524.44	52034.79
524.61	52009.04
524.78	52245.44
524.96	52025.43
525.13	52215.01
525.30	52310.97
525.47	52610.56
525.64	52285.23
525.81	52790.78
525.98	52451.41
526.16	52877.38
526.33	52617.58
526.50	53179.31
526.67	52889.09
526.84	53272.93
527.01	52919.51
527.18	52945.26
527.36	53139.52
527.53	53048.24
527.70	53429.75
527.87	53270.59
528.04	53237.83
528.21	53338.47
528.38	53469.54
528.55	53581.88
528.72	53607.63
528.89	53254.21
529.07	53270.59
529.24	53511.67
529.41	53907.22
529.58	53612.31
529.75	53467.20
529.92	53900.20
530.09	53687.21
530.26	54075.74
530.43	53776.15
530.60	53925.94
530.77	53937.65
530.94	54103.82
531.11	53907.22
531.28	54138.93
531.46	54246.60
531.63	54160.00
531.80	54302.77
531.97	54337.88
532.14	54267.66
532.31	54412.77
532.48	54726.41
532.65	54520.44
532.82	54672.57
532.99	54745.13
533.16	54298.09
533.33	54712.36
533.50	54855.14
533.67	54805.98
533.84	54782.58
534.01	54684.28
534.18	54824.71
534.35	55260.05
534.52	55180.47
534.69	55058.76
534.86	55236.64
535.03	55180.47
535.20	55136.00
535.37	55363.03
535.54	55573.68
535.71	55187.49
535.88	55473.04
536.05	55695.39
536.22	55592.40
536.38	55728.16
536.55	55632.19
536.72	55243.66
536.89	55510.49
537.06	55758.58
537.23	55927.10
537.40	55503.46
537.57	55543.25
537.74	55695.39
537.91	55861.57
538.08	55999.66
538.25	55777.31
538.42	55796.03
538.59	56245.41
538.75	55810.07
538.92	55941.14
539.09	56097.96
539.26	56217.33
539.43	55936.46
539.60	56236.05
539.77	56477.13
539.94	56353.08
540.11	56355.42
540.28	56355.42
540.44	56406.91
540.61	56559.05
540.78	56390.53
540.95	56397.55
541.12	56364.78
541.29	56584.79
541.46	56329.67
541.62	56526.28
541.79	56624.58
541.96	56435.00
542.13	56303.93
542.30	56893.74
542.47	56999.07
542.63	56938.21
542.80	56959.28
542.97	56891.40
543.14	57162.90
543.31	57172.27
543.48	57216.74
543.64	57392.28
543.81	57429.72
543.98	57354.83
544.15	57401.64
544.32	57612.29
544.48	57696.55
544.65	57478.88
544.82	57549.09
544.99	57134.82
545.16	57380.57
545.32	57432.07
545.49	57659.10
545.66	57581.86
545.83	57783.15
546.00	57808.89
546.16	57698.89
546.33	57572.50
546.50	57593.56
546.67	57769.10
546.83	57364.19
547.00	57766.76
547.17	57623.99
547.34	57996.13
547.50	57986.77
547.67	58204.44
547.84	58115.50
548.00	58040.60
548.17	57998.48
548.34	57970.39
548.51	58075.71
548.67	58539.14
548.84	58307.43
549.01	57921.24
549.18	58269.98
549.34	58323.81
549.51	58169.33
549.68	58398.71
549.84	58241.89
550.01	58515.73
550.18	58227.85
550.34	58349.56
550.51	58459.56
550.68	58293.38
550.84	58356.58
551.01	58562.54
551.18	58361.26
551.34	58492.33
551.51	58431.47
551.68	58714.68
551.84	58415.09
552.01	58394.03
552.18	58726.38
552.34	58534.46
552.51	58880.86
552.68	58330.83
552.84	58660.85
553.01	59016.61
553.18	58665.53
553.34	58913.62
553.51	58501.69
553.67	58583.61
553.84	59089.16
554.01	59070.44
554.17	58995.54
554.34	59002.56
554.51	59028.31
554.67	59253.00
554.84	58965.12
555.00	58990.86
555.17	59082.14
555.33	59009.59
555.50	58925.33
555.67	58944.05
555.83	58897.24
556.00	59119.59
556.16	59536.21
556.33	59238.96
556.50	59117.25
556.66	59290.45
556.83	59229.60
556.99	59430.88
557.16	59365.35
557.32	59405.14
557.49	59566.63
557.65	59465.99
557.82	59372.37
557.98	59358.33
558.15	59526.84
558.32	59203.85
558.48	59566.63
558.65	59339.60
558.81	59669.62
558.98	59489.40
559.14	59430.88
559.31	59601.74
559.47	59753.88
559.64	59669.62
559.80	59583.02
559.97	59669.62
560.13	59583.02
560.30	59622.81
560.46	59526.84
560.63	59711.75
560.79	59889.63
560.96	59875.58
561.12	59828.77
561.29	59772.60
561.45	59957.50
561.61	59796.01
561.78	59821.75
561.94	59765.58
562.11	59749.20
562.27	59994.95
562.44	59997.29
562.60	60191.56
562.77	60032.40
562.93	59749.20
563.10	60011.34
563.26	59898.99
563.42	60144.75
563.59	60170.49
563.75	60013.68
563.92	59985.59
564.08	59952.82
564.24	60081.55
564.41	60172.83
564.57	59938.78
564.74	60219.64
564.90	60039.42
565.07	60065.17
565.23	60030.06
565.39	60046.44
565.56	60275.82
565.72	60062.83
565.88	60154.11
566.05	60149.43
566.21	60123.68
566.38	60095.60
566.54	60315.61
566.70	60315.61
566.87	60285.18
567.03	60151.77
567.19	60420.93
567.36	60224.32
567.52	60488.80
567.68	60640.94
567.85	60458.38
568.01	60563.70
568.17	60282.84
568.34	60432.63
568.50	60364.76
568.66	60437.31
568.83	60633.92
568.99	60282.84
569.15	60507.53
569.32	60294.54
569.48	60346.03
569.64	60552.00
569.81	60308.58
569.97	60505.19
570.13	60650.30
570.30	60392.84
570.46	60624.56
570.62	60573.06
570.78	60582.43
570.95	60460.72
571.11	60650.30
571.27	60446.68
571.43	60374.12
571.60	60568.38
571.76	60734.56
571.92	60554.34
572.09	60348.37
572.25	60575.40
572.41	60687.75
572.57	60460.72
572.74	60718.18
572.90	60617.53
573.06	60594.13
573.22	60741.58
573.38	60828.18
573.55	60615.19
573.71	60802.44
573.87	60764.99
574.03	60748.60
574.20	60762.65
574.36	60509.87
574.52	60856.27
574.68	60856.27
574.84	60713.50
575.01	60678.39
575.17	60828.18
575.33	60556.68
575.49	60601.15
575.65	60594.13
575.82	60748.60
575.98	60612.85
576.14	60842.23
576.30	60769.67
576.46	60748.60
576.62	60741.58
576.79	60664.35
576.95	60823.50
577.11	60954.57
577.27	60879.67
577.43	60882.02
577.59	60832.86
577.75	60762.65
577.92	60786.05
578.08	60926.49
578.24	60748.60
578.40	60874.99
578.56	60975.64
578.72	60800.10
578.88	60889.04
579.04	60870.31
579.21	61015.43
579.37	61181.60
579.53	60907.76
579.69	60624.56
579.85	60748.60
580.01	60793.07
580.17	60594.13
580.33	60842.23
580.49	61151.18
580.65	60750.94
580.82	60856.27
580.98	60781.37
581.14	60704.13
581.30	61095.00
581.46	60844.57
581.62	60879.67
581.78	60776.69
581.94	60966.27
582.10	60996.70
582.26	60849.25
582.42	60846.91
582.58	61013.08
582.74	60914.78
582.90	60959.25
583.06	60945.21
583.22	60783.71
583.38	60956.91
583.54	60882.02
583.70	60825.84
583.86	61102.03
584.02	60966.27
584.18	60975.64
584.34	60977.98
584.50	60966.27
584.66	60870.31
584.82	60996.70
584.98	61228.41
585.14	61006.06
585.30	61013.08
585.46	61083.30
585.62	60924.14
585.78	61207.35
585.94	60793.07
586.10	61057.56
586.26	60893.72
586.42	61059.90
586.58	61118.41
586.74	61024.79
586.90	60926.49
587.06	60963.93
587.22	61160.54
587.38	60912.44
587.54	61125.43
587.70	61240.12
587.86	61022.45
588.02	61109.05
588.18	61256.50
588.34	61048.19
