SpectraSuite Data File
++++++++++++++++++++++++++++++++++++
Date: Fri Oct 25 11:34:34 EDT 2013
User: price-jones
Dark Spectrum Present: No
Reference Spectrum Present: No
Number of Sampled Component Spectra: 1
Spectrometers: USB2+H05261
Integration Time (usec): 100000 (USB2+H05261)
Spectra Averaged: 1 (USB2+H05261)
Boxcar Smoothing: 0 (USB2+H05261)
Correct for Electrical Dark: No (USB2+H05261)
Strobe/Lamp Enabled: No (USB2+H05261)
Correct for Detector Non-linearity: No (USB2+H05261)
Correct for Stray Light: No (USB2+H05261)
Number of Pixels in Processed Spectrum: 2048
>>>>>Begin Processed Spectral Data<<<<<
365.73	271.50
365.92	271.50
366.12	271.50
366.32	222.35
366.52	161.50
366.72	238.73
366.91	124.05
367.11	257.46
367.31	187.24
367.51	234.05
367.70	131.07
367.90	154.48
368.10	149.79
368.30	166.18
368.49	243.42
368.69	170.86
368.89	154.48
369.09	201.29
369.28	182.56
369.48	138.09
369.68	271.50
369.87	278.52
370.07	271.50
370.27	304.27
370.47	322.99
370.66	416.62
370.86	496.19
371.06	479.81
371.25	479.81
371.45	486.83
371.65	571.09
371.84	531.30
372.04	514.92
372.24	528.96
372.44	582.79
372.63	585.13
372.83	641.31
373.03	578.11
373.22	655.35
373.42	622.58
373.62	636.63
373.81	610.88
374.01	631.94
374.21	580.45
374.40	634.29
374.60	662.37
374.79	641.31
374.99	636.63
375.19	610.88
375.38	671.73
375.58	634.29
375.78	671.73
375.97	671.73
376.17	697.48
376.37	676.41
376.56	655.35
376.76	667.05
376.95	678.76
377.15	645.99
377.35	660.03
377.54	678.76
377.74	648.33
377.93	683.44
378.13	667.05
378.33	667.05
378.52	758.33
378.72	683.44
378.91	671.73
379.11	699.82
379.31	589.82
379.50	718.54
379.70	774.72
379.89	753.65
380.09	667.05
380.28	681.10
380.48	727.91
380.68	699.82
380.87	713.86
381.07	814.51
381.26	772.38
381.46	737.27
381.65	770.04
381.85	807.48
382.04	746.63
382.24	828.55
382.43	823.87
382.63	770.04
382.83	763.01
383.02	772.38
383.22	746.63
383.41	755.99
383.61	786.42
383.80	880.04
384.00	746.63
384.19	912.81
384.39	858.98
384.58	816.85
384.78	833.23
384.97	772.38
385.17	763.01
385.36	767.70
385.56	830.89
385.75	849.61
385.95	751.31
386.14	875.36
386.34	767.70
386.53	877.70
386.72	755.99
386.92	915.15
387.11	894.08
387.31	875.36
387.50	840.25
387.70	842.59
387.89	866.00
388.09	802.80
388.28	891.74
388.48	945.58
388.67	950.26
388.86	868.34
389.06	896.43
389.25	966.64
389.45	861.32
389.64	922.17
389.84	954.94
390.03	891.74
390.22	990.05
390.42	929.19
390.61	856.64
390.81	917.49
391.00	971.32
391.19	917.49
391.39	966.64
391.58	992.39
391.78	936.21
391.97	976.00
392.16	1015.79
392.36	1076.65
392.55	1025.15
392.75	1062.60
392.94	1020.47
393.13	1029.84
393.33	1050.90
393.52	1011.11
393.71	1095.37
393.91	1060.26
394.10	1064.94
394.29	1095.37
394.49	1132.82
394.68	1069.62
394.88	1046.22
395.07	1097.71
395.26	1109.41
395.46	1158.57
395.65	1086.01
395.84	1064.94
396.04	1226.44
396.23	1142.18
396.42	1184.31
396.62	1193.67
396.81	1196.01
397.00	1181.97
397.19	1137.50
397.39	1057.92
397.58	1193.67
397.77	1280.27
397.97	1102.39
398.16	1221.76
398.35	1207.72
398.55	1212.40
398.74	1233.46
398.93	1273.25
399.12	1291.98
399.32	1163.25
399.51	1256.87
399.70	1263.89
399.90	1320.06
400.09	1327.08
400.28	1371.55
400.47	1329.42
400.67	1320.06
400.86	1446.45
401.05	1303.68
401.24	1401.98
401.44	1411.34
401.63	1406.66
401.82	1315.38
402.01	1413.68
402.21	1378.58
402.40	1451.13
402.59	1427.73
402.78	1530.71
402.97	1390.28
403.17	1514.33
403.36	1401.98
403.55	1509.65
403.74	1533.05
403.93	1621.99
404.13	1600.93
404.32	1647.74
404.51	1551.78
404.70	1657.10
404.89	1596.25
405.09	1619.65
405.28	1570.50
405.47	1643.06
405.66	1612.63
405.85	1678.16
406.05	1610.29
406.24	1659.44
406.43	1596.25
406.62	1722.63
406.81	1790.51
407.00	1654.76
407.20	1645.40
407.39	1671.14
407.58	1771.79
407.77	1830.30
407.96	1762.42
408.15	1898.17
408.34	1694.55
408.54	1760.08
408.73	1750.72
408.92	1849.02
409.11	1874.77
409.30	1849.02
409.49	1923.92
409.68	1923.92
409.87	1874.77
410.07	1935.62
410.26	1973.07
410.45	2036.27
410.64	2069.03
410.83	1994.14
411.02	2087.76
411.21	2085.42
411.40	1954.35
411.59	2104.14
411.78	2083.08
411.98	2076.06
412.17	2005.84
412.36	2225.85
412.55	2204.78
412.74	2239.89
412.93	2258.62
413.12	2209.47
413.31	2291.38
413.50	2413.09
413.69	2197.76
413.88	2427.14
414.07	2377.98
414.26	2516.08
414.45	2349.90
414.64	2497.35
414.83	2382.67
415.02	2441.18
415.22	2499.69
415.41	2532.46
415.60	2565.23
415.79	2605.02
415.98	2689.28
416.17	2715.02
416.36	2579.27
416.55	2518.42
416.74	2668.21
416.93	2562.89
417.12	2679.91
417.31	2696.30
417.50	2761.83
417.69	2738.43
417.88	2775.88
418.07	2785.24
418.26	2916.31
418.45	2818.00
418.64	3014.61
418.83	2897.58
419.02	2911.63
419.21	3042.70
419.39	3009.93
419.58	2857.79
419.77	2951.42
419.96	3056.74
420.15	3108.23
420.34	2937.37
420.53	3028.65
420.72	3178.45
420.91	3014.61
421.10	3084.83
421.29	3241.64
421.48	3073.12
421.67	3066.10
421.86	3136.32
422.05	3131.64
422.24	3145.68
422.43	3204.19
422.61	3297.81
422.80	3229.94
422.99	3300.16
423.18	3321.22
423.37	3311.86
423.56	3253.34
423.75	3300.16
423.94	3075.46
424.13	2998.23
424.32	3112.91
424.50	3286.11
424.69	3337.60
424.88	3414.84
425.07	3206.53
425.26	3290.79
425.45	3281.43
425.64	3281.43
425.83	3325.90
426.01	3337.60
426.20	3307.18
426.39	3229.94
426.58	3276.75
426.77	3295.47
426.96	3323.56
427.15	3325.90
427.33	3382.07
427.52	3391.44
427.71	3435.91
427.90	3356.33
428.09	3569.32
428.28	3602.08
428.46	3550.59
428.65	3400.80
428.84	3669.96
429.03	3541.23
429.22	3393.78
429.40	3676.98
429.59	3482.72
429.78	3471.01
429.97	3468.67
430.16	3620.81
430.34	3623.15
430.53	3730.81
430.72	3838.48
430.91	3786.99
431.10	3665.28
431.28	3796.35
431.47	3831.46
431.66	3918.06
431.85	3709.75
432.03	3775.28
432.22	3887.63
432.41	3726.13
432.60	3864.22
432.79	3826.78
432.97	3786.99
433.16	3880.61
433.35	4016.36
433.54	4018.70
433.72	4072.53
433.91	3953.16
434.10	3997.64
434.28	3999.98
434.47	4079.55
434.66	4086.58
434.85	4079.55
435.03	4081.89
435.22	4266.80
435.41	4161.47
435.59	4154.45
435.78	4198.92
435.97	4222.33
436.16	4222.33
436.34	4266.80
436.53	4121.68
436.72	4292.54
436.90	4304.25
437.09	4219.99
437.28	4245.73
437.46	4262.12
437.65	4259.78
437.84	4215.30
438.02	4304.25
438.21	4435.32
438.40	4234.03
438.58	4580.43
438.77	4496.17
438.96	4636.60
439.14	4561.70
439.33	4667.03
439.52	4786.40
439.70	4559.36
439.89	4669.37
440.08	4779.37
440.26	4812.14
440.45	4727.88
440.63	4894.06
440.82	4957.25
441.01	4905.76
441.19	4887.04
441.38	4940.87
441.57	4987.68
441.75	5057.90
441.94	5121.09
442.12	5107.05
442.31	5261.52
442.50	4971.30
442.68	5219.39
442.87	5100.03
443.05	5198.33
443.24	5254.50
443.43	5151.52
443.61	5231.10
443.80	5357.49
443.98	5275.57
444.17	5034.49
444.35	5195.99
444.54	5392.59
444.73	5495.58
444.91	5320.04
445.10	5383.23
445.28	5476.85
445.47	5364.51
445.65	5387.91
445.84	5483.88
446.02	5301.31
446.21	5479.19
446.39	5526.00
446.58	5502.60
446.77	5336.42
446.95	5462.81
447.14	5441.75
447.32	5490.90
447.51	5584.52
447.69	5647.71
447.88	5488.56
448.06	5528.35
448.25	5561.11
448.43	5352.81
448.62	5643.03
448.80	5500.26
448.99	5565.79
449.17	5591.54
449.36	5533.03
449.54	5692.18
449.73	5727.29
449.91	5750.70
450.10	5830.27
450.28	5879.43
450.46	5830.27
450.65	5940.28
450.83	5900.49
451.02	5724.95
451.20	5827.93
451.39	5987.09
451.57	5923.90
451.76	5724.95
451.94	5980.07
452.13	5804.53
452.31	6003.47
452.49	5935.60
452.68	6043.26
452.86	6010.50
453.05	6193.06
453.23	6167.31
453.42	6052.63
453.60	5930.92
453.78	6305.40
453.97	6078.37
454.15	6136.88
454.34	6120.50
454.52	6218.80
454.70	6415.41
454.89	6267.95
455.07	6270.30
455.26	6324.13
455.44	6441.15
455.62	6394.34
455.81	6317.11
455.99	6516.05
456.17	6349.87
456.36	6392.00
456.54	6518.39
456.73	6614.35
456.91	6799.26
457.09	6649.46
457.28	6740.74
457.46	6712.66
457.64	6913.94
457.83	6581.59
458.01	6684.57
458.19	7012.24
458.38	6743.08
458.56	6848.41
458.74	6768.83
458.93	6736.06
459.11	7035.65
459.29	6860.11
459.48	6986.50
459.66	6867.13
459.84	6801.60
460.03	7096.50
460.21	7070.76
460.39	6965.43
460.57	7059.06
460.76	7180.76
460.94	7225.23
461.12	7105.87
461.31	7126.93
461.49	7122.25
461.67	7152.68
461.85	7339.92
462.04	7150.34
462.22	7609.08
462.40	7377.37
462.59	7218.21
462.77	7337.58
462.95	7382.05
463.13	7375.03
463.32	7414.82
463.50	7494.40
463.68	7370.35
463.86	7676.96
464.05	7396.09
464.23	7417.16
464.41	7691.00
464.59	7506.10
464.78	7805.69
464.96	7651.21
465.14	7606.74
465.32	7595.04
465.50	7716.75
465.69	7538.87
465.87	7700.36
466.05	7578.65
466.23	7798.66
466.41	7861.86
466.60	8077.19
466.78	7864.20
466.96	7810.37
467.14	7763.56
467.32	7948.46
467.51	8088.89
467.69	7618.44
467.87	7892.29
468.05	7948.46
468.23	8063.15
468.41	7880.58
468.60	7939.10
468.78	8119.32
468.96	7885.26
469.14	8245.71
469.32	8287.84
469.50	7918.03
469.69	8388.48
469.87	8238.69
470.05	8175.49
470.23	8219.96
470.41	8294.86
470.59	8358.05
470.77	8456.36
470.95	8346.35
471.14	8650.62
471.32	8482.10
471.50	8557.00
471.68	8805.10
471.86	8777.01
472.04	8711.47
472.22	8875.31
472.40	8676.37
472.58	8807.44
472.77	8990.00
472.95	8659.98
473.13	9114.05
473.31	9029.79
473.49	8901.06
473.67	8844.88
473.85	8947.87
474.03	9219.37
474.21	9158.52
474.39	9352.78
474.57	9301.29
474.75	9355.12
474.93	9650.03
475.12	9476.83
475.30	9584.49
475.48	9362.14
475.66	9446.40
475.84	9434.70
476.02	9579.81
476.20	9565.77
476.38	9877.06
476.56	10019.83
476.74	9937.91
476.92	10050.26
477.10	9893.44
477.28	10183.67
477.46	10106.43
477.64	10258.57
477.82	10361.55
478.00	10586.24
478.18	10630.71
478.36	10494.96
478.54	10621.35
478.72	10864.77
478.90	10867.11
479.08	10906.90
479.26	11211.17
479.44	11054.35
479.62	11026.26
479.80	11276.70
479.98	11545.86
480.16	11576.29
480.34	11433.52
480.52	11826.73
480.70	11733.11
480.88	11592.67
481.06	11784.60
481.24	11775.24
481.41	12095.89
481.59	12074.82
481.77	12098.23
481.95	12276.11
482.13	12079.50
482.31	12222.28
482.49	12636.55
482.67	12624.85
482.85	12730.17
483.03	12889.33
483.21	12599.10
483.39	12954.87
483.57	13008.70
483.74	12870.61
483.92	13284.88
484.10	13322.33
484.28	13537.66
484.46	13568.09
484.64	13935.55
484.82	13790.44
485.00	13820.86
485.18	14001.08
485.35	14293.65
485.53	14272.59
485.71	14176.62
485.89	14611.96
486.07	14504.30
486.25	14724.31
486.43	14679.84
486.61	14869.42
486.78	14953.68
486.96	15147.95
487.14	15108.16
487.32	15197.10
487.50	15489.67
487.68	15700.31
487.85	15690.95
488.03	16084.16
488.21	15936.71
488.39	15798.62
488.57	16084.16
488.75	16339.28
488.92	16449.28
489.10	16498.44
489.28	16645.89
489.46	17036.76
489.64	16739.51
489.81	16886.97
489.99	17308.26
490.17	17095.27
490.35	17596.15
490.53	17282.52
490.70	17715.51
490.88	17439.33
491.06	17951.91
491.24	17989.36
491.41	18143.83
491.59	18010.42
491.77	18174.26
491.95	18338.10
492.13	18735.99
492.30	18766.42
492.48	18485.55
492.66	19091.75
492.84	18941.96
493.01	19035.58
493.19	19042.60
493.37	19513.05
493.54	19269.63
493.72	19482.62
493.90	19449.85
494.08	19763.48
494.25	20053.71
494.43	19850.08
494.61	20435.22
494.79	20058.39
494.96	20240.95
495.14	20498.41
495.32	20533.52
495.49	20596.71
495.67	20732.47
495.85	20952.48
496.02	21102.27
496.20	21006.31
496.38	21268.45
496.55	21013.33
496.73	21895.71
496.91	21518.89
497.09	22094.66
497.26	21734.21
497.44	21961.25
497.62	22050.19
497.79	22363.82
497.97	21888.69
498.14	22256.15
498.32	22501.91
498.50	22654.05
498.67	22691.49
498.85	22899.80
499.03	22948.95
499.20	23028.53
499.38	22909.16
499.56	22967.68
499.73	23115.13
499.91	23304.71
500.08	23393.65
500.26	23164.28
500.44	23711.97
500.61	23513.02
500.79	23152.58
500.97	23592.60
501.14	24311.14
501.32	24486.68
501.49	23857.08
501.67	24135.60
501.84	24393.06
502.02	24430.51
502.20	24250.29
502.37	24252.63
502.55	24570.94
502.72	24233.91
502.90	24875.21
503.07	24538.18
503.25	24800.32
503.43	24521.79
503.60	24938.41
503.78	25263.74
503.95	25132.67
504.13	25111.61
504.30	25530.56
504.48	25212.25
504.65	25221.61
504.83	25575.03
505.01	25942.50
505.18	25671.00
505.36	26113.36
505.53	25446.30
505.71	26148.46
505.88	26103.99
506.06	25678.02
506.23	26335.71
506.41	26380.18
506.58	26527.63
506.76	26157.83
506.93	26492.52
507.11	26623.59
507.28	26881.05
507.46	26497.20
507.63	26930.20
507.81	26845.94
507.98	26867.01
508.16	26888.07
508.33	27356.18
508.50	27356.18
508.68	27377.25
508.85	27302.35
509.03	27182.98
509.20	27360.86
509.38	27529.38
509.55	27569.17
509.73	27934.29
509.90	27971.74
510.08	27747.05
510.25	27938.97
510.42	27887.48
510.60	28058.34
510.77	28060.68
510.95	28753.48
511.12	28400.06
511.30	28346.23
511.47	28692.63
511.64	28786.25
511.82	28704.33
511.99	28411.76
512.17	28725.39
512.34	28842.42
512.51	29053.07
512.69	29329.25
512.86	29371.38
513.04	29240.31
513.21	29062.43
513.38	29677.99
513.56	29207.55
513.73	29378.40
513.90	29685.01
514.08	29586.71
514.25	30132.06
514.43	30029.07
514.60	30164.82
514.77	29869.92
514.95	30225.68
515.12	29827.79
515.29	29827.79
515.47	30096.95
515.64	30258.45
515.81	30043.12
515.99	30600.16
516.16	30927.84
516.33	30665.70
516.51	30639.95
516.68	30602.50
516.85	30820.17
517.03	31068.27
517.20	30909.11
517.37	31096.36
517.54	31084.65
517.72	31159.55
517.89	31047.21
518.06	31407.65
518.24	31552.76
518.41	31274.24
518.58	31468.50
518.75	31601.91
518.93	31971.72
519.10	31417.01
519.27	32044.27
519.45	31590.21
519.62	32037.25
519.79	32149.60
519.96	32037.25
520.14	32041.93
520.31	31732.98
520.48	31976.40
520.65	31828.95
520.83	32947.72
521.00	32622.39
521.17	32842.40
521.34	32744.09
521.52	32891.55
521.69	32596.64
521.86	32704.31
522.03	32961.76
522.20	33132.62
522.38	33460.30
522.55	32987.51
522.72	32996.87
522.89	33165.39
523.07	33589.03
523.24	33380.72
523.41	33610.09
523.58	33113.90
523.75	33439.23
523.92	33687.33
524.10	33773.93
524.27	34012.66
524.44	34092.24
524.61	34117.99
524.78	33998.62
524.96	34148.42
525.13	34232.68
525.30	34541.63
525.47	34410.56
525.64	34120.33
525.81	34277.15
525.98	34312.25
526.16	34546.31
526.33	34618.86
526.50	34426.94
526.67	34562.69
526.84	34684.40
527.01	34979.31
527.18	35133.78
527.36	35173.57
527.53	34888.03
527.70	35438.05
527.87	35283.58
528.04	35255.49
528.21	35206.34
528.38	35302.30
528.55	35161.87
528.72	35002.71
528.89	35491.88
529.07	35559.76
529.24	35267.19
529.41	35496.56
529.58	35454.44
529.75	35517.63
529.92	35681.47
530.09	35379.54
530.26	35789.13
530.43	35789.13
530.60	36257.24
530.77	35379.54
530.94	35854.67
531.11	35505.93
531.28	36135.53
531.46	36182.34
531.63	36268.94
531.80	36065.31
531.97	36072.34
532.14	36367.24
532.31	36566.19
532.48	36886.84
532.65	36877.48
532.82	36809.61
532.99	36774.50
533.16	36807.26
533.33	37050.68
533.50	36493.63
533.67	36870.46
533.84	36671.51
534.01	36830.67
534.18	36772.16
534.35	37535.17
534.52	37127.92
534.69	37408.78
534.86	37130.26
535.03	36954.72
535.20	37385.38
535.37	37493.04
535.54	37787.95
535.71	37443.89
535.88	37631.13
536.05	37474.32
536.22	37591.34
536.38	37736.46
536.55	37928.38
536.72	37603.05
536.89	37694.33
537.06	37511.77
537.23	37591.34
537.40	37724.75
537.57	37848.80
537.74	37862.85
537.91	38031.36
538.08	37951.79
538.25	38366.06
538.42	38323.93
538.59	38234.99
538.75	38120.31
538.92	38110.94
539.09	38733.53
539.26	38052.43
539.43	38309.89
539.60	38408.19
539.77	38377.76
539.94	38672.67
540.11	38305.21
540.28	38677.35
540.44	38656.29
540.61	38649.27
540.78	38775.66
540.95	38602.46
541.12	38457.34
541.29	38527.56
541.46	39349.09
541.62	38859.91
541.79	39012.05
541.96	38876.30
542.13	38747.57
542.30	38972.26
542.47	39386.54
542.63	38827.15
542.80	39278.87
542.97	39636.97
543.14	40020.82
543.31	39611.23
543.48	39306.96
543.64	40018.48
543.81	40126.14
543.98	39700.17
544.15	39861.66
544.32	40161.25
544.48	40245.51
544.65	39873.37
544.82	40465.52
544.99	39924.86
545.16	40203.38
545.32	40093.38
545.49	40573.19
545.66	40275.94
545.83	40509.99
546.00	40774.47
546.16	40432.75
546.33	40477.22
546.50	40519.35
546.67	41055.34
546.83	40088.70
547.00	40278.28
547.17	40423.39
547.34	40170.61
547.50	40952.35
547.67	41006.19
547.84	40847.03
548.00	40708.94
548.17	41289.39
548.34	40968.74
548.51	41406.42
548.67	41198.11
548.84	41031.93
549.01	40713.62
549.18	41045.97
549.34	41226.20
549.51	41055.34
549.68	41593.66
549.84	41284.71
550.01	41277.69
550.18	40996.82
550.34	41205.13
550.51	41340.88
550.68	41406.42
550.84	41263.64
551.01	41736.43
551.18	41560.89
551.34	41750.48
551.51	41521.10
551.68	41528.13
551.84	41258.96
552.01	41701.32
552.18	41790.27
552.34	41801.97
552.51	41668.56
552.68	42113.26
552.84	41916.65
553.01	41516.42
553.18	42057.09
553.34	42389.44
553.51	41996.23
553.67	42003.25
553.84	42401.14
554.01	42265.39
554.17	42176.45
554.34	42511.15
554.51	42464.34
554.67	42309.86
554.84	42040.70
555.00	42281.78
555.17	42089.85
555.33	42747.54
555.50	42436.25
555.67	42768.61
555.83	42574.34
556.00	42714.78
556.16	42630.52
556.33	42586.05
556.50	42499.45
556.66	42808.40
556.83	42557.96
556.99	42674.99
557.16	43262.46
557.32	43058.84
557.49	42827.12
557.65	42490.09
557.82	42862.23
557.98	42614.13
558.15	42506.47
558.32	42637.54
558.48	43136.07
558.65	43070.54
558.81	43117.35
558.98	42426.89
559.14	42527.53
559.31	42871.59
559.47	42827.12
559.64	43297.57
559.80	43023.73
559.97	43014.37
560.13	43037.77
560.30	43512.90
560.46	43515.24
560.63	42993.30
560.79	43519.92
560.96	43557.37
561.12	43325.66
561.29	43440.34
561.45	43419.28
561.61	43098.62
561.78	43438.00
561.94	43344.38
562.11	43548.01
562.27	43667.37
562.44	43646.31
562.60	43789.08
562.77	43632.27
562.93	43147.78
563.10	43842.92
563.26	43665.03
563.42	43901.43
563.59	43470.77
563.75	43658.01
563.92	43863.98
564.08	43917.81
564.24	43693.12
564.41	43896.75
564.57	43854.62
564.74	43545.67
564.90	43798.44
565.07	43723.55
565.23	43906.11
565.39	43763.34
565.56	44191.65
565.72	43908.45
565.88	44100.37
566.05	43833.55
566.21	43636.95
566.38	44156.55
566.54	43866.32
566.70	44444.43
566.87	44339.11
567.03	44259.53
567.19	43978.67
567.36	44107.40
567.52	44229.10
567.68	44320.38
567.85	44282.94
568.01	44367.20
568.17	44081.65
568.34	43934.20
568.50	44439.75
568.66	44065.27
568.83	44406.98
568.99	44004.41
569.15	44137.82
569.32	44020.80
569.48	43833.55
569.64	44414.01
569.81	44336.77
569.97	44507.63
570.13	44584.86
570.30	44018.46
570.46	43892.07
570.62	44758.06
570.78	44432.73
570.95	44013.77
571.11	44360.17
571.27	44343.79
571.43	44362.51
571.60	44238.47
571.76	44240.81
571.92	44257.19
572.09	44472.52
572.25	44472.52
572.41	44137.82
572.57	44292.30
572.74	44432.73
572.90	44495.92
573.06	44760.40
573.22	44577.84
573.38	44811.90
573.55	44898.50
573.71	44676.15
573.87	44706.57
574.03	44615.29
574.20	44816.58
574.36	44509.97
574.52	44500.61
574.68	45162.98
574.84	45146.59
575.01	44942.97
575.17	44954.67
575.33	45090.42
575.49	44362.51
575.65	44844.66
575.82	44800.19
575.98	44676.15
576.14	44849.35
576.30	45240.21
576.46	45057.65
576.62	44458.48
576.79	44442.09
576.95	44655.08
577.11	44626.99
577.27	44788.49
577.43	45167.66
577.59	44931.26
577.75	44989.78
577.92	44575.50
578.08	44921.90
578.24	44758.06
578.40	45340.86
578.56	44945.31
578.72	44992.12
578.88	44797.85
579.04	44395.28
579.21	44851.69
579.37	45111.49
579.53	44996.80
579.69	45085.74
579.85	45052.97
580.01	45104.46
580.17	44500.61
580.33	44861.05
580.49	45092.76
580.65	44921.90
580.82	45291.71
580.98	44612.95
581.14	44800.19
581.30	45375.97
581.46	44790.83
581.62	44928.92
581.78	44814.24
581.94	44959.35
582.10	44905.52
582.26	44935.95
582.42	44687.85
582.58	45022.54
582.74	45116.17
582.90	44587.21
583.06	44835.30
583.22	44802.53
583.38	44758.06
583.54	44877.43
583.70	45090.42
583.86	45331.50
584.02	45020.20
584.18	45668.53
584.34	45425.12
584.50	45085.74
584.66	44912.54
584.82	45153.62
584.98	45542.14
585.14	45144.25
585.30	45001.48
585.46	45155.96
585.62	45123.19
585.78	44844.66
585.94	44928.92
586.10	45102.12
586.26	45050.63
586.42	44641.04
586.58	45294.05
586.74	44891.48
586.90	45263.62
587.06	44765.09
587.22	45446.18
587.38	44942.97
587.54	45537.46
587.70	45441.50
587.86	45418.10
588.02	45359.58
588.18	45249.58
588.34	45244.90
588.49	44982.76
588.65	44832.96
588.81	45106.80
588.97	45118.51
589.13	45116.17
589.29	44886.79
589.45	45638.11
589.61	45504.70
589.77	44942.97
589.93	45003.82
590.08	45354.90
