SpectraSuite Data File
++++++++++++++++++++++++++++++++++++
Date: Fri Oct 25 11:26:02 EDT 2013
User: price-jones
Dark Spectrum Present: No
Reference Spectrum Present: No
Number of Sampled Component Spectra: 1
Spectrometers: USB2+H05261
Integration Time (usec): 100000 (USB2+H05261)
Spectra Averaged: 1 (USB2+H05261)
Boxcar Smoothing: 0 (USB2+H05261)
Correct for Electrical Dark: No (USB2+H05261)
Strobe/Lamp Enabled: No (USB2+H05261)
Correct for Detector Non-linearity: No (USB2+H05261)
Correct for Stray Light: No (USB2+H05261)
Number of Pixels in Processed Spectrum: 2048
>>>>>Begin Processed Spectral Data<<<<<
365.73	276.18
365.92	276.18
366.12	276.18
366.32	117.03
366.52	156.82
366.72	201.29
366.91	147.45
367.11	163.84
367.31	135.75
367.51	142.77
367.70	142.77
367.90	140.43
368.10	88.94
368.30	145.11
368.49	93.62
368.69	203.63
368.89	147.45
369.09	161.50
369.28	229.37
369.48	212.99
369.68	173.20
369.87	236.39
370.07	175.54
370.27	229.37
370.47	351.08
370.66	566.41
370.86	660.03
371.06	746.63
371.25	594.50
371.45	702.16
371.65	645.99
371.84	699.82
372.04	655.35
372.24	725.57
372.44	723.23
372.63	720.88
372.83	704.50
373.03	791.10
373.22	781.74
373.42	748.97
373.62	711.52
373.81	774.72
374.01	819.19
374.21	791.10
374.40	760.67
374.60	814.51
374.79	784.08
374.99	849.61
375.19	870.68
375.38	905.79
375.58	837.91
375.78	887.06
375.97	926.85
376.17	903.45
376.37	826.21
376.56	866.00
376.76	854.30
376.95	938.55
377.15	903.45
377.35	912.81
377.54	884.72
377.74	947.92
377.93	844.93
378.13	945.58
378.33	940.90
378.52	968.98
378.72	999.41
378.91	1004.09
379.11	936.21
379.31	924.51
379.50	915.15
379.70	1107.07
379.89	1043.88
380.09	910.47
380.28	933.87
380.48	947.92
380.68	987.71
380.87	1032.18
381.07	1060.26
381.26	1090.69
381.46	1069.62
381.65	1036.86
381.85	1132.82
382.04	966.64
382.24	1118.78
382.43	1020.47
382.63	1128.14
382.83	1123.46
383.02	1125.80
383.22	1067.28
383.41	1057.92
383.61	1130.48
383.80	1196.01
384.00	1128.14
384.19	1142.18
384.39	1067.28
384.58	1114.10
384.78	1235.80
384.97	1172.61
385.17	1196.01
385.36	1179.63
385.56	1212.40
385.75	1181.97
385.95	1196.01
386.14	1282.61
386.34	1184.31
386.53	1226.44
386.72	1226.44
386.92	1212.40
387.11	1329.42
387.31	1287.29
387.50	1156.22
387.70	1289.64
387.89	1306.02
388.09	1221.76
388.28	1352.83
388.48	1275.59
388.67	1287.29
388.86	1270.91
389.06	1242.82
389.25	1392.62
389.45	1315.38
389.64	1359.85
389.84	1380.92
390.03	1401.98
390.22	1373.89
390.42	1406.66
390.61	1392.62
390.81	1420.71
391.00	1359.85
391.19	1479.22
391.39	1448.79
391.58	1425.39
391.78	1549.43
391.97	1397.30
392.16	1511.99
392.36	1617.31
392.55	1558.80
392.75	1472.20
392.94	1579.86
393.13	1570.50
393.33	1497.94
393.52	1561.14
393.71	1624.33
393.91	1591.56
394.10	1621.99
394.29	1589.22
394.49	1540.07
394.68	1610.29
394.88	1687.53
395.07	1617.31
395.26	1680.50
395.46	1743.70
395.65	1675.82
395.84	1696.89
396.04	1856.04
396.23	1624.33
396.42	1853.70
396.62	1755.40
396.81	1877.11
397.00	1778.81
397.19	1802.21
397.39	1856.04
397.58	1823.28
397.77	1846.68
397.97	1757.74
398.16	1898.17
398.35	1916.90
398.55	1884.13
398.74	1930.94
398.93	2024.56
399.12	1989.46
399.32	1842.00
399.51	1909.88
399.70	2015.20
399.90	1961.37
400.09	2022.22
400.28	2157.97
400.47	2073.71
400.67	2087.76
400.86	2136.91
401.05	2038.61
401.24	2160.31
401.44	2104.14
401.63	2230.53
401.82	2087.76
402.01	2083.08
402.21	2022.22
402.40	2251.60
402.59	2193.08
402.78	2282.02
402.97	2289.04
403.17	2195.42
403.36	2228.19
403.55	2314.79
403.74	2338.20
403.93	2333.51
404.13	2331.17
404.32	2291.38
404.51	2321.81
404.70	2457.56
404.89	2410.75
405.09	2406.07
405.28	2516.08
405.47	2459.90
405.66	2427.14
405.85	2471.61
406.05	2523.10
406.24	2495.01
406.43	2539.48
406.62	2558.21
406.81	2693.96
407.00	2628.42
407.20	2576.93
407.39	2630.76
407.58	2630.76
407.77	2759.49
407.96	2757.15
408.15	2700.98
408.34	2736.09
408.54	2808.64
408.73	2703.32
408.92	2846.09
409.11	2864.82
409.30	2911.63
409.49	2918.65
409.68	2932.69
409.87	2862.48
410.07	2984.18
410.26	3080.14
410.45	2979.50
410.64	2981.84
410.83	3169.09
411.02	3077.80
411.21	3201.85
411.40	3082.49
411.59	3251.00
411.78	3243.98
411.98	3138.66
412.17	3274.41
412.36	3159.72
412.55	3342.28
412.74	3339.94
412.93	3368.03
413.12	3314.20
413.31	3487.40
413.50	3377.39
413.69	3377.39
413.88	3641.87
414.07	3625.49
414.26	3599.74
414.45	3627.83
414.64	3695.71
414.83	3721.45
415.02	3791.67
415.22	3873.59
415.41	3803.37
415.60	3882.95
415.79	3901.67
415.98	3995.29
416.17	3960.19
416.36	4002.32
416.55	3985.93
416.74	4107.64
416.93	4051.47
417.12	4175.52
417.31	4196.58
417.50	4241.05
417.69	4292.54
417.88	4280.84
418.07	4163.81
418.26	4203.60
418.45	4334.67
418.64	4468.08
418.83	4341.69
419.02	4379.14
419.21	4409.57
419.39	4428.29
419.58	4496.17
419.77	4369.78
419.96	4503.19
420.15	4540.64
420.34	4704.48
420.53	4638.94
420.72	4697.46
420.91	4596.81
421.10	4601.49
421.29	4887.04
421.48	4652.98
421.67	4830.87
421.86	4812.14
422.05	4734.90
422.24	4739.58
422.43	4802.78
422.61	4795.76
422.80	4938.53
422.99	4863.63
423.18	4945.55
423.37	4877.68
423.56	4840.23
423.75	4978.32
423.94	4758.31
424.13	4606.17
424.32	4760.65
424.50	4945.55
424.69	5071.94
424.88	5153.86
425.07	4868.31
425.26	4685.75
425.45	5018.11
425.64	4910.44
425.83	5039.17
426.01	4973.64
426.20	5069.60
426.39	5165.56
426.58	4891.72
426.77	5081.30
426.96	5074.28
427.15	4966.62
427.33	5226.42
427.52	5191.31
427.71	5069.60
427.90	5163.22
428.09	5408.98
428.28	5359.83
428.46	5378.55
428.65	5516.64
428.84	5476.85
429.03	5523.66
429.22	5444.09
429.40	5434.72
429.59	5579.84
429.78	5453.45
429.97	5261.52
430.16	5460.47
430.34	5668.78
430.53	5589.20
430.72	5607.92
430.91	5579.84
431.10	5661.76
431.28	5849.00
431.47	5685.16
431.66	5776.44
431.85	5626.65
432.03	5928.58
432.22	6143.91
432.41	5851.34
432.60	5804.53
432.79	6094.76
432.97	5926.24
433.16	6001.13
433.35	6083.05
433.54	6066.67
433.72	6193.06
433.91	5947.30
434.10	6228.17
434.28	6195.40
434.47	6141.57
434.66	6204.76
434.85	6113.48
435.03	6356.90
435.22	6197.74
435.41	6516.05
435.59	6370.94
435.78	6431.79
435.97	6401.37
436.16	6406.05
436.34	6387.32
436.53	6436.47
436.72	6722.02
436.90	6410.73
437.09	6532.44
437.28	6450.52
437.46	6609.67
437.65	6782.87
437.84	6736.06
438.02	6972.46
438.21	6810.96
438.40	6576.91
438.58	7026.29
438.77	7000.54
438.96	6834.36
439.14	7030.97
439.33	7138.63
439.52	7129.27
439.70	7157.36
439.89	7398.43
440.08	7265.02
440.26	7405.46
440.45	7325.88
440.63	7461.63
440.82	7669.94
441.01	7501.42
441.19	7536.52
441.38	7852.50
441.57	7723.77
441.75	7761.22
441.94	7990.59
442.12	7854.84
442.31	7831.43
442.50	8194.22
442.68	7885.26
442.87	8131.02
443.05	8273.79
443.24	8236.35
443.43	8308.90
443.61	8257.41
443.80	8437.63
443.98	7878.24
444.17	7770.58
444.35	8222.30
444.54	8341.67
444.73	8184.85
444.91	8154.43
445.10	8262.09
445.28	8325.29
445.47	8154.43
445.65	8308.90
445.84	8238.69
446.02	8540.61
446.21	8400.18
446.39	8367.42
446.58	8552.32
446.77	8451.67
446.95	8313.58
447.14	8294.86
447.32	8519.55
447.51	8493.80
447.69	8585.08
447.88	8407.20
448.06	8655.30
448.25	8475.08
448.43	8517.21
448.62	8671.68
448.80	8638.92
448.99	8601.47
449.17	8805.10
449.36	8746.58
449.54	8828.50
449.73	9039.15
449.91	8924.46
450.10	9032.13
450.28	8777.01
450.46	8931.48
450.65	9036.81
450.83	9041.49
451.02	9193.62
451.20	9408.95
451.39	9163.20
451.57	9090.64
451.76	9050.85
451.94	9233.41
452.13	9385.55
452.31	9252.14
452.49	9046.17
452.68	9315.33
452.86	9378.53
453.05	9437.04
453.23	9504.92
453.42	9298.95
453.60	9425.34
453.78	9455.76
453.97	9563.43
454.15	9547.05
454.34	9425.34
454.52	9703.86
454.70	9668.75
454.89	9701.52
455.07	9650.03
455.26	9877.06
455.44	9865.36
455.62	9912.17
455.81	9823.23
455.99	10174.31
456.17	10256.23
456.36	10122.82
456.54	10125.16
456.73	10104.09
456.91	10518.37
457.09	10436.45
457.28	10424.75
457.46	10296.02
457.64	10560.50
457.83	10286.65
458.01	10340.49
458.19	10689.23
458.38	10794.55
458.56	10686.89
458.74	10771.15
458.93	10537.09
459.11	10663.48
459.29	10633.05
459.48	10698.59
459.66	10705.61
459.84	10848.38
460.03	11082.44
460.21	10675.18
460.39	10949.03
460.57	10710.29
460.76	11105.84
460.94	10841.36
461.12	11122.23
461.31	11152.65
461.49	11213.51
461.67	11098.82
461.85	11459.26
462.04	11222.87
462.22	11700.34
462.40	11597.35
462.59	11534.16
462.77	11349.26
462.95	11459.26
463.13	11590.33
463.32	11606.72
463.50	11744.81
463.68	11639.48
463.86	11676.93
464.05	11667.57
464.23	11784.60
464.41	11721.40
464.59	11735.45
464.78	12088.87
464.96	11822.05
465.14	11871.20
465.32	12074.82
465.50	11887.58
465.69	12156.74
465.87	12219.94
466.05	12035.03
466.23	12205.89
466.41	12180.15
466.60	12446.97
466.78	12336.96
466.96	12145.04
467.14	12252.70
467.32	12322.92
467.51	12472.71
467.69	12231.64
467.87	12552.29
468.05	12388.46
468.23	12505.48
468.41	12381.43
468.60	12706.77
468.78	12561.66
468.96	12411.86
469.14	12683.36
469.32	12849.54
469.50	12688.04
469.69	13008.70
469.87	12910.40
470.05	12950.18
470.23	13217.01
470.41	13078.91
470.59	13455.74
470.77	13261.48
470.95	13165.51
471.14	13495.53
471.32	13020.40
471.50	13551.70
471.68	13390.20
471.86	13514.25
472.04	13532.98
472.22	13891.08
472.40	13458.08
472.58	13617.24
472.77	13968.32
472.95	14125.13
473.13	14846.02
473.31	14029.17
473.49	14230.46
473.67	14270.25
473.85	14281.95
474.03	14637.71
474.21	14450.47
474.39	14806.23
474.57	14665.80
474.75	14766.44
474.93	15176.03
475.12	14860.06
475.30	14930.28
475.48	15021.56
475.66	15068.37
475.84	15246.25
476.02	15524.77
476.20	15442.85
476.38	15571.58
476.56	15920.32
476.74	15878.19
476.92	15831.38
477.10	15552.86
477.28	16102.89
477.46	16098.20
477.64	16166.08
477.82	16762.92
478.00	16760.58
478.18	16893.99
478.36	16931.44
478.54	17216.98
478.72	17399.54
478.90	17385.50
479.08	17390.18
479.26	17565.72
479.44	17738.92
479.62	17699.13
479.80	18099.36
479.98	18122.77
480.16	18743.01
480.34	18181.28
480.52	18700.88
480.70	18361.50
480.88	18288.95
481.06	18654.07
481.24	18747.69
481.41	19274.31
481.59	19229.84
481.77	19339.85
481.95	19580.92
482.13	19646.46
482.31	19924.98
482.49	20156.69
482.67	20093.50
482.85	20500.75
483.03	20362.66
483.21	21003.97
483.39	20973.54
483.57	21050.78
483.74	21006.31
483.92	21322.28
484.10	21109.29
484.28	21486.12
484.46	21965.93
484.64	22361.48
484.82	21902.73
485.00	22244.45
485.18	22808.52
485.35	22918.53
485.53	22822.56
485.71	22920.87
485.89	23580.90
486.07	23407.70
486.25	23433.44
486.43	23442.81
486.61	23630.05
486.78	23882.83
486.96	24159.01
487.14	24449.24
487.32	24510.09
487.50	24891.60
487.68	24952.45
487.85	25422.90
488.03	25638.23
488.21	25773.98
488.39	25839.51
488.57	25872.28
488.75	26047.82
488.92	26054.84
489.10	26293.58
489.28	26925.52
489.46	26857.65
489.64	27028.51
489.81	27482.57
489.99	27498.95
490.17	27496.61
490.35	27962.38
490.53	27901.53
490.70	28222.18
490.88	28144.94
491.06	28774.55
491.24	28332.18
491.41	29041.37
491.59	29336.27
491.77	28882.21
491.95	29586.71
492.13	29710.76
492.30	30054.82
492.48	30103.97
492.66	30171.85
492.84	30225.68
493.01	30728.89
493.19	30457.39
493.37	30885.71
493.54	30941.88
493.72	31519.99
493.90	31374.88
494.08	31761.07
494.25	31763.41
494.43	32205.77
494.61	32414.08
494.79	32453.87
494.96	32189.39
495.14	32552.17
495.32	32954.74
495.49	33053.05
495.67	33289.44
495.85	33563.28
496.02	33694.35
496.20	33993.94
496.38	33986.92
496.55	34167.14
496.73	34476.09
496.91	34253.74
497.09	34885.68
497.26	34944.20
497.44	35047.18
497.62	35161.87
497.79	35906.16
497.97	35360.81
498.14	35576.14
498.32	36002.12
498.50	36140.21
498.67	36940.68
498.85	36336.82
499.03	36683.22
499.20	36708.96
499.38	37003.87
499.56	37102.17
499.73	37137.28
499.91	36994.51
500.08	37420.48
500.26	37312.82
500.44	37464.96
500.61	37762.20
500.79	37479.00
500.97	38148.39
501.14	38396.49
501.32	38436.28
501.49	38607.14
501.67	38080.52
501.84	38677.35
502.02	38941.83
502.20	38892.68
502.37	39218.02
502.55	39250.78
502.72	39201.63
502.90	39510.58
503.07	39316.32
503.25	39995.07
503.43	39571.44
503.60	40156.57
503.78	40418.71
503.95	40287.64
504.13	40554.46
504.30	40500.63
504.48	40376.58
504.65	40636.38
504.83	41186.41
505.01	41816.01
505.18	40942.99
505.36	41493.02
505.53	40921.93
505.71	41301.09
505.88	41586.64
506.06	41413.44
506.23	41949.42
506.41	41982.19
506.58	41799.63
506.76	41954.10
506.93	42359.02
507.11	42263.05
507.28	42721.80
507.46	42667.97
507.63	43100.97
507.81	43187.56
507.98	43124.37
508.16	42953.51
508.33	43234.38
508.50	43241.40
508.68	43433.32
508.85	43758.66
509.03	43667.37
509.20	43873.34
509.38	44091.01
509.55	44512.31
509.73	44353.15
509.90	44299.32
510.08	44509.97
510.25	44713.59
510.42	44615.29
510.60	44875.09
510.77	45387.67
510.95	45258.94
511.12	44762.75
511.30	45148.93
511.47	44989.78
511.64	45588.95
511.82	45528.10
511.99	45900.25
512.17	46038.34
512.34	45661.51
512.51	46178.77
512.69	46270.05
512.86	46129.62
513.04	46574.32
513.21	46459.63
513.38	46623.47
513.56	47126.69
513.73	46520.49
513.90	46852.84
514.08	47037.75
514.25	47377.12
514.43	47332.65
514.60	47051.79
514.77	47374.78
514.95	47632.24
515.12	47140.73
515.29	47622.88
515.47	48135.46
515.64	48072.26
515.81	47969.28
515.99	47899.06
516.16	48603.56
516.33	48442.07
516.51	48222.06
516.68	48406.96
516.85	48760.38
517.03	48790.81
517.20	49029.54
517.37	48673.78
517.54	48835.28
517.72	48898.47
517.89	48884.43
518.06	49226.15
518.24	49247.21
518.41	49291.68
518.58	49076.35
518.75	49549.14
518.93	49333.81
519.10	49397.01
519.27	49647.44
519.45	49673.19
519.62	49869.79
519.79	49715.32
519.96	49991.50
520.14	49874.48
520.31	50134.28
520.48	50241.94
520.65	50220.87
520.83	50412.80
521.00	50609.40
521.17	50293.43
521.34	50501.74
521.52	50820.05
521.69	50637.49
521.86	50808.35
522.03	51231.99
522.20	51337.31
522.38	51601.79
522.55	51400.50
522.72	51475.40
522.89	51175.81
523.07	51388.80
523.24	51613.49
523.41	51442.63
523.58	51288.16
523.75	52016.07
523.92	51346.67
524.10	51531.57
524.27	51861.59
524.44	51702.43
524.61	52233.74
524.78	52165.86
524.96	52259.48
525.13	52030.11
525.30	52200.97
525.47	52301.61
525.64	52231.40
525.81	52369.49
525.98	52793.12
526.16	52619.92
526.33	52636.31
526.50	53015.47
526.67	52758.02
526.84	52708.86
527.01	52889.09
527.18	52748.65
527.36	52711.20
527.53	52816.53
527.70	53254.21
527.87	53553.80
528.04	53017.82
528.21	53268.25
528.38	53319.74
528.55	53485.92
528.72	53385.28
528.89	53467.20
529.07	53404.00
529.24	53492.94
529.41	53619.33
529.58	53595.93
529.75	53661.46
529.92	53666.14
530.09	53572.52
530.26	54281.70
530.43	53909.56
530.60	53605.29
530.77	53904.88
530.94	54138.93
531.11	54005.52
531.28	54087.44
531.46	54279.36
531.63	54253.62
531.80	54087.44
531.97	54349.58
532.14	54759.17
532.31	54035.95
532.48	54710.02
532.65	54475.97
532.82	54429.16
532.99	54707.68
533.16	54445.54
533.33	54761.51
533.50	54908.97
533.67	54836.41
533.84	54707.68
534.01	54726.41
534.18	54932.37
534.35	55150.04
534.52	54983.86
534.69	55070.46
534.86	55341.97
535.03	55161.75
535.20	55121.96
535.37	55370.05
535.54	55234.30
535.71	55107.91
535.88	55569.00
536.05	55348.99
536.22	55480.06
536.38	55414.52
536.55	55517.51
536.72	55681.34
536.89	55330.26
537.06	55576.02
537.23	55789.01
537.40	55512.83
537.57	55538.57
537.74	55824.12
537.91	56067.53
538.08	55894.33
538.25	55770.28
538.42	55714.11
538.59	56095.62
538.75	56034.77
538.92	55894.33
539.09	56069.87
539.26	56048.81
539.43	56121.37
539.60	56186.90
539.77	56238.39
539.94	56570.75
540.11	56191.58
540.28	56346.06
540.44	56390.53
540.61	56266.48
540.78	56179.88
540.95	56271.16
541.12	56629.26
541.29	56336.69
541.46	56355.42
541.62	56411.59
541.79	56692.46
541.96	56383.51
542.13	56465.42
542.30	56467.76
542.47	56596.49
542.63	56685.43
542.80	56849.27
542.97	57176.95
543.14	57179.29
543.31	57069.28
543.48	57198.01
543.64	57453.13
543.81	57441.43
543.98	57188.65
544.15	57221.42
544.32	57387.60
544.48	57481.22
544.65	57099.71
544.82	57277.59
544.99	57338.44
545.16	57558.45
545.32	57359.51
545.49	57661.44
545.66	57764.42
545.83	57588.88
546.00	57614.63
546.16	57551.43
546.33	57633.35
546.50	57556.11
546.67	57446.11
546.83	57401.64
547.00	57598.24
547.17	57773.78
547.34	57925.92
547.50	57822.93
547.67	58239.55
547.84	57829.96
548.00	58066.35
548.17	58040.60
548.34	58092.10
548.51	58241.89
548.67	58293.38
548.84	58223.17
549.01	57996.13
549.18	58078.05
549.34	58365.94
549.51	58293.38
549.68	58365.94
549.84	58419.77
550.01	58445.52
550.18	58204.44
550.34	58347.21
550.51	58415.09
550.68	58560.20
550.84	58155.29
551.01	58665.53
551.18	58389.34
551.34	58497.01
551.51	58433.81
551.68	58321.47
551.84	58522.76
552.01	58419.77
552.18	58618.72
552.34	58506.37
552.51	58691.27
552.68	58635.10
552.84	58635.10
553.01	58773.19
553.18	58747.45
553.34	58738.08
553.51	58499.35
553.67	58677.23
553.84	58937.03
554.01	58981.50
554.17	58953.41
554.34	59047.04
554.51	58803.62
554.67	58852.77
554.84	59143.00
555.00	58913.62
555.17	58815.32
555.33	59054.06
555.50	58955.75
555.67	58782.55
555.83	58850.43
556.00	59135.98
556.16	59447.27
556.33	59187.47
556.50	58930.01
556.66	59346.62
556.83	59175.76
556.99	59370.03
557.16	59353.65
557.32	59494.08
557.49	59737.49
557.65	59299.81
557.82	59393.43
557.98	59367.69
558.15	59285.77
558.32	59423.86
558.48	59274.07
558.65	59503.44
558.81	59508.12
558.98	59482.37
559.14	59517.48
559.31	59660.26
559.47	59737.49
559.64	59683.66
559.80	59714.09
559.97	59491.74
560.13	59667.28
560.30	59578.34
560.46	59700.04
560.63	59718.77
560.79	59798.35
560.96	59917.71
561.12	59938.78
561.29	60065.17
561.45	59810.05
561.61	59742.17
561.78	59810.05
561.94	59884.95
562.11	59779.62
562.27	59917.71
562.44	59866.22
562.60	60088.57
562.77	60055.81
562.93	59906.01
563.10	59831.11
563.26	59770.26
563.42	60107.30
563.59	59997.29
563.75	59934.10
563.92	60081.55
564.08	59994.95
564.24	60135.38
564.41	60299.22
564.57	60107.30
564.74	60030.06
564.90	60107.30
565.07	59929.42
565.23	59882.61
565.39	60163.47
565.56	60137.72
565.72	60172.83
565.88	60161.13
566.05	60177.51
566.21	60158.79
566.38	60268.79
566.54	60200.92
566.70	60275.82
566.87	60214.96
567.03	60254.75
567.19	60449.02
567.36	60060.49
567.52	60437.31
567.68	60404.55
567.85	60385.82
568.01	60411.57
568.17	60334.33
568.34	60329.65
568.50	60378.80
568.66	60210.28
568.83	60500.51
568.99	60156.45
569.15	60175.17
569.32	60507.53
569.48	60299.22
569.64	60430.29
569.81	60339.01
569.97	60390.50
570.13	60388.16
570.30	60339.01
570.46	60364.76
570.62	60427.95
570.78	60465.40
570.95	60486.46
571.11	60486.46
571.27	60456.04
571.43	60425.61
571.60	60643.28
571.76	60493.49
571.92	60498.17
572.09	60434.97
572.25	60399.86
572.41	60409.23
572.57	60540.30
572.74	60566.04
572.90	60322.63
573.06	60535.62
573.22	60556.68
573.38	60591.79
573.55	60589.45
573.71	60746.26
573.87	60484.12
574.03	60432.63
574.20	60774.35
574.36	60409.23
574.52	60697.11
574.68	60725.20
574.84	60795.42
575.01	60781.37
575.17	60470.08
575.33	60502.85
575.49	60664.35
575.65	60772.01
575.82	60776.69
575.98	60694.77
576.14	60697.11
576.30	60776.69
576.46	60680.73
576.62	60830.52
576.79	60727.54
576.95	60554.34
577.11	60882.02
577.27	60678.39
577.43	60715.84
577.59	60704.13
577.75	60542.64
577.92	60750.94
578.08	60816.48
578.24	60692.43
578.40	60907.76
578.56	60828.18
578.72	60853.93
578.88	60842.23
579.04	61181.60
579.21	60647.96
579.37	60853.93
579.53	60980.32
579.69	60699.45
579.85	60966.27
580.01	60603.49
580.17	60647.96
580.33	60926.49
580.49	60846.91
580.65	60858.61
580.82	60685.41
580.98	60549.66
581.14	60617.53
581.30	61179.26
581.46	60928.83
581.62	60980.32
581.78	60500.51
581.94	60896.06
582.10	60935.85
582.26	60680.73
582.42	60706.47
582.58	60889.04
582.74	60755.63
582.90	60858.61
583.06	60879.67
583.22	60867.97
583.38	60591.79
583.54	60856.27
583.70	60772.01
583.86	61003.72
584.02	60968.61
584.18	61069.26
584.34	60982.66
584.50	61015.43
584.66	60807.12
584.82	60673.71
584.98	61132.45
585.14	60966.27
585.30	60896.06
585.46	60917.12
585.62	60973.30
585.78	61169.90
585.94	60804.78
586.10	60882.02
586.26	61013.08
586.42	61062.24
586.58	61144.16
586.74	61006.06
586.90	60917.12
587.06	61130.11
587.22	61153.52
587.38	60882.02
587.54	60884.36
587.70	61146.50
587.86	61057.56
588.02	61085.64
588.18	60987.34
588.34	61010.74
588.49	61153.52
