SpectraSuite Data File
++++++++++++++++++++++++++++++++++++
Date: Fri Oct 25 11:22:43 EDT 2013
User: price-jones
Dark Spectrum Present: No
Reference Spectrum Present: No
Number of Sampled Component Spectra: 1
Spectrometers: USB2+H05261
Integration Time (usec): 100000 (USB2+H05261)
Spectra Averaged: 1 (USB2+H05261)
Boxcar Smoothing: 0 (USB2+H05261)
Correct for Electrical Dark: No (USB2+H05261)
Strobe/Lamp Enabled: No (USB2+H05261)
Correct for Detector Non-linearity: No (USB2+H05261)
Correct for Stray Light: No (USB2+H05261)
Number of Pixels in Processed Spectrum: 2048
>>>>>Begin Processed Spectral Data<<<<<
365.73	217.67
365.92	217.67
366.12	217.67
366.32	124.05
366.52	128.73
366.72	198.95
366.91	102.98
367.11	95.96
367.31	46.81
367.51	121.71
367.70	135.75
367.90	72.56
368.10	184.90
368.30	121.71
368.49	170.86
368.69	154.48
368.89	121.71
369.09	102.98
369.28	170.86
369.48	180.22
369.68	166.18
369.87	189.58
370.07	170.86
370.27	287.89
370.47	330.02
370.66	559.39
370.86	645.99
371.06	629.60
371.25	706.84
371.45	683.44
371.65	643.65
371.84	599.18
372.04	641.31
372.24	777.06
372.44	741.95
372.63	697.48
372.83	648.33
373.03	692.80
373.22	798.12
373.42	793.44
373.62	709.18
373.81	802.80
374.01	802.80
374.21	739.61
374.40	816.85
374.60	751.31
374.79	861.32
374.99	828.55
375.19	828.55
375.38	873.02
375.58	858.98
375.78	793.44
375.97	905.79
376.17	849.61
376.37	835.57
376.56	896.43
376.76	847.27
376.95	847.27
377.15	894.08
377.35	851.96
377.54	849.61
377.74	844.93
377.93	868.34
378.13	884.72
378.33	894.08
378.52	971.32
378.72	936.21
378.91	938.55
379.11	910.47
379.31	912.81
379.50	910.47
379.70	917.49
379.89	980.68
380.09	924.51
380.28	947.92
380.48	915.15
380.68	999.41
380.87	1034.52
381.07	1039.20
381.26	1104.73
381.46	985.37
381.65	1032.18
381.85	1006.43
382.04	1020.47
382.24	1093.03
382.43	1086.01
382.63	1013.45
382.83	1093.03
383.02	1071.97
383.22	1090.69
383.41	1116.44
383.61	1123.46
383.80	1156.22
384.00	1104.73
384.19	1130.48
384.39	1078.99
384.58	1135.16
384.78	1074.31
384.97	1184.31
385.17	1177.29
385.36	1102.39
385.56	1146.86
385.75	1181.97
385.95	1235.80
386.14	1158.57
386.34	1179.63
386.53	1146.86
386.72	1233.46
386.92	1280.27
387.11	1315.38
387.31	1287.29
387.50	1217.08
387.70	1219.42
387.89	1196.01
388.09	1371.55
388.28	1303.68
388.48	1263.89
388.67	1270.91
388.86	1242.82
389.06	1341.13
389.25	1348.15
389.45	1245.16
389.64	1310.70
389.84	1387.94
390.03	1343.47
390.22	1336.45
390.42	1420.71
390.61	1430.07
390.81	1308.36
391.00	1406.66
391.19	1413.68
391.39	1502.62
391.58	1418.36
391.78	1509.65
391.97	1380.92
392.16	1507.30
392.36	1500.28
392.55	1514.33
392.75	1570.50
392.94	1490.92
393.13	1584.54
393.33	1465.18
393.52	1511.99
393.71	1598.59
393.91	1502.62
394.10	1633.69
394.29	1619.65
394.49	1542.41
394.68	1652.42
394.88	1593.90
395.07	1694.55
395.26	1591.56
395.46	1664.12
395.65	1664.12
395.84	1825.62
396.04	1685.19
396.23	1614.97
396.42	1706.25
396.62	1802.21
396.81	1769.44
397.00	1877.11
397.19	1771.79
397.39	1741.36
397.58	1867.75
397.77	1795.19
397.97	1952.01
398.16	1785.83
398.35	1842.00
398.55	1837.32
398.74	1923.92
398.93	1966.05
399.12	1879.45
399.32	2038.61
399.51	1907.54
399.70	1984.77
399.90	1987.11
400.09	1977.75
400.28	2150.95
400.47	2005.84
400.67	2125.21
400.86	2148.61
401.05	2057.33
401.24	2125.21
401.44	2155.63
401.63	2087.76
401.82	2106.48
402.01	2176.70
402.21	2087.76
402.40	2253.94
402.59	2242.23
402.78	2207.13
402.97	2246.91
403.17	2251.60
403.36	2300.75
403.55	2321.81
403.74	2413.09
403.93	2417.77
404.13	2382.67
404.32	2361.60
404.51	2310.11
404.70	2450.54
404.89	2457.56
405.09	2464.58
405.28	2448.20
405.47	2483.31
405.66	2490.33
405.85	2534.80
406.05	2567.57
406.24	2609.70
406.43	2558.21
406.62	2499.69
406.81	2590.97
407.00	2698.64
407.20	2630.76
407.39	2647.15
407.58	2736.09
407.77	2754.81
407.96	2675.23
408.15	2920.99
408.34	2860.13
408.54	2892.90
408.73	2846.09
408.92	2871.84
409.11	2869.50
409.30	2918.65
409.49	2925.67
409.68	2923.33
409.87	2871.84
410.07	3028.65
410.26	2993.55
410.45	3014.61
410.64	3066.10
410.83	3000.57
411.02	3103.55
411.21	3183.13
411.40	3136.32
411.59	3272.07
411.78	3143.34
411.98	3248.66
412.17	3281.43
412.36	3335.26
412.55	3248.66
412.74	3337.60
412.93	3506.12
413.12	3314.20
413.31	3667.62
413.50	3421.86
413.69	3545.91
413.88	3492.08
414.07	3562.30
414.26	3543.57
414.45	3616.13
414.64	3803.37
414.83	3751.88
415.02	3801.03
415.22	3819.75
415.41	3815.07
415.60	3892.31
415.79	3911.04
415.98	3906.35
416.17	3911.04
416.36	4028.06
416.55	3985.93
416.74	4191.90
416.93	4021.04
417.12	4238.71
417.31	4159.13
417.50	4088.92
417.69	4311.27
417.88	4318.29
418.07	4334.67
418.26	4358.08
418.45	4301.90
418.64	4482.13
418.83	4369.78
419.02	4381.48
419.21	4519.57
419.39	4596.81
419.58	4423.61
419.77	4482.13
419.96	4692.77
420.15	4571.07
420.34	4610.86
420.53	4545.32
420.72	4784.06
420.91	4601.49
421.10	4678.73
421.29	4809.80
421.48	4692.77
421.67	4709.16
421.86	4912.78
422.05	4809.80
422.24	4770.01
422.43	4947.89
422.61	4926.83
422.80	4980.66
422.99	5069.60
423.18	4919.81
423.37	5055.56
423.56	4919.81
423.75	4938.53
423.94	4828.53
424.13	4608.51
424.32	4718.52
424.50	5043.85
424.69	4985.34
424.88	5074.28
425.07	4992.36
425.26	5004.07
425.45	4842.57
425.64	4980.66
425.83	5029.81
426.01	5287.27
426.20	5135.14
426.39	5011.09
426.58	5025.13
426.77	5238.12
426.96	5151.52
427.15	5163.22
427.33	5240.46
427.52	5310.68
427.71	5294.29
427.90	5399.62
428.09	5301.31
428.28	5350.46
428.46	5408.98
428.65	5437.06
428.84	5490.90
429.03	5502.60
429.22	5338.76
429.40	5535.37
429.59	5486.22
429.78	5380.89
429.97	5303.65
430.16	5577.50
430.34	5584.52
430.53	5710.91
430.72	5668.78
430.91	5612.60
431.10	5682.82
431.28	5785.80
431.47	5818.57
431.66	5879.43
431.85	5743.67
432.03	5933.26
432.22	5959.00
432.41	5921.56
432.60	5898.15
432.79	6069.01
432.97	5989.43
433.16	6148.59
433.35	5968.37
433.54	6122.84
433.72	6253.91
433.91	5998.79
434.10	6179.01
434.28	6120.50
434.47	6200.08
434.66	6312.42
434.85	6305.40
435.03	6384.98
435.22	6354.55
435.41	6626.06
435.59	6483.28
435.78	6532.44
435.97	6459.88
436.16	6499.67
436.34	6445.84
436.53	6478.60
436.72	6792.23
436.90	6539.46
437.09	6572.22
437.28	6581.59
437.46	6684.57
437.65	6656.48
437.84	6682.23
438.02	6642.44
438.21	6808.62
438.40	6668.19
438.58	7129.27
438.77	6960.75
438.96	6946.71
439.14	7105.87
439.33	7171.40
439.52	7311.83
439.70	7421.84
439.89	7335.24
440.08	7295.45
440.26	7382.05
440.45	7061.40
440.63	7372.69
440.82	7627.81
441.01	7712.07
441.19	7702.70
441.38	7543.55
441.57	7681.64
441.75	7674.62
441.94	7824.41
442.12	7995.27
442.31	8046.76
442.50	8067.83
442.68	7936.76
442.87	8210.60
443.05	7974.21
443.24	8109.96
443.43	8250.39
443.61	8264.43
443.80	8390.82
443.98	8098.25
444.17	8072.51
444.35	8325.29
444.54	8365.07
444.73	8393.16
444.91	8470.40
445.10	8423.59
445.28	8236.35
445.47	8140.38
445.65	8287.84
445.84	8636.58
446.02	8479.76
446.21	8533.59
446.39	8393.16
446.58	8587.43
446.77	8320.60
446.95	8329.97
447.14	8278.47
447.32	8540.61
447.51	8351.03
447.69	8517.21
447.88	8430.61
448.06	8400.18
448.25	8439.97
448.43	8489.12
448.62	8627.21
448.80	8697.43
448.99	8720.84
449.17	8821.48
449.36	8657.64
449.54	8800.41
449.73	9001.70
449.91	9085.96
450.10	9104.68
450.28	9036.81
450.46	9128.09
450.65	9029.79
450.83	9055.53
451.02	8931.48
451.20	9446.40
451.39	9029.79
451.57	9130.43
451.76	8950.21
451.94	9041.49
452.13	9027.45
452.31	9256.82
452.49	9163.20
452.68	9235.75
452.86	9453.42
453.05	9411.29
453.23	9572.79
453.42	9472.15
453.60	9465.13
453.78	9607.90
453.97	9453.42
454.15	9558.75
454.34	9680.46
454.52	9926.21
454.70	9673.43
454.89	9914.51
455.07	9745.99
455.26	9816.21
455.44	9788.12
455.62	9813.87
455.81	9909.83
455.99	9921.53
456.17	10085.37
456.36	10265.59
456.54	10101.75
456.73	10139.20
456.91	10497.30
457.09	10485.60
457.28	10525.39
457.46	10324.10
457.64	10593.26
457.83	10504.32
458.01	10462.19
458.19	10736.04
458.38	10590.92
458.56	10813.28
458.74	10808.59
458.93	10665.82
459.11	10754.76
459.29	10679.86
459.48	10647.10
459.66	10778.17
459.84	10923.28
460.03	10920.94
460.21	11009.88
460.39	11021.58
460.57	10939.66
460.76	11358.62
460.94	11082.44
461.12	11164.36
461.31	11147.97
461.49	11126.91
461.67	11087.12
461.85	11541.18
462.04	11372.66
462.22	11908.65
462.40	11531.82
462.59	11480.33
462.77	11630.12
462.95	11679.27
463.13	11461.60
463.32	11534.16
463.50	11653.53
463.68	11798.64
463.86	11833.75
464.05	11775.24
464.23	11864.18
464.41	11932.05
464.59	11658.21
464.78	12138.02
464.96	11948.43
465.14	11791.62
465.32	12091.21
465.50	12332.28
465.69	12311.22
465.87	12210.57
466.05	12318.24
466.23	12077.16
466.41	12498.46
466.60	12421.22
466.78	12194.19
466.96	12138.02
467.14	12334.62
467.32	12381.43
467.51	12645.91
467.69	12290.15
467.87	12299.52
468.05	12664.64
468.23	12470.37
468.41	12606.13
468.60	12636.55
468.78	12821.45
468.96	12608.47
469.14	12908.05
469.32	12816.77
469.50	12493.78
469.69	12791.03
469.87	13158.49
470.05	13135.09
470.23	13057.85
470.41	13254.45
470.59	13081.25
470.77	13118.70
470.95	13235.73
471.14	13528.30
471.32	13233.39
471.50	13680.43
471.68	13675.75
471.86	13671.07
472.04	13752.99
472.22	14083.00
472.40	13870.01
472.58	13916.83
472.77	13963.64
472.95	14036.19
473.13	14679.84
473.31	13893.42
473.49	14197.69
473.67	13930.87
473.85	14331.10
474.03	14775.80
474.21	14609.62
474.39	14609.62
474.57	14946.66
474.75	14939.64
474.93	15288.38
475.12	15154.97
475.30	15066.03
475.48	15056.67
475.66	15349.23
475.84	15063.69
476.02	15424.13
476.20	15370.30
476.38	15866.49
476.56	15843.09
476.74	15866.49
476.92	15765.85
477.10	15852.45
477.28	15999.90
477.46	15917.98
477.64	16585.04
477.82	16395.45
478.00	17013.35
478.18	16847.18
478.36	17266.13
478.54	17226.34
478.72	17216.98
478.90	17317.62
479.08	17558.70
479.26	17659.34
479.44	17589.13
479.62	17867.65
479.80	18265.54
479.98	17972.97
480.16	18794.50
480.34	18530.02
480.52	18850.67
480.70	18504.28
480.88	18153.20
481.06	18899.83
481.24	18766.42
481.41	19321.12
481.59	19255.59
481.77	19161.97
481.95	19456.87
482.13	19719.01
482.31	19892.21
482.49	20297.13
482.67	20510.11
482.85	20765.23
483.03	20507.77
483.21	21034.39
483.39	21116.31
483.57	20772.25
483.74	21090.57
483.92	21305.90
484.10	21460.37
484.28	21764.64
484.46	22157.85
484.64	22452.76
484.82	22171.89
485.00	22522.98
485.18	22642.34
485.35	23084.70
485.53	22948.95
485.71	23447.49
485.89	23501.32
486.07	23555.15
486.25	23531.75
486.43	23800.91
486.61	23714.31
486.78	24283.06
486.96	24269.01
487.14	24500.73
487.32	24875.21
487.50	24936.07
487.68	24936.07
487.85	24978.20
488.03	25635.89
488.21	25619.50
488.39	25919.09
488.57	26176.55
488.75	26380.18
488.92	26637.64
489.10	26721.90
489.28	26735.94
489.46	27171.28
489.64	27241.50
489.81	27655.77
489.99	27536.40
490.17	27903.87
490.35	28301.76
490.53	28877.53
490.70	28563.90
490.88	28435.17
491.06	28816.68
491.24	28769.86
491.41	28704.33
491.59	29029.66
491.77	29479.05
491.95	29591.39
492.13	29727.14
492.30	30068.86
492.48	29905.02
492.66	30223.34
492.84	30567.40
493.01	30682.08
493.19	30595.48
493.37	31112.74
493.54	31285.94
493.72	31648.72
493.90	31356.16
494.08	31714.26
494.25	32009.17
494.43	31962.36
494.61	32430.46
494.79	32849.42
494.96	32655.15
495.14	32645.79
495.32	33092.83
495.49	33343.27
495.67	33191.14
495.85	33259.01
496.02	33668.61
496.20	34211.61
496.38	34312.25
496.55	34417.58
496.73	35332.73
496.91	34960.58
497.09	35154.85
497.26	34642.27
497.44	35101.01
497.62	35875.73
497.79	36034.89
497.97	35192.30
498.14	36116.81
498.32	36144.89
498.50	36708.96
498.67	36645.77
498.85	36900.89
499.03	36875.14
499.20	36641.09
499.38	36870.46
499.56	37392.40
499.73	37069.40
499.91	37565.60
500.08	37521.13
500.26	37570.28
500.44	37368.99
500.61	37635.81
500.79	37677.94
500.97	37963.49
501.14	38471.39
501.32	38483.09
501.49	38806.08
501.67	38770.97
501.84	39313.98
502.02	38787.36
502.20	39313.98
502.37	39402.92
502.55	39494.20
502.72	39445.05
502.90	39672.08
503.07	39473.13
503.25	39971.67
503.43	39807.83
503.60	40486.59
503.78	40465.52
503.95	40502.97
504.13	40502.97
504.30	40872.78
504.48	40360.20
504.65	41198.11
504.83	41497.70
505.01	41544.51
505.18	41514.08
505.36	41621.75
505.53	41612.38
505.71	41787.92
505.88	41787.92
506.06	41415.78
506.23	41926.02
506.41	42141.35
506.58	42363.70
506.76	42389.44
506.93	42670.31
507.11	42188.16
507.28	42967.55
507.46	42799.04
507.63	43140.75
507.81	43576.09
507.98	42656.26
508.16	43157.14
508.33	43379.49
508.50	43899.09
508.68	43487.15
508.85	44280.60
509.03	44105.06
509.20	44051.22
509.38	44481.88
509.55	44882.11
509.73	44524.01
509.90	44327.41
510.08	44708.91
510.25	44975.73
510.42	45081.06
510.60	44978.07
510.77	45411.07
510.95	45464.91
511.12	44935.95
511.30	45518.74
511.47	45584.27
511.64	45418.10
511.82	45827.69
511.99	45855.78
512.17	46356.65
512.34	45659.17
512.51	46426.87
512.69	46473.68
512.86	46351.97
513.04	46824.76
513.21	47192.22
513.38	46770.93
513.56	46733.48
513.73	47023.70
513.90	47426.28
514.08	47112.64
514.25	47655.65
514.43	47540.96
514.60	47681.39
514.77	47672.03
514.95	47622.88
515.12	47522.24
515.29	47772.67
515.47	48355.47
515.64	48275.89
515.81	47934.17
515.99	48308.66
516.16	48631.65
516.33	48500.58
516.51	49059.97
516.68	48423.34
516.85	48423.34
517.03	48931.24
517.20	49404.03
517.37	49010.82
517.54	49008.48
517.72	49088.06
517.89	49095.08
518.06	49251.89
518.24	49141.89
518.41	49661.49
518.58	49593.61
518.75	49846.39
518.93	49488.29
519.10	49202.74
519.27	49928.31
519.45	49614.68
519.62	50085.12
519.79	50239.60
519.96	49783.19
520.14	50403.44
520.31	50293.43
520.48	50382.37
520.65	50396.42
520.83	50808.35
521.00	50749.84
521.17	50595.36
521.34	50658.56
521.52	50717.07
521.69	51124.32
521.86	50911.33
522.03	50958.14
522.20	51447.32
522.38	51590.09
522.55	51714.14
522.72	51646.26
522.89	51655.62
523.07	52034.79
523.24	51835.84
523.41	51625.20
523.58	51629.88
523.75	51941.17
523.92	51980.96
524.10	52200.97
524.27	51922.44
524.44	52327.36
524.61	51852.23
524.78	52069.90
524.96	52191.61
525.13	52428.00
525.30	52500.56
525.47	52729.93
525.64	52648.01
525.81	52556.73
525.98	52992.07
526.16	52917.17
526.33	52846.96
526.50	52856.32
526.67	52758.02
526.84	52989.73
527.01	53172.29
527.18	53137.18
527.36	53125.48
527.53	53209.74
527.70	53193.36
527.87	53619.33
528.04	53324.43
528.21	53354.85
528.38	53345.49
528.55	53572.52
528.72	53553.80
528.89	53797.21
529.07	53359.53
529.24	53460.18
529.41	53787.85
529.58	53736.36
529.75	53771.47
529.92	53900.20
530.09	54019.56
530.26	54157.66
530.43	54284.04
530.60	53818.28
530.77	53942.33
530.94	54234.89
531.11	54230.21
531.28	54377.67
531.46	54335.54
531.63	54232.55
531.80	54471.29
531.97	54436.18
532.14	54581.29
532.31	54522.78
532.48	54616.40
532.65	54663.21
532.82	54745.13
532.99	54827.05
533.16	54869.18
533.33	54798.96
533.50	54908.97
533.67	55033.02
533.84	54656.19
534.01	55264.73
534.18	55016.63
534.35	55246.00
534.52	55271.75
534.69	55351.33
534.86	55540.91
535.03	55236.64
535.20	55344.31
535.37	55545.59
535.54	55372.39
535.71	55578.36
535.88	55564.32
536.05	55744.54
536.22	55800.71
536.38	55641.56
536.55	55744.54
536.72	55716.45
536.89	55597.09
537.06	55688.37
537.23	55814.76
537.40	55796.03
537.57	55812.41
537.74	55812.41
537.91	56191.58
538.08	56222.01
538.25	55753.90
538.42	56025.40
538.59	56079.24
538.75	56016.04
538.92	56229.03
539.09	56320.31
539.26	55978.59
539.43	56285.20
539.60	56418.61
539.77	56303.93
539.94	56376.48
540.11	56528.62
540.28	56481.81
540.44	56271.16
540.61	56507.55
540.78	56427.98
540.95	56392.87
541.12	56537.98
541.29	56594.15
541.46	56411.59
541.62	56825.87
541.79	56633.94
541.96	56514.58
542.13	56645.65
542.30	56896.08
542.47	56956.94
542.63	57139.50
542.80	56989.70
542.97	57031.83
543.14	57315.04
543.31	57326.74
543.48	57434.41
543.64	57401.64
543.81	57462.49
543.98	57247.16
544.15	57371.21
544.32	57600.58
544.48	57680.16
544.65	57455.47
544.82	57586.54
544.99	57144.18
545.16	57755.06
545.32	57509.30
545.49	57649.74
545.66	57755.06
545.83	57799.53
546.00	57724.63
546.16	57811.23
546.33	57939.96
546.50	57481.22
546.67	57804.21
546.83	57347.81
547.00	57867.40
547.17	57844.00
547.34	57832.30
547.50	58134.23
547.67	58082.73
547.84	57982.09
548.00	58108.48
548.17	58342.53
548.34	58169.33
548.51	58314.45
548.67	58213.80
548.84	58312.11
549.01	58326.15
549.18	58244.23
549.34	58260.62
549.51	58379.98
549.68	58499.35
549.84	58621.06
550.01	58749.79
550.18	58195.08
550.34	58642.12
550.51	58628.08
550.68	58581.27
550.84	58440.84
551.01	58630.42
551.18	58693.61
551.34	58309.77
551.51	58693.61
551.68	58569.57
551.84	58688.93
552.01	58527.44
552.18	58841.07
552.34	58618.72
552.51	58876.18
552.68	58632.76
552.84	58700.64
553.01	58955.75
553.18	58883.20
553.34	58721.70
553.51	58857.45
553.67	58927.67
553.84	59128.95
554.01	59002.56
554.17	58955.75
554.34	59018.95
554.51	59065.76
554.67	59025.97
554.84	59131.29
555.00	59082.14
555.17	59119.59
555.33	59143.00
555.50	59164.06
555.67	59168.74
555.83	59189.81
556.00	59138.32
556.16	59437.90
556.33	59374.71
556.50	59388.75
556.66	59330.24
556.83	59412.16
556.99	59583.02
557.16	59634.51
557.32	59515.14
557.49	59702.38
557.65	59599.40
557.82	59391.09
557.98	59484.72
558.15	59454.29
558.32	59620.47
558.48	59601.74
558.65	59470.67
558.81	59529.19
558.98	59643.87
559.14	59791.33
559.31	59678.98
559.47	59774.94
559.64	59931.76
559.80	59728.13
559.97	59611.10
560.13	59636.85
560.30	59550.25
560.46	59887.29
560.63	60020.70
560.79	59831.11
560.96	60121.34
561.12	59784.30
561.29	60004.31
561.45	59891.97
561.61	59576.00
561.78	59924.74
561.94	59856.86
562.11	60051.12
562.27	60004.31
562.44	60009.00
562.60	60147.09
562.77	60135.38
562.93	59924.74
563.10	60046.44
563.26	59901.33
563.42	60170.49
563.59	60023.04
563.75	59969.21
563.92	60126.02
564.08	60067.51
564.24	60430.29
564.41	60135.38
564.57	60226.66
564.74	60119.00
564.90	60147.09
565.07	60250.07
565.23	60177.51
565.39	60367.10
565.56	60378.80
565.72	60339.01
565.88	60219.64
566.05	60334.33
566.21	60327.31
566.38	60472.42
566.54	60224.32
566.70	60388.16
566.87	60598.81
567.03	60259.43
567.19	60385.82
567.36	60331.99
567.52	60210.28
567.68	60537.96
567.85	60533.28
568.01	60460.72
568.17	60451.36
568.34	60460.72
568.50	60477.10
568.66	60310.92
568.83	60498.17
568.99	60507.53
569.15	60427.95
569.32	60364.76
569.48	60523.91
569.64	60622.22
569.81	60533.28
569.97	60615.19
570.13	60636.26
570.30	60629.24
570.46	60596.47
570.62	60523.91
570.78	60477.10
570.95	60697.11
571.11	60743.92
571.27	60491.15
571.43	60704.13
571.60	60741.58
571.76	60767.33
571.92	60699.45
572.09	60631.58
572.25	60739.24
572.41	60633.92
572.57	60587.11
572.74	60853.93
572.90	60907.76
573.06	60708.82
573.22	60718.18
573.38	60722.86
573.55	60608.17
573.71	60828.18
573.87	60589.45
574.03	60706.47
574.20	60865.63
574.36	60844.57
574.52	60680.73
574.68	60690.09
574.84	60994.36
575.01	60830.52
575.17	61038.83
575.33	60495.83
575.49	60687.75
575.65	60870.31
575.82	61080.96
575.98	60926.49
576.14	61247.14
576.30	61043.51
576.46	60647.96
576.62	60748.60
576.79	60793.07
576.95	60708.82
577.11	60816.48
577.27	60963.93
577.43	60931.17
577.59	60842.23
577.75	60809.46
577.92	60718.18
578.08	60907.76
578.24	60989.68
578.40	61106.71
578.56	61162.88
578.72	60949.89
578.88	60989.68
579.04	61165.22
579.21	61024.79
579.37	60872.65
579.53	61048.19
579.69	60879.67
579.85	60860.95
580.01	60989.68
580.17	60825.84
580.33	61001.38
580.49	61066.92
580.65	61284.59
580.82	60835.20
580.98	60814.14
581.14	60662.00
581.30	61197.99
581.46	61008.40
581.62	61006.06
581.78	60985.00
581.94	61043.51
582.10	60816.48
582.26	61076.28
582.42	60921.80
582.58	60867.97
582.74	60996.70
582.90	61020.11
583.06	60980.32
583.22	60874.99
583.38	60926.49
583.54	61055.21
583.70	60970.96
583.86	61144.16
584.02	61113.73
584.18	61300.97
584.34	60912.44
584.50	60954.57
584.66	60891.38
584.82	60947.55
584.98	61235.44
585.14	61242.46
585.30	60996.70
585.46	61279.91
585.62	61102.03
585.78	61066.92
585.94	60860.95
586.10	61083.30
586.26	61069.26
586.42	61242.46
586.58	61144.16
586.74	61212.03
586.90	61020.11
587.06	61144.16
587.22	61106.71
587.38	61270.54
587.54	61263.52
587.70	61251.82
587.86	61249.48
588.02	61109.05
588.18	61188.63
588.34	61263.52
588.49	61183.94
