SpectraSuite Data File
++++++++++++++++++++++++++++++++++++
Date: Fri Oct 25 10:43:16 EDT 2013
User: price-jones
Dark Spectrum Present: No
Reference Spectrum Present: No
Number of Sampled Component Spectra: 1
Spectrometers: USB2+H05261
Integration Time (usec): 100000 (USB2+H05261)
Spectra Averaged: 1 (USB2+H05261)
Boxcar Smoothing: 0 (USB2+H05261)
Correct for Electrical Dark: No (USB2+H05261)
Strobe/Lamp Enabled: No (USB2+H05261)
Correct for Detector Non-linearity: No (USB2+H05261)
Correct for Stray Light: No (USB2+H05261)
Number of Pixels in Processed Spectrum: 2048
>>>>>Begin Processed Spectral Data<<<<<
365.73	180.22
365.92	180.22
366.12	180.22
366.32	23.41
366.52	44.47
366.72	16.38
366.91	23.41
367.11	0.00
367.31	11.70
367.51	9.36
367.70	9.36
367.90	53.83
368.10	0.00
368.30	28.09
368.49	11.70
368.69	32.77
368.89	18.72
369.09	0.00
369.28	9.36
369.48	0.00
369.68	42.13
369.87	145.11
370.07	124.05
370.27	88.94
370.47	255.12
370.66	351.08
370.86	390.87
371.06	454.06
371.25	425.98
371.45	449.38
371.65	397.89
371.84	519.60
372.04	395.55
372.24	475.13
372.44	449.38
372.63	528.96
372.83	510.24
373.03	519.60
373.22	496.19
373.42	496.19
373.62	428.32
373.81	559.39
374.01	503.22
374.21	622.58
374.40	592.16
374.60	543.00
374.79	613.22
374.99	503.22
375.19	641.31
375.38	582.79
375.58	557.05
375.78	559.39
375.97	559.39
376.17	596.84
376.37	554.71
376.56	594.50
376.76	624.92
376.95	589.82
377.15	629.60
377.35	683.44
377.54	760.67
377.74	594.50
377.93	608.54
378.13	660.03
378.33	603.86
378.52	650.67
378.72	669.39
378.91	634.29
379.11	667.05
379.31	711.52
379.50	671.73
379.70	655.35
379.89	753.65
380.09	655.35
380.28	706.84
380.48	653.01
380.68	711.52
380.87	727.91
381.07	650.67
381.26	697.48
381.46	702.16
381.65	685.78
381.85	613.22
382.04	737.27
382.24	695.14
382.43	798.12
382.63	770.04
382.83	748.97
383.02	720.88
383.22	727.91
383.41	739.61
383.61	723.23
383.80	791.10
384.00	765.36
384.19	800.46
384.39	732.59
384.58	812.17
384.78	751.31
384.97	753.65
385.17	795.78
385.36	798.12
385.56	840.25
385.75	765.36
385.95	805.14
386.14	896.43
386.34	826.21
386.53	830.89
386.72	842.59
386.92	861.32
387.11	898.77
387.31	905.79
387.50	802.80
387.70	802.80
387.89	858.98
388.09	882.38
388.28	882.38
388.48	957.28
388.67	917.49
388.86	919.83
389.06	926.85
389.25	985.37
389.45	961.96
389.64	1027.50
389.84	922.17
390.03	990.05
390.22	990.05
390.42	1001.75
390.61	952.60
390.81	1057.92
391.00	1090.69
391.19	1001.75
391.39	1076.65
391.58	1039.20
391.78	1004.09
391.97	1095.37
392.16	1083.67
392.36	947.92
392.55	1029.84
392.75	905.79
392.94	1006.43
393.13	1029.84
393.33	992.39
393.52	1076.65
393.71	1067.28
393.91	1125.80
394.10	1008.77
394.29	1217.08
394.49	1132.82
394.68	1228.78
394.88	1139.84
395.07	1196.01
395.26	1247.51
395.46	1198.35
395.65	1263.89
395.84	1137.50
396.04	1231.12
396.23	1268.57
396.42	1153.88
396.62	1118.78
396.81	1144.52
397.00	1252.19
397.19	1233.46
397.39	1266.23
397.58	1427.73
397.77	1369.21
397.97	1453.47
398.16	1430.07
398.35	1413.68
398.55	1418.36
398.74	1542.41
398.93	1514.33
399.12	1423.05
399.32	1483.90
399.51	1390.28
399.70	1575.18
399.90	1526.03
400.09	1603.27
400.28	1624.33
400.47	1530.71
400.67	1640.72
400.86	1685.19
401.05	1605.61
401.24	1746.04
401.44	1746.04
401.63	1851.36
401.82	1771.79
402.01	1682.85
402.21	1767.10
402.40	1732.00
402.59	1746.04
402.78	1792.85
402.97	1743.70
403.17	1797.53
403.36	1792.85
403.55	1785.83
403.74	1987.11
403.93	1954.35
404.13	1888.81
404.32	1879.45
404.51	1851.36
404.70	2017.54
404.89	1837.32
405.09	1902.86
405.28	2054.99
405.47	1973.07
405.66	1947.33
405.85	1921.58
406.05	1923.92
406.24	1970.73
406.43	1963.71
406.62	2062.01
406.81	2101.80
407.00	2050.31
407.20	1963.71
407.39	2012.86
407.58	2022.22
407.77	2176.70
407.96	2216.49
408.15	2193.08
408.34	2155.63
408.54	2176.70
408.73	2284.36
408.92	2296.07
409.11	2244.57
409.30	2335.85
409.49	2207.13
409.68	2338.20
409.87	2218.83
410.07	2342.88
410.26	2338.20
410.45	2389.69
410.64	2387.35
410.83	2469.27
411.02	2518.42
411.21	2612.04
411.40	2703.32
411.59	2548.84
411.78	2586.29
411.98	2555.86
412.17	2654.17
412.36	2703.32
412.55	2705.66
412.74	2565.23
412.93	2780.56
413.12	2675.23
413.31	2785.24
413.50	2771.19
413.69	2839.07
413.88	2935.03
414.07	2974.82
414.26	2878.86
414.45	2876.52
414.64	2892.90
414.83	3110.57
415.02	3042.70
415.22	3054.40
415.41	3173.77
415.60	3105.89
415.79	3199.51
415.98	3379.73
416.17	3166.74
416.36	3251.00
416.55	3321.22
416.74	3239.30
416.93	3246.32
417.12	3265.05
417.31	3290.79
417.50	3243.98
417.69	3435.91
417.88	3604.42
418.07	3407.82
418.26	3566.98
418.45	3550.59
418.64	3623.15
418.83	3595.06
419.02	3372.71
419.21	3559.95
419.39	3625.49
419.58	3562.30
419.77	3496.76
419.96	3648.90
420.15	3653.58
420.34	3693.37
420.53	3859.54
420.72	3669.96
420.91	3700.39
421.10	3789.33
421.29	3791.67
421.48	3712.09
421.67	3826.78
421.86	3779.97
422.05	3824.44
422.24	3871.25
422.43	3803.37
422.61	3857.20
422.80	3976.57
422.99	3852.52
423.18	3892.31
423.37	4023.38
423.56	4065.51
423.75	3943.80
423.94	3866.56
424.13	3735.50
424.32	3740.18
424.50	3915.72
424.69	4002.32
424.88	3981.25
425.07	3960.19
425.26	3733.15
425.45	3955.51
425.64	3955.51
425.83	4009.34
426.01	4046.79
426.20	4037.42
426.39	4135.73
426.58	4037.42
426.77	3927.42
426.96	4077.21
427.15	3920.40
427.33	3962.53
427.52	4072.53
427.71	4234.03
427.90	4056.15
428.09	4156.79
428.28	4161.47
428.46	4058.49
428.65	4142.75
428.84	4191.90
429.03	4329.99
429.22	4159.13
429.40	4259.78
429.59	4095.94
429.78	4021.04
429.97	3845.50
430.16	4107.64
430.34	4081.89
430.53	4189.56
430.72	4219.99
430.91	4238.71
431.10	4278.50
431.28	4507.87
431.47	4669.37
431.66	4554.68
431.85	4510.21
432.03	4660.01
432.22	4793.42
432.41	4571.07
432.60	4662.35
432.79	4718.52
432.97	4683.41
433.16	4762.99
433.35	4564.04
433.54	4636.60
433.72	4578.09
433.91	4631.92
434.10	4636.60
434.28	4844.91
434.47	4910.44
434.66	4898.74
434.85	4994.70
435.03	4903.42
435.22	5001.72
435.41	5085.98
435.59	5097.69
435.78	5142.16
435.97	5273.23
436.16	5001.72
436.34	5020.45
436.53	5184.29
436.72	5289.61
436.90	5184.29
437.09	5224.08
437.28	5025.13
437.46	5123.43
437.65	5193.65
437.84	5364.51
438.02	5125.77
438.21	5102.37
438.40	4985.34
438.58	5315.36
438.77	5481.53
438.96	5453.45
439.14	5724.95
439.33	5657.07
439.52	5678.14
439.70	5699.20
439.89	5636.01
440.08	5657.07
440.26	5701.54
440.45	5657.07
440.63	5947.30
440.82	5895.81
441.01	5900.49
441.19	5940.28
441.38	6104.12
441.57	6076.03
441.75	6150.93
441.94	6403.71
442.12	6190.72
442.31	6361.58
442.50	6319.45
442.68	6214.12
442.87	6347.53
443.05	6258.59
443.24	6455.20
443.43	6462.22
443.61	6321.79
443.80	6555.84
443.98	6459.88
444.17	6221.14
444.35	6471.58
444.54	6724.36
444.73	6516.05
444.91	6417.75
445.10	6567.54
445.28	6466.90
445.47	6494.99
445.65	6328.81
445.84	6579.25
446.02	6520.73
446.21	6478.60
446.39	6513.71
446.58	6525.41
446.77	6684.57
446.95	6427.11
447.14	6768.83
447.32	6750.10
447.51	6679.89
447.69	6757.13
447.88	6558.18
448.06	6843.73
448.25	6766.49
448.43	6707.98
448.62	6850.75
448.80	6754.79
448.99	6729.04
449.17	6906.92
449.36	6700.95
449.54	7023.95
449.73	7021.61
449.91	6960.75
450.10	7009.90
450.28	7204.17
450.46	7286.09
450.65	7157.36
450.83	7159.70
451.02	7243.96
451.20	7166.72
451.39	7206.51
451.57	7204.17
451.76	7222.89
451.94	7293.11
452.13	7211.19
452.31	7283.75
452.49	7042.67
452.68	7126.93
452.86	6981.82
453.05	7332.90
453.23	7396.09
453.42	7260.34
453.60	7089.48
453.78	7470.99
453.97	7279.07
454.15	7463.97
454.34	7447.58
454.52	7506.10
454.70	7368.01
454.89	7456.95
455.07	7496.74
455.26	7508.44
455.44	7742.49
455.62	7744.83
455.81	7782.28
455.99	7716.75
456.17	7857.18
456.36	7784.62
456.54	7801.01
456.73	7885.26
456.91	8032.72
457.09	8278.47
457.28	8262.09
457.46	7793.98
457.64	8138.04
457.83	8196.56
458.01	7953.14
458.19	8018.68
458.38	8156.77
458.56	8325.29
458.74	8266.77
458.93	8416.57
459.11	8140.38
459.29	8262.09
459.48	8353.37
459.66	8278.47
459.84	8287.84
460.03	8400.18
460.21	8624.87
460.39	8339.33
460.57	8381.46
460.76	8510.19
460.94	8592.11
461.12	8503.17
461.31	8723.18
461.49	8454.02
461.67	8592.11
461.85	8681.05
462.04	8657.64
462.22	9170.22
462.40	8842.54
462.59	8872.97
462.77	8809.78
462.95	8926.80
463.13	8830.84
463.32	8842.54
463.50	8943.19
463.68	8931.48
463.86	8950.21
464.05	8751.26
464.23	8929.14
464.41	9137.45
464.59	8877.65
464.78	9195.96
464.96	9172.56
465.14	9083.62
465.32	9008.72
465.50	9202.99
465.69	9418.32
465.87	9284.91
466.05	9104.68
466.23	9217.03
466.41	9015.74
466.60	9437.04
466.78	8959.57
466.96	9100.00
467.14	9228.73
467.32	9366.82
467.51	9312.99
467.69	9205.33
467.87	9355.12
468.05	9614.92
468.23	9628.96
468.41	9444.06
468.60	9481.51
468.78	9577.47
468.96	9650.03
469.14	9729.61
469.32	9729.61
469.50	9563.43
469.69	9785.78
469.87	9827.91
470.05	9837.27
470.23	9778.76
470.41	9951.96
470.59	9846.63
470.77	9645.35
470.95	10031.54
471.14	10183.67
471.32	9966.00
471.50	10291.34
471.68	10162.61
471.86	10417.72
472.04	10178.99
472.22	10459.85
472.40	10162.61
472.58	10342.83
472.77	10499.64
472.95	10480.92
473.13	11014.56
473.31	10401.34
473.49	10396.66
473.67	10651.78
473.85	10520.71
474.03	11208.83
474.21	10738.38
474.39	10906.90
474.57	11044.99
474.75	11044.99
474.93	11370.32
475.12	11098.82
475.30	11138.61
475.48	10934.98
475.66	11386.71
475.84	11269.68
476.02	11510.75
476.20	11417.13
476.38	11637.14
476.56	11918.01
476.74	11686.29
476.92	11513.10
477.10	12142.70
477.28	11964.82
477.46	12112.27
477.64	12126.32
477.82	12409.52
478.00	12540.59
478.18	12393.14
478.36	12475.06
478.54	12629.53
478.72	12601.44
478.90	13083.59
479.08	13291.90
479.26	13104.66
479.44	13090.62
479.62	13362.12
479.80	13446.38
479.98	13387.86
480.16	13554.04
480.34	13507.23
480.52	13825.54
480.70	13785.76
480.88	13703.84
481.06	13860.65
481.24	13865.33
481.41	14125.13
481.59	14305.35
481.77	14394.29
481.95	14052.58
482.13	14366.21
482.31	14548.77
482.49	15007.52
482.67	14740.69
482.85	14876.44
483.03	15234.55
483.21	15332.85
483.39	15538.82
483.57	15248.59
483.74	15396.04
483.92	15396.04
484.10	15218.16
484.28	15627.76
484.46	15939.05
484.64	16039.69
484.82	15943.73
485.00	16212.89
485.18	16224.59
485.35	16318.22
485.53	15962.45
485.71	16112.25
485.89	16514.82
486.07	16442.26
486.25	16758.24
486.43	16655.25
486.61	16865.90
486.78	17118.68
486.96	17467.42
487.14	17619.55
487.32	17729.56
487.50	18057.23
487.68	18143.83
487.85	18104.04
488.03	18438.74
488.21	18422.36
488.39	18370.86
488.57	18331.08
488.75	18707.90
488.92	19042.60
489.10	19309.42
489.28	19257.93
489.46	20018.60
489.64	19473.26
489.81	20002.22
489.99	19688.59
490.17	19936.68
490.35	20217.55
490.53	20210.53
490.70	20830.77
490.88	20194.14
491.06	20809.70
491.24	20575.65
491.41	20952.48
491.59	20805.02
491.77	20482.03
491.95	21158.44
492.13	21151.42
492.30	21546.97
492.48	21219.30
492.66	21799.75
492.84	21671.02
493.01	21991.67
493.19	21984.65
493.37	22356.80
493.54	22445.74
493.72	22644.68
493.90	22551.06
494.08	22960.66
494.25	23178.33
494.43	23054.28
494.61	23426.42
494.79	23403.02
494.96	23056.62
495.14	23309.40
495.32	23601.96
495.49	23428.76
495.67	23688.56
495.85	23934.32
496.02	24264.33
496.20	24325.19
496.38	24596.69
496.55	24407.11
496.73	25149.06
496.91	24697.33
497.09	24524.13
497.26	24716.06
497.44	24769.89
497.62	24877.55
497.79	24915.00
497.97	25142.03
498.14	25177.14
498.32	25261.40
498.50	25322.26
498.67	25701.42
498.85	25879.30
499.03	26436.35
499.20	26340.39
499.38	26307.62
499.56	26057.18
499.73	26111.02
499.91	26471.46
500.08	26335.71
500.26	26288.90
500.44	26092.29
500.61	26518.27
500.79	26286.56
500.97	26623.59
501.14	27084.68
501.32	26937.23
501.49	26878.71
501.67	27026.17
501.84	27538.74
502.02	27367.88
502.20	27384.27
502.37	27763.43
502.55	27728.33
502.72	27590.24
502.90	27814.93
503.07	27475.55
503.25	28156.64
503.43	27608.96
503.60	28070.04
503.78	27960.04
503.95	28142.60
504.13	28250.27
504.30	28168.35
504.48	28584.96
504.65	28627.09
504.83	28573.26
505.01	29476.71
505.18	28840.08
505.36	29296.49
505.53	29364.36
505.71	29729.48
505.88	29556.28
506.06	29191.16
506.23	29490.75
506.41	29418.19
506.58	29797.36
506.76	30059.50
506.93	29638.20
507.11	29773.95
507.28	29890.98
507.46	29989.28
507.63	30171.85
507.81	30092.27
507.98	29780.98
508.16	30237.38
508.33	30370.79
508.50	30595.48
508.68	30543.99
508.85	30742.94
509.03	31028.48
509.20	31035.50
509.38	30836.56
509.55	31072.95
509.73	31419.35
509.90	31438.08
510.08	31632.34
510.25	31150.19
510.42	31267.22
510.60	31524.68
510.77	31531.70
510.95	32093.43
511.12	31906.18
511.30	32006.83
511.47	31810.22
511.64	32243.22
511.82	32222.16
511.99	32137.90
512.17	32105.13
512.34	31934.27
512.51	32402.38
512.69	32692.60
512.86	32589.62
513.04	32591.96
513.21	32889.21
513.38	32854.10
513.56	32734.73
513.73	32488.98
513.90	32964.10
514.08	32863.46
514.25	33076.45
514.43	33270.72
514.60	33020.28
514.77	33062.41
514.95	33345.61
515.12	33212.20
515.29	33441.57
515.47	33619.46
515.64	33802.02
515.81	33909.68
515.99	33930.75
516.16	33682.65
516.33	33727.12
516.51	33736.48
516.68	33432.21
516.85	32765.16
517.03	33565.62
517.20	33787.97
517.37	34054.79
517.54	34436.30
517.72	34026.71
517.89	33654.56
518.06	33530.51
518.24	34443.32
518.41	33905.00
518.58	34548.65
518.75	34436.30
518.93	34951.22
519.10	34738.23
519.27	34988.67
519.45	34684.40
519.62	35173.57
519.79	35250.81
519.96	35473.16
520.14	35398.26
520.31	35019.10
520.48	35290.60
520.65	35438.05
520.83	35580.82
521.00	35854.67
521.17	35681.47
521.34	36149.57
521.52	35765.73
521.69	36002.12
521.86	35597.21
522.03	36355.54
522.20	36140.21
522.38	36070.00
522.55	36282.98
522.72	36100.42
522.89	36238.51
523.07	36739.39
523.24	36397.67
523.41	36720.66
523.58	36744.07
523.75	36989.83
523.92	36898.55
524.10	36992.17
524.27	36816.63
524.44	36921.95
524.61	37055.36
524.78	36943.02
524.96	37266.01
525.13	37216.86
525.30	37525.81
525.47	37811.35
525.64	37123.24
525.81	37434.53
525.98	37340.91
526.16	37043.66
526.33	37184.09
526.50	37511.77
526.67	36914.93
526.84	36809.61
527.01	37394.74
527.18	37242.60
527.36	37926.04
527.53	37738.80
527.70	38162.43
527.87	38218.61
528.04	38099.24
528.21	38040.73
528.38	38253.72
528.55	38536.92
528.72	38719.48
528.89	38667.99
529.07	38843.53
529.24	38911.41
529.41	38726.50
529.58	38506.49
529.75	38829.49
529.92	39269.51
530.09	39100.99
530.26	38747.57
530.43	38780.34
530.60	38787.36
530.77	38707.78
530.94	39405.26
531.11	39243.76
531.28	39220.36
531.46	39360.79
531.63	39508.24
531.80	39119.71
531.97	38969.92
532.14	39070.56
532.31	38974.60
532.48	39225.04
532.65	39384.19
532.82	39330.36
532.99	39627.61
533.16	39901.45
533.33	39643.99
533.50	39777.40
533.67	39873.37
533.84	39543.35
534.01	39934.22
534.18	39871.03
534.35	39892.09
534.52	39709.53
534.69	40179.98
534.86	40348.50
535.03	40189.34
535.20	40552.12
535.37	40341.47
535.54	40973.42
535.71	40226.79
535.88	40713.62
536.05	40636.38
536.22	41095.13
536.38	40491.27
536.55	40348.50
536.72	40760.43
536.89	40128.48
537.06	40016.14
537.23	41191.09
537.40	40634.04
537.57	41123.21
537.74	41102.15
537.91	40961.72
538.08	41120.87
538.25	40849.37
538.42	40992.14
538.59	41050.66
538.75	40832.99
538.92	40966.40
539.09	41148.96
539.26	41235.56
539.43	41148.96
539.60	41567.91
539.77	40952.35
539.94	41109.17
540.11	41064.70
540.28	41254.28
540.44	41148.96
540.61	41596.00
540.78	40994.48
540.95	41375.99
541.12	41338.54
541.29	41230.88
541.46	41619.41
541.62	41654.51
541.79	41921.34
541.96	40999.16
542.13	41816.01
542.30	41525.78
542.47	41502.38
542.63	42139.00
542.80	42225.60
542.97	42607.11
543.14	42567.32
543.31	42394.12
543.48	42382.42
543.64	42885.64
543.81	42417.53
543.98	42775.63
544.15	42363.70
544.32	42234.97
544.48	42808.40
544.65	42300.50
544.82	42749.88
544.99	42529.87
545.16	42759.25
545.32	42674.99
545.49	43330.34
545.66	43206.29
545.83	42895.00
546.00	43086.92
546.16	42824.78
546.33	42632.86
546.50	42506.47
546.67	42878.61
546.83	42775.63
547.00	42794.36
547.17	42782.65
547.34	42906.70
547.50	42866.91
547.67	43438.00
547.84	43255.44
548.00	43473.11
548.17	43311.61
548.34	43613.54
548.51	43871.00
548.67	43461.41
548.84	43494.18
549.01	43115.01
549.18	43386.51
549.34	43508.22
549.51	43543.33
549.68	43782.06
549.84	43679.08
550.01	43821.85
550.18	43473.11
550.34	43814.83
550.51	43524.60
550.68	44065.27
550.84	43438.00
551.01	43386.51
551.18	44105.06
551.34	43707.16
551.51	44046.54
551.68	43992.71
551.84	44053.56
552.01	43543.33
552.18	43936.54
552.34	43604.18
552.51	44086.33
552.68	44435.07
552.84	44095.69
553.01	44006.75
553.18	44240.81
553.34	44350.81
553.51	43957.60
553.67	44278.25
553.84	44910.20
554.01	44687.85
554.17	44800.19
554.34	43997.39
554.51	44362.51
554.67	44280.60
554.84	44837.64
555.00	44355.49
555.17	44013.77
555.33	44582.52
555.50	44268.89
555.67	44369.54
555.83	44348.47
556.00	44554.44
556.16	44823.60
556.33	44451.45
556.50	44835.30
556.66	44687.85
556.83	43955.26
556.99	44828.28
557.16	44603.59
557.32	44243.15
557.49	44830.62
557.65	44446.77
557.82	44875.09
557.98	45017.86
558.15	44626.99
558.32	45074.04
558.48	44701.89
558.65	44722.96
558.81	44538.05
558.98	44456.14
559.14	44830.62
559.31	44762.75
559.47	45001.48
559.64	44900.84
559.80	44797.85
559.97	45123.19
560.13	44893.82
560.30	44648.06
560.46	45020.20
560.63	45057.65
560.79	45280.00
560.96	45261.28
561.12	44851.69
561.29	45195.74
561.45	45251.92
561.61	44903.18
561.78	45074.04
561.94	44729.98
562.11	45268.30
562.27	45469.59
562.44	45317.45
562.60	45476.61
562.77	45436.82
562.93	45411.07
563.10	45155.96
563.26	45184.04
563.42	45216.81
563.59	45195.74
563.75	45230.85
563.92	45804.28
564.08	45254.26
564.24	45488.31
564.41	45677.90
564.57	45612.36
564.74	45492.99
564.90	45064.67
565.07	45448.52
565.23	45546.82
565.39	45067.02
565.56	45036.59
565.72	44982.76
565.88	45167.66
566.05	45415.76
566.21	45249.58
566.38	45214.47
566.54	45628.74
566.70	45563.21
566.87	45797.26
567.03	45312.77
567.19	45689.60
567.36	45677.90
567.52	45556.19
567.68	45790.24
567.85	45390.01
568.01	45525.76
568.17	45708.32
568.34	45701.30
568.50	45701.30
568.66	45474.27
568.83	46075.79
568.99	44966.37
569.15	45549.17
569.32	45397.03
569.48	45237.87
569.64	46213.88
569.81	45813.65
569.97	45457.88
570.13	45586.61
570.30	45310.43
570.46	45340.86
570.62	45441.50
570.78	45041.27
570.95	45097.44
571.11	45745.77
571.27	45141.91
571.43	45350.22
571.60	45982.16
571.76	45631.08
571.92	46019.61
572.09	45900.25
572.25	45635.77
572.41	45757.47
572.57	45984.51
572.74	46347.29
572.90	45832.37
573.06	45710.66
573.22	46178.77
573.38	45769.18
573.55	45947.06
573.71	46305.16
573.87	46115.58
574.03	45818.33
574.20	45570.23
574.36	45621.72
574.52	45537.46
574.68	45443.84
574.84	45628.74
575.01	45663.85
575.17	45605.34
575.33	45771.52
575.49	45504.70
575.65	45518.74
575.82	45935.35
575.98	45890.88
576.14	46087.49
576.30	45811.31
576.46	45928.33
576.62	44971.05
576.79	45504.70
576.95	45361.92
577.11	45525.76
577.27	45457.88
577.43	45567.89
577.59	45453.20
577.75	45455.54
577.92	45326.81
578.08	45390.01
578.24	45170.00
578.40	45762.15
578.56	45610.02
578.72	45848.75
578.88	45738.75
579.04	45940.04
579.21	45731.73
579.37	45694.28
579.53	45764.49
579.69	45291.71
579.85	45696.62
580.01	45996.21
580.17	45698.96
580.33	45455.54
580.49	45675.55
580.65	45787.90
580.82	46007.91
580.98	45640.45
581.14	45242.56
581.30	45741.09
581.46	45804.28
581.62	45645.13
581.78	45818.33
581.94	46248.99
582.10	46057.06
582.26	46153.02
582.42	45895.56
582.58	46014.93
582.74	45766.84
582.90	45911.95
583.06	46017.27
583.22	45794.92
583.38	46281.75
583.54	46562.62
583.70	45865.14
583.86	45549.17
584.02	45703.64
584.18	45904.93
584.34	45766.84
584.50	46101.53
584.66	45551.51
584.82	46134.30
584.98	46024.29
585.14	45703.64
585.30	45394.69
585.46	45600.66
585.62	45467.25
585.78	45961.10
585.94	45462.57
586.10	45546.82
586.26	45603.00
586.42	46064.08
586.58	46050.04
586.74	45935.35
586.90	45380.65
587.06	45731.73
587.22	45806.62
587.38	45991.53
587.54	45975.14
587.70	46113.23
587.86	45949.40
588.02	45635.77
588.18	45710.66
588.34	45579.59
588.49	45441.50
588.65	45397.03
588.81	45624.06
588.97	45251.92
589.13	45179.36
589.29	45116.17
589.45	45759.81
589.61	45523.42
589.77	46155.36
589.93	46124.94
590.08	45940.04
