SpectraSuite Data File
++++++++++++++++++++++++++++++++++++
Date: Fri Oct 25 10:43:48 EDT 2013
User: price-jones
Dark Spectrum Present: No
Reference Spectrum Present: No
Number of Sampled Component Spectra: 1
Spectrometers: USB2+H05261
Integration Time (usec): 100000 (USB2+H05261)
Spectra Averaged: 1 (USB2+H05261)
Boxcar Smoothing: 0 (USB2+H05261)
Correct for Electrical Dark: No (USB2+H05261)
Strobe/Lamp Enabled: No (USB2+H05261)
Correct for Detector Non-linearity: No (USB2+H05261)
Correct for Stray Light: No (USB2+H05261)
Number of Pixels in Processed Spectrum: 2048
>>>>>Begin Processed Spectral Data<<<<<
365.73	159.16
365.92	159.16
366.12	159.16
366.32	30.43
366.52	30.43
366.72	25.75
366.91	18.72
367.11	0.00
367.31	16.38
367.51	0.00
367.70	0.00
367.90	11.70
368.10	0.00
368.30	86.60
368.49	0.00
368.69	49.15
368.89	98.30
369.09	77.24
369.28	93.62
369.48	74.90
369.68	100.64
369.87	110.01
370.07	114.69
370.27	100.64
370.47	248.10
370.66	437.68
370.86	451.72
371.06	386.19
371.25	433.00
371.45	374.49
371.65	514.92
371.84	498.53
372.04	418.96
372.24	533.64
372.44	477.47
372.63	489.17
372.83	470.45
373.03	491.51
373.22	514.92
373.42	514.92
373.62	503.22
373.81	489.17
374.01	559.39
374.21	528.96
374.40	498.53
374.60	517.26
374.79	540.66
374.99	456.40
375.19	568.75
375.38	627.26
375.58	643.65
375.78	559.39
375.97	643.65
376.17	610.88
376.37	519.60
376.56	667.05
376.76	573.43
376.95	543.00
377.15	503.22
377.35	608.54
377.54	653.01
377.74	571.09
377.93	634.29
378.13	634.29
378.33	709.18
378.52	655.35
378.72	678.76
378.91	671.73
379.11	587.47
379.31	606.20
379.50	631.94
379.70	678.76
379.89	674.07
380.09	690.46
380.28	664.71
380.48	695.14
380.68	723.23
380.87	592.16
381.07	655.35
381.26	699.82
381.46	711.52
381.65	746.63
381.85	727.91
382.04	704.50
382.24	674.07
382.43	697.48
382.63	662.37
382.83	711.52
383.02	704.50
383.22	763.01
383.41	702.16
383.61	748.97
383.80	706.84
384.00	770.04
384.19	774.72
384.39	873.02
384.58	821.53
384.78	847.27
384.97	805.14
385.17	819.19
385.36	777.06
385.56	772.38
385.75	734.93
385.95	877.70
386.14	814.51
386.34	819.19
386.53	849.61
386.72	791.10
386.92	877.70
387.11	849.61
387.31	821.53
387.50	791.10
387.70	924.51
387.89	880.04
388.09	849.61
388.28	901.11
388.48	959.62
388.67	898.77
388.86	912.81
389.06	952.60
389.25	997.07
389.45	992.39
389.64	973.66
389.84	964.30
390.03	994.73
390.22	987.71
390.42	954.94
390.61	1095.37
390.81	1130.48
391.00	1069.62
391.19	1064.94
391.39	1062.60
391.58	1086.01
391.78	1118.78
391.97	1074.31
392.16	968.98
392.36	1144.52
392.55	1078.99
392.75	1041.54
392.94	1025.15
393.13	1078.99
393.33	1004.09
393.52	1020.47
393.71	1100.05
393.91	1081.33
394.10	1102.39
394.29	1060.26
394.49	1102.39
394.68	1156.22
394.88	1200.69
395.07	1263.89
395.26	1245.16
395.46	1238.14
395.65	1228.78
395.84	1341.13
396.04	1214.74
396.23	1184.31
396.42	1207.72
396.62	1214.74
396.81	1205.38
397.00	1235.80
397.19	1245.16
397.39	1259.21
397.58	1411.34
397.77	1465.18
397.97	1409.00
398.16	1418.36
398.35	1416.02
398.55	1479.22
398.74	1514.33
398.93	1521.35
399.12	1547.09
399.32	1509.65
399.51	1455.81
399.70	1526.03
399.90	1483.90
400.09	1593.90
400.28	1596.25
400.47	1584.54
400.67	1607.95
400.86	1694.55
401.05	1664.12
401.24	1661.78
401.44	1710.93
401.63	1696.89
401.82	1621.99
402.01	1701.57
402.21	1703.91
402.40	1729.66
402.59	1776.47
402.78	1727.32
402.97	1834.98
403.17	1722.63
403.36	1785.83
403.55	1811.57
403.74	1888.81
403.93	1837.32
404.13	1823.28
404.32	1923.92
404.51	1912.22
404.70	1919.24
404.89	1956.69
405.09	1923.92
405.28	1914.56
405.47	1947.33
405.66	2003.50
405.85	1926.26
406.05	1888.81
406.24	2031.58
406.43	2024.56
406.62	2062.01
406.81	2083.08
407.00	1900.52
407.20	2008.18
407.39	2062.01
407.58	2108.82
407.77	2165.00
407.96	2193.08
408.15	2223.51
408.34	2186.06
408.54	2232.87
408.73	2167.34
408.92	2324.15
409.11	2193.08
409.30	2270.32
409.49	2193.08
409.68	2286.70
409.87	2251.60
410.07	2298.41
410.26	2396.71
410.45	2363.94
410.64	2377.98
410.83	2497.35
411.02	2476.29
411.21	2595.65
411.40	2518.42
411.59	2576.93
411.78	2600.34
411.98	2635.44
412.17	2649.49
412.36	2649.49
412.55	2693.96
412.74	2799.28
412.93	2717.36
413.12	2677.57
413.31	2878.86
413.50	2785.24
413.69	2843.75
413.88	2857.79
414.07	2869.50
414.26	2864.82
414.45	2860.13
414.64	2888.22
414.83	2946.73
415.02	3000.57
415.22	3042.70
415.41	3279.09
415.60	3101.21
415.79	3143.34
415.98	3194.83
416.17	3141.00
416.36	3281.43
416.55	3171.43
416.74	3199.51
416.93	3253.34
417.12	3325.90
417.31	3361.01
417.50	3421.86
417.69	3468.67
417.88	3405.48
418.07	3286.11
418.26	3442.93
418.45	3428.88
418.64	3627.83
418.83	3410.16
419.02	3489.74
419.21	3501.44
419.39	3609.11
419.58	3307.18
419.77	3550.59
419.96	3768.26
420.15	3763.58
420.34	3681.66
420.53	3721.45
420.72	3618.47
420.91	3730.81
421.10	3866.56
421.29	3815.07
421.48	3698.05
421.67	3868.91
421.86	3904.01
422.05	3777.62
422.24	3817.41
422.43	3815.07
422.61	3749.54
422.80	3822.09
422.99	3892.31
423.18	3889.97
423.37	3936.78
423.56	3929.76
423.75	3911.04
423.94	3826.78
424.13	3552.93
424.32	3836.14
424.50	3868.91
424.69	4039.76
424.88	4070.19
425.07	3992.95
425.26	3861.88
425.45	3899.33
425.64	3770.60
425.83	3922.74
426.01	3913.38
426.20	4004.66
426.39	4109.98
426.58	3920.40
426.77	3843.16
426.96	3838.48
427.15	3889.97
427.33	3999.98
427.52	4086.58
427.71	3941.46
427.90	4205.94
428.09	4098.28
428.28	4095.94
428.46	4163.81
428.65	4196.58
428.84	4280.84
429.03	4250.41
429.22	4145.09
429.40	4088.92
429.59	3981.25
429.78	3981.25
429.97	3981.25
430.16	4067.85
430.34	3995.29
430.53	4074.87
430.72	4086.58
430.91	4269.14
431.10	4269.14
431.28	4465.74
431.47	4652.98
431.66	4657.67
431.85	4535.96
432.03	4648.30
432.22	4662.35
432.41	4648.30
432.60	4725.54
432.79	4723.20
432.97	4652.98
433.16	4657.67
433.35	4681.07
433.54	4517.23
433.72	4568.73
433.91	4664.69
434.10	4575.75
434.28	4781.71
434.47	4741.93
434.66	4821.50
434.85	4798.10
435.03	4835.55
435.22	4856.61
435.41	4980.66
435.59	4973.64
435.78	4922.15
435.97	5104.71
436.16	5025.13
436.34	5151.52
436.53	5095.35
436.72	5397.28
436.90	5032.15
437.09	5081.30
437.28	5093.01
437.46	5177.26
437.65	5088.32
437.84	5153.86
438.02	5081.30
438.21	5184.29
438.40	5198.33
438.58	5261.52
438.77	5390.25
438.96	5397.28
439.14	5586.86
439.33	5476.85
439.52	5577.50
439.70	5701.54
439.89	5472.17
440.08	5643.03
440.26	5493.24
440.45	5652.39
440.63	5893.47
440.82	5902.83
441.01	5790.49
441.19	5921.56
441.38	6143.91
441.57	5884.11
441.75	6235.19
441.94	6300.72
442.12	6289.02
442.31	6253.91
442.50	6279.66
442.68	6310.08
442.87	6300.72
443.05	6417.75
443.24	6553.50
443.43	6499.67
443.61	6410.73
443.80	6590.95
443.98	6448.18
444.17	6272.64
444.35	6492.65
444.54	6628.40
444.73	6380.30
444.91	6581.59
445.10	6487.96
445.28	6286.68
445.47	6274.98
445.65	6282.00
445.84	6394.34
446.02	6691.59
446.21	6492.65
446.39	6445.84
446.58	6661.16
446.77	6679.89
446.95	6518.39
447.14	6693.93
447.32	6726.70
447.51	6537.12
447.69	6658.82
447.88	6691.59
448.06	6572.22
448.25	6745.42
448.43	6689.25
448.62	6609.67
448.80	6719.68
448.99	6846.07
449.17	6764.15
449.36	6733.72
449.54	6911.60
449.73	6967.77
449.91	7215.87
450.10	7073.10
450.28	7236.94
450.46	7047.35
450.65	7321.20
450.83	7171.40
451.02	7122.25
451.20	7204.17
451.39	7122.25
451.57	7206.51
451.76	7140.97
451.94	7232.26
452.13	7246.30
452.31	7162.04
452.49	6911.60
452.68	7176.08
452.86	7042.67
453.05	7157.36
453.23	7269.70
453.42	7185.44
453.60	7487.37
453.78	7428.86
453.97	7309.49
454.15	7274.38
454.34	7187.79
454.52	7372.69
454.70	7576.31
454.89	7496.74
455.07	7419.50
455.26	7613.76
455.44	7700.36
455.62	7480.35
455.81	7686.32
455.99	7679.30
456.17	7791.64
456.36	7805.69
456.54	7892.29
456.73	7840.79
456.91	8170.81
457.09	8046.76
457.28	8234.00
457.46	8131.02
457.64	8152.09
457.83	7997.61
458.01	7878.24
458.19	8166.13
458.38	7985.91
458.56	8250.39
458.74	8013.99
458.93	8339.33
459.11	8276.13
459.29	8116.98
459.48	8030.38
459.66	8308.90
459.84	8407.20
460.03	8592.11
460.21	8367.42
460.39	8365.07
460.57	8400.18
460.76	8545.30
460.94	8613.17
461.12	8526.57
461.31	8645.94
461.49	8585.08
461.67	8589.77
461.85	9088.30
462.04	8746.58
462.22	8940.85
462.40	8943.19
462.59	8840.20
462.77	8805.10
462.95	9071.92
463.13	8868.29
463.32	8849.57
463.50	8849.57
463.68	8802.75
463.86	8929.14
464.05	8816.80
464.23	8910.42
464.41	9118.73
464.59	9170.22
464.78	9092.98
464.96	8898.72
465.14	8910.42
465.32	9266.18
465.50	9224.05
465.69	9130.43
465.87	9144.47
466.05	9254.48
466.23	9109.36
466.41	9076.60
466.60	9385.55
466.78	8912.76
466.96	9092.98
467.14	9247.46
467.32	9336.40
467.51	9310.65
467.69	8990.00
467.87	9465.13
468.05	9621.94
468.23	9364.48
468.41	9228.73
468.60	9507.26
468.78	9406.61
468.96	9376.19
469.14	9692.16
469.32	9645.35
469.50	9593.86
469.69	9659.39
469.87	9916.85
470.05	9694.50
470.23	9916.85
470.41	9877.06
470.59	9853.66
470.77	9811.53
470.95	9867.70
471.14	10052.60
471.32	9909.83
471.50	10160.27
471.68	10190.69
471.86	10445.81
472.04	10188.35
472.22	10597.95
472.40	10169.63
472.58	10249.21
472.77	10391.98
472.95	10396.66
473.13	10839.02
473.31	10478.58
473.49	10429.43
473.67	10527.73
473.85	10724.33
474.03	10778.17
474.21	10857.75
474.39	10995.84
474.57	10857.75
474.75	11068.39
474.93	11089.46
475.12	11052.01
475.30	11080.10
475.48	11016.90
475.66	11337.56
475.84	11154.99
476.02	11398.41
476.20	11396.07
476.38	11541.18
476.56	11819.71
476.74	11985.88
476.92	11763.53
477.10	11798.64
477.28	12081.85
477.46	12109.93
477.64	12287.81
477.82	12351.01
478.00	12571.02
478.18	12421.22
478.36	12430.59
478.54	12526.55
478.72	12959.55
478.90	12814.43
479.08	13048.49
479.26	12779.32
479.44	12936.14
479.62	12952.52
479.80	13193.60
479.98	13415.95
480.16	13504.89
480.34	13532.98
480.52	13799.80
480.70	13755.33
480.88	13778.73
481.06	13781.07
481.24	13542.34
481.41	14221.10
481.59	14345.14
481.77	14207.05
481.95	14422.38
482.13	14644.73
482.31	14637.71
482.49	14621.33
482.67	15023.90
482.85	14986.45
483.03	15068.37
483.21	15407.75
483.39	15124.54
483.57	15110.50
483.74	15283.70
483.92	15538.82
484.10	15962.45
484.28	15941.39
484.46	16006.92
484.64	16248.00
484.82	16180.12
485.00	16084.16
485.18	16093.52
485.35	16360.34
485.53	16224.59
485.71	16013.95
485.89	16322.90
486.07	16341.62
486.25	16629.51
486.43	16961.86
486.61	16807.39
486.78	16833.13
486.96	17415.93
487.14	17563.38
487.32	17439.33
487.50	17678.07
487.68	18073.62
487.85	18492.57
488.03	18225.75
488.21	18560.45
488.39	18623.64
488.57	18733.65
488.75	18848.33
488.92	19136.22
489.10	19548.15
489.28	19438.15
489.46	19627.73
489.64	19293.04
489.81	20074.77
489.99	19782.21
490.17	20168.40
490.35	20472.67
490.53	20404.79
490.70	20531.18
490.88	20187.12
491.06	20545.22
491.24	20760.55
491.41	20615.44
491.59	20453.94
491.77	20723.10
491.95	21046.10
492.13	21420.58
492.30	21401.86
492.48	21261.43
492.66	21762.30
492.84	21483.78
493.01	21752.94
493.19	21687.40
493.37	21965.93
493.54	22345.09
493.72	22635.32
493.90	22464.46
494.08	22721.92
494.25	22700.86
494.43	23091.73
494.61	23082.36
494.79	23536.43
494.96	23293.01
495.14	23360.89
495.32	23737.71
495.49	23730.69
495.67	23548.13
495.85	24070.07
496.02	23903.89
496.20	24290.08
496.38	24531.15
496.55	24512.43
496.73	24805.00
496.91	24372.00
497.09	24477.32
497.26	25092.88
497.44	24800.32
497.62	25050.75
497.79	25284.81
497.97	25200.55
498.14	25130.33
498.32	25479.07
498.50	25776.32
498.67	25846.54
498.85	25914.41
499.03	26150.81
499.20	26103.99
499.38	26010.37
499.56	26199.96
499.73	26387.20
499.91	26331.03
500.08	26831.90
500.26	26073.57
500.44	26560.40
500.61	26668.06
500.79	26618.91
500.97	26644.66
501.14	26967.65
501.32	27126.81
501.49	26927.86
501.67	27292.99
501.84	27278.94
502.02	27119.79
502.20	27414.69
502.37	27405.33
502.55	27358.52
502.72	27704.92
502.90	27948.34
503.07	27672.15
503.25	27784.50
503.43	28222.18
503.60	28037.28
503.78	27924.93
503.95	28102.81
504.13	28077.07
504.30	28299.42
504.48	28395.38
504.65	28437.51
504.83	28650.50
505.01	29226.27
505.18	28931.36
505.36	29010.94
505.53	29380.74
505.71	29394.79
505.88	29544.58
506.06	29167.76
506.23	29614.80
506.41	29355.00
506.58	29614.80
506.76	29727.14
506.93	29923.75
507.11	29771.61
507.28	29752.89
507.46	29670.97
507.63	29675.65
507.81	30188.23
507.98	29734.17
508.16	30368.45
508.33	30764.00
508.50	30581.44
508.68	30579.10
508.85	31182.96
509.03	30628.25
509.20	30988.69
509.38	31033.16
509.55	30991.03
509.73	31321.05
509.90	31625.32
510.08	31112.74
510.25	31229.77
510.42	31250.83
510.60	31838.31
510.77	31740.00
510.95	31943.63
511.12	31798.52
511.30	32034.91
511.47	32189.39
511.64	32261.94
511.82	32229.18
511.99	31805.54
512.17	32091.09
512.34	31978.74
512.51	32407.06
512.69	32882.19
512.86	32507.70
513.04	32662.18
513.21	32617.71
513.38	32767.50
513.56	32627.07
513.73	32741.75
513.90	32971.13
514.08	32851.76
514.25	32608.34
514.43	33254.33
514.60	32772.18
514.77	33212.20
514.95	33284.76
515.12	33319.87
515.29	33670.95
515.47	34143.74
515.64	33401.79
515.81	33607.75
515.99	33738.82
516.16	33996.28
516.33	33247.31
516.51	33722.44
516.68	33347.95
516.85	33163.05
517.03	33319.87
517.20	33907.34
517.37	34110.97
517.54	34679.72
517.72	34094.58
517.89	33694.35
518.06	33844.15
518.24	34110.97
518.41	34202.25
518.58	34452.69
518.75	34178.84
518.93	34679.72
519.10	34813.13
519.27	34794.40
519.45	34951.22
519.62	35388.90
519.79	35445.07
519.96	35243.79
520.14	35416.99
520.31	35103.35
520.48	35358.47
520.65	35178.25
520.83	35758.70
521.00	35835.94
521.17	35751.68
521.34	35751.68
521.52	36224.47
521.69	36208.09
521.86	35999.78
522.03	36084.04
522.20	35971.69
522.38	36098.08
522.55	36332.14
522.72	36011.48
522.89	36275.96
523.07	36781.52
523.24	36086.38
523.41	36652.79
523.58	36697.26
523.75	36893.86
523.92	37074.09
524.10	37071.75
524.27	37266.01
524.44	37350.27
524.61	37233.24
524.78	37469.64
524.96	36992.17
525.13	37380.70
525.30	37827.74
525.47	37759.86
525.64	37684.97
525.81	37661.56
525.98	37593.68
526.16	37235.58
526.33	37027.28
526.50	37839.44
526.67	37191.11
526.84	37081.11
527.01	37387.72
527.18	37792.63
527.36	38162.43
527.53	37879.23
527.70	37956.47
527.87	38436.28
528.04	38277.12
528.21	37919.02
528.38	38258.40
528.55	38780.34
528.72	38843.53
528.89	38990.98
529.07	38707.78
529.24	38494.79
529.41	38859.91
529.58	38651.61
529.75	38986.30
529.92	38859.91
530.09	38803.74
530.26	39084.61
530.43	39274.19
530.60	39007.37
530.77	39044.82
530.94	39037.80
531.11	39777.40
531.28	39021.41
531.46	39321.00
531.63	39505.90
531.80	39508.24
531.97	39309.30
532.14	39529.31
532.31	38965.24
532.48	39423.98
532.65	39592.50
532.82	39330.36
532.99	39463.77
533.16	39585.48
533.33	39840.60
533.50	39927.20
533.67	39746.98
533.84	39599.52
534.01	40119.12
534.18	39775.06
534.35	40074.65
534.52	39929.54
534.69	40222.11
534.86	40086.36
535.03	40727.66
535.20	40622.34
535.37	40935.97
535.54	41109.17
535.71	40662.13
535.88	40348.50
536.05	40669.15
536.22	40556.80
536.38	40596.59
536.55	40275.94
536.72	40601.27
536.89	40212.74
537.06	40722.98
537.23	40769.79
537.40	40788.52
537.57	41120.87
537.74	41326.84
537.91	41069.38
538.08	41027.25
538.25	40842.35
538.42	41141.94
538.59	41443.87
538.75	40896.18
538.92	40629.36
539.09	41584.30
539.26	41305.77
539.43	41034.27
539.60	41371.31
539.77	41268.33
539.94	41649.83
540.11	41326.84
540.28	41834.74
540.44	41820.69
540.61	41448.55
540.78	41179.39
540.95	41474.29
541.12	41411.10
541.29	41390.03
541.46	41219.17
541.62	41801.97
541.79	41738.77
541.96	41352.58
542.13	41617.07
542.30	41883.89
542.47	41818.35
542.63	41928.36
542.80	42085.17
542.97	42480.72
543.14	42197.52
543.31	42071.13
543.48	42375.40
543.64	43210.97
543.81	42670.31
543.98	42937.13
544.15	42728.82
544.32	42820.10
544.48	42920.74
544.65	42462.00
544.82	42834.14
544.99	42803.72
545.16	42988.62
545.32	42550.94
545.49	43246.08
545.66	43035.43
545.83	43012.02
546.00	43037.77
546.16	42742.86
546.33	43159.48
546.50	42644.56
546.67	43269.48
546.83	42726.48
547.00	43185.22
547.17	42974.58
547.34	43042.45
547.50	43311.61
547.67	43119.69
547.84	43636.95
548.00	43234.38
548.17	43821.85
548.34	43250.76
548.51	43805.47
548.67	43789.08
548.84	43662.69
549.01	43304.59
549.18	43428.64
549.34	44006.75
549.51	43739.93
549.68	43840.57
549.84	43498.86
550.01	44233.78
550.18	43700.14
550.34	44002.07
550.51	43578.43
550.68	43772.70
550.84	43363.11
551.01	44128.46
551.18	43894.41
551.34	43728.23
551.51	44172.93
551.68	44292.30
551.84	44086.33
552.01	44348.47
552.18	44130.80
552.34	43859.30
552.51	44069.95
552.68	44196.34
552.84	44463.16
553.01	44346.13
553.18	44727.64
553.34	43929.51
553.51	43529.28
553.67	43945.90
553.84	44210.38
554.01	44549.76
554.17	44725.30
554.34	44870.41
554.51	44615.29
554.67	44839.98
554.84	44215.06
555.00	44339.11
555.17	44545.08
555.33	44554.44
555.50	44598.91
555.67	44954.67
555.83	44535.71
556.00	44945.31
556.16	44481.88
556.33	45230.85
556.50	44718.28
556.66	44638.70
556.83	44505.29
556.99	45038.93
557.16	44914.88
557.32	45069.36
557.49	44912.54
557.65	45071.70
557.82	44603.59
557.98	44556.78
558.15	44989.78
558.32	45017.86
558.48	44285.28
558.65	45083.40
558.81	45083.40
558.98	44830.62
559.14	44844.66
559.31	45242.56
559.47	44673.81
559.64	45036.59
559.80	45167.66
559.97	45090.42
560.13	44713.59
560.30	44811.90
560.46	44879.77
560.63	45553.85
560.79	45647.47
560.96	45315.11
561.12	45221.49
561.29	45102.12
561.45	44832.96
561.61	44905.52
561.78	45368.94
561.94	45123.19
562.11	45027.23
562.27	45237.87
562.44	45244.90
562.60	45516.40
562.77	45453.20
562.93	45095.10
563.10	45780.88
563.26	45067.02
563.42	45621.72
563.59	45357.24
563.75	45125.53
563.92	45691.94
564.08	45457.88
564.24	45638.11
564.41	45490.65
564.57	45200.43
564.74	45455.54
564.90	45904.93
565.07	45354.90
565.23	45598.32
565.39	45270.64
565.56	45518.74
565.72	45247.24
565.88	45523.42
566.05	45397.03
566.21	45448.52
566.38	45600.66
566.54	45705.98
566.70	45785.56
566.87	45759.81
567.03	45448.52
567.19	46120.26
567.36	45434.48
567.52	45804.28
567.68	45991.53
567.85	45603.00
568.01	45752.79
568.17	45881.52
568.34	45439.16
568.50	45642.79
568.66	45446.18
568.83	45745.77
568.99	45724.71
569.15	45628.74
569.32	45865.14
569.48	45738.75
569.64	45963.44
569.81	45790.24
569.97	45160.64
570.13	45921.31
570.30	45291.71
570.46	45343.20
570.62	45272.98
570.78	45312.77
570.95	45713.00
571.11	45528.10
571.27	45535.12
571.43	45855.78
571.60	45951.74
571.76	45588.95
571.92	45617.04
572.09	45546.82
572.25	45455.54
572.41	46033.66
572.57	45993.87
572.74	45855.78
572.90	45720.02
573.06	45900.25
573.22	46248.99
573.38	45954.08
573.55	45666.19
573.71	46080.47
573.87	46036.00
574.03	46204.52
574.20	46199.83
574.36	45975.14
574.52	45647.47
574.68	45902.59
574.84	46174.09
575.01	45736.41
575.17	46021.95
575.33	45640.45
575.49	45933.01
575.65	45921.31
575.82	46160.05
575.98	46174.09
576.14	46387.08
576.30	46401.12
576.46	46040.68
576.62	45656.83
576.79	45923.65
576.95	45713.00
577.11	46054.72
577.27	46328.56
577.43	46045.36
577.59	45647.47
577.75	45776.20
577.92	45614.70
578.08	45357.24
578.24	45881.52
578.40	45401.71
578.56	45811.31
578.72	45933.01
578.88	45996.21
579.04	45626.40
579.21	45811.31
579.37	45888.54
579.53	46227.92
579.69	45588.95
579.85	45890.88
580.01	46134.30
580.17	45649.81
580.33	45825.35
580.49	46052.38
580.65	45918.97
580.82	45757.47
580.98	45916.63
581.14	45565.55
581.30	46246.65
581.46	46082.81
581.62	46082.81
581.78	45689.60
581.94	46291.12
582.10	46150.68
582.26	45965.78
582.42	46050.04
582.58	46337.93
582.74	45893.22
582.90	46298.14
583.06	46307.50
583.22	46478.36
583.38	46031.32
583.54	46218.56
583.70	46232.60
583.86	46279.41
584.02	46024.29
584.18	46024.29
584.34	45944.72
584.50	45745.77
584.66	46087.49
584.82	45731.73
584.98	45862.80
585.14	46192.81
585.30	45827.69
585.46	46134.30
585.62	45830.03
585.78	45888.54
585.94	45640.45
586.10	45940.04
586.26	45696.62
586.42	46281.75
586.58	46438.57
586.74	46036.00
586.90	46363.67
587.06	46066.42
587.22	46288.77
587.38	46124.94
587.54	46513.47
587.70	46398.78
587.86	46080.47
588.02	45815.99
588.18	46433.89
588.34	45698.96
588.49	45518.74
588.65	45490.65
588.81	45570.23
588.97	45846.41
589.13	45563.21
589.29	45797.26
589.45	46064.08
589.61	46213.88
589.77	46075.79
589.93	46052.38
