SpectraSuite Data File
++++++++++++++++++++++++++++++++++++
Date: Fri Oct 25 11:24:07 EDT 2013
User: price-jones
Dark Spectrum Present: No
Reference Spectrum Present: No
Number of Sampled Component Spectra: 1
Spectrometers: USB2+H05261
Integration Time (usec): 100000 (USB2+H05261)
Spectra Averaged: 1 (USB2+H05261)
Boxcar Smoothing: 0 (USB2+H05261)
Correct for Electrical Dark: No (USB2+H05261)
Strobe/Lamp Enabled: No (USB2+H05261)
Correct for Detector Non-linearity: No (USB2+H05261)
Correct for Stray Light: No (USB2+H05261)
Number of Pixels in Processed Spectrum: 2048
>>>>>Begin Processed Spectral Data<<<<<
365.73	203.63
365.92	203.63
366.12	203.63
366.32	152.13
366.52	114.69
366.72	119.37
366.91	126.39
367.11	140.43
367.31	173.20
367.51	72.56
367.70	128.73
367.90	180.22
368.10	114.69
368.30	184.90
368.49	56.17
368.69	131.07
368.89	147.45
369.09	173.20
369.28	133.41
369.48	159.16
369.68	128.73
369.87	152.13
370.07	173.20
370.27	154.48
370.47	311.29
370.66	615.56
370.86	610.88
371.06	645.99
371.25	748.97
371.45	664.71
371.65	582.79
371.84	592.16
372.04	678.76
372.24	695.14
372.44	767.70
372.63	725.57
372.83	741.95
373.03	753.65
373.22	678.76
373.42	809.83
373.62	741.95
373.81	744.29
374.01	812.17
374.21	805.14
374.40	798.12
374.60	805.14
374.79	809.83
374.99	805.14
375.19	765.36
375.38	875.36
375.58	786.42
375.78	931.53
375.97	798.12
376.17	968.98
376.37	851.96
376.56	896.43
376.76	833.23
376.95	896.43
377.15	891.74
377.35	823.87
377.54	901.11
377.74	990.05
377.93	980.68
378.13	887.06
378.33	1029.84
378.52	901.11
378.72	894.08
378.91	884.72
379.11	812.17
379.31	1006.43
379.50	903.45
379.70	952.60
379.89	1011.11
380.09	950.26
380.28	990.05
380.48	954.94
380.68	877.70
380.87	901.11
381.07	1029.84
381.26	1025.15
381.46	952.60
381.65	1111.75
381.85	1053.24
382.04	1055.58
382.24	1013.45
382.43	1090.69
382.63	1046.22
382.83	1093.03
383.02	1142.18
383.22	1069.62
383.41	1071.97
383.61	1181.97
383.80	1135.16
384.00	1090.69
384.19	1076.65
384.39	1132.82
384.58	1102.39
384.78	1118.78
384.97	1188.99
385.17	1167.93
385.36	1125.80
385.56	1090.69
385.75	1170.27
385.95	1188.99
386.14	1228.78
386.34	1193.67
386.53	1228.78
386.72	1174.95
386.92	1284.95
387.11	1224.10
387.31	1322.40
387.50	1191.33
387.70	1313.04
387.89	1214.74
388.09	1322.40
388.28	1249.85
388.48	1233.46
388.67	1266.23
388.86	1308.36
389.06	1277.93
389.25	1380.92
389.45	1373.89
389.64	1380.92
389.84	1378.58
390.03	1343.47
390.22	1432.41
390.42	1315.38
390.61	1327.08
390.81	1387.94
391.00	1481.56
391.19	1448.79
391.39	1427.73
391.58	1385.60
391.78	1378.58
391.97	1589.22
392.16	1399.64
392.36	1486.24
392.55	1469.86
392.75	1483.90
392.94	1570.50
393.13	1600.93
393.33	1481.56
393.52	1497.94
393.71	1626.67
393.91	1586.88
394.10	1502.62
394.29	1643.06
394.49	1619.65
394.68	1650.08
394.88	1614.97
395.07	1720.29
395.26	1596.25
395.46	1741.36
395.65	1785.83
395.84	1788.17
396.04	1877.11
396.23	1743.70
396.42	1687.53
396.62	1853.70
396.81	1830.30
397.00	1895.83
397.19	1830.30
397.39	1818.60
397.58	1846.68
397.77	1778.81
397.97	1907.54
398.16	1942.64
398.35	1884.13
398.55	1837.32
398.74	1874.77
398.93	2024.56
399.12	1884.13
399.32	1930.94
399.51	1949.67
399.70	2024.56
399.90	1905.20
400.09	1994.14
400.28	2054.99
400.47	1952.01
400.67	1909.88
400.86	2115.84
401.05	2050.31
401.24	2108.82
401.44	2090.10
401.63	2207.13
401.82	2181.38
402.01	2125.21
402.21	2204.78
402.40	2106.48
402.59	2221.17
402.78	2244.57
402.97	2282.02
403.17	2209.47
403.36	2148.61
403.55	2260.96
403.74	2340.54
403.93	2237.55
404.13	2305.43
404.32	2375.64
404.51	2349.90
404.70	2443.52
404.89	2312.45
405.09	2551.18
405.28	2520.76
405.47	2509.05
405.66	2555.86
405.85	2614.38
406.05	2597.99
406.24	2581.61
406.43	2574.59
406.62	2679.91
406.81	2682.25
407.00	2717.36
407.20	2612.04
407.39	2656.51
407.58	2703.32
407.77	2773.53
407.96	2778.22
408.15	2932.69
408.34	2759.49
408.54	2892.90
408.73	2792.26
408.92	2892.90
409.11	2956.10
409.30	2867.16
409.49	2920.99
409.68	2806.30
409.87	2862.48
410.07	3052.06
410.26	2981.84
410.45	3019.29
410.64	3042.70
410.83	3080.14
411.02	3119.93
411.21	3192.49
411.40	3194.83
411.59	3157.38
411.78	3208.87
411.98	3220.58
412.17	3171.43
412.36	3236.96
412.55	3379.73
412.74	3344.63
412.93	3353.99
413.12	3463.99
413.31	3599.74
413.50	3461.65
413.69	3515.48
413.88	3618.47
414.07	3606.77
414.26	3637.19
414.45	3693.37
414.64	3854.86
414.83	3756.56
415.02	3719.11
415.22	3932.10
415.41	3864.22
415.60	3922.74
415.79	3946.14
415.98	4032.74
416.17	3985.93
416.36	3913.38
416.55	4063.17
416.74	4140.41
416.93	4002.32
417.12	4053.81
417.31	4135.73
417.50	4224.67
417.69	4407.23
417.88	4421.27
418.07	4166.15
418.26	4308.93
418.45	4402.55
418.64	4620.22
418.83	4528.94
419.02	4390.84
419.21	4470.42
419.39	4456.38
419.58	4582.77
419.77	4432.97
419.96	4589.79
420.15	4695.11
420.34	4624.90
420.53	4592.13
420.72	4610.86
420.91	4744.27
421.10	4772.35
421.29	4889.38
421.48	4821.50
421.67	4868.31
421.86	4800.44
422.05	4730.22
422.24	4650.64
422.43	4826.18
422.61	4896.40
422.80	4929.17
422.99	4896.40
423.18	4873.00
423.37	5032.15
423.56	4891.72
423.75	4828.53
423.94	4943.21
424.13	4578.09
424.32	4667.03
424.50	5125.77
424.69	5139.82
424.88	4992.36
425.07	4922.15
425.26	4840.23
425.45	4954.91
425.64	4994.70
425.83	4990.02
426.01	5057.90
426.20	5074.28
426.39	5041.51
426.58	5156.20
426.77	5060.24
426.96	5259.18
427.15	5125.77
427.33	5174.92
427.52	5172.58
427.71	5331.74
427.90	5266.21
428.09	5298.97
428.28	5380.89
428.46	5371.53
428.65	5373.87
428.84	5469.83
429.03	5465.15
429.22	5366.85
429.40	5572.82
429.59	5565.79
429.78	5441.75
429.97	5324.72
430.16	5530.69
430.34	5518.98
430.53	5617.29
430.72	5614.95
430.91	5582.18
431.10	5661.76
431.28	5701.54
431.47	5778.78
431.66	5898.15
431.85	5813.89
432.03	5984.75
432.22	5947.30
432.41	6040.92
432.60	5989.43
432.79	5905.17
432.97	6078.37
433.16	6073.69
433.35	5895.81
433.54	6157.95
433.72	6129.86
433.91	6094.76
434.10	6040.92
434.28	6174.33
434.47	6232.85
434.66	6101.78
434.85	6366.26
435.03	6338.17
435.22	6237.53
435.41	6562.86
435.59	6305.40
435.78	6340.51
435.97	6516.05
436.16	6459.88
436.34	6480.94
436.53	6593.29
436.72	6733.72
436.90	6516.05
437.09	6712.66
437.28	6600.31
437.46	6567.54
437.65	6707.98
437.84	6869.47
438.02	6806.28
438.21	6740.74
438.40	6761.81
438.58	7016.93
438.77	7007.56
438.96	7077.78
439.14	7052.03
439.33	7002.88
439.52	7115.23
439.70	7143.32
439.89	7295.45
440.08	7431.20
440.26	7194.81
440.45	7438.22
440.63	7513.12
440.82	7531.84
441.01	7658.23
441.19	7777.60
441.38	7817.39
441.57	7585.68
441.75	7819.73
441.94	7932.08
442.12	7887.61
442.31	8079.53
442.50	8079.53
442.68	7941.44
442.87	7908.67
443.05	8070.17
443.24	8367.42
443.43	8486.78
443.61	8367.42
443.80	8475.08
443.98	8306.56
444.17	7810.37
444.35	8454.02
444.54	8369.76
444.73	8344.01
444.91	8292.52
445.10	8334.65
445.28	8322.94
445.47	8348.69
445.65	8638.92
445.84	8519.55
446.02	8589.77
446.21	8416.57
446.39	8397.84
446.58	8304.22
446.77	8636.58
446.95	8313.58
447.14	8439.97
447.32	8468.06
447.51	8599.13
447.69	8320.60
447.88	8538.27
448.06	8702.11
448.25	8535.93
448.43	8760.63
448.62	8762.97
448.80	8505.51
448.99	8655.30
449.17	8774.67
449.36	8645.94
449.54	8863.61
449.73	8940.85
449.91	9137.45
450.10	8847.22
450.28	9027.45
450.46	8926.80
450.65	8924.46
450.83	9142.13
451.02	9210.01
451.20	9233.41
451.39	9254.48
451.57	9437.04
451.76	9214.69
451.94	9142.13
452.13	9385.55
452.31	9305.97
452.49	9247.46
452.68	9404.27
452.86	9451.08
453.05	9418.32
453.23	9511.94
453.42	9359.80
453.60	9535.34
453.78	9418.32
453.97	9479.17
454.15	9563.43
454.34	9568.11
454.52	9600.88
454.70	9767.06
454.89	9846.63
455.07	9724.93
455.26	9879.40
455.44	9914.51
455.62	9909.83
455.81	10155.58
455.99	9982.38
456.17	10118.14
456.36	9980.04
456.54	10036.22
456.73	10403.68
456.91	10569.86
457.09	10565.18
457.28	10672.84
457.46	10394.32
457.64	10689.23
457.83	10724.33
458.01	10530.07
458.19	10836.68
458.38	10827.32
458.56	10775.83
458.74	10602.63
458.93	10642.42
459.11	10714.97
459.29	10714.97
459.48	10799.23
459.66	10949.03
459.84	10904.56
460.03	11115.20
460.21	11000.52
460.39	10970.09
460.57	11012.22
460.76	11063.71
460.94	11372.66
461.12	11372.66
461.31	11190.10
461.49	11232.23
461.67	11375.00
461.85	11634.80
462.04	11185.42
462.22	11751.83
462.40	11772.89
462.59	11475.65
462.77	11421.81
462.95	11573.95
463.13	11644.17
463.32	11793.96
463.50	11562.25
463.68	11927.37
463.86	11901.62
464.05	11932.05
464.23	11552.88
464.41	11995.25
464.59	11606.72
464.78	12095.89
464.96	11702.68
465.14	11894.60
465.32	12053.76
465.50	12238.66
465.69	12269.09
465.87	12100.57
466.05	12070.14
466.23	12208.23
466.41	12133.34
466.60	12294.83
466.78	12362.71
466.96	12133.34
467.14	12381.43
467.32	12482.08
467.51	12685.70
467.69	12119.29
467.87	12325.26
468.05	12479.74
468.23	12629.53
468.41	12648.26
468.60	12608.47
468.78	12723.15
468.96	12669.32
469.14	12622.51
469.32	12872.95
469.50	12461.01
469.69	12950.18
469.87	13184.24
470.05	13069.55
470.23	13069.55
470.41	13053.17
470.59	13371.48
470.77	13170.19
470.95	13205.30
471.14	13486.17
471.32	13289.56
471.50	13715.54
471.68	13731.92
471.86	13797.46
472.04	13694.47
472.22	14164.92
472.40	13792.78
472.58	13827.88
472.77	14052.58
472.95	14209.39
473.13	14686.86
473.31	14277.27
473.49	14312.38
473.67	14111.09
473.85	14307.69
474.03	14698.56
474.21	14663.46
474.39	14499.62
474.57	14782.82
474.75	14913.89
474.93	14827.29
475.12	15012.20
475.30	14977.09
475.48	15066.03
475.66	15229.87
475.84	15173.69
476.02	15531.80
476.20	15342.21
476.38	15506.05
476.56	15981.18
476.74	16093.52
476.92	15810.32
477.10	16140.33
477.28	16276.09
477.46	16327.58
477.64	16327.58
477.82	16662.27
478.00	17003.99
478.18	16903.35
478.36	17125.70
478.54	16875.26
478.72	17399.54
478.90	17411.25
479.08	17816.16
479.26	17891.06
479.44	17891.06
479.62	17980.00
479.80	18169.58
479.98	18445.76
480.16	18731.31
480.34	18321.71
480.52	18735.99
480.70	18817.91
480.88	18700.88
481.06	18700.88
481.24	18822.59
481.41	19096.43
481.59	19295.38
481.77	19587.94
481.95	19599.65
482.13	19744.76
482.31	19639.44
482.49	20318.19
482.67	20362.66
482.85	20334.57
483.03	20688.00
483.21	21111.63
483.39	21153.76
483.57	20870.56
483.74	21097.59
483.92	21317.60
484.10	21078.86
484.28	21811.45
484.46	22162.53
484.64	22567.45
484.82	22225.73
485.00	22670.43
485.18	22607.23
485.35	22948.95
485.53	22534.68
485.71	23136.20
485.89	23651.11
486.07	23269.61
486.25	23300.03
486.43	23634.73
486.61	23953.04
486.78	23882.83
486.96	24170.71
487.14	24816.70
487.32	24503.07
487.50	25139.69
487.68	25029.69
487.85	25455.67
488.03	25722.49
488.21	25610.14
488.39	26129.74
488.57	26169.53
488.75	26150.81
488.92	26501.89
489.10	26649.34
489.28	26871.69
489.46	27154.90
489.64	27360.86
489.81	27683.86
489.99	27667.47
490.17	28051.32
490.35	27969.40
490.53	28362.61
490.70	28503.04
490.88	28254.95
491.06	29130.31
491.24	29184.14
491.41	29172.44
491.59	29500.11
491.77	29523.52
491.95	29862.90
492.13	30045.46
492.30	30277.17
492.48	30120.35
492.66	30244.40
492.84	30412.92
493.01	30455.05
493.19	30646.97
493.37	31157.21
493.54	30930.18
493.72	31548.08
493.90	31711.92
494.08	32086.40
494.25	32275.99
494.43	32252.58
494.61	32467.91
494.79	32849.42
494.96	32556.85
495.14	32535.79
495.32	32926.66
495.49	33172.41
495.67	33317.53
495.85	34171.82
496.02	33890.96
496.20	34398.85
496.38	34022.03
496.55	34148.42
496.73	34773.34
496.91	34782.70
497.09	34934.84
497.26	34824.83
497.44	35068.25
497.62	35534.01
497.79	35559.76
497.97	35662.74
498.14	36165.96
498.32	36376.61
498.50	36222.13
498.67	36598.96
498.85	36470.23
499.03	36514.70
499.20	36833.01
499.38	37319.84
499.56	37354.95
499.73	37553.90
499.91	37464.96
500.08	37965.83
500.26	37677.94
500.44	37745.82
500.61	38052.43
500.79	38209.25
500.97	38359.04
501.14	38480.75
501.32	38918.43
501.49	38745.23
501.67	38724.16
501.84	39035.45
502.02	39145.46
502.20	39365.47
502.37	39009.71
502.55	39445.05
502.72	39840.60
502.90	39435.69
503.07	39856.98
503.25	39749.32
503.43	39768.04
503.60	40170.61
503.78	40367.22
503.95	40629.36
504.13	40662.13
504.30	41165.34
504.48	40727.66
504.65	41095.13
504.83	41127.89
505.01	41703.67
505.18	41469.61
505.36	41907.29
505.53	41439.18
505.71	41581.96
505.88	41717.71
506.06	41605.36
506.23	42422.21
506.41	42190.50
506.58	42000.91
506.76	42197.52
506.93	42761.59
507.11	42230.29
507.28	42532.22
507.46	42663.28
507.63	43075.22
507.81	43386.51
507.98	43253.10
508.16	43388.85
508.33	43449.70
508.50	43676.74
508.68	43597.16
508.85	44186.97
509.03	43917.81
509.20	44332.09
509.38	44509.97
509.55	44821.26
509.73	44657.42
509.90	44912.54
510.08	44603.59
510.25	45008.50
510.42	44825.94
510.60	45170.00
510.77	45041.27
510.95	45677.90
511.12	45256.60
511.30	45638.11
511.47	45474.27
511.64	45099.78
511.82	46061.74
511.99	45783.22
512.17	45890.88
512.34	45975.14
512.51	46534.53
512.69	46719.43
512.86	46478.36
513.04	46670.28
513.21	46588.36
513.38	46766.24
513.56	46813.05
513.73	46651.56
513.90	47332.65
514.08	47206.26
514.25	47274.14
514.43	47505.85
514.60	47040.09
514.77	47667.35
514.95	47892.04
515.12	47777.36
515.29	48128.44
515.47	48217.38
515.64	48325.04
515.81	48020.77
515.99	48219.72
516.16	48376.53
516.33	48641.01
516.51	48823.58
516.68	48842.30
516.85	48896.13
517.03	48938.26
517.20	48825.92
517.37	48781.45
517.54	48839.96
517.72	49221.47
517.89	49184.02
518.06	49406.37
518.24	49560.84
518.41	49504.67
518.58	49418.07
518.75	49308.07
518.93	49645.10
519.10	49839.37
519.27	50021.93
519.45	50057.04
519.62	50279.39
519.79	50045.33
519.96	50248.96
520.14	50199.81
520.31	50281.73
520.48	50014.91
520.65	50632.81
520.83	50754.52
521.00	50749.84
521.17	50749.84
521.34	50731.11
521.52	50906.65
521.69	50789.62
521.86	51182.84
522.03	51243.69
522.20	51552.64
522.38	51459.02
522.55	51398.16
522.72	51585.41
522.89	51501.15
523.07	51711.80
523.24	51489.45
523.41	51749.24
523.58	51641.58
523.75	52051.17
523.92	51840.53
524.10	52205.65
524.27	51990.32
524.44	52177.56
524.61	52058.20
524.78	52418.64
524.96	52425.66
525.13	52488.85
525.30	52718.23
525.47	52577.79
525.64	52781.42
525.81	52877.38
525.98	52788.44
526.16	52814.19
526.33	52746.31
526.50	52942.92
526.67	52837.59
526.84	52924.19
527.01	52980.37
527.18	53214.42
527.36	53172.29
527.53	52921.85
527.70	53626.35
527.87	53708.27
528.04	53457.84
528.21	53326.77
528.38	53401.66
528.55	53829.98
528.72	53607.63
528.89	53654.44
529.07	53350.17
529.24	53322.08
529.41	53907.22
529.58	53539.75
529.75	53518.69
529.92	53949.35
530.09	53939.99
530.26	54204.47
530.43	53977.43
530.60	53975.09
530.77	54225.53
530.94	54319.15
531.11	54190.42
531.28	54239.57
531.46	54174.04
531.63	54593.00
531.80	54143.61
531.97	54394.05
532.14	54667.89
532.31	54614.06
532.48	54518.10
532.65	54642.15
532.82	54883.22
532.99	54553.21
533.16	54735.77
533.33	54927.69
533.50	55061.10
533.67	54841.09
533.84	54726.41
534.01	54923.01
534.18	55182.81
534.35	55224.94
534.52	55489.42
534.69	55107.91
534.86	55253.03
535.03	55337.29
535.20	55292.82
535.37	55557.30
535.54	55449.63
535.71	55292.82
535.88	55849.86
536.05	55737.52
536.22	55784.33
536.38	55695.39
536.55	55751.56
536.72	55796.03
536.89	55695.39
537.06	55503.46
537.23	55784.33
537.40	55580.70
537.57	55746.88
537.74	55943.48
537.91	56107.32
538.08	56238.39
538.25	55814.76
538.42	55653.26
538.59	56137.75
538.75	56032.42
538.92	56018.38
539.09	56324.99
539.26	56083.92
539.43	56023.06
539.60	56299.25
539.77	56266.48
539.94	56516.92
540.11	56381.16
540.28	56652.67
540.44	56500.53
540.61	56495.85
540.78	56219.67
540.95	56474.79
541.12	56619.90
541.29	56488.83
541.46	56381.16
541.62	56638.62
541.79	56795.44
541.96	56591.81
542.13	56622.24
542.30	56828.21
542.47	56919.49
542.63	56968.64
542.80	56954.60
542.97	57144.18
543.14	57176.95
543.31	57226.10
543.48	57193.33
543.64	57584.20
543.81	57347.81
543.98	57677.82
544.15	57532.71
544.32	57769.10
544.48	57626.33
544.65	57616.97
544.82	57453.13
544.99	57471.85
545.16	57652.08
545.32	57467.17
545.49	57563.14
545.66	57668.46
545.83	57675.48
546.00	58054.65
546.16	57839.32
546.33	57865.06
546.50	57773.78
546.67	57755.06
546.83	57413.34
547.00	57689.52
547.17	57675.48
547.34	57794.85
547.50	58017.20
547.67	58227.85
547.84	58000.82
548.00	58213.80
548.17	58361.26
548.34	58174.02
548.51	58316.79
548.67	58417.43
548.84	58251.25
549.01	57991.45
549.18	58227.85
549.34	58487.65
549.51	58232.53
549.68	58527.44
549.84	58461.90
550.01	58220.83
550.18	58485.31
550.34	58738.08
550.51	58527.44
550.68	58637.44
550.84	58274.66
551.01	58562.54
551.18	58590.63
551.34	58705.32
551.51	58710.00
551.68	58532.12
551.84	58670.21
552.01	58422.11
552.18	58920.65
552.34	58497.01
552.51	58812.98
552.68	58775.53
552.84	58766.17
553.01	59178.10
553.18	58876.18
553.34	58810.64
553.51	59025.97
553.67	59014.27
553.84	58955.75
554.01	59255.34
554.17	58969.80
554.34	59192.15
554.51	59117.25
554.67	59309.18
554.84	59023.63
555.00	59128.95
555.17	59040.01
555.33	59107.89
555.50	59112.57
555.67	59082.14
555.83	59002.56
556.00	59231.94
556.16	59524.50
556.33	59234.28
556.50	59306.83
556.66	59454.29
556.83	59189.81
556.99	59517.48
557.16	59597.06
557.32	59636.85
557.49	59636.85
557.65	59594.72
557.82	59487.06
557.98	59587.70
558.15	59447.27
558.32	59700.04
558.48	59480.03
558.65	59524.50
558.81	59529.19
558.98	59739.83
559.14	59693.02
559.31	59688.34
559.47	59772.60
559.64	59693.02
559.80	59866.22
559.97	59868.56
560.13	59590.04
560.30	59625.15
560.46	59690.68
560.63	59987.93
560.79	59910.69
560.96	59896.65
561.12	59817.07
561.29	59873.24
561.45	60158.79
561.61	59934.10
561.78	59920.05
561.94	60016.02
562.11	59898.99
562.27	59887.29
562.44	60097.94
562.60	60315.61
562.77	60046.44
562.93	59634.51
563.10	60168.15
563.26	59962.18
563.42	60104.96
563.59	60053.47
563.75	59957.50
563.92	60114.32
564.08	60259.43
564.24	60329.65
564.41	60360.08
564.57	60346.03
564.74	60250.07
564.90	60385.82
565.07	60219.64
565.23	60147.09
565.39	60245.39
565.56	60360.08
565.72	60420.93
565.88	60470.08
566.05	60177.51
566.21	60360.08
566.38	60331.99
566.54	60303.90
566.70	60495.83
566.87	60481.78
567.03	60292.20
567.19	60460.72
567.36	60404.55
567.52	60395.18
567.68	60584.77
567.85	60598.81
568.01	60458.38
568.17	60313.26
568.34	60549.66
568.50	60608.17
568.66	60437.31
568.83	60654.98
568.99	60619.88
569.15	60458.38
569.32	60678.39
569.48	60453.70
569.64	60725.20
569.81	60540.30
569.97	60264.11
570.13	60601.15
570.30	60444.33
570.46	60657.32
570.62	60811.80
570.78	60732.22
570.95	60764.99
571.11	60662.00
571.27	60472.42
571.43	60743.92
571.60	60568.38
571.76	60619.88
571.92	60626.90
572.09	60654.98
572.25	60764.99
572.41	60580.09
572.57	60547.32
572.74	60977.98
572.90	60750.94
573.06	60837.54
573.22	60509.87
573.38	60823.50
573.55	60580.09
573.71	60882.02
573.87	60924.14
574.03	60552.00
574.20	60633.92
574.36	60594.13
574.52	60900.74
574.68	60970.96
574.84	60879.67
575.01	60821.16
575.17	60809.46
575.33	60718.18
575.49	60743.92
575.65	60804.78
575.82	61057.56
575.98	61172.24
576.14	61197.99
576.30	60947.55
576.46	60659.66
576.62	60900.74
576.79	60821.16
576.95	60643.28
577.11	60914.78
577.27	60882.02
577.43	60940.53
577.59	60863.29
577.75	60610.51
577.92	60739.24
578.08	60989.68
578.24	60811.80
578.40	61127.77
578.56	61031.81
578.72	60786.05
578.88	61134.79
579.04	61162.88
579.21	60722.86
579.37	61111.39
579.53	61045.85
579.69	60638.60
579.85	61031.81
580.01	60898.40
580.17	60952.23
580.33	61006.06
580.49	60865.63
580.65	61205.01
580.82	60954.57
580.98	60734.56
581.14	60884.36
581.30	61116.07
581.46	61031.81
581.62	60985.00
581.78	60994.36
581.94	61003.72
582.10	61205.01
582.26	60980.32
582.42	60889.04
582.58	61158.20
582.74	60966.27
582.90	61008.40
583.06	61080.96
583.22	61099.68
583.38	61043.51
583.54	61127.77
583.70	61179.26
583.86	60973.30
584.02	61010.74
584.18	61111.39
584.34	60940.53
584.50	60992.02
584.66	60921.80
584.82	60760.31
584.98	61221.39
585.14	61322.04
585.30	61041.17
585.46	61020.11
585.62	61174.58
585.78	61422.68
585.94	60982.66
586.10	60966.27
586.26	61188.63
586.42	61024.79
586.58	61116.07
586.74	61165.22
586.90	61118.41
587.06	61055.21
587.22	61130.11
587.38	61148.84
587.54	61305.65
587.70	61380.55
587.86	61188.63
588.02	61111.39
588.18	61317.35
588.34	61312.67
588.49	60821.16
