SpectraSuite Data File
++++++++++++++++++++++++++++++++++++
Date: Fri Oct 25 11:33:19 EDT 2013
User: price-jones
Dark Spectrum Present: No
Reference Spectrum Present: No
Number of Sampled Component Spectra: 1
Spectrometers: USB2+H05261
Integration Time (usec): 100000 (USB2+H05261)
Spectra Averaged: 1 (USB2+H05261)
Boxcar Smoothing: 0 (USB2+H05261)
Correct for Electrical Dark: No (USB2+H05261)
Strobe/Lamp Enabled: No (USB2+H05261)
Correct for Detector Non-linearity: No (USB2+H05261)
Correct for Stray Light: No (USB2+H05261)
Number of Pixels in Processed Spectrum: 2048
>>>>>Begin Processed Spectral Data<<<<<
365.73	297.25
365.92	297.25
366.12	297.25
366.32	252.78
366.52	149.79
366.72	238.73
366.91	248.10
367.11	191.92
367.31	205.97
367.51	231.71
367.70	131.07
367.90	212.99
368.10	203.63
368.30	177.88
368.49	173.20
368.69	264.48
368.89	180.22
369.09	271.50
369.28	205.97
369.48	184.90
369.68	210.65
369.87	248.10
370.07	245.76
370.27	238.73
370.47	341.72
370.66	465.77
370.86	524.28
371.06	510.24
371.25	543.00
371.45	594.50
371.65	592.16
371.84	550.03
372.04	535.98
372.24	573.43
372.44	587.47
372.63	580.45
372.83	594.50
373.03	561.73
373.22	589.82
373.42	608.54
373.62	585.13
373.81	645.99
374.01	660.03
374.21	711.52
374.40	636.63
374.60	725.57
374.79	645.99
374.99	676.41
375.19	645.99
375.38	706.84
375.58	683.44
375.78	671.73
375.97	688.12
376.17	788.76
376.37	758.33
376.56	702.16
376.76	655.35
376.95	631.94
377.15	706.84
377.35	706.84
377.54	669.39
377.74	615.56
377.93	667.05
378.13	732.59
378.33	699.82
378.52	690.46
378.72	662.37
378.91	732.59
379.11	653.01
379.31	692.80
379.50	763.01
379.70	802.80
379.89	763.01
380.09	706.84
380.28	798.12
380.48	751.31
380.68	781.74
380.87	732.59
381.07	774.72
381.26	795.78
381.46	697.48
381.65	784.08
381.85	744.29
382.04	732.59
382.24	819.19
382.43	739.61
382.63	791.10
382.83	763.01
383.02	812.17
383.22	814.51
383.41	784.08
383.61	753.65
383.80	791.10
384.00	828.55
384.19	809.83
384.39	844.93
384.58	833.23
384.78	784.08
384.97	821.53
385.17	877.70
385.36	861.32
385.56	884.72
385.75	826.21
385.95	873.02
386.14	940.90
386.34	786.42
386.53	877.70
386.72	866.00
386.92	894.08
387.11	833.23
387.31	961.96
387.50	861.32
387.70	847.27
387.89	917.49
388.09	795.78
388.28	873.02
388.48	929.19
388.67	917.49
388.86	922.17
389.06	994.73
389.25	966.64
389.45	891.74
389.64	917.49
389.84	936.21
390.03	1032.18
390.22	1057.92
390.42	952.60
390.61	992.39
390.81	952.60
391.00	943.24
391.19	997.07
391.39	1013.45
391.58	950.26
391.78	959.62
391.97	1100.05
392.16	936.21
392.36	1097.71
392.55	1048.56
392.75	1018.13
392.94	1043.88
393.13	1137.50
393.33	1060.26
393.52	1067.28
393.71	1097.71
393.91	1104.73
394.10	1029.84
394.29	1086.01
394.49	1093.03
394.68	1163.25
394.88	1114.10
395.07	1203.04
395.26	1170.27
395.46	1144.52
395.65	1165.59
395.84	1198.35
396.04	1296.66
396.23	1163.25
396.42	1156.22
396.62	1203.04
396.81	1217.08
397.00	1247.51
397.19	1242.82
397.39	1247.51
397.58	1287.29
397.77	1289.64
397.97	1341.13
398.16	1263.89
398.35	1203.04
398.55	1226.44
398.74	1270.91
398.93	1320.06
399.12	1294.32
399.32	1343.47
399.51	1245.16
399.70	1376.24
399.90	1256.87
400.09	1371.55
400.28	1441.77
400.47	1355.17
400.67	1385.60
400.86	1376.24
401.05	1366.87
401.24	1432.41
401.44	1455.81
401.63	1373.89
401.82	1371.55
402.01	1439.43
402.21	1451.13
402.40	1467.52
402.59	1511.99
402.78	1600.93
402.97	1511.99
403.17	1540.07
403.36	1586.88
403.55	1528.37
403.74	1607.95
403.93	1591.56
404.13	1614.97
404.32	1647.74
404.51	1708.59
404.70	1717.95
404.89	1631.35
405.09	1750.72
405.28	1621.99
405.47	1696.89
405.66	1769.44
405.85	1755.40
406.05	1666.46
406.24	1837.32
406.43	1762.42
406.62	1762.42
406.81	1940.30
407.00	1776.47
407.20	1785.83
407.39	1867.75
407.58	1804.55
407.77	1886.47
407.96	1968.39
408.15	1966.05
408.34	1851.36
408.54	1968.39
408.73	1860.73
408.92	1874.77
409.11	1916.90
409.30	1977.75
409.49	2057.33
409.68	2045.63
409.87	2012.86
410.07	2064.35
410.26	2064.35
410.45	1963.71
410.64	2080.74
410.83	2169.68
411.02	2083.08
411.21	2204.78
411.40	2162.66
411.59	2181.38
411.78	2270.32
411.98	2258.62
412.17	2270.32
412.36	2319.47
412.55	2296.07
412.74	2354.58
412.93	2317.13
413.12	2324.15
413.31	2544.16
413.50	2370.96
413.69	2427.14
413.88	2417.77
414.07	2567.57
414.26	2499.69
414.45	2581.61
414.64	2581.61
414.83	2532.46
415.02	2656.51
415.22	2712.68
415.41	2651.83
415.60	2581.61
415.79	2736.09
415.98	2759.49
416.17	2750.13
416.36	2862.48
416.55	2766.51
416.74	2808.64
416.93	2822.69
417.12	2785.24
417.31	2939.71
417.50	2909.29
417.69	3038.02
417.88	3016.95
418.07	2974.82
418.26	2946.73
418.45	3026.31
418.64	3159.72
418.83	3192.49
419.02	2988.86
419.21	3054.40
419.39	3108.23
419.58	3054.40
419.77	3155.04
419.96	3232.28
420.15	3115.25
420.34	3253.34
420.53	3201.85
420.72	3323.56
420.91	3208.87
421.10	3211.22
421.29	3314.20
421.48	3283.77
421.67	3328.24
421.86	3295.47
422.05	3346.97
422.24	3337.60
422.43	3302.50
422.61	3393.78
422.80	3398.46
422.99	3396.12
423.18	3384.41
423.37	3447.61
423.56	3426.54
423.75	3433.57
423.94	3346.97
424.13	3283.77
424.32	3255.69
424.50	3555.27
424.69	3590.38
424.88	3531.87
425.07	3501.44
425.26	3440.59
425.45	3475.70
425.64	3473.36
425.83	3531.87
426.01	3513.14
426.20	3604.42
426.39	3585.70
426.58	3513.14
426.77	3456.97
426.96	3658.26
427.15	3578.68
427.33	3672.30
427.52	3524.85
427.71	3646.55
427.90	3543.57
428.09	3604.42
428.28	3646.55
428.46	3740.18
428.65	3861.88
428.84	3733.15
429.03	3768.26
429.22	3510.80
429.40	3751.88
429.59	3691.02
429.78	3709.75
429.97	3700.39
430.16	3843.16
430.34	3761.24
430.53	3950.82
430.72	3955.51
430.91	3967.21
431.10	3904.01
431.28	4028.06
431.47	3964.87
431.66	4014.02
431.85	4131.05
432.03	3978.91
432.22	4124.02
432.41	4124.02
432.60	3962.53
432.79	4074.87
432.97	4074.87
433.16	4198.92
433.35	4152.11
433.54	4222.33
433.72	4126.36
433.91	4215.30
434.10	4234.03
434.28	4121.68
434.47	4044.45
434.66	4273.82
434.85	4299.56
435.03	4337.01
435.22	4337.01
435.41	4311.27
435.59	4463.40
435.78	4493.83
435.97	4386.16
436.16	4329.99
436.34	4395.53
436.53	4472.76
436.72	4669.37
436.90	4489.15
437.09	4498.51
437.28	4430.63
437.46	4507.87
437.65	4566.39
437.84	4512.55
438.02	4550.00
438.21	4603.83
438.40	4844.91
438.58	4837.89
438.77	4760.65
438.96	4784.06
439.14	4901.08
439.33	5034.49
439.52	4917.47
439.70	4830.87
439.89	4997.04
440.08	5011.09
440.26	4954.91
440.45	5039.17
440.63	5076.62
440.82	5259.18
441.01	5198.33
441.19	5259.18
441.38	5439.40
441.57	5128.11
441.75	5408.98
441.94	5383.23
442.12	5462.81
442.31	5404.30
442.50	5416.00
442.68	5509.62
442.87	5565.79
443.05	5743.67
443.24	5495.58
443.43	5778.78
443.61	5654.73
443.80	5872.40
443.98	5413.66
444.17	5462.81
444.35	5488.56
444.54	5834.96
444.73	5727.29
444.91	5586.86
445.10	5879.43
445.28	5636.01
445.47	5724.95
445.65	5612.60
445.84	5654.73
446.02	5879.43
446.21	5729.63
446.39	5729.63
446.58	5818.57
446.77	5743.67
446.95	5706.23
447.14	5799.85
447.32	6012.84
447.51	5771.76
447.69	5753.04
447.88	5895.81
448.06	5994.11
448.25	5816.23
448.43	5877.09
448.62	5994.11
448.80	5841.98
448.99	5954.32
449.17	6015.18
449.36	5966.03
449.54	5937.94
449.73	6038.58
449.91	6195.40
450.10	6083.05
450.28	6188.38
450.46	6174.33
450.65	6092.41
450.83	6153.27
451.02	6174.33
451.20	6150.93
451.39	6258.59
451.57	6221.14
451.76	6326.47
451.94	6218.80
452.13	6436.47
452.31	6406.05
452.49	6296.04
452.68	6394.34
452.86	6401.37
453.05	6436.47
453.23	6448.18
453.42	6422.43
453.60	6361.58
453.78	6392.00
453.97	6417.75
454.15	6382.64
454.34	6272.64
454.52	6567.54
454.70	6663.51
454.89	6581.59
455.07	6839.05
455.26	6642.44
455.44	6705.63
455.62	6576.91
455.81	6682.23
455.99	6782.87
456.17	6979.48
456.36	6909.26
456.54	6906.92
456.73	6909.26
456.91	7059.06
457.09	6977.14
457.28	7375.03
457.46	6988.84
457.64	7077.78
457.83	7091.82
458.01	6967.77
458.19	7339.92
458.38	7330.56
458.56	7393.75
458.74	7206.51
458.93	7152.68
459.11	7279.07
459.29	7424.18
459.48	7288.43
459.66	7300.13
459.84	7475.67
460.03	7590.36
460.21	7328.22
460.39	7480.35
460.57	7375.03
460.76	7559.93
460.94	7616.10
461.12	7529.50
461.31	7559.93
461.49	7503.76
461.67	7625.47
461.85	7644.19
462.04	7562.27
462.22	8070.17
462.40	7798.66
462.59	7854.84
462.77	7824.41
462.95	7805.69
463.13	7957.82
463.32	8098.25
463.50	7999.95
463.68	7915.69
463.86	7901.65
464.05	7847.82
464.23	7885.26
464.41	8079.53
464.59	7988.25
464.78	8128.68
464.96	8159.11
465.14	8058.46
465.32	8269.11
465.50	8093.57
465.69	8245.71
465.87	8100.59
466.05	8217.62
466.23	8182.51
466.41	8224.64
466.60	8489.12
466.78	8166.13
466.96	8306.56
467.14	8266.77
467.32	8259.75
467.51	8372.10
467.69	8219.96
467.87	8432.95
468.05	8423.59
468.23	8498.49
468.41	8362.73
468.60	8245.71
468.78	8725.52
468.96	8547.64
469.14	8564.02
469.32	8793.39
469.50	8456.36
469.69	8767.65
469.87	8837.86
470.05	8870.63
470.23	8805.10
470.41	8842.54
470.59	8856.59
470.77	8798.07
470.95	8786.37
471.14	9027.45
471.32	8847.22
471.50	9029.79
471.68	9149.15
471.86	9104.68
472.04	9191.28
472.22	9254.48
472.40	9036.81
472.58	9294.27
472.77	9390.23
472.95	9547.05
473.13	9818.55
473.31	9350.44
473.49	9458.10
473.67	9451.08
473.85	9626.62
474.03	9958.98
474.21	9753.01
474.39	9767.06
474.57	10024.51
474.75	9937.91
474.93	10054.94
475.12	10195.37
475.30	10083.03
475.48	9980.04
475.66	9982.38
475.84	10040.90
476.02	10202.40
476.20	10174.31
476.38	10455.17
476.56	10853.06
476.74	10560.50
476.92	10661.14
477.10	10621.35
477.28	10930.30
477.46	10778.17
477.64	10843.70
477.82	11386.71
478.00	11293.08
478.18	11101.16
478.36	11243.93
478.54	11651.19
478.72	11414.79
478.90	11730.76
479.08	11660.55
479.26	11768.21
479.44	11555.22
479.62	11800.98
479.80	11983.54
479.98	11978.86
480.16	12807.41
480.34	12170.79
480.52	12318.24
480.70	12304.20
480.88	12049.08
481.06	12507.82
481.24	12521.87
481.41	12652.94
481.59	12776.98
481.77	12812.09
481.95	13256.79
482.13	13156.15
482.31	12908.05
482.49	13415.95
482.67	13303.60
482.85	13535.32
483.03	13547.02
483.21	13802.14
483.39	13635.96
483.57	13694.47
483.74	14005.77
483.92	13874.70
484.10	13949.59
484.28	14345.14
484.46	14682.18
484.64	14913.89
484.82	14747.72
485.00	15056.67
485.18	15009.86
485.35	15103.48
485.53	15314.13
485.71	15061.35
485.89	15632.44
486.07	15578.61
486.25	15494.35
486.43	15508.39
486.61	15632.44
486.78	15906.28
486.96	15805.64
487.14	16348.64
487.32	16215.23
487.50	16430.56
487.68	16514.82
487.85	16952.50
488.03	16690.36
488.21	17050.80
488.39	16943.14
488.57	17114.00
488.75	17376.14
488.92	17661.68
489.10	17603.17
489.28	17738.92
489.46	17872.33
489.64	17785.73
489.81	18459.81
489.99	18291.29
490.17	18118.09
490.35	18586.19
490.53	18714.92
490.70	18764.07
490.88	18806.20
491.06	19185.37
491.24	19232.18
491.41	19269.63
491.59	19161.97
491.77	19316.44
491.95	19569.22
492.13	19988.18
492.30	19735.40
492.48	19878.17
492.66	20091.16
492.84	20320.53
493.01	20215.21
493.19	20276.06
493.37	20397.77
493.54	20315.85
493.72	20943.11
493.90	20741.83
494.08	21088.23
494.25	21305.90
494.43	21205.25
494.61	21380.79
494.79	21488.46
494.96	21530.59
495.14	21582.08
495.32	21884.01
495.49	21811.45
495.67	22134.45
495.85	22195.30
496.02	22382.54
496.20	22490.21
496.38	22368.50
496.55	22419.99
496.73	22742.99
496.91	22927.89
497.09	23197.05
497.26	23260.24
497.44	23005.13
497.62	23161.94
497.79	23749.42
497.97	23414.72
498.14	23791.55
498.32	23955.38
498.50	23730.69
498.67	24278.38
498.85	24236.25
499.03	24177.73
499.20	24208.16
499.38	24657.54
499.56	24414.13
499.73	24318.17
499.91	24720.74
500.08	24971.18
500.26	25158.42
500.44	24697.33
500.61	24821.38
500.79	25062.46
500.97	24952.45
501.14	25598.44
501.32	25500.14
501.49	25411.20
501.67	25284.81
501.84	25514.18
502.02	25933.14
502.20	25954.20
502.37	25755.26
502.55	25972.92
502.72	25984.63
502.90	26073.57
503.07	25891.01
503.25	26434.01
503.43	26347.41
503.60	26567.42
503.78	26625.93
503.95	26398.90
504.13	26579.12
504.30	26731.26
504.48	26869.35
504.65	27000.42
504.83	26691.47
505.01	27585.55
505.18	27559.81
505.36	27580.87
505.53	27171.28
505.71	27646.41
505.88	27887.48
506.06	27779.82
506.23	27728.33
506.41	27676.83
506.58	27695.56
506.76	28210.48
506.93	27978.76
507.11	28063.02
507.28	28278.35
507.46	28608.37
507.63	28676.24
507.81	28648.16
507.98	28982.85
508.16	28194.09
508.33	28858.81
508.50	28886.89
508.68	29116.26
508.85	29420.53
509.03	29352.66
509.20	29310.53
509.38	29998.65
509.55	29542.24
509.73	29385.43
509.90	29467.34
510.08	29528.20
510.25	29558.63
510.42	29876.94
510.60	29827.79
510.77	30073.54
510.95	30199.93
511.12	30052.48
511.30	30426.96
511.47	30300.58
511.64	30469.09
511.82	30792.09
511.99	30410.58
512.17	31040.18
512.34	30522.93
512.51	31447.44
512.69	31159.55
512.86	31143.17
513.04	31454.46
513.21	31239.13
513.38	31246.15
513.56	31466.16
513.73	31222.75
513.90	31573.83
514.08	31222.75
514.25	31831.29
514.43	32095.77
514.60	31976.40
514.77	32086.40
514.95	32027.89
515.12	31681.49
515.29	31754.05
515.47	32624.73
515.64	32645.79
515.81	31945.97
515.99	32432.80
516.16	32748.78
516.33	32411.74
516.51	32912.61
516.68	32879.85
516.85	32769.84
517.03	33062.41
517.20	33642.86
517.37	33268.37
517.54	33357.32
517.72	33069.43
517.89	33088.15
518.06	33418.17
518.24	33266.03
518.41	33029.64
518.58	33366.68
518.75	33186.46
518.93	33303.48
519.10	33457.96
519.27	33923.72
519.45	33933.09
519.62	33741.16
519.79	34188.21
519.96	33844.15
520.14	34384.81
520.31	33949.47
520.48	34440.98
520.65	34125.01
520.83	34265.44
521.00	35030.80
521.17	34653.97
521.34	34815.47
521.52	34841.21
521.69	34864.62
521.86	34953.56
522.03	34976.97
522.20	35292.94
522.38	35798.49
522.55	35393.58
522.72	35091.65
522.89	35475.50
523.07	35381.88
523.24	35405.28
523.41	35971.69
523.58	35412.31
523.75	35805.52
523.92	35995.10
524.10	35929.56
524.27	35892.12
524.44	35997.44
524.61	35924.88
524.78	36180.00
524.96	36023.19
525.13	36264.26
525.30	36364.90
525.47	36191.70
525.64	36753.43
525.81	36856.42
525.98	36383.63
526.16	37022.59
526.33	36392.99
526.50	36861.10
526.67	36573.21
526.84	37062.38
527.01	36725.35
527.18	36912.59
527.36	37181.75
527.53	36943.02
527.70	37504.74
527.87	37738.80
528.04	37284.73
528.21	37338.57
528.38	37230.90
528.55	37603.05
528.72	37549.21
528.89	37605.39
529.07	37769.22
529.24	36996.85
529.41	37937.74
529.58	37621.77
529.75	37783.27
529.92	38431.60
530.09	38029.02
530.26	38064.13
530.43	38216.27
530.60	37654.54
530.77	38281.80
530.94	38204.56
531.11	38263.08
531.28	38272.44
531.46	38555.64
531.63	38586.07
531.80	38258.40
531.97	38714.80
532.14	38916.09
532.31	38600.12
532.48	39175.89
532.65	38632.88
532.82	38710.12
532.99	38911.41
533.16	38583.73
533.33	39117.37
533.50	39232.06
533.67	39278.87
533.84	39068.22
534.01	39096.31
534.18	39501.22
534.35	39840.60
534.52	39622.93
534.69	39210.99
534.86	39990.39
535.03	39714.21
535.20	39924.86
535.37	39913.16
535.54	40044.23
535.71	39625.27
535.88	40168.27
536.05	40215.08
536.22	40687.87
536.38	39957.63
536.55	40128.48
536.72	40072.31
536.89	39828.90
537.06	40018.48
537.23	40879.80
537.40	40404.67
537.57	40156.57
537.74	40311.05
537.91	40566.16
538.08	40528.72
538.25	39878.05
538.42	40418.71
538.59	40399.99
538.75	40517.01
538.92	41127.89
539.09	40912.56
539.26	40856.39
539.43	40870.43
539.60	40610.64
539.77	40907.88
539.94	41399.40
540.11	41462.59
540.28	40947.67
540.44	40697.24
540.61	40942.99
540.78	40987.46
540.95	41273.01
541.12	41078.74
541.29	40818.94
541.46	41294.07
541.62	41542.17
541.79	41588.98
541.96	41228.54
542.13	41425.14
542.30	41413.44
542.47	41053.00
542.63	41755.16
542.80	42117.94
542.97	42351.99
543.14	42487.74
543.31	42155.39
543.48	42043.04
543.64	42916.06
543.81	42342.63
543.98	42494.77
544.15	42583.71
544.32	42424.55
544.48	42911.38
544.65	42487.74
544.82	42927.77
544.99	42454.98
545.16	42450.30
545.32	43033.09
545.49	43150.12
545.66	42820.10
545.83	42600.09
546.00	43021.39
546.16	42850.53
546.33	42794.36
546.50	43030.75
546.67	42766.27
546.83	43124.37
547.00	42728.82
547.17	42972.24
547.34	42806.06
547.50	43428.64
547.67	42969.90
547.84	43096.28
548.00	43742.27
548.17	43578.43
548.34	43650.99
548.51	43351.40
548.67	43428.64
548.84	43690.78
549.01	43426.30
549.18	43002.66
549.34	43526.94
549.51	43800.79
549.68	43711.84
549.84	43641.63
550.01	43878.02
550.18	43962.28
550.34	44149.53
550.51	44329.75
550.68	44044.20
550.84	43777.38
551.01	44137.82
551.18	43882.70
551.34	44641.04
551.51	44474.86
551.68	43971.64
551.84	44126.12
552.01	44231.44
552.18	44292.30
552.34	44561.46
552.51	44566.14
552.68	44259.53
552.84	44325.07
553.01	44521.67
553.18	44470.18
553.34	44477.20
553.51	44444.43
553.67	44355.49
553.84	44797.85
554.01	44858.71
554.17	44952.33
554.34	45003.82
554.51	44975.73
554.67	44701.89
554.84	45008.50
555.00	44837.64
555.17	45043.61
555.33	45013.18
555.50	44746.36
555.67	44629.34
555.83	45310.43
556.00	45242.56
556.16	45457.88
556.33	45535.12
556.50	45228.51
556.66	45031.91
556.83	45193.40
556.99	45724.71
557.16	45298.73
557.32	45495.33
557.49	45591.30
557.65	45535.12
557.82	45624.06
557.98	45598.32
558.15	45237.87
558.32	45467.25
558.48	45282.34
558.65	45680.24
558.81	45584.27
558.98	45507.04
559.14	45277.66
559.31	45727.05
559.47	45556.19
559.64	45485.97
559.80	46068.76
559.97	45954.08
560.13	45434.48
560.30	46026.63
560.46	46321.54
560.63	46417.50
560.79	46314.52
560.96	46471.34
561.12	46092.17
561.29	46075.79
561.45	46508.79
561.61	45701.30
561.78	45443.84
561.94	45977.48
562.11	46059.40
562.27	46340.27
562.44	45949.40
562.60	46061.74
562.77	46518.15
562.93	45977.48
563.10	46541.55
563.26	46188.13
563.42	46726.46
563.59	46227.92
563.75	46361.33
563.92	46429.21
564.08	46174.09
564.24	46553.26
564.41	46609.43
564.57	46347.29
564.74	46204.52
564.90	46293.46
565.07	46279.41
565.23	46754.54
565.39	46380.06
565.56	46213.88
565.72	46197.49
565.88	46328.56
566.05	46602.41
566.21	46335.59
566.38	46693.69
566.54	46857.52
566.70	46815.40
566.87	46660.92
567.03	46679.64
567.19	46733.48
567.36	46185.79
567.52	46869.23
567.68	46834.12
567.85	46813.05
568.01	46920.72
568.17	46728.80
568.34	46913.70
568.50	47114.98
568.66	46185.79
568.83	47044.77
568.99	46689.01
569.15	46817.74
569.32	46405.80
569.48	46564.96
569.64	47016.68
569.81	46925.40
569.97	46958.17
570.13	47255.42
570.30	46735.82
570.46	47037.75
570.62	47171.16
570.78	47400.53
570.95	47269.46
571.11	47358.40
571.27	46852.84
571.43	46817.74
571.60	46660.92
571.76	47103.28
571.92	47065.83
572.09	46988.60
572.25	47171.16
572.41	46747.52
572.57	47016.68
572.74	47592.45
572.90	47044.77
573.06	47384.15
573.22	47187.54
573.38	47276.48
573.55	47370.10
573.71	47782.04
573.87	47290.52
574.03	47117.32
574.20	47428.62
574.36	47253.08
574.52	47227.33
574.68	47255.42
574.84	48102.69
575.01	47255.42
575.17	47414.57
575.33	47323.29
575.49	47325.63
575.65	47316.27
575.82	47349.04
575.98	47136.05
576.14	47679.05
576.30	47845.23
576.46	47583.09
576.62	47215.63
576.79	47384.15
576.95	46979.23
577.11	47051.79
577.27	47430.96
577.43	47641.60
577.59	47241.37
577.75	47447.34
577.92	47276.48
578.08	47580.75
578.24	47772.67
578.40	47407.55
578.56	47313.93
578.72	47449.68
578.88	47421.59
579.04	47634.58
579.21	47550.32
579.37	47318.61
579.53	47374.78
579.69	46986.25
579.85	47360.74
580.01	47618.20
580.17	47166.48
580.33	47887.36
580.49	47672.03
580.65	47700.12
580.82	47704.80
580.98	47655.65
581.14	47182.86
581.30	47295.21
581.46	47290.52
581.62	47723.52
581.78	47196.90
581.94	47636.92
582.10	47739.91
582.26	47686.07
582.42	47531.60
582.58	47475.43
582.74	47545.64
582.90	47819.49
583.06	47838.21
583.22	47381.80
583.38	47650.97
583.54	47737.57
583.70	47639.26
583.86	47739.91
584.02	47433.30
584.18	48109.71
584.34	47831.19
584.50	47695.44
584.66	48098.01
584.82	47739.91
584.98	48114.39
585.14	47599.47
585.30	47573.73
585.46	47908.43
585.62	47856.93
585.78	48020.77
585.94	47306.91
586.10	47973.96
586.26	47643.94
586.42	48268.87
586.58	47789.06
586.74	47615.86
586.90	47796.08
587.06	48112.05
587.22	47739.91
587.38	47578.41
587.54	47779.70
587.70	48205.67
587.86	47969.28
588.02	47931.83
588.18	47934.17
588.34	47452.02
588.49	47732.89
588.65	47557.35
588.81	48027.79
588.97	47824.17
589.13	47833.53
589.29	47936.51
589.45	47997.37
589.61	48107.37
589.77	48179.93
589.93	48177.59
590.08	48200.99
