SpectraSuite Data File
++++++++++++++++++++++++++++++++++++
Date: Fri Oct 25 11:33:44 EDT 2013
User: price-jones
Dark Spectrum Present: No
Reference Spectrum Present: No
Number of Sampled Component Spectra: 1
Spectrometers: USB2+H05261
Integration Time (usec): 100000 (USB2+H05261)
Spectra Averaged: 1 (USB2+H05261)
Boxcar Smoothing: 0 (USB2+H05261)
Correct for Electrical Dark: No (USB2+H05261)
Strobe/Lamp Enabled: No (USB2+H05261)
Correct for Detector Non-linearity: No (USB2+H05261)
Correct for Stray Light: No (USB2+H05261)
Number of Pixels in Processed Spectrum: 2048
>>>>>Begin Processed Spectral Data<<<<<
365.73	241.08
365.92	241.08
366.12	241.08
366.32	182.56
366.52	149.79
366.72	257.46
366.91	187.24
367.11	170.86
367.31	173.20
367.51	196.60
367.70	126.39
367.90	187.24
368.10	147.45
368.30	133.41
368.49	121.71
368.69	212.99
368.89	182.56
369.09	198.95
369.28	196.60
369.48	210.65
369.68	238.73
369.87	241.08
370.07	198.95
370.27	266.82
370.47	318.31
370.66	500.87
370.86	526.62
371.06	524.28
371.25	615.56
371.45	585.13
371.65	571.09
371.84	531.30
372.04	571.09
372.24	535.98
372.44	617.90
372.63	566.41
372.83	594.50
373.03	575.77
373.22	664.71
373.42	571.09
373.62	587.47
373.81	608.54
374.01	613.22
374.21	596.84
374.40	739.61
374.60	596.84
374.79	650.67
374.99	660.03
375.19	674.07
375.38	634.29
375.58	706.84
375.78	727.91
375.97	627.26
376.17	702.16
376.37	674.07
376.56	678.76
376.76	592.16
376.95	650.67
377.15	720.88
377.35	699.82
377.54	772.38
377.74	713.86
377.93	624.92
378.13	669.39
378.33	706.84
378.52	788.76
378.72	770.04
378.91	791.10
379.11	699.82
379.31	732.59
379.50	678.76
379.70	720.88
379.89	777.06
380.09	734.93
380.28	718.54
380.48	657.69
380.68	779.40
380.87	751.31
381.07	751.31
381.26	798.12
381.46	758.33
381.65	774.72
381.85	716.20
382.04	791.10
382.24	798.12
382.43	844.93
382.63	786.42
382.83	765.36
383.02	791.10
383.22	828.55
383.41	791.10
383.61	861.32
383.80	940.90
384.00	910.47
384.19	861.32
384.39	903.45
384.58	805.14
384.78	809.83
384.97	875.36
385.17	800.46
385.36	828.55
385.56	842.59
385.75	807.48
385.95	894.08
386.14	802.80
386.34	821.53
386.53	926.85
386.72	802.80
386.92	833.23
387.11	821.53
387.31	896.43
387.50	880.04
387.70	910.47
387.89	880.04
388.09	905.79
388.28	905.79
388.48	884.72
388.67	844.93
388.86	978.34
389.06	994.73
389.25	943.24
389.45	1022.81
389.64	994.73
389.84	945.58
390.03	961.96
390.22	990.05
390.42	1018.13
390.61	971.32
390.81	1032.18
391.00	1008.77
391.19	994.73
391.39	1004.09
391.58	968.98
391.78	1004.09
391.97	1053.24
392.16	971.32
392.36	1097.71
392.55	1034.52
392.75	1053.24
392.94	1029.84
393.13	1076.65
393.33	1029.84
393.52	1078.99
393.71	1097.71
393.91	1022.81
394.10	1090.69
394.29	1048.56
394.49	1074.31
394.68	1165.59
394.88	1093.03
395.07	1167.93
395.26	1139.84
395.46	1172.61
395.65	1107.07
395.84	1132.82
396.04	1247.51
396.23	1165.59
396.42	1275.59
396.62	1107.07
396.81	1284.95
397.00	1254.53
397.19	1217.08
397.39	1193.67
397.58	1221.76
397.77	1252.19
397.97	1181.97
398.16	1221.76
398.35	1310.70
398.55	1249.85
398.74	1266.23
398.93	1256.87
399.12	1212.40
399.32	1254.53
399.51	1331.76
399.70	1409.00
399.90	1317.72
400.09	1334.11
400.28	1432.41
400.47	1394.96
400.67	1334.11
400.86	1364.53
401.05	1446.45
401.24	1462.83
401.44	1383.26
401.63	1542.41
401.82	1441.77
402.01	1469.86
402.21	1502.62
402.40	1519.01
402.59	1460.49
402.78	1465.18
402.97	1596.25
403.17	1603.27
403.36	1575.18
403.55	1521.35
403.74	1605.61
403.93	1624.33
404.13	1565.82
404.32	1619.65
404.51	1526.03
404.70	1640.72
404.89	1689.87
405.09	1839.66
405.28	1603.27
405.47	1621.99
405.66	1652.42
405.85	1614.97
406.05	1729.66
406.24	1764.76
406.43	1743.70
406.62	1816.26
406.81	1888.81
407.00	1792.85
407.20	1795.19
407.39	1881.79
407.58	1839.66
407.77	1834.98
407.96	1909.88
408.15	1902.86
408.34	1921.58
408.54	1898.17
408.73	1954.35
408.92	2003.50
409.11	1947.33
409.30	1935.62
409.49	1975.41
409.68	1956.69
409.87	2012.86
410.07	2017.54
410.26	2104.14
410.45	2036.27
410.64	2165.00
410.83	2106.48
411.02	2223.51
411.21	2193.08
411.40	2188.40
411.59	2186.06
411.78	2113.50
411.98	2319.47
412.17	2188.40
412.36	2272.66
412.55	2385.01
412.74	2385.01
412.93	2307.77
413.12	2307.77
413.31	2403.73
413.50	2352.24
413.69	2420.11
413.88	2434.16
414.07	2399.05
414.26	2539.48
414.45	2525.44
414.64	2605.02
414.83	2633.10
415.02	2588.63
415.22	2612.04
415.41	2745.45
415.60	2719.70
415.79	2651.83
415.98	2733.75
416.17	2640.12
416.36	2750.13
416.55	2726.72
416.74	2726.72
416.93	2724.38
417.12	2841.41
417.31	2808.64
417.50	3014.61
417.69	2958.44
417.88	2956.10
418.07	2944.39
418.26	2970.14
418.45	3005.25
418.64	3115.25
418.83	3145.68
419.02	3094.19
419.21	3014.61
419.39	2916.31
419.58	3082.49
419.77	3248.66
419.96	3091.85
420.15	3211.22
420.34	3211.22
420.53	3246.32
420.72	3215.90
420.91	3162.06
421.10	3239.30
421.29	3332.92
421.48	3314.20
421.67	3372.71
421.86	3342.28
422.05	3262.71
422.24	3269.73
422.43	3410.16
422.61	3349.31
422.80	3538.89
422.99	3318.88
423.18	3361.01
423.37	3337.60
423.56	3232.28
423.75	3389.10
423.94	3342.28
424.13	3185.47
424.32	3311.86
424.50	3463.99
424.69	3585.70
424.88	3513.14
425.07	3471.01
425.26	3449.95
425.45	3478.04
425.64	3358.67
425.83	3468.67
426.01	3473.36
426.20	3550.59
426.39	3604.42
426.58	3529.53
426.77	3447.61
426.96	3653.58
427.15	3466.33
427.33	3541.23
427.52	3541.23
427.71	3602.08
427.90	3571.66
428.09	3637.19
428.28	3679.32
428.46	3669.96
428.65	3630.17
428.84	3845.50
429.03	3723.79
429.22	3676.98
429.40	3681.66
429.59	3782.31
429.78	3632.51
429.97	3684.00
430.16	3840.82
430.34	3749.54
430.53	3896.99
430.72	3854.86
430.91	3854.86
431.10	3836.14
431.28	4002.32
431.47	3929.76
431.66	3960.19
431.85	4018.70
432.03	4098.28
432.22	4086.58
432.41	4079.55
432.60	4081.89
432.79	4021.04
432.97	4170.83
433.16	4107.64
433.35	4255.09
433.54	4063.17
433.72	4191.90
433.91	4135.73
434.10	4201.26
434.28	4187.22
434.47	4285.52
434.66	4198.92
434.85	4355.74
435.03	4292.54
435.22	4351.06
435.41	4477.44
435.59	4533.62
435.78	4287.86
435.97	4358.08
436.16	4444.68
436.34	4440.00
436.53	4470.42
436.72	4641.28
436.90	4437.66
437.09	4531.28
437.28	4365.10
437.46	4486.81
437.65	4561.70
437.84	4631.92
438.02	4711.50
438.21	4713.84
438.40	4458.72
438.58	4826.18
438.77	4873.00
438.96	4739.58
439.14	4786.40
439.33	4987.68
439.52	4863.63
439.70	4990.02
439.89	5090.67
440.08	4910.44
440.26	4931.51
440.45	4975.98
440.63	5212.37
440.82	5174.92
441.01	5102.37
441.19	5210.03
441.38	5256.84
441.57	5329.40
441.75	5416.00
441.94	5472.17
442.12	5416.00
442.31	5427.70
442.50	5411.32
442.68	5509.62
442.87	5455.79
443.05	5486.22
443.24	5460.47
443.43	5507.28
443.61	5607.92
443.80	5666.44
443.98	5556.43
444.17	5387.91
444.35	5563.45
444.54	5675.80
444.73	5792.83
444.91	5526.00
445.10	5577.50
445.28	5577.50
445.47	5619.63
445.65	5762.40
445.84	5895.81
446.02	5743.67
446.21	5837.30
446.39	5617.29
446.58	5643.03
446.77	5703.89
446.95	5671.12
447.14	5696.86
447.32	5881.77
447.51	5863.04
447.69	5696.86
447.88	5806.87
448.06	5844.32
448.25	5874.74
448.43	5947.30
448.62	6071.35
448.80	5795.17
448.99	6017.52
449.17	5956.66
449.36	5912.19
449.54	6015.18
449.73	6022.20
449.91	6125.18
450.10	6099.44
450.28	6179.01
450.46	6043.26
450.65	6108.80
450.83	6078.37
451.02	6024.54
451.20	6127.52
451.39	6094.76
451.57	6244.55
451.76	6345.19
451.94	6228.17
452.13	6399.02
452.31	6293.70
452.49	6289.02
452.68	6483.28
452.86	6291.36
453.05	6462.22
453.23	6436.47
453.42	6462.22
453.60	6387.32
453.78	6258.59
453.97	6328.81
454.15	6434.13
454.34	6504.35
454.52	6525.41
454.70	6443.49
454.89	6588.61
455.07	6707.98
455.26	6530.09
455.44	6752.45
455.62	6789.89
455.81	6689.25
455.99	6806.28
456.17	6736.06
456.36	6785.21
456.54	6878.83
456.73	6942.03
456.91	7002.88
457.09	7075.44
457.28	7096.50
457.46	7016.93
457.64	6977.14
457.83	7194.81
458.01	7009.90
458.19	7145.66
458.38	7152.68
458.56	7140.97
458.74	7283.75
458.93	7241.62
459.11	7246.30
459.29	7140.97
459.48	7176.08
459.66	7426.52
459.84	7255.66
460.03	7386.73
460.21	7424.18
460.39	7316.51
460.57	7290.77
460.76	7377.37
460.94	7573.97
461.12	7468.65
461.31	7592.70
461.49	7300.13
461.67	7573.97
461.85	7630.15
462.04	7695.68
462.22	8119.32
462.40	7705.04
462.59	7543.55
462.77	7728.45
462.95	7857.18
463.13	7845.48
463.32	7915.69
463.50	7915.69
463.68	7960.16
463.86	7918.03
464.05	7903.99
464.23	7747.17
464.41	8187.19
464.59	7695.68
464.78	8032.72
464.96	8107.62
465.14	8086.55
465.32	8184.85
465.50	8205.92
465.69	8208.26
465.87	8131.02
466.05	7978.89
466.23	8098.25
466.41	8191.88
466.60	8262.09
466.78	8156.77
466.96	8423.59
467.14	8262.09
467.32	8215.28
467.51	8257.41
467.69	8252.73
467.87	8313.58
468.05	8341.67
468.23	8187.19
468.41	8461.04
468.60	8409.54
468.78	8519.55
468.96	8486.78
469.14	8416.57
469.32	8561.68
469.50	8383.80
469.69	8674.03
469.87	8711.47
470.05	8826.16
470.23	8795.73
470.41	8917.44
470.59	8786.37
470.77	8856.59
470.95	8971.27
471.14	8994.68
471.32	8622.53
471.50	9245.12
471.68	9128.09
471.86	9097.66
472.04	9125.75
472.22	9233.41
472.40	9291.93
472.58	9413.63
472.77	9205.33
472.95	9504.92
473.13	9621.94
473.31	9453.42
473.49	9516.62
473.67	9476.83
473.85	9483.85
474.03	9614.92
474.21	9731.95
474.39	9720.24
474.57	9963.66
474.75	9893.44
474.93	10178.99
475.12	9935.57
475.30	10080.69
475.48	9980.04
475.66	10216.44
475.84	10043.24
476.02	10193.03
476.20	10284.31
476.38	10427.09
476.56	10693.91
476.74	10656.46
476.92	10691.57
477.10	10516.03
477.28	10707.95
477.46	10792.21
477.64	11023.92
477.82	10813.28
478.00	11108.18
478.18	10967.75
478.36	11232.23
478.54	11169.04
478.72	11468.62
478.90	11562.25
479.08	11646.51
479.26	11777.58
479.44	11573.95
479.62	11810.34
479.80	12086.53
479.98	12119.29
480.16	12255.04
480.34	11740.13
480.52	12229.30
480.70	12341.64
480.88	12086.53
481.06	12180.15
481.24	12596.76
481.41	12451.65
481.59	12936.14
481.77	12837.84
481.95	13270.84
482.13	13074.23
482.31	13198.28
482.49	13453.40
482.67	13205.30
482.85	13626.60
483.03	13521.27
483.21	13664.05
483.39	13855.97
483.57	13818.52
483.74	14075.98
483.92	14047.90
484.10	13907.46
484.28	14312.38
484.46	14679.84
484.64	14754.74
484.82	14429.40
485.00	14626.01
485.18	14846.02
485.35	15190.08
485.53	15068.37
485.71	14904.53
485.89	15536.48
486.07	15335.19
486.25	15454.56
486.43	15543.50
486.61	15758.83
486.78	15812.66
486.96	16023.31
487.14	16152.04
487.32	16187.14
487.50	16341.62
487.68	16194.17
487.85	16601.42
488.03	16662.27
488.21	17151.45
488.39	17181.87
488.57	17095.27
488.75	17247.41
488.92	17610.19
489.10	17322.30
489.28	17502.53
489.46	17989.36
489.64	17783.39
489.81	18537.04
489.99	18298.31
490.17	18305.33
490.35	18499.59
490.53	18658.75
490.70	18916.21
490.88	18913.87
491.06	18721.95
491.24	18838.97
491.41	19077.71
491.59	19332.82
491.77	19489.64
491.95	19611.35
492.13	19435.81
492.30	19700.29
492.48	19714.33
492.66	19896.89
492.84	19826.68
493.01	19836.04
493.19	20327.55
493.37	20339.26
493.54	20236.27
493.72	20484.37
493.90	20725.44
494.08	20606.08
494.25	21025.03
494.43	21132.70
494.61	21081.21
494.79	21436.97
494.96	21385.47
495.14	21408.88
495.32	21839.54
495.49	21769.32
495.67	21848.90
495.85	22118.06
496.02	22143.81
496.20	22216.36
496.38	22419.99
496.55	22466.80
496.73	23410.04
496.91	22670.43
497.09	22810.86
497.26	23023.85
497.44	22932.57
497.62	23171.30
497.79	23440.47
497.97	23234.50
498.14	23529.41
498.32	23878.15
498.50	23447.49
498.67	24074.75
498.85	23812.61
499.03	24453.92
499.20	23920.28
499.38	24109.86
499.56	24542.86
499.73	24325.19
499.91	24669.25
500.08	24954.79
500.26	24790.95
500.44	24926.71
500.61	24795.64
500.79	24812.02
500.97	24833.08
501.14	25579.71
501.32	25570.35
501.49	25111.61
501.67	25633.55
501.84	25764.62
502.02	25671.00
502.20	25443.96
502.37	25671.00
502.55	25748.23
502.72	25811.43
502.90	25902.71
503.07	25778.66
503.25	26075.91
503.43	26096.97
503.60	26286.56
503.78	26422.31
503.95	26455.08
504.13	26637.64
504.30	27012.12
504.48	26387.20
504.65	26649.34
504.83	27021.48
505.01	27257.88
505.18	27173.62
505.36	27524.70
505.53	27433.42
505.71	27353.84
505.88	27536.40
506.06	27412.35
506.23	27936.63
506.41	27807.90
506.58	28191.75
506.76	27510.66
506.93	28093.45
507.11	28205.80
507.28	28390.70
507.46	28074.73
507.63	28243.24
507.81	28500.70
507.98	28484.32
508.16	28545.17
508.33	28470.28
508.50	28512.41
508.68	28821.36
508.85	28924.34
509.03	28793.27
509.20	29109.24
509.38	29404.15
509.55	29703.74
509.73	29315.21
509.90	29408.83
510.08	29500.11
510.25	29612.46
510.42	29729.48
510.60	29633.52
510.77	29944.81
510.95	30024.39
511.12	29802.04
511.30	29919.07
511.47	29851.19
511.64	29820.77
511.82	30459.73
511.99	30522.93
512.17	30649.32
512.34	30221.00
512.51	31021.46
512.69	30829.54
512.86	30881.03
513.04	30969.97
513.21	30735.92
513.38	31033.16
513.56	31089.34
513.73	31145.51
513.90	31206.36
514.08	30841.24
514.25	31847.67
514.43	31599.57
514.60	31637.02
514.77	31594.89
514.95	31744.69
515.12	31709.58
515.29	31618.30
515.47	32030.23
515.64	32070.02
515.81	31754.05
515.99	32055.98
516.16	32584.94
516.33	32165.98
516.51	32594.30
516.68	32414.08
516.85	32498.34
517.03	32772.18
517.20	32926.66
517.37	32947.72
517.54	33031.98
517.72	32636.43
517.89	33209.86
518.06	33226.24
518.24	33392.42
518.41	32877.51
518.58	32938.36
518.75	33394.76
518.93	33574.98
519.10	33656.90
519.27	33315.19
519.45	33376.04
519.62	33750.52
519.79	33914.36
519.96	33766.91
520.14	33790.31
520.31	33982.24
520.48	33745.84
520.65	34330.98
520.83	34064.16
521.00	34314.59
521.17	34038.41
521.34	34794.40
521.52	34550.99
521.69	34745.25
521.86	34731.21
522.03	34834.19
522.20	35115.06
522.38	35281.24
522.55	34904.41
522.72	34560.35
522.89	34937.18
523.07	35178.25
523.24	35154.85
523.41	35538.69
523.58	35391.24
523.75	35847.64
523.92	35522.31
524.10	35634.66
524.27	35728.28
524.44	36009.14
524.61	36098.08
524.78	35859.35
524.96	36243.20
525.13	36128.51
525.30	36203.41
525.47	36133.19
525.64	36196.38
525.81	36346.18
525.98	36631.72
526.16	36114.47
526.33	36690.24
526.50	36577.89
526.67	36390.65
526.84	36662.15
527.01	36243.20
527.18	36580.23
527.36	37067.06
527.53	37113.87
527.70	37352.61
527.87	37291.76
528.04	36863.44
528.21	37106.85
528.38	37277.71
528.55	37516.45
528.72	37116.22
528.89	36982.80
529.07	37373.67
529.24	37109.19
529.41	37148.98
529.58	37338.57
529.75	37333.89
529.92	37858.17
530.09	37792.63
530.26	37799.65
530.43	37940.08
530.60	37722.41
530.77	37699.01
530.94	37771.57
531.11	37862.85
531.28	38181.16
531.46	37893.27
531.63	38445.64
531.80	38415.21
531.97	38412.87
532.14	38258.40
532.31	38473.73
532.48	38852.89
532.65	39047.16
532.82	38520.54
532.99	38906.73
533.16	38082.86
533.33	39021.41
533.50	39136.10
533.67	38866.94
533.84	39005.03
534.01	39477.82
534.18	39241.42
534.35	39529.31
534.52	39220.36
534.69	39728.25
534.86	39316.32
535.03	38862.26
535.20	39225.04
535.37	39533.99
535.54	39952.94
535.71	39393.56
535.88	39622.93
536.05	39889.75
536.22	39999.76
536.38	40013.80
536.55	39608.89
536.72	39615.91
536.89	39475.48
537.06	39679.10
537.23	40030.18
537.40	39749.32
537.57	39983.37
537.74	39634.63
537.91	40594.25
538.08	40399.99
538.25	40306.37
538.42	40229.13
538.59	40678.51
538.75	40102.74
538.92	40685.53
539.09	40435.10
539.26	40678.51
539.43	40783.83
539.60	40781.49
539.77	40575.53
539.94	40727.66
540.11	40690.21
540.28	40907.88
540.44	40982.78
540.61	40715.96
540.78	40830.65
540.95	40760.43
541.12	41237.90
541.29	40542.76
541.46	40975.76
541.62	40858.73
541.79	41572.60
541.96	41148.96
542.13	41134.92
542.30	40950.01
542.47	41284.71
542.63	41455.57
542.80	41418.12
542.97	41855.80
543.14	41867.50
543.31	41649.83
543.48	42043.04
543.64	42403.49
543.81	42148.37
543.98	41961.12
544.15	42052.41
544.32	42082.83
544.48	42700.73
544.65	41954.10
544.82	42642.22
544.99	42099.22
545.16	42419.87
545.32	42073.47
545.49	42850.53
545.66	42986.28
545.83	42337.95
546.00	43079.90
546.16	42450.30
546.33	42382.42
546.50	42382.42
546.67	42885.64
546.83	42316.89
547.00	42801.38
547.17	42471.36
547.34	42801.38
547.50	42562.64
547.67	43309.27
547.84	43189.91
548.00	43267.14
548.17	43540.99
548.34	43309.27
548.51	43445.02
548.67	43351.40
548.84	42976.92
549.01	42712.44
549.18	43313.95
549.34	43810.15
549.51	43531.62
549.68	43505.88
549.84	43264.80
550.01	43945.90
550.18	42946.49
550.34	43400.55
550.51	43548.01
550.68	43690.78
550.84	43697.80
551.01	44168.25
551.18	43803.13
551.34	43526.94
551.51	43662.69
551.68	44079.31
551.84	44039.52
552.01	43433.32
552.18	44205.70
552.34	43796.10
552.51	44037.18
552.68	43452.05
552.84	44114.42
553.01	44119.10
553.18	44622.31
553.34	44369.54
553.51	44341.45
553.67	44641.04
553.84	44584.86
554.01	44612.95
554.17	44395.28
554.34	44694.87
554.51	44903.18
554.67	44641.04
554.84	44432.73
555.00	44404.64
555.17	44411.67
555.33	45048.29
555.50	44755.72
555.67	44416.35
555.83	44903.18
556.00	44816.58
556.16	45160.64
556.33	45071.70
556.50	44561.46
556.66	44870.41
556.83	44720.62
556.99	45151.27
557.16	45069.36
557.32	45179.36
557.49	45097.44
557.65	45017.86
557.82	45200.43
557.98	45118.51
558.15	45315.11
558.32	45399.37
558.48	44762.75
558.65	45172.34
558.81	45495.33
558.98	45125.53
559.14	45340.86
559.31	44987.44
559.47	45167.66
559.64	45507.04
559.80	45450.86
559.97	45298.73
560.13	45560.87
560.30	45680.24
560.46	46223.24
560.63	45837.05
560.79	45549.17
560.96	45778.54
561.12	46019.61
561.29	45933.01
561.45	45841.73
561.61	45769.18
561.78	46146.00
561.94	45474.27
562.11	45619.38
562.27	45549.17
562.44	45581.93
562.60	45965.78
562.77	45975.14
562.93	45750.45
563.10	45984.51
563.26	45738.75
563.42	46265.37
563.59	46073.45
563.75	45680.24
563.92	45918.97
564.08	45935.35
564.24	46263.03
564.41	46213.88
564.57	46293.46
564.74	46389.42
564.90	46096.85
565.07	45853.44
565.23	46099.19
565.39	46057.06
565.56	46169.41
565.72	46286.43
565.88	46148.34
566.05	46094.51
566.21	46569.64
566.38	46150.68
566.54	46251.33
566.70	46679.64
566.87	46532.19
567.03	46429.21
567.19	46244.30
567.36	46307.50
567.52	46588.36
567.68	46422.19
567.85	46623.47
568.01	46632.83
568.17	46658.58
568.34	46700.71
568.50	46658.58
568.66	46131.96
568.83	46660.92
568.99	46431.55
569.15	46450.27
569.32	46649.22
569.48	46653.90
569.64	46478.36
569.81	46607.09
569.97	47030.72
570.13	46946.47
570.30	46066.42
570.46	46862.21
570.62	46813.05
570.78	46801.35
570.95	46635.17
571.11	46808.37
571.27	46567.30
571.43	46541.55
571.60	46728.80
571.76	46794.33
571.92	46749.86
572.09	46686.67
572.25	46607.09
572.41	46581.34
572.57	46689.01
572.74	47351.38
572.90	46859.87
573.06	47119.66
573.22	46955.83
573.38	47365.42
573.55	46967.53
573.71	47353.72
573.87	47180.52
574.03	46635.17
574.20	47391.17
574.36	46794.33
574.52	47070.51
574.68	47110.30
574.84	47185.20
575.01	47220.31
575.17	47248.39
575.33	47384.15
575.49	47089.24
575.65	46979.23
575.82	47154.77
575.98	46483.04
576.14	47091.58
576.30	47435.64
576.46	46988.60
576.62	47079.88
576.79	47145.41
576.95	46810.71
577.11	46770.93
577.27	46979.23
577.43	47138.39
577.59	47325.63
577.75	47157.11
577.92	46686.67
578.08	47096.26
578.24	47140.73
578.40	47302.23
578.56	47100.94
578.72	47033.07
578.88	47316.27
579.04	47166.48
579.21	47035.41
579.37	47501.17
579.53	47283.50
579.69	46983.91
579.85	47306.91
580.01	46925.40
580.17	47138.39
580.33	47063.49
580.49	47220.31
580.65	47421.59
580.82	47283.50
580.98	47217.97
581.14	47194.56
581.30	46981.57
581.46	47185.20
581.62	47306.91
581.78	46937.10
581.94	47248.39
582.10	47363.08
582.26	47555.00
582.42	47304.57
582.58	47498.83
582.74	47494.15
582.90	47119.66
583.06	47522.24
583.22	47489.47
583.38	47496.49
583.54	47143.07
583.70	47433.30
583.86	47206.26
584.02	47569.05
584.18	47700.12
584.34	47885.02
584.50	47491.81
584.66	47466.06
584.82	47543.30
584.98	47894.38
585.14	47622.88
585.30	47402.87
585.46	47344.36
585.62	47243.71
585.78	47753.95
585.94	46930.08
586.10	47187.54
586.26	47253.08
586.42	47536.28
586.58	47887.36
586.74	47501.17
586.90	47213.29
587.06	47370.10
587.22	47313.93
587.38	47344.36
587.54	48079.28
587.70	47758.63
587.86	47550.32
588.02	47721.18
588.18	47625.22
588.34	47892.04
588.49	47702.46
588.65	47545.64
588.81	47564.37
588.97	47852.25
589.13	47650.97
589.29	47835.87
589.45	47545.64
589.61	47201.58
589.77	47695.44
589.93	47674.37
