SpectraSuite Data File
++++++++++++++++++++++++++++++++++++
Date: Fri Oct 25 10:46:59 EDT 2013
User: price-jones
Dark Spectrum Present: No
Reference Spectrum Present: No
Number of Sampled Component Spectra: 1
Spectrometers: USB2+H05261
Integration Time (usec): 100000 (USB2+H05261)
Spectra Averaged: 1 (USB2+H05261)
Boxcar Smoothing: 0 (USB2+H05261)
Correct for Electrical Dark: No (USB2+H05261)
Strobe/Lamp Enabled: No (USB2+H05261)
Correct for Detector Non-linearity: No (USB2+H05261)
Correct for Stray Light: No (USB2+H05261)
Number of Pixels in Processed Spectrum: 2048
>>>>>Begin Processed Spectral Data<<<<<
365.73	114.69
365.92	114.69
366.12	114.69
366.32	63.19
366.52	0.00
366.72	79.58
366.91	25.75
367.11	18.72
367.31	0.00
367.51	2.34
367.70	25.75
367.90	0.00
368.10	0.00
368.30	53.83
368.49	0.00
368.69	63.19
368.89	58.51
369.09	35.11
369.28	63.19
369.48	70.22
369.68	65.54
369.87	140.43
370.07	142.77
370.27	124.05
370.47	217.67
370.66	428.32
370.86	444.70
371.06	444.70
371.25	484.49
371.45	461.09
371.65	505.56
371.84	489.17
372.04	442.36
372.24	587.47
372.44	533.64
372.63	514.92
372.83	482.15
373.03	575.77
373.22	458.74
373.42	535.98
373.62	545.34
373.81	557.05
374.01	557.05
374.21	575.77
374.40	498.53
374.60	566.41
374.79	521.94
374.99	613.22
375.19	608.54
375.38	585.13
375.58	615.56
375.78	631.94
375.97	578.11
376.17	676.41
376.37	627.26
376.56	638.97
376.76	608.54
376.95	641.31
377.15	681.10
377.35	599.18
377.54	620.24
377.74	610.88
377.93	601.52
378.13	674.07
378.33	713.86
378.52	585.13
378.72	608.54
378.91	716.20
379.11	662.37
379.31	634.29
379.50	620.24
379.70	648.33
379.89	662.37
380.09	648.33
380.28	629.60
380.48	706.84
380.68	723.23
380.87	653.01
381.07	580.45
381.26	711.52
381.46	615.56
381.65	671.73
381.85	692.80
382.04	734.93
382.24	739.61
382.43	748.97
382.63	704.50
382.83	664.71
383.02	748.97
383.22	697.48
383.41	730.25
383.61	697.48
383.80	805.14
384.00	737.27
384.19	816.85
384.39	753.65
384.58	765.36
384.78	781.74
384.97	861.32
385.17	821.53
385.36	788.76
385.56	774.72
385.75	854.30
385.95	751.31
386.14	777.06
386.34	737.27
386.53	793.44
386.72	821.53
386.92	898.77
387.11	887.06
387.31	854.30
387.50	851.96
387.70	880.04
387.89	901.11
388.09	833.23
388.28	877.70
388.48	816.85
388.67	905.79
388.86	945.58
389.06	880.04
389.25	856.64
389.45	945.58
389.64	887.06
389.84	961.96
390.03	1011.11
390.22	999.41
390.42	1022.81
390.61	980.68
390.81	997.07
391.00	1046.22
391.19	957.28
391.39	1067.28
391.58	1001.75
391.78	929.19
391.97	1062.60
392.16	936.21
392.36	1025.15
392.55	1055.58
392.75	971.32
392.94	919.83
393.13	957.28
393.33	1053.24
393.52	957.28
393.71	1025.15
393.91	1116.44
394.10	1160.91
394.29	1053.24
394.49	1064.94
394.68	1153.88
394.88	1153.88
395.07	1181.97
395.26	1210.06
395.46	1203.04
395.65	1235.80
395.84	1184.31
396.04	1116.44
396.23	1186.65
396.42	1111.75
396.62	1149.20
396.81	1174.95
397.00	1207.72
397.19	1266.23
397.39	1270.91
397.58	1401.98
397.77	1249.85
397.97	1301.34
398.16	1455.81
398.35	1420.71
398.55	1334.11
398.74	1387.94
398.93	1413.68
399.12	1411.34
399.32	1481.56
399.51	1420.71
399.70	1495.60
399.90	1453.47
400.09	1514.33
400.28	1519.01
400.47	1500.28
400.67	1652.42
400.86	1631.35
401.05	1600.93
401.24	1584.54
401.44	1650.08
401.63	1715.61
401.82	1603.27
402.01	1687.53
402.21	1598.59
402.40	1645.40
402.59	1692.21
402.78	1596.25
402.97	1572.84
403.17	1614.97
403.36	1724.97
403.55	1739.02
403.74	1715.61
403.93	1755.40
404.13	1722.63
404.32	1781.15
404.51	1844.34
404.70	1736.68
404.89	1792.85
405.09	1820.94
405.28	1783.49
405.47	1900.52
405.66	1842.00
405.85	1872.43
406.05	1909.88
406.24	1877.11
406.43	1996.48
406.62	1937.96
406.81	1977.75
407.00	1867.75
407.20	1947.33
407.39	1935.62
407.58	1966.05
407.77	2001.16
407.96	1998.82
408.15	2047.97
408.34	2083.08
408.54	2040.95
408.73	2115.84
408.92	2127.55
409.11	2300.75
409.30	2073.71
409.49	2179.04
409.68	2176.70
409.87	2073.71
410.07	2244.57
410.26	2244.57
410.45	2312.45
410.64	2134.57
410.83	2242.23
411.02	2286.70
411.21	2349.90
411.40	2347.56
411.59	2399.05
411.78	2431.82
411.98	2417.77
412.17	2532.46
412.36	2359.26
412.55	2487.99
412.74	2574.59
412.93	2567.57
413.12	2588.63
413.31	2675.23
413.50	2665.87
413.69	2621.40
413.88	2761.83
414.07	2729.06
414.26	2740.77
414.45	2689.28
414.64	2754.81
414.83	2853.11
415.02	2883.54
415.22	2871.84
415.41	2827.37
415.60	2911.63
415.79	2998.23
415.98	2995.89
416.17	2944.39
416.36	3073.12
416.55	3014.61
416.74	3098.87
416.93	3012.27
417.12	3028.65
417.31	3169.09
417.50	3173.77
417.69	3272.07
417.88	3183.13
418.07	3183.13
418.26	3187.81
418.45	3246.32
418.64	3412.50
418.83	3435.91
419.02	3300.16
419.21	3337.60
419.39	3419.52
419.58	3339.94
419.77	3318.88
419.96	3368.03
420.15	3438.25
420.34	3522.51
420.53	3478.04
420.72	3494.42
420.91	3578.68
421.10	3548.25
421.29	3639.53
421.48	3552.93
421.67	3639.53
421.86	3574.00
422.05	3602.08
422.24	3499.10
422.43	3562.30
422.61	3623.15
422.80	3618.47
422.99	3644.21
423.18	3754.22
423.37	3796.35
423.56	3658.26
423.75	3658.26
423.94	3676.98
424.13	3527.19
424.32	3651.24
424.50	3590.38
424.69	3838.48
424.88	3885.29
425.07	3763.58
425.26	3559.95
425.45	3688.68
425.64	3742.52
425.83	3646.55
426.01	3714.43
426.20	3819.75
426.39	3829.12
426.58	3709.75
426.77	3838.48
426.96	3878.27
427.15	3646.55
427.33	3925.08
427.52	3831.46
427.71	3826.78
427.90	3927.42
428.09	3978.91
428.28	3967.21
428.46	4004.66
428.65	3850.18
428.84	4081.89
429.03	4175.52
429.22	3908.69
429.40	3934.44
429.59	3819.75
429.78	3822.09
429.97	3730.81
430.16	3726.13
430.34	3953.16
430.53	3964.87
430.72	3964.87
430.91	3969.55
431.10	3978.91
431.28	4100.62
431.47	4306.59
431.66	4470.42
431.85	4222.33
432.03	4376.80
432.22	4468.08
432.41	4447.02
432.60	4334.67
432.79	4503.19
432.97	4531.28
433.16	4484.47
433.35	4535.96
433.54	4535.96
433.72	4301.90
433.91	4491.49
434.10	4524.26
434.28	4451.70
434.47	4678.73
434.66	4514.89
434.85	4765.33
435.03	4791.08
435.22	4650.64
435.41	4877.68
435.59	4863.63
435.78	4554.68
435.97	4959.60
436.16	4882.36
436.34	4667.03
436.53	4823.84
436.72	5048.54
436.90	4851.93
437.09	4877.68
437.28	4875.34
437.46	4894.06
437.65	4985.34
437.84	5050.88
438.02	5039.17
438.21	5036.83
438.40	4800.44
438.58	5041.51
438.77	5128.11
438.96	5064.92
439.14	5217.05
439.33	5181.95
439.52	5163.22
439.70	5303.65
439.89	5404.30
440.08	5397.28
440.26	5497.92
440.45	5439.40
440.63	5617.29
440.82	5636.01
441.01	5476.85
441.19	5736.65
441.38	5771.76
441.57	5722.61
441.75	5790.49
441.94	5893.47
442.12	5785.80
442.31	5921.56
442.50	5994.11
442.68	5820.91
442.87	6022.20
443.05	5942.62
443.24	6061.99
443.43	6054.97
443.61	6218.80
443.80	6181.35
443.98	5933.26
444.17	5940.28
444.35	6146.25
444.54	6380.30
444.73	6129.86
444.91	6146.25
445.10	6314.77
445.28	6017.52
445.47	6127.52
445.65	6195.40
445.84	6207.10
446.02	6274.98
446.21	6253.91
446.39	6190.72
446.58	6176.67
446.77	6296.04
446.95	6167.31
447.14	6139.23
447.32	6307.74
447.51	6277.32
447.69	6303.06
447.88	6312.42
448.06	6452.86
448.25	6366.26
448.43	6464.56
448.62	6300.72
448.80	6305.40
448.99	6359.24
449.17	6300.72
449.36	6527.75
449.54	6530.09
449.73	6644.78
449.91	6616.69
450.10	6834.36
450.28	6698.61
450.46	6752.45
450.65	6792.23
450.83	6656.48
451.02	6644.78
451.20	6956.07
451.39	6768.83
451.57	6654.14
451.76	6759.47
451.94	6810.96
452.13	6911.60
452.31	6771.17
452.49	6754.79
452.68	6869.47
452.86	6904.58
453.05	7070.76
453.23	6981.82
453.42	6768.83
453.60	6815.64
453.78	6857.77
453.97	6902.24
454.15	7019.27
454.34	6806.28
454.52	7075.44
454.70	7063.74
454.89	7082.46
455.07	7204.17
455.26	7265.02
455.44	7124.59
455.62	7342.26
455.81	7375.03
455.99	7391.41
456.17	7426.52
456.36	7307.15
456.54	7363.33
456.73	7513.12
456.91	7798.66
457.09	7662.91
457.28	7751.85
457.46	7859.52
457.64	7845.48
457.83	7735.47
458.01	7644.19
458.19	7850.16
458.38	7808.03
458.56	7934.42
458.74	7712.07
458.93	7730.79
459.11	7768.24
459.29	7817.39
459.48	7906.33
459.66	7793.98
459.84	7955.48
460.03	8053.78
460.21	7988.25
460.39	7953.14
460.57	7903.99
460.76	8201.24
460.94	8112.30
461.12	8294.86
461.31	8336.99
461.49	8145.06
461.67	8032.72
461.85	8236.35
462.04	8109.96
462.22	8788.71
462.40	8430.61
462.59	8315.92
462.77	8325.29
462.95	8498.49
463.13	8489.12
463.32	8327.63
463.50	8491.46
463.68	8517.21
463.86	8627.21
464.05	8404.86
464.23	8542.96
464.41	8585.08
464.59	8400.18
464.78	8667.00
464.96	8587.43
465.14	8535.93
465.32	8624.87
465.50	8945.53
465.69	8826.16
465.87	8926.80
466.05	8711.47
466.23	8692.75
466.41	8636.58
466.60	8961.91
466.78	8884.67
466.96	8692.75
467.14	8664.66
467.32	8898.72
467.51	9167.88
467.69	8901.06
467.87	8872.97
468.05	9043.83
468.23	9081.28
468.41	8975.95
468.60	8887.01
468.78	9188.94
468.96	8954.89
469.14	9142.13
469.32	9240.44
469.50	8945.53
469.69	9156.18
469.87	9259.16
470.05	9324.69
470.23	9254.48
470.41	9338.74
470.59	9415.98
470.77	9507.26
470.95	9486.19
471.14	9729.61
471.32	9579.81
471.50	9729.61
471.68	9687.48
471.86	9970.68
472.04	9900.47
472.22	10010.47
472.40	9724.93
472.58	10040.90
472.77	9951.96
472.95	10136.86
473.13	10366.23
473.31	9912.17
473.49	10125.16
473.67	10141.54
473.85	9802.16
474.03	10335.81
474.21	10298.36
474.39	10436.45
474.57	10399.00
474.75	10497.30
474.93	10698.59
475.12	10628.37
475.30	10869.45
475.48	10553.48
475.66	10792.21
475.84	10583.90
476.02	10726.68
476.20	10684.55
476.38	11150.31
476.56	11304.79
476.74	11257.98
476.92	11208.83
477.10	11328.19
477.28	11349.26
477.46	11346.92
477.64	11386.71
477.82	11632.46
478.00	11981.20
478.18	12018.65
478.36	11992.90
478.54	11983.54
478.72	12290.15
478.90	12147.38
479.08	12109.93
479.26	12592.08
479.44	12678.68
479.62	12451.65
479.80	12908.05
479.98	12739.54
480.16	12833.16
480.34	12809.75
480.52	12894.01
480.70	12964.23
480.88	12947.84
481.06	13352.76
481.24	13219.35
481.41	13383.18
481.59	13502.55
481.77	13654.69
481.95	13738.94
482.13	13930.87
482.31	13853.63
482.49	14155.56
482.67	14277.27
482.85	14417.70
483.03	14214.07
483.21	14520.68
483.39	14513.66
483.57	14476.21
483.74	14761.76
483.92	15094.11
484.10	14628.35
484.28	15143.27
484.46	15351.57
484.64	15487.32
484.82	15293.06
485.00	15477.96
485.18	15662.86
485.35	15744.78
485.53	15585.63
485.71	15611.37
485.89	16042.03
486.07	15822.02
486.25	15807.98
486.43	16276.09
486.61	16189.49
486.78	16563.97
486.96	16538.23
487.14	16905.69
487.32	16959.52
487.50	17071.87
487.68	17238.05
487.85	17458.06
488.03	17617.21
488.21	17818.50
488.39	17771.69
488.57	18230.43
488.75	17975.31
488.92	18237.45
489.10	18391.93
489.28	18595.56
489.46	18579.17
489.64	18637.69
489.81	19152.60
489.99	19063.66
490.17	19047.28
490.35	19295.38
490.53	19419.42
490.70	19442.83
490.88	19683.91
491.06	19859.45
491.24	19777.53
491.41	19798.59
491.59	19908.60
491.77	20058.39
491.95	20381.38
492.13	20376.70
492.30	20655.23
492.48	20606.08
492.66	20908.01
492.84	20669.27
493.01	20905.66
493.19	20992.26
493.37	21057.80
493.54	21284.83
493.72	21607.83
493.90	21673.36
494.08	21752.94
494.25	22202.32
494.43	22171.89
494.61	22178.92
494.79	22485.53
494.96	22190.62
495.14	22225.73
495.32	22602.55
495.49	22345.09
495.67	22827.24
495.85	22843.63
496.02	23021.51
496.20	23234.50
496.38	23538.77
496.55	23276.63
496.73	23967.09
496.91	23857.08
497.09	23564.51
497.26	24053.69
497.44	23791.55
497.62	23901.55
497.79	24545.20
497.97	23665.16
498.14	24744.14
498.32	24711.38
498.50	24453.92
498.67	25249.70
498.85	24954.79
499.03	25406.52
499.20	25214.59
499.38	25043.73
499.56	25338.64
499.73	25579.71
499.91	25523.54
500.08	25589.08
500.26	25458.01
500.44	25951.86
500.61	25528.22
500.79	25759.94
500.97	25809.09
501.14	26515.93
501.32	26340.39
501.49	26075.91
501.67	25879.30
501.84	26316.98
502.02	26171.87
502.20	26810.84
502.37	26738.28
502.55	26888.07
502.72	26995.74
502.90	26764.03
503.07	26698.49
503.25	27094.04
503.43	27065.96
503.60	26850.63
503.78	27386.61
503.95	27304.69
504.13	27239.15
504.30	27573.85
504.48	27798.54
504.65	27992.81
504.83	28027.92
505.01	27784.50
505.18	27857.06
505.36	28252.61
505.53	28425.81
505.71	28718.37
505.88	28594.32
506.06	27995.15
506.23	28774.55
506.41	28533.47
506.58	28601.35
506.76	28758.16
506.93	28844.76
507.11	28854.12
507.28	28610.71
507.46	28669.22
507.63	29289.46
507.81	29350.32
507.98	29041.37
508.16	29259.04
508.33	29734.17
508.50	29542.24
508.68	29745.87
508.85	29759.91
509.03	30054.82
509.20	29776.30
509.38	29888.64
509.55	30078.22
509.73	30284.19
509.90	30033.75
510.08	30319.30
510.25	30129.72
510.42	30693.79
510.60	30511.22
510.77	30642.29
510.95	31299.98
511.12	30920.82
511.30	30857.62
511.47	31435.74
511.64	31082.31
511.82	30960.61
511.99	31658.09
512.17	31388.92
512.34	31505.95
512.51	31201.68
512.69	31152.53
512.86	31517.65
513.04	31740.00
513.21	31519.99
513.38	31367.86
513.56	31885.12
513.73	31709.58
513.90	32278.33
514.08	32336.84
514.25	32063.00
514.43	32016.19
514.60	32474.93
514.77	32133.21
514.95	32402.38
515.12	32374.29
515.29	32374.29
515.47	32844.74
515.64	32704.31
515.81	32706.65
515.99	32659.84
516.16	32582.60
516.33	32624.73
516.51	32877.51
516.68	32278.33
516.85	32645.79
517.03	32596.64
517.20	32917.29
517.37	33024.96
517.54	33226.24
517.72	33324.55
517.89	33296.46
518.06	33050.70
518.24	33179.43
518.41	33467.32
518.58	33715.42
518.75	33640.52
518.93	33900.32
519.10	33684.99
519.27	33626.48
519.45	34307.57
519.62	34117.99
519.79	34036.07
519.96	34363.75
520.14	34782.70
520.31	34464.39
520.48	34761.64
520.65	34232.68
520.83	34518.22
521.00	34597.80
521.17	34754.61
521.34	34993.35
521.52	35431.03
521.69	34932.50
521.86	34927.81
522.03	35428.69
522.20	34803.77
522.38	35318.68
522.55	35552.74
522.72	34752.27
522.89	35416.99
523.07	35662.74
523.24	35461.46
523.41	35587.85
523.58	35154.85
523.75	36205.75
523.92	36250.22
524.10	36016.16
524.27	35903.82
524.44	36512.36
524.61	36498.31
524.78	36381.29
524.96	36109.78
525.13	36758.11
525.30	36690.24
525.47	37113.87
525.64	36605.98
525.81	36411.71
525.98	36531.08
526.16	36374.27
526.33	36470.23
526.50	36678.54
526.67	36650.45
526.84	36381.29
527.01	36385.97
527.18	36549.81
527.36	36912.59
527.53	36989.83
527.70	37605.39
527.87	37177.07
528.04	37542.19
528.21	37329.20
528.38	37647.52
528.55	37680.28
528.72	37331.54
528.89	37727.10
529.07	37706.03
529.24	37144.30
529.41	37834.76
529.58	37537.51
529.75	37556.24
529.92	38057.11
530.09	37998.60
530.26	38082.86
530.43	38307.55
530.60	37794.97
530.77	38124.99
530.94	38300.53
531.11	38024.34
531.28	38457.34
531.46	38265.42
531.63	38560.33
531.80	38281.80
531.97	38352.02
532.14	38609.48
532.31	38270.10
532.48	38536.92
532.65	38876.30
532.82	38749.91
532.99	38700.76
533.16	38593.09
533.33	38792.04
533.50	39299.94
533.67	38944.17
533.84	38838.85
534.01	39180.57
534.18	38843.53
534.35	39035.45
534.52	39096.31
534.69	39246.10
534.86	39714.21
535.03	39517.60
535.20	39700.17
535.37	39688.46
535.54	39564.42
535.71	39531.65
535.88	39538.67
536.05	39435.69
536.22	39861.66
536.38	39922.52
536.55	39412.28
536.72	39814.85
536.89	39388.88
537.06	39770.38
537.23	40318.07
537.40	39812.51
537.57	39903.79
537.74	40027.84
537.91	40243.17
538.08	40472.54
538.25	39782.09
538.42	40144.87
538.59	40107.42
538.75	39861.66
538.92	40474.88
539.09	40690.21
539.26	40308.71
539.43	40369.56
539.60	40559.14
539.77	40320.41
539.94	40533.40
540.11	40175.30
540.28	40442.12
540.44	40074.65
540.61	40849.37
540.78	40758.09
540.95	40807.24
541.12	40720.64
541.29	40704.26
541.46	40905.54
541.62	40772.13
541.79	40861.07
541.96	40641.06
542.13	41240.24
542.30	40596.59
542.47	40961.72
542.63	41352.58
542.80	41055.34
542.97	41778.56
543.14	41617.07
543.31	41717.71
543.48	41558.55
543.64	41755.16
543.81	41642.81
543.98	41865.16
544.15	41710.69
544.32	42026.66
544.48	41961.12
544.65	42202.20
544.82	41855.80
544.99	41766.86
545.16	42031.34
545.32	41944.74
545.49	42457.32
545.66	42307.52
545.83	42167.09
546.00	42394.12
546.16	42237.31
546.33	41860.48
546.50	42129.64
546.67	42139.00
546.83	41390.03
547.00	42080.49
547.17	42234.97
547.34	42071.13
547.50	42183.48
547.67	43058.84
547.84	42625.84
548.00	42995.64
548.17	42897.34
548.34	42464.34
548.51	42951.17
548.67	43042.45
548.84	43072.88
549.01	42918.40
549.18	42567.32
549.34	42644.56
549.51	43250.76
549.68	42827.12
549.84	43206.29
550.01	43086.92
550.18	42997.98
550.34	42986.28
550.51	43374.81
550.68	43229.69
550.84	42866.91
551.01	43356.08
551.18	43208.63
551.34	43093.94
551.51	43337.36
551.68	43735.25
551.84	43381.83
552.01	43241.40
552.18	43044.79
552.34	43328.00
552.51	43655.67
552.68	43126.71
552.84	43129.05
553.01	43643.97
553.18	43746.95
553.34	43770.36
553.51	43732.91
553.67	43555.03
553.84	43618.22
554.01	43510.56
554.17	43938.88
554.34	44322.72
554.51	43934.20
554.67	44266.55
554.84	43353.74
555.00	43688.44
555.17	43615.88
555.33	43941.22
555.50	43920.15
555.67	43964.62
555.83	43997.39
556.00	43817.17
556.16	44065.27
556.33	44208.04
556.50	44252.51
556.66	44273.57
556.83	43854.62
556.99	43999.73
557.16	44395.28
557.32	44083.99
557.49	44327.41
557.65	43508.22
557.82	44006.75
557.98	43990.37
558.15	44172.93
558.32	44296.98
558.48	44411.67
558.65	44423.37
558.81	44109.74
558.98	44453.79
559.14	44505.29
559.31	44519.33
559.47	44568.48
559.64	44556.78
559.80	44458.48
559.97	44800.19
560.13	44456.14
560.30	44594.23
560.46	44442.09
560.63	44924.24
560.79	44704.23
560.96	45003.82
561.12	44601.25
561.29	44708.91
561.45	44507.63
561.61	44552.10
561.78	44863.39
561.94	44758.06
562.11	44875.09
562.27	44491.24
562.44	44446.77
562.60	44847.00
562.77	45085.74
562.93	44737.00
563.10	45132.55
563.26	44353.15
563.42	45031.91
563.59	45294.05
563.75	44889.13
563.92	45177.02
564.08	45361.92
564.24	45015.52
564.41	44762.75
564.57	44748.70
564.74	45045.95
564.90	45352.56
565.07	45120.85
565.23	44968.71
565.39	44907.86
565.56	45301.07
565.72	45043.61
565.88	45209.79
566.05	44945.31
566.21	44807.22
566.38	45013.18
566.54	44907.86
566.70	45387.67
566.87	45691.94
567.03	45247.24
567.19	45624.06
567.36	45539.80
567.52	45460.23
567.68	45331.50
567.85	44975.73
568.01	45067.02
568.17	45165.32
568.34	45134.89
568.50	45069.36
568.66	45223.83
568.83	45153.62
568.99	44748.70
569.15	45282.34
569.32	45057.65
569.48	45600.66
569.64	45127.87
569.81	45708.32
569.97	45010.84
570.13	45167.66
570.30	45165.32
570.46	45003.82
570.62	45081.06
570.78	44931.26
570.95	45251.92
571.11	45322.13
571.27	45043.61
571.43	44964.03
571.60	45500.01
571.76	45123.19
571.92	45015.52
572.09	45141.91
572.25	45638.11
572.41	45558.53
572.57	45457.88
572.74	46080.47
572.90	45062.33
573.06	45446.18
573.22	45287.03
573.38	45193.40
573.55	45315.11
573.71	45507.04
573.87	45191.06
574.03	44945.31
574.20	45345.54
574.36	45134.89
574.52	45701.30
574.68	45628.74
574.84	45478.95
575.01	45312.77
575.17	45319.79
575.33	45298.73
575.49	44870.41
575.65	45820.67
575.82	45937.69
575.98	44989.78
576.14	45991.53
576.30	45766.84
576.46	45179.36
576.62	45249.58
576.79	45537.46
576.95	44748.70
577.11	45350.22
577.27	45741.09
577.43	45626.40
577.59	45893.22
577.75	45371.28
577.92	45104.46
578.08	44942.97
578.24	45331.50
578.40	45525.76
578.56	45736.41
578.72	45530.44
578.88	45614.70
579.04	45464.91
579.21	45144.25
579.37	45081.06
579.53	45790.24
579.69	45455.54
579.85	45464.91
580.01	45757.47
580.17	45617.04
580.33	45530.44
580.49	45993.87
580.65	45937.69
580.82	45743.43
580.98	45605.34
581.14	45411.07
581.30	45762.15
581.46	45577.25
581.62	45425.12
581.78	45394.69
581.94	45663.85
582.10	45663.85
582.26	45298.73
582.42	45794.92
582.58	45453.20
582.74	45378.31
582.90	45584.27
583.06	45771.52
583.22	45769.18
583.38	45771.52
583.54	45558.53
583.70	45993.87
583.86	45862.80
584.02	45195.74
584.18	45727.05
584.34	45497.67
584.50	45542.14
584.66	45659.17
584.82	45069.36
584.98	45748.11
585.14	46120.26
585.30	45516.40
585.46	45205.11
585.62	45446.18
585.78	45490.65
585.94	45539.80
586.10	45181.70
586.26	45170.00
586.42	45572.57
586.58	45574.91
586.74	45984.51
586.90	45804.28
587.06	45350.22
587.22	45614.70
587.38	45448.52
587.54	46036.00
587.70	45937.69
587.86	46141.32
588.02	45752.79
588.18	45900.25
588.34	45102.12
588.49	45523.42
588.65	45104.46
588.81	45216.81
588.97	45130.21
589.13	45088.08
589.29	45153.62
589.45	45408.73
589.61	45649.81
589.77	45916.63
589.93	45947.06
590.08	45996.21
