SpectraSuite Data File
++++++++++++++++++++++++++++++++++++
Date: Fri Oct 25 10:43:56 EDT 2013
User: price-jones
Dark Spectrum Present: No
Reference Spectrum Present: No
Number of Sampled Component Spectra: 1
Spectrometers: USB2+H05261
Integration Time (usec): 100000 (USB2+H05261)
Spectra Averaged: 1 (USB2+H05261)
Boxcar Smoothing: 0 (USB2+H05261)
Correct for Electrical Dark: No (USB2+H05261)
Strobe/Lamp Enabled: No (USB2+H05261)
Correct for Detector Non-linearity: No (USB2+H05261)
Correct for Stray Light: No (USB2+H05261)
Number of Pixels in Processed Spectrum: 2048
>>>>>Begin Processed Spectral Data<<<<<
365.73	126.39
365.92	126.39
366.12	126.39
366.32	67.88
366.52	0.00
366.72	11.70
366.91	0.00
367.11	0.00
367.31	11.70
367.51	9.36
367.70	23.41
367.90	32.77
368.10	7.02
368.30	9.36
368.49	44.47
368.69	7.02
368.89	42.13
369.09	60.85
369.28	11.70
369.48	37.45
369.68	4.68
369.87	112.35
370.07	93.62
370.27	58.51
370.47	177.88
370.66	393.21
370.86	402.57
371.06	437.68
371.25	461.09
371.45	428.32
371.65	484.49
371.84	386.19
372.04	507.90
372.24	547.69
372.44	447.04
372.63	500.87
372.83	477.47
373.03	512.58
373.22	512.58
373.42	592.16
373.62	521.94
373.81	557.05
374.01	561.73
374.21	622.58
374.40	528.96
374.60	634.29
374.79	557.05
374.99	538.32
375.19	566.41
375.38	667.05
375.58	669.39
375.78	601.52
375.97	678.76
376.17	568.75
376.37	589.82
376.56	638.97
376.76	648.33
376.95	620.24
377.15	657.69
377.35	643.65
377.54	634.29
377.74	631.94
377.93	636.63
378.13	636.63
378.33	650.67
378.52	685.78
378.72	748.97
378.91	723.23
379.11	725.57
379.31	655.35
379.50	641.31
379.70	734.93
379.89	718.54
380.09	627.26
380.28	685.78
380.48	753.65
380.68	676.41
380.87	688.12
381.07	760.67
381.26	718.54
381.46	634.29
381.65	690.46
381.85	683.44
382.04	695.14
382.24	713.86
382.43	683.44
382.63	690.46
382.83	765.36
383.02	709.18
383.22	774.72
383.41	643.65
383.61	758.33
383.80	821.53
384.00	795.78
384.19	767.70
384.39	826.21
384.58	805.14
384.78	880.04
384.97	901.11
385.17	763.01
385.36	805.14
385.56	922.17
385.75	793.44
385.95	823.87
386.14	849.61
386.34	877.70
386.53	863.66
386.72	840.25
386.92	887.06
387.11	873.02
387.31	896.43
387.50	990.05
387.70	931.53
387.89	936.21
388.09	999.41
388.28	940.90
388.48	983.02
388.67	882.38
388.86	910.47
389.06	961.96
389.25	1111.75
389.45	1057.92
389.64	1025.15
389.84	1081.33
390.03	997.07
390.22	1020.47
390.42	1100.05
390.61	1064.94
390.81	1069.62
391.00	1149.20
391.19	1071.97
391.39	1046.22
391.58	1076.65
391.78	978.34
391.97	1008.77
392.16	1109.41
392.36	1067.28
392.55	1043.88
392.75	980.68
392.94	1090.69
393.13	971.32
393.33	992.39
393.52	1146.86
393.71	1160.91
393.91	1144.52
394.10	1109.41
394.29	1121.12
394.49	1179.63
394.68	1235.80
394.88	1273.25
395.07	1341.13
395.26	1242.82
395.46	1357.51
395.65	1284.95
395.84	1188.99
396.04	1315.38
396.23	1177.29
396.42	1172.61
396.62	1198.35
396.81	1263.89
397.00	1107.07
397.19	1334.11
397.39	1416.02
397.58	1315.38
397.77	1420.71
397.97	1441.77
398.16	1401.98
398.35	1502.62
398.55	1479.22
398.74	1572.84
398.93	1570.50
399.12	1460.49
399.32	1533.05
399.51	1607.95
399.70	1685.19
399.90	1631.35
400.09	1722.63
400.28	1830.30
400.47	1643.06
400.67	1732.00
400.86	1820.94
401.05	1811.57
401.24	1771.79
401.44	1757.74
401.63	1825.62
401.82	1816.26
402.01	1849.02
402.21	1834.98
402.40	1825.62
402.59	1844.34
402.78	1792.85
402.97	1909.88
403.17	1914.56
403.36	1881.79
403.55	1923.92
403.74	1977.75
403.93	1963.71
404.13	1968.39
404.32	1937.96
404.51	2062.01
404.70	2015.20
404.89	2057.33
405.09	2054.99
405.28	1994.14
405.47	1980.09
405.66	2090.10
405.85	2080.74
406.05	2026.90
406.24	2076.06
406.43	2066.69
406.62	2167.34
406.81	2134.57
407.00	2183.72
407.20	2195.42
407.39	2069.03
407.58	2139.25
407.77	2188.40
407.96	2263.30
408.15	2328.83
408.34	2122.87
408.54	2373.30
408.73	2335.85
408.92	2363.94
409.11	2562.89
409.30	2314.79
409.49	2375.64
409.68	2279.68
409.87	2375.64
410.07	2464.58
410.26	2499.69
410.45	2462.24
410.64	2478.63
410.83	2656.51
411.02	2607.36
411.21	2731.41
411.40	2792.26
411.59	2647.15
411.78	2675.23
411.98	2668.21
412.17	2682.25
412.36	2775.88
412.55	2810.98
412.74	2778.22
412.93	2867.16
413.12	2785.24
413.31	2913.97
413.50	3054.40
413.69	2963.12
413.88	3026.31
414.07	2883.54
414.26	3049.72
414.45	3077.80
414.64	3087.17
414.83	3038.02
415.02	3232.28
415.22	3227.60
415.41	3234.62
415.60	3201.85
415.79	3251.00
415.98	3426.54
416.17	3421.86
416.36	3335.26
416.55	3337.60
416.74	3548.25
416.93	3403.14
417.12	3396.12
417.31	3419.52
417.50	3538.89
417.69	3559.95
417.88	3564.64
418.07	3538.89
418.26	3550.59
418.45	3543.57
418.64	3585.70
418.83	3627.83
419.02	3693.37
419.21	3660.60
419.39	3618.47
419.58	3557.61
419.77	3585.70
419.96	3733.15
420.15	3702.73
420.34	3838.48
420.53	3831.46
420.72	4021.04
420.91	3943.80
421.10	4035.08
421.29	4100.62
421.48	3847.84
421.67	3955.51
421.86	4086.58
422.05	3794.01
422.24	4023.38
422.43	4109.98
422.61	4028.06
422.80	3974.23
422.99	4077.21
423.18	4025.72
423.37	4112.32
423.56	3955.51
423.75	4002.32
423.94	3983.59
424.13	3915.72
424.32	3920.40
424.50	4124.02
424.69	4147.43
424.88	4095.94
425.07	4044.45
425.26	4044.45
425.45	3964.87
425.64	4152.11
425.83	3997.64
426.01	4222.33
426.20	4180.20
426.39	4042.11
426.58	3990.61
426.77	4194.24
426.96	4117.00
427.15	4114.66
427.33	4173.18
427.52	4198.92
427.71	4266.80
427.90	4320.63
428.09	4304.25
428.28	4210.62
428.46	4201.26
428.65	4257.43
428.84	4451.70
429.03	4381.48
429.22	4234.03
429.40	4243.39
429.59	4339.35
429.78	3922.74
429.97	4009.34
430.16	4081.89
430.34	4170.83
430.53	4163.81
430.72	4381.48
430.91	4308.93
431.10	4617.88
431.28	4648.30
431.47	4849.59
431.66	4643.62
431.85	4655.33
432.03	4620.22
432.22	4779.37
432.41	4699.80
432.60	4814.48
432.79	4919.81
432.97	4800.44
433.16	4940.87
433.35	4999.38
433.54	4933.85
433.72	4854.27
433.91	4910.44
434.10	4968.96
434.28	4924.49
434.47	5029.81
434.66	5060.24
434.85	5043.85
435.03	5224.08
435.22	5085.98
435.41	5224.08
435.59	5252.16
435.78	5420.68
435.97	5479.19
436.16	5324.72
436.34	5310.68
436.53	5355.15
436.72	5596.22
436.90	5097.69
437.09	5329.40
437.28	5287.27
437.46	5397.28
437.65	5305.99
437.84	5268.55
438.02	5341.10
438.21	5385.57
438.40	5331.74
438.58	5523.66
438.77	5479.19
438.96	5502.60
439.14	5783.46
439.33	5844.32
439.52	5893.47
439.70	5865.38
439.89	5919.21
440.08	5919.21
440.26	6008.16
440.45	5785.80
440.63	6057.31
440.82	6150.93
441.01	5937.94
441.19	6211.78
441.38	6349.87
441.57	6452.86
441.75	6361.58
441.94	6494.99
442.12	6523.07
442.31	6672.87
442.50	6478.60
442.68	6649.46
442.87	6387.32
443.05	6539.46
443.24	6773.51
443.43	6710.32
443.61	6761.81
443.80	6745.42
443.98	6518.39
444.17	6590.95
444.35	6689.25
444.54	6806.28
444.73	6707.98
444.91	6642.44
445.10	6506.69
445.28	6722.02
445.47	6607.33
445.65	6567.54
445.84	6773.51
446.02	6782.87
446.21	6630.74
446.39	6670.53
446.58	6691.59
446.77	6897.56
446.95	6626.06
447.14	6911.60
447.32	6862.45
447.51	6848.41
447.69	6848.41
447.88	6918.62
448.06	6803.94
448.25	7007.56
448.43	6998.20
448.62	6932.67
448.80	6963.09
448.99	7070.76
449.17	7152.68
449.36	7021.61
449.54	7204.17
449.73	7302.47
449.91	7358.64
450.10	7496.74
450.28	7541.21
450.46	7463.97
450.65	7379.71
450.83	7536.52
451.02	7377.37
451.20	7550.57
451.39	7454.61
451.57	7555.25
451.76	7499.08
451.94	7393.75
452.13	7590.36
452.31	7433.54
452.49	7463.97
452.68	7431.20
452.86	7522.48
453.05	7360.98
453.23	7625.47
453.42	7536.52
453.60	7641.85
453.78	7564.61
453.97	7726.11
454.15	7822.07
454.34	7398.43
454.52	7536.52
454.70	7833.77
454.89	7669.94
455.07	7793.98
455.26	7801.01
455.44	7943.78
455.62	7936.76
455.81	8051.44
455.99	8049.10
456.17	8336.99
456.36	8088.89
456.54	8334.65
456.73	8266.77
456.91	8386.14
457.09	8339.33
457.28	8524.23
457.46	8414.23
457.64	8491.46
457.83	8465.72
458.01	8290.18
458.19	8411.89
458.38	8432.95
458.56	8629.56
458.74	8484.44
458.93	8346.35
459.11	8526.57
459.29	8571.04
459.48	8603.81
459.66	8554.66
459.84	8664.66
460.03	8896.38
460.21	8737.22
460.39	8870.63
460.57	8917.44
460.76	8943.19
460.94	8938.51
461.12	9132.77
461.31	8887.01
461.49	8957.23
461.67	8828.50
461.85	9186.60
462.04	9088.30
462.22	9420.66
462.40	9177.24
462.59	9270.86
462.77	9263.84
462.95	9167.88
463.13	9298.95
463.32	9345.76
463.50	9331.72
463.68	9193.62
463.86	9334.06
464.05	9242.78
464.23	9214.69
464.41	9301.29
464.59	9383.21
464.78	9591.52
464.96	9444.06
465.14	9413.63
465.32	9301.29
465.50	9563.43
465.69	9500.23
465.87	9657.05
466.05	9565.77
466.23	9638.33
466.41	9481.51
466.60	9783.44
466.78	9593.86
466.96	9411.29
467.14	9469.81
467.32	9624.28
467.51	9853.66
467.69	9453.42
467.87	9736.63
468.05	9884.08
468.23	9797.48
468.41	9774.08
468.60	9816.21
468.78	10015.15
468.96	9771.74
469.14	10310.06
469.32	10057.28
469.50	9933.23
469.69	10024.51
469.87	10408.36
470.05	10080.69
470.23	10256.23
470.41	10122.82
470.59	10150.90
470.77	10157.92
470.95	10118.14
471.14	10513.69
471.32	10324.10
471.50	10759.44
471.68	10663.48
471.86	10754.76
472.04	10656.46
472.22	10836.68
472.40	10860.09
472.58	10785.19
472.77	10827.32
472.95	10932.64
473.13	10937.32
473.31	10869.45
473.49	10885.83
473.67	10916.26
473.85	11030.94
474.03	11213.51
474.21	11342.24
474.39	11328.19
474.57	11475.65
474.75	11466.28
474.93	11396.07
475.12	11485.01
475.30	11669.91
475.48	11492.03
475.66	11665.23
475.84	11461.60
476.02	11660.55
476.20	11817.36
476.38	11957.80
476.56	12098.23
476.74	12198.87
476.92	11943.75
477.10	12336.96
477.28	12418.88
477.46	12259.73
477.64	12603.78
477.82	12664.64
478.00	13060.19
478.18	12945.50
478.36	12842.52
478.54	13151.47
478.72	13181.90
478.90	13322.33
479.08	13228.71
479.26	13699.16
479.44	13448.72
479.62	13767.03
479.80	13806.82
479.98	13720.22
480.16	13998.74
480.34	14115.77
480.52	14314.72
480.70	14246.84
480.88	14061.94
481.06	14356.85
481.24	14511.32
481.41	14621.33
481.59	14829.63
481.77	14789.85
481.95	14813.25
482.13	15147.95
482.31	14824.95
482.49	15316.47
482.67	15314.13
482.85	15599.67
483.03	15587.97
483.21	15819.68
483.39	16011.60
483.57	15543.50
483.74	16217.57
483.92	16130.97
484.10	16128.63
484.28	16374.39
484.46	16938.46
484.64	16954.84
484.82	16489.07
485.00	16734.83
485.18	16924.41
485.35	17083.57
485.53	16549.93
485.71	16528.86
485.89	16807.39
486.07	16952.50
486.25	17156.13
486.43	17212.30
486.61	17341.03
486.78	17638.28
486.96	18253.84
487.14	18111.07
487.32	18373.21
487.50	18340.44
487.68	18621.30
487.85	18965.36
488.03	19208.78
488.21	19201.76
488.39	18733.65
488.57	19461.55
488.75	19183.03
488.92	19726.04
489.10	20095.84
489.28	19924.98
489.46	20411.81
489.64	20184.78
489.81	20889.28
489.99	20741.83
490.17	20716.08
490.35	20858.85
490.53	20938.43
490.70	21095.25
490.88	21097.59
491.06	21448.67
491.24	21261.43
491.41	21053.12
491.59	21490.80
491.77	21619.53
491.95	21654.64
492.13	21799.75
492.30	22141.47
492.48	22054.87
492.66	22558.08
492.84	22347.44
493.01	22373.18
493.19	22862.35
493.37	22527.66
493.54	22750.01
493.72	22897.46
493.90	23344.50
494.08	23384.29
494.25	23681.54
494.43	23812.61
494.61	23843.04
494.79	23927.30
494.96	24168.37
495.14	24269.01
495.32	24397.74
495.49	24299.44
495.67	24229.23
495.85	24819.04
496.02	24943.09
496.20	25317.57
496.38	25146.72
496.55	25193.53
496.73	25991.65
496.91	25659.29
497.09	25773.98
497.26	26045.48
497.44	25862.92
497.62	26101.65
497.79	26293.58
497.97	25748.23
498.14	26136.76
498.32	26366.13
498.50	26480.82
498.67	26424.65
498.85	27091.70
499.03	27068.30
499.20	27194.68
499.38	27049.57
499.56	27012.12
499.73	27150.21
499.91	27182.98
500.08	27564.49
500.26	27056.59
500.44	27407.67
500.61	27248.52
500.79	27428.74
500.97	27618.32
501.14	27611.30
501.32	27950.68
501.49	27866.42
501.67	27840.67
501.84	28212.82
502.02	27964.72
502.20	28304.10
502.37	28694.97
502.55	28519.43
502.72	28671.56
502.90	28826.04
503.07	28872.85
503.25	28634.11
503.43	28659.86
503.60	29022.64
503.78	28940.72
503.95	28851.78
504.13	29111.58
504.30	29296.49
504.48	29530.54
504.65	29724.80
504.83	29776.30
505.01	30190.57
505.18	29745.87
505.36	30277.17
505.53	30146.10
505.71	29921.41
505.88	30497.18
506.06	30450.37
506.23	30230.36
506.41	30335.68
506.58	30806.13
506.76	30642.29
506.93	30679.74
507.11	30375.47
507.28	30644.63
507.46	30492.50
507.63	30899.75
507.81	31051.89
507.98	31000.40
508.16	31622.98
508.33	31641.70
508.50	31758.73
508.68	31714.26
508.85	32093.43
509.03	31929.59
509.20	31948.31
509.38	32177.68
509.55	31917.89
509.73	31784.48
509.90	32215.13
510.08	32414.08
510.25	32383.65
510.42	32856.44
510.60	32893.89
510.77	32573.24
510.95	32538.13
511.12	32556.85
511.30	32957.08
511.47	33237.95
511.64	33577.33
511.82	33378.38
511.99	33273.06
512.17	33102.20
512.34	33366.68
512.51	33640.52
512.69	33422.85
512.86	33783.29
513.04	33476.68
513.21	33937.77
513.38	33481.36
513.56	33916.70
513.73	33413.49
513.90	33919.04
514.08	33591.37
514.25	34040.75
514.43	34136.71
514.60	34010.32
514.77	34139.05
514.95	34600.14
515.12	34190.55
515.29	34677.38
515.47	35065.91
515.64	34794.40
515.81	34469.07
515.99	34623.54
516.16	34742.91
516.33	34122.67
516.51	34714.83
516.68	34054.79
516.85	34216.29
517.03	34157.78
517.20	34586.10
517.37	35201.66
517.54	35161.87
517.72	34817.81
517.89	34658.65
518.06	34806.11
518.24	34951.22
518.41	34782.70
518.58	35168.89
518.75	35709.55
518.93	35526.99
519.10	35679.13
519.27	36189.36
519.45	36259.58
519.62	35845.30
519.79	35910.84
519.96	36290.01
520.14	36261.92
520.31	36116.81
520.48	36486.61
520.65	36280.64
520.83	36587.25
521.00	36465.55
521.17	37095.15
521.34	36432.78
521.52	37085.79
521.69	36851.73
521.86	37383.04
522.03	36935.99
522.20	36907.91
522.38	37287.07
522.55	37034.30
522.72	37305.80
522.89	37198.13
523.07	37537.51
523.24	37839.44
523.41	37963.49
523.58	37867.53
523.75	38419.89
523.92	38146.05
524.10	37640.50
524.27	38361.38
524.44	38249.03
524.61	38117.96
524.78	38569.69
524.96	38326.27
525.13	38148.39
525.30	38576.71
525.47	38684.37
525.64	38375.42
525.81	38485.43
525.98	38190.52
526.16	38284.14
526.33	37956.47
526.50	38153.07
526.67	38391.81
526.84	38263.08
527.01	38127.33
527.18	38485.43
527.36	39091.63
527.53	38883.32
527.70	39061.20
527.87	39145.46
528.04	38806.08
528.21	39281.21
528.38	39414.62
528.55	39896.77
528.72	39686.12
528.89	39529.31
529.07	39585.48
529.24	39634.63
529.41	39864.00
529.58	39459.09
529.75	39662.72
529.92	39838.26
530.09	39777.40
530.26	40098.06
530.43	40179.98
530.60	39971.67
530.77	40112.10
530.94	40252.53
531.11	40217.43
531.28	40306.37
531.46	40168.27
531.63	40802.56
531.80	40217.43
531.97	40252.53
532.14	40074.65
532.31	40292.32
532.48	40231.47
532.65	40533.40
532.82	40634.04
532.99	41008.53
533.16	40407.01
533.33	40776.81
533.50	40882.14
533.67	40755.75
533.84	40673.83
534.01	40966.40
534.18	40556.80
534.35	41273.01
534.52	41212.15
534.69	40893.84
534.86	41371.31
535.03	41504.72
535.20	41701.32
535.37	41549.19
535.54	41834.74
535.71	41535.15
535.88	41778.56
536.05	41713.03
536.22	41621.75
536.38	41600.68
536.55	41628.77
536.72	41502.38
536.89	41486.00
537.06	41961.12
537.23	42387.10
537.40	41911.97
537.57	41860.48
537.74	41759.84
537.91	42616.47
538.08	42295.82
538.25	42113.26
538.42	41921.34
538.59	42401.14
538.75	42174.11
538.92	41837.08
539.09	42469.02
539.26	42382.42
539.43	42401.14
539.60	42363.70
539.77	41841.76
539.94	42234.97
540.11	42389.44
540.28	42342.63
540.44	42363.70
540.61	42443.27
540.78	41638.13
540.95	42169.43
541.12	42431.57
541.29	42827.12
541.46	42642.22
541.62	42665.63
541.79	42726.48
541.96	42700.73
542.13	42878.61
542.30	42497.11
542.47	42979.26
542.63	42918.40
542.80	42862.23
542.97	43433.32
543.14	43304.59
543.31	43370.13
543.48	43435.66
543.64	43473.11
543.81	44233.78
543.98	43805.47
544.15	43842.92
544.32	44149.53
544.48	43852.28
544.65	43723.55
544.82	43913.13
544.99	43283.53
545.16	43906.11
545.32	43936.54
545.49	44121.44
545.66	43973.98
545.83	44226.76
546.00	44196.34
546.16	44041.86
546.33	44034.84
546.50	43452.05
546.67	44437.41
546.83	43611.20
547.00	43742.27
547.17	43941.22
547.34	44285.28
547.50	44278.25
547.67	44158.89
547.84	44715.93
548.00	44168.25
548.17	44397.62
548.34	44835.30
548.51	44786.15
548.67	44879.77
548.84	44655.08
549.01	44584.86
549.18	44741.68
549.34	45160.64
549.51	44711.25
549.68	44870.41
549.84	44903.18
550.01	45045.95
550.18	44720.62
550.34	44580.18
550.51	44563.80
550.68	44889.13
550.84	44626.99
551.01	45118.51
551.18	45095.10
551.34	45104.46
551.51	44947.65
551.68	45184.04
551.84	45354.90
552.01	45532.78
552.18	44907.86
552.34	44851.69
552.51	44779.13
552.68	45153.62
552.84	45467.25
553.01	45584.27
553.18	45081.06
553.34	45095.10
553.51	45055.31
553.67	45619.38
553.84	45495.33
554.01	45546.82
554.17	45478.95
554.34	45663.85
554.51	45862.80
554.67	45668.53
554.84	45336.18
555.00	45301.07
555.17	45649.81
555.33	45240.21
555.50	45654.49
555.67	45549.17
555.83	45558.53
556.00	45490.65
556.16	45581.93
556.33	45652.15
556.50	46052.38
556.66	45958.76
556.83	45469.59
556.99	45528.10
557.16	46251.33
557.32	45628.74
557.49	46375.37
557.65	45668.53
557.82	45797.26
557.98	46216.22
558.15	45811.31
558.32	45827.69
558.48	45595.98
558.65	45783.22
558.81	45518.74
558.98	45867.48
559.14	45696.62
559.31	45958.76
559.47	46230.26
559.64	46040.68
559.80	46043.02
559.97	45965.78
560.13	46117.92
560.30	46136.64
560.46	46312.18
560.63	45834.71
560.79	46021.95
560.96	45998.55
561.12	46143.66
561.29	46181.11
561.45	46361.33
561.61	45958.76
561.78	46082.81
561.94	46326.22
562.11	46075.79
562.27	46202.18
562.44	46265.37
562.60	46487.72
562.77	46146.00
562.93	46099.19
563.10	46660.92
563.26	46354.31
563.42	46616.45
563.59	45574.91
563.75	46553.26
563.92	46637.51
564.08	46710.07
564.24	46363.67
564.41	46595.38
564.57	46756.88
564.74	46429.21
564.90	46550.91
565.07	46539.21
565.23	46162.39
565.39	46403.46
565.56	46351.97
565.72	46305.16
565.88	46696.03
566.05	46703.05
566.21	46356.65
566.38	46195.15
566.54	46665.60
566.70	46543.89
566.87	46873.91
567.03	46632.83
567.19	46625.81
567.36	46749.86
567.52	46415.16
567.68	46784.97
567.85	46490.06
568.01	46892.63
568.17	46553.26
568.34	46548.57
568.50	46562.62
568.66	46157.70
568.83	46850.50
568.99	46335.59
569.15	46277.07
569.32	46810.71
569.48	46447.93
569.64	46660.92
569.81	46628.15
569.97	46263.03
570.13	46712.41
570.30	46644.54
570.46	46653.90
570.62	46450.27
570.78	46319.20
570.95	46106.21
571.11	46705.39
571.27	46609.43
571.43	46560.28
571.60	46525.17
571.76	46471.34
571.92	46621.13
572.09	46642.20
572.25	46813.05
572.41	46700.71
572.57	46721.77
572.74	46777.95
572.90	46506.44
573.06	47175.84
573.22	46649.22
573.38	46330.90
573.55	46817.74
573.71	46768.58
573.87	47014.34
574.03	46724.11
574.20	46759.22
574.36	47061.15
574.52	46705.39
574.68	46677.30
574.84	46920.72
575.01	46511.13
575.17	46583.68
575.33	46567.30
575.49	46604.75
575.65	46766.24
575.82	46543.89
575.98	46820.08
576.14	47089.24
576.30	47159.45
576.46	46810.71
576.62	46909.02
576.79	46710.07
576.95	46642.20
577.11	46827.10
577.27	46433.89
577.43	46499.42
577.59	46614.11
577.75	46532.19
577.92	46148.34
578.08	46342.61
578.24	46593.04
578.40	46777.95
578.56	47049.45
578.72	46256.01
578.88	47100.94
579.04	46918.38
579.21	46403.46
579.37	46536.87
579.53	46728.80
579.69	46277.07
579.85	46457.29
580.01	47077.54
580.17	46735.82
580.33	47042.43
580.49	46508.79
580.65	47070.51
580.82	46618.79
580.98	46703.05
581.14	46497.08
581.30	47334.99
581.46	47168.82
581.62	47030.72
581.78	46902.00
581.94	46955.83
582.10	46887.95
582.26	47421.59
582.42	47004.98
582.58	47000.30
582.74	46904.34
582.90	47089.24
583.06	47129.03
583.22	46787.31
583.38	47292.86
583.54	47110.30
583.70	46904.34
583.86	47023.70
584.02	46712.41
584.18	47058.81
584.34	47098.60
584.50	46497.08
584.66	46761.56
584.82	46515.81
584.98	47281.16
585.14	47026.04
585.30	46780.29
585.46	47199.24
585.62	46698.37
585.78	46684.33
585.94	46738.16
586.10	46899.65
586.26	46504.10
586.42	47435.64
586.58	47217.97
586.74	47082.22
586.90	46679.64
587.06	47051.79
587.22	47056.47
587.38	47178.18
587.54	47107.96
587.70	46827.10
587.86	46916.04
588.02	47077.54
588.18	47618.20
588.34	46880.93
588.49	46199.83
588.65	45991.53
588.81	46522.83
588.97	46806.03
589.13	46370.69
589.29	46684.33
589.45	46948.81
589.61	46841.14
589.77	46969.87
589.93	46923.06
