SpectraSuite Data File
++++++++++++++++++++++++++++++++++++
Date: Fri Oct 25 11:23:36 EDT 2013
User: price-jones
Dark Spectrum Present: No
Reference Spectrum Present: No
Number of Sampled Component Spectra: 1
Spectrometers: USB2+H05261
Integration Time (usec): 100000 (USB2+H05261)
Spectra Averaged: 1 (USB2+H05261)
Boxcar Smoothing: 0 (USB2+H05261)
Correct for Electrical Dark: No (USB2+H05261)
Strobe/Lamp Enabled: No (USB2+H05261)
Correct for Detector Non-linearity: No (USB2+H05261)
Correct for Stray Light: No (USB2+H05261)
Number of Pixels in Processed Spectrum: 2048
>>>>>Begin Processed Spectral Data<<<<<
365.73	161.50
365.92	161.50
366.12	161.50
366.32	133.41
366.52	156.82
366.72	217.67
366.91	133.41
367.11	105.32
367.31	145.11
367.51	149.79
367.70	93.62
367.90	110.01
368.10	110.01
368.30	107.66
368.49	140.43
368.69	124.05
368.89	70.22
369.09	119.37
369.28	159.16
369.48	168.52
369.68	215.33
369.87	198.95
370.07	180.22
370.27	245.76
370.47	264.48
370.66	543.00
370.86	624.92
371.06	617.90
371.25	657.69
371.45	601.52
371.65	709.18
371.84	671.73
372.04	737.27
372.24	725.57
372.44	704.50
372.63	730.25
372.83	683.44
373.03	807.48
373.22	788.76
373.42	737.27
373.62	751.31
373.81	814.51
374.01	755.99
374.21	830.89
374.40	798.12
374.60	784.08
374.79	793.44
374.99	882.38
375.19	795.78
375.38	933.87
375.58	837.91
375.78	915.15
375.97	844.93
376.17	994.73
376.37	954.94
376.56	926.85
376.76	959.62
376.95	863.66
377.15	896.43
377.35	938.55
377.54	870.68
377.74	898.77
377.93	814.51
378.13	866.00
378.33	950.26
378.52	861.32
378.72	849.61
378.91	847.27
379.11	964.30
379.31	884.72
379.50	933.87
379.70	910.47
379.89	997.07
380.09	922.17
380.28	903.45
380.48	940.90
380.68	999.41
380.87	1020.47
381.07	1011.11
381.26	1025.15
381.46	1055.58
381.65	1109.41
381.85	1036.86
382.04	957.28
382.24	987.71
382.43	1034.52
382.63	1064.94
382.83	1121.12
383.02	1128.14
383.22	1102.39
383.41	1090.69
383.61	1214.74
383.80	1132.82
384.00	1097.71
384.19	1149.20
384.39	1242.82
384.58	1186.65
384.78	1074.31
384.97	1261.55
385.17	1107.07
385.36	1114.10
385.56	1146.86
385.75	1102.39
385.95	1111.75
386.14	1249.85
386.34	1231.12
386.53	1221.76
386.72	1210.06
386.92	1259.21
387.11	1207.72
387.31	1329.42
387.50	1219.42
387.70	1167.93
387.89	1200.69
388.09	1217.08
388.28	1284.95
388.48	1294.32
388.67	1306.02
388.86	1322.40
389.06	1228.78
389.25	1294.32
389.45	1357.51
389.64	1275.59
389.84	1348.15
390.03	1404.32
390.22	1423.05
390.42	1327.08
390.61	1359.85
390.81	1394.96
391.00	1348.15
391.19	1369.21
391.39	1371.55
391.58	1444.11
391.78	1509.65
391.97	1413.68
392.16	1526.03
392.36	1607.95
392.55	1500.28
392.75	1507.30
392.94	1549.43
393.13	1563.48
393.33	1558.80
393.52	1540.07
393.71	1544.75
393.91	1605.61
394.10	1678.16
394.29	1596.25
394.49	1572.84
394.68	1694.55
394.88	1671.14
395.07	1598.59
395.26	1612.63
395.46	1614.97
395.65	1727.32
395.84	1703.91
396.04	1753.06
396.23	1675.82
396.42	1722.63
396.62	1764.76
396.81	1834.98
397.00	1778.81
397.19	1788.17
397.39	1767.10
397.58	1785.83
397.77	1675.82
397.97	1804.55
398.16	1748.38
398.35	1877.11
398.55	1860.73
398.74	1907.54
398.93	2005.84
399.12	1860.73
399.32	1949.67
399.51	1912.22
399.70	2038.61
399.90	1926.26
400.09	2040.95
400.28	2111.16
400.47	2031.58
400.67	2040.95
400.86	2162.66
401.05	2097.12
401.24	2057.33
401.44	2122.87
401.63	2015.20
401.82	2083.08
402.01	2012.86
402.21	2221.17
402.40	2270.32
402.59	2139.25
402.78	2167.34
402.97	2181.38
403.17	2253.94
403.36	2296.07
403.55	2300.75
403.74	2286.70
403.93	2373.30
404.13	2403.73
404.32	2214.15
404.51	2399.05
404.70	2429.48
404.89	2347.56
405.09	2495.01
405.28	2373.30
405.47	2420.11
405.66	2516.08
405.85	2523.10
406.05	2457.56
406.24	2614.38
406.43	2593.31
406.62	2630.76
406.81	2527.78
407.00	2689.28
407.20	2579.27
407.39	2731.41
407.58	2665.87
407.77	2679.91
407.96	2820.35
408.15	2850.77
408.34	2731.41
408.54	2726.72
408.73	2771.19
408.92	2946.73
409.11	2810.98
409.30	2899.92
409.49	2949.08
409.68	2899.92
409.87	2920.99
410.07	3021.63
410.26	3089.51
410.45	3089.51
410.64	3103.55
410.83	2995.89
411.02	3122.27
411.21	3220.58
411.40	3162.06
411.59	3248.66
411.78	3346.97
411.98	3094.19
412.17	3206.53
412.36	3344.63
412.55	3201.85
412.74	3482.72
412.93	3328.24
413.12	3328.24
413.31	3611.45
413.50	3550.59
413.69	3431.23
413.88	3522.51
414.07	3576.34
414.26	3667.62
414.45	3613.79
414.64	3749.54
414.83	3864.22
415.02	3744.86
415.22	3779.97
415.41	3880.61
415.60	3840.82
415.79	3838.48
415.98	4009.34
416.17	3934.44
416.36	4070.19
416.55	3983.59
416.74	4224.67
416.93	4053.81
417.12	3976.57
417.31	4262.12
417.50	4248.07
417.69	4388.50
417.88	4318.29
418.07	4159.13
418.26	4236.37
418.45	4383.82
418.64	4444.68
418.83	4655.33
419.02	4454.04
419.21	4383.82
419.39	4461.06
419.58	4440.00
419.77	4479.79
419.96	4547.66
420.15	4657.67
420.34	4521.92
420.53	4643.62
420.72	4746.61
420.91	4685.75
421.10	4702.14
421.29	4791.08
421.48	4760.65
421.67	4748.95
421.86	4702.14
422.05	4851.93
422.24	4891.72
422.43	4968.96
422.61	4945.55
422.80	5043.85
422.99	4915.12
423.18	4924.49
423.37	5001.72
423.56	5001.72
423.75	4786.40
423.94	4814.48
424.13	4578.09
424.32	4809.80
424.50	5013.43
424.69	5125.77
424.88	5076.62
425.07	4910.44
425.26	5046.20
425.45	5132.79
425.64	4849.59
425.83	4912.78
426.01	5137.48
426.20	5116.41
426.39	5191.31
426.58	5095.35
426.77	5013.43
426.96	5149.18
427.15	5163.22
427.33	5191.31
427.52	5256.84
427.71	5261.52
427.90	5303.65
428.09	5378.55
428.28	5359.83
428.46	5441.75
428.65	5350.46
428.84	5460.47
429.03	5554.09
429.22	5284.93
429.40	5504.94
429.59	5561.11
429.78	5425.36
429.97	5142.16
430.16	5568.13
430.34	5544.73
430.53	5603.24
430.72	5654.73
430.91	5645.37
431.10	5607.92
431.28	5678.14
431.47	5760.06
431.66	5799.85
431.85	5694.52
432.03	5912.19
432.22	5914.53
432.41	5771.76
432.60	6022.20
432.79	5898.15
432.97	5928.58
433.16	6076.03
433.35	6040.92
433.54	6150.93
433.72	6216.46
433.91	6078.37
434.10	6106.46
434.28	6099.44
434.47	6085.39
434.66	6303.06
434.85	6342.85
435.03	6277.32
435.22	6319.45
435.41	6574.56
435.59	6511.37
435.78	6361.58
435.97	6333.49
436.16	6457.54
436.34	6441.15
436.53	6569.88
436.72	6539.46
436.90	6387.32
437.09	6754.79
437.28	6532.44
437.46	6583.93
437.65	6504.35
437.84	6803.94
438.02	6846.07
438.21	6848.41
438.40	6726.70
438.58	7070.76
438.77	7045.01
438.96	6913.94
439.14	7119.91
439.33	7176.08
439.52	7332.90
439.70	7197.15
439.89	7435.88
440.08	7396.09
440.26	7508.44
440.45	7344.60
440.63	7393.75
440.82	7487.37
441.01	7412.48
441.19	7742.49
441.38	7749.51
441.57	7585.68
441.75	7829.09
441.94	8091.23
442.12	7962.50
442.31	7999.95
442.50	8044.42
442.68	7852.50
442.87	7999.95
443.05	8009.31
443.24	8353.37
443.43	8060.80
443.61	8187.19
443.80	8383.80
443.98	8095.91
444.17	7981.23
444.35	8161.45
444.54	8290.18
444.73	8175.49
444.91	8369.76
445.10	8477.42
445.28	8212.94
445.47	8339.33
445.65	8376.78
445.84	8648.28
446.02	8463.38
446.21	8634.24
446.39	8449.33
446.58	8514.87
446.77	8290.18
446.95	8454.02
447.14	8545.30
447.32	8578.06
447.51	8418.91
447.69	8437.63
447.88	8533.59
448.06	8549.98
448.25	8510.19
448.43	8624.87
448.62	8425.93
448.80	8507.85
448.99	8791.05
449.17	8870.63
449.36	8535.93
449.54	8720.84
449.73	8950.21
449.91	8982.98
450.10	9081.28
450.28	9217.03
450.46	9179.58
450.65	9048.51
450.83	8947.87
451.02	9149.15
451.20	9238.09
451.39	9177.24
451.57	9282.56
451.76	9043.83
451.94	9261.50
452.13	9235.75
452.31	9256.82
452.49	9146.81
452.68	9277.88
452.86	9458.10
453.05	9392.57
453.23	9320.01
453.42	9394.91
453.60	9327.03
453.78	9696.84
453.97	9254.48
454.15	9502.58
454.34	9525.98
454.52	9745.99
454.70	9652.37
454.89	9809.19
455.07	9577.47
455.26	9830.25
455.44	9776.42
455.62	10057.28
455.81	10083.03
455.99	10059.62
456.17	10015.15
456.36	10022.17
456.54	10218.78
456.73	10256.23
456.91	10480.92
457.09	10408.36
457.28	10548.79
457.46	10267.93
457.64	10616.67
457.83	10764.12
458.01	10258.57
458.19	10764.12
458.38	10459.85
458.56	10789.87
458.74	10724.33
458.93	10846.04
459.11	10815.62
459.29	10827.32
459.48	10918.60
459.66	10841.36
459.84	10946.69
460.03	11035.63
460.21	11166.70
460.39	11028.60
460.57	11089.46
460.76	11197.12
460.94	11400.75
461.12	11183.08
461.31	11400.75
461.49	11005.20
461.67	11367.98
461.85	11529.48
462.04	11419.47
462.22	11485.01
462.40	11810.34
462.59	11527.14
462.77	11566.93
462.95	11721.40
463.13	11613.74
463.32	11641.82
463.50	11772.89
463.68	11733.11
463.86	11791.62
464.05	11777.58
464.23	11737.79
464.41	12051.42
464.59	11592.67
464.78	12154.40
464.96	12095.89
465.14	11829.07
465.32	12056.10
465.50	12072.48
465.69	12205.89
465.87	11999.93
466.05	12285.47
466.23	12053.76
466.41	12306.54
466.60	12669.32
466.78	12287.81
466.96	12327.60
467.14	12381.43
467.32	12475.06
467.51	12566.34
467.69	12126.32
467.87	12645.91
468.05	12549.95
468.23	12336.96
468.41	12496.12
468.60	12802.73
468.78	12823.80
468.96	12760.60
469.14	12886.99
469.32	13123.38
469.50	12559.31
469.69	13036.78
469.87	13256.79
470.05	13118.70
470.23	13240.41
470.41	13207.64
470.59	13371.48
470.77	13441.70
470.95	13317.65
471.14	13631.28
471.32	13172.54
471.50	13458.08
471.68	13387.86
471.86	13804.48
472.04	13776.39
472.22	14120.45
472.40	13734.26
472.58	13678.09
472.77	14038.53
472.95	14242.16
473.13	14462.17
473.31	13994.06
473.49	14476.21
473.67	14272.59
473.85	14209.39
474.03	14658.78
474.21	14768.78
474.39	14616.65
474.57	14693.88
474.75	14965.39
474.93	14876.44
475.12	15016.88
475.30	15267.31
475.48	15047.30
475.66	15466.26
475.84	15220.50
476.02	15447.54
476.20	15524.77
476.38	15901.60
476.56	16173.10
476.74	16018.63
476.92	15545.84
477.10	15810.32
477.28	16404.81
477.46	16219.91
477.64	16418.86
477.82	16641.21
478.00	17006.33
478.18	16910.37
478.36	16973.56
478.54	17231.02
478.72	17205.28
478.90	17357.41
479.08	17626.57
479.26	17383.16
479.44	17781.05
479.62	18066.60
479.80	17912.12
479.98	18284.26
480.16	18761.73
480.34	18274.90
480.52	18508.96
480.70	18920.89
480.88	18525.34
481.06	18721.95
481.24	18984.09
481.41	19204.10
481.59	19358.57
481.77	19426.45
481.95	19803.27
482.13	19864.13
482.31	19969.45
482.49	20318.19
482.67	20142.65
482.85	20517.14
483.03	20802.68
483.21	20648.21
483.39	20940.77
483.57	20863.54
483.74	21270.79
483.92	21516.54
484.10	21146.74
484.28	21895.71
484.46	22129.77
484.64	22157.85
484.82	22361.48
485.00	22305.31
485.18	22904.48
485.35	22897.46
485.53	22750.01
485.71	23232.16
485.89	23751.76
486.07	23250.88
486.25	23335.14
486.43	23468.55
486.61	23901.55
486.78	23864.10
486.96	24355.61
487.14	24587.33
487.32	24519.45
487.50	24982.88
487.68	25046.07
487.85	25331.62
488.03	25467.37
488.21	25986.97
488.39	25949.52
488.57	26113.36
488.75	26202.30
488.92	26586.15
489.10	26672.74
489.28	26700.83
489.46	27285.97
489.64	26775.73
489.81	27873.44
489.99	27716.62
490.17	27817.27
490.35	28315.80
490.53	28205.80
490.70	28341.55
490.88	28664.54
491.06	29088.18
491.24	28987.53
491.41	29277.76
491.59	29567.99
491.77	29577.35
491.95	29549.26
492.13	29872.26
492.30	30242.06
492.48	30335.68
492.66	30457.39
492.84	30281.85
493.01	30923.16
493.19	30803.79
493.37	30953.58
493.54	31112.74
493.72	31835.97
493.90	31812.56
494.08	31852.35
494.25	32168.32
494.43	32102.79
494.61	32739.41
494.79	32620.05
494.96	32671.54
495.14	33039.00
495.32	33497.75
495.49	33303.48
495.67	33301.14
495.85	33610.09
496.02	33783.29
496.20	33963.51
496.38	34052.45
496.55	34345.02
496.73	34768.66
496.91	34375.45
497.09	35089.31
497.26	34857.60
497.44	35234.42
497.62	35618.27
497.79	35522.31
497.97	35842.96
498.14	35880.41
498.32	36329.80
498.50	36498.31
498.67	36781.52
498.85	36542.78
499.03	36856.42
499.20	36870.46
499.38	36786.20
499.56	37626.45
499.73	37130.26
499.91	37331.54
500.08	37912.00
500.26	37530.49
500.44	37640.50
500.61	37933.06
500.79	37729.44
500.97	38014.98
501.14	38792.04
501.32	38279.46
501.49	38602.46
501.67	38583.73
501.84	38953.54
502.02	39178.23
502.20	38960.56
502.37	39325.68
502.55	39519.95
502.72	39604.20
502.90	39833.58
503.07	39847.62
503.25	39873.37
503.43	39571.44
503.60	40341.47
503.78	40641.06
503.95	40474.88
504.13	40463.18
504.30	41174.70
504.48	40858.73
504.65	40907.88
504.83	41170.02
505.01	41287.05
505.18	41530.47
505.36	41794.95
505.53	41556.21
505.71	41670.90
505.88	41469.61
506.06	41553.87
506.23	41764.52
506.41	41883.89
506.58	42363.70
506.76	42218.58
506.93	42873.93
507.11	42256.03
507.28	42534.56
507.46	42672.65
507.63	43187.56
507.81	43288.21
507.98	43072.88
508.16	43430.98
508.33	43323.32
508.50	43758.66
508.68	43854.62
508.85	44259.53
509.03	43952.92
509.20	44402.30
509.38	44292.30
509.55	44807.22
509.73	44456.14
509.90	44587.21
510.08	44514.65
510.25	44793.17
510.42	44535.71
510.60	45574.91
510.77	45214.47
510.95	45610.02
511.12	45544.48
511.30	45619.38
511.47	45354.90
511.64	45766.84
511.82	45991.53
511.99	45921.31
512.17	46153.02
512.34	45883.86
512.51	46700.71
512.69	46085.15
512.86	46590.70
513.04	46539.21
513.21	46820.08
513.38	46913.70
513.56	47213.29
513.73	46944.12
513.90	47201.58
514.08	46983.91
514.25	47643.94
514.43	47826.51
514.60	47826.51
514.77	47641.60
514.95	47868.64
515.12	47529.26
515.29	47571.39
515.47	47854.59
515.64	48121.41
515.81	47636.92
515.99	48137.80
516.16	48484.20
516.33	48470.15
516.51	48739.32
516.68	48481.86
516.85	48802.51
517.03	49200.40
517.20	48996.77
517.37	48912.52
517.54	48978.05
517.72	49134.87
517.89	49408.71
518.06	49331.47
518.24	49553.82
518.41	49340.83
518.58	49537.44
518.75	49565.52
518.93	49916.61
519.10	49844.05
519.27	49722.34
519.45	50075.76
519.62	49874.48
519.79	50096.83
519.96	50218.53
520.14	50281.73
520.31	50108.53
520.48	50394.07
520.65	50274.71
520.83	50688.98
521.00	51026.02
521.17	50562.59
521.34	51035.38
521.52	50782.60
521.69	50923.04
521.86	50852.82
522.03	51519.87
522.20	51374.76
522.38	51583.07
522.55	51150.07
522.72	51597.11
522.89	51213.26
523.07	51955.21
523.24	51774.99
523.41	51908.40
523.58	51934.15
523.75	51798.40
523.92	51669.67
524.10	52105.01
524.27	51835.84
524.44	52233.74
524.61	52105.01
524.78	52044.15
524.96	52617.58
525.13	52058.20
525.30	52638.65
525.47	52596.52
525.64	52718.23
525.81	52797.80
525.98	52896.11
526.16	52708.86
526.33	52818.87
526.50	52919.51
526.67	52795.46
526.84	53083.35
527.01	52692.48
527.18	53109.10
527.36	53043.56
527.53	53207.40
527.70	53497.62
527.87	53350.17
528.04	53167.61
528.21	53387.62
528.38	53478.90
528.55	53652.10
528.72	53455.50
528.89	53705.93
529.07	53469.54
529.24	53469.54
529.41	53818.28
529.58	53907.22
529.75	53776.15
529.92	54131.91
530.09	54115.53
530.26	54099.14
530.43	54068.72
530.60	53764.45
530.77	54152.97
530.94	54178.72
531.11	54141.27
531.28	54504.06
531.46	54241.92
531.63	54604.70
531.80	54082.76
531.97	54796.62
532.14	54789.60
532.31	54541.50
532.48	54611.72
532.65	54824.71
532.82	54728.75
532.99	54937.05
533.16	54567.25
533.33	55096.21
533.50	55285.79
533.67	54803.64
533.84	54789.60
534.01	55023.65
534.18	55246.00
534.35	55395.80
534.52	55128.98
534.69	55323.24
534.86	55260.05
535.03	55316.22
535.20	55285.79
535.37	55578.36
535.54	55262.39
535.71	55306.86
535.88	55590.06
536.05	55959.87
536.22	55554.96
536.38	55592.40
536.55	55643.90
536.72	55833.48
536.89	55796.03
537.06	55896.67
537.23	55990.30
537.40	55781.99
537.57	55737.52
537.74	55711.77
537.91	55744.54
538.08	55899.01
538.25	55831.14
538.42	56182.22
538.59	56074.55
538.75	55899.01
538.92	56114.34
539.09	56154.13
539.26	56257.12
539.43	56231.37
539.60	56126.05
539.77	56495.85
539.94	56395.21
540.11	56413.93
540.28	56566.07
540.44	56687.78
540.61	56355.42
540.78	56727.56
540.95	56303.93
541.12	56378.82
541.29	56516.92
541.46	56582.45
541.62	56690.12
541.79	56692.46
541.96	56762.67
542.13	56797.78
542.30	56680.75
542.47	56893.74
542.63	57090.35
542.80	56940.55
542.97	57265.89
543.14	57167.58
543.31	57216.74
543.48	57162.90
543.64	57471.85
543.81	57588.88
543.98	57368.87
544.15	57422.70
544.32	57389.94
544.48	57766.76
544.65	57586.54
544.82	57406.32
544.99	57312.70
545.16	57656.76
545.32	57499.94
545.49	57897.83
545.66	57733.99
545.83	57607.61
546.00	57577.18
546.16	57607.61
546.33	57682.50
546.50	57485.90
546.67	57900.17
546.83	57462.49
547.00	57722.29
547.17	57642.71
547.34	57808.89
547.50	57766.76
547.67	58281.68
547.84	58099.12
548.00	58206.78
548.17	58340.19
548.34	58244.23
548.51	58351.90
548.67	58138.91
548.84	58138.91
549.01	58223.17
549.18	58092.10
549.34	58157.63
549.51	58185.72
549.68	58560.20
549.84	58548.50
550.01	58361.26
550.18	58291.04
550.34	58508.71
550.51	58450.20
550.68	58468.92
550.84	58536.80
551.01	58775.53
551.18	58571.91
551.34	58759.15
551.51	58609.35
551.68	58576.59
551.84	58513.39
552.01	58508.71
552.18	58745.11
552.34	58717.02
552.51	58791.92
552.68	58710.00
552.84	58714.68
553.01	58864.47
553.18	58869.15
553.34	59147.68
553.51	58663.19
553.67	58930.01
553.84	58897.24
554.01	58976.82
554.17	59021.29
554.34	59227.26
554.51	59021.29
554.67	59114.91
554.84	59140.66
555.00	59166.40
555.17	59011.93
555.33	59210.87
555.50	58955.75
555.67	59011.93
555.83	59084.48
556.00	59327.90
556.16	59515.14
556.33	59302.15
556.50	59206.19
556.66	59430.88
556.83	59330.24
556.99	59484.72
557.16	59676.64
557.32	59377.05
557.49	59742.17
557.65	59402.80
557.82	59475.35
557.98	59236.62
558.15	59480.03
558.32	59639.19
558.48	59412.16
558.65	59505.78
558.81	59700.04
558.98	59629.83
559.14	59664.94
559.31	59793.67
559.47	59887.29
559.64	59831.11
559.80	59945.80
559.97	59920.05
560.13	59693.02
560.30	59697.70
560.46	59835.80
560.63	59898.99
560.79	59889.63
560.96	59941.12
561.12	59957.50
561.29	59845.16
561.45	59821.75
561.61	60016.02
561.78	59866.22
561.94	59894.31
562.11	59880.27
562.27	60109.64
562.44	60116.66
562.60	59964.52
562.77	60116.66
562.93	59915.37
563.10	60140.07
563.26	59875.58
563.42	60420.93
563.59	60074.53
563.75	60207.94
563.92	60144.75
564.08	59999.63
564.24	60182.19
564.41	60374.12
564.57	60240.71
564.74	60224.32
564.90	60135.38
565.07	60294.54
565.23	60388.16
565.39	60273.48
565.56	60329.65
565.72	60182.19
565.88	60331.99
566.05	60315.61
566.21	60479.44
566.38	60306.24
566.54	60355.39
566.70	60456.04
566.87	60439.65
567.03	60229.01
567.19	60626.90
567.36	60465.40
567.52	60268.79
567.68	60439.65
567.85	60439.65
568.01	60463.06
568.17	60395.18
568.34	60608.17
568.50	60458.38
568.66	60411.57
568.83	60451.36
568.99	60362.42
569.15	60577.75
569.32	60498.17
569.48	60247.73
569.64	60594.13
569.81	60402.21
569.97	60416.25
570.13	60425.61
570.30	60353.05
570.46	60505.19
570.62	60484.12
570.78	60491.15
570.95	60615.19
571.11	60615.19
571.27	60570.72
571.43	60669.03
571.60	60626.90
571.76	60816.48
571.92	60839.89
572.09	60662.00
572.25	60594.13
572.41	60713.50
572.57	60470.08
572.74	60898.40
572.90	60849.25
573.06	60776.69
573.22	60664.35
573.38	60907.76
573.55	60654.98
573.71	60837.54
573.87	60795.42
574.03	60556.68
574.20	60725.20
574.36	60835.20
574.52	61003.72
574.68	60926.49
574.84	60760.31
575.01	60921.80
575.17	61001.38
575.33	60636.26
575.49	60835.20
575.65	61048.19
575.82	60898.40
575.98	60879.67
576.14	61113.73
576.30	60966.27
576.46	60811.80
576.62	60811.80
576.79	60914.78
576.95	60741.58
577.11	60966.27
577.27	61052.87
577.43	60992.02
577.59	60776.69
577.75	60804.78
577.92	60767.33
578.08	60774.35
578.24	60736.90
578.40	60832.86
578.56	60760.31
578.72	60764.99
578.88	61179.26
579.04	61095.00
579.21	60823.50
579.37	61200.33
579.53	61052.87
579.69	60795.42
579.85	60790.73
580.01	61104.37
580.17	60877.33
580.33	61123.09
580.49	61029.47
580.65	61052.87
580.82	61001.38
580.98	60952.23
581.14	60788.39
581.30	61059.90
581.46	61022.45
581.62	61073.94
581.78	60947.55
581.94	60954.57
582.10	61013.08
582.26	61006.06
582.42	60903.08
582.58	61048.19
582.74	60781.37
582.90	61010.74
583.06	60963.93
583.22	60776.69
583.38	61048.19
583.54	61104.37
583.70	61235.44
583.86	61029.47
584.02	61109.05
584.18	61134.79
584.34	60973.30
584.50	60905.42
584.66	60828.18
584.82	60671.37
584.98	61041.17
585.14	61029.47
585.30	60982.66
585.46	61097.34
585.62	61251.82
585.78	61382.89
585.94	60999.04
586.10	60994.36
586.26	61130.11
586.42	61066.92
586.58	61158.20
586.74	61165.22
586.90	61052.87
587.06	60977.98
587.22	61375.87
587.38	61212.03
587.54	61132.45
587.70	61261.18
587.86	61015.43
588.02	61303.31
588.18	61221.39
588.34	61085.64
588.49	61123.09
