SpectraSuite Data File
++++++++++++++++++++++++++++++++++++
Date: Fri Oct 25 10:47:58 EDT 2013
User: price-jones
Dark Spectrum Present: No
Reference Spectrum Present: No
Number of Sampled Component Spectra: 1
Spectrometers: USB2+H05261
Integration Time (usec): 100000 (USB2+H05261)
Spectra Averaged: 1 (USB2+H05261)
Boxcar Smoothing: 0 (USB2+H05261)
Correct for Electrical Dark: No (USB2+H05261)
Strobe/Lamp Enabled: No (USB2+H05261)
Correct for Detector Non-linearity: No (USB2+H05261)
Correct for Stray Light: No (USB2+H05261)
Number of Pixels in Processed Spectrum: 2048
>>>>>Begin Processed Spectral Data<<<<<
365.73	126.39
365.92	126.39
366.12	126.39
366.32	133.41
366.52	65.54
366.72	23.41
366.91	23.41
367.11	14.04
367.31	95.96
367.51	25.75
367.70	0.00
367.90	56.17
368.10	25.75
368.30	58.51
368.49	77.24
368.69	110.01
368.89	72.56
369.09	93.62
369.28	49.15
369.48	189.58
369.68	67.88
369.87	128.73
370.07	74.90
370.27	114.69
370.47	252.78
370.66	393.21
370.86	393.21
371.06	465.77
371.25	437.68
371.45	451.72
371.65	500.87
371.84	486.83
372.04	416.62
372.24	524.28
372.44	521.94
372.63	465.77
372.83	442.36
373.03	498.53
373.22	498.53
373.42	428.32
373.62	573.43
373.81	512.58
374.01	592.16
374.21	493.85
374.40	608.54
374.60	608.54
374.79	554.71
374.99	622.58
375.19	496.19
375.38	510.24
375.58	561.73
375.78	540.66
375.97	538.32
376.17	564.07
376.37	620.24
376.56	582.79
376.76	629.60
376.95	573.43
377.15	564.07
377.35	608.54
377.54	627.26
377.74	638.97
377.93	559.39
378.13	636.63
378.33	599.18
378.52	519.60
378.72	643.65
378.91	634.29
379.11	596.84
379.31	596.84
379.50	550.03
379.70	685.78
379.89	716.20
380.09	645.99
380.28	631.94
380.48	631.94
380.68	718.54
380.87	674.07
381.07	667.05
381.26	636.63
381.46	636.63
381.65	688.12
381.85	704.50
382.04	645.99
382.24	730.25
382.43	662.37
382.63	674.07
382.83	718.54
383.02	706.84
383.22	791.10
383.41	667.05
383.61	704.50
383.80	746.63
384.00	709.18
384.19	732.59
384.39	791.10
384.58	802.80
384.78	767.70
384.97	725.57
385.17	727.91
385.36	685.78
385.56	727.91
385.75	737.27
385.95	730.25
386.14	777.06
386.34	713.86
386.53	767.70
386.72	784.08
386.92	837.91
387.11	823.87
387.31	732.59
387.50	816.85
387.70	770.04
387.89	858.98
388.09	800.46
388.28	830.89
388.48	901.11
388.67	847.27
388.86	884.72
389.06	873.02
389.25	912.81
389.45	891.74
389.64	887.06
389.84	950.26
390.03	908.13
390.22	1008.77
390.42	877.70
390.61	898.77
390.81	915.15
391.00	917.49
391.19	954.94
391.39	903.45
391.58	987.71
391.78	915.15
391.97	966.64
392.16	936.21
392.36	1046.22
392.55	1022.81
392.75	1022.81
392.94	947.92
393.13	938.55
393.33	971.32
393.52	1067.28
393.71	1057.92
393.91	1053.24
394.10	926.85
394.29	1069.62
394.49	1067.28
394.68	1165.59
394.88	1095.37
395.07	1233.46
395.26	1043.88
395.46	1104.73
395.65	1116.44
395.84	1188.99
396.04	1233.46
396.23	1090.69
396.42	1160.91
396.62	1118.78
396.81	1132.82
397.00	1149.20
397.19	1217.08
397.39	1214.74
397.58	1338.79
397.77	1261.55
397.97	1303.68
398.16	1282.61
398.35	1287.29
398.55	1322.40
398.74	1249.85
398.93	1242.82
399.12	1181.97
399.32	1397.30
399.51	1306.02
399.70	1327.08
399.90	1249.85
400.09	1364.53
400.28	1437.09
400.47	1490.92
400.67	1446.45
400.86	1343.47
401.05	1411.34
401.24	1453.47
401.44	1624.33
401.63	1479.22
401.82	1416.02
402.01	1441.77
402.21	1472.20
402.40	1589.22
402.59	1554.12
402.78	1551.78
402.97	1540.07
403.17	1582.20
403.36	1483.90
403.55	1514.33
403.74	1643.06
403.93	1614.97
404.13	1582.20
404.32	1647.74
404.51	1659.44
404.70	1626.67
404.89	1549.43
405.09	1696.89
405.28	1699.23
405.47	1682.85
405.66	1734.34
405.85	1715.61
406.05	1769.44
406.24	1771.79
406.43	1753.06
406.62	1881.79
406.81	1888.81
407.00	1816.26
407.20	1872.43
407.39	1771.79
407.58	1893.49
407.77	1949.67
407.96	1860.73
408.15	2064.35
408.34	1952.01
408.54	2050.31
408.73	1944.99
408.92	1930.94
409.11	1975.41
409.30	2134.57
409.49	1982.43
409.68	1947.33
409.87	1998.82
410.07	2066.69
410.26	2127.55
410.45	2010.52
410.64	2127.55
410.83	2167.34
411.02	2139.25
411.21	2401.39
411.40	2165.00
411.59	2265.64
411.78	2223.51
411.98	2312.45
412.17	2260.96
412.36	2373.30
412.55	2333.51
412.74	2415.43
412.93	2392.03
413.12	2466.92
413.31	2464.58
413.50	2368.62
413.69	2607.36
413.88	2619.06
414.07	2588.63
414.26	2668.21
414.45	2633.10
414.64	2637.78
414.83	2752.47
415.02	2665.87
415.22	2562.89
415.41	2782.90
415.60	2787.58
415.79	2794.60
415.98	2918.65
416.17	2853.11
416.36	2836.73
416.55	2869.50
416.74	2834.39
416.93	2792.26
417.12	3000.57
417.31	2995.89
417.50	3014.61
417.69	3136.32
417.88	3080.14
418.07	2911.63
418.26	3101.21
418.45	3061.42
418.64	3115.25
418.83	2991.20
419.02	3056.74
419.21	3173.77
419.39	3082.49
419.58	3155.04
419.77	3215.90
419.96	3246.32
420.15	3211.22
420.34	3222.92
420.53	3368.03
420.72	3377.39
420.91	3248.66
421.10	3412.50
421.29	3393.78
421.48	3272.07
421.67	3524.85
421.86	3424.20
422.05	3211.22
422.24	3332.92
422.43	3365.69
422.61	3438.25
422.80	3417.18
422.99	3389.10
423.18	3604.42
423.37	3536.55
423.56	3478.04
423.75	3506.12
423.94	3314.20
424.13	3272.07
424.32	3379.73
424.50	3655.92
424.69	3595.06
424.88	3440.59
425.07	3365.69
425.26	3414.84
425.45	3578.68
425.64	3559.95
425.83	3461.65
426.01	3569.32
426.20	3581.02
426.39	3506.12
426.58	3613.79
426.77	3552.93
426.96	3571.66
427.15	3676.98
427.33	3578.68
427.52	3602.08
427.71	3761.24
427.90	3721.45
428.09	3749.54
428.28	3817.41
428.46	3810.39
428.65	3836.14
428.84	3889.97
429.03	3796.35
429.22	3674.64
429.40	3941.46
429.59	3777.62
429.78	3541.23
429.97	3611.45
430.16	3599.74
430.34	3880.61
430.53	3838.48
430.72	3796.35
430.91	3934.44
431.10	3995.29
431.28	4042.11
431.47	4004.66
431.66	4257.43
431.85	4046.79
432.03	4131.05
432.22	4252.75
432.41	4070.19
432.60	4147.43
432.79	4287.86
432.97	4236.37
433.16	4161.47
433.35	4177.86
433.54	4203.60
433.72	4278.50
433.91	4191.90
434.10	4250.41
434.28	4407.23
434.47	4425.95
434.66	4411.91
434.85	4475.10
435.03	4348.72
435.22	4519.57
435.41	4514.89
435.59	4428.29
435.78	4568.73
435.97	4606.17
436.16	4407.23
436.34	4524.26
436.53	4552.34
436.72	4706.82
436.90	4470.42
437.09	4645.96
437.28	4568.73
437.46	4603.83
437.65	4699.80
437.84	4744.27
438.02	4521.92
438.21	4814.48
438.40	4648.30
438.58	4915.12
438.77	4800.44
438.96	4917.47
439.14	4905.76
439.33	5060.24
439.52	4983.00
439.70	4999.38
439.89	5078.96
440.08	5191.31
440.26	5064.92
440.45	5104.71
440.63	5254.50
440.82	5203.01
441.01	5259.18
441.19	5345.78
441.38	5322.38
441.57	5504.94
441.75	5383.23
441.94	5757.72
442.12	5570.48
442.31	5699.20
442.50	5518.98
442.68	5530.69
442.87	5483.88
443.05	5771.76
443.24	5741.33
443.43	5561.11
443.61	5657.07
443.80	5891.13
443.98	5568.13
444.17	5483.88
444.35	5731.97
444.54	5797.51
444.73	5818.57
444.91	5708.57
445.10	5795.17
445.28	5884.11
445.47	5687.50
445.65	5783.46
445.84	5898.15
446.02	5959.00
446.21	5919.21
446.39	5856.02
446.58	6061.99
446.77	6036.24
446.95	5673.46
447.14	6015.18
447.32	5940.28
447.51	5966.03
447.69	6087.73
447.88	6031.56
448.06	5987.09
448.25	6024.54
448.43	6076.03
448.62	5949.64
448.80	6001.13
448.99	6031.56
449.17	6010.50
449.36	6169.65
449.54	6090.07
449.73	6106.46
449.91	6321.79
450.10	6354.55
450.28	6356.90
450.46	6396.68
450.65	6300.72
450.83	6317.11
451.02	6422.43
451.20	6396.68
451.39	6289.02
451.57	6504.35
451.76	6328.81
451.94	6408.39
452.13	6534.78
452.31	6235.19
452.49	6363.92
452.68	6438.81
452.86	6349.87
453.05	6513.71
453.23	6663.51
453.42	6504.35
453.60	6576.91
453.78	6597.97
453.97	6731.38
454.15	6633.08
454.34	6539.46
454.52	6808.62
454.70	6715.00
454.89	6867.13
455.07	6862.45
455.26	6920.96
455.44	6897.56
455.62	6977.14
455.81	6810.96
455.99	6930.33
456.17	6878.83
456.36	7037.99
456.54	7129.27
456.73	7007.56
456.91	7180.76
457.09	7211.19
457.28	7318.86
457.46	7222.89
457.64	7201.83
457.83	7243.96
458.01	7208.85
458.19	7400.77
458.38	7405.46
458.56	7356.30
458.74	7288.43
458.93	7302.47
459.11	7569.29
459.29	7454.61
459.48	7300.13
459.66	7482.69
459.84	7494.40
460.03	7691.00
460.21	7618.44
460.39	7616.10
460.57	7552.91
460.76	7676.96
460.94	7604.40
461.12	7836.11
461.31	7700.36
461.49	7683.98
461.67	7775.26
461.85	7815.05
462.04	7819.73
462.22	8367.42
462.40	7859.52
462.59	7974.21
462.77	7765.90
462.95	8021.02
463.13	8025.70
463.32	8051.44
463.50	7967.18
463.68	7983.57
463.86	8163.79
464.05	7971.86
464.23	7943.78
464.41	8025.70
464.59	7882.92
464.78	8315.92
464.96	8210.60
465.14	7896.97
465.32	8198.90
465.50	8299.54
465.69	8252.73
465.87	8219.96
466.05	8278.47
466.23	8365.07
466.41	8241.03
466.60	8503.17
466.78	8234.00
466.96	8241.03
467.14	8140.38
467.32	8629.56
467.51	8369.76
467.69	8210.60
467.87	8290.18
468.05	8500.83
468.23	8432.95
468.41	8557.00
468.60	8585.08
468.78	8580.40
468.96	8472.74
469.14	8648.28
469.32	8784.03
469.50	8505.51
469.69	8945.53
469.87	8835.52
470.05	8905.74
470.23	8741.90
470.41	8872.97
470.59	8997.02
470.77	8929.14
470.95	8805.10
471.14	9186.60
471.32	8896.38
471.50	9413.63
471.68	9275.54
471.86	9298.95
472.04	9305.97
472.22	9570.45
472.40	9298.95
472.58	9167.88
472.77	9451.08
472.95	9577.47
473.13	9797.48
473.31	9657.05
473.49	9439.38
473.67	9500.23
473.85	9811.53
474.03	9893.44
474.21	9958.98
474.39	9923.87
474.57	9958.98
474.75	9998.77
474.93	10242.18
475.12	10003.45
475.30	10054.94
475.48	10162.61
475.66	10370.91
475.84	10408.36
476.02	10134.52
476.20	10490.28
476.38	10384.96
476.56	10867.11
476.74	10642.42
476.92	10640.08
477.10	10567.52
477.28	10855.40
477.46	10944.34
477.64	11162.01
477.82	11091.80
478.00	11438.20
478.18	11318.83
478.36	11260.32
478.54	11557.57
478.72	11611.40
478.90	11475.65
479.08	11761.19
479.26	11784.60
479.44	11936.73
479.62	12077.16
479.80	11889.92
479.98	11985.88
480.16	12390.80
480.34	12491.44
480.52	12336.96
480.70	12273.77
480.88	12367.39
481.06	12531.23
481.24	12587.40
481.41	12957.21
481.59	13032.10
481.77	13055.51
481.95	13217.01
482.13	13076.57
482.31	13249.77
482.49	13394.89
482.67	13504.89
482.85	13537.66
483.03	13816.18
483.21	13877.04
483.39	13731.92
483.57	13898.10
483.74	13951.93
483.92	14253.86
484.10	13893.42
484.28	14178.97
484.46	14508.98
484.64	14764.10
484.82	14633.03
485.00	14810.91
485.18	15049.64
485.35	15035.60
485.53	15068.37
485.71	15026.24
485.89	15321.15
486.07	15264.97
486.25	15379.66
486.43	15337.53
486.61	15623.08
486.78	15796.28
486.96	16070.12
487.14	15896.92
487.32	16503.12
487.50	16437.58
487.68	16369.71
487.85	16989.95
488.03	16702.06
488.21	17008.67
488.39	16823.77
488.57	17081.23
488.75	16931.44
488.92	17413.59
489.10	17561.04
489.28	18097.02
489.46	17926.16
489.64	17692.11
489.81	18253.84
489.99	18174.26
490.17	18661.09
490.35	18597.90
490.53	18520.66
490.70	18703.22
490.88	18902.17
491.06	19232.18
491.24	19021.53
491.41	19096.43
491.59	18974.72
491.77	19098.77
491.95	19569.22
492.13	19454.53
492.30	19491.98
492.48	19903.92
492.66	20063.07
492.84	19616.03
493.01	20180.10
493.19	19969.45
493.37	20477.35
493.54	20444.58
493.72	20788.64
493.90	20641.18
494.08	20980.56
494.25	20975.88
494.43	20938.43
494.61	21329.30
494.79	21359.73
494.96	21558.67
495.14	21324.62
495.32	21649.96
495.49	21551.65
495.67	21996.35
495.85	22164.87
496.02	22450.42
496.20	22363.82
496.38	22270.20
496.55	22448.08
496.73	22803.84
496.91	22593.19
497.09	22759.37
497.26	22902.14
497.44	23140.88
497.62	23248.54
497.79	23344.50
497.97	23028.53
498.14	23356.21
498.32	23606.64
498.50	23403.02
498.67	23487.28
498.85	23646.43
499.03	24135.60
499.20	24006.87
499.38	24280.72
499.56	24524.13
499.73	24163.69
499.91	24458.60
500.08	24624.78
500.26	24156.67
500.44	24737.12
500.61	24535.84
500.79	24662.22
500.97	24622.44
501.14	25429.92
501.32	25085.86
501.49	25193.53
501.67	25202.89
501.84	25333.96
502.02	25436.94
502.20	25263.74
502.37	25715.47
502.55	25647.59
502.72	25886.32
502.90	25717.81
503.07	25790.36
503.25	25977.61
503.43	26038.46
503.60	25982.29
503.78	26335.71
503.95	26445.71
504.13	26171.87
504.30	26602.53
504.48	26525.29
504.65	26799.13
504.83	26897.44
505.01	26817.86
505.18	26775.73
505.36	27257.88
505.53	27070.64
505.71	27241.50
505.88	27435.76
506.06	27463.85
506.23	27316.39
506.41	27105.74
506.58	27475.55
506.76	27517.68
506.93	27648.75
507.11	27644.07
507.28	27676.83
507.46	27833.65
507.63	27857.06
507.81	27728.33
507.98	27494.27
508.16	28379.00
508.33	28088.77
508.50	28489.00
508.68	28107.49
508.85	28802.63
509.03	28718.37
509.20	28964.13
509.38	28947.75
509.55	29184.14
509.73	29200.52
509.90	28987.53
510.08	29036.69
510.25	29078.82
510.42	28762.84
510.60	29223.93
510.77	29097.54
510.95	29397.13
511.12	29385.43
511.30	29408.83
511.47	29968.22
511.64	30377.81
511.82	29993.97
511.99	29448.62
512.17	30017.37
512.34	30061.84
512.51	30134.40
512.69	30230.36
512.86	29961.20
513.04	30178.87
513.21	30675.06
513.38	30192.91
513.56	30625.91
513.73	30553.35
513.90	30632.93
514.08	30597.82
514.25	31192.32
514.43	31089.34
514.60	30895.07
514.77	31012.10
514.95	31342.11
515.12	31204.02
515.29	31419.35
515.47	31030.82
515.64	31793.84
515.81	31662.77
515.99	31669.79
516.16	31606.59
516.33	31634.68
516.51	31756.39
516.68	31611.28
516.85	31620.64
517.03	31950.65
517.20	31482.55
517.37	32041.93
517.54	32027.89
517.72	32371.95
517.89	32044.27
518.06	32247.90
518.24	32142.58
518.41	32051.30
518.58	32481.95
518.75	32357.91
518.93	32608.34
519.10	32680.90
519.27	32739.41
519.45	32865.80
519.62	33179.43
519.79	33191.14
519.96	33188.80
520.14	33275.40
520.31	32659.84
520.48	33273.06
520.65	33024.96
520.83	33369.02
521.00	33432.21
521.17	33413.49
521.34	33677.97
521.52	33944.79
521.69	33773.93
521.86	34195.23
522.03	34328.64
522.20	34319.28
522.38	34136.71
522.55	34045.43
522.72	34277.15
522.89	34330.98
523.07	34298.21
523.24	34099.26
523.41	34513.54
523.58	34581.42
523.75	34642.27
523.92	35168.89
524.10	34806.11
524.27	34859.94
524.44	34866.96
524.61	35014.41
524.78	35068.25
524.96	35047.18
525.13	35175.91
525.30	35332.73
525.47	35225.06
525.64	35557.42
525.81	35414.65
525.98	35239.11
526.16	35211.02
526.33	34946.54
526.50	35770.41
526.67	35267.19
526.84	35840.62
527.01	35480.18
527.18	35665.08
527.36	36297.03
527.53	36032.55
527.70	36037.23
527.87	36247.88
528.04	36168.30
528.21	35791.47
528.38	36299.37
528.55	36046.59
528.72	36432.78
528.89	36472.57
529.07	36727.69
529.24	36437.46
529.41	36383.63
529.58	36156.60
529.75	36411.71
529.92	36961.74
530.09	36575.55
530.26	36788.54
530.43	36926.63
530.60	36854.08
530.77	36935.99
530.94	37500.06
531.11	36783.86
531.28	37043.66
531.46	37081.11
531.63	37289.42
531.80	36935.99
531.97	36973.44
532.14	37401.76
532.31	36968.76
532.48	37329.20
532.65	37926.04
532.82	37303.46
532.99	37469.64
533.16	37457.93
533.33	37624.11
533.50	37794.97
533.67	37865.19
533.84	37720.07
534.01	37741.14
534.18	37869.87
534.35	38384.79
534.52	37902.64
534.69	37886.25
534.86	38087.54
535.03	37851.14
535.20	38314.57
535.37	38733.53
535.54	38312.23
535.71	38176.48
535.88	38438.62
536.05	38256.06
536.22	38630.54
536.38	38122.65
536.55	38244.35
536.72	38742.89
536.89	38618.84
537.06	38476.07
537.23	38590.75
537.40	38602.46
537.57	38309.89
537.74	38754.59
537.91	38946.51
538.08	39119.71
538.25	38703.10
538.42	38944.17
538.59	39058.86
538.75	38902.04
538.92	39360.79
539.09	39147.80
539.26	39522.29
539.43	39243.76
539.60	39648.68
539.77	39351.43
539.94	39281.21
540.11	38607.14
540.28	39786.77
540.44	39257.81
540.61	39288.23
540.78	39129.08
540.95	39386.54
541.12	39746.98
541.29	39709.53
541.46	39529.31
541.62	39924.86
541.79	39938.90
541.96	39779.74
542.13	39878.05
542.30	40027.84
542.47	39889.75
542.63	39674.42
542.80	40252.53
542.97	40463.18
543.14	40744.05
543.31	40505.31
543.48	40514.67
543.64	41134.92
543.81	40399.99
543.98	40437.44
544.15	40348.50
544.32	41209.81
544.48	40671.49
544.65	40774.47
544.82	40767.45
544.99	40456.16
545.16	40957.03
545.32	40772.13
545.49	41317.48
545.66	41111.51
545.83	40582.55
546.00	40776.81
546.16	41003.85
546.33	40996.82
546.50	40474.88
546.67	41251.94
546.83	40608.29
547.00	41031.93
547.17	41036.61
547.34	40746.39
547.50	41167.68
547.67	41715.37
547.84	41780.90
548.00	41680.26
548.17	41577.28
548.34	41439.18
548.51	41717.71
548.67	41619.41
548.84	41680.26
549.01	41478.97
549.18	41834.74
549.34	41858.14
549.51	41858.14
549.68	41708.35
549.84	42078.15
550.01	41965.81
550.18	42043.04
550.34	41404.08
550.51	42312.20
550.68	41691.96
550.84	41738.77
551.01	42213.90
551.18	41766.86
551.34	42279.44
551.51	41865.16
551.68	42309.86
551.84	42129.64
552.01	41532.81
552.18	42424.55
552.34	42366.04
552.51	42918.40
552.68	42171.77
552.84	42710.10
553.01	42766.27
553.18	42445.62
553.34	42614.13
553.51	42216.24
553.67	42305.18
553.84	42469.02
554.01	42670.31
554.17	42862.23
554.34	42623.50
554.51	42724.14
554.67	42859.89
554.84	42710.10
555.00	42649.24
555.17	43115.01
555.33	43068.20
555.50	42705.41
555.67	42967.55
555.83	43140.75
556.00	42831.80
556.16	43255.44
556.33	43077.56
556.50	42918.40
556.66	43225.01
556.83	42487.74
556.99	42972.24
557.16	42808.40
557.32	42855.21
557.49	43063.52
557.65	42887.98
557.82	43009.68
557.98	43232.04
558.15	43650.99
558.32	43421.62
558.48	43508.22
558.65	43145.44
558.81	43075.22
558.98	43533.96
559.14	43175.86
559.31	43189.91
559.47	43487.15
559.64	43866.32
559.80	43548.01
559.97	43480.13
560.13	43335.02
560.30	43643.97
560.46	43655.67
560.63	43791.42
560.79	43381.83
560.96	43812.49
561.12	43370.13
561.29	43566.73
561.45	43636.95
561.61	43353.74
561.78	43695.46
561.94	43232.04
562.11	43882.70
562.27	43753.97
562.44	43468.43
562.60	43903.77
562.77	43688.44
562.93	43702.48
563.10	44039.52
563.26	43077.56
563.42	44098.03
563.59	43646.31
563.75	43999.73
563.92	43964.62
564.08	43833.55
564.24	43985.69
564.41	44257.19
564.57	43952.92
564.74	44158.89
564.90	44329.75
565.07	43934.20
565.23	43786.74
565.39	44135.48
565.56	44154.21
565.72	43510.56
565.88	44245.49
566.05	44067.61
566.21	44055.90
566.38	44423.37
566.54	44226.76
566.70	44315.70
566.87	44708.91
567.03	44435.07
567.19	44535.71
567.36	44390.60
567.52	44088.67
567.68	44725.30
567.85	44004.41
568.01	44266.55
568.17	44046.54
568.34	44374.22
568.50	44467.84
568.66	44069.95
568.83	44201.02
568.99	44020.80
569.15	43803.13
569.32	43985.69
569.48	43863.98
569.64	44285.28
569.81	44083.99
569.97	44182.29
570.13	43887.39
570.30	44051.22
570.46	43882.70
570.62	44191.65
570.78	44114.42
570.95	44107.40
571.11	44149.53
571.27	44619.97
571.43	44074.63
571.60	44643.38
571.76	44278.25
571.92	44325.07
572.09	44430.39
572.25	44584.86
572.41	44289.96
572.57	44430.39
572.74	44694.87
572.90	44186.97
573.06	44439.75
573.22	44711.25
573.38	44037.18
573.55	44339.11
573.71	44664.44
573.87	44580.18
574.03	43863.98
574.20	44643.38
574.36	44212.72
574.52	44453.79
574.68	44268.89
574.84	44832.96
575.01	44500.61
575.17	44273.57
575.33	44147.18
575.49	44357.83
575.65	44596.57
575.82	44584.86
575.98	44233.78
576.14	44816.58
576.30	44336.77
576.46	44102.71
576.62	44259.53
576.79	44577.84
576.95	44411.67
577.11	44088.67
577.27	44832.96
577.43	44877.43
577.59	44240.81
577.75	44900.84
577.92	44580.18
578.08	44112.08
578.24	44177.61
578.40	44165.91
578.56	44505.29
578.72	44474.86
578.88	44456.14
579.04	44346.13
579.21	44025.48
579.37	44612.95
579.53	44296.98
579.69	44566.14
579.85	44629.34
580.01	44547.42
580.17	44605.93
580.33	45207.45
580.49	44837.64
580.65	44423.37
580.82	44713.59
580.98	44463.16
581.14	44198.68
581.30	44818.92
581.46	44531.03
581.62	44402.30
581.78	44570.82
581.94	44795.51
582.10	44229.10
582.26	44795.51
582.42	44704.23
582.58	44737.00
582.74	44725.30
582.90	44687.85
583.06	44837.64
583.22	44755.72
583.38	44767.43
583.54	44924.24
583.70	44589.55
583.86	44329.75
584.02	44280.60
584.18	45282.34
584.34	44697.21
584.50	44341.45
584.66	44076.97
584.82	44776.79
584.98	44648.06
585.14	45092.76
585.30	44545.08
585.46	44612.95
585.62	44409.32
585.78	44568.48
585.94	44776.79
586.10	44509.97
586.26	44662.10
586.42	44676.15
586.58	44907.86
586.74	44383.58
586.90	44701.89
587.06	44973.39
587.22	44760.40
587.38	44449.11
587.54	44748.70
587.70	44664.44
587.86	44949.99
588.02	44657.42
588.18	44870.41
588.34	44900.84
588.49	44575.50
588.65	44388.26
588.81	45027.23
588.97	44229.10
589.13	44245.49
589.29	44765.09
589.45	44690.19
589.61	44741.68
589.77	45069.36
589.93	45268.30
590.08	44971.05
590.24	44872.75
