SpectraSuite Data File
++++++++++++++++++++++++++++++++++++
Date: Fri Oct 25 10:43:45 EDT 2013
User: price-jones
Dark Spectrum Present: No
Reference Spectrum Present: No
Number of Sampled Component Spectra: 1
Spectrometers: USB2+H05261
Integration Time (usec): 100000 (USB2+H05261)
Spectra Averaged: 1 (USB2+H05261)
Boxcar Smoothing: 0 (USB2+H05261)
Correct for Electrical Dark: No (USB2+H05261)
Strobe/Lamp Enabled: No (USB2+H05261)
Correct for Detector Non-linearity: No (USB2+H05261)
Correct for Stray Light: No (USB2+H05261)
Number of Pixels in Processed Spectrum: 2048
>>>>>Begin Processed Spectral Data<<<<<
365.73	107.66
365.92	107.66
366.12	107.66
366.32	74.90
366.52	0.00
366.72	35.11
366.91	72.56
367.11	79.58
367.31	0.00
367.51	0.00
367.70	0.00
367.90	18.72
368.10	0.00
368.30	44.47
368.49	0.00
368.69	107.66
368.89	72.56
369.09	18.72
369.28	72.56
369.48	0.00
369.68	100.64
369.87	72.56
370.07	37.45
370.27	163.84
370.47	231.71
370.66	390.87
370.86	379.17
371.06	388.53
371.25	484.49
371.45	365.12
371.65	430.66
371.84	444.70
372.04	416.62
372.24	552.37
372.44	531.30
372.63	521.94
372.83	547.69
373.03	526.62
373.22	573.43
373.42	528.96
373.62	505.56
373.81	540.66
374.01	552.37
374.21	601.52
374.40	362.78
374.60	559.39
374.79	552.37
374.99	512.58
375.19	503.22
375.38	643.65
375.58	610.88
375.78	596.84
375.97	674.07
376.17	613.22
376.37	575.77
376.56	667.05
376.76	585.13
376.95	552.37
377.15	624.92
377.35	599.18
377.54	550.03
377.74	667.05
377.93	603.86
378.13	671.73
378.33	601.52
378.52	641.31
378.72	692.80
378.91	702.16
379.11	636.63
379.31	636.63
379.50	554.71
379.70	699.82
379.89	676.41
380.09	641.31
380.28	692.80
380.48	699.82
380.68	667.05
380.87	667.05
381.07	669.39
381.26	692.80
381.46	706.84
381.65	674.07
381.85	685.78
382.04	699.82
382.24	676.41
382.43	681.10
382.63	709.18
382.83	732.59
383.02	812.17
383.22	711.52
383.41	788.76
383.61	631.94
383.80	748.97
384.00	676.41
384.19	809.83
384.39	814.51
384.58	830.89
384.78	800.46
384.97	856.64
385.17	786.42
385.36	748.97
385.56	746.63
385.75	767.70
385.95	854.30
386.14	823.87
386.34	868.34
386.53	802.80
386.72	805.14
386.92	849.61
387.11	851.96
387.31	837.91
387.50	837.91
387.70	889.40
387.89	891.74
388.09	875.36
388.28	819.19
388.48	844.93
388.67	910.47
388.86	966.64
389.06	924.51
389.25	1015.79
389.45	973.66
389.64	952.60
389.84	1008.77
390.03	987.71
390.22	1048.56
390.42	1006.43
390.61	1004.09
390.81	1074.31
391.00	1081.33
391.19	1001.75
391.39	1050.90
391.58	1064.94
391.78	1039.20
391.97	1034.52
392.16	1015.79
392.36	994.73
392.55	1139.84
392.75	1034.52
392.94	1050.90
393.13	966.64
393.33	987.71
393.52	1013.45
393.71	1050.90
393.91	1083.67
394.10	1167.93
394.29	1043.88
394.49	1062.60
394.68	1259.21
394.88	1235.80
395.07	1224.10
395.26	1294.32
395.46	1245.16
395.65	1233.46
395.84	1196.01
396.04	1247.51
396.23	1177.29
396.42	1156.22
396.62	1196.01
396.81	1135.16
397.00	1193.67
397.19	1224.10
397.39	1235.80
397.58	1366.87
397.77	1362.19
397.97	1394.96
398.16	1357.51
398.35	1371.55
398.55	1423.05
398.74	1474.54
398.93	1591.56
399.12	1533.05
399.32	1348.15
399.51	1465.18
399.70	1694.55
399.90	1479.22
400.09	1523.69
400.28	1572.84
400.47	1511.99
400.67	1591.56
400.86	1610.29
401.05	1724.97
401.24	1739.02
401.44	1593.90
401.63	1558.80
401.82	1750.72
402.01	1724.97
402.21	1741.36
402.40	1820.94
402.59	1703.91
402.78	1657.10
402.97	1755.40
403.17	1764.76
403.36	1851.36
403.55	1788.17
403.74	1914.56
403.93	1811.57
404.13	1790.51
404.32	1827.96
404.51	1851.36
404.70	1902.86
404.89	1795.19
405.09	1989.46
405.28	1912.22
405.47	1989.46
405.66	2029.24
405.85	1916.90
406.05	2001.16
406.24	2029.24
406.43	2024.56
406.62	2087.76
406.81	2127.55
407.00	2024.56
407.20	1982.43
407.39	2036.27
407.58	2165.00
407.77	2169.68
407.96	2286.70
408.15	2253.94
408.34	2174.36
408.54	2167.34
408.73	2242.23
408.92	2251.60
409.11	2256.28
409.30	2244.57
409.49	2282.02
409.68	2260.96
409.87	2216.49
410.07	2307.77
410.26	2303.09
410.45	2434.16
410.64	2370.96
410.83	2389.69
411.02	2513.74
411.21	2544.16
411.40	2427.14
411.59	2576.93
411.78	2504.37
411.98	2588.63
412.17	2698.64
412.36	2642.46
412.55	2630.76
412.74	2597.99
412.93	2670.55
413.12	2733.75
413.31	2862.48
413.50	2935.03
413.69	2820.35
413.88	2808.64
414.07	2785.24
414.26	2925.67
414.45	3040.36
414.64	2911.63
414.83	2850.77
415.02	2920.99
415.22	3117.59
415.41	3112.91
415.60	3042.70
415.79	3176.11
415.98	3185.47
416.17	3098.87
416.36	3143.34
416.55	3148.02
416.74	3262.71
416.93	3171.43
417.12	3192.49
417.31	3274.41
417.50	3274.41
417.69	3368.03
417.88	3396.12
418.07	3433.57
418.26	3351.65
418.45	3382.07
418.64	3648.90
418.83	3478.04
419.02	3506.12
419.21	3494.42
419.39	3564.64
419.58	3461.65
419.77	3543.57
419.96	3595.06
420.15	3588.04
420.34	3646.55
420.53	3674.64
420.72	3651.24
420.91	3775.28
421.10	3794.01
421.29	3803.37
421.48	3599.74
421.67	3911.04
421.86	3798.69
422.05	3744.86
422.24	3688.68
422.43	3880.61
422.61	3896.99
422.80	3822.09
422.99	3845.50
423.18	3815.07
423.37	3981.25
423.56	3978.91
423.75	3840.82
423.94	3810.39
424.13	3592.72
424.32	3599.74
424.50	3922.74
424.69	3962.53
424.88	3943.80
425.07	3749.54
425.26	3878.27
425.45	3796.35
425.64	3864.22
425.83	3896.99
426.01	3967.21
426.20	4039.76
426.39	4016.36
426.58	3934.44
426.77	3957.85
426.96	3796.35
427.15	4016.36
427.33	3941.46
427.52	4037.42
427.71	4128.70
427.90	4135.73
428.09	4297.22
428.28	4007.00
428.46	4058.49
428.65	4114.66
428.84	4245.73
429.03	4208.28
429.22	3950.82
429.40	4093.60
429.59	4140.41
429.78	3852.52
429.97	3871.25
430.16	3948.48
430.34	4285.52
430.53	4170.83
430.72	4081.89
430.91	4170.83
431.10	4100.62
431.28	4482.13
431.47	4489.15
431.66	4578.09
431.85	4596.81
432.03	4402.55
432.22	4585.11
432.41	4566.39
432.60	4627.24
432.79	4697.46
432.97	4720.86
433.16	4674.05
433.35	4613.20
433.54	4676.39
433.72	4514.89
433.91	4676.39
434.10	4650.64
434.28	4774.69
434.47	4657.67
434.66	4795.76
434.85	4842.57
435.03	4772.35
435.22	4896.40
435.41	5006.41
435.59	4968.96
435.78	5034.49
435.97	5193.65
436.16	5121.09
436.34	4863.63
436.53	5055.56
436.72	5195.99
436.90	5158.54
437.09	5107.05
437.28	4980.66
437.46	5088.32
437.65	4971.30
437.84	5032.15
438.02	5050.88
438.21	5057.90
438.40	4957.25
438.58	5291.95
438.77	5416.00
438.96	5425.36
439.14	5516.64
439.33	5425.36
439.52	5530.69
439.70	5703.89
439.89	5680.48
440.08	5628.99
440.26	5699.20
440.45	5603.24
440.63	5844.32
440.82	5998.79
441.01	5762.40
441.19	5982.41
441.38	6012.84
441.57	6071.35
441.75	5968.37
441.94	5994.11
442.12	6188.38
442.31	6253.91
442.50	6225.82
442.68	6282.00
442.87	6221.14
443.05	6272.64
443.24	6408.39
443.43	6483.28
443.61	6480.94
443.80	6600.31
443.98	6127.52
444.17	6155.61
444.35	6380.30
444.54	6530.09
444.73	6516.05
444.91	6380.30
445.10	6424.77
445.28	6335.83
445.47	6340.51
445.65	6396.68
445.84	6392.00
446.02	6408.39
446.21	6480.94
446.39	6401.37
446.58	6600.31
446.77	6464.56
446.95	6345.19
447.14	6642.44
447.32	6640.10
447.51	6665.85
447.69	6637.76
447.88	6785.21
448.06	6675.21
448.25	6597.97
448.43	6757.13
448.62	6572.22
448.80	6722.02
448.99	6595.63
449.17	6857.77
449.36	6672.87
449.54	6810.96
449.73	6946.71
449.91	7155.02
450.10	7047.35
450.28	7119.91
450.46	7021.61
450.65	7019.27
450.83	7082.46
451.02	7112.89
451.20	7332.90
451.39	7194.81
451.57	7089.48
451.76	7246.30
451.94	7045.01
452.13	7176.08
452.31	7143.32
452.49	7014.59
452.68	7007.56
452.86	7007.56
453.05	7073.10
453.23	7157.36
453.42	7143.32
453.60	7201.83
453.78	7304.81
453.97	7342.26
454.15	7332.90
454.34	7232.26
454.52	7489.71
454.70	7424.18
454.89	7513.12
455.07	7307.15
455.26	7456.95
455.44	7709.72
455.62	7613.76
455.81	7534.18
455.99	7522.48
456.17	7840.79
456.36	7763.56
456.54	7833.77
456.73	7882.92
456.91	8098.25
457.09	8018.68
457.28	8168.47
457.46	7770.58
457.64	8025.70
457.83	7964.84
458.01	7971.86
458.19	8067.83
458.38	8100.59
458.56	8112.30
458.74	8105.28
458.93	8114.64
459.11	8152.09
459.29	8276.13
459.48	8191.88
459.66	8191.88
459.84	8187.19
460.03	8557.00
460.21	8435.29
460.39	8437.63
460.57	8339.33
460.76	8475.08
460.94	8454.02
461.12	8475.08
461.31	8557.00
461.49	8561.68
461.67	8484.44
461.85	8858.93
462.04	8678.71
462.22	9142.13
462.40	8692.75
462.59	8826.16
462.77	8760.63
462.95	8961.91
463.13	8950.21
463.32	8940.85
463.50	8950.21
463.68	8683.39
463.86	9142.13
464.05	8683.39
464.23	8858.93
464.41	8954.89
464.59	8882.33
464.78	9069.58
464.96	9067.24
465.14	9050.85
465.32	9048.51
465.50	9247.46
465.69	9128.09
465.87	8992.34
466.05	9128.09
466.23	8982.98
466.41	9034.47
466.60	9366.82
466.78	9036.81
466.96	9083.62
467.14	9277.88
467.32	9399.59
467.51	9249.80
467.69	9139.79
467.87	9247.46
468.05	9467.47
468.23	9357.46
468.41	9303.63
468.60	9179.58
468.78	9490.87
468.96	9312.99
469.14	9593.86
469.32	9540.02
469.50	9420.66
469.69	9533.00
469.87	9572.79
470.05	9755.35
470.23	9848.97
470.41	9633.64
470.59	9710.88
470.77	9540.02
470.95	9811.53
471.14	9848.97
471.32	9858.34
471.50	10274.95
471.68	10218.78
471.86	10256.23
472.04	10359.21
472.22	10597.95
472.40	10076.01
472.58	10406.02
472.77	10335.81
472.95	10281.97
473.13	10824.98
473.31	10305.38
473.49	10361.55
473.67	10672.84
473.85	10661.14
474.03	10651.78
474.21	10846.04
474.39	10876.47
474.57	10958.39
474.75	10993.50
474.93	11276.70
475.12	11220.53
475.30	11185.42
475.48	10981.79
475.66	11164.36
475.84	11147.97
476.02	11325.85
476.20	11421.81
476.38	11265.00
476.56	11754.17
476.74	11742.47
476.92	11688.64
477.10	11850.13
477.28	11850.13
477.46	12013.97
477.64	11992.90
477.82	12079.50
478.00	12369.73
478.18	12294.83
478.36	12388.46
478.54	12526.55
478.72	12657.62
478.90	12695.07
479.08	12709.11
479.26	12966.57
479.44	13036.78
479.62	13095.30
479.80	12844.86
479.98	13256.79
480.16	13877.04
480.34	13291.90
480.52	13465.10
480.70	13635.96
480.88	13434.68
481.06	13549.36
481.24	13638.30
481.41	14047.90
481.59	14183.65
481.77	14115.77
481.95	14431.74
482.13	14558.13
482.31	14263.22
482.49	14593.24
482.67	14604.94
482.85	14696.22
483.03	14925.60
483.21	15173.69
483.39	15262.63
483.57	15054.33
483.74	15389.02
483.92	15541.16
484.10	15183.06
484.28	15466.26
484.46	15957.77
484.64	16411.84
484.82	15826.70
485.00	15789.25
485.18	15995.22
485.35	16482.05
485.53	15978.84
485.71	15899.26
485.89	16173.10
486.07	16341.62
486.25	16519.50
486.43	16589.72
486.61	16659.93
486.78	16819.09
486.96	17554.02
487.14	17329.33
487.32	17657.00
487.50	17635.94
487.68	18068.94
487.85	18022.12
488.03	18202.35
488.21	18590.88
488.39	18567.47
488.57	18799.18
488.75	18265.54
488.92	18642.37
489.10	19042.60
489.28	19152.60
489.46	19447.51
489.64	19435.81
489.81	19651.14
489.99	19822.00
490.17	20098.18
490.35	20084.14
490.53	20079.46
490.70	20149.67
490.88	20229.25
491.06	20596.71
491.24	20531.18
491.41	20524.16
491.59	20664.59
491.77	20891.62
491.95	21020.35
492.13	21135.04
492.30	21486.12
492.48	21369.09
492.66	21804.43
492.84	21490.80
493.01	21745.92
493.19	21755.28
493.37	22045.51
493.54	22286.58
493.72	22525.32
493.90	22328.71
494.08	22691.49
494.25	22654.05
494.43	23246.20
494.61	23269.61
494.79	23297.69
494.96	23108.11
495.14	23288.33
495.32	23742.39
495.49	23400.68
495.67	23564.51
495.85	23491.96
496.02	23730.69
496.20	23922.62
496.38	24018.58
496.55	24041.98
496.73	24734.78
496.91	24592.01
497.09	24690.31
497.26	24847.13
497.44	24877.55
497.62	25170.12
497.79	25214.59
497.97	24907.98
498.14	25003.94
498.32	25460.35
498.50	25645.25
498.67	25525.88
498.85	25603.12
499.03	26183.57
499.20	26162.51
499.38	26225.70
499.56	26204.64
499.73	26045.48
499.91	26534.65
500.08	26483.16
500.26	26101.65
500.44	26518.27
500.61	26284.22
500.79	26487.84
500.97	26647.00
501.14	27129.15
501.32	27023.83
501.49	26953.61
501.67	26609.55
501.84	26888.07
502.02	27222.77
502.20	27592.58
502.37	27735.35
502.55	27470.87
502.72	27936.63
502.90	27934.29
503.07	27658.11
503.25	27894.50
503.43	27653.43
503.60	27983.44
503.78	27803.22
503.95	27653.43
504.13	28034.94
504.30	28346.23
504.48	28622.41
504.65	28496.02
504.83	29013.28
505.01	28648.16
505.18	28814.34
505.36	29207.55
505.53	29366.70
505.71	29422.87
505.88	29111.58
506.06	29525.86
506.23	29420.53
506.41	29233.29
506.58	29488.41
506.76	29862.90
506.93	29890.98
507.11	29926.09
507.28	29970.56
507.46	30274.83
507.63	29355.00
507.81	29860.55
507.98	29898.00
508.16	29944.81
508.33	30319.30
508.50	30326.32
508.68	30499.52
508.85	30864.64
509.03	30698.47
509.20	30930.18
509.38	30836.56
509.55	31051.89
509.73	31295.30
509.90	31166.57
510.08	31075.29
510.25	30878.69
510.42	31283.60
510.60	31634.68
510.77	31648.72
510.95	31409.99
511.12	31321.05
511.30	32081.72
511.47	31859.37
511.64	32297.05
511.82	31920.23
511.99	31557.44
512.17	32208.11
512.34	32063.00
512.51	32542.81
512.69	32336.84
512.86	32423.44
513.04	32620.05
513.21	33383.06
513.38	32631.75
513.56	32582.60
513.73	32400.04
513.90	32678.56
514.08	32458.55
514.25	32622.39
514.43	32898.57
514.60	33502.43
514.77	33291.78
514.95	33071.77
515.12	32926.66
515.29	33275.40
515.47	33577.33
515.64	33680.31
515.81	33474.34
515.99	33741.16
516.16	33273.06
516.33	33263.69
516.51	33560.94
516.68	33303.48
516.85	32589.62
517.03	33141.99
517.20	33809.04
517.37	34270.12
517.54	33970.54
517.72	33811.38
517.89	34071.18
518.06	33455.62
518.24	33855.85
518.41	34134.37
518.58	34572.05
518.75	34295.87
518.93	34476.09
519.10	34199.91
519.27	34553.33
519.45	34611.84
519.62	35117.40
519.79	35112.72
519.96	35119.74
520.14	35332.73
520.31	34665.67
520.48	35037.82
520.65	35206.34
520.83	35445.07
521.00	35306.98
521.17	35416.99
521.34	35749.34
521.52	35913.18
521.69	36151.91
521.86	35756.36
522.03	36067.66
522.20	36130.85
522.38	36058.29
522.55	36011.48
522.72	35927.22
522.89	35852.33
523.07	36889.18
523.24	36374.27
523.41	36779.18
523.58	36542.78
523.75	36961.74
523.92	36865.78
524.10	37015.57
524.27	37024.93
524.44	37109.19
524.61	37467.30
524.78	37067.06
524.96	37319.84
525.13	37017.91
525.30	37860.51
525.47	37696.67
525.64	36933.65
525.81	37504.74
525.98	37198.13
526.16	36849.39
526.33	36760.45
526.50	37158.34
526.67	37003.87
526.84	37001.53
527.01	37181.75
527.18	37605.39
527.36	37837.10
527.53	38281.80
527.70	38431.60
527.87	37975.19
528.04	37956.47
528.21	37993.92
528.38	38005.62
528.55	38691.40
528.72	38429.26
528.89	38520.54
529.07	38391.81
529.24	38429.26
529.41	38504.15
529.58	38600.12
529.75	38389.47
529.92	38515.86
530.09	38883.32
530.26	38794.38
530.43	38499.47
530.60	38487.77
530.77	39171.21
530.94	39140.78
531.11	38845.87
531.28	39400.58
531.46	39482.50
531.63	39112.69
531.80	39508.24
531.97	39199.29
532.14	39035.45
532.31	38789.70
532.48	39157.16
532.65	39524.63
532.82	39662.72
532.99	39292.91
533.16	39360.79
533.33	39529.31
533.50	39419.30
533.67	39445.05
533.84	39077.58
534.01	40112.10
534.18	39695.49
534.35	40673.83
534.52	40053.59
534.69	39826.56
534.86	40556.80
535.03	40172.96
535.20	40521.69
535.37	40467.86
535.54	40570.85
535.71	40318.07
535.88	40598.93
536.05	40355.52
536.22	40418.71
536.38	40491.27
536.55	40556.80
536.72	40701.92
536.89	40170.61
537.06	40563.82
537.23	41043.63
537.40	40685.53
537.57	40671.49
537.74	40982.78
537.91	40655.11
538.08	40975.76
538.25	40460.84
538.42	40718.30
538.59	41235.56
538.75	40753.41
538.92	40992.14
539.09	41088.10
539.26	40957.03
539.43	41287.05
539.60	41207.47
539.77	40957.03
539.94	40942.99
540.11	41258.96
540.28	41296.41
540.44	41029.59
540.61	41263.64
540.78	41263.64
540.95	41523.44
541.12	41212.15
541.29	41628.77
541.46	41649.83
541.62	41911.97
541.79	41701.32
541.96	41518.76
542.13	41752.82
542.30	41703.67
542.47	42071.13
542.63	41874.52
542.80	41825.37
542.97	42464.34
543.14	42813.08
543.31	42251.35
543.48	42525.19
543.64	42396.46
543.81	41977.51
543.98	42223.26
544.15	42419.87
544.32	42630.52
544.48	42997.98
544.65	43000.32
544.82	42738.18
544.99	42651.58
545.16	42808.40
545.32	42174.11
545.49	43075.22
545.66	42965.21
545.83	43180.54
546.00	42869.25
546.16	42777.97
546.33	42712.44
546.50	42515.83
546.67	42946.49
546.83	42569.66
547.00	43316.29
547.17	43178.20
547.34	42850.53
547.50	43339.70
547.67	43466.09
547.84	43077.56
548.00	43489.49
548.17	43592.48
548.34	43672.06
548.51	43950.58
548.67	43742.27
548.84	43922.49
549.01	43164.16
549.18	43580.78
549.34	43814.83
549.51	43604.18
549.68	43665.03
549.84	43929.51
550.01	44039.52
550.18	43566.73
550.34	43653.33
550.51	44053.56
550.68	43810.15
550.84	43217.99
551.01	44088.67
551.18	43789.08
551.34	43585.46
551.51	44067.61
551.68	43849.94
551.84	44329.75
552.01	43889.73
552.18	43777.38
552.34	43789.08
552.51	44516.99
552.68	43929.51
552.84	43995.05
553.01	44044.20
553.18	44673.81
553.34	44238.47
553.51	43807.81
553.67	44280.60
553.84	44210.38
554.01	44758.06
554.17	44109.74
554.34	44437.41
554.51	44790.83
554.67	44561.46
554.84	44053.56
555.00	44165.91
555.17	44048.88
555.33	44718.28
555.50	44421.03
555.67	44547.42
555.83	44294.64
556.00	44516.99
556.16	44631.68
556.33	44343.79
556.50	44673.81
556.66	44877.43
556.83	44598.91
556.99	45081.06
557.16	44856.37
557.32	44809.56
557.49	44751.04
557.65	44659.76
557.82	44615.29
557.98	44912.54
558.15	44828.28
558.32	45256.60
558.48	44776.79
558.65	44540.39
558.81	44641.04
558.98	44872.75
559.14	45102.12
559.31	44940.63
559.47	45022.54
559.64	45298.73
559.80	45167.66
559.97	44978.07
560.13	44996.80
560.30	44837.64
560.46	44872.75
560.63	45656.83
560.79	45165.32
560.96	45184.04
561.12	44856.37
561.29	44762.75
561.45	45034.25
561.61	45144.25
561.78	45165.32
561.94	45315.11
562.11	45123.19
562.27	45387.67
562.44	45148.93
562.60	45521.08
562.77	45471.93
562.93	45345.54
563.10	45570.23
563.26	45141.91
563.42	45324.47
563.59	44889.13
563.75	45425.12
563.92	45757.47
564.08	45289.37
564.24	45483.63
564.41	45123.19
564.57	45198.09
564.74	45350.22
564.90	45195.74
565.07	45406.39
565.23	45504.70
565.39	45382.99
565.56	45593.64
565.72	45003.82
565.88	45626.40
566.05	45710.66
566.21	45263.62
566.38	45289.37
566.54	45687.26
566.70	45776.20
566.87	45696.62
567.03	45319.79
567.19	45961.10
567.36	45918.97
567.52	45530.44
567.68	45546.82
567.85	45333.84
568.01	45371.28
568.17	45631.08
568.34	45855.78
568.50	45172.34
568.66	45638.11
568.83	45317.45
568.99	45504.70
569.15	45219.15
569.32	45705.98
569.48	45425.12
569.64	45998.55
569.81	46181.11
569.97	45612.36
570.13	45916.63
570.30	45378.31
570.46	45691.94
570.62	45598.32
570.78	45315.11
570.95	45254.26
571.11	45563.21
571.27	45607.68
571.43	45483.63
571.60	45654.49
571.76	45425.12
571.92	45717.68
572.09	45947.06
572.25	45315.11
572.41	46131.96
572.57	45883.86
572.74	45961.10
572.90	45443.84
573.06	45708.32
573.22	46169.41
573.38	45773.86
573.55	45380.65
573.71	45947.06
573.87	45481.29
574.03	45851.09
574.20	45490.65
574.36	45734.07
574.52	46108.55
574.68	45579.59
574.84	45886.20
575.01	46026.63
575.17	45586.61
575.33	45558.53
575.49	45961.10
575.65	45993.87
575.82	45830.03
575.98	45560.87
576.14	46043.02
576.30	45951.74
576.46	45673.21
576.62	45949.40
576.79	46014.93
576.95	45827.69
577.11	45928.33
577.27	45696.62
577.43	45883.86
577.59	45422.78
577.75	45408.73
577.92	45380.65
578.08	45226.17
578.24	45247.24
578.40	45612.36
578.56	45780.88
578.72	45790.24
578.88	45947.06
579.04	46391.76
579.21	45841.73
579.37	45855.78
579.53	45897.91
579.69	45560.87
579.85	45954.08
580.01	46052.38
580.17	46050.04
580.33	45986.85
580.49	46241.96
580.65	45876.84
580.82	45855.78
580.98	45979.82
581.14	45467.25
581.30	46080.47
581.46	45876.84
581.62	46195.15
581.78	45614.70
581.94	46078.13
582.10	46012.59
582.26	46387.08
582.42	45752.79
582.58	46146.00
582.74	45649.81
582.90	45851.09
583.06	45911.95
583.22	46087.49
583.38	46286.43
583.54	45876.84
583.70	45799.60
583.86	46225.58
584.02	45785.56
584.18	46117.92
584.34	45804.28
584.50	46164.73
584.66	45530.44
584.82	45680.24
584.98	45743.43
585.14	46050.04
585.30	46087.49
585.46	45886.20
585.62	45214.47
585.78	45940.04
585.94	45258.94
586.10	45572.57
586.26	45799.60
586.42	45937.69
586.58	46363.67
586.74	45989.19
586.90	45853.44
587.06	45748.11
587.22	46183.45
587.38	45911.95
587.54	45759.81
587.70	46202.18
587.86	46143.66
588.02	45893.22
588.18	45923.65
588.34	45956.42
588.49	45661.51
588.65	45626.40
588.81	45670.87
588.97	45659.17
589.13	45500.01
589.29	45818.33
589.45	46237.28
589.61	45862.80
589.77	45801.94
589.93	46335.59
