SpectraSuite Data File
++++++++++++++++++++++++++++++++++++
Date: Fri Oct 25 11:22:51 EDT 2013
User: price-jones
Dark Spectrum Present: No
Reference Spectrum Present: No
Number of Sampled Component Spectra: 1
Spectrometers: USB2+H05261
Integration Time (usec): 100000 (USB2+H05261)
Spectra Averaged: 1 (USB2+H05261)
Boxcar Smoothing: 0 (USB2+H05261)
Correct for Electrical Dark: No (USB2+H05261)
Strobe/Lamp Enabled: No (USB2+H05261)
Correct for Detector Non-linearity: No (USB2+H05261)
Correct for Stray Light: No (USB2+H05261)
Number of Pixels in Processed Spectrum: 2048
>>>>>Begin Processed Spectral Data<<<<<
365.73	238.73
365.92	238.73
366.12	238.73
366.32	105.32
366.52	100.64
366.72	166.18
366.91	112.35
367.11	135.75
367.31	145.11
367.51	60.85
367.70	98.30
367.90	131.07
368.10	119.37
368.30	81.92
368.49	117.03
368.69	93.62
368.89	135.75
369.09	161.50
369.28	196.60
369.48	114.69
369.68	196.60
369.87	173.20
370.07	241.08
370.27	278.52
370.47	348.74
370.66	543.00
370.86	622.58
371.06	685.78
371.25	772.38
371.45	608.54
371.65	641.31
371.84	667.05
372.04	748.97
372.24	770.04
372.44	596.84
372.63	767.70
372.83	809.83
373.03	741.95
373.22	706.84
373.42	723.23
373.62	727.91
373.81	774.72
374.01	784.08
374.21	807.48
374.40	802.80
374.60	786.42
374.79	746.63
374.99	840.25
375.19	847.27
375.38	807.48
375.58	866.00
375.78	849.61
375.97	849.61
376.17	842.59
376.37	868.34
376.56	896.43
376.76	819.19
376.95	837.91
377.15	816.85
377.35	929.19
377.54	884.72
377.74	887.06
377.93	940.90
378.13	912.81
378.33	1018.13
378.52	931.53
378.72	950.26
378.91	1006.43
379.11	931.53
379.31	959.62
379.50	1025.15
379.70	976.00
379.89	1048.56
380.09	985.37
380.28	887.06
380.48	922.17
380.68	961.96
380.87	950.26
381.07	1029.84
381.26	987.71
381.46	964.30
381.65	959.62
381.85	1036.86
382.04	1036.86
382.24	1093.03
382.43	929.19
382.63	1036.86
382.83	1055.58
383.02	1186.65
383.22	1158.57
383.41	1029.84
383.61	1086.01
383.80	1212.40
384.00	1067.28
384.19	1107.07
384.39	1151.54
384.58	1179.63
384.78	1090.69
384.97	1156.22
385.17	1224.10
385.36	1144.52
385.56	1163.25
385.75	1081.33
385.95	1167.93
386.14	1198.35
386.34	1228.78
386.53	1259.21
386.72	1184.31
386.92	1275.59
387.11	1266.23
387.31	1210.06
387.50	1266.23
387.70	1245.16
387.89	1242.82
388.09	1165.59
388.28	1212.40
388.48	1355.17
388.67	1308.36
388.86	1329.42
389.06	1376.24
389.25	1409.00
389.45	1249.85
389.64	1357.51
389.84	1390.28
390.03	1385.60
390.22	1453.47
390.42	1385.60
390.61	1287.29
390.81	1383.26
391.00	1430.07
391.19	1416.02
391.39	1439.43
391.58	1514.33
391.78	1537.73
391.97	1427.73
392.16	1502.62
392.36	1493.26
392.55	1535.39
392.75	1511.99
392.94	1600.93
393.13	1579.86
393.33	1547.09
393.52	1490.92
393.71	1596.25
393.91	1589.22
394.10	1675.82
394.29	1528.37
394.49	1568.16
394.68	1614.97
394.88	1598.59
395.07	1760.08
395.26	1724.97
395.46	1755.40
395.65	1666.46
395.84	1729.66
396.04	1825.62
396.23	1811.57
396.42	1710.93
396.62	1781.15
396.81	1809.23
397.00	1692.21
397.19	1921.58
397.39	1767.10
397.58	1806.89
397.77	1774.13
397.97	1790.51
398.16	1809.23
398.35	1980.09
398.55	1891.15
398.74	1870.09
398.93	2017.54
399.12	1944.99
399.32	1870.09
399.51	1973.07
399.70	1947.33
399.90	1977.75
400.09	1963.71
400.28	2031.58
400.47	1956.69
400.67	2026.90
400.86	2036.27
401.05	1966.05
401.24	2146.27
401.44	2104.14
401.63	2195.42
401.82	2094.78
402.01	2111.16
402.21	2195.42
402.40	2162.66
402.59	2214.15
402.78	2246.91
402.97	2223.51
403.17	2387.35
403.36	2225.85
403.55	2317.13
403.74	2335.85
403.93	2333.51
404.13	2466.92
404.32	2228.19
404.51	2380.32
404.70	2335.85
404.89	2396.71
405.09	2420.11
405.28	2408.41
405.47	2452.88
405.66	2422.45
405.85	2495.01
406.05	2495.01
406.24	2560.55
406.43	2602.68
406.62	2672.89
406.81	2759.49
407.00	2471.61
407.20	2612.04
407.39	2675.23
407.58	2729.06
407.77	2750.13
407.96	2729.06
408.15	2764.17
408.34	2619.06
408.54	2665.87
408.73	2794.60
408.92	2925.67
409.11	2993.55
409.30	2972.48
409.49	2970.14
409.68	2960.78
409.87	3009.93
410.07	3000.57
410.26	3023.97
410.45	3009.93
410.64	3115.25
410.83	2949.08
411.02	3169.09
411.21	3255.69
411.40	3075.46
411.59	3274.41
411.78	3136.32
411.98	3155.04
412.17	3239.30
412.36	3251.00
412.55	3342.28
412.74	3396.12
412.93	3398.46
413.12	3290.79
413.31	3478.04
413.50	3473.36
413.69	3475.70
413.88	3552.93
414.07	3658.26
414.26	3627.83
414.45	3651.24
414.64	3639.53
414.83	3676.98
415.02	3885.29
415.22	3899.33
415.41	3868.91
415.60	3850.18
415.79	3894.65
415.98	4086.58
416.17	3990.61
416.36	3974.23
416.55	4009.34
416.74	4152.11
416.93	4067.85
417.12	4163.81
417.31	4196.58
417.50	4112.32
417.69	4318.29
417.88	4177.86
418.07	4222.33
418.26	4236.37
418.45	4428.29
418.64	4561.70
418.83	4468.08
419.02	4325.31
419.21	4500.85
419.39	4699.80
419.58	4620.22
419.77	4339.35
419.96	4617.88
420.15	4798.10
420.34	4744.27
420.53	4610.86
420.72	4727.88
420.91	4620.22
421.10	4882.36
421.29	4943.21
421.48	4624.90
421.67	4652.98
421.86	4727.88
422.05	4767.67
422.24	4791.08
422.43	4863.63
422.61	4936.19
422.80	4910.44
422.99	4943.21
423.18	4968.96
423.37	5114.07
423.56	4990.02
423.75	5001.72
423.94	4954.91
424.13	4657.67
424.32	4849.59
424.50	4816.82
424.69	5069.60
424.88	5006.41
425.07	4959.60
425.26	4992.36
425.45	4954.91
425.64	4865.97
425.83	5053.22
426.01	5305.99
426.20	5074.28
426.39	4954.91
426.58	5205.35
426.77	5121.09
426.96	5249.82
427.15	5259.18
427.33	5177.26
427.52	5184.29
427.71	5146.84
427.90	5401.96
428.09	5369.19
428.28	5437.06
428.46	5453.45
428.65	5357.49
428.84	5465.15
429.03	5556.43
429.22	5397.28
429.40	5366.85
429.59	5430.04
429.78	5310.68
429.97	5359.83
430.16	5359.83
430.34	5530.69
430.53	5650.05
430.72	5706.23
430.91	5687.50
431.10	5678.14
431.28	5722.61
431.47	5860.70
431.66	5858.36
431.85	5781.12
432.03	5856.02
432.22	5984.75
432.41	5872.40
432.60	5973.05
432.79	5966.03
432.97	6080.71
433.16	5949.64
433.35	6076.03
433.54	6113.48
433.72	6160.29
433.91	6279.66
434.10	6155.61
434.28	6087.73
434.47	6242.21
434.66	6225.82
434.85	6307.74
435.03	6342.85
435.22	6347.53
435.41	6513.71
435.59	6406.05
435.78	6530.09
435.97	6525.41
436.16	6396.68
436.34	6604.99
436.53	6530.09
436.72	6700.95
436.90	6597.97
437.09	6497.33
437.28	6649.46
437.46	6719.68
437.65	6656.48
437.84	6712.66
438.02	6822.66
438.21	6829.68
438.40	6871.81
438.58	6913.94
438.77	7012.24
438.96	6888.20
439.14	7157.36
439.33	7229.91
439.52	7143.32
439.70	7122.25
439.89	7173.74
440.08	7384.39
440.26	7426.52
440.45	7524.82
440.63	7566.95
440.82	7517.80
441.01	7702.70
441.19	7623.12
441.38	7852.50
441.57	7625.47
441.75	7751.85
441.94	7943.78
442.12	7997.61
442.31	8093.57
442.50	7889.95
442.68	7824.41
442.87	8208.26
443.05	8346.35
443.24	8336.99
443.43	8145.06
443.61	8294.86
443.80	8512.53
443.98	7955.48
444.17	7955.48
444.35	8212.94
444.54	8376.78
444.73	8259.75
444.91	8292.52
445.10	8409.54
445.28	8386.14
445.47	8278.47
445.65	8329.97
445.84	8414.23
446.02	8622.53
446.21	8329.97
446.39	8299.54
446.58	8411.89
446.77	8435.29
446.95	8454.02
447.14	8545.30
447.32	8594.45
447.51	8535.93
447.69	8561.68
447.88	8540.61
448.06	8507.85
448.25	8531.25
448.43	8650.62
448.62	8634.24
448.80	8638.92
448.99	8617.85
449.17	8620.19
449.36	8456.36
449.54	8800.41
449.73	8936.17
449.91	9018.08
450.10	9029.79
450.28	9200.65
450.46	9071.92
450.65	9118.73
450.83	9123.41
451.02	9041.49
451.20	9067.24
451.39	9163.20
451.57	9205.33
451.76	9195.96
451.94	9202.99
452.13	9348.10
452.31	9221.71
452.49	9100.00
452.68	9284.91
452.86	9516.62
453.05	9610.24
453.23	9317.67
453.42	9465.13
453.60	9444.06
453.78	9540.02
453.97	9568.11
454.15	9528.32
454.34	9542.36
454.52	9834.93
454.70	9961.32
454.89	9870.04
455.07	9771.74
455.26	9940.26
455.44	10024.51
455.62	9968.34
455.81	9865.36
455.99	10061.96
456.17	10162.61
456.36	10071.33
456.54	10188.35
456.73	10162.61
456.91	10527.73
457.09	10574.54
457.28	10609.65
457.46	10335.81
457.64	10569.86
457.83	10473.90
458.01	10403.68
458.19	10738.38
458.38	10663.48
458.56	10721.99
458.74	10768.80
458.93	10597.95
459.11	10757.10
459.29	10789.87
459.48	10810.93
459.66	11094.14
459.84	10860.09
460.03	11211.17
460.21	10885.83
460.39	10972.43
460.57	10977.11
460.76	11119.89
460.94	11405.43
461.12	11089.46
461.31	11166.70
461.49	11213.51
461.67	11375.00
461.85	11576.29
462.04	11477.99
462.22	11978.86
462.40	11485.01
462.59	11644.17
462.77	11606.72
462.95	11662.89
463.13	11662.89
463.32	11620.76
463.50	11726.08
463.68	11990.56
463.86	11782.26
464.05	11758.85
464.23	11824.39
464.41	11889.92
464.59	11747.15
464.78	12409.52
464.96	11946.09
465.14	11681.61
465.32	12161.42
465.50	12123.98
465.69	11878.22
465.87	12278.45
466.05	12159.08
466.23	12407.18
466.41	12182.49
466.60	12449.31
466.78	12369.73
466.96	12018.65
467.14	12262.07
467.32	12526.55
467.51	12566.34
467.69	12322.92
467.87	12222.28
468.05	12674.00
468.23	12528.89
468.41	12484.42
468.60	12753.58
468.78	12800.39
468.96	12542.93
469.14	12828.48
469.32	13069.55
469.50	12678.68
469.69	12699.75
469.87	13172.54
470.05	13429.99
470.23	13135.09
470.41	13172.54
470.59	13420.63
470.77	13284.88
470.95	13319.99
471.14	13530.64
471.32	13121.04
471.50	13607.87
471.68	13401.91
471.86	13771.71
472.04	13635.96
472.22	14181.31
472.40	13867.67
472.58	14092.37
472.77	14125.13
472.95	14050.24
473.13	14848.36
473.31	14504.30
473.49	14129.81
473.67	14146.20
473.85	14396.64
474.03	14595.58
474.21	14878.79
474.39	14778.14
474.57	14459.83
474.75	15000.49
474.93	15073.05
475.12	15007.52
475.30	15459.24
475.48	15019.22
475.66	15066.03
475.84	15269.66
476.02	15330.51
476.20	15527.11
476.38	15962.45
476.56	16032.67
476.74	16023.31
476.92	15847.77
477.10	16032.67
477.28	16205.87
477.46	16475.03
477.64	16507.80
477.82	16657.59
478.00	16919.73
478.18	17149.11
478.36	17205.28
478.54	17315.28
478.72	17153.79
478.90	17362.09
479.08	17465.08
479.26	17951.91
479.44	17898.08
479.62	18085.32
479.80	18204.69
479.98	18356.82
480.16	18480.87
480.34	18115.75
480.52	18677.48
480.70	18717.26
480.88	18745.35
481.06	19066.00
481.24	18991.11
481.41	19026.21
481.59	19400.70
481.77	19887.53
481.95	19704.97
482.13	19623.05
482.31	19599.65
482.49	20587.35
482.67	20144.99
482.85	20486.71
483.03	20542.88
483.21	20917.37
483.39	20994.61
483.57	21289.51
483.74	21025.03
483.92	21474.42
484.10	21530.59
484.28	22291.26
484.46	22080.61
484.64	22389.56
484.82	22010.40
485.00	22572.13
485.18	22824.90
485.35	23136.20
485.53	22838.95
485.71	22941.93
485.89	23372.59
486.07	23506.00
486.25	23503.66
486.43	23957.72
486.61	23939.00
486.78	24273.70
486.96	24531.15
487.14	24652.86
487.32	24896.28
487.50	25095.22
487.68	25207.57
487.85	25488.43
488.03	25699.08
488.21	26115.70
488.39	26075.91
488.57	25792.70
488.75	26377.84
488.92	26195.28
489.10	26611.89
489.28	26766.37
489.46	27096.38
489.64	27040.21
489.81	27660.45
489.99	27868.76
490.17	28364.95
490.35	28456.23
490.53	28479.64
490.70	28479.64
490.88	28189.41
491.06	28971.15
491.24	29160.73
491.41	29317.55
491.59	29415.85
491.77	29563.31
491.95	30110.99
492.13	29560.97
492.30	30157.80
492.48	30448.03
492.66	30455.05
492.84	30710.17
493.01	30897.41
493.19	30876.35
493.37	31068.27
493.54	31360.84
493.72	31377.22
493.90	31807.88
494.08	31821.92
494.25	32133.21
494.43	32163.64
494.61	32510.04
494.79	32929.00
494.96	32748.78
495.14	33062.41
495.32	33418.17
495.49	33263.69
495.67	33668.61
495.85	33429.87
496.02	34052.45
496.20	34005.64
496.38	34134.37
496.55	33986.92
496.73	35222.72
496.91	34871.64
497.09	35271.87
497.26	34878.66
497.44	35353.79
497.62	35379.54
497.79	35763.39
497.97	35440.39
498.14	36367.24
498.32	36320.43
498.50	36538.10
498.67	36760.45
498.85	36694.92
499.03	36982.80
499.20	37060.04
499.38	36638.75
499.56	37951.79
499.73	37233.24
499.91	37368.99
500.08	37801.99
500.26	37509.43
500.44	37546.87
500.61	38183.50
500.79	37600.71
500.97	38621.18
501.14	39051.84
501.32	38993.32
501.49	38775.66
501.67	39042.48
501.84	39402.92
502.02	38927.79
502.20	39180.57
502.37	39398.24
502.55	39545.69
502.72	39622.93
502.90	39889.75
503.07	39770.38
503.25	39866.34
503.43	39840.60
503.60	40215.08
503.78	40196.36
503.95	40664.47
504.13	40825.96
504.30	40889.16
504.48	40526.38
504.65	41284.71
504.83	41415.78
505.01	41296.41
505.18	41469.61
505.36	41654.51
505.53	41776.22
505.71	41998.57
505.88	42075.81
506.06	41715.37
506.23	41823.03
506.41	41886.23
506.58	42391.78
506.76	42204.54
506.93	42780.31
507.11	42663.28
507.28	43185.22
507.46	42838.83
507.63	43283.53
507.81	43344.38
507.98	43199.27
508.16	43363.11
508.33	43721.21
508.50	43784.40
508.68	43985.69
508.85	44119.10
509.03	44027.82
509.20	44655.08
509.38	44271.23
509.55	44783.81
509.73	44598.91
509.90	44765.09
510.08	45043.61
510.25	44591.89
510.42	45095.10
510.60	45504.70
510.77	45539.80
510.95	45872.16
511.12	45418.10
511.30	45603.00
511.47	45394.69
511.64	45808.96
511.82	45986.85
511.99	46017.27
512.17	46127.28
512.34	46122.60
512.51	46422.19
512.69	46663.26
512.86	46389.42
513.04	46859.87
513.21	46887.95
513.38	47217.97
513.56	46988.60
513.73	46817.74
513.90	47243.71
514.08	47114.98
514.25	47597.13
514.43	47505.85
514.60	47693.10
514.77	47325.63
514.95	48423.34
515.12	47646.29
515.29	47784.38
515.47	48343.77
515.64	48203.33
515.81	48217.38
515.99	48318.02
516.16	48570.80
516.33	48446.75
516.51	48928.90
516.68	48584.84
516.85	48648.03
517.03	49221.47
517.20	49258.91
517.37	48851.66
517.54	49057.63
517.72	49406.37
517.89	49181.68
518.06	49406.37
518.24	49450.84
518.41	49387.64
518.58	49745.75
518.75	49296.36
518.93	49626.38
519.10	49305.73
519.27	49984.48
519.45	50124.91
519.62	50108.53
519.79	49682.55
519.96	50052.36
520.14	50204.49
520.31	50033.63
520.48	50731.11
520.65	50344.92
520.83	51166.45
521.00	50813.03
521.17	50677.28
521.34	50859.84
521.52	50714.73
521.69	50857.50
521.86	51133.68
522.03	51299.86
522.20	51051.76
522.38	51365.40
522.55	51606.47
522.72	51571.36
522.89	51641.58
523.07	51461.36
523.24	51564.34
523.41	52011.38
523.58	51608.81
523.75	52004.36
523.92	51990.32
524.10	52058.20
524.27	52428.00
524.44	52222.03
524.61	52107.35
524.78	52060.54
524.96	52413.96
525.13	52861.00
525.30	52523.96
525.47	52748.65
525.64	52481.83
525.81	53113.78
525.98	52811.85
526.16	52917.17
526.33	52797.80
526.50	53052.92
526.67	53099.73
526.84	52931.22
527.01	53221.44
527.18	53207.40
527.36	53352.51
527.53	53406.34
527.70	53654.44
527.87	53455.50
528.04	53247.19
528.21	53499.97
528.38	53436.77
528.55	53829.98
528.72	53741.04
528.89	53614.65
529.07	53371.24
529.24	53729.34
529.41	53979.78
529.58	54042.97
529.75	53799.55
529.92	53722.32
530.09	54113.19
530.26	53918.92
530.43	54525.12
530.60	54019.56
530.77	53982.12
530.94	54071.06
531.11	54049.99
531.28	54190.42
531.46	54181.06
531.63	54482.99
531.80	54363.62
531.97	54461.93
532.14	54658.53
532.31	54717.04
532.48	54885.56
532.65	54803.64
532.82	54326.17
532.99	55084.51
533.16	54738.11
533.33	54908.97
533.50	54869.18
533.67	55110.25
533.84	55128.98
534.01	55091.53
534.18	55077.49
534.35	55281.11
534.52	55133.66
534.69	55290.48
534.86	55569.00
535.03	55381.76
535.20	55164.09
535.37	55414.52
535.54	55704.75
535.71	55667.30
535.88	55466.02
536.05	55756.24
536.22	55791.35
536.38	55756.24
536.55	55573.68
536.72	55955.19
536.89	55760.92
537.06	55999.66
537.23	55817.10
537.40	55781.99
537.57	56053.49
537.74	55784.33
537.91	56217.33
538.08	56074.55
538.25	56046.47
538.42	55929.44
538.59	56086.26
538.75	55927.10
538.92	56109.66
539.09	56568.41
539.26	56343.72
539.43	56268.82
539.60	56575.43
539.77	56381.16
539.94	56404.57
540.11	56360.10
540.28	56755.65
540.44	56472.45
540.61	56439.68
540.78	56364.78
540.95	56631.60
541.12	56666.71
541.29	56362.44
541.46	56633.94
541.62	56523.94
541.79	56821.19
541.96	56474.79
542.13	56781.40
542.30	56842.25
542.47	57113.75
542.63	56835.23
542.80	56973.32
542.97	57193.33
543.14	57179.29
543.31	57216.74
543.48	57228.44
543.64	57677.82
543.81	57546.75
543.98	57600.58
544.15	57626.33
544.32	57509.30
544.48	57696.55
544.65	57598.24
544.82	57425.04
544.99	57324.40
545.16	57687.18
545.32	57488.24
545.49	57937.62
545.66	58061.67
545.83	57909.53
546.00	57752.72
546.16	57673.14
546.33	57797.19
546.50	57879.11
546.67	57946.98
546.83	57701.23
547.00	57865.06
547.17	57914.22
547.34	57883.79
547.50	58096.78
547.67	58136.57
547.84	57804.21
548.00	58309.77
548.17	58445.52
548.34	58354.24
548.51	58384.66
548.67	58300.40
548.84	58424.45
549.01	58178.70
549.18	58197.42
549.34	58314.45
549.51	58394.03
549.68	58351.90
549.84	58569.57
550.01	58536.80
550.18	58475.94
550.34	58504.03
550.51	58674.89
550.68	58649.14
550.84	58522.76
551.01	58710.00
551.18	58445.52
551.34	58625.74
551.51	58745.11
551.68	58653.82
551.84	58883.20
552.01	58489.99
552.18	58728.72
552.34	58681.91
552.51	58873.84
552.68	58857.45
552.84	58820.00
553.01	59171.08
553.18	58953.41
553.34	59103.21
553.51	58616.38
553.67	58941.71
553.84	59166.40
554.01	59171.08
554.17	59030.65
554.34	59061.08
554.51	59082.14
554.67	59334.92
554.84	59079.80
555.00	59222.58
555.17	59054.06
555.33	59119.59
555.50	59002.56
555.67	59224.92
555.83	59002.56
556.00	59220.23
556.16	59456.63
556.33	59503.44
556.50	59484.72
556.66	59552.59
556.83	59306.83
556.99	59543.23
557.16	59650.89
557.32	59714.09
557.49	59690.68
557.65	59447.27
557.82	59557.27
557.98	59393.43
558.15	59540.89
558.32	59662.60
558.48	59386.41
558.65	59604.08
558.81	59732.81
558.98	59732.81
559.14	59803.03
559.31	59784.30
559.47	59791.33
559.64	59917.71
559.80	59903.67
559.97	59929.42
560.13	59725.79
560.30	59852.18
560.46	59889.63
560.63	59693.02
560.79	59821.75
560.96	60140.07
561.12	59842.82
561.29	59966.87
561.45	60111.98
561.61	59901.33
561.78	59896.65
561.94	60032.40
562.11	59838.14
562.27	60039.42
562.44	60081.55
562.60	60177.51
562.77	60210.28
562.93	60011.34
563.10	60193.90
563.26	60086.23
563.42	60404.55
563.59	60271.14
563.75	60128.36
563.92	60128.36
564.08	60278.16
564.24	60465.40
564.41	60348.37
564.57	60252.41
564.74	60339.01
564.90	60243.05
565.07	60261.77
565.23	60320.29
565.39	60257.09
565.56	60254.75
565.72	60423.27
565.88	60266.45
566.05	60374.12
566.21	60488.80
566.38	60383.48
566.54	60350.71
566.70	60556.68
566.87	60488.80
567.03	60339.01
567.19	60427.95
567.36	60563.70
567.52	60404.55
567.68	60566.04
567.85	60734.56
568.01	60729.88
568.17	60303.90
568.34	60640.94
568.50	60472.42
568.66	60294.54
568.83	60573.06
568.99	60411.57
569.15	60619.88
569.32	60591.79
569.48	60601.15
569.64	60654.98
569.81	60779.03
569.97	60512.21
570.13	60570.72
570.30	60542.64
570.46	60582.43
570.62	60804.78
570.78	60694.77
570.95	60720.52
571.11	60949.89
571.27	60505.19
571.43	60736.90
571.60	60912.44
571.76	60535.62
571.92	60889.04
572.09	60877.33
572.25	60629.24
572.41	60802.44
572.57	60907.76
572.74	60891.38
572.90	60608.17
573.06	60748.60
573.22	60736.90
573.38	60842.23
573.55	60809.46
573.71	60954.57
573.87	60772.01
574.03	60533.28
574.20	60743.92
574.36	60631.58
574.52	60788.39
574.68	60860.95
574.84	61006.06
575.01	60889.04
575.17	60959.25
575.33	60903.08
575.49	60570.72
575.65	60935.85
575.82	60884.36
575.98	60994.36
576.14	61008.40
576.30	60963.93
576.46	60769.67
576.62	61041.17
576.79	60788.39
576.95	60846.91
577.11	60736.90
577.27	60856.27
577.43	61080.96
577.59	60949.89
577.75	60924.14
577.92	60781.37
578.08	61109.05
578.24	61064.58
578.40	61130.11
578.56	61160.54
578.72	60914.78
578.88	61017.77
579.04	61193.31
579.21	60919.46
579.37	61125.43
579.53	61221.39
579.69	60889.04
579.85	60994.36
580.01	60870.31
580.17	60734.56
580.33	61120.75
580.49	61097.34
580.65	60975.64
580.82	61151.18
580.98	60863.29
581.14	60949.89
581.30	61043.51
581.46	61118.41
581.62	61209.69
581.78	61017.77
581.94	61029.47
582.10	60977.98
582.26	61174.58
582.42	60921.80
582.58	61197.99
582.74	61090.32
582.90	61022.45
583.06	61153.52
583.22	61043.51
583.38	61226.07
583.54	61064.58
583.70	61228.41
583.86	61109.05
584.02	60781.37
584.18	61279.91
584.34	61099.68
584.50	61205.01
584.66	61151.18
584.82	60931.17
584.98	61240.12
585.14	61284.59
585.30	60842.23
585.46	61195.65
585.62	61120.75
585.78	61368.85
585.94	60928.83
586.10	60924.14
586.26	61151.18
586.42	61284.59
586.58	61165.22
586.74	61212.03
586.90	61197.99
587.06	61148.84
587.22	61277.57
587.38	61263.52
587.54	61312.67
587.70	61516.30
587.86	61317.35
588.02	61434.38
588.18	61375.87
588.34	61256.50
588.49	61230.75
