SpectraSuite Data File
++++++++++++++++++++++++++++++++++++
Date: Fri Oct 25 11:23:32 EDT 2013
User: price-jones
Dark Spectrum Present: No
Reference Spectrum Present: No
Number of Sampled Component Spectra: 1
Spectrometers: USB2+H05261
Integration Time (usec): 100000 (USB2+H05261)
Spectra Averaged: 1 (USB2+H05261)
Boxcar Smoothing: 0 (USB2+H05261)
Correct for Electrical Dark: No (USB2+H05261)
Strobe/Lamp Enabled: No (USB2+H05261)
Correct for Detector Non-linearity: No (USB2+H05261)
Correct for Stray Light: No (USB2+H05261)
Number of Pixels in Processed Spectrum: 2048
>>>>>Begin Processed Spectral Data<<<<<
365.73	189.58
365.92	189.58
366.12	189.58
366.32	208.31
366.52	32.77
366.72	168.52
366.91	119.37
367.11	135.75
367.31	133.41
367.51	105.32
367.70	81.92
367.90	112.35
368.10	95.96
368.30	145.11
368.49	126.39
368.69	121.71
368.89	135.75
369.09	170.86
369.28	166.18
369.48	126.39
369.68	147.45
369.87	173.20
370.07	168.52
370.27	201.29
370.47	297.25
370.66	587.47
370.86	636.63
371.06	610.88
371.25	669.39
371.45	669.39
371.65	739.61
371.84	683.44
372.04	685.78
372.24	734.93
372.44	695.14
372.63	699.82
372.83	716.20
373.03	748.97
373.22	690.46
373.42	723.23
373.62	758.33
373.81	741.95
374.01	753.65
374.21	842.59
374.40	816.85
374.60	807.48
374.79	744.29
374.99	795.78
375.19	847.27
375.38	847.27
375.58	819.19
375.78	868.34
375.97	830.89
376.17	903.45
376.37	851.96
376.56	849.61
376.76	891.74
376.95	807.48
377.15	854.30
377.35	849.61
377.54	851.96
377.74	905.79
377.93	943.24
378.13	1011.11
378.33	933.87
378.52	873.02
378.72	882.38
378.91	1006.43
379.11	950.26
379.31	917.49
379.50	880.04
379.70	1029.84
379.89	1001.75
380.09	1004.09
380.28	997.07
380.48	1015.79
380.68	978.34
380.87	1004.09
381.07	1121.12
381.26	997.07
381.46	910.47
381.65	1034.52
381.85	1025.15
382.04	1057.92
382.24	971.32
382.43	1083.67
382.63	1060.26
382.83	1004.09
383.02	1043.88
383.22	1153.88
383.41	1111.75
383.61	1093.03
383.80	1057.92
384.00	1069.62
384.19	1128.14
384.39	1163.25
384.58	1116.44
384.78	1130.48
384.97	1111.75
385.17	1090.69
385.36	1179.63
385.56	1177.29
385.75	1158.57
385.95	1128.14
386.14	1111.75
386.34	1170.27
386.53	1240.48
386.72	1135.16
386.92	1247.51
387.11	1231.12
387.31	1142.18
387.50	1224.10
387.70	1233.46
387.89	1284.95
388.09	1231.12
388.28	1280.27
388.48	1254.53
388.67	1259.21
388.86	1334.11
389.06	1249.85
389.25	1296.66
389.45	1273.25
389.64	1331.76
389.84	1315.38
390.03	1331.76
390.22	1441.77
390.42	1418.36
390.61	1357.51
390.81	1364.53
391.00	1294.32
391.19	1448.79
391.39	1514.33
391.58	1509.65
391.78	1425.39
391.97	1413.68
392.16	1476.88
392.36	1610.29
392.55	1511.99
392.75	1507.30
392.94	1577.52
393.13	1570.50
393.33	1666.46
393.52	1549.43
393.71	1617.31
393.91	1519.01
394.10	1572.84
394.29	1526.03
394.49	1495.60
394.68	1636.03
394.88	1584.54
395.07	1570.50
395.26	1582.20
395.46	1710.93
395.65	1694.55
395.84	1797.53
396.04	1774.13
396.23	1645.40
396.42	1732.00
396.62	1692.21
396.81	1806.89
397.00	1767.10
397.19	1834.98
397.39	1762.42
397.58	1907.54
397.77	1769.44
397.97	1816.26
398.16	1879.45
398.35	1926.26
398.55	1851.36
398.74	1870.09
398.93	1942.64
399.12	1802.21
399.32	1982.43
399.51	1902.86
399.70	2024.56
399.90	1937.96
400.09	2083.08
400.28	2057.33
400.47	1977.75
400.67	2001.16
400.86	2092.44
401.05	2019.88
401.24	2207.13
401.44	2094.78
401.63	2186.06
401.82	2136.91
402.01	2139.25
402.21	2167.34
402.40	2101.80
402.59	2129.89
402.78	2092.44
402.97	2251.60
403.17	2312.45
403.36	2190.74
403.55	2272.66
403.74	2359.26
403.93	2275.00
404.13	2431.82
404.32	2511.39
404.51	2317.13
404.70	2448.20
404.89	2506.71
405.09	2504.37
405.28	2502.03
405.47	2516.08
405.66	2513.74
405.85	2485.65
406.05	2562.89
406.24	2534.80
406.43	2574.59
406.62	2558.21
406.81	2775.88
407.00	2511.39
407.20	2537.14
407.39	2644.81
407.58	2743.11
407.77	2719.70
407.96	2813.32
408.15	2703.32
408.34	2626.08
408.54	2810.98
408.73	2827.37
408.92	2899.92
409.11	2771.19
409.30	2902.26
409.49	2888.22
409.68	2904.60
409.87	2923.33
410.07	2960.78
410.26	2965.46
410.45	3133.98
410.64	3103.55
410.83	3133.98
411.02	3143.34
411.21	3101.21
411.40	3274.41
411.59	3131.64
411.78	3316.54
411.98	3328.24
412.17	3300.16
412.36	3236.96
412.55	3258.03
412.74	3389.10
412.93	3463.99
413.12	3372.71
413.31	3637.19
413.50	3386.76
413.69	3536.55
413.88	3566.98
414.07	3651.24
414.26	3564.64
414.45	3798.69
414.64	3758.90
414.83	3679.32
415.02	3845.50
415.22	3756.56
415.41	3824.44
415.60	3885.29
415.79	3925.08
415.98	3901.67
416.17	3964.87
416.36	3918.06
416.55	3925.08
416.74	4070.19
416.93	4152.11
417.12	4138.07
417.31	4091.26
417.50	4290.20
417.69	4212.96
417.88	4390.84
418.07	4271.48
418.26	4320.63
418.45	4404.89
418.64	4589.79
418.83	4383.82
419.02	4498.51
419.21	4603.83
419.39	4568.73
419.58	4559.36
419.77	4449.36
419.96	4624.90
420.15	4592.13
420.34	4568.73
420.53	4697.46
420.72	4795.76
420.91	4734.90
421.10	4795.76
421.29	4819.16
421.48	4720.86
421.67	4844.91
421.86	4758.31
422.05	4793.42
422.24	4727.88
422.43	5001.72
422.61	4964.28
422.80	5001.72
422.99	4931.51
423.18	4896.40
423.37	4968.96
423.56	4835.55
423.75	5022.79
423.94	4791.08
424.13	4603.83
424.32	4833.21
424.50	4952.57
424.69	5071.94
424.88	5233.44
425.07	4994.70
425.26	4985.34
425.45	4922.15
425.64	4975.98
425.83	4966.62
426.01	5151.52
426.20	5006.41
426.39	5097.69
426.58	5137.48
426.77	5013.43
426.96	5193.65
427.15	5109.39
427.33	5149.18
427.52	5144.50
427.71	5268.55
427.90	5301.31
428.09	5376.21
428.28	5334.08
428.46	5430.04
428.65	5263.86
428.84	5509.62
429.03	5518.98
429.22	5352.81
429.40	5364.51
429.59	5533.03
429.78	5324.72
429.97	5320.04
430.16	5406.64
430.34	5664.10
430.53	5823.25
430.72	5696.86
430.91	5701.54
431.10	5664.10
431.28	5813.89
431.47	5652.39
431.66	5959.00
431.85	5734.31
432.03	5888.79
432.22	6024.54
432.41	5865.38
432.60	5987.09
432.79	5975.39
432.97	6218.80
433.16	6099.44
433.35	5949.64
433.54	6267.95
433.72	6073.69
433.91	6033.90
434.10	6122.84
434.28	6179.01
434.47	6277.32
434.66	6080.71
434.85	6155.61
435.03	6326.47
435.22	6317.11
435.41	6539.46
435.59	6342.85
435.78	6492.65
435.97	6417.75
436.16	6436.47
436.34	6443.49
436.53	6562.86
436.72	6574.56
436.90	6487.96
437.09	6686.91
437.28	6516.05
437.46	6637.76
437.65	6677.55
437.84	6810.96
438.02	6731.38
438.21	6813.30
438.40	6562.86
438.58	7133.95
438.77	7138.63
438.96	7045.01
439.14	7117.57
439.33	7267.36
439.52	7110.55
439.70	7229.91
439.89	7396.09
440.08	7393.75
440.26	7470.99
440.45	7438.22
440.63	7524.82
440.82	7681.64
441.01	7588.02
441.19	7707.38
441.38	7531.84
441.57	7723.77
441.75	7854.84
441.94	8168.47
442.12	8098.25
442.31	8032.72
442.50	7999.95
442.68	8079.53
442.87	8013.99
443.05	8025.70
443.24	8226.98
443.43	8119.32
443.61	8070.17
443.80	8402.52
443.98	7985.91
444.17	7934.42
444.35	8241.03
444.54	8468.06
444.73	8276.13
444.91	8360.39
445.10	8456.36
445.28	8222.30
445.47	8198.90
445.65	8430.61
445.84	8439.97
446.02	8652.96
446.21	8400.18
446.39	8458.70
446.58	8507.85
446.77	8606.15
446.95	8231.66
447.14	8189.53
447.32	8493.80
447.51	8578.06
447.69	8482.10
447.88	8540.61
448.06	8645.94
448.25	8594.45
448.43	8592.11
448.62	8514.87
448.80	8430.61
448.99	8711.47
449.17	8617.85
449.36	8781.69
449.54	8847.22
449.73	8997.02
449.91	9008.72
450.10	8814.46
450.28	9170.22
450.46	9137.45
450.65	9205.33
450.83	8952.55
451.02	9100.00
451.20	9135.11
451.39	9177.24
451.57	9226.39
451.76	8968.93
451.94	9329.38
452.13	9413.63
452.31	9423.00
452.49	9111.71
452.68	9315.33
452.86	9408.95
453.05	9490.87
453.23	9385.55
453.42	9350.44
453.60	9263.84
453.78	9535.34
453.97	9472.15
454.15	9432.36
454.34	9509.60
454.52	9689.82
454.70	9628.96
454.89	9867.70
455.07	9839.61
455.26	9958.98
455.44	10003.45
455.62	9900.47
455.81	9935.57
455.99	10047.92
456.17	10134.52
456.36	10209.42
456.54	10146.22
456.73	10263.25
456.91	10415.38
457.09	10457.51
457.28	10604.97
457.46	10422.41
457.64	10518.37
457.83	10567.52
458.01	10274.95
458.19	10588.58
458.38	10509.01
458.56	10555.82
458.74	10576.88
458.93	10506.66
459.11	10691.57
459.29	10881.15
459.48	10895.19
459.66	11028.60
459.84	10881.15
460.03	11255.64
460.21	11012.22
460.39	10888.17
460.57	11178.40
460.76	11101.16
460.94	11344.58
461.12	11105.84
461.31	11197.12
461.49	10981.79
461.67	11286.06
461.85	11375.00
462.04	11339.90
462.22	11742.47
462.40	11609.06
462.59	11410.11
462.77	11517.78
462.95	11648.85
463.13	11508.41
463.32	11854.81
463.50	11843.11
463.68	11688.64
463.86	11686.29
464.05	11761.19
464.23	11920.35
464.41	12016.31
464.59	11580.97
464.78	12067.80
464.96	12100.57
465.14	11880.56
465.32	12098.23
465.50	12210.57
465.69	12112.27
465.87	11978.86
466.05	12149.72
466.23	12173.13
466.41	12145.04
466.60	12451.65
466.78	12194.19
466.96	12271.43
467.14	12156.74
467.32	12264.41
467.51	12594.42
467.69	12397.82
467.87	12470.37
468.05	12596.76
468.23	12374.41
468.41	12461.01
468.60	12704.43
468.78	12875.29
468.96	12507.82
469.14	12812.09
469.32	13053.17
469.50	12795.71
469.69	13025.08
469.87	13118.70
470.05	13263.82
470.23	13083.59
470.41	13128.06
470.59	13343.39
470.77	13319.99
470.95	13097.64
471.14	13504.89
471.32	13282.54
471.50	13621.92
471.68	13853.63
471.86	13509.57
472.04	13816.18
472.22	14024.49
472.40	13851.29
472.58	13750.65
472.77	14214.07
472.95	14104.07
473.13	14541.75
473.31	14101.73
473.49	14331.10
473.67	14466.85
473.85	14326.42
474.03	14490.26
474.21	14462.17
474.39	14726.65
474.57	14427.06
474.75	14979.43
474.93	14899.85
475.12	14899.85
475.30	15040.28
475.48	14649.41
475.66	15190.08
475.84	15218.16
476.02	15463.92
476.20	15372.64
476.38	15749.46
476.56	15927.35
476.74	16009.26
476.92	15948.41
477.10	15693.29
477.28	16189.49
477.46	16196.51
477.64	16301.83
477.82	16470.35
478.00	16819.09
478.18	16723.13
478.36	16950.16
478.54	17085.91
478.72	17287.20
478.90	17364.43
479.08	17425.29
479.26	17713.17
479.44	17752.96
479.62	17694.45
479.80	18068.94
479.98	18263.20
480.16	18789.82
480.34	18436.40
480.52	18448.10
480.70	18829.61
480.88	18279.58
481.06	18754.71
481.24	18843.65
481.41	19051.96
481.59	19449.85
481.77	19744.76
481.95	19599.65
482.13	19683.91
482.31	19531.77
482.49	20596.71
482.67	20711.40
482.85	20526.50
483.03	20903.32
483.21	20725.44
483.39	21048.44
483.57	20861.19
483.74	20973.54
483.92	21371.43
484.10	21680.38
484.28	21977.63
484.46	22284.24
484.64	22324.03
484.82	21759.96
485.00	22464.46
485.18	23164.28
485.35	23154.92
485.53	22948.95
485.71	23246.20
485.89	23548.13
486.07	23028.53
486.25	23297.69
486.43	23503.66
486.61	23981.13
486.78	23967.09
486.96	24236.25
487.14	24713.72
487.32	24456.26
487.50	25036.71
487.68	24851.81
487.85	25268.42
488.03	25324.60
488.21	25724.83
488.39	26036.12
488.57	26223.36
488.75	26443.37
488.92	26703.17
489.10	26696.15
489.28	27213.41
489.46	27360.86
489.64	27072.98
489.81	27681.52
489.99	27590.24
490.17	27814.93
490.35	27917.91
490.53	28451.55
490.70	28329.84
490.88	28166.01
491.06	28685.61
491.24	28844.76
491.41	29120.95
491.59	29546.92
491.77	29495.43
491.95	29450.96
492.13	29790.34
492.30	29874.60
492.48	30370.79
492.66	29972.90
492.84	30192.91
493.01	30675.06
493.19	30742.94
493.37	30962.95
493.54	31201.68
493.72	31571.49
493.90	31847.67
494.08	31782.13
494.25	32243.22
494.43	32006.83
494.61	32481.95
494.79	32350.88
494.96	32936.02
495.14	32755.80
495.32	32996.87
495.49	33167.73
495.67	33310.50
495.85	33509.45
496.02	33979.90
496.20	34141.39
496.38	34698.44
496.55	34075.86
496.73	35145.48
496.91	34656.31
497.09	34866.96
497.26	34906.75
497.44	34838.87
497.62	35433.37
497.79	35578.48
497.97	35857.01
498.14	36037.23
498.32	36055.95
498.50	36091.06
498.67	36402.35
498.85	36362.56
499.03	36477.25
499.20	36772.16
499.38	36971.10
499.56	37167.71
499.73	37141.96
499.91	37457.93
500.08	37701.35
500.26	37570.28
500.44	37670.92
500.61	38045.41
500.79	37858.17
500.97	37965.83
501.14	38230.31
501.32	38824.81
501.49	38546.28
501.67	38822.47
501.84	38937.15
502.02	38813.10
502.20	39557.39
502.37	39531.65
502.55	39445.05
502.72	39466.11
502.90	39739.96
503.07	39693.15
503.25	40055.93
503.43	39522.29
503.60	40294.66
503.78	40409.35
503.95	40680.85
504.13	40444.46
504.30	40940.65
504.48	40521.69
504.65	40854.05
504.83	41298.75
505.01	41390.03
505.18	41567.91
505.36	41797.29
505.53	41282.37
505.71	41511.74
505.88	41813.67
506.06	41727.07
506.23	41799.63
506.41	41904.95
506.58	42281.78
506.76	42265.39
506.93	42754.57
507.11	42534.56
507.28	42251.35
507.46	42838.83
507.63	43316.29
507.81	43342.04
507.98	42930.11
508.16	43047.13
508.33	43620.56
508.50	43695.46
508.68	43435.66
508.85	44086.33
509.03	43976.33
509.20	44105.06
509.38	44341.45
509.55	44861.05
509.73	44320.38
509.90	44512.31
510.08	44912.54
510.25	44601.25
510.42	45059.99
510.60	44989.78
510.77	44816.58
510.95	45748.11
511.12	45172.34
511.30	45202.77
511.47	45408.73
511.64	45537.46
511.82	46127.28
511.99	45684.92
512.17	46277.07
512.34	45937.69
512.51	46520.49
512.69	46892.63
512.86	46574.32
513.04	46813.05
513.21	46916.04
513.38	46766.24
513.56	46663.26
513.73	47014.34
513.90	47152.43
514.08	47194.56
514.25	47171.16
514.43	47342.02
514.60	47494.15
514.77	47435.64
514.95	47782.04
515.12	47833.53
515.29	47501.17
515.47	48205.67
515.64	48296.95
515.81	48079.28
515.99	48360.15
516.16	48577.82
516.33	48493.56
516.51	48741.66
516.68	48666.76
516.85	48528.67
517.03	48779.10
517.20	48783.79
517.37	49132.53
517.54	49062.31
517.72	49003.80
517.89	49230.83
518.06	48844.64
518.24	49144.23
518.41	49336.15
518.58	49319.77
518.75	49502.33
518.93	49549.14
519.10	49532.76
519.27	49949.37
519.45	49712.98
519.62	49991.50
519.79	49818.30
519.96	50124.91
520.14	50061.72
520.31	50515.78
520.48	50623.45
520.65	50356.63
520.83	50714.73
521.00	50988.57
521.17	50749.84
521.34	50361.31
521.52	50688.98
521.69	50857.50
521.86	50754.52
522.03	51320.93
522.20	51222.62
522.38	51632.22
522.55	51756.27
522.72	51220.28
522.89	51168.79
523.07	51798.40
523.24	51845.21
523.41	51763.29
523.58	51688.39
523.75	51976.28
523.92	51838.18
524.10	52112.03
524.27	51941.17
524.44	52224.37
524.61	52252.46
524.78	52100.32
524.96	52210.33
525.13	52079.26
525.30	52334.38
525.47	52378.85
525.64	52516.94
525.81	52353.10
525.98	52800.15
526.16	52612.90
526.33	52589.50
526.50	53443.79
526.67	52790.78
526.84	52877.38
527.01	52774.40
527.18	53031.86
527.36	53179.31
527.53	53574.86
527.70	53176.97
527.87	53441.45
528.04	53205.06
528.21	53663.80
528.38	53366.55
528.55	53663.80
528.72	53322.08
528.89	53705.93
529.07	53326.77
529.24	53652.10
529.41	53872.11
529.58	53729.34
529.75	53673.16
529.92	53956.37
530.09	53750.40
530.26	53839.34
530.43	54307.45
530.60	54108.50
530.77	54080.42
530.94	54078.08
531.11	54061.69
531.28	54054.67
531.46	54319.15
531.63	54396.39
531.80	54265.32
531.97	54398.73
532.14	54656.19
532.31	54342.56
532.48	54583.63
532.65	54461.93
532.82	54578.95
532.99	54698.32
533.16	54663.21
533.33	54787.26
533.50	54803.64
533.67	55086.85
533.84	54838.75
534.01	54852.80
534.18	54932.37
534.35	55573.68
534.52	55187.49
534.69	55267.07
534.86	55229.62
535.03	55367.71
535.20	55178.13
535.37	55210.90
535.54	55604.11
535.71	55093.87
535.88	55716.45
536.05	55536.23
536.22	55812.41
536.38	55723.47
536.55	55716.45
536.72	55554.96
536.89	55707.09
537.06	55849.86
537.23	55838.16
537.40	55454.31
537.57	55700.07
537.74	55473.04
537.91	56102.64
538.08	55847.52
538.25	55468.36
538.42	55753.90
538.59	56254.78
538.75	55913.06
538.92	56097.96
539.09	56409.25
539.26	56027.74
539.43	56083.92
539.60	56355.42
539.77	56119.02
539.94	56554.36
540.11	56402.23
540.28	56367.12
540.44	56545.00
540.61	56479.47
540.78	56413.93
540.95	56591.81
541.12	56446.70
541.29	56371.80
541.46	56772.03
541.62	56863.32
541.79	56708.84
541.96	56458.40
542.13	56706.50
542.30	56793.10
542.47	56760.33
542.63	56982.68
542.80	56935.87
542.97	57078.64
543.14	57221.42
543.31	57214.40
543.48	57226.10
543.64	57537.39
543.81	57375.89
543.98	57443.77
544.15	57474.20
544.32	57471.85
544.48	57265.89
544.65	57652.08
544.82	57513.98
544.99	57340.78
545.16	57640.37
545.32	57609.95
545.49	57645.05
545.66	57691.86
545.83	57670.80
546.00	57825.28
546.16	57848.68
546.33	57549.09
546.50	57443.77
546.67	57801.87
546.83	57577.18
547.00	57853.36
547.17	57858.04
547.34	57954.00
547.50	58000.82
547.67	57982.09
547.84	58096.78
548.00	58040.60
548.17	58340.19
548.34	58209.12
548.51	58351.90
548.67	58068.69
548.84	58129.54
549.01	58164.65
549.18	58174.02
549.34	58099.12
549.51	58454.88
549.68	58461.90
549.84	58398.71
550.01	58422.11
550.18	58335.51
550.34	58248.91
550.51	58801.28
550.68	58740.42
550.84	58391.68
551.01	58623.40
551.18	58499.35
551.34	58595.31
551.51	58557.86
551.68	58688.93
551.84	58445.52
552.01	58607.01
552.18	58604.67
552.34	58784.90
552.51	58775.53
552.68	58639.78
552.84	58759.15
553.01	58958.09
553.18	58838.73
553.34	59011.93
553.51	58873.84
553.67	58993.20
553.84	58784.90
554.01	58754.47
554.17	58976.82
554.34	59042.35
554.51	58983.84
554.67	59079.80
554.84	58983.84
555.00	58948.73
555.17	59112.57
555.33	59173.42
555.50	59192.15
555.67	58986.18
555.83	59058.74
556.00	59173.42
556.16	59325.56
556.33	59332.58
556.50	59288.11
556.66	59363.01
556.83	59131.29
556.99	59683.66
557.16	59653.23
557.32	59540.89
557.49	59473.01
557.65	59484.72
557.82	59341.94
557.98	59625.15
558.15	59454.29
558.32	59510.46
558.48	59440.24
558.65	59653.23
558.81	59625.15
558.98	59594.72
559.14	59774.94
559.31	59709.41
559.47	59819.41
559.64	59882.61
559.80	59660.26
559.97	59671.96
560.13	59814.73
560.30	59611.10
560.46	59777.28
560.63	59955.16
560.79	59760.90
560.96	59915.37
561.12	59957.50
561.29	59990.27
561.45	59908.35
561.61	59929.42
561.78	59826.43
561.94	59833.46
562.11	59941.12
562.27	59866.22
562.44	60107.30
562.60	60100.28
562.77	60170.49
562.93	59943.46
563.10	60100.28
563.26	59889.63
563.42	60196.24
563.59	59978.57
563.75	60254.75
563.92	60198.58
564.08	60065.17
564.24	60273.48
564.41	60111.98
564.57	60198.58
564.74	60158.79
564.90	60224.32
565.07	60058.15
565.23	60100.28
565.39	60210.28
565.56	60238.37
565.72	60402.21
565.88	60308.58
566.05	60219.64
566.21	60317.95
566.38	60388.16
566.54	60266.45
566.70	60542.64
566.87	60444.33
567.03	60413.91
567.19	60615.19
567.36	60383.48
567.52	60310.92
567.68	60547.32
567.85	60477.10
568.01	60449.02
568.17	60430.29
568.34	60580.09
568.50	60467.74
568.66	60170.49
568.83	60526.25
568.99	60390.50
569.15	60397.52
569.32	60301.56
569.48	60743.92
569.64	60514.55
569.81	60378.80
569.97	60411.57
570.13	60479.44
570.30	60343.69
570.46	60470.08
570.62	60544.98
570.78	60561.36
570.95	60205.60
571.11	60760.31
571.27	60512.21
571.43	60760.31
571.60	60811.80
571.76	60624.56
571.92	60556.68
572.09	60685.41
572.25	60669.03
572.41	60477.10
572.57	60788.39
572.74	60921.80
572.90	60690.09
573.06	60774.35
573.22	60594.13
573.38	60708.82
573.55	60573.06
573.71	60891.38
573.87	60704.13
574.03	60523.91
574.20	60772.01
574.36	60612.85
574.52	60732.22
574.68	60750.94
574.84	60830.52
575.01	60910.10
575.17	60638.60
575.33	60741.58
575.49	60720.52
575.65	60910.10
575.82	60786.05
575.98	60683.07
576.14	60966.27
576.30	60898.40
576.46	60844.57
576.62	60762.65
576.79	60610.51
576.95	60622.22
577.11	60804.78
577.27	60821.16
577.43	60816.48
577.59	60734.56
577.75	60872.65
577.92	60800.10
578.08	60851.59
578.24	60874.99
578.40	61144.16
578.56	60987.34
578.72	60879.67
578.88	60966.27
579.04	61282.25
579.21	61001.38
579.37	61020.11
579.53	60947.55
579.69	60788.39
579.85	60879.67
580.01	60823.50
580.17	60706.47
580.33	61008.40
580.49	60935.85
580.65	61137.13
580.82	60882.02
580.98	60860.95
581.14	60779.03
581.30	61160.54
581.46	60842.23
581.62	60987.34
581.78	61076.28
581.94	61130.11
582.10	60856.27
582.26	60912.44
582.42	61015.43
582.58	61235.44
582.74	60896.06
582.90	61036.49
583.06	61076.28
583.22	60830.52
583.38	60935.85
583.54	60940.53
583.70	61090.32
583.86	61106.71
584.02	61020.11
584.18	61090.32
584.34	61064.58
584.50	61111.39
584.66	60870.31
584.82	60795.42
584.98	61078.62
585.14	61109.05
585.30	60949.89
585.46	61090.32
585.62	61193.31
585.78	61179.26
585.94	60917.12
586.10	61036.49
586.26	60963.93
586.42	60963.93
586.58	61366.51
586.74	61300.97
586.90	61155.86
587.06	61092.66
587.22	61235.44
587.38	61066.92
587.54	61249.48
587.70	61441.40
587.86	61396.93
588.02	61188.63
588.18	61282.25
588.34	61261.18
