SpectraSuite Data File
++++++++++++++++++++++++++++++++++++
Date: Fri Oct 25 11:33:31 EDT 2013
User: price-jones
Dark Spectrum Present: No
Reference Spectrum Present: No
Number of Sampled Component Spectra: 1
Spectrometers: USB2+H05261
Integration Time (usec): 100000 (USB2+H05261)
Spectra Averaged: 1 (USB2+H05261)
Boxcar Smoothing: 0 (USB2+H05261)
Correct for Electrical Dark: No (USB2+H05261)
Strobe/Lamp Enabled: No (USB2+H05261)
Correct for Detector Non-linearity: No (USB2+H05261)
Correct for Stray Light: No (USB2+H05261)
Number of Pixels in Processed Spectrum: 2048
>>>>>Begin Processed Spectral Data<<<<<
365.73	292.57
365.92	292.57
366.12	292.57
366.32	224.69
366.52	182.56
366.72	173.20
366.91	201.29
367.11	163.84
367.31	156.82
367.51	107.66
367.70	145.11
367.90	145.11
368.10	229.37
368.30	133.41
368.49	107.66
368.69	196.60
368.89	196.60
369.09	170.86
369.28	257.46
369.48	245.76
369.68	262.14
369.87	227.03
370.07	227.03
370.27	227.03
370.47	404.91
370.66	458.74
370.86	477.47
371.06	596.84
371.25	552.37
371.45	524.28
371.65	601.52
371.84	477.47
372.04	477.47
372.24	538.32
372.44	566.41
372.63	550.03
372.83	571.09
373.03	580.45
373.22	519.60
373.42	585.13
373.62	634.29
373.81	620.24
374.01	732.59
374.21	650.67
374.40	636.63
374.60	699.82
374.79	622.58
374.99	697.48
375.19	615.56
375.38	690.46
375.58	711.52
375.78	681.10
375.97	734.93
376.17	774.72
376.37	613.22
376.56	638.97
376.76	627.26
376.95	734.93
377.15	716.20
377.35	678.76
377.54	657.69
377.74	704.50
377.93	657.69
378.13	664.71
378.33	697.48
378.52	744.29
378.72	711.52
378.91	744.29
379.11	674.07
379.31	685.78
379.50	730.25
379.70	758.33
379.89	676.41
380.09	669.39
380.28	730.25
380.48	748.97
380.68	664.71
380.87	664.71
381.07	711.52
381.26	720.88
381.46	842.59
381.65	854.30
381.85	784.08
382.04	758.33
382.24	767.70
382.43	718.54
382.63	765.36
382.83	786.42
383.02	755.99
383.22	816.85
383.41	709.18
383.61	767.70
383.80	823.87
384.00	755.99
384.19	805.14
384.39	748.97
384.58	713.86
384.78	763.01
384.97	863.66
385.17	877.70
385.36	795.78
385.56	800.46
385.75	844.93
385.95	863.66
386.14	814.51
386.34	873.02
386.53	901.11
386.72	828.55
386.92	858.98
387.11	922.17
387.31	917.49
387.50	858.98
387.70	889.40
387.89	915.15
388.09	924.51
388.28	847.27
388.48	805.14
388.67	971.32
388.86	873.02
389.06	861.32
389.25	1041.54
389.45	931.53
389.64	952.60
389.84	931.53
390.03	931.53
390.22	954.94
390.42	891.74
390.61	1041.54
390.81	912.81
391.00	992.39
391.19	931.53
391.39	994.73
391.58	1053.24
391.78	919.83
391.97	1078.99
392.16	1018.13
392.36	1055.58
392.55	959.62
392.75	1008.77
392.94	1158.57
393.13	1034.52
393.33	1034.52
393.52	1064.94
393.71	978.34
393.91	961.96
394.10	1123.46
394.29	1078.99
394.49	1196.01
394.68	1139.84
394.88	1022.81
395.07	1151.54
395.26	1174.95
395.46	1193.67
395.65	1137.50
395.84	1144.52
396.04	1247.51
396.23	1100.05
396.42	1207.72
396.62	1109.41
396.81	1179.63
397.00	1207.72
397.19	1231.12
397.39	1210.06
397.58	1188.99
397.77	1277.93
397.97	1308.36
398.16	1268.57
398.35	1217.08
398.55	1191.33
398.74	1179.63
398.93	1245.16
399.12	1324.74
399.32	1252.19
399.51	1310.70
399.70	1329.42
399.90	1378.58
400.09	1390.28
400.28	1373.89
400.47	1387.94
400.67	1406.66
400.86	1383.26
401.05	1483.90
401.24	1313.04
401.44	1455.81
401.63	1425.39
401.82	1448.79
402.01	1434.75
402.21	1509.65
402.40	1530.71
402.59	1481.56
402.78	1509.65
402.97	1451.13
403.17	1551.78
403.36	1579.86
403.55	1579.86
403.74	1521.35
403.93	1570.50
404.13	1647.74
404.32	1561.14
404.51	1556.46
404.70	1645.40
404.89	1586.88
405.09	1666.46
405.28	1661.78
405.47	1650.08
405.66	1675.82
405.85	1732.00
406.05	1753.06
406.24	1696.89
406.43	1722.63
406.62	1823.28
406.81	1811.57
407.00	1858.39
407.20	1874.77
407.39	1694.55
407.58	1790.51
407.77	1834.98
407.96	1818.60
408.15	1881.79
408.34	1867.75
408.54	1926.26
408.73	1991.80
408.92	1940.30
409.11	1914.56
409.30	2010.52
409.49	1935.62
409.68	2019.88
409.87	1961.37
410.07	1991.80
410.26	2101.80
410.45	2083.08
410.64	2026.90
410.83	2143.93
411.02	2165.00
411.21	2265.64
411.40	2221.17
411.59	2174.36
411.78	2211.81
411.98	2225.85
412.17	2293.72
412.36	2260.96
412.55	2195.42
412.74	2249.25
412.93	2375.64
413.12	2303.09
413.31	2359.26
413.50	2317.13
413.69	2401.39
413.88	2485.65
414.07	2427.14
414.26	2476.29
414.45	2532.46
414.64	2490.33
414.83	2640.12
415.02	2722.04
415.22	2553.52
415.41	2567.57
415.60	2731.41
415.79	2698.64
415.98	2743.11
416.17	2679.91
416.36	2752.47
416.55	2736.09
416.74	2771.19
416.93	2626.08
417.12	2757.15
417.31	2855.45
417.50	2846.09
417.69	3028.65
417.88	2939.71
418.07	2979.50
418.26	3021.63
418.45	2956.10
418.64	3089.51
418.83	3016.95
419.02	3187.81
419.21	3117.59
419.39	3080.14
419.58	3089.51
419.77	3101.21
419.96	3089.51
420.15	3061.42
420.34	3126.96
420.53	3197.17
420.72	3194.83
420.91	3251.00
421.10	3178.45
421.29	3178.45
421.48	3166.74
421.67	3164.40
421.86	3232.28
422.05	3258.03
422.24	3295.47
422.43	3339.94
422.61	3386.76
422.80	3307.18
422.99	3398.46
423.18	3382.07
423.37	3478.04
423.56	3339.94
423.75	3456.97
423.94	3276.75
424.13	3159.72
424.32	3314.20
424.50	3400.80
424.69	3609.11
424.88	3335.26
425.07	3494.42
425.26	3372.71
425.45	3456.97
425.64	3391.44
425.83	3337.60
426.01	3487.40
426.20	3576.34
426.39	3431.23
426.58	3393.78
426.77	3407.82
426.96	3599.74
427.15	3536.55
427.33	3531.87
427.52	3602.08
427.71	3583.36
427.90	3611.45
428.09	3684.00
428.28	3660.60
428.46	3726.13
428.65	3646.55
428.84	3728.47
429.03	3857.20
429.22	3742.52
429.40	3838.48
429.59	3812.73
429.78	3662.94
429.97	3684.00
430.16	3772.94
430.34	3815.07
430.53	3831.46
430.72	3742.52
430.91	3859.54
431.10	3932.10
431.28	3826.78
431.47	3978.91
431.66	3967.21
431.85	3859.54
432.03	4023.38
432.22	4070.19
432.41	4166.15
432.60	4021.04
432.79	4107.64
432.97	4056.15
433.16	4025.72
433.35	4030.40
433.54	4088.92
433.72	4210.62
433.91	4224.67
434.10	4133.39
434.28	4121.68
434.47	4245.73
434.66	4180.20
434.85	4329.99
435.03	4292.54
435.22	4360.42
435.41	4444.68
435.59	4236.37
435.78	4430.63
435.97	4425.95
436.16	4306.59
436.34	4379.14
436.53	4411.91
436.72	4484.47
436.90	4449.36
437.09	4449.36
437.28	4376.80
437.46	4531.28
437.65	4692.77
437.84	4559.36
438.02	4650.64
438.21	4669.37
438.40	4641.28
438.58	4702.14
438.77	4664.69
438.96	4704.48
439.14	4896.40
439.33	4842.57
439.52	4821.50
439.70	4910.44
439.89	4945.55
440.08	5053.22
440.26	5088.32
440.45	4901.08
440.63	5163.22
440.82	5200.67
441.01	4959.60
441.19	5198.33
441.38	5203.01
441.57	5226.42
441.75	5252.16
441.94	5359.83
442.12	5418.34
442.31	5219.39
442.50	5287.27
442.68	5434.72
442.87	5497.92
443.05	5533.03
443.24	5469.83
443.43	5687.50
443.61	5586.86
443.80	5792.83
443.98	5570.48
444.17	5364.51
444.35	5579.84
444.54	5717.93
444.73	5727.29
444.91	5593.88
445.10	5640.69
445.28	5689.84
445.47	5631.33
445.65	5626.65
445.84	5689.84
446.02	5680.48
446.21	5605.58
446.39	5715.59
446.58	5830.27
446.77	5776.44
446.95	5654.73
447.14	5757.72
447.32	5790.49
447.51	5671.12
447.69	5750.70
447.88	5710.91
448.06	5767.08
448.25	5724.95
448.43	5795.17
448.62	5727.29
448.80	5879.43
448.99	5858.36
449.17	5966.03
449.36	5998.79
449.54	5926.24
449.73	6057.31
449.91	6090.07
450.10	5996.45
450.28	5984.75
450.46	6181.35
450.65	6033.90
450.83	6125.18
451.02	6312.42
451.20	6073.69
451.39	6113.48
451.57	6195.40
451.76	6167.31
451.94	6237.53
452.13	6289.02
452.31	6225.82
452.49	6223.48
452.68	6289.02
452.86	6340.51
453.05	6394.34
453.23	6392.00
453.42	6464.56
453.60	6401.37
453.78	6506.69
453.97	6469.24
454.15	6445.84
454.34	6436.47
454.52	6567.54
454.70	6565.20
454.89	6403.71
455.07	6654.14
455.26	6616.69
455.44	6574.56
455.62	6640.10
455.81	6766.49
455.99	6764.15
456.17	6909.26
456.36	6768.83
456.54	7052.03
456.73	6862.45
456.91	7040.33
457.09	6949.05
457.28	7138.63
457.46	6724.36
457.64	7094.16
457.83	7056.72
458.01	6977.14
458.19	7239.28
458.38	7143.32
458.56	7330.56
458.74	7265.02
458.93	7173.74
459.11	7267.36
459.29	7229.91
459.48	7302.47
459.66	7475.67
459.84	7424.18
460.03	7440.56
460.21	7445.24
460.39	7349.28
460.57	7510.78
460.76	7330.56
460.94	7433.54
461.12	7616.10
461.31	7393.75
461.49	7391.41
461.67	7456.95
461.85	7733.13
462.04	7578.65
462.22	8119.32
462.40	7873.56
462.59	7719.09
462.77	7632.49
462.95	7749.51
463.13	7630.15
463.32	7772.92
463.50	7838.45
463.68	7878.24
463.86	7969.52
464.05	7786.96
464.23	7763.56
464.41	7948.46
464.59	7700.36
464.78	8121.66
464.96	7971.86
465.14	7864.20
465.32	7978.89
465.50	7925.05
465.69	8072.51
465.87	8049.10
466.05	8212.94
466.23	8173.15
466.41	8201.24
466.60	8276.13
466.78	8226.98
466.96	8145.06
467.14	8095.91
467.32	8287.84
467.51	8414.23
467.69	8224.64
467.87	8360.39
468.05	8418.91
468.23	8325.29
468.41	8208.26
468.60	8454.02
468.78	8645.94
468.96	8430.61
469.14	8276.13
469.32	8650.62
469.50	8430.61
469.69	8645.94
469.87	8847.22
470.05	8833.18
470.23	8926.80
470.41	8837.86
470.59	8887.01
470.77	8739.56
470.95	8648.28
471.14	8940.85
471.32	8531.25
471.50	9011.06
471.68	8926.80
471.86	9036.81
472.04	9165.54
472.22	9320.01
472.40	9156.18
472.58	9184.26
472.77	9121.07
472.95	9394.91
473.13	9743.65
473.31	9142.13
473.49	9479.17
473.67	9413.63
473.85	9680.46
474.03	9722.59
474.21	9626.62
474.39	9757.69
474.57	9792.80
474.75	10003.45
474.93	9928.55
475.12	9970.68
475.30	9996.43
475.48	9973.02
475.66	10066.64
475.84	9961.32
476.02	10331.12
476.20	10167.29
476.38	10326.44
476.56	10593.26
476.74	10707.95
476.92	10377.94
477.10	10635.39
477.28	10611.99
477.46	10710.29
477.64	10693.91
477.82	11059.03
478.00	11094.14
478.18	10965.41
478.36	11059.03
478.54	11183.08
478.72	11246.27
478.90	11459.26
479.08	11487.35
479.26	11477.99
479.44	11875.88
479.62	11726.08
479.80	11793.96
479.98	11990.56
480.16	12390.80
480.34	12107.59
480.52	12229.30
480.70	12084.19
480.88	12126.32
481.06	12360.37
481.24	12564.00
481.41	12388.46
481.59	12805.07
481.77	12592.08
481.95	12788.69
482.13	12929.12
482.31	13090.62
482.49	13352.76
482.67	13502.55
482.85	13451.06
483.03	13383.18
483.21	13657.03
483.39	13720.22
483.57	13549.36
483.74	13797.46
483.92	13914.48
484.10	13930.87
484.28	14267.91
484.46	14574.52
484.64	14736.01
484.82	14469.19
485.00	14466.85
485.18	14944.32
485.35	15009.86
485.53	14951.34
485.71	14874.10
485.89	15552.86
486.07	15236.89
486.25	15283.70
486.43	15566.90
486.61	15789.25
486.78	15669.89
486.96	15770.53
487.14	15995.22
487.32	16128.63
487.50	16292.47
487.68	16496.10
487.85	16491.41
488.03	16594.40
488.21	16823.77
488.39	16828.45
488.57	17425.29
488.75	17226.34
488.92	17362.09
489.10	17666.36
489.28	17373.80
489.46	17818.50
489.64	17284.86
489.81	18424.70
489.99	17839.56
490.17	18251.50
490.35	18331.08
490.53	18504.28
490.70	18717.26
490.88	18642.37
491.06	18787.48
491.24	18916.21
491.41	18930.25
491.59	19054.30
491.77	19267.29
491.95	19564.54
492.13	19616.03
492.30	19843.06
492.48	19534.11
492.66	19894.55
492.84	19983.49
493.01	20032.65
493.19	19917.96
493.37	20589.69
493.54	20102.86
493.72	20570.97
493.90	20713.74
494.08	20840.13
494.25	20989.92
494.43	20821.41
494.61	20978.22
494.79	21458.03
494.96	21252.06
495.14	21343.35
495.32	21678.04
495.49	21727.19
495.67	21855.92
495.85	22192.96
496.02	22302.96
496.20	22274.88
496.38	22272.54
496.55	22398.93
496.73	22654.05
496.91	22647.02
497.09	22541.70
497.26	22878.74
497.44	22661.07
497.62	22948.95
497.79	23520.04
497.97	23215.77
498.14	23400.68
498.32	23414.72
498.50	23779.84
498.67	23718.99
498.85	23765.80
499.03	23709.63
499.20	23866.44
499.38	24161.35
499.56	24397.74
499.73	24467.96
499.91	24500.73
500.08	24910.32
500.26	24400.08
500.44	24636.48
500.61	24304.12
500.79	24872.87
500.97	25228.63
501.14	25057.78
501.32	25235.66
501.49	25181.82
501.67	25408.86
501.84	25656.95
502.02	25455.67
502.20	25600.78
502.37	25652.27
502.55	25848.88
502.72	25694.40
502.90	25930.80
503.07	25942.50
503.25	26291.24
503.43	25940.16
503.60	26436.35
503.78	26333.37
503.95	26312.30
504.13	26497.20
504.30	26291.24
504.48	26677.43
504.65	26764.03
504.83	26742.96
505.01	27070.64
505.18	26988.72
505.36	27428.74
505.53	27056.59
505.71	27339.80
505.88	27023.83
506.06	27288.31
506.23	27655.77
506.41	27543.42
506.58	27550.45
506.76	27908.55
506.93	28308.78
507.11	27960.04
507.28	28070.04
507.46	27880.46
507.63	28266.65
507.81	28194.09
507.98	28528.79
508.16	28301.76
508.33	28531.13
508.50	28865.83
508.68	28746.46
508.85	28900.94
509.03	28706.67
509.20	29008.60
509.38	29488.41
509.55	29514.16
509.73	29249.67
509.90	29324.57
510.08	29317.55
510.25	29338.62
510.42	29780.98
510.60	29727.14
510.77	30080.56
510.95	30122.69
511.12	29979.92
511.30	30178.87
511.47	30185.89
511.64	30068.86
511.82	30300.58
511.99	30356.75
512.17	30375.47
512.34	30244.40
512.51	30946.56
512.69	31136.15
512.86	30677.40
513.04	30794.43
513.21	30925.50
513.38	31063.59
513.56	31129.12
513.73	31311.69
513.90	31070.61
514.08	31171.25
514.25	31606.59
514.43	31548.08
514.60	31384.24
514.77	31662.77
514.95	31735.32
515.12	31835.97
515.29	31854.69
515.47	31983.42
515.64	32224.50
515.81	31725.96
515.99	32198.75
516.16	32222.16
516.33	32173.00
516.51	32357.91
516.68	32971.13
516.85	32713.67
517.03	32952.40
517.20	32690.26
517.37	32648.13
517.54	33008.58
517.72	32765.16
517.89	33151.35
518.06	33015.60
518.24	32783.88
518.41	32856.44
518.58	33099.86
518.75	32994.53
518.93	33017.94
519.10	33322.21
519.27	33467.32
519.45	33284.76
519.62	33343.27
519.79	33663.93
519.96	33544.56
520.14	33619.46
520.31	33715.42
520.48	33977.56
520.65	33961.17
520.83	34293.53
521.00	34244.38
521.17	34036.07
521.34	33996.28
521.52	34567.37
521.69	34220.97
521.86	34672.70
522.03	35229.74
522.20	35115.06
522.38	35005.05
522.55	34747.59
522.72	34677.38
522.89	34771.00
523.07	35152.51
523.24	35260.17
523.41	35950.63
523.58	35302.30
523.75	35945.95
523.92	35367.84
524.10	35583.16
524.27	35632.32
524.44	35864.03
524.61	35976.37
524.78	35800.83
524.96	36119.15
525.13	36311.07
525.30	36292.35
525.47	35892.12
525.64	36334.48
525.81	36313.41
525.98	36486.61
526.16	36315.75
526.33	36608.32
526.50	36622.36
526.67	36023.19
526.84	36847.05
527.01	36718.32
527.18	36730.03
527.36	36767.48
527.53	36708.96
527.70	37237.92
527.87	37495.38
528.04	37453.25
528.21	36898.55
528.38	37205.16
528.55	36921.95
528.72	36982.80
528.89	37230.90
529.07	36882.16
529.24	37258.99
529.41	37514.11
529.58	37095.15
529.75	37502.40
529.92	37708.37
530.09	37549.21
530.26	37771.57
530.43	37614.75
530.60	37125.58
530.77	37748.16
530.94	37771.57
531.11	37787.95
531.28	38202.22
531.46	38040.73
531.63	37912.00
531.80	38218.61
531.97	38286.48
532.14	38279.46
532.31	38227.97
532.48	38476.07
532.65	38733.53
532.82	38586.07
532.99	38747.57
533.16	38480.75
533.33	38857.57
533.50	38986.30
533.67	38899.70
533.84	38288.82
534.01	38710.12
534.18	38543.94
534.35	39426.32
534.52	39440.37
534.69	39491.86
534.86	39351.43
535.03	39215.68
535.20	39452.07
535.37	39398.24
535.54	39718.89
535.71	39477.82
535.88	39349.09
536.05	39335.04
536.22	39564.42
536.38	39814.85
536.55	39639.31
536.72	39665.06
536.89	39597.18
537.06	39765.70
537.23	40343.81
537.40	39688.46
537.57	39714.21
537.74	39854.64
537.91	40641.06
538.08	40212.74
538.25	39810.17
538.42	40179.98
538.59	40509.99
538.75	40069.97
538.92	40582.55
539.09	40758.09
539.26	40645.74
539.43	40418.71
539.60	40582.55
539.77	40376.58
539.94	40751.07
540.11	40451.48
540.28	40779.15
540.44	40659.79
540.61	40912.56
540.78	40575.53
540.95	40896.18
541.12	40722.98
541.29	41268.33
541.46	41153.64
541.62	41146.62
541.79	41146.62
541.96	40671.49
542.13	41020.23
542.30	41165.34
542.47	41425.14
542.63	41071.72
542.80	41668.56
542.97	41296.41
543.14	41991.55
543.31	41359.61
543.48	41624.09
543.64	42328.59
543.81	41963.46
543.98	41776.22
544.15	41710.69
544.32	42323.91
544.48	42265.39
544.65	42094.53
544.82	41977.51
544.99	42267.73
545.16	42494.77
545.32	42494.77
545.49	42450.30
545.66	42745.20
545.83	42209.22
546.00	42710.10
546.16	42370.72
546.33	42075.81
546.50	42155.39
546.67	43035.43
546.83	42129.64
547.00	42532.22
547.17	42440.93
547.34	42859.89
547.50	43054.15
547.67	43550.35
547.84	42958.19
548.00	43196.93
548.17	43524.60
548.34	43304.59
548.51	43349.06
548.67	43070.54
548.84	43468.43
549.01	42990.96
549.18	43203.95
549.34	43419.28
549.51	43566.73
549.68	43526.94
549.84	43470.77
550.01	43662.69
550.18	43943.56
550.34	43187.56
550.51	43641.63
550.68	43847.60
550.84	43152.46
551.01	43763.34
551.18	43714.19
551.34	43648.65
551.51	43810.15
551.68	43957.60
551.84	43442.68
552.01	44076.97
552.18	44170.59
552.34	43683.76
552.51	43873.34
552.68	43573.75
552.84	43962.28
553.01	43854.62
553.18	44254.85
553.34	43896.75
553.51	44034.84
553.67	44247.83
553.84	44254.85
554.01	44037.18
554.17	44311.02
554.34	44685.51
554.51	44608.27
554.67	44519.33
554.84	44355.49
555.00	44748.70
555.17	44690.19
555.33	44418.69
555.50	44800.19
555.67	44849.35
555.83	44516.99
556.00	45102.12
556.16	45188.72
556.33	44856.37
556.50	44914.88
556.66	44931.26
556.83	44722.96
556.99	44928.92
557.16	45174.68
557.32	45137.23
557.49	44945.31
557.65	45095.10
557.82	45111.49
557.98	45364.26
558.15	45102.12
558.32	45268.30
558.48	45078.72
558.65	45226.17
558.81	45284.68
558.98	44985.10
559.14	45144.25
559.31	45081.06
559.47	45284.68
559.64	45315.11
559.80	45235.53
559.97	45516.40
560.13	45233.19
560.30	45624.06
560.46	45846.41
560.63	45539.80
560.79	45787.90
560.96	45752.79
561.12	45638.11
561.29	45670.87
561.45	45689.60
561.61	46068.76
561.78	45537.46
561.94	45731.73
562.11	45649.81
562.27	45523.42
562.44	45591.30
562.60	45691.94
562.77	45914.29
562.93	45687.26
563.10	46066.42
563.26	45989.19
563.42	46267.71
563.59	45507.04
563.75	45811.31
563.92	46010.25
564.08	45729.39
564.24	46073.45
564.41	46330.90
564.57	46136.64
564.74	46143.66
564.90	45925.99
565.07	45862.80
565.23	45986.85
565.39	45928.33
565.56	46520.49
565.72	46185.79
565.88	46693.69
566.05	46124.94
566.21	46391.76
566.38	46293.46
566.54	46204.52
566.70	46300.48
566.87	46340.27
567.03	46157.70
567.19	46293.46
567.36	46534.53
567.52	46335.59
567.68	46663.26
567.85	46279.41
568.01	46672.62
568.17	46483.04
568.34	46653.90
568.50	46656.24
568.66	45986.85
568.83	46384.74
568.99	46485.38
569.15	46691.35
569.32	46408.14
569.48	46064.08
569.64	46740.50
569.81	46658.58
569.97	46614.11
570.13	46504.10
570.30	46674.96
570.46	46663.26
570.62	46766.24
570.78	46487.72
570.95	46733.48
571.11	46686.67
571.27	46649.22
571.43	46452.61
571.60	46852.84
571.76	46731.14
571.92	46457.29
572.09	46576.66
572.25	46806.03
572.41	46440.91
572.57	46897.31
572.74	46918.38
572.90	47255.42
573.06	47093.92
573.22	46829.44
573.38	46866.89
573.55	47264.78
573.71	47161.79
573.87	46983.91
574.03	47051.79
574.20	47100.94
574.36	47012.00
574.52	46761.56
574.68	46866.89
574.84	47056.47
575.01	46960.51
575.17	47154.77
575.33	46852.84
575.49	46766.24
575.65	46981.57
575.82	47388.83
575.98	46897.31
576.14	47391.17
576.30	47035.41
576.46	46965.19
576.62	47143.07
576.79	46925.40
576.95	46536.87
577.11	47370.10
577.27	46953.49
577.43	46801.35
577.59	47227.33
577.75	46508.79
577.92	47098.60
578.08	47192.22
578.24	46855.18
578.40	47386.49
578.56	46857.52
578.72	46852.84
578.88	47316.27
579.04	47267.12
579.21	47089.24
579.37	47299.89
579.53	47239.03
579.69	47131.37
579.85	47182.86
580.01	46925.40
580.17	46934.76
580.33	47203.92
580.49	47306.91
580.65	47014.34
580.82	46988.60
580.98	46703.05
581.14	46660.92
581.30	47065.83
581.46	47093.92
581.62	47262.44
581.78	47257.76
581.94	47515.22
582.10	47140.73
582.26	47887.36
582.42	47278.82
582.58	47192.22
582.74	47257.76
582.90	47414.57
583.06	47257.76
583.22	47281.16
583.38	47634.58
583.54	47503.51
583.70	47255.42
583.86	47395.85
584.02	47089.24
584.18	47508.19
584.34	47559.69
584.50	47189.88
584.66	47255.42
584.82	47138.39
584.98	47618.20
585.14	47103.28
585.30	47409.89
585.46	47421.59
585.62	47311.59
585.78	47639.26
585.94	47079.88
586.10	47346.70
586.26	47182.86
586.42	47669.69
586.58	47437.98
586.74	47150.09
586.90	47269.46
587.06	47250.74
587.22	47770.33
587.38	47557.35
587.54	47817.14
587.70	47601.82
587.86	47365.42
588.02	47138.39
588.18	47323.29
588.34	47452.02
588.49	47952.90
588.65	47604.16
588.81	47395.85
588.97	47707.14
589.13	47437.98
589.29	47931.83
589.45	47477.77
589.61	47594.79
589.77	47988.00
589.93	47784.38
590.08	47454.36
