SpectraSuite Data File
++++++++++++++++++++++++++++++++++++
Date: Fri Oct 25 10:47:55 EDT 2013
User: price-jones
Dark Spectrum Present: No
Reference Spectrum Present: No
Number of Sampled Component Spectra: 1
Spectrometers: USB2+H05261
Integration Time (usec): 100000 (USB2+H05261)
Spectra Averaged: 1 (USB2+H05261)
Boxcar Smoothing: 0 (USB2+H05261)
Correct for Electrical Dark: No (USB2+H05261)
Strobe/Lamp Enabled: No (USB2+H05261)
Correct for Detector Non-linearity: No (USB2+H05261)
Correct for Stray Light: No (USB2+H05261)
Number of Pixels in Processed Spectrum: 2048
>>>>>Begin Processed Spectral Data<<<<<
365.73	147.45
365.92	147.45
366.12	147.45
366.32	0.00
366.52	53.83
366.72	65.54
366.91	53.83
367.11	79.58
367.31	49.15
367.51	44.47
367.70	23.41
367.90	63.19
368.10	126.39
368.30	18.72
368.49	9.36
368.69	112.35
368.89	67.88
369.09	14.04
369.28	149.79
369.48	70.22
369.68	107.66
369.87	152.13
370.07	117.03
370.27	177.88
370.47	212.99
370.66	381.51
370.86	353.42
371.06	395.55
371.25	475.13
371.45	390.87
371.65	458.74
371.84	496.19
372.04	437.68
372.24	458.74
372.44	451.72
372.63	435.34
372.83	533.64
373.03	386.19
373.22	461.09
373.42	547.69
373.62	489.17
373.81	465.77
374.01	559.39
374.21	575.77
374.40	447.04
374.60	550.03
374.79	566.41
374.99	561.73
375.19	650.67
375.38	564.07
375.58	524.28
375.78	510.24
375.97	564.07
376.17	650.67
376.37	575.77
376.56	575.77
376.76	601.52
376.95	538.32
377.15	610.88
377.35	613.22
377.54	601.52
377.74	657.69
377.93	613.22
378.13	601.52
378.33	636.63
378.52	606.20
378.72	657.69
378.91	620.24
379.11	571.09
379.31	624.92
379.50	692.80
379.70	671.73
379.89	610.88
380.09	596.84
380.28	613.22
380.48	627.26
380.68	592.16
380.87	674.07
381.07	622.58
381.26	669.39
381.46	622.58
381.65	664.71
381.85	636.63
382.04	692.80
382.24	777.06
382.43	678.76
382.63	641.31
382.83	711.52
383.02	711.52
383.22	683.44
383.41	702.16
383.61	758.33
383.80	732.59
384.00	723.23
384.19	713.86
384.39	753.65
384.58	753.65
384.78	713.86
384.97	765.36
385.17	765.36
385.36	748.97
385.56	765.36
385.75	695.14
385.95	788.76
386.14	809.83
386.34	723.23
386.53	802.80
386.72	798.12
386.92	795.78
387.11	812.17
387.31	837.91
387.50	849.61
387.70	849.61
387.89	758.33
388.09	784.08
388.28	887.06
388.48	772.38
388.67	746.63
388.86	835.57
389.06	880.04
389.25	973.66
389.45	922.17
389.64	894.08
389.84	1001.75
390.03	924.51
390.22	919.83
390.42	896.43
390.61	952.60
390.81	870.68
391.00	910.47
391.19	952.60
391.39	1020.47
391.58	912.81
391.78	915.15
391.97	1015.79
392.16	933.87
392.36	1039.20
392.55	1013.45
392.75	1006.43
392.94	910.47
393.13	1013.45
393.33	954.94
393.52	898.77
393.71	997.07
393.91	1053.24
394.10	1018.13
394.29	1053.24
394.49	1097.71
394.68	1055.58
394.88	1090.69
395.07	1111.75
395.26	1062.60
395.46	1174.95
395.65	1125.80
395.84	1107.07
396.04	1249.85
396.23	1217.08
396.42	1151.54
396.62	1069.62
396.81	1128.14
397.00	1144.52
397.19	1160.91
397.39	1198.35
397.58	1240.48
397.77	1200.69
397.97	1196.01
398.16	1226.44
398.35	1245.16
398.55	1226.44
398.74	1259.21
398.93	1310.70
399.12	1296.66
399.32	1359.85
399.51	1334.11
399.70	1380.92
399.90	1270.91
400.09	1502.62
400.28	1495.60
400.47	1413.68
400.67	1458.15
400.86	1502.62
401.05	1383.26
401.24	1488.58
401.44	1469.86
401.63	1462.83
401.82	1526.03
402.01	1486.24
402.21	1479.22
402.40	1507.30
402.59	1572.84
402.78	1626.67
402.97	1631.35
403.17	1579.86
403.36	1549.43
403.55	1668.80
403.74	1640.72
403.93	1633.69
404.13	1619.65
404.32	1521.35
404.51	1715.61
404.70	1792.85
404.89	1647.74
405.09	1739.02
405.28	1603.27
405.47	1720.29
405.66	1802.21
405.85	1750.72
406.05	1870.09
406.24	1694.55
406.43	1905.20
406.62	1834.98
406.81	1792.85
407.00	1820.94
407.20	1830.30
407.39	1825.62
407.58	1902.86
407.77	1912.22
407.96	1909.88
408.15	1982.43
408.34	2017.54
408.54	1914.56
408.73	2050.31
408.92	2076.06
409.11	2073.71
409.30	2036.27
409.49	1991.80
409.68	2083.08
409.87	2026.90
410.07	2101.80
410.26	2134.57
410.45	2052.65
410.64	2080.74
410.83	2260.96
411.02	2202.44
411.21	2223.51
411.40	2284.36
411.59	2307.77
411.78	2422.45
411.98	2237.55
412.17	2370.96
412.36	2392.03
412.55	2450.54
412.74	2511.39
412.93	2387.35
413.12	2305.43
413.31	2537.14
413.50	2464.58
413.69	2572.25
413.88	2609.70
414.07	2525.44
414.26	2609.70
414.45	2644.81
414.64	2649.49
414.83	2635.44
415.02	2724.38
415.22	2710.34
415.41	2754.81
415.60	2815.66
415.79	2843.75
415.98	2843.75
416.17	2818.00
416.36	2848.43
416.55	2864.82
416.74	2920.99
416.93	2942.05
417.12	2832.05
417.31	2970.14
417.50	3049.72
417.69	3087.17
417.88	2949.08
418.07	3159.72
418.26	3094.19
418.45	3243.98
418.64	3157.38
418.83	3129.30
419.02	3119.93
419.21	3145.68
419.39	3119.93
419.58	3136.32
419.77	3138.66
419.96	3309.52
420.15	3396.12
420.34	3234.62
420.53	3323.56
420.72	3375.05
420.91	3363.35
421.10	3321.22
421.29	3428.88
421.48	3316.54
421.67	3499.10
421.86	3431.23
422.05	3438.25
422.24	3520.17
422.43	3377.39
422.61	3545.91
422.80	3590.38
422.99	3473.36
423.18	3461.65
423.37	3590.38
423.56	3545.91
423.75	3529.53
423.94	3506.12
424.13	3300.16
424.32	3400.80
424.50	3541.23
424.69	3513.14
424.88	3583.36
425.07	3454.63
425.26	3508.46
425.45	3543.57
425.64	3433.57
425.83	3559.95
426.01	3651.24
426.20	3545.91
426.39	3459.31
426.58	3599.74
426.77	3655.92
426.96	3578.68
427.15	3667.62
427.33	3613.79
427.52	3632.51
427.71	3864.22
427.90	3749.54
428.09	3784.65
428.28	3651.24
428.46	3831.46
428.65	3721.45
428.84	3983.59
429.03	3943.80
429.22	3730.81
429.40	3875.93
429.59	3812.73
429.78	3749.54
429.97	3611.45
430.16	3742.52
430.34	3700.39
430.53	3756.56
430.72	3911.04
430.91	3962.53
431.10	3983.59
431.28	4053.81
431.47	4077.21
431.66	4124.02
431.85	4032.74
432.03	4187.22
432.22	4175.52
432.41	4177.86
432.60	4086.58
432.79	4182.54
432.97	4248.07
433.16	4044.45
433.35	4093.60
433.54	4208.28
433.72	4210.62
433.91	4250.41
434.10	4243.39
434.28	4234.03
434.47	4294.88
434.66	4344.03
434.85	4435.32
435.03	4397.87
435.22	4365.10
435.41	4461.06
435.59	4512.55
435.78	4470.42
435.97	4454.04
436.16	4554.68
436.34	4447.02
436.53	4571.07
436.72	4793.42
436.90	4552.34
437.09	4580.43
437.28	4535.96
437.46	4589.79
437.65	4741.93
437.84	4798.10
438.02	4491.49
438.21	4627.24
438.40	4711.50
438.58	4842.57
438.77	5029.81
438.96	4943.21
439.14	4978.32
439.33	5195.99
439.52	5205.35
439.70	5027.47
439.89	5137.48
440.08	5097.69
440.26	4929.17
440.45	5121.09
440.63	5217.05
440.82	5369.19
441.01	5240.46
441.19	5336.42
441.38	5390.25
441.57	5558.77
441.75	5444.09
441.94	5605.58
442.12	5483.88
442.31	5792.83
442.50	5430.04
442.68	5547.07
442.87	5703.89
443.05	5792.83
443.24	5666.44
443.43	5743.67
443.61	5884.11
443.80	5825.59
443.98	5654.73
444.17	5544.73
444.35	5806.87
444.54	5834.96
444.73	5731.97
444.91	5755.38
445.10	5832.62
445.28	5935.60
445.47	5720.27
445.65	5722.61
445.84	5930.92
446.02	5944.96
446.21	5947.30
446.39	5989.43
446.58	5790.49
446.77	6134.54
446.95	5837.30
447.14	5867.72
447.32	6083.05
447.51	6057.31
447.69	5963.68
447.88	6017.52
448.06	5877.09
448.25	6003.47
448.43	5886.45
448.62	6008.16
448.80	5874.74
448.99	6127.52
449.17	6090.07
449.36	6038.58
449.54	6345.19
449.73	6179.01
449.91	6160.29
450.10	6347.53
450.28	6459.88
450.46	6246.89
450.65	6422.43
450.83	6380.30
451.02	6422.43
451.20	6389.66
451.39	6345.19
451.57	6197.74
451.76	6349.87
451.94	6597.97
452.13	6546.48
452.31	6504.35
452.49	6392.00
452.68	6551.16
452.86	6445.84
453.05	6492.65
453.23	6506.69
453.42	6492.65
453.60	6394.34
453.78	6822.66
453.97	6612.01
454.15	6675.21
454.34	6686.91
454.52	6899.90
454.70	6750.10
454.89	6766.49
455.07	6750.10
455.26	6867.13
455.44	6757.13
455.62	6925.65
455.81	6993.52
455.99	6986.50
456.17	6970.12
456.36	6953.73
456.54	7037.99
456.73	7150.34
456.91	7328.22
457.09	7309.49
457.28	7311.83
457.46	7253.32
457.64	7382.05
457.83	7293.11
458.01	7234.60
458.19	7356.30
458.38	7262.68
458.56	7365.67
458.74	7424.18
458.93	7438.22
459.11	7403.11
459.29	7578.65
459.48	7634.83
459.66	7353.96
459.84	7527.16
460.03	7726.11
460.21	7609.08
460.39	7569.29
460.57	7749.51
460.76	7632.49
460.94	7648.87
461.12	7786.96
461.31	7726.11
461.49	7761.22
461.67	7901.65
461.85	7866.54
462.04	7859.52
462.22	8086.55
462.40	8063.15
462.59	7967.18
462.77	8002.29
462.95	7960.16
463.13	7929.74
463.32	8077.19
463.50	8086.55
463.68	8053.78
463.86	8142.72
464.05	7941.44
464.23	7918.03
464.41	8016.33
464.59	7824.41
464.78	8280.82
464.96	8161.45
465.14	8140.38
465.32	8255.07
465.50	8222.30
465.69	8388.48
465.87	8414.23
466.05	8430.61
466.23	8416.57
466.41	8166.13
466.60	8287.84
466.78	8400.18
466.96	8549.98
467.14	8397.84
467.32	8435.29
467.51	8627.21
467.69	8212.94
467.87	8381.46
468.05	8503.17
468.23	8461.04
468.41	8458.70
468.60	8561.68
468.78	8585.08
468.96	8388.48
469.14	8800.41
469.32	8812.12
469.50	8641.26
469.69	8865.95
469.87	8882.33
470.05	9046.17
470.23	8964.25
470.41	8905.74
470.59	8917.44
470.77	8894.04
470.95	9104.68
471.14	9322.35
471.32	9029.79
471.50	9163.20
471.68	9291.93
471.86	9341.08
472.04	9167.88
472.22	9617.26
472.40	9013.40
472.58	9380.87
472.77	9476.83
472.95	9614.92
473.13	9933.23
473.31	9568.11
473.49	9643.01
473.67	9617.26
473.85	9645.35
474.03	9799.82
474.21	9769.40
474.39	9933.23
474.57	10040.90
474.75	10040.90
474.93	10162.61
475.12	10132.18
475.30	10352.19
475.48	10068.98
475.66	10139.20
475.84	10298.36
476.02	10335.81
476.20	10391.98
476.38	10541.77
476.56	10857.75
476.74	10686.89
476.92	10654.12
477.10	10787.53
477.28	10946.69
477.46	10895.19
477.64	11005.20
477.82	11000.52
478.00	11431.18
478.18	11477.99
478.36	11627.78
478.54	11627.78
478.72	11496.71
478.90	11765.87
479.08	11641.82
479.26	11861.84
479.44	11761.19
479.62	11983.54
479.80	12170.79
479.98	12222.28
480.16	12442.29
480.34	12444.63
480.52	12556.97
480.70	12514.84
480.88	12470.37
481.06	12496.12
481.24	12545.27
481.41	12915.08
481.59	13167.85
481.77	13275.52
481.95	13181.90
482.13	13355.10
482.31	13214.66
482.49	13287.22
482.67	13530.64
482.85	13689.79
483.03	13678.09
483.21	13905.12
483.39	14036.19
483.57	13902.78
483.74	14005.77
483.92	14033.85
484.10	14249.18
484.28	14530.05
484.46	14925.60
484.64	14897.51
484.82	14724.31
485.00	14927.94
485.18	15063.69
485.35	15180.71
485.53	14846.02
485.71	14876.44
485.89	15332.85
486.07	15302.42
486.25	15307.10
486.43	15377.32
486.61	15639.46
486.78	15833.72
486.96	16006.92
487.14	16350.98
487.32	16465.67
487.50	16439.92
487.68	16702.06
487.85	16732.49
488.03	17090.59
488.21	16982.93
488.39	17029.74
488.57	17163.15
488.75	17081.23
488.92	17111.66
489.10	17797.43
489.28	17748.28
489.46	17930.84
489.64	17738.92
489.81	18232.77
489.99	18136.81
490.17	18389.59
490.35	18633.00
490.53	18640.03
490.70	18845.99
490.88	18560.45
491.06	19281.33
491.24	18752.37
491.41	18890.46
491.59	19187.71
491.77	19103.45
491.95	19257.93
492.13	19744.76
492.30	19550.49
492.48	20065.41
492.66	19929.66
492.84	19826.68
493.01	20152.01
493.19	20329.89
493.37	20561.61
493.54	20500.75
493.72	20776.94
493.90	20470.33
494.08	20919.71
494.25	21069.50
494.43	21486.12
494.61	21303.56
494.79	21626.55
494.96	21120.99
495.14	21460.37
495.32	22078.27
495.49	21612.51
495.67	22075.93
495.85	22143.81
496.02	22382.54
496.20	22302.96
496.38	22272.54
496.55	22195.30
496.73	22586.17
496.91	22813.20
497.09	23009.81
497.26	22955.97
497.44	22625.96
497.62	23136.20
497.79	23601.96
497.97	23204.07
498.14	23403.02
498.32	23733.03
498.50	23524.72
498.67	23683.88
498.85	23910.91
499.03	24105.18
499.20	24018.58
499.38	24383.70
499.56	24116.88
499.73	24549.88
499.91	24367.32
500.08	24788.61
500.26	24409.45
500.44	24634.14
500.61	24556.90
500.79	24531.15
500.97	24720.74
501.14	25053.09
501.32	25383.11
501.49	24938.41
501.67	25172.46
501.84	25305.87
502.02	25135.01
502.20	25418.22
502.37	25598.44
502.55	25591.42
502.72	25921.43
502.90	25626.53
503.07	25951.86
503.25	25851.22
503.43	25776.32
503.60	25900.37
503.78	26185.91
503.95	26316.98
504.13	26558.06
504.30	26302.94
504.48	26340.39
504.65	26635.30
504.83	26747.64
505.01	26843.60
505.18	26611.89
505.36	27124.47
505.53	27033.19
505.71	27417.04
505.88	27234.47
506.06	27044.89
506.23	27288.31
506.41	27395.97
506.58	27550.45
506.76	27615.98
506.93	27941.32
507.11	27491.93
507.28	27688.54
507.46	27924.93
507.63	27999.83
507.81	28102.81
507.98	28004.51
508.16	28070.04
508.33	28266.65
508.50	28063.02
508.68	28189.41
508.85	28882.21
509.03	28233.88
509.20	28620.07
509.38	28968.81
509.55	29284.78
509.73	29067.11
509.90	28987.53
510.08	29064.77
510.25	29312.87
510.42	29401.81
510.60	29378.40
510.77	29720.12
510.95	29687.36
511.12	30036.09
511.30	29677.99
511.47	30066.52
511.64	30185.89
511.82	30335.68
511.99	29825.45
512.17	30054.82
512.34	30118.01
512.51	30485.48
512.69	30387.18
512.86	30534.63
513.04	30281.85
513.21	30565.06
513.38	30326.32
513.56	30806.13
513.73	30553.35
513.90	30958.27
514.08	30459.73
514.25	30609.53
514.43	30937.20
514.60	30962.95
514.77	31213.38
514.95	31194.66
515.12	31126.78
515.29	31545.74
515.47	31552.76
515.64	31782.13
515.81	31737.66
515.99	31594.89
516.16	31702.56
516.33	31461.48
516.51	31606.59
516.68	31445.10
516.85	31711.92
517.03	31945.97
517.20	31971.72
517.37	32102.79
517.54	32362.59
517.72	32238.54
517.89	31934.27
518.06	32343.86
518.24	31969.38
518.41	32437.48
518.58	32783.88
518.75	32411.74
518.93	32769.84
519.10	32720.69
519.27	32837.72
519.45	32488.98
519.62	33270.72
519.79	32898.57
519.96	33099.86
520.14	33743.50
520.31	33207.52
520.48	33261.35
520.65	33614.77
520.83	33535.20
521.00	33413.49
521.17	33500.09
521.34	34059.48
521.52	33914.36
521.69	34171.82
521.86	33841.81
522.03	33975.22
522.20	34195.23
522.38	34136.71
522.55	34335.66
522.72	34160.12
522.89	34129.69
523.07	34885.68
523.24	33940.11
523.41	34813.13
523.58	34218.63
523.75	34700.78
523.92	35182.93
524.10	34937.18
524.27	35007.39
524.44	34852.92
524.61	35154.85
524.78	35019.10
524.96	35299.96
525.13	35445.07
525.30	35325.71
525.47	35606.57
525.64	35009.73
525.81	35314.00
525.98	35775.09
526.16	35503.59
526.33	35447.41
526.50	35934.24
526.67	35054.20
526.84	35676.79
527.01	35515.29
527.18	35660.40
527.36	35892.12
527.53	36084.04
527.70	36128.51
527.87	36322.77
528.04	36121.49
528.21	36226.81
528.38	36081.70
528.55	36514.70
528.72	36495.97
528.89	36561.51
529.07	36376.61
529.24	36491.29
529.41	37111.53
529.58	36797.90
529.75	36407.03
529.92	36723.01
530.09	36858.76
530.26	36779.18
530.43	37057.70
530.60	37003.87
530.77	36465.55
530.94	37596.03
531.11	36823.65
531.28	36994.51
531.46	37486.02
531.63	37310.48
531.80	37214.52
531.97	37247.29
532.14	37284.73
532.31	37041.32
532.48	37214.52
532.65	37516.45
532.82	37184.09
532.99	37544.53
533.16	37656.88
533.33	37591.34
533.50	38050.09
533.67	37603.05
533.84	37479.00
534.01	37523.47
534.18	37897.95
534.35	38447.98
534.52	37825.40
534.69	38092.22
534.86	37956.47
535.03	38223.29
535.20	37635.81
535.37	38192.86
535.54	38345.00
535.71	37982.21
535.88	38410.53
536.05	38270.10
536.22	38873.96
536.38	38476.07
536.55	38429.26
536.72	38527.56
536.89	37874.55
537.06	38677.35
537.23	38782.68
537.40	38806.08
537.57	38990.98
537.74	38473.73
537.91	39089.29
538.08	38852.89
538.25	38745.23
538.42	38705.44
538.59	39299.94
538.75	38658.63
538.92	39192.27
539.09	39466.11
539.26	39005.03
539.43	38986.30
539.60	38794.38
539.77	39304.62
539.94	39449.73
540.11	39232.06
540.28	39182.91
540.44	39218.02
540.61	39117.37
540.78	39278.87
540.95	39360.79
541.12	39690.80
541.29	39636.97
541.46	39452.07
541.62	39505.90
541.79	39758.68
541.96	39405.26
542.13	39604.20
542.30	40219.77
542.47	40067.63
542.63	39704.85
542.80	39868.69
542.97	40409.35
543.14	40273.60
543.31	40343.81
543.48	40652.76
543.64	40708.94
543.81	40589.57
543.98	41132.57
544.15	40582.55
544.32	40797.88
544.48	41373.65
544.65	41139.60
544.82	40577.87
544.99	40779.15
545.16	40744.05
545.32	40905.54
545.49	40783.83
545.66	40950.01
545.83	41111.51
546.00	41020.23
546.16	41174.70
546.33	40491.27
546.50	40685.53
546.67	41319.82
546.83	40751.07
547.00	41361.95
547.17	40877.46
547.34	41270.67
547.50	41074.06
547.67	41415.78
547.84	41301.09
548.00	41649.83
548.17	41698.98
548.34	41696.64
548.51	42005.59
548.67	42120.28
548.84	41823.03
549.01	41588.98
549.18	41387.69
549.34	41848.78
549.51	41940.06
549.68	41565.57
549.84	41818.35
550.01	42120.28
550.18	41923.68
550.34	42012.62
550.51	41584.30
550.68	41883.89
550.84	41598.34
551.01	41897.93
551.18	41731.75
551.34	41724.73
551.51	42122.62
551.68	41958.78
551.84	41897.93
552.01	42122.62
552.18	42251.35
552.34	42387.10
552.51	42382.42
552.68	42019.64
552.84	42522.85
553.01	42667.97
553.18	42260.71
553.34	41986.87
553.51	42197.52
553.67	42356.67
553.84	43225.01
554.01	42637.54
554.17	42878.61
554.34	42595.41
554.51	42735.84
554.67	42410.51
554.84	42548.60
555.00	42740.52
555.17	42515.83
555.33	42726.48
555.50	42766.27
555.67	42625.84
555.83	42906.70
556.00	42885.64
556.16	43166.50
556.33	43180.54
556.50	42899.68
556.66	42829.46
556.83	42988.62
556.99	43323.32
557.16	42850.53
557.32	43412.26
557.49	43217.99
557.65	42960.53
557.82	43232.04
557.98	43622.90
558.15	43112.67
558.32	43241.40
558.48	43061.18
558.65	43096.28
558.81	42958.19
558.98	43302.25
559.14	42979.26
559.31	43257.78
559.47	43613.54
559.64	43632.27
559.80	43463.75
559.97	44154.21
560.13	43180.54
560.30	43255.44
560.46	43590.14
560.63	43487.15
560.79	43650.99
560.96	43571.41
561.12	43438.00
561.29	43683.76
561.45	43477.79
561.61	43566.73
561.78	43555.03
561.94	43576.09
562.11	43566.73
562.27	43892.07
562.44	43533.96
562.60	44018.46
562.77	43913.13
562.93	43714.19
563.10	44006.75
563.26	43842.92
563.42	43452.05
563.59	43756.32
563.75	43674.40
563.92	44172.93
564.08	43901.43
564.24	44219.74
564.41	44062.93
564.57	43934.20
564.74	44030.16
564.90	44065.27
565.07	44226.76
565.23	43913.13
565.39	43648.65
565.56	44734.66
565.72	43878.02
565.88	44133.14
566.05	44196.34
566.21	43873.34
566.38	43859.30
566.54	43667.37
566.70	44179.95
566.87	44655.08
567.03	44402.30
567.19	44626.99
567.36	44196.34
567.52	43999.73
567.68	44481.88
567.85	44100.37
568.01	43721.21
568.17	43842.92
568.34	44311.02
568.50	44296.98
568.66	43901.43
568.83	44172.93
568.99	44257.19
569.15	43910.79
569.32	44037.18
569.48	43594.82
569.64	44535.71
569.81	44477.20
569.97	44416.35
570.13	44222.08
570.30	43948.24
570.46	43952.92
570.62	43978.67
570.78	43875.68
570.95	44360.17
571.11	44587.21
571.27	44121.44
571.43	44612.95
571.60	44278.25
571.76	43866.32
571.92	44039.52
572.09	44367.20
572.25	44100.37
572.41	44545.08
572.57	44025.48
572.74	45059.99
572.90	44655.08
573.06	44184.63
573.22	44144.84
573.38	44399.96
573.55	44231.44
573.71	44617.63
573.87	44154.21
574.03	43821.85
574.20	44126.12
574.36	44327.41
574.52	44289.96
574.68	44790.83
574.84	44697.21
575.01	44320.38
575.17	44619.97
575.33	44245.49
575.49	44065.27
575.65	44851.69
575.82	44332.09
575.98	44479.54
576.14	44765.09
576.30	44481.88
576.46	44421.03
576.62	44622.31
576.79	44385.92
576.95	43608.86
577.11	44296.98
577.27	44554.44
577.43	44851.69
577.59	44814.24
577.75	44498.26
577.92	44266.55
578.08	44280.60
578.24	44315.70
578.40	44322.72
578.56	44318.04
578.72	44296.98
578.88	44472.52
579.04	44830.62
579.21	44608.27
579.37	44854.03
579.53	44378.90
579.69	43901.43
579.85	44634.02
580.01	44828.28
580.17	44952.33
580.33	44870.41
580.49	44839.98
580.65	44573.16
580.82	44320.38
580.98	44542.74
581.14	44479.54
581.30	45001.48
581.46	44783.81
581.62	44638.70
581.78	44643.38
581.94	44818.92
582.10	44421.03
582.26	45003.82
582.42	44729.98
582.58	44692.53
582.74	44804.88
582.90	44596.57
583.06	44577.84
583.22	44664.44
583.38	45057.65
583.54	44741.68
583.70	44367.20
583.86	44701.89
584.02	44086.33
584.18	44603.59
584.34	44996.80
584.50	44755.72
584.66	44397.62
584.82	44516.99
584.98	45413.41
585.14	45280.00
585.30	44414.01
585.46	44706.57
585.62	44500.61
585.78	44542.74
585.94	44172.93
586.10	44374.22
586.26	44512.31
586.42	44718.28
586.58	44596.57
586.74	44589.55
586.90	44893.82
587.06	44425.71
587.22	44947.65
587.38	44367.20
587.54	44811.90
587.70	44982.76
587.86	44615.29
588.02	45144.25
588.18	44720.62
588.34	44561.46
588.49	44650.40
588.65	44027.82
588.81	44554.44
588.97	44795.51
589.13	44790.83
589.29	44491.24
589.45	44729.98
589.61	44524.01
589.77	45076.38
589.93	45038.93
590.08	45120.85
590.24	44788.49
