SpectraSuite Data File
++++++++++++++++++++++++++++++++++++
Date: Fri Oct 25 11:33:25 EDT 2013
User: price-jones
Dark Spectrum Present: No
Reference Spectrum Present: No
Number of Sampled Component Spectra: 1
Spectrometers: USB2+H05261
Integration Time (usec): 100000 (USB2+H05261)
Spectra Averaged: 1 (USB2+H05261)
Boxcar Smoothing: 0 (USB2+H05261)
Correct for Electrical Dark: No (USB2+H05261)
Strobe/Lamp Enabled: No (USB2+H05261)
Correct for Detector Non-linearity: No (USB2+H05261)
Correct for Stray Light: No (USB2+H05261)
Number of Pixels in Processed Spectrum: 2048
>>>>>Begin Processed Spectral Data<<<<<
365.73	304.27
365.92	304.27
366.12	304.27
366.32	215.33
366.52	142.77
366.72	187.24
366.91	117.03
367.11	184.90
367.31	170.86
367.51	159.16
367.70	149.79
367.90	238.73
368.10	121.71
368.30	159.16
368.49	131.07
368.69	250.44
368.89	210.65
369.09	145.11
369.28	236.39
369.48	238.73
369.68	205.97
369.87	182.56
370.07	264.48
370.27	280.86
370.47	294.91
370.66	425.98
370.86	526.62
371.06	550.03
371.25	629.60
371.45	575.77
371.65	528.96
371.84	465.77
372.04	526.62
372.24	526.62
372.44	627.26
372.63	599.18
372.83	552.37
373.03	620.24
373.22	634.29
373.42	608.54
373.62	582.79
373.81	601.52
374.01	622.58
374.21	603.86
374.40	645.99
374.60	662.37
374.79	650.67
374.99	638.97
375.19	727.91
375.38	688.12
375.58	629.60
375.78	657.69
375.97	660.03
376.17	601.52
376.37	631.94
376.56	690.46
376.76	678.76
376.95	613.22
377.15	660.03
377.35	664.71
377.54	671.73
377.74	685.78
377.93	720.88
378.13	697.48
378.33	711.52
378.52	702.16
378.72	711.52
378.91	746.63
379.11	643.65
379.31	695.14
379.50	704.50
379.70	739.61
379.89	706.84
380.09	748.97
380.28	725.57
380.48	793.44
380.68	727.91
380.87	767.70
381.07	718.54
381.26	746.63
381.46	695.14
381.65	812.17
381.85	704.50
382.04	720.88
382.24	793.44
382.43	772.38
382.63	805.14
382.83	791.10
383.02	896.43
383.22	767.70
383.41	840.25
383.61	781.74
383.80	770.04
384.00	821.53
384.19	734.93
384.39	844.93
384.58	840.25
384.78	910.47
384.97	901.11
385.17	875.36
385.36	821.53
385.56	814.51
385.75	763.01
385.95	882.38
386.14	924.51
386.34	819.19
386.53	784.08
386.72	814.51
386.92	870.68
387.11	945.58
387.31	863.66
387.50	856.64
387.70	880.04
387.89	912.81
388.09	866.00
388.28	870.68
388.48	905.79
388.67	976.00
388.86	966.64
389.06	910.47
389.25	954.94
389.45	901.11
389.64	957.28
389.84	894.08
390.03	978.34
390.22	1083.67
390.42	992.39
390.61	947.92
390.81	945.58
391.00	1004.09
391.19	901.11
391.39	994.73
391.58	1071.97
391.78	1053.24
391.97	968.98
392.16	964.30
392.36	1100.05
392.55	1128.14
392.75	950.26
392.94	973.66
393.13	1095.37
393.33	1071.97
393.52	1128.14
393.71	1139.84
393.91	1078.99
394.10	1081.33
394.29	1149.20
394.49	1104.73
394.68	1111.75
394.88	1090.69
395.07	1163.25
395.26	1184.31
395.46	1153.88
395.65	1151.54
395.84	1121.12
396.04	1256.87
396.23	1198.35
396.42	1181.97
396.62	1207.72
396.81	1226.44
397.00	1275.59
397.19	1130.48
397.39	1233.46
397.58	1249.85
397.77	1261.55
397.97	1308.36
398.16	1270.91
398.35	1317.72
398.55	1240.48
398.74	1256.87
398.93	1341.13
399.12	1343.47
399.32	1287.29
399.51	1296.66
399.70	1273.25
399.90	1369.21
400.09	1376.24
400.28	1394.96
400.47	1338.79
400.67	1352.83
400.86	1399.64
401.05	1413.68
401.24	1504.96
401.44	1469.86
401.63	1497.94
401.82	1441.77
402.01	1418.36
402.21	1453.47
402.40	1460.49
402.59	1483.90
402.78	1582.20
402.97	1610.29
403.17	1511.99
403.36	1526.03
403.55	1547.09
403.74	1558.80
403.93	1540.07
404.13	1624.33
404.32	1638.38
404.51	1647.74
404.70	1591.56
404.89	1638.38
405.09	1722.63
405.28	1689.87
405.47	1675.82
405.66	1764.76
405.85	1692.21
406.05	1746.04
406.24	1757.74
406.43	1769.44
406.62	1776.47
406.81	1842.00
407.00	1820.94
407.20	1661.78
407.39	1776.47
407.58	1820.94
407.77	1919.24
407.96	1872.43
408.15	1956.69
408.34	1975.41
408.54	1914.56
408.73	1877.11
408.92	1949.67
409.11	1959.03
409.30	2024.56
409.49	1919.24
409.68	2076.06
409.87	1996.48
410.07	2132.23
410.26	2097.12
410.45	2078.40
410.64	2085.42
410.83	2134.57
411.02	2085.42
411.21	2244.57
411.40	2047.97
411.59	2195.42
411.78	2197.76
411.98	2289.04
412.17	2279.68
412.36	2251.60
412.55	2340.54
412.74	2305.43
412.93	2270.32
413.12	2277.34
413.31	2434.16
413.50	2342.88
413.69	2368.62
413.88	2469.27
414.07	2560.55
414.26	2478.63
414.45	2438.84
414.64	2532.46
414.83	2525.44
415.02	2724.38
415.22	2654.17
415.41	2710.34
415.60	2658.85
415.79	2684.59
415.98	2717.36
416.17	2752.47
416.36	2759.49
416.55	2684.59
416.74	2820.35
416.93	2808.64
417.12	2874.18
417.31	2899.92
417.50	2848.43
417.69	2904.60
417.88	3035.67
418.07	2892.90
418.26	3089.51
418.45	3002.91
418.64	3080.14
418.83	3035.67
419.02	3000.57
419.21	3089.51
419.39	3091.85
419.58	3133.98
419.77	2930.35
419.96	3155.04
420.15	3180.79
420.34	3213.56
420.53	3061.42
420.72	3290.79
420.91	3213.56
421.10	3180.79
421.29	3391.44
421.48	3251.00
421.67	3391.44
421.86	3288.45
422.05	3300.16
422.24	3351.65
422.43	3325.90
422.61	3337.60
422.80	3389.10
422.99	3438.25
423.18	3321.22
423.37	3508.46
423.56	3449.95
423.75	3386.76
423.94	3318.88
424.13	3337.60
424.32	3361.01
424.50	3419.52
424.69	3396.12
424.88	3534.21
425.07	3400.80
425.26	3426.54
425.45	3412.50
425.64	3332.92
425.83	3419.52
426.01	3658.26
426.20	3548.25
426.39	3466.33
426.58	3506.12
426.77	3492.08
426.96	3576.34
427.15	3545.91
427.33	3686.34
427.52	3466.33
427.71	3667.62
427.90	3726.13
428.09	3595.06
428.28	3618.47
428.46	3655.92
428.65	3721.45
428.84	3836.14
429.03	3838.48
429.22	3667.62
429.40	3789.33
429.59	3726.13
429.78	3702.73
429.97	3618.47
430.16	3716.77
430.34	3812.73
430.53	3964.87
430.72	3840.82
430.91	4011.68
431.10	3906.35
431.28	3929.76
431.47	3997.64
431.66	3988.27
431.85	3904.01
432.03	3990.61
432.22	4102.96
432.41	4086.58
432.60	4133.39
432.79	3992.95
432.97	4128.70
433.16	4227.01
433.35	4145.09
433.54	4135.73
433.72	4217.65
433.91	4039.76
434.10	4184.88
434.28	4259.78
434.47	4304.25
434.66	4393.19
434.85	4346.37
435.03	4339.35
435.22	4297.22
435.41	4414.25
435.59	4418.93
435.78	4329.99
435.97	4306.59
436.16	4479.79
436.34	4393.19
436.53	4559.36
436.72	4720.86
436.90	4559.36
437.09	4505.53
437.28	4332.33
437.46	4617.88
437.65	4531.28
437.84	4564.04
438.02	4601.49
438.21	4688.09
438.40	4603.83
438.58	4819.16
438.77	4788.74
438.96	4840.23
439.14	4910.44
439.33	4840.23
439.52	5043.85
439.70	5076.62
439.89	4858.95
440.08	5020.45
440.26	5107.05
440.45	4924.49
440.63	5116.41
440.82	5102.37
441.01	5083.64
441.19	5233.44
441.38	5219.39
441.57	5242.80
441.75	5385.57
441.94	5439.40
442.12	5371.53
442.31	5495.58
442.50	5467.49
442.68	5327.06
442.87	5441.75
443.05	5493.24
443.24	5631.33
443.43	5685.16
443.61	5453.45
443.80	5652.39
443.98	5516.64
444.17	5406.64
444.35	5509.62
444.54	5696.86
444.73	5626.65
444.91	5621.97
445.10	5664.10
445.28	5757.72
445.47	5500.26
445.65	5572.82
445.84	5872.40
446.02	5820.91
446.21	5823.25
446.39	5699.20
446.58	5792.83
446.77	5727.29
446.95	5621.97
447.14	5757.72
447.32	5753.04
447.51	5743.67
447.69	5797.51
447.88	5760.06
448.06	5802.19
448.25	5928.58
448.43	5734.31
448.62	5841.98
448.80	5867.72
448.99	5863.04
449.17	5888.79
449.36	5919.21
449.54	6099.44
449.73	6073.69
449.91	6197.74
450.10	6134.54
450.28	6139.23
450.46	6064.33
450.65	6085.39
450.83	6164.97
451.02	6132.20
451.20	6200.08
451.39	6125.18
451.57	6120.50
451.76	6101.78
451.94	6251.57
452.13	6239.87
452.31	6462.22
452.49	6164.97
452.68	6403.71
452.86	6274.98
453.05	6579.25
453.23	6445.84
453.42	6267.95
453.60	6202.42
453.78	6516.05
453.97	6595.63
454.15	6462.22
454.34	6478.60
454.52	6466.90
454.70	6520.73
454.89	6518.39
455.07	6544.14
455.26	6560.52
455.44	6916.28
455.62	6595.63
455.81	6633.08
455.99	6628.40
456.17	6895.22
456.36	6712.66
456.54	6888.20
456.73	6855.43
456.91	6920.96
457.09	7084.80
457.28	6986.50
457.46	6909.26
457.64	7133.95
457.83	7176.08
458.01	7162.04
458.19	7229.91
458.38	7101.19
458.56	7117.57
458.74	7115.23
458.93	7229.91
459.11	7332.90
459.29	7218.21
459.48	7276.73
459.66	7241.62
459.84	7410.14
460.03	7389.07
460.21	7459.29
460.39	7466.31
460.57	7438.22
460.76	7480.35
460.94	7585.68
461.12	7534.18
461.31	7424.18
461.49	7723.77
461.67	7456.95
461.85	7784.62
462.04	7618.44
462.22	7962.50
462.40	7822.07
462.59	7880.58
462.77	7812.71
462.95	7892.29
463.13	7765.90
463.32	7836.11
463.50	7712.07
463.68	7861.86
463.86	8004.63
464.05	7896.97
464.23	7885.26
464.41	7957.82
464.59	7985.91
464.78	8095.91
464.96	8044.42
465.14	7899.31
465.32	8100.59
465.50	8037.40
465.69	8056.12
465.87	8201.24
466.05	8255.07
466.23	8093.57
466.41	8428.27
466.60	8435.29
466.78	8102.93
466.96	8339.33
467.14	8198.90
467.32	8428.27
467.51	8372.10
467.69	8142.72
467.87	8425.93
468.05	8372.10
468.23	8374.44
468.41	8355.71
468.60	8482.10
468.78	8456.36
468.96	8414.23
469.14	8542.96
469.32	8945.53
469.50	8526.57
469.69	8603.81
469.87	8912.76
470.05	8678.71
470.23	8936.17
470.41	8695.09
470.59	8751.26
470.77	8821.48
470.95	8753.60
471.14	9132.77
471.32	8800.41
471.50	9071.92
471.68	8994.68
471.86	9235.75
472.04	9064.89
472.22	9476.83
472.40	9170.22
472.58	9369.16
472.77	9331.72
472.95	9383.21
473.13	9692.16
473.31	9317.67
473.49	9535.34
473.67	9589.17
473.85	9748.33
474.03	9914.51
474.21	9841.95
474.39	9603.22
474.57	9844.29
474.75	9921.53
474.93	10036.22
475.12	9937.91
475.30	10200.05
475.48	9980.04
475.66	10190.69
475.84	9975.36
476.02	10171.97
476.20	10340.49
476.38	10417.72
476.56	10586.24
476.74	10846.04
476.92	10338.15
477.10	10560.50
477.28	10927.96
477.46	10862.43
477.64	10820.30
477.82	10843.70
478.00	11129.25
478.18	11215.85
478.36	11433.52
478.54	11344.58
478.72	11288.40
478.90	11742.47
479.08	11644.17
479.26	11714.38
479.44	11583.31
479.62	12016.31
479.80	11875.88
479.98	12044.40
480.16	12241.00
480.34	12236.32
480.52	12498.46
480.70	12430.59
480.88	12388.46
481.06	12184.83
481.24	12564.00
481.41	12461.01
481.59	12781.67
481.77	12971.25
481.95	12933.80
482.13	13195.94
482.31	12798.05
482.49	13242.75
482.67	13275.52
482.85	13598.51
483.03	13540.00
483.21	13444.04
483.39	13942.57
483.57	13762.35
483.74	13907.46
483.92	14335.78
484.10	14139.18
484.28	14335.78
484.46	14635.37
484.64	14860.06
484.82	14501.96
485.00	14796.87
485.18	15049.64
485.35	15136.24
485.53	15040.28
485.71	15501.37
485.89	15534.14
486.07	15506.05
486.25	15850.11
486.43	15735.42
486.61	15714.36
486.78	15990.54
486.96	15889.90
487.14	16093.52
487.32	16240.98
487.50	16215.23
487.68	16470.35
487.85	16503.12
488.03	16767.60
488.21	17097.61
488.39	17170.17
488.57	17259.11
488.75	17106.98
488.92	17334.01
489.10	17827.86
489.28	17654.66
489.46	18099.36
489.64	17799.77
489.81	17982.34
489.99	17965.95
490.17	18162.56
490.35	18569.81
490.53	18499.59
490.70	18764.07
490.88	18445.76
491.06	18829.61
491.24	19000.47
491.41	19173.67
491.59	19332.82
491.77	19051.96
491.95	19421.77
492.13	19609.01
492.30	19796.25
492.48	19653.48
492.66	20135.63
492.84	20137.97
493.01	20159.03
493.19	20210.53
493.37	20470.33
493.54	20453.94
493.72	20814.38
493.90	21060.14
494.08	20893.96
494.25	21284.83
494.43	20966.52
494.61	21106.95
494.79	21392.50
494.96	21638.25
495.14	21872.31
495.32	22024.44
495.49	21720.17
495.67	22036.14
495.85	22115.72
496.02	22019.76
496.20	22548.72
496.38	22530.00
496.55	22595.53
496.73	23019.17
496.91	22637.66
497.09	23094.07
497.26	22965.34
497.44	23220.45
497.62	23049.60
497.79	23037.89
497.97	23517.70
498.14	23503.66
498.32	24147.31
498.50	23803.25
498.67	23915.59
498.85	23981.13
499.03	23875.80
499.20	24175.39
499.38	24395.40
499.56	24322.85
499.73	24496.05
499.91	24439.87
500.08	25029.69
500.26	24460.94
500.44	24620.10
500.61	24779.25
500.79	24915.00
500.97	25235.66
501.14	25460.35
501.32	25420.56
501.49	25130.33
501.67	25734.19
501.84	26064.21
502.02	25528.22
502.20	25998.67
502.37	25640.57
502.55	25942.50
502.72	26043.14
502.90	25977.61
503.07	26125.06
503.25	26080.59
503.43	26225.70
503.60	26609.55
503.78	26424.65
503.95	26017.40
504.13	26520.61
504.30	26986.38
504.48	26649.34
504.65	27138.51
504.83	27199.37
505.01	27445.12
505.18	27138.51
505.36	27515.34
505.53	27035.53
505.71	27190.00
505.88	27520.02
506.06	27583.21
506.23	27704.92
506.41	27611.30
506.58	27534.06
506.76	28037.28
506.93	28341.55
507.11	27887.48
507.28	28528.79
507.46	28264.31
507.63	28699.65
507.81	28559.22
507.98	28067.70
508.16	28467.94
508.33	28643.48
508.50	29099.88
508.68	28898.59
508.85	29425.22
509.03	29088.18
509.20	28671.56
509.38	29385.43
509.55	29221.59
509.73	29280.10
509.90	29490.75
510.08	29666.29
510.25	29518.84
510.42	29560.97
510.60	30192.91
510.77	30359.09
510.95	30501.86
511.12	30298.23
511.30	30253.76
511.47	30057.16
511.64	30267.81
511.82	30925.50
511.99	30218.66
512.17	30632.93
512.34	30443.35
512.51	30967.63
512.69	30649.32
512.86	30670.38
513.04	31168.91
513.21	31220.41
513.38	31384.24
513.56	31409.99
513.73	31201.68
513.90	31082.31
514.08	31405.31
514.25	31967.04
514.43	31697.88
514.60	32105.13
514.77	32016.19
514.95	32226.84
515.12	31894.48
515.29	31857.03
515.47	32395.35
515.64	31927.25
515.81	32254.92
515.99	32233.86
516.16	32847.08
516.33	32708.99
516.51	32727.71
516.68	32587.28
516.85	32767.50
517.03	33036.66
517.20	32727.71
517.37	32678.56
517.54	33251.99
517.72	33008.58
517.89	32994.53
518.06	33240.29
518.24	33174.75
518.41	33291.78
518.58	33242.63
518.75	33193.48
518.93	33610.09
519.10	33404.13
519.27	33254.33
519.45	33596.05
519.62	34153.10
519.79	33940.11
519.96	33301.14
520.14	34132.03
520.31	33802.02
520.48	34429.28
520.65	34089.90
520.83	34609.50
521.00	34539.29
521.17	34590.78
521.34	34759.30
521.52	34445.66
521.69	34672.70
521.86	34892.71
522.03	34539.29
522.20	35058.88
522.38	34803.77
522.55	35428.69
522.72	35356.13
522.89	35243.79
523.07	35583.16
523.24	35234.42
523.41	35826.58
523.58	35433.37
523.75	35508.27
523.92	35672.10
524.10	35597.21
524.27	35962.33
524.44	36067.66
524.61	35927.22
524.78	36374.27
524.96	36224.47
525.13	36203.41
525.30	36261.92
525.47	36849.39
525.64	36245.54
525.81	36711.30
525.98	36720.66
526.16	36215.11
526.33	36629.38
526.50	36802.58
526.67	36776.84
526.84	36816.63
527.01	36851.73
527.18	36636.41
527.36	37172.39
527.53	36708.96
527.70	37280.05
527.87	37511.77
528.04	36992.17
528.21	37214.52
528.38	37305.80
528.55	37787.95
528.72	37368.99
528.89	37343.25
529.07	37268.35
529.24	37191.11
529.41	37771.57
529.58	37640.50
529.75	37535.17
529.92	37715.39
530.09	37846.46
530.26	37881.57
530.43	38377.76
530.60	37783.27
530.77	37694.33
530.94	38171.80
531.11	37923.70
531.28	38323.93
531.46	38384.79
531.63	37897.95
531.80	38314.57
531.97	38366.06
532.14	38768.63
532.31	38422.23
532.48	38850.55
532.65	38623.52
532.82	39014.39
532.99	38705.44
533.16	38679.69
533.33	39342.06
533.50	38749.91
533.67	38827.15
533.84	38967.58
534.01	39454.41
534.18	39126.74
534.35	39721.23
534.52	39316.32
534.69	39632.29
534.86	39405.26
535.03	39807.83
535.20	39826.56
535.37	39831.24
535.54	39901.45
535.71	39711.87
535.88	39920.18
536.05	39629.95
536.22	39854.64
536.38	39484.84
536.55	39693.15
536.72	39754.00
536.89	39620.59
537.06	40107.42
537.23	40353.18
537.40	39913.16
537.57	40493.61
537.74	39648.68
537.91	40018.48
538.08	40336.79
538.25	40254.87
538.42	40683.19
538.59	40561.48
538.75	40350.84
538.92	40882.14
539.09	40708.94
539.26	40779.15
539.43	40758.09
539.60	41036.61
539.77	40552.12
539.94	40561.48
540.11	40751.07
540.28	41095.13
540.44	41155.98
540.61	40898.52
540.78	41088.10
540.95	41242.58
541.12	41130.23
541.29	40526.38
541.46	41214.49
541.62	41387.69
541.79	41481.31
541.96	41048.32
542.13	40893.84
542.30	41310.46
542.47	41368.97
542.63	41626.43
542.80	41532.81
542.97	41752.82
543.14	42019.64
543.31	41663.88
543.48	41928.36
543.64	42564.98
543.81	42850.53
543.98	42408.17
544.15	42436.25
544.32	42515.83
544.48	42763.93
544.65	42375.40
544.82	42508.81
544.99	42272.42
545.16	42642.22
545.32	42595.41
545.49	42869.25
545.66	42843.51
545.83	42824.78
546.00	42911.38
546.16	42777.97
546.33	42705.41
546.50	42653.92
546.67	42866.91
546.83	42550.94
547.00	42895.00
547.17	42829.46
547.34	42920.74
547.50	43463.75
547.67	43297.57
547.84	42806.06
548.00	43470.77
548.17	43562.05
548.34	43019.05
548.51	43739.93
548.67	43337.36
548.84	43290.55
549.01	43887.39
549.18	43000.32
549.34	43557.37
549.51	43459.07
549.68	43772.70
549.84	43414.60
550.01	43976.33
550.18	43510.56
550.34	43475.45
550.51	43761.00
550.68	43866.32
550.84	43819.51
551.01	43709.50
551.18	43983.35
551.34	43882.70
551.51	43997.39
551.68	44156.55
551.84	44275.91
552.01	44102.71
552.18	44163.57
552.34	43880.36
552.51	44236.12
552.68	44053.56
552.84	44184.63
553.01	44390.60
553.18	44531.03
553.34	44612.95
553.51	44444.43
553.67	44451.45
553.84	44825.94
554.01	44636.36
554.17	44832.96
554.34	44744.02
554.51	44704.23
554.67	44582.52
554.84	44271.23
555.00	44762.75
555.17	44421.03
555.33	44783.81
555.50	45270.64
555.67	44605.93
555.83	44868.07
556.00	44837.64
556.16	45076.38
556.33	45109.14
556.50	44783.81
556.66	45160.64
556.83	44823.60
556.99	45483.63
557.16	45312.77
557.32	45315.11
557.49	45102.12
557.65	44863.39
557.82	45345.54
557.98	44975.73
558.15	45244.90
558.32	45439.16
558.48	45191.06
558.65	45542.14
558.81	45481.29
558.98	45242.56
559.14	45221.49
559.31	45352.56
559.47	45490.65
559.64	45769.18
559.80	45595.98
559.97	45710.66
560.13	45282.34
560.30	45645.13
560.46	46384.74
560.63	45858.12
560.79	46241.96
560.96	46061.74
561.12	45916.63
561.29	45549.17
561.45	45705.98
561.61	45794.92
561.78	45682.58
561.94	45855.78
562.11	45883.86
562.27	46071.10
562.44	45684.92
562.60	46443.25
562.77	46003.23
562.93	46000.89
563.10	45949.40
563.26	45841.73
563.42	46607.09
563.59	46043.02
563.75	46375.37
563.92	46101.53
564.08	46138.98
564.24	46136.64
564.41	45986.85
564.57	46124.94
564.74	46415.16
564.90	45991.53
565.07	46422.19
565.23	46820.08
565.39	46066.42
565.56	46564.96
565.72	46351.97
565.88	46588.36
566.05	46309.84
566.21	46433.89
566.38	46199.83
566.54	46574.32
566.70	46459.63
566.87	46454.95
567.03	46330.90
567.19	46691.35
567.36	46576.66
567.52	46777.95
567.68	46988.60
567.85	46227.92
568.01	46937.10
568.17	46822.42
568.34	47217.97
568.50	47173.50
568.66	46494.74
568.83	46494.74
568.99	46653.90
569.15	46960.51
569.32	46719.43
569.48	46721.77
569.64	47168.82
569.81	47070.51
569.97	46913.70
570.13	47023.70
570.30	46382.40
570.46	47105.62
570.62	47327.97
570.78	47084.56
570.95	47164.14
571.11	47246.05
571.27	46714.75
571.43	46469.00
571.60	47021.36
571.76	46614.11
571.92	47026.04
572.09	46457.29
572.25	46838.80
572.41	46871.57
572.57	47236.69
572.74	47290.52
572.90	46897.31
573.06	47239.03
573.22	47014.34
573.38	47405.21
573.55	47566.71
573.71	47524.58
573.87	47208.61
574.03	47058.81
574.20	47412.23
574.36	47154.77
574.52	47505.85
574.68	47112.64
574.84	47157.11
575.01	47098.60
575.17	47426.28
575.33	47166.48
575.49	47058.81
575.65	47440.32
575.82	47381.80
575.98	47234.35
576.14	47454.36
576.30	47440.32
576.46	46897.31
576.62	47274.14
576.79	47395.85
576.95	47145.41
577.11	47068.17
577.27	47229.67
577.43	46951.15
577.59	46906.68
577.75	47178.18
577.92	47075.19
578.08	46946.47
578.24	47192.22
578.40	47501.17
578.56	47459.04
578.72	47159.45
578.88	47445.00
579.04	47615.86
579.21	47033.07
579.37	47445.00
579.53	47327.97
579.69	47501.17
579.85	47037.75
580.01	47501.17
580.17	47407.55
580.33	47540.96
580.49	47232.01
580.65	47477.77
580.82	47468.40
580.98	47033.07
581.14	47182.86
581.30	47470.75
581.46	47304.57
581.62	47334.99
581.78	47236.69
581.94	47442.66
582.10	47257.76
582.26	47576.07
582.42	47501.17
582.58	47669.69
582.74	47814.80
582.90	47634.58
583.06	47550.32
583.22	47290.52
583.38	47421.59
583.54	47742.25
583.70	47615.86
583.86	47557.35
584.02	47274.14
584.18	48404.62
584.34	47938.85
584.50	47505.85
584.66	48074.60
584.82	47543.30
584.98	47552.66
585.14	47632.24
585.30	47536.28
585.46	47622.88
585.62	46775.61
585.78	47863.96
585.94	47342.02
586.10	47749.27
586.26	47367.76
586.42	47634.58
586.58	47854.59
586.74	47592.45
586.90	47428.62
587.06	47428.62
587.22	47742.25
587.38	47332.65
587.54	47725.86
587.70	48243.12
587.86	47770.33
588.02	47641.60
588.18	47295.21
588.34	47559.69
588.49	47550.32
588.65	47770.33
588.81	47433.30
588.97	47854.59
589.13	47583.09
589.29	47756.29
589.45	47941.19
589.61	48025.45
589.77	48055.88
589.93	47646.29
590.08	48399.94
