SpectraSuite Data File
++++++++++++++++++++++++++++++++++++
Date: Fri Oct 25 10:44:15 EDT 2013
User: price-jones
Dark Spectrum Present: No
Reference Spectrum Present: No
Number of Sampled Component Spectra: 1
Spectrometers: USB2+H05261
Integration Time (usec): 100000 (USB2+H05261)
Spectra Averaged: 1 (USB2+H05261)
Boxcar Smoothing: 0 (USB2+H05261)
Correct for Electrical Dark: No (USB2+H05261)
Strobe/Lamp Enabled: No (USB2+H05261)
Correct for Detector Non-linearity: No (USB2+H05261)
Correct for Stray Light: No (USB2+H05261)
Number of Pixels in Processed Spectrum: 2048
>>>>>Begin Processed Spectral Data<<<<<
365.73	159.16
365.92	159.16
366.12	159.16
366.32	81.92
366.52	23.41
366.72	67.88
366.91	44.47
367.11	14.04
367.31	28.09
367.51	0.00
367.70	39.79
367.90	70.22
368.10	39.79
368.30	88.94
368.49	0.00
368.69	30.43
368.89	0.00
369.09	18.72
369.28	86.60
369.48	16.38
369.68	70.22
369.87	84.26
370.07	156.82
370.27	140.43
370.47	175.54
370.66	425.98
370.86	440.02
371.06	442.36
371.25	430.66
371.45	468.11
371.65	447.04
371.84	442.36
372.04	465.77
372.24	463.43
372.44	442.36
372.63	451.72
372.83	486.83
373.03	557.05
373.22	503.22
373.42	500.87
373.62	592.16
373.81	547.69
374.01	566.41
374.21	533.64
374.40	470.45
374.60	491.51
374.79	533.64
374.99	645.99
375.19	645.99
375.38	543.00
375.58	587.47
375.78	631.94
375.97	561.73
376.17	615.56
376.37	601.52
376.56	678.76
376.76	528.96
376.95	645.99
377.15	620.24
377.35	650.67
377.54	662.37
377.74	601.52
377.93	634.29
378.13	596.84
378.33	727.91
378.52	641.31
378.72	613.22
378.91	648.33
379.11	702.16
379.31	664.71
379.50	641.31
379.70	716.20
379.89	704.50
380.09	744.29
380.28	674.07
380.48	734.93
380.68	748.97
380.87	683.44
381.07	631.94
381.26	688.12
381.46	739.61
381.65	634.29
381.85	655.35
382.04	730.25
382.24	840.25
382.43	681.10
382.63	713.86
382.83	741.95
383.02	741.95
383.22	685.78
383.41	667.05
383.61	697.48
383.80	746.63
384.00	732.59
384.19	734.93
384.39	891.74
384.58	807.48
384.78	854.30
384.97	849.61
385.17	748.97
385.36	835.57
385.56	891.74
385.75	755.99
385.95	940.90
386.14	882.38
386.34	842.59
386.53	868.34
386.72	873.02
386.92	861.32
387.11	849.61
387.31	823.87
387.50	856.64
387.70	807.48
387.89	891.74
388.09	898.77
388.28	929.19
388.48	873.02
388.67	968.98
388.86	903.45
389.06	919.83
389.25	910.47
389.45	964.30
389.64	917.49
389.84	1027.50
390.03	1006.43
390.22	1060.26
390.42	990.05
390.61	1071.97
390.81	1025.15
391.00	1053.24
391.19	1027.50
391.39	1055.58
391.58	1018.13
391.78	950.26
391.97	1022.81
392.16	1057.92
392.36	1013.45
392.55	1001.75
392.75	919.83
392.94	1071.97
393.13	952.60
393.33	973.66
393.52	1034.52
393.71	1181.97
393.91	1078.99
394.10	1071.97
394.29	1071.97
394.49	1100.05
394.68	1163.25
394.88	1275.59
395.07	1247.51
395.26	1224.10
395.46	1158.57
395.65	1235.80
395.84	1207.72
396.04	1249.85
396.23	1172.61
396.42	1097.71
396.62	1207.72
396.81	1210.06
397.00	1181.97
397.19	1254.53
397.39	1331.76
397.58	1303.68
397.77	1345.81
397.97	1423.05
398.16	1418.36
398.35	1493.26
398.55	1514.33
398.74	1434.75
398.93	1619.65
399.12	1537.73
399.32	1430.07
399.51	1551.78
399.70	1521.35
399.90	1434.75
400.09	1631.35
400.28	1703.91
400.47	1554.12
400.67	1668.80
400.86	1593.90
401.05	1577.52
401.24	1577.52
401.44	1687.53
401.63	1746.04
401.82	1739.02
402.01	1699.23
402.21	1680.50
402.40	1741.36
402.59	1739.02
402.78	1809.23
402.97	1699.23
403.17	1785.83
403.36	1736.68
403.55	1870.09
403.74	1844.34
403.93	1813.92
404.13	1905.20
404.32	1811.57
404.51	1842.00
404.70	1961.37
404.89	1872.43
405.09	1973.07
405.28	2047.97
405.47	2022.22
405.66	1937.96
405.85	2015.20
406.05	1975.41
406.24	2005.84
406.43	2038.61
406.62	2085.42
406.81	2148.61
407.00	2057.33
407.20	2064.35
407.39	2017.54
407.58	2157.97
407.77	2076.06
407.96	2310.11
408.15	2139.25
408.34	2225.85
408.54	2202.44
408.73	2228.19
408.92	2284.36
409.11	2392.03
409.30	2401.39
409.49	2235.21
409.68	2289.04
409.87	2239.89
410.07	2209.47
410.26	2406.07
410.45	2370.96
410.64	2340.54
410.83	2506.71
411.02	2558.21
411.21	2569.91
411.40	2492.67
411.59	2647.15
411.78	2668.21
411.98	2534.80
412.17	2656.51
412.36	2541.82
412.55	2640.12
412.74	2848.43
412.93	2693.96
413.12	2691.62
413.31	3075.46
413.50	2813.32
413.69	2766.51
413.88	2897.58
414.07	2956.10
414.26	3070.78
414.45	3023.97
414.64	2883.54
414.83	3063.76
415.02	2993.55
415.22	3089.51
415.41	3176.11
415.60	3108.23
415.79	3089.51
415.98	3185.47
416.17	3201.85
416.36	3246.32
416.55	3363.35
416.74	3229.94
416.93	3145.68
417.12	3206.53
417.31	3232.28
417.50	3215.90
417.69	3471.01
417.88	3431.23
418.07	3365.69
418.26	3412.50
418.45	3435.91
418.64	3588.04
418.83	3513.14
419.02	3503.78
419.21	3569.32
419.39	3550.59
419.58	3562.30
419.77	3569.32
419.96	3630.17
420.15	3768.26
420.34	3665.28
420.53	3775.28
420.72	3700.39
420.91	3822.09
421.10	3768.26
421.29	3768.26
421.48	3733.15
421.67	3845.50
421.86	3810.39
422.05	3770.60
422.24	3709.75
422.43	3770.60
422.61	3859.54
422.80	3819.75
422.99	3854.86
423.18	4007.00
423.37	3927.42
423.56	3880.61
423.75	3887.63
423.94	3826.78
424.13	3878.27
424.32	3831.46
424.50	3948.48
424.69	3976.57
424.88	4138.07
425.07	3995.29
425.26	3798.69
425.45	3885.29
425.64	3878.27
425.83	3990.61
426.01	3927.42
426.20	3985.93
426.39	4025.72
426.58	3955.51
426.77	3889.97
426.96	3892.31
427.15	3918.06
427.33	4007.00
427.52	4159.13
427.71	3997.64
427.90	4098.28
428.09	4121.68
428.28	4124.02
428.46	4358.08
428.65	4194.24
428.84	4203.60
429.03	4259.78
429.22	4191.90
429.40	4067.85
429.59	4182.54
429.78	3875.93
429.97	3822.09
430.16	3953.16
430.34	4091.26
430.53	4088.92
430.72	4194.24
430.91	4107.64
431.10	4381.48
431.28	4533.62
431.47	4610.86
431.66	4566.39
431.85	4519.57
432.03	4664.69
432.22	4706.82
432.41	4535.96
432.60	4706.82
432.79	4655.33
432.97	4760.65
433.16	4601.49
433.35	4561.70
433.54	4720.86
433.72	4683.41
433.91	4690.43
434.10	4798.10
434.28	4702.14
434.47	4788.74
434.66	5001.72
434.85	4910.44
435.03	4945.55
435.22	4856.61
435.41	5114.07
435.59	5078.96
435.78	5125.77
435.97	5163.22
436.16	5214.71
436.34	5060.24
436.53	5144.50
436.72	5142.16
436.90	4983.00
437.09	5069.60
437.28	5039.17
437.46	5240.46
437.65	5200.67
437.84	5203.01
438.02	5231.10
438.21	5177.26
438.40	5132.79
438.58	5366.85
438.77	5444.09
438.96	5366.85
439.14	5298.97
439.33	5596.22
439.52	5568.13
439.70	5490.90
439.89	5584.52
440.08	5664.10
440.26	5687.50
440.45	5750.70
440.63	5743.67
440.82	5905.17
441.01	5839.64
441.19	6148.59
441.38	6059.65
441.57	6024.54
441.75	6164.97
441.94	6263.27
442.12	6228.17
442.31	6368.60
442.50	6354.55
442.68	6324.13
442.87	6289.02
443.05	6300.72
443.24	6392.00
443.43	6410.73
443.61	6445.84
443.80	6586.27
443.98	6345.19
444.17	6270.30
444.35	6661.16
444.54	6431.79
444.73	6677.55
444.91	6443.49
445.10	6354.55
445.28	6469.24
445.47	6551.16
445.65	6401.37
445.84	6354.55
446.02	6663.51
446.21	6497.33
446.39	6487.96
446.58	6630.74
446.77	6628.40
446.95	6483.28
447.14	6607.33
447.32	6864.79
447.51	6700.95
447.69	6733.72
447.88	6698.61
448.06	6710.32
448.25	6705.63
448.43	6740.74
448.62	6693.93
448.80	6675.21
448.99	6937.35
449.17	6801.60
449.36	6876.49
449.54	6700.95
449.73	7007.56
449.91	7016.93
450.10	7070.76
450.28	7192.47
450.46	7211.19
450.65	7344.60
450.83	7321.20
451.02	7232.26
451.20	7225.23
451.39	7194.81
451.57	7063.74
451.76	7131.61
451.94	7187.79
452.13	7042.67
452.31	7136.29
452.49	6993.52
452.68	7061.40
452.86	7173.74
453.05	7351.62
453.23	7454.61
453.42	7382.05
453.60	7197.15
453.78	7576.31
453.97	7412.48
454.15	7442.90
454.34	7265.02
454.52	7590.36
454.70	7311.83
454.89	7665.25
455.07	7627.81
455.26	7571.63
455.44	7847.82
455.62	7868.88
455.81	7719.09
455.99	7822.07
456.17	7782.28
456.36	7798.66
456.54	7873.56
456.73	8035.06
456.91	8217.62
457.09	8060.80
457.28	8161.45
457.46	8028.04
457.64	8184.85
457.83	8119.32
458.01	7957.82
458.19	8336.99
458.38	8051.44
458.56	8334.65
458.74	8128.68
458.93	8280.82
459.11	8224.64
459.29	8234.00
459.48	8245.71
459.66	8231.66
459.84	8304.22
460.03	8589.77
460.21	8514.87
460.39	8430.61
460.57	8390.82
460.76	8418.91
460.94	8472.74
461.12	8439.97
461.31	8685.73
461.49	8479.76
461.67	8599.13
461.85	9001.70
462.04	8737.22
462.22	8954.89
462.40	8751.26
462.59	8901.06
462.77	8779.35
462.95	9004.04
463.13	8957.23
463.32	8800.41
463.50	8978.30
463.68	8919.78
463.86	8919.78
464.05	8800.41
464.23	9015.74
464.41	8924.46
464.59	8800.41
464.78	9156.18
464.96	9165.54
465.14	9102.34
465.32	9158.52
465.50	9270.86
465.69	9420.66
465.87	9004.04
466.05	9184.26
466.23	9041.49
466.41	9158.52
466.60	9568.11
466.78	9039.15
466.96	9210.01
467.14	9284.91
467.32	9479.17
467.51	9563.43
467.69	9179.58
467.87	9589.17
468.05	9455.76
468.23	9184.26
468.41	9479.17
468.60	9320.01
468.78	9558.75
468.96	9369.16
469.14	9694.50
469.32	9666.41
469.50	9612.58
469.69	9617.26
469.87	9881.74
470.05	9738.97
470.23	9823.23
470.41	9701.52
470.59	9937.91
470.77	9907.49
470.95	9914.51
471.14	10054.94
471.32	9813.87
471.50	10289.00
471.68	10235.16
471.86	10312.40
472.04	10169.63
472.22	10445.81
472.40	10249.21
472.58	10204.74
472.77	10253.89
472.95	10408.36
473.13	10817.96
473.31	10490.28
473.49	10560.50
473.67	10593.26
473.85	10581.56
474.03	10817.96
474.21	11052.01
474.39	10888.17
474.57	11066.05
474.75	11061.37
474.93	11325.85
475.12	11047.33
475.30	11236.91
475.48	11094.14
475.66	11176.06
475.84	11077.76
476.02	11290.74
476.20	11232.23
476.38	11569.27
476.56	11843.11
476.74	11946.09
476.92	11552.88
477.10	12065.46
477.28	11899.28
477.46	11955.46
477.64	12175.47
477.82	12301.86
478.00	12650.60
478.18	12360.37
478.36	12643.57
478.54	12528.89
478.72	12538.25
478.90	12889.33
479.08	13137.43
479.26	12966.57
479.44	13327.01
479.62	13280.20
479.80	13348.08
479.98	13238.07
480.16	13673.41
480.34	13610.22
480.52	13963.64
480.70	13685.11
480.88	13680.43
481.06	13888.74
481.24	13973.00
481.41	14010.45
481.59	14466.85
481.77	14384.93
481.95	14382.59
482.13	14623.67
482.31	14539.41
482.49	14658.78
482.67	14726.65
482.85	15082.41
483.03	15332.85
483.21	15386.68
483.39	15288.38
483.57	15253.27
483.74	15344.55
483.92	15398.38
484.10	15363.28
484.28	15709.68
484.46	16236.30
484.64	16346.30
484.82	16042.03
485.00	16283.11
485.18	16358.00
485.35	16294.81
485.53	16046.71
485.71	16212.89
485.89	16587.38
486.07	16505.46
486.25	16393.11
486.43	16886.97
486.61	16870.58
486.78	17202.94
486.96	17469.76
487.14	17530.61
487.32	17734.24
487.50	17837.22
487.68	18038.51
487.85	18338.10
488.03	18115.75
488.21	18562.79
488.39	18654.07
488.57	18754.71
488.75	18838.97
488.92	19023.87
489.10	19049.62
489.28	19246.23
489.46	19580.92
489.64	19590.28
489.81	20130.95
489.99	20109.88
490.17	20280.74
490.35	20262.02
490.53	20208.19
490.70	20514.80
490.88	20503.09
491.06	20922.05
491.24	20821.41
491.41	20751.19
491.59	21116.31
491.77	20814.38
491.95	21022.69
492.13	21177.17
492.30	21357.39
492.48	21680.38
492.66	21546.97
492.84	21741.24
493.01	21893.37
493.19	21776.34
493.37	22106.36
493.54	22008.06
493.72	22665.75
493.90	22314.67
494.08	22878.74
494.25	23358.55
494.43	23136.20
494.61	23225.14
494.79	23644.09
494.96	23482.59
495.14	23171.30
495.32	23658.14
495.49	23683.88
495.67	23843.04
495.85	24025.60
496.02	24463.28
496.20	24507.75
496.38	24266.67
496.55	24425.83
496.73	24692.65
496.91	24510.09
497.09	25097.56
497.26	25008.62
497.44	25036.71
497.62	25378.43
497.79	25460.35
497.97	25008.62
498.14	25357.36
498.32	25329.28
498.50	25383.11
498.67	26157.83
498.85	26410.60
499.03	26398.90
499.20	26176.55
499.38	26405.92
499.56	26085.27
499.73	26560.40
499.91	26384.86
500.08	26384.86
500.26	26398.90
500.44	26480.82
500.61	26752.32
500.79	26539.33
500.97	26843.60
501.14	27140.85
501.32	27110.43
501.49	27246.18
501.67	27311.71
501.84	27491.93
502.02	27468.53
502.20	27571.51
502.37	27894.50
502.55	27770.46
502.72	27901.53
502.90	28016.21
503.07	27999.83
503.25	28088.77
503.43	27709.60
503.60	27850.03
503.78	28053.66
503.95	27765.78
504.13	28189.41
504.30	28556.88
504.48	28669.22
504.65	28938.38
504.83	28929.02
505.01	29343.30
505.18	29174.78
505.36	29546.92
505.53	29621.82
505.71	29504.79
505.88	29589.05
506.06	29448.62
506.23	29553.94
506.41	29741.19
506.58	29530.54
506.76	29556.28
506.93	30562.72
507.11	30005.67
507.28	30031.41
507.46	29886.30
507.63	30251.42
507.81	30038.44
507.98	29996.31
508.16	30293.55
508.33	30319.30
508.50	30658.68
508.68	30642.29
508.85	31358.50
509.03	30962.95
509.20	30976.99
509.38	31061.25
509.55	31161.89
509.73	31239.13
509.90	31175.94
510.08	31611.28
510.25	31559.78
510.42	31585.53
510.60	31524.68
510.77	31714.26
510.95	31831.29
511.12	31819.58
511.30	32048.96
511.47	32350.88
511.64	32381.31
511.82	32582.60
511.99	31611.28
512.17	32233.86
512.34	32603.66
512.51	32554.51
512.69	32608.34
512.86	32659.84
513.04	32891.55
513.21	32629.41
513.38	32891.55
513.56	32884.53
513.73	32797.93
513.90	33041.34
514.08	32465.57
514.25	33039.00
514.43	33446.26
514.60	33502.43
514.77	33371.36
514.95	33727.12
515.12	33483.70
515.29	33408.81
515.47	33963.51
515.64	33811.38
515.81	33574.98
515.99	34115.65
516.16	33874.57
516.33	32975.81
516.51	33699.03
516.68	33514.13
516.85	33352.63
517.03	33694.35
517.20	33954.15
517.37	34621.20
517.54	34799.08
517.72	33757.55
517.89	34190.55
518.06	33944.79
518.24	33769.25
518.41	34284.17
518.58	34316.93
518.75	34232.68
518.93	35000.37
519.10	34806.11
519.27	35079.95
519.45	35075.27
519.62	35164.21
519.79	35234.42
519.96	35604.23
520.14	35658.06
520.31	35199.32
520.48	35505.93
520.65	35285.92
520.83	35779.77
521.00	35999.78
521.17	35625.29
521.34	35784.45
521.52	36046.59
521.69	36023.19
521.86	36170.64
522.03	36704.28
522.20	36182.34
522.38	36273.62
522.55	36439.80
522.72	36004.46
522.89	36067.66
523.07	36594.28
523.24	36825.99
523.41	36807.26
523.58	36620.02
523.75	36914.93
523.92	37167.71
524.10	37219.20
524.27	37209.84
524.44	37537.51
524.61	37060.04
524.78	37844.12
524.96	37469.64
525.13	37249.63
525.30	38068.81
525.47	37806.67
525.64	37450.91
525.81	37640.50
525.98	37429.85
526.16	37289.42
526.33	37109.19
526.50	37820.72
526.67	37223.88
526.84	37425.17
527.01	37830.08
527.18	38094.56
527.36	38195.20
527.53	38382.45
527.70	38478.41
527.87	38204.56
528.04	38019.66
528.21	38560.33
528.38	38511.17
528.55	38976.94
528.72	38789.70
528.89	38792.04
529.07	38663.31
529.24	38714.80
529.41	38586.07
529.58	38651.61
529.75	38705.44
529.92	38738.21
530.09	39100.99
530.26	39138.44
530.43	39274.19
530.60	39089.29
530.77	39026.09
530.94	39786.77
531.11	39400.58
531.28	39316.32
531.46	39779.74
531.63	39225.04
531.80	39096.31
531.97	39274.19
532.14	39578.46
532.31	39278.87
532.48	39218.02
532.65	39454.41
532.82	39779.74
532.99	39681.44
533.16	40257.21
533.33	39641.65
533.50	39824.22
533.67	39966.99
533.84	40161.25
534.01	40369.56
534.18	39695.49
534.35	40250.19
534.52	40058.27
534.69	40617.66
534.86	40758.09
535.03	40409.35
535.20	40627.02
535.37	40816.60
535.54	40882.14
535.71	40252.53
535.88	40629.36
536.05	40395.31
536.22	40844.69
536.38	40378.92
536.55	40971.08
536.72	40697.24
536.89	40734.68
537.06	40875.12
537.23	41045.97
537.40	40889.16
537.57	41347.90
537.74	41282.37
537.91	41476.63
538.08	41310.46
538.25	40893.84
538.42	40980.44
538.59	41427.48
538.75	40971.08
538.92	41048.32
539.09	41359.61
539.26	41317.48
539.43	41287.05
539.60	41219.17
539.77	40699.58
539.94	41408.76
540.11	41006.19
540.28	41649.83
540.44	41771.54
540.61	41464.93
540.78	41469.61
540.95	41579.62
541.12	41757.50
541.29	41598.34
541.46	41673.24
541.62	41970.49
541.79	41914.31
541.96	41614.72
542.13	42153.05
542.30	41961.12
542.47	42415.19
542.63	42017.30
542.80	42270.08
542.97	42693.71
543.14	42887.98
543.31	42487.74
543.48	42478.38
543.64	42756.91
543.81	42857.55
543.98	42834.14
544.15	42979.26
544.32	43168.84
544.48	43079.90
544.65	42576.69
544.82	43143.09
544.99	42862.23
545.16	42920.74
545.32	42576.69
545.49	43353.74
545.66	43129.05
545.83	43047.13
546.00	43505.88
546.16	43349.06
546.33	43051.81
546.50	42843.51
546.67	43203.95
546.83	42674.99
547.00	43320.98
547.17	43374.81
547.34	43278.85
547.50	43353.74
547.67	43456.73
547.84	43470.77
548.00	43679.08
548.17	43943.56
548.34	43772.70
548.51	43821.85
548.67	44060.58
548.84	43824.19
549.01	43599.50
549.18	43798.44
549.34	43765.68
549.51	43988.03
549.68	43906.11
549.84	43803.13
550.01	44296.98
550.18	43697.80
550.34	44222.08
550.51	43950.58
550.68	43917.81
550.84	43540.99
551.01	43828.87
551.18	44430.39
551.34	44306.34
551.51	44411.67
551.68	43976.33
551.84	44428.05
552.01	44219.74
552.18	44486.56
552.34	44126.12
552.51	44308.68
552.68	44203.36
552.84	44779.13
553.01	44790.83
553.18	44624.65
553.34	44430.39
553.51	44184.63
553.67	44437.41
553.84	44875.09
554.01	44222.08
554.17	44856.37
554.34	44917.22
554.51	44645.72
554.67	45359.58
554.84	45017.86
555.00	44854.03
555.17	44311.02
555.33	45010.84
555.50	44725.30
555.67	44655.08
555.83	44933.60
556.00	45055.31
556.16	45272.98
556.33	45141.91
556.50	44949.99
556.66	44673.81
556.83	44690.19
556.99	45436.82
557.16	45404.05
557.32	44921.90
557.49	45272.98
557.65	44336.77
557.82	45062.33
557.98	45064.67
558.15	45144.25
558.32	45659.17
558.48	45020.20
558.65	44978.07
558.81	45120.85
558.98	44851.69
559.14	45029.57
559.31	44907.86
559.47	45415.76
559.64	45993.87
559.80	45439.16
559.97	45595.98
560.13	45263.62
560.30	45200.43
560.46	45177.02
560.63	45638.11
560.79	45736.41
560.96	45502.35
561.12	45219.15
561.29	45549.17
561.45	45624.06
561.61	45530.44
561.78	45301.07
561.94	45626.40
562.11	45251.92
562.27	45308.09
562.44	45649.81
562.60	45705.98
562.77	45846.41
562.93	45979.82
563.10	45925.99
563.26	45113.83
563.42	45382.99
563.59	45504.70
563.75	45661.51
563.92	45808.96
564.08	45961.10
564.24	45778.54
564.41	45708.32
564.57	45893.22
564.74	45713.00
564.90	45595.98
565.07	45769.18
565.23	45642.79
565.39	45755.13
565.56	45698.96
565.72	45612.36
565.88	45865.14
566.05	45144.25
566.21	45710.66
566.38	45783.22
566.54	45151.27
566.70	45610.02
566.87	46192.81
567.03	45794.92
567.19	46461.97
567.36	46192.81
567.52	45949.40
567.68	45612.36
567.85	45998.55
568.01	45982.16
568.17	46148.34
568.34	45804.28
568.50	46099.19
568.66	45734.07
568.83	46244.30
568.99	45722.37
569.15	45532.78
569.32	45785.56
569.48	45947.06
569.64	45947.06
569.81	45694.28
569.97	45923.65
570.13	45839.39
570.30	45853.44
570.46	45474.27
570.62	45439.16
570.78	46241.96
570.95	46066.42
571.11	45675.55
571.27	45584.27
571.43	46206.86
571.60	45647.47
571.76	46202.18
571.92	45970.46
572.09	46082.81
572.25	45844.07
572.41	45715.34
572.57	45886.20
572.74	46649.22
572.90	45914.29
573.06	45883.86
573.22	45991.53
573.38	45886.20
573.55	46188.13
573.71	46490.06
573.87	45956.42
574.03	46047.70
574.20	46089.83
574.36	46246.65
574.52	45993.87
574.68	46153.02
574.84	45954.08
575.01	45830.03
575.17	46258.35
575.33	45801.94
575.49	45418.10
575.65	46260.69
575.82	46232.60
575.98	46071.10
576.14	46270.05
576.30	46321.54
576.46	46272.39
576.62	46232.60
576.79	46178.77
576.95	45806.62
577.11	46370.69
577.27	46148.34
577.43	46246.65
577.59	45818.33
577.75	45968.12
577.92	45343.20
578.08	46087.49
578.24	46246.65
578.40	45727.05
578.56	46253.67
578.72	46089.83
578.88	46457.29
579.04	46120.26
579.21	45799.60
579.37	45986.85
579.53	46363.67
579.69	45703.64
579.85	46234.94
580.01	46305.16
580.17	46024.29
580.33	46447.93
580.49	46436.23
580.65	46457.29
580.82	46667.94
580.98	45846.41
581.14	46087.49
581.30	46443.25
581.46	46181.11
581.62	45867.48
581.78	45867.48
581.94	46766.24
582.10	46021.95
582.26	46403.46
582.42	46131.96
582.58	46593.04
582.74	45958.76
582.90	46637.51
583.06	46337.93
583.22	46485.38
583.38	46628.15
583.54	46490.06
583.70	46305.16
583.86	46550.91
584.02	46050.04
584.18	46288.77
584.34	46115.58
584.50	46234.94
584.66	46078.13
584.82	46527.51
584.98	46380.06
585.14	46143.66
585.30	45984.51
585.46	45965.78
585.62	46209.20
585.78	46258.35
585.94	45684.92
586.10	46457.29
586.26	46019.61
586.42	46799.01
586.58	46733.48
586.74	46431.55
586.90	46422.19
587.06	45844.07
587.22	46012.59
587.38	46333.24
587.54	46256.01
587.70	46614.11
587.86	46574.32
588.02	46490.06
588.18	46305.16
588.34	46230.26
588.49	45610.02
588.65	45275.32
588.81	45432.14
588.97	45722.37
589.13	45647.47
589.29	46115.58
589.45	46190.47
589.61	46019.61
589.77	46340.27
589.93	46080.47
