SpectraSuite Data File
++++++++++++++++++++++++++++++++++++
Date: Fri Oct 25 11:34:48 EDT 2013
User: price-jones
Dark Spectrum Present: No
Reference Spectrum Present: No
Number of Sampled Component Spectra: 1
Spectrometers: USB2+H05261
Integration Time (usec): 100000 (USB2+H05261)
Spectra Averaged: 1 (USB2+H05261)
Boxcar Smoothing: 0 (USB2+H05261)
Correct for Electrical Dark: No (USB2+H05261)
Strobe/Lamp Enabled: No (USB2+H05261)
Correct for Detector Non-linearity: No (USB2+H05261)
Correct for Stray Light: No (USB2+H05261)
Number of Pixels in Processed Spectrum: 2048
>>>>>Begin Processed Spectral Data<<<<<
365.73	292.57
365.92	292.57
366.12	292.57
366.32	215.33
366.52	140.43
366.72	220.01
366.91	198.95
367.11	191.92
367.31	173.20
367.51	173.20
367.70	229.37
367.90	121.71
368.10	152.13
368.30	138.09
368.49	182.56
368.69	215.33
368.89	191.92
369.09	210.65
369.28	191.92
369.48	105.32
369.68	142.77
369.87	198.95
370.07	311.29
370.27	306.61
370.47	327.68
370.66	486.83
370.86	418.96
371.06	526.62
371.25	582.79
371.45	573.43
371.65	535.98
371.84	496.19
372.04	512.58
372.24	552.37
372.44	603.86
372.63	561.73
372.83	566.41
373.03	552.37
373.22	510.24
373.42	664.71
373.62	650.67
373.81	678.76
374.01	599.18
374.21	631.94
374.40	645.99
374.60	641.31
374.79	545.34
374.99	566.41
375.19	704.50
375.38	685.78
375.58	692.80
375.78	702.16
375.97	676.41
376.17	720.88
376.37	608.54
376.56	688.12
376.76	676.41
376.95	669.39
377.15	674.07
377.35	585.13
377.54	641.31
377.74	641.31
377.93	734.93
378.13	727.91
378.33	741.95
378.52	657.69
378.72	674.07
378.91	732.59
379.11	697.48
379.31	716.20
379.50	744.29
379.70	767.70
379.89	685.78
380.09	730.25
380.28	767.70
380.48	770.04
380.68	720.88
380.87	730.25
381.07	676.41
381.26	744.29
381.46	720.88
381.65	777.06
381.85	734.93
382.04	718.54
382.24	695.14
382.43	741.95
382.63	751.31
382.83	723.23
383.02	786.42
383.22	709.18
383.41	770.04
383.61	772.38
383.80	833.23
384.00	725.57
384.19	826.21
384.39	777.06
384.58	772.38
384.78	835.57
384.97	830.89
385.17	835.57
385.36	753.65
385.56	823.87
385.75	755.99
385.95	763.01
386.14	861.32
386.34	779.40
386.53	887.06
386.72	840.25
386.92	828.55
387.11	802.80
387.31	746.63
387.50	842.59
387.70	896.43
387.89	858.98
388.09	716.20
388.28	901.11
388.48	809.83
388.67	922.17
388.86	903.45
389.06	898.77
389.25	990.05
389.45	858.98
389.64	926.85
389.84	959.62
390.03	957.28
390.22	971.32
390.42	940.90
390.61	985.37
390.81	950.26
391.00	950.26
391.19	908.13
391.39	987.71
391.58	999.41
391.78	968.98
391.97	964.30
392.16	1004.09
392.36	1025.15
392.55	1093.03
392.75	1018.13
392.94	968.98
393.13	985.37
393.33	1015.79
393.52	1055.58
393.71	1156.22
393.91	1053.24
394.10	1013.45
394.29	1029.84
394.49	1055.58
394.68	1029.84
394.88	1104.73
395.07	1184.31
395.26	1107.07
395.46	1116.44
395.65	1123.46
395.84	1095.37
396.04	1158.57
396.23	1156.22
396.42	1053.24
396.62	1116.44
396.81	1186.65
397.00	1132.82
397.19	1149.20
397.39	1224.10
397.58	1324.74
397.77	1228.78
397.97	1270.91
398.16	1261.55
398.35	1233.46
398.55	1170.27
398.74	1280.27
398.93	1320.06
399.12	1184.31
399.32	1226.44
399.51	1205.38
399.70	1322.40
399.90	1338.79
400.09	1385.60
400.28	1284.95
400.47	1331.76
400.67	1343.47
400.86	1320.06
401.05	1324.74
401.24	1394.96
401.44	1294.32
401.63	1378.58
401.82	1465.18
402.01	1418.36
402.21	1371.55
402.40	1423.05
402.59	1306.02
402.78	1441.77
402.97	1355.17
403.17	1390.28
403.36	1486.24
403.55	1472.20
403.74	1409.00
403.93	1490.92
404.13	1537.73
404.32	1401.98
404.51	1549.43
404.70	1507.30
404.89	1537.73
405.09	1554.12
405.28	1523.69
405.47	1509.65
405.66	1528.37
405.85	1715.61
406.05	1645.40
406.24	1619.65
406.43	1614.97
406.62	1753.06
406.81	1802.21
407.00	1771.79
407.20	1673.48
407.39	1703.91
407.58	1799.87
407.77	1701.57
407.96	1799.87
408.15	1757.74
408.34	1811.57
408.54	1781.15
408.73	1898.17
408.92	1816.26
409.11	1921.58
409.30	1884.13
409.49	2015.20
409.68	1909.88
409.87	1884.13
410.07	1987.11
410.26	2003.50
410.45	1975.41
410.64	1980.09
410.83	1912.22
411.02	1984.77
411.21	2062.01
411.40	2132.23
411.59	2043.29
411.78	1989.46
411.98	2160.31
412.17	2122.87
412.36	2197.76
412.55	2244.57
412.74	2303.09
412.93	2160.31
413.12	2136.91
413.31	2256.28
413.50	2214.15
413.69	2218.83
413.88	2443.52
414.07	2408.41
414.26	2375.64
414.45	2392.03
414.64	2572.25
414.83	2438.84
415.02	2471.61
415.22	2497.35
415.41	2478.63
415.60	2464.58
415.79	2555.86
415.98	2609.70
416.17	2541.82
416.36	2628.42
416.55	2656.51
416.74	2696.30
416.93	2523.10
417.12	2677.57
417.31	2691.62
417.50	2548.84
417.69	2815.66
417.88	2717.36
418.07	2904.60
418.26	2801.62
418.45	2867.16
418.64	2803.96
418.83	2771.19
419.02	2918.65
419.21	2813.32
419.39	2885.88
419.58	2909.29
419.77	2895.24
419.96	2986.52
420.15	3059.08
420.34	2967.80
420.53	3070.78
420.72	3056.74
420.91	3028.65
421.10	3061.42
421.29	3157.38
421.48	3014.61
421.67	3145.68
421.86	3087.17
422.05	3178.45
422.24	3082.49
422.43	3236.96
422.61	3330.58
422.80	3243.98
422.99	3180.79
423.18	3187.81
423.37	3192.49
423.56	3136.32
423.75	3197.17
423.94	3187.81
424.13	3103.55
424.32	3183.13
424.50	3262.71
424.69	3208.87
424.88	3241.64
425.07	3253.34
425.26	3211.22
425.45	3187.81
425.64	3262.71
425.83	3321.22
426.01	3227.60
426.20	3281.43
426.39	3309.52
426.58	3293.13
426.77	3265.05
426.96	3342.28
427.15	3300.16
427.33	3433.57
427.52	3328.24
427.71	3475.70
427.90	3300.16
428.09	3463.99
428.28	3456.97
428.46	3424.20
428.65	3459.31
428.84	3492.08
429.03	3754.22
429.22	3405.48
429.40	3634.85
429.59	3672.30
429.78	3508.46
429.97	3522.51
430.16	3543.57
430.34	3688.68
430.53	3604.42
430.72	3679.32
430.91	3672.30
431.10	3536.55
431.28	3712.09
431.47	3719.11
431.66	3770.60
431.85	3777.62
432.03	3782.31
432.22	3904.01
432.41	3843.16
432.60	3826.78
432.79	3861.88
432.97	3899.33
433.16	3964.87
433.35	3995.29
433.54	3922.74
433.72	4058.49
433.91	3880.61
434.10	3953.16
434.28	3906.35
434.47	4011.68
434.66	4100.62
434.85	4166.15
435.03	4142.75
435.22	4119.34
435.41	4098.28
435.59	4210.62
435.78	4306.59
435.97	4189.56
436.16	4152.11
436.34	4112.32
436.53	4086.58
436.72	4224.67
436.90	4236.37
437.09	4182.54
437.28	4100.62
437.46	4409.57
437.65	4264.46
437.84	4290.20
438.02	4369.78
438.21	4374.46
438.40	4205.94
438.58	4496.17
438.77	4449.36
438.96	4540.64
439.14	4561.70
439.33	4578.09
439.52	4615.54
439.70	4601.49
439.89	4713.84
440.08	4690.43
440.26	4706.82
440.45	4821.50
440.63	4695.11
440.82	4800.44
441.01	4730.22
441.19	4795.76
441.38	4931.51
441.57	4985.34
441.75	4959.60
441.94	5149.18
442.12	5020.45
442.31	5142.16
442.50	5121.09
442.68	5095.35
442.87	5050.88
443.05	5144.50
443.24	5352.81
443.43	5151.52
443.61	5352.81
443.80	5509.62
443.98	5254.50
444.17	5032.15
444.35	5195.99
444.54	5327.06
444.73	5181.95
444.91	5282.59
445.10	5401.96
445.28	5228.76
445.47	5212.37
445.65	5327.06
445.84	5352.81
446.02	5444.09
446.21	5364.51
446.39	5322.38
446.58	5416.00
446.77	5472.17
446.95	5280.25
447.14	5383.23
447.32	5390.25
447.51	5558.77
447.69	5446.43
447.88	5469.83
448.06	5397.28
448.25	5383.23
448.43	5397.28
448.62	5500.26
448.80	5617.29
448.99	5558.77
449.17	5666.44
449.36	5434.72
449.54	5509.62
449.73	5694.52
449.91	5830.27
450.10	5554.09
450.28	5792.83
450.46	5853.68
450.65	5624.31
450.83	5834.96
451.02	5722.61
451.20	5834.96
451.39	5895.81
451.57	5753.04
451.76	5750.70
451.94	5877.09
452.13	5933.26
452.31	5905.17
452.49	5811.55
452.68	5858.36
452.86	6017.52
453.05	6026.88
453.23	5980.07
453.42	6005.81
453.60	5886.45
453.78	6232.85
453.97	6017.52
454.15	6150.93
454.34	6031.56
454.52	6162.63
454.70	6282.00
454.89	6251.57
455.07	6251.57
455.26	6394.34
455.44	6193.06
455.62	6246.89
455.81	6565.20
455.99	6502.01
456.17	6401.37
456.36	6429.45
456.54	6511.37
456.73	6399.02
456.91	6527.75
457.09	6506.69
457.28	6717.34
457.46	6462.22
457.64	6546.48
457.83	6752.45
458.01	6604.99
458.19	6675.21
458.38	6700.95
458.56	6712.66
458.74	6792.23
458.93	6794.58
459.11	6757.13
459.29	6853.09
459.48	6778.19
459.66	6710.32
459.84	6832.02
460.03	7131.61
460.21	6829.68
460.39	6988.84
460.57	6967.77
460.76	7014.59
460.94	6988.84
461.12	7089.48
461.31	7138.63
461.49	7084.80
461.67	7239.28
461.85	7297.79
462.04	7204.17
462.22	7187.79
462.40	7377.37
462.59	7503.76
462.77	7236.94
462.95	7267.36
463.13	7293.11
463.32	7255.66
463.50	7236.94
463.68	7445.24
463.86	7433.54
464.05	7562.27
464.23	7456.95
464.41	7489.71
464.59	7360.98
464.78	7777.60
464.96	7588.02
465.14	7239.28
465.32	7482.69
465.50	7784.62
465.69	7875.90
465.87	7648.87
466.05	7651.21
466.23	7585.68
466.41	7878.24
466.60	7679.30
466.78	7506.10
466.96	7737.81
467.14	7709.72
467.32	7892.29
467.51	8084.21
467.69	7749.51
467.87	8013.99
468.05	7967.18
468.23	7906.33
468.41	8079.53
468.60	7889.95
468.78	7819.73
468.96	8032.72
469.14	8067.83
469.32	8266.77
469.50	7990.59
469.69	8234.00
469.87	8107.62
470.05	8063.15
470.23	8180.17
470.41	8322.94
470.59	8346.35
470.77	8297.20
470.95	8418.91
471.14	8418.91
471.32	8329.97
471.50	8585.08
471.68	8444.65
471.86	8667.00
472.04	8554.66
472.22	8875.31
472.40	8683.39
472.58	8826.16
472.77	8816.80
472.95	8704.45
473.13	8992.34
473.31	8926.80
473.49	8777.01
473.67	8847.22
473.85	8973.61
474.03	9149.15
474.21	9100.00
474.39	9362.14
474.57	9191.28
474.75	9151.49
474.93	9074.26
475.12	9202.99
475.30	9523.64
475.48	9341.08
475.66	9511.94
475.84	9432.36
476.02	9554.07
476.20	9554.07
476.38	9748.33
476.56	9844.29
476.74	9781.10
476.92	9741.31
477.10	10132.18
477.28	10148.56
477.46	10129.84
477.64	10279.63
477.82	10422.41
478.00	10375.59
478.18	10579.22
478.36	10740.72
478.54	10616.67
478.72	10588.58
478.90	10829.66
479.08	11028.60
479.26	11005.20
479.44	10939.66
479.62	11012.22
479.80	11176.06
479.98	11288.40
480.16	11700.34
480.34	11353.94
480.52	11595.01
480.70	11604.38
480.88	11623.10
481.06	11824.39
481.24	11719.06
481.41	12023.33
481.59	12032.69
481.77	11847.79
481.95	11950.78
482.13	12140.36
482.31	12119.29
482.49	12606.13
482.67	12641.23
482.85	12833.16
483.03	12793.37
483.21	12910.40
483.39	13067.21
483.57	12961.89
483.74	13149.13
483.92	12987.63
484.10	13139.77
484.28	13575.11
484.46	13551.70
484.64	13987.04
484.82	13619.58
485.00	13820.86
485.18	13909.80
485.35	14237.48
485.53	14228.12
485.71	14338.12
485.89	14373.23
486.07	14431.74
486.25	14616.65
486.43	14597.92
486.61	14740.69
486.78	14848.36
486.96	14939.64
487.14	15075.39
487.32	15225.18
487.50	15398.38
487.68	15475.62
487.85	15508.39
488.03	15555.20
488.21	15686.27
488.39	15763.51
488.57	15733.08
488.75	16196.51
488.92	16156.72
489.10	16107.57
489.28	16807.39
489.46	16643.55
489.64	16496.10
489.81	17074.21
489.99	17252.09
490.17	17224.00
490.35	17287.20
490.53	17399.54
490.70	17345.71
490.88	17434.65
491.06	17710.83
491.24	17516.57
491.41	18061.91
491.59	18108.72
491.77	18040.85
491.95	18340.44
492.13	18338.10
492.30	18424.70
492.48	18469.17
492.66	18698.54
492.84	18864.72
493.01	19267.29
493.19	18850.67
493.37	19138.56
493.54	19047.28
493.72	19290.70
493.90	19339.85
494.08	19611.35
494.25	19503.68
494.43	19843.06
494.61	19716.67
494.79	19852.42
494.96	20210.53
495.14	20357.98
495.32	20341.60
495.49	20369.68
495.67	20580.33
495.85	20716.08
496.02	20610.76
496.20	20975.88
496.38	21109.29
496.55	21273.13
496.73	21764.64
496.91	21336.32
497.09	21088.23
497.26	21528.25
497.44	21359.73
497.62	21827.84
497.79	21982.31
497.97	21951.88
498.14	22239.77
498.32	22258.49
498.50	22569.79
498.67	22450.42
498.85	22394.25
499.03	22438.72
499.20	22609.58
499.38	22838.95
499.56	22579.15
499.73	22726.60
499.91	22808.52
500.08	23391.31
500.26	23065.98
500.44	23002.78
500.61	23250.88
500.79	23260.24
500.97	23257.90
501.14	23503.66
501.32	23969.43
501.49	23735.37
501.67	23756.44
501.84	23981.13
502.02	23836.02
502.20	23880.49
502.37	23915.59
502.55	23969.43
502.72	24613.07
502.90	24460.94
503.07	24107.52
503.25	24580.31
503.43	24034.96
503.60	24570.94
503.78	24381.36
503.95	24917.34
504.13	24699.67
504.30	25001.60
504.48	25050.75
504.65	24912.66
504.83	24978.20
505.01	25685.04
505.18	25209.91
505.36	26043.14
505.53	25495.46
505.71	25781.00
505.88	25874.62
506.06	25631.21
506.23	26054.84
506.41	25907.39
506.58	25984.63
506.76	25813.77
506.93	26581.46
507.11	26188.25
507.28	26448.05
507.46	26782.75
507.63	26590.83
507.81	26569.76
507.98	26513.59
508.16	26810.84
508.33	26829.56
508.50	26953.61
508.68	27040.21
508.85	27234.47
509.03	27227.45
509.20	27185.32
509.38	27435.76
509.55	27798.54
509.73	27660.45
509.90	27520.02
510.08	27681.52
510.25	27843.01
510.42	27559.81
510.60	27889.82
510.77	27821.95
510.95	28383.68
511.12	28016.21
511.30	27960.04
511.47	28034.94
511.64	28395.38
511.82	28957.11
511.99	28751.14
512.17	28341.55
512.34	28453.89
512.51	28596.67
512.69	29130.31
512.86	28924.34
513.04	28936.04
513.21	29088.18
513.38	29036.69
513.56	29284.78
513.73	29160.73
513.90	29113.92
514.08	29472.03
514.25	29467.34
514.43	29792.68
514.60	29685.01
514.77	29392.45
514.95	29795.02
515.12	29556.28
515.29	29750.55
515.47	30302.92
515.64	30260.79
515.81	30022.05
515.99	30038.44
516.16	30515.90
516.33	30089.93
516.51	30642.29
516.68	30485.48
516.85	30431.65
517.03	30628.25
517.20	31157.21
517.37	30572.08
517.54	30712.51
517.72	30572.08
517.89	30836.56
518.06	30923.16
518.24	30955.93
518.41	30707.83
518.58	30869.33
518.75	30747.62
518.93	31222.75
519.10	31147.85
519.27	31297.64
519.45	31234.45
519.62	31779.79
519.79	31517.65
519.96	31311.69
520.14	32006.83
520.31	31344.45
520.48	31630.00
520.65	31962.36
520.83	32449.19
521.00	32292.37
521.17	32414.08
521.34	32053.64
521.52	32252.58
521.69	32439.82
521.86	32701.96
522.03	32706.65
522.20	32936.02
522.38	32781.54
522.55	32950.06
522.72	32795.59
522.89	33130.28
523.07	32652.81
523.24	33230.93
523.41	33486.04
523.58	33097.52
523.75	33287.10
523.92	33366.68
524.10	33205.18
524.27	33310.50
524.44	33436.89
524.61	33956.49
524.78	33696.69
524.96	33951.81
525.13	33937.77
525.30	33930.75
525.47	33860.53
525.64	34012.66
525.81	34197.57
525.98	33750.52
526.16	34068.84
526.33	34359.06
526.50	34115.65
526.67	33649.88
526.84	34476.09
527.01	34611.84
527.18	34630.57
527.36	34312.25
527.53	34448.00
527.70	35012.07
527.87	34600.14
528.04	34698.44
528.21	34747.59
528.38	34866.96
528.55	34593.12
528.72	34656.31
528.89	35105.70
529.07	35033.14
529.24	35388.90
529.41	35377.20
529.58	34855.26
529.75	34981.65
529.92	35735.30
530.09	34852.92
530.26	35171.23
530.43	35887.43
530.60	35175.91
530.77	35157.19
530.94	35508.27
531.11	35948.29
531.28	35512.95
531.46	35637.00
531.63	35723.60
531.80	35550.40
531.97	35903.82
532.14	36259.58
532.31	35651.04
532.48	35571.46
532.65	36273.62
532.82	36313.41
532.99	36341.50
533.16	36378.95
533.33	36212.77
533.50	36603.64
533.67	36322.77
533.84	36051.27
534.01	36774.50
534.18	36376.61
534.35	36493.63
534.52	37137.28
534.69	36751.09
534.86	37193.45
535.03	36727.69
535.20	36868.12
535.37	37085.79
535.54	37057.70
535.71	36889.18
535.88	37390.06
536.05	37120.90
536.22	37207.50
536.38	37324.52
536.55	37376.01
536.72	37263.67
536.89	37280.05
537.06	37418.14
537.23	37684.97
537.40	37532.83
537.57	37291.76
537.74	37345.59
537.91	37581.98
538.08	37645.18
538.25	37202.82
538.42	37869.87
538.59	38000.94
538.75	37741.14
538.92	37787.95
539.09	38337.98
539.26	38061.79
539.43	38007.96
539.60	38403.51
539.77	37956.47
539.94	38368.40
540.11	38171.80
540.28	38440.96
540.44	38312.23
540.61	38000.94
540.78	38068.81
540.95	38162.43
541.12	38433.94
541.29	38237.33
541.46	38679.69
541.62	38415.21
541.79	38490.11
541.96	38059.45
542.13	38244.35
542.30	38850.55
542.47	39030.77
542.63	38672.67
542.80	38831.83
542.97	39337.38
543.14	39337.38
543.31	39007.37
543.48	39222.70
543.64	39817.19
543.81	39232.06
543.98	39356.11
544.15	39122.05
544.32	39756.34
544.48	39976.35
544.65	39381.85
544.82	39852.30
544.99	39707.19
545.16	39697.83
545.32	39744.64
545.49	39754.00
545.66	40116.78
545.83	39983.37
546.00	40369.56
546.16	39894.43
546.33	39964.65
546.50	39779.74
546.67	40304.02
546.83	40069.97
547.00	40187.00
547.17	39842.94
547.34	40053.59
547.50	40409.35
547.67	40418.71
547.84	40465.52
548.00	40500.63
548.17	40725.32
548.34	40327.43
548.51	40706.60
548.67	40807.24
548.84	40905.54
549.01	40809.58
549.18	40620.00
549.34	40851.71
549.51	40687.87
549.68	40896.18
549.84	40891.50
550.01	41172.36
550.18	40760.43
550.34	41144.28
550.51	41036.61
550.68	41045.97
550.84	40975.76
551.01	41308.11
551.18	41172.36
551.34	40980.44
551.51	41443.87
551.68	41118.53
551.84	41027.25
552.01	41001.50
552.18	41216.83
552.34	41031.93
552.51	41780.90
552.68	41350.24
552.84	41277.69
553.01	41394.71
553.18	41233.22
553.34	41401.74
553.51	41570.25
553.67	41834.74
553.84	42059.43
554.01	41926.02
554.17	41961.12
554.34	41752.82
554.51	41745.80
554.67	42653.92
554.84	41865.16
555.00	41635.79
555.17	41731.75
555.33	42054.75
555.50	41743.45
555.67	41808.99
555.83	41682.60
556.00	42199.86
556.16	42717.12
556.33	42422.21
556.50	42258.37
556.66	42106.24
556.83	41736.43
556.99	42389.44
557.16	42614.13
557.32	42801.38
557.49	42625.84
557.65	42426.89
557.82	42241.99
557.98	42424.55
558.15	42515.83
558.32	42628.18
558.48	42014.96
558.65	42438.59
558.81	42211.56
558.98	42522.85
559.14	42836.48
559.31	42588.39
559.47	42639.88
559.64	43117.35
559.80	42972.24
559.97	43093.94
560.13	42410.51
560.30	42742.86
560.46	43416.94
560.63	42859.89
560.79	43112.67
560.96	43189.91
561.12	43257.78
561.29	42911.38
561.45	43555.03
561.61	42864.57
561.78	42572.00
561.94	42960.53
562.11	42941.81
562.27	43278.85
562.44	42953.51
562.60	43496.52
562.77	43089.26
562.93	43126.71
563.10	43381.83
563.26	43189.91
563.42	43501.20
563.59	42777.97
563.75	43171.18
563.92	43276.51
564.08	43328.00
564.24	43519.92
564.41	42824.78
564.57	43164.16
564.74	42955.85
564.90	43564.39
565.07	43260.12
565.23	42953.51
565.39	43342.04
565.56	43297.57
565.72	43405.23
565.88	43498.86
566.05	43311.61
566.21	43756.32
566.38	43400.55
566.54	43835.89
566.70	43620.56
566.87	43959.94
567.03	43695.46
567.19	43606.52
567.36	43840.57
567.52	43482.47
567.68	43512.90
567.85	43793.76
568.01	43990.37
568.17	43143.09
568.34	43606.52
568.50	43571.41
568.66	43526.94
568.83	43639.29
568.99	43695.46
569.15	43735.25
569.32	43606.52
569.48	43721.21
569.64	43941.22
569.81	43885.04
569.97	43941.22
570.13	43810.15
570.30	43676.74
570.46	44058.24
570.62	44126.12
570.78	43924.83
570.95	44079.31
571.11	44285.28
571.27	44168.25
571.43	43768.02
571.60	43861.64
571.76	43838.23
571.92	43957.60
572.09	44023.14
572.25	44280.60
572.41	43725.89
572.57	43908.45
572.74	44580.18
572.90	44156.55
573.06	44580.18
573.22	44032.50
573.38	44158.89
573.55	43906.11
573.71	44594.23
573.87	44430.39
574.03	44219.74
574.20	44161.23
574.36	44343.79
574.52	44463.16
574.68	44224.42
574.84	44224.42
575.01	44498.26
575.17	44339.11
575.33	44526.35
575.49	44198.68
575.65	44072.29
575.82	44362.51
575.98	43814.83
576.14	44336.77
576.30	44531.03
576.46	44308.68
576.62	44678.49
576.79	44360.17
576.95	44081.65
577.11	44488.90
577.27	44418.69
577.43	44222.08
577.59	44360.17
577.75	44278.25
577.92	43840.57
578.08	44254.85
578.24	44538.05
578.40	44449.11
578.56	44800.19
578.72	44720.62
578.88	44650.40
579.04	44584.86
579.21	44257.19
579.37	44357.83
579.53	44746.36
579.69	44392.94
579.85	44229.10
580.01	44622.31
580.17	44414.01
580.33	44626.99
580.49	45015.52
580.65	44573.16
580.82	44563.80
580.98	44584.86
581.14	44250.17
581.30	44622.31
581.46	44369.54
581.62	44481.88
581.78	44451.45
581.94	44383.58
582.10	44975.73
582.26	44657.42
582.42	44718.28
582.58	44678.49
582.74	44954.67
582.90	44406.98
583.06	44341.45
583.22	44891.48
583.38	44645.72
583.54	44676.15
583.70	44493.58
583.86	44942.97
584.02	44360.17
584.18	44659.76
584.34	44917.22
584.50	44814.24
584.66	44762.75
584.82	44369.54
584.98	44842.32
585.14	44465.50
585.30	44467.84
585.46	44648.06
585.62	44395.28
585.78	44729.98
585.94	44392.94
586.10	44577.84
586.26	44343.79
586.42	43896.75
586.58	44917.22
586.74	44903.18
586.90	44453.79
587.06	44175.27
587.22	44884.45
587.38	44828.28
587.54	44959.35
587.70	44802.53
587.86	44947.65
588.02	44582.52
588.18	44437.41
588.34	44641.04
588.49	44634.02
588.65	44577.84
588.81	44655.08
588.97	45050.63
589.13	44942.97
589.29	44854.03
589.45	45272.98
589.61	44608.27
589.77	44982.76
589.93	44542.74
590.08	44769.77
590.24	44935.95
