SpectraSuite Data File
++++++++++++++++++++++++++++++++++++
Date: Fri Oct 25 11:33:25 EDT 2013
User: price-jones
Dark Spectrum Present: No
Reference Spectrum Present: No
Number of Sampled Component Spectra: 1
Spectrometers: USB2+H05261
Integration Time (usec): 100000 (USB2+H05261)
Spectra Averaged: 1 (USB2+H05261)
Boxcar Smoothing: 0 (USB2+H05261)
Correct for Electrical Dark: No (USB2+H05261)
Strobe/Lamp Enabled: No (USB2+H05261)
Correct for Detector Non-linearity: No (USB2+H05261)
Correct for Stray Light: No (USB2+H05261)
Number of Pixels in Processed Spectrum: 2048
>>>>>Begin Processed Spectral Data<<<<<
365.73	297.25
365.92	297.25
366.12	297.25
366.32	220.01
366.52	191.92
366.72	170.86
366.91	201.29
367.11	152.13
367.31	119.37
367.51	159.16
367.70	173.20
367.90	194.26
368.10	189.58
368.30	222.35
368.49	163.84
368.69	217.67
368.89	241.08
369.09	147.45
369.28	227.03
369.48	163.84
369.68	187.24
369.87	287.89
370.07	292.57
370.27	203.63
370.47	330.02
370.66	484.49
370.86	528.96
371.06	500.87
371.25	571.09
371.45	571.09
371.65	538.32
371.84	463.43
372.04	564.07
372.24	620.24
372.44	627.26
372.63	568.75
372.83	587.47
373.03	617.90
373.22	543.00
373.42	585.13
373.62	540.66
373.81	709.18
374.01	650.67
374.21	741.95
374.40	629.60
374.60	653.01
374.79	657.69
374.99	587.47
375.19	629.60
375.38	650.67
375.58	678.76
375.78	678.76
375.97	683.44
376.17	763.01
376.37	690.46
376.56	784.08
376.76	730.25
376.95	683.44
377.15	791.10
377.35	678.76
377.54	718.54
377.74	688.12
377.93	716.20
378.13	664.71
378.33	699.82
378.52	718.54
378.72	741.95
378.91	732.59
379.11	676.41
379.31	697.48
379.50	770.04
379.70	753.65
379.89	765.36
380.09	763.01
380.28	692.80
380.48	753.65
380.68	779.40
380.87	723.23
381.07	784.08
381.26	711.52
381.46	753.65
381.65	777.06
381.85	765.36
382.04	779.40
382.24	800.46
382.43	779.40
382.63	779.40
382.83	802.80
383.02	774.72
383.22	770.04
383.41	812.17
383.61	730.25
383.80	823.87
384.00	800.46
384.19	837.91
384.39	730.25
384.58	770.04
384.78	741.95
384.97	863.66
385.17	877.70
385.36	858.98
385.56	861.32
385.75	788.76
385.95	854.30
386.14	873.02
386.34	903.45
386.53	882.38
386.72	851.96
386.92	901.11
387.11	894.08
387.31	959.62
387.50	938.55
387.70	905.79
387.89	938.55
388.09	887.06
388.28	882.38
388.48	849.61
388.67	912.81
388.86	896.43
389.06	919.83
389.25	851.96
389.45	957.28
389.64	1032.18
389.84	980.68
390.03	1011.11
390.22	978.34
390.42	968.98
390.61	971.32
390.81	961.96
391.00	1015.79
391.19	1132.82
391.39	1036.86
391.58	1055.58
391.78	1015.79
391.97	1015.79
392.16	959.62
392.36	1093.03
392.55	1004.09
392.75	1046.22
392.94	1060.26
393.13	1034.52
393.33	1081.33
393.52	1025.15
393.71	1057.92
393.91	1048.56
394.10	1151.54
394.29	1046.22
394.49	1130.48
394.68	1128.14
394.88	1097.71
395.07	1130.48
395.26	1076.65
395.46	1210.06
395.65	1221.76
395.84	1128.14
396.04	1242.82
396.23	1104.73
396.42	1203.04
396.62	1149.20
396.81	1228.78
397.00	1177.29
397.19	1226.44
397.39	1132.82
397.58	1273.25
397.77	1198.35
397.97	1224.10
398.16	1315.38
398.35	1299.00
398.55	1289.64
398.74	1317.72
398.93	1329.42
399.12	1371.55
399.32	1270.91
399.51	1390.28
399.70	1425.39
399.90	1331.76
400.09	1394.96
400.28	1350.49
400.47	1476.88
400.67	1437.09
400.86	1474.54
401.05	1404.32
401.24	1376.24
401.44	1432.41
401.63	1511.99
401.82	1448.79
402.01	1500.28
402.21	1523.69
402.40	1462.83
402.59	1507.30
402.78	1577.52
402.97	1476.88
403.17	1556.46
403.36	1486.24
403.55	1582.20
403.74	1540.07
403.93	1577.52
404.13	1638.38
404.32	1612.63
404.51	1636.03
404.70	1710.93
404.89	1732.00
405.09	1643.06
405.28	1696.89
405.47	1715.61
405.66	1682.85
405.85	1736.68
406.05	1757.74
406.24	1762.42
406.43	1830.30
406.62	1783.49
406.81	1863.07
407.00	1685.19
407.20	1802.21
407.39	1844.34
407.58	1940.30
407.77	1858.39
407.96	1912.22
408.15	1902.86
408.34	1879.45
408.54	1893.49
408.73	1921.58
408.92	1919.24
409.11	1973.07
409.30	1952.01
409.49	1987.11
409.68	1947.33
409.87	2012.86
410.07	1942.64
410.26	1977.75
410.45	2015.20
410.64	2029.24
410.83	2136.91
411.02	2172.02
411.21	2174.36
411.40	2139.25
411.59	2214.15
411.78	2155.63
411.98	2298.41
412.17	2293.72
412.36	2291.38
412.55	2267.98
412.74	2352.24
412.93	2429.48
413.12	2448.20
413.31	2431.82
413.50	2375.64
413.69	2457.56
413.88	2487.99
414.07	2492.67
414.26	2569.91
414.45	2506.71
414.64	2546.50
414.83	2457.56
415.02	2661.19
415.22	2656.51
415.41	2658.85
415.60	2658.85
415.79	2708.00
415.98	2771.19
416.17	2754.81
416.36	2761.83
416.55	2654.17
416.74	2881.20
416.93	2857.79
417.12	2818.00
417.31	2925.67
417.50	2860.13
417.69	2998.23
417.88	2925.67
418.07	2953.76
418.26	3056.74
418.45	2986.52
418.64	3096.53
418.83	2984.18
419.02	3115.25
419.21	3087.17
419.39	3112.91
419.58	3110.57
419.77	3068.44
419.96	3094.19
420.15	3234.62
420.34	3152.70
420.53	3192.49
420.72	3178.45
420.91	3187.81
421.10	3215.90
421.29	3342.28
421.48	3251.00
421.67	3370.37
421.86	3248.66
422.05	3426.54
422.24	3396.12
422.43	3293.13
422.61	3478.04
422.80	3478.04
422.99	3550.59
423.18	3351.65
423.37	3393.78
423.56	3473.36
423.75	3396.12
423.94	3410.16
424.13	3215.90
424.32	3335.26
424.50	3382.07
424.69	3440.59
424.88	3515.48
425.07	3433.57
425.26	3459.31
425.45	3431.23
425.64	3414.84
425.83	3433.57
426.01	3508.46
426.20	3459.31
426.39	3541.23
426.58	3508.46
426.77	3566.98
426.96	3637.19
427.15	3510.80
427.33	3576.34
427.52	3517.83
427.71	3609.11
427.90	3702.73
428.09	3716.77
428.28	3707.41
428.46	3686.34
428.65	3709.75
428.84	3730.81
429.03	3831.46
429.22	3660.60
429.40	3782.31
429.59	3749.54
429.78	3630.17
429.97	3740.18
430.16	3765.92
430.34	3857.20
430.53	3854.86
430.72	3868.91
430.91	3852.52
431.10	3927.42
431.28	4035.08
431.47	3995.29
431.66	4032.74
431.85	3908.69
432.03	4086.58
432.22	4131.05
432.41	4028.06
432.60	4051.47
432.79	4126.36
432.97	4138.07
433.16	4042.11
433.35	4304.25
433.54	4304.25
433.72	4227.01
433.91	4231.69
434.10	4227.01
434.28	4166.15
434.47	4306.59
434.66	4374.46
434.85	4315.95
435.03	4255.09
435.22	4348.72
435.41	4360.42
435.59	4428.29
435.78	4414.25
435.97	4381.48
436.16	4524.26
436.34	4554.68
436.53	4461.06
436.72	4603.83
436.90	4585.11
437.09	4610.86
437.28	4362.76
437.46	4500.85
437.65	4634.26
437.84	4641.28
438.02	4641.28
438.21	4758.31
438.40	4709.16
438.58	4758.31
438.77	4779.37
438.96	4683.41
439.14	4814.48
439.33	4915.12
439.52	4961.94
439.70	4901.08
439.89	5132.79
440.08	5071.94
440.26	4943.21
440.45	5053.22
440.63	5064.92
440.82	5233.44
441.01	5268.55
441.19	5085.98
441.38	5310.68
441.57	5245.14
441.75	5504.94
441.94	5371.53
442.12	5411.32
442.31	5437.06
442.50	5434.72
442.68	5401.96
442.87	5507.28
443.05	5645.37
443.24	5509.62
443.43	5570.48
443.61	5561.11
443.80	5614.95
443.98	5394.93
444.17	5432.38
444.35	5563.45
444.54	5816.23
444.73	5694.52
444.91	5572.82
445.10	5659.42
445.28	5659.42
445.47	5720.27
445.65	5488.56
445.84	5664.10
446.02	5790.49
446.21	5703.89
446.39	5863.04
446.58	5724.95
446.77	5717.93
446.95	5507.28
447.14	5863.04
447.32	5825.59
447.51	5755.38
447.69	5720.27
447.88	5867.72
448.06	5813.89
448.25	5813.89
448.43	5982.41
448.62	5912.19
448.80	5989.43
448.99	6108.80
449.17	5928.58
449.36	5930.92
449.54	6071.35
449.73	6115.82
449.91	6169.65
450.10	6104.12
450.28	6204.76
450.46	6235.19
450.65	6080.71
450.83	6104.12
451.02	6111.14
451.20	6244.55
451.39	6223.48
451.57	6228.17
451.76	6174.33
451.94	6164.97
452.13	6146.25
452.31	6305.40
452.49	6326.47
452.68	6202.42
452.86	6359.24
453.05	6277.32
453.23	6619.04
453.42	6443.49
453.60	6363.92
453.78	6609.67
453.97	6471.58
454.15	6282.00
454.34	6408.39
454.52	6583.93
454.70	6647.12
454.89	6347.53
455.07	6815.64
455.26	6677.55
455.44	6729.04
455.62	6738.40
455.81	6752.45
455.99	6871.81
456.17	6747.76
456.36	6839.05
456.54	6848.41
456.73	6801.60
456.91	7030.97
457.09	7180.76
457.28	7023.95
457.46	7040.33
457.64	7180.76
457.83	7070.76
458.01	7133.95
458.19	7262.68
458.38	7117.57
458.56	7234.60
458.74	7253.32
458.93	7311.83
459.11	7260.34
459.29	7258.00
459.48	7262.68
459.66	7536.52
459.84	7293.11
460.03	7368.01
460.21	7325.88
460.39	7325.88
460.57	7426.52
460.76	7669.94
460.94	7583.34
461.12	7531.84
461.31	7534.18
461.49	7552.91
461.67	7590.36
461.85	7857.18
462.04	7599.72
462.22	8063.15
462.40	7852.50
462.59	7761.22
462.77	7833.77
462.95	7847.82
463.13	7887.61
463.32	7845.48
463.50	8060.80
463.68	7918.03
463.86	8011.65
464.05	7742.49
464.23	8018.68
464.41	8100.59
464.59	8016.33
464.78	8109.96
464.96	8152.09
465.14	7864.20
465.32	8161.45
465.50	8287.84
465.69	8035.06
465.87	8425.93
466.05	8088.89
466.23	8205.92
466.41	8304.22
466.60	8430.61
466.78	8444.65
466.96	8320.60
467.14	8322.94
467.32	8456.36
467.51	8425.93
467.69	8304.22
467.87	8313.58
468.05	8418.91
468.23	8290.18
468.41	8388.48
468.60	8557.00
468.78	8592.11
468.96	8484.44
469.14	8805.10
469.32	8959.57
469.50	8685.73
469.69	8669.34
469.87	8755.94
470.05	8919.78
470.23	8903.40
470.41	8779.35
470.59	9064.89
470.77	8844.88
470.95	8894.04
471.14	9055.53
471.32	8760.63
471.50	9116.39
471.68	9317.67
471.86	9139.79
472.04	9256.82
472.22	9439.38
472.40	9266.18
472.58	9132.77
472.77	9366.82
472.95	9451.08
473.13	9832.59
473.31	9626.62
473.49	9387.89
473.67	9465.13
473.85	9764.72
474.03	9841.95
474.21	9628.96
474.39	9900.47
474.57	9820.89
474.75	9928.55
474.93	10157.92
475.12	9792.80
475.30	9830.25
475.48	10017.49
475.66	10080.69
475.84	10186.01
476.02	10422.41
476.20	10127.50
476.38	10436.45
476.56	10509.01
476.74	10731.36
476.92	10724.33
477.10	10630.71
477.28	10848.38
477.46	10810.93
477.64	10759.44
477.82	11047.33
478.00	11206.48
478.18	11173.72
478.36	11396.07
478.54	11428.84
478.72	11396.07
478.90	11398.41
479.08	11536.50
479.26	11548.20
479.44	11772.89
479.62	12002.27
479.80	11683.95
479.98	12161.42
480.16	12367.39
480.34	12224.62
480.52	12402.50
480.70	12180.15
480.88	12170.79
481.06	12739.54
481.24	12358.03
481.41	12439.95
481.59	13004.02
481.77	12891.67
481.95	13130.41
482.13	13156.15
482.31	13083.59
482.49	13345.73
482.67	13270.84
482.85	13624.26
483.03	13715.54
483.21	13987.04
483.39	13827.88
483.57	13818.52
483.74	13809.16
483.92	14272.59
484.10	14129.81
484.28	14352.16
484.46	14600.26
484.64	14721.97
484.82	14504.30
485.00	14817.93
485.18	14930.28
485.35	15351.57
485.53	15019.22
485.71	15557.54
485.89	15279.02
486.07	15393.70
486.25	15613.71
486.43	15424.13
486.61	15967.13
486.78	15892.24
486.96	15857.13
487.14	15946.07
487.32	16318.22
487.50	16320.56
487.68	16594.40
487.85	16762.92
488.03	16746.53
488.21	17233.36
488.39	16964.20
488.57	17245.07
488.75	17336.35
488.92	17380.82
489.10	17642.96
489.28	17664.02
489.46	17989.36
489.64	18026.81
489.81	18340.44
489.99	18450.44
490.17	18263.20
490.35	18644.71
490.53	18663.43
490.70	18867.06
490.88	19012.17
491.06	18668.11
491.24	18977.06
491.41	19037.92
491.59	19583.26
491.77	19433.47
491.95	19576.24
492.13	19552.84
492.30	19697.95
492.48	19616.03
492.66	20018.60
492.84	19798.59
493.01	20161.37
493.19	20219.89
493.37	20512.46
493.54	20416.49
493.72	20673.95
493.90	20664.59
494.08	20924.39
494.25	21135.04
494.43	21427.60
494.61	21277.81
494.79	21336.32
494.96	21003.97
495.14	21703.79
495.32	22270.20
495.49	21879.33
495.67	21998.70
495.85	22129.77
496.02	22199.98
496.20	22717.24
496.38	22668.09
496.55	22534.68
496.73	23178.33
496.91	22869.37
497.09	23068.32
497.26	22885.76
497.44	22963.00
497.62	23426.42
497.79	23442.81
497.97	23618.35
498.14	23718.99
498.32	23819.63
498.50	23711.97
498.67	23847.72
498.85	24095.82
499.03	24500.73
499.20	24229.23
499.38	24451.58
499.56	24496.05
499.73	24374.34
499.91	24563.92
500.08	24940.75
500.26	24641.16
500.44	24896.28
500.61	25067.14
500.79	24952.45
500.97	25228.63
501.14	25523.54
501.32	25930.80
501.49	25343.32
501.67	25345.66
501.84	25584.40
502.02	25802.07
502.20	25647.59
502.37	25909.73
502.55	25916.75
502.72	26190.59
502.90	26476.14
503.07	25776.32
503.25	26281.88
503.43	26167.19
503.60	26501.89
503.78	26742.96
503.95	26499.55
504.13	26579.12
504.30	26768.71
504.48	26787.43
504.65	26923.18
504.83	27133.83
505.01	27522.36
505.18	27065.96
505.36	27007.44
505.53	27358.52
505.71	27578.53
505.88	27082.34
506.06	27449.80
506.23	27976.42
506.41	27648.75
506.58	28079.41
506.76	28006.85
506.93	28142.60
507.11	28205.80
507.28	28540.49
507.46	28266.65
507.63	28765.18
507.81	28727.74
507.98	28362.61
508.16	28575.60
508.33	28851.78
508.50	28451.55
508.68	29041.37
508.85	28973.49
509.03	28957.11
509.20	29479.05
509.38	29465.00
509.55	29476.71
509.73	29261.38
509.90	29589.05
510.08	29282.44
510.25	29486.07
510.42	30291.21
510.60	30054.82
510.77	30321.64
510.95	30368.45
511.12	30331.00
511.30	30125.04
511.47	30368.45
511.64	30609.53
511.82	30782.73
511.99	30625.91
512.17	30764.00
512.34	30642.29
512.51	31108.06
512.69	30925.50
512.86	30897.41
513.04	30888.05
513.21	31075.29
513.38	31246.15
513.56	31412.33
513.73	31302.32
513.90	31482.55
514.08	31222.75
514.25	31512.97
514.43	31751.71
514.60	31632.34
514.77	31777.45
514.95	31847.67
515.12	31758.73
515.29	31927.25
515.47	32301.73
515.64	32531.11
515.81	32339.18
515.99	32053.64
516.16	32601.32
516.33	32748.78
516.51	32584.94
516.68	32322.80
516.85	32465.57
517.03	32811.97
517.20	33095.18
517.37	32889.21
517.54	32954.74
517.72	33490.73
517.89	33062.41
518.06	33233.27
518.24	33310.50
518.41	33612.43
518.58	33567.96
518.75	33259.01
518.93	33628.82
519.10	33816.06
519.27	33610.09
519.45	33776.27
519.62	33809.04
519.79	33902.66
519.96	33926.07
520.14	34052.45
520.31	34073.52
520.48	34340.34
520.65	34043.09
520.83	34548.65
521.00	34604.82
521.17	34773.34
521.34	35021.44
521.52	34684.40
521.69	35145.48
521.86	35014.41
522.03	35103.35
522.20	35115.06
522.38	35143.14
522.55	35157.19
522.72	35157.19
522.89	35725.94
523.07	35058.88
523.24	35601.89
523.41	35473.16
523.58	35278.89
523.75	35456.78
523.92	35803.17
524.10	35992.76
524.27	36016.16
524.44	35653.38
524.61	36020.84
524.78	36067.66
524.96	36697.26
525.13	36301.71
525.30	36521.72
525.47	36107.44
525.64	36261.92
525.81	36573.21
525.98	36793.22
526.16	36556.83
526.33	36713.64
526.50	36671.51
526.67	36683.22
526.84	36790.88
527.01	36582.57
527.18	36844.71
527.36	36807.26
527.53	37186.43
527.70	37443.89
527.87	37621.77
528.04	37516.45
528.21	37598.37
528.38	37099.83
528.55	37378.36
528.72	37310.48
528.89	37233.24
529.07	37057.70
529.24	37378.36
529.41	37757.52
529.58	37963.49
529.75	37383.04
529.92	37780.93
530.09	37518.79
530.26	38249.03
530.43	38195.20
530.60	38396.49
530.77	37865.19
530.94	38387.13
531.11	38171.80
531.28	38312.23
531.46	38307.55
531.63	38375.42
531.80	38272.44
531.97	38677.35
532.14	38682.03
532.31	38438.62
532.48	38916.09
532.65	39108.01
532.82	38665.65
532.99	38724.16
533.16	38813.10
533.33	38611.82
533.50	38684.37
533.67	39194.61
533.84	38293.50
534.01	39100.99
534.18	39379.51
534.35	39651.02
534.52	39063.54
534.69	39423.98
534.86	39452.07
535.03	39550.37
535.20	39728.25
535.37	39721.23
535.54	39543.35
535.71	39112.69
535.88	39854.64
536.05	39826.56
536.22	40100.40
536.38	40357.86
536.55	39697.83
536.72	40069.97
536.89	40189.34
537.06	40023.16
537.23	40086.36
537.40	39861.66
537.57	40009.12
537.74	40381.26
537.91	40465.52
538.08	40240.83
538.25	40060.61
538.42	40725.32
538.59	40505.31
538.75	40533.40
538.92	41001.50
539.09	40818.94
539.26	40837.67
539.43	40470.20
539.60	40851.71
539.77	40814.26
539.94	40737.02
540.11	40994.48
540.28	41017.89
540.44	41404.08
540.61	40807.24
540.78	40776.81
540.95	40900.86
541.12	41385.35
541.29	41270.67
541.46	41340.88
541.62	41425.14
541.79	41792.61
541.96	41179.39
542.13	40928.95
542.30	41408.76
542.47	41523.44
542.63	41759.84
542.80	41951.76
542.97	42131.98
543.14	41947.08
543.31	41741.11
543.48	41886.23
543.64	42164.75
543.81	42000.91
543.98	42469.02
544.15	42176.45
544.32	42586.05
544.48	42663.28
544.65	42689.03
544.82	43009.68
544.99	42192.84
545.16	42321.57
545.32	42593.07
545.49	43077.56
545.66	42855.21
545.83	42555.62
546.00	42965.21
546.16	42869.25
546.33	42904.36
546.50	42349.65
546.67	42939.47
546.83	42375.40
547.00	43112.67
547.17	42614.13
547.34	43112.67
547.50	42960.53
547.67	43452.05
547.84	43346.72
548.00	43269.48
548.17	43487.15
548.34	43512.90
548.51	43449.70
548.67	43665.03
548.84	43601.84
549.01	43306.93
549.18	43503.54
549.34	43978.67
549.51	43686.10
549.68	43707.16
549.84	43576.09
550.01	43732.91
550.18	43363.11
550.34	44264.21
550.51	43765.68
550.68	44016.11
550.84	43459.07
551.01	44264.21
551.18	43613.54
551.34	43985.69
551.51	44144.84
551.68	44470.18
551.84	44055.90
552.01	44273.57
552.18	44135.48
552.34	44205.70
552.51	44285.28
552.68	44463.16
552.84	44322.72
553.01	44245.49
553.18	44334.43
553.34	44470.18
553.51	44886.79
553.67	44069.95
553.84	45099.78
554.01	44900.84
554.17	44535.71
554.34	44713.59
554.51	44741.68
554.67	45254.26
554.84	44987.44
555.00	44781.47
555.17	44816.58
555.33	45202.77
555.50	44521.67
555.67	44926.58
555.83	44949.99
556.00	45272.98
556.16	45572.57
556.33	45312.77
556.50	44896.16
556.66	44971.05
556.83	44858.71
556.99	45029.57
557.16	45507.04
557.32	45123.19
557.49	45413.41
557.65	45272.98
557.82	45315.11
557.98	45347.88
558.15	45137.23
558.32	45766.84
558.48	45390.01
558.65	45701.30
558.81	45661.51
558.98	45572.57
559.14	45244.90
559.31	45270.64
559.47	45380.65
559.64	45626.40
559.80	46005.57
559.97	45268.30
560.13	45825.35
560.30	45586.61
560.46	46047.70
560.63	46010.25
560.79	45888.54
560.96	46136.64
561.12	45750.45
561.29	46293.46
561.45	45993.87
561.61	45750.45
561.78	46036.00
561.94	45626.40
562.11	46036.00
562.27	45811.31
562.44	46113.23
562.60	46197.49
562.77	46391.76
562.93	45343.20
563.10	46288.77
563.26	46040.68
563.42	46476.02
563.59	46005.57
563.75	46092.17
563.92	46433.89
564.08	46160.05
564.24	46227.92
564.41	46539.21
564.57	46375.37
564.74	46691.35
564.90	46068.76
565.07	46131.96
565.23	46122.60
565.39	46412.82
565.56	46752.20
565.72	46529.85
565.88	46160.05
566.05	46401.12
566.21	46354.31
566.38	46780.29
566.54	46574.32
566.70	46497.08
566.87	46581.34
567.03	46635.17
567.19	46403.46
567.36	46476.02
567.52	46637.51
567.68	46822.42
567.85	46747.52
568.01	46796.67
568.17	46590.70
568.34	46878.59
568.50	46686.67
568.66	46639.86
568.83	46621.13
568.99	46588.36
569.15	46424.53
569.32	46586.02
569.48	46756.88
569.64	47129.03
569.81	46557.94
569.97	47126.69
570.13	47042.43
570.30	46714.75
570.46	47103.28
570.62	47346.70
570.78	47023.70
570.95	46967.53
571.11	47234.35
571.27	46674.96
571.43	47229.67
571.60	47016.68
571.76	46813.05
571.92	46894.97
572.09	46883.27
572.25	46873.91
572.41	47012.00
572.57	47021.36
572.74	47800.76
572.90	47077.54
573.06	47000.30
573.22	46962.85
573.38	47016.68
573.55	47037.75
573.71	47393.51
573.87	47356.06
574.03	47384.15
574.20	47178.18
574.36	47107.96
574.52	47098.60
574.68	47552.66
574.84	47487.13
575.01	47672.03
575.17	47229.67
575.33	47047.11
575.49	47196.90
575.65	47398.19
575.82	47248.39
575.98	46981.57
576.14	47248.39
576.30	47576.07
576.46	47173.50
576.62	47349.04
576.79	47201.58
576.95	46939.44
577.11	47192.22
577.27	47306.91
577.43	47313.93
577.59	47159.45
577.75	47522.24
577.92	46813.05
578.08	47526.92
578.24	47091.58
578.40	47915.45
578.56	47674.37
578.72	47351.38
578.88	47868.64
579.04	47147.75
579.21	47547.98
579.37	47206.26
579.53	47620.54
579.69	47459.04
579.85	47400.53
580.01	47501.17
580.17	47227.33
580.33	47793.74
580.49	47526.92
580.65	47653.31
580.82	47107.96
580.98	47337.33
581.14	47241.37
581.30	47833.53
581.46	47154.77
581.62	47082.22
581.78	47105.62
581.94	47676.71
582.10	47349.04
582.26	47419.25
582.42	47477.77
582.58	47587.77
582.74	47576.07
582.90	47599.47
583.06	47770.33
583.22	47334.99
583.38	47330.31
583.54	47758.63
583.70	47716.50
583.86	47709.48
584.02	47657.99
584.18	47538.62
584.34	47803.10
584.50	47796.08
584.66	47770.33
584.82	47412.23
584.98	48076.94
585.14	47772.67
585.30	47952.90
585.46	47522.24
585.62	47592.45
585.78	47620.54
585.94	47669.69
586.10	47723.52
586.26	47543.30
586.42	47775.02
586.58	47494.15
586.74	47538.62
586.90	47437.98
587.06	47459.04
587.22	48137.80
587.38	47842.89
587.54	47585.43
587.70	47786.72
587.86	47700.12
588.02	47578.41
588.18	47625.22
588.34	47805.44
588.49	47775.02
588.65	47393.51
588.81	47615.86
588.97	47782.04
589.13	47852.25
589.29	47555.00
589.45	47428.62
589.61	48062.90
589.77	48144.82
589.93	47838.21
