SpectraSuite Data File
++++++++++++++++++++++++++++++++++++
Date: Fri Oct 25 10:47:42 EDT 2013
User: price-jones
Dark Spectrum Present: No
Reference Spectrum Present: No
Number of Sampled Component Spectra: 1
Spectrometers: USB2+H05261
Integration Time (usec): 100000 (USB2+H05261)
Spectra Averaged: 1 (USB2+H05261)
Boxcar Smoothing: 0 (USB2+H05261)
Correct for Electrical Dark: No (USB2+H05261)
Strobe/Lamp Enabled: No (USB2+H05261)
Correct for Detector Non-linearity: No (USB2+H05261)
Correct for Stray Light: No (USB2+H05261)
Number of Pixels in Processed Spectrum: 2048
>>>>>Begin Processed Spectral Data<<<<<
365.73	142.77
365.92	142.77
366.12	142.77
366.32	105.32
366.52	37.45
366.72	84.26
366.91	28.09
367.11	42.13
367.31	7.02
367.51	35.11
367.70	152.13
367.90	131.07
368.10	86.60
368.30	39.79
368.49	63.19
368.69	79.58
368.89	79.58
369.09	65.54
369.28	67.88
369.48	65.54
369.68	30.43
369.87	166.18
370.07	72.56
370.27	182.56
370.47	194.26
370.66	369.80
370.86	435.34
371.06	514.92
371.25	524.28
371.45	430.66
371.65	479.81
371.84	503.22
372.04	463.43
372.24	524.28
372.44	409.59
372.63	505.56
372.83	447.04
373.03	550.03
373.22	444.70
373.42	512.58
373.62	507.90
373.81	498.53
374.01	550.03
374.21	524.28
374.40	547.69
374.60	587.47
374.79	540.66
374.99	571.09
375.19	592.16
375.38	573.43
375.58	648.33
375.78	564.07
375.97	592.16
376.17	578.11
376.37	589.82
376.56	575.77
376.76	596.84
376.95	489.17
377.15	606.20
377.35	601.52
377.54	648.33
377.74	615.56
377.93	610.88
378.13	557.05
378.33	662.37
378.52	683.44
378.72	538.32
378.91	678.76
379.11	645.99
379.31	599.18
379.50	606.20
379.70	671.73
379.89	660.03
380.09	627.26
380.28	606.20
380.48	688.12
380.68	648.33
380.87	606.20
381.07	617.90
381.26	751.31
381.46	662.37
381.65	631.94
381.85	631.94
382.04	697.48
382.24	688.12
382.43	702.16
382.63	667.05
382.83	697.48
383.02	744.29
383.22	753.65
383.41	734.93
383.61	667.05
383.80	704.50
384.00	732.59
384.19	746.63
384.39	730.25
384.58	730.25
384.78	685.78
384.97	739.61
385.17	697.48
385.36	781.74
385.56	767.70
385.75	734.93
385.95	833.23
386.14	840.25
386.34	816.85
386.53	753.65
386.72	802.80
386.92	880.04
387.11	861.32
387.31	863.66
387.50	772.38
387.70	744.29
387.89	887.06
388.09	807.48
388.28	854.30
388.48	828.55
388.67	851.96
388.86	863.66
389.06	861.32
389.25	870.68
389.45	968.98
389.64	870.68
389.84	924.51
390.03	917.49
390.22	903.45
390.42	880.04
390.61	954.94
390.81	866.00
391.00	898.77
391.19	987.71
391.39	912.81
391.58	950.26
391.78	973.66
391.97	961.96
392.16	973.66
392.36	952.60
392.55	1020.47
392.75	957.28
392.94	959.62
393.13	959.62
393.33	1062.60
393.52	943.24
393.71	1064.94
393.91	959.62
394.10	1053.24
394.29	1064.94
394.49	1062.60
394.68	1048.56
394.88	1100.05
395.07	1128.14
395.26	1036.86
395.46	1156.22
395.65	1090.69
395.84	1116.44
396.04	1210.06
396.23	1090.69
396.42	1057.92
396.62	1093.03
396.81	1100.05
397.00	1207.72
397.19	1214.74
397.39	1109.41
397.58	1219.42
397.77	1275.59
397.97	1233.46
398.16	1191.33
398.35	1231.12
398.55	1266.23
398.74	1378.58
398.93	1355.17
399.12	1263.89
399.32	1350.49
399.51	1352.83
399.70	1460.49
399.90	1455.81
400.09	1383.26
400.28	1441.77
400.47	1371.55
400.67	1418.36
400.86	1401.98
401.05	1425.39
401.24	1444.11
401.44	1488.58
401.63	1451.13
401.82	1441.77
402.01	1420.71
402.21	1500.28
402.40	1526.03
402.59	1540.07
402.78	1554.12
402.97	1504.96
403.17	1490.92
403.36	1558.80
403.55	1673.48
403.74	1671.14
403.93	1610.29
404.13	1661.78
404.32	1589.22
404.51	1533.05
404.70	1603.27
404.89	1661.78
405.09	1652.42
405.28	1603.27
405.47	1748.38
405.66	1685.19
405.85	1678.16
406.05	1624.33
406.24	1664.12
406.43	1713.27
406.62	1781.15
406.81	1860.73
407.00	1696.89
407.20	1834.98
407.39	1849.02
407.58	1849.02
407.77	1877.11
407.96	1980.09
408.15	1926.26
408.34	1933.28
408.54	2001.16
408.73	2017.54
408.92	2024.56
409.11	2043.29
409.30	2162.66
409.49	2038.61
409.68	2015.20
409.87	2050.31
410.07	2099.46
410.26	2139.25
410.45	2073.71
410.64	2115.84
410.83	2118.18
411.02	2139.25
411.21	2246.91
411.40	2263.30
411.59	2265.64
411.78	2202.44
411.98	2242.23
412.17	2312.45
412.36	2282.02
412.55	2415.43
412.74	2228.19
412.93	2399.05
413.12	2321.81
413.31	2511.39
413.50	2401.39
413.69	2546.50
413.88	2581.61
414.07	2520.76
414.26	2619.06
414.45	2654.17
414.64	2689.28
414.83	2656.51
415.02	2708.00
415.22	2881.20
415.41	2686.94
415.60	2689.28
415.79	2752.47
415.98	2796.94
416.17	2820.35
416.36	2846.09
416.55	2935.03
416.74	2820.35
416.93	2750.13
417.12	2923.33
417.31	2860.13
417.50	2909.29
417.69	3021.63
417.88	2967.80
418.07	3023.97
418.26	3021.63
418.45	3063.76
418.64	3131.64
418.83	3103.55
419.02	3119.93
419.21	3098.87
419.39	3206.53
419.58	3026.31
419.77	3192.49
419.96	3171.43
420.15	3272.07
420.34	3262.71
420.53	3304.84
420.72	3389.10
420.91	3300.16
421.10	3225.26
421.29	3328.24
421.48	3323.56
421.67	3442.93
421.86	3375.05
422.05	3452.29
422.24	3435.91
422.43	3365.69
422.61	3330.58
422.80	3391.44
422.99	3396.12
423.18	3375.05
423.37	3435.91
423.56	3492.08
423.75	3452.29
423.94	3361.01
424.13	3396.12
424.32	3246.32
424.50	3463.99
424.69	3461.65
424.88	3576.34
425.07	3541.23
425.26	3414.84
425.45	3581.02
425.64	3428.88
425.83	3506.12
426.01	3588.04
426.20	3494.42
426.39	3578.68
426.58	3517.83
426.77	3494.42
426.96	3590.38
427.15	3691.02
427.33	3667.62
427.52	3667.62
427.71	3658.26
427.90	3613.79
428.09	3721.45
428.28	3702.73
428.46	3829.12
428.65	3826.78
428.84	3791.67
429.03	3866.56
429.22	3705.07
429.40	3857.20
429.59	3822.09
429.78	3653.58
429.97	3571.66
430.16	3712.09
430.34	3772.94
430.53	3803.37
430.72	3854.86
430.91	3833.80
431.10	3983.59
431.28	3988.27
431.47	3983.59
431.66	4095.94
431.85	4114.66
432.03	4147.43
432.22	4264.46
432.41	4128.70
432.60	4297.22
432.79	4264.46
432.97	4276.16
433.16	4297.22
433.35	4126.36
433.54	4117.00
433.72	4231.69
433.91	4182.54
434.10	4374.46
434.28	4266.80
434.47	4313.61
434.66	4311.27
434.85	4444.68
435.03	4437.66
435.22	4407.23
435.41	4669.37
435.59	4486.81
435.78	4519.57
435.97	4547.66
436.16	4676.39
436.34	4578.09
436.53	4557.02
436.72	4620.22
436.90	4587.45
437.09	4744.27
437.28	4482.13
437.46	4683.41
437.65	4531.28
437.84	4423.61
438.02	4683.41
438.21	4645.96
438.40	4641.28
438.58	4800.44
438.77	4805.12
438.96	4826.18
439.14	4985.34
439.33	4936.19
439.52	5032.15
439.70	4947.89
439.89	5224.08
440.08	5184.29
440.26	5039.17
440.45	5076.62
440.63	5067.26
440.82	5186.63
441.01	5224.08
441.19	5219.39
441.38	5224.08
441.57	5413.66
441.75	5500.26
441.94	5490.90
442.12	5624.31
442.31	5516.64
442.50	5668.78
442.68	5444.09
442.87	5659.42
443.05	5678.14
443.24	5671.12
443.43	5769.42
443.61	5849.00
443.80	5802.19
443.98	5596.22
444.17	5549.41
444.35	5792.83
444.54	5870.06
444.73	5863.04
444.91	5778.78
445.10	5636.01
445.28	5666.44
445.47	5720.27
445.65	5811.55
445.84	5715.59
446.02	6003.47
446.21	5785.80
446.39	5905.17
446.58	5643.03
446.77	5926.24
446.95	5879.43
447.14	5776.44
447.32	5968.37
447.51	5858.36
447.69	5785.80
447.88	5928.58
448.06	5980.07
448.25	5884.11
448.43	6003.47
448.62	5863.04
448.80	6132.20
448.99	6010.50
449.17	6059.65
449.36	6069.01
449.54	6300.72
449.73	6181.35
449.91	6328.81
450.10	6244.55
450.28	6377.96
450.46	6239.87
450.65	6239.87
450.83	6382.64
451.02	6160.29
451.20	6312.42
451.39	6314.77
451.57	6195.40
451.76	6338.17
451.94	6272.64
452.13	6457.54
452.31	6464.56
452.49	6314.77
452.68	6497.33
452.86	6516.05
453.05	6520.73
453.23	6516.05
453.42	6509.03
453.60	6457.54
453.78	6562.86
453.97	6480.94
454.15	6551.16
454.34	6511.37
454.52	6656.48
454.70	6761.81
454.89	6825.00
455.07	6747.76
455.26	6696.27
455.44	6750.10
455.62	6661.16
455.81	6848.41
455.99	6967.77
456.17	6981.82
456.36	7138.63
456.54	7007.56
456.73	7157.36
456.91	7309.49
457.09	7002.88
457.28	7267.36
457.46	7143.32
457.64	7115.23
457.83	7136.29
458.01	7208.85
458.19	7332.90
458.38	7368.01
458.56	7370.35
458.74	7370.35
458.93	7225.23
459.11	7253.32
459.29	7372.69
459.48	7421.84
459.66	7480.35
459.84	7286.09
460.03	7602.06
460.21	7693.34
460.39	7499.08
460.57	7473.33
460.76	7599.72
460.94	7632.49
461.12	7478.01
461.31	7637.17
461.49	7681.64
461.67	7496.74
461.85	7805.69
462.04	7838.45
462.22	8264.43
462.40	7779.94
462.59	8013.99
462.77	7955.48
462.95	7852.50
463.13	8025.70
463.32	7871.22
463.50	7988.25
463.68	8016.33
463.86	8086.55
464.05	7896.97
464.23	7815.05
464.41	8170.81
464.59	8025.70
464.78	8266.77
464.96	8189.53
465.14	7887.61
465.32	8334.65
465.50	8411.89
465.69	8336.99
465.87	8191.88
466.05	8203.58
466.23	8248.05
466.41	8297.20
466.60	8341.67
466.78	8231.66
466.96	8299.54
467.14	8308.90
467.32	8503.17
467.51	8540.61
467.69	8308.90
467.87	8297.20
468.05	8589.77
468.23	8430.61
468.41	8292.52
468.60	8442.31
468.78	8519.55
468.96	8468.06
469.14	8676.37
469.32	8919.78
469.50	8498.49
469.69	8624.87
469.87	8889.35
470.05	8889.35
470.23	8884.67
470.41	8578.06
470.59	9050.85
470.77	8908.08
470.95	9029.79
471.14	9109.36
471.32	8931.48
471.50	9261.50
471.68	9057.87
471.86	9224.05
472.04	9172.56
472.22	9448.74
472.40	9249.80
472.58	9310.65
472.77	9514.28
472.95	9439.38
473.13	9764.72
473.31	9621.94
473.49	9495.55
473.67	9437.04
473.85	9617.26
474.03	9607.90
474.21	9860.68
474.39	9907.49
474.57	9949.62
474.75	9989.41
474.93	10076.01
475.12	10008.13
475.30	10050.26
475.48	10307.72
475.66	10246.87
475.84	10321.76
476.02	10417.72
476.20	10307.72
476.38	10235.16
476.56	10586.24
476.74	10665.82
476.92	10759.44
477.10	10679.86
477.28	10803.91
477.46	10796.89
477.64	11147.97
477.82	11227.55
478.00	11328.19
478.18	11288.40
478.36	11485.01
478.54	11344.58
478.72	11377.34
478.90	11592.67
479.08	11812.68
479.26	11714.38
479.44	11756.51
479.62	11749.49
479.80	11712.04
479.98	12128.66
480.16	12128.66
480.34	11934.39
480.52	12388.46
480.70	12535.91
480.88	12154.40
481.06	12470.37
481.24	12498.46
481.41	12514.84
481.59	13123.38
481.77	13085.94
481.95	13060.19
482.13	13193.60
482.31	13088.28
482.49	13329.35
482.67	13366.80
482.85	13570.43
483.03	13865.33
483.21	13820.86
483.39	13668.73
483.57	13635.96
483.74	14099.39
483.92	14068.96
484.10	13853.63
484.28	14352.16
484.46	14443.45
484.64	15044.96
484.82	14389.61
485.00	14628.35
485.18	14979.43
485.35	15054.33
485.53	14747.72
485.71	14949.00
485.89	15211.14
486.07	15227.53
486.25	15250.93
486.43	15555.20
486.61	15501.37
486.78	15651.16
486.96	15941.39
487.14	16306.51
487.32	16006.92
487.50	16376.73
487.68	16559.29
487.85	16570.99
488.03	16842.50
488.21	16891.65
488.39	16652.91
488.57	17121.02
488.75	17062.51
488.92	17348.05
489.10	17509.55
489.28	17844.24
489.46	17848.93
489.64	17645.30
489.81	18284.26
489.99	18246.82
490.17	18317.03
490.35	18452.78
490.53	18562.79
490.70	18719.60
490.88	18562.79
491.06	19328.14
491.24	19063.66
491.41	19103.45
491.59	19112.81
491.77	19035.58
491.95	19241.54
492.13	19733.06
492.30	19665.18
492.48	19941.36
492.66	19672.20
492.84	19899.23
493.01	20313.51
493.19	20130.95
493.37	20262.02
493.54	20456.28
493.72	20435.22
493.90	20507.77
494.08	20748.85
494.25	20809.70
494.43	21378.45
494.61	21291.85
494.79	21158.44
494.96	21200.57
495.14	21329.30
495.32	21425.26
495.49	21420.58
495.67	21748.26
495.85	22228.07
496.02	22033.80
496.20	22305.31
496.38	22361.48
496.55	22644.68
496.73	22637.66
496.91	22593.19
497.09	22721.92
497.26	22658.73
497.44	22651.70
497.62	23103.43
497.79	23513.02
497.97	23133.86
498.14	23241.52
498.32	23253.22
498.50	23480.25
498.67	23674.52
498.85	23805.59
499.03	23812.61
499.20	24126.24
499.38	24100.50
499.56	23974.11
499.73	24236.25
499.91	24219.86
500.08	24528.81
500.26	24364.98
500.44	24650.52
500.61	24779.25
500.79	24709.04
500.97	24680.95
501.14	25020.33
501.32	24926.71
501.49	24898.62
501.67	24863.51
501.84	25568.01
502.02	24966.49
502.20	25149.06
502.37	25809.09
502.55	25450.99
502.72	25869.94
502.90	25635.89
503.07	25764.62
503.25	26071.23
503.43	25582.06
503.60	26426.99
503.78	26150.81
503.95	26045.48
504.13	25947.18
504.30	26422.31
504.48	26228.04
504.65	26972.33
504.83	26838.92
505.01	26962.97
505.18	26948.93
505.36	27211.07
505.53	27007.44
505.71	27199.37
505.88	27615.98
506.06	27012.12
506.23	27117.45
506.41	27171.28
506.58	27363.20
506.76	27459.16
506.93	27901.53
507.11	27707.26
507.28	27498.95
507.46	27630.02
507.63	27730.67
507.81	27513.00
507.98	27845.35
508.16	28187.07
508.33	28091.11
508.50	28182.39
508.68	28168.35
508.85	28692.63
509.03	28512.41
509.20	28697.31
509.38	28851.78
509.55	28779.23
509.73	28655.18
509.90	28868.17
510.08	28709.01
510.25	28678.58
510.42	29008.60
510.60	29280.10
510.77	29301.17
510.95	29249.67
511.12	29612.46
511.30	29518.84
511.47	29530.54
511.64	29951.84
511.82	29745.87
511.99	29495.43
512.17	30127.38
512.34	29879.28
512.51	29769.27
512.69	30195.25
512.86	29982.26
513.04	30583.78
513.21	30398.88
513.38	30761.66
513.56	30174.19
513.73	30618.89
513.90	30682.08
514.08	30756.98
514.25	30986.35
514.43	30962.95
514.60	30752.30
514.77	30864.64
514.95	31597.23
515.12	31077.63
515.29	30932.52
515.47	31047.21
515.64	31901.50
515.81	31414.67
515.99	31583.19
516.16	31662.77
516.33	31660.43
516.51	31683.83
516.68	31187.64
516.85	31473.18
517.03	31740.00
517.20	31639.36
517.37	31709.58
517.54	31922.57
517.72	31751.71
517.89	31742.35
518.06	32247.90
518.24	32112.15
518.41	31906.18
518.58	32362.59
518.75	32205.77
518.93	32692.60
519.10	32694.94
519.27	32559.19
519.45	32594.30
519.62	32505.36
519.79	32809.63
519.96	33050.70
520.14	33141.99
520.31	32758.14
520.48	33357.32
520.65	32980.49
520.83	33127.94
521.00	33333.91
521.17	33329.23
521.34	33462.64
521.52	33874.57
521.69	33518.81
521.86	33472.00
522.03	33853.51
522.20	34120.33
522.38	34010.32
522.55	34417.58
522.72	34103.95
522.89	34092.24
523.07	34143.74
523.24	33764.57
523.41	34235.02
523.58	34338.00
523.75	34866.96
523.92	34483.11
524.10	34913.77
524.27	34616.52
524.44	34632.91
524.61	35196.98
524.78	35002.71
524.96	34962.92
525.13	35426.35
525.30	35260.17
525.47	35299.96
525.64	35292.94
525.81	35269.53
525.98	35021.44
526.16	34958.24
526.33	35086.97
526.50	35426.35
526.67	34859.94
526.84	35040.16
527.01	35241.45
527.18	35821.90
527.36	35676.79
527.53	35672.10
527.70	36102.76
527.87	35728.28
528.04	36053.61
528.21	35999.78
528.38	36062.97
528.55	36336.82
528.72	36348.52
528.89	36151.91
529.07	36198.73
529.24	35658.06
529.41	36282.98
529.58	36116.81
529.75	36627.04
529.92	36767.48
530.09	36629.38
530.26	36526.40
530.43	36367.24
530.60	36758.11
530.77	36833.01
530.94	36924.29
531.11	36769.82
531.28	36730.03
531.46	37371.33
531.63	36994.51
531.80	37123.24
531.97	37181.75
532.14	37579.64
532.31	36758.11
532.48	37560.92
532.65	37654.54
532.82	37219.20
532.99	37649.86
533.16	37170.05
533.33	37432.19
533.50	37488.36
533.67	37432.19
533.84	37537.51
534.01	37890.93
534.18	37904.98
534.35	38312.23
534.52	37825.40
534.69	37926.04
534.86	37937.74
535.03	38036.05
535.20	38181.16
535.37	38506.49
535.54	38457.34
535.71	38010.30
535.88	38232.65
536.05	38333.29
536.22	38328.61
536.38	38658.63
536.55	38206.90
536.72	38300.53
536.89	38209.25
537.06	38223.29
537.23	38553.30
537.40	38408.19
537.57	38349.68
537.74	38899.70
537.91	38960.56
538.08	38838.85
538.25	38345.00
538.42	39250.78
538.59	39093.97
538.75	38670.33
538.92	39009.71
539.09	38883.32
539.26	39098.65
539.43	38897.36
539.60	39419.30
539.77	38785.02
539.94	39157.16
540.11	39468.45
540.28	39112.69
540.44	38927.79
540.61	38993.32
540.78	39220.36
540.95	39112.69
541.12	39248.44
541.29	39725.91
541.46	39330.36
541.62	39388.88
541.79	39903.79
541.96	39042.48
542.13	39669.74
542.30	39395.90
542.47	39639.31
542.63	39667.40
542.80	40030.18
542.97	40189.34
543.14	40517.01
543.31	40570.85
543.48	40179.98
543.64	40755.75
543.81	40470.20
543.98	40294.66
544.15	40416.37
544.32	40566.16
544.48	40566.16
544.65	40727.66
544.82	40428.07
544.99	40753.41
545.16	40531.06
545.32	40926.61
545.49	40643.40
545.66	41069.38
545.83	40978.10
546.00	41041.29
546.16	41017.89
546.33	40722.98
546.50	40737.02
546.67	41144.28
546.83	40339.13
547.00	40816.60
547.17	40818.94
547.34	41060.02
547.50	41336.20
547.67	41027.25
547.84	41478.97
548.00	41160.66
548.17	41420.46
548.34	41322.16
548.51	41563.23
548.67	41762.18
548.84	41343.22
549.01	41385.35
549.18	41748.14
549.34	41551.53
549.51	41689.62
549.68	41743.45
549.84	41724.73
550.01	41736.43
550.18	41596.00
550.34	41581.96
550.51	41359.61
550.68	41366.63
550.84	41354.93
551.01	42127.30
551.18	42096.88
551.34	41862.82
551.51	42124.96
551.68	42424.55
551.84	42038.36
552.01	41827.71
552.18	42075.81
552.34	41778.56
552.51	42213.90
552.68	42103.90
552.84	42260.71
553.01	42909.04
553.18	42330.93
553.34	41965.81
553.51	42204.54
553.67	42522.85
553.84	42579.03
554.01	42518.17
554.17	42693.71
554.34	42438.59
554.51	42658.60
554.67	42359.02
554.84	42267.73
555.00	42546.26
555.17	42473.70
555.33	42600.09
555.50	42487.74
555.67	42586.05
555.83	42902.02
556.00	42976.92
556.16	43089.26
556.33	42988.62
556.50	42726.48
556.66	43196.93
556.83	42417.53
556.99	43033.09
557.16	42904.36
557.32	42852.87
557.49	42913.72
557.65	42506.47
557.82	42656.26
557.98	42621.16
558.15	43182.88
558.32	43086.92
558.48	43028.41
558.65	43047.13
558.81	42646.90
558.98	43208.63
559.14	43262.46
559.31	42806.06
559.47	43194.59
559.64	43833.55
559.80	43744.61
559.97	43262.46
560.13	43122.03
560.30	43152.46
560.46	43419.28
560.63	43456.73
560.79	43559.71
560.96	43903.77
561.12	43281.19
561.29	43316.29
561.45	43452.05
561.61	43098.62
561.78	43189.91
561.94	43400.55
562.11	43206.29
562.27	43115.01
562.44	43131.39
562.60	43590.14
562.77	43779.72
562.93	43700.14
563.10	43580.78
563.26	42986.28
563.42	43835.89
563.59	43814.83
563.75	43580.78
563.92	44055.90
564.08	43608.86
564.24	44196.34
564.41	43789.08
564.57	43498.86
564.74	43861.64
564.90	43679.08
565.07	43658.01
565.23	43545.67
565.39	43533.96
565.56	43910.79
565.72	43782.06
565.88	43941.22
566.05	43739.93
566.21	44182.29
566.38	43468.43
566.54	43562.05
566.70	44165.91
566.87	44264.21
567.03	43847.60
567.19	44112.08
567.36	44079.31
567.52	44074.63
567.68	43971.64
567.85	44027.82
568.01	44156.55
568.17	43608.86
568.34	44250.17
568.50	43814.83
568.66	43871.00
568.83	44507.63
568.99	43828.87
569.15	43971.64
569.32	43840.57
569.48	43742.27
569.64	44238.47
569.81	44219.74
569.97	44055.90
570.13	44154.21
570.30	43777.38
570.46	43873.34
570.62	43772.70
570.78	44018.46
570.95	43639.29
571.11	44208.04
571.27	44158.89
571.43	44355.49
571.60	44388.26
571.76	44409.32
571.92	44306.34
572.09	43765.68
572.25	44343.79
572.41	44170.59
572.57	44191.65
572.74	44561.46
572.90	44254.85
573.06	44177.61
573.22	44360.17
573.38	44348.47
573.55	44065.27
573.71	44423.37
573.87	44140.16
574.03	43835.89
574.20	44271.23
574.36	44051.22
574.52	44240.81
574.68	44514.65
574.84	44299.32
575.01	44341.45
575.17	44341.45
575.33	44107.40
575.49	44493.58
575.65	44725.30
575.82	44744.02
575.98	44486.56
576.14	44767.43
576.30	44652.74
576.46	44009.09
576.62	44147.18
576.79	43777.38
576.95	43796.10
577.11	43971.64
577.27	44477.20
577.43	44708.91
577.59	44463.16
577.75	44271.23
577.92	44149.53
578.08	43847.60
578.24	44107.40
578.40	44247.83
578.56	44095.69
578.72	43995.05
578.88	44664.44
579.04	44404.64
579.21	44741.68
579.37	44149.53
579.53	44268.89
579.69	44355.49
579.85	44669.12
580.01	44905.52
580.17	44502.95
580.33	44751.04
580.49	44776.79
580.65	44839.98
580.82	44638.70
580.98	44706.57
581.14	44278.25
581.30	44636.36
581.46	44753.38
581.62	44538.05
581.78	44507.63
581.94	44926.58
582.10	44570.82
582.26	44755.72
582.42	44533.37
582.58	44524.01
582.74	44194.00
582.90	44467.84
583.06	44978.07
583.22	44954.67
583.38	44816.58
583.54	45062.33
583.70	44481.88
583.86	44968.71
584.02	44327.41
584.18	44734.66
584.34	44907.86
584.50	44027.82
584.66	44215.06
584.82	44470.18
584.98	44678.49
585.14	44835.30
585.30	44376.56
585.46	44268.89
585.62	44589.55
585.78	44491.24
585.94	44247.83
586.10	44479.54
586.26	44428.05
586.42	44610.61
586.58	44325.07
586.74	44561.46
586.90	44453.79
587.06	44624.65
587.22	44940.63
587.38	44465.50
587.54	44699.55
587.70	44844.66
587.86	44678.49
588.02	45024.89
588.18	44931.26
588.34	44608.27
588.49	44360.17
588.65	44271.23
588.81	44313.36
588.97	44123.78
589.13	44729.98
589.29	44133.14
589.45	44502.95
589.61	45092.76
589.77	44744.02
589.93	44327.41
590.08	45139.57
590.24	44966.37
