SpectraSuite Data File
++++++++++++++++++++++++++++++++++++
Date: Fri Oct 25 11:25:36 EDT 2013
User: price-jones
Dark Spectrum Present: No
Reference Spectrum Present: No
Number of Sampled Component Spectra: 1
Spectrometers: USB2+H05261
Integration Time (usec): 100000 (USB2+H05261)
Spectra Averaged: 1 (USB2+H05261)
Boxcar Smoothing: 0 (USB2+H05261)
Correct for Electrical Dark: No (USB2+H05261)
Strobe/Lamp Enabled: No (USB2+H05261)
Correct for Detector Non-linearity: No (USB2+H05261)
Correct for Stray Light: No (USB2+H05261)
Number of Pixels in Processed Spectrum: 2048
>>>>>Begin Processed Spectral Data<<<<<
365.73	224.69
365.92	224.69
366.12	224.69
366.32	152.13
366.52	121.71
366.72	175.54
366.91	128.73
367.11	168.52
367.31	131.07
367.51	177.88
367.70	77.24
367.90	184.90
368.10	88.94
368.30	135.75
368.49	177.88
368.69	191.92
368.89	180.22
369.09	159.16
369.28	133.41
369.48	201.29
369.68	170.86
369.87	156.82
370.07	212.99
370.27	189.58
370.47	327.68
370.66	545.34
370.86	589.82
371.06	763.01
371.25	662.37
371.45	664.71
371.65	641.31
371.84	599.18
372.04	678.76
372.24	777.06
372.44	702.16
372.63	650.67
372.83	713.86
373.03	770.04
373.22	746.63
373.42	837.91
373.62	744.29
373.81	777.06
374.01	814.51
374.21	842.59
374.40	802.80
374.60	840.25
374.79	891.74
374.99	821.53
375.19	830.89
375.38	849.61
375.58	863.66
375.78	849.61
375.97	863.66
376.17	800.46
376.37	896.43
376.56	976.00
376.76	868.34
376.95	884.72
377.15	905.79
377.35	849.61
377.54	889.40
377.74	898.77
377.93	863.66
378.13	940.90
378.33	943.24
378.52	1036.86
378.72	973.66
378.91	936.21
379.11	910.47
379.31	994.73
379.50	947.92
379.70	999.41
379.89	1060.26
380.09	980.68
380.28	924.51
380.48	983.02
380.68	1018.13
380.87	1107.07
381.07	987.71
381.26	1022.81
381.46	1011.11
381.65	1109.41
381.85	1071.97
382.04	1050.90
382.24	1088.35
382.43	1060.26
382.63	1083.67
382.83	1095.37
383.02	1088.35
383.22	1100.05
383.41	1158.57
383.61	1181.97
383.80	1172.61
384.00	1088.35
384.19	1130.48
384.39	1132.82
384.58	1163.25
384.78	1172.61
384.97	1137.50
385.17	1151.54
385.36	1118.78
385.56	1235.80
385.75	1193.67
385.95	1139.84
386.14	1158.57
386.34	1074.31
386.53	1090.69
386.72	1231.12
386.92	1217.08
387.11	1301.34
387.31	1275.59
387.50	1165.59
387.70	1284.95
387.89	1296.66
388.09	1301.34
388.28	1245.16
388.48	1355.17
388.67	1287.29
388.86	1329.42
389.06	1369.21
389.25	1317.72
389.45	1371.55
389.64	1327.08
389.84	1348.15
390.03	1275.59
390.22	1427.73
390.42	1310.70
390.61	1345.81
390.81	1369.21
391.00	1409.00
391.19	1474.54
391.39	1366.87
391.58	1444.11
391.78	1486.24
391.97	1401.98
392.16	1519.01
392.36	1495.60
392.55	1530.71
392.75	1570.50
392.94	1554.12
393.13	1481.56
393.33	1474.54
393.52	1488.58
393.71	1715.61
393.91	1673.48
394.10	1600.93
394.29	1643.06
394.49	1710.93
394.68	1629.01
394.88	1523.69
395.07	1746.04
395.26	1652.42
395.46	1722.63
395.65	1696.89
395.84	1722.63
396.04	1741.36
396.23	1701.57
396.42	1811.57
396.62	1797.53
396.81	1818.60
397.00	1778.81
397.19	1736.68
397.39	1774.13
397.58	1809.23
397.77	1720.29
397.97	1877.11
398.16	1839.66
398.35	1895.83
398.55	1926.26
398.74	1959.03
398.93	1905.20
399.12	1916.90
399.32	1832.64
399.51	1930.94
399.70	1973.07
399.90	2036.27
400.09	2078.40
400.28	2160.31
400.47	2019.88
400.67	2094.78
400.86	2087.76
401.05	2221.17
401.24	2122.87
401.44	2057.33
401.63	2127.55
401.82	2141.59
402.01	2139.25
402.21	2083.08
402.40	2300.75
402.59	2155.63
402.78	2139.25
402.97	2125.21
403.17	2282.02
403.36	2356.92
403.55	2296.07
403.74	2267.98
403.93	2427.14
404.13	2455.22
404.32	2427.14
404.51	2366.28
404.70	2434.16
404.89	2321.81
405.09	2619.06
405.28	2438.84
405.47	2373.30
405.66	2366.28
405.85	2487.99
406.05	2403.73
406.24	2537.14
406.43	2637.78
406.62	2719.70
406.81	2567.57
407.00	2539.48
407.20	2609.70
407.39	2600.34
407.58	2677.57
407.77	2801.62
407.96	2670.55
408.15	2808.64
408.34	2782.90
408.54	2808.64
408.73	2768.85
408.92	2686.94
409.11	2979.50
409.30	2916.31
409.49	2864.82
409.68	2876.52
409.87	2843.75
410.07	2916.31
410.26	2902.26
410.45	3042.70
410.64	3023.97
410.83	3176.11
411.02	3211.22
411.21	3215.90
411.40	3056.74
411.59	3241.64
411.78	3246.32
411.98	3187.81
412.17	3304.84
412.36	3258.03
412.55	3311.86
412.74	3471.01
412.93	3372.71
413.12	3358.67
413.31	3639.53
413.50	3438.25
413.69	3566.98
413.88	3658.26
414.07	3639.53
414.26	3742.52
414.45	3644.21
414.64	3583.36
414.83	3801.03
415.02	3859.54
415.22	3817.41
415.41	3861.88
415.60	3943.80
415.79	3836.14
415.98	3896.99
416.17	3857.20
416.36	4018.70
416.55	4023.38
416.74	4159.13
416.93	3943.80
417.12	4098.28
417.31	4063.17
417.50	4257.43
417.69	4297.22
417.88	4182.54
418.07	4278.50
418.26	4297.22
418.45	4381.48
418.64	4351.06
418.83	4477.44
419.02	4416.59
419.21	4484.47
419.39	4521.92
419.58	4477.44
419.77	4430.63
419.96	4437.66
420.15	4624.90
420.34	4685.75
420.53	4578.09
420.72	4697.46
420.91	4533.62
421.10	4781.71
421.29	4863.63
421.48	4603.83
421.67	4599.15
421.86	4737.24
422.05	4702.14
422.24	4807.46
422.43	4770.01
422.61	4851.93
422.80	4858.95
422.99	5029.81
423.18	4936.19
423.37	4912.78
423.56	4931.51
423.75	4936.19
423.94	4681.07
424.13	4702.14
424.32	4716.18
424.50	4994.70
424.69	5071.94
424.88	5088.32
425.07	5011.09
425.26	4875.34
425.45	4873.00
425.64	4880.02
425.83	4975.98
426.01	4987.68
426.20	5085.98
426.39	5093.01
426.58	5116.41
426.77	4987.68
426.96	5015.77
427.15	5027.47
427.33	5179.61
427.52	5207.69
427.71	5345.78
427.90	5238.12
428.09	5359.83
428.28	5268.55
428.46	5334.08
428.65	5252.16
428.84	5628.99
429.03	5535.37
429.22	5357.49
429.40	5439.40
429.59	5474.51
429.78	5336.42
429.97	5256.84
430.16	5441.75
430.34	5563.45
430.53	5689.84
430.72	5666.44
430.91	5661.76
431.10	5607.92
431.28	5722.61
431.47	5636.01
431.66	5870.06
431.85	5778.78
432.03	5792.83
432.22	5921.56
432.41	5905.17
432.60	5951.98
432.79	5804.53
432.97	5954.32
433.16	5886.45
433.35	5930.92
433.54	5975.39
433.72	6104.12
433.91	6069.01
434.10	6101.78
434.28	5959.00
434.47	6193.06
434.66	6181.35
434.85	6211.78
435.03	6394.34
435.22	6326.47
435.41	6520.73
435.59	6221.14
435.78	6384.98
435.97	6396.68
436.16	6340.51
436.34	6366.26
436.53	6445.84
436.72	6576.91
436.90	6394.34
437.09	6668.19
437.28	6473.92
437.46	6424.77
437.65	6572.22
437.84	6815.64
438.02	6806.28
438.21	6712.66
438.40	6813.30
438.58	7040.33
438.77	6927.99
438.96	6881.18
439.14	7054.37
439.33	7021.61
439.52	7360.98
439.70	7119.91
439.89	7258.00
440.08	7218.21
440.26	7344.60
440.45	7335.24
440.63	7300.13
440.82	7740.15
441.01	7470.99
441.19	7611.42
441.38	7639.51
441.57	7726.11
441.75	7735.47
441.94	7960.16
442.12	7819.73
442.31	8079.53
442.50	7861.86
442.68	7976.55
442.87	7889.95
443.05	8084.21
443.24	8147.40
443.43	8140.38
443.61	8210.60
443.80	8451.67
443.98	8046.76
444.17	7836.11
444.35	8264.43
444.54	8294.86
444.73	8201.24
444.91	8170.81
445.10	8332.31
445.28	8287.84
445.47	8095.91
445.65	8344.01
445.84	8299.54
446.02	8652.96
446.21	8355.71
446.39	8107.62
446.58	8379.12
446.77	8351.03
446.95	8271.45
447.14	8428.27
447.32	8629.56
447.51	8444.65
447.69	8521.89
447.88	8465.72
448.06	8524.23
448.25	8552.32
448.43	8606.15
448.62	8547.64
448.80	8421.25
448.99	8587.43
449.17	8760.63
449.36	8594.45
449.54	8774.67
449.73	8861.27
449.91	8781.69
450.10	8887.01
450.28	8999.36
450.46	8980.64
450.65	9130.43
450.83	9083.62
451.02	9025.11
451.20	9273.20
451.39	9378.53
451.57	9142.13
451.76	8908.08
451.94	9142.13
452.13	9100.00
452.31	9177.24
452.49	9179.58
452.68	9355.12
452.86	9355.12
453.05	9441.72
453.23	9336.40
453.42	9525.98
453.60	9364.48
453.78	9509.60
453.97	9423.00
454.15	9479.17
454.34	9408.95
454.52	9621.94
454.70	9568.11
454.89	9755.35
455.07	9696.84
455.26	9736.63
455.44	9741.31
455.62	9781.10
455.81	9844.29
455.99	10097.07
456.17	10010.47
456.36	9984.73
456.54	10146.22
456.73	10188.35
456.91	10558.16
457.09	10377.94
457.28	10487.94
457.46	10286.65
457.64	10501.98
457.83	10436.45
458.01	10408.36
458.19	10743.06
458.38	10548.79
458.56	10635.39
458.74	10707.95
458.93	10499.64
459.11	10778.17
459.29	10630.71
459.48	10768.80
459.66	10759.44
459.84	10801.57
460.03	11091.80
460.21	10944.34
460.39	10930.30
460.57	10958.39
460.76	11260.32
460.94	11295.43
461.12	11286.06
461.31	11192.44
461.49	11215.85
461.67	10906.90
461.85	11428.84
462.04	11199.46
462.22	11768.21
462.40	11552.88
462.59	11382.03
462.77	11524.80
462.95	11421.81
463.13	11683.95
463.32	11552.88
463.50	11749.49
463.68	11800.98
463.86	11763.53
464.05	11728.42
464.23	11761.19
464.41	11772.89
464.59	11730.76
464.78	11864.18
464.96	12131.00
465.14	11758.85
465.32	11971.84
465.50	12032.69
465.69	12231.64
465.87	11997.59
466.05	12046.74
466.23	11873.54
466.41	12138.02
466.60	12409.52
466.78	12105.25
466.96	12135.68
467.14	12182.49
467.32	12400.16
467.51	12514.84
467.69	12269.09
467.87	12442.29
468.05	12414.20
468.23	12308.88
468.41	12449.31
468.60	12615.49
468.78	12819.11
468.96	12451.65
469.14	12908.05
469.32	12779.32
469.50	12613.15
469.69	12805.07
469.87	12978.27
470.05	12964.23
470.23	13298.92
470.41	13191.26
470.59	13371.48
470.77	13301.26
470.95	13397.23
471.14	13596.17
471.32	13184.24
471.50	13841.93
471.68	13715.54
471.86	13682.77
472.04	13586.81
472.22	13942.57
472.40	13441.70
472.58	13907.46
472.77	13912.14
472.95	14148.54
473.13	14593.24
473.31	14136.84
473.49	14174.28
473.67	13937.89
473.85	14370.89
474.03	14714.95
474.21	14389.61
474.39	14518.34
474.57	14581.54
474.75	14934.96
474.93	14780.48
475.12	14911.55
475.30	14621.33
475.48	14815.59
475.66	15108.16
475.84	15185.40
476.02	15243.91
476.20	15269.66
476.38	15534.14
476.56	15817.34
476.74	16002.24
476.92	15763.51
477.10	15822.02
477.28	16067.78
477.46	15948.41
477.64	16224.59
477.82	16748.87
478.00	17029.74
478.18	17139.74
478.36	17046.12
478.54	17317.62
478.72	17294.22
478.90	17404.22
479.08	17441.67
479.26	17359.75
479.44	17837.22
479.62	17792.75
479.80	18073.62
479.98	17666.36
480.16	18537.04
480.34	18057.23
480.52	18515.98
480.70	18747.69
480.88	18523.00
481.06	18822.59
481.24	18675.13
481.41	19255.59
481.59	19381.98
481.77	19557.52
481.95	19587.94
482.13	19669.86
482.31	19658.16
482.49	20262.02
482.67	20013.92
482.85	20430.54
483.03	20779.28
483.21	20439.90
483.39	20734.81
483.57	21020.35
483.74	21022.69
483.92	21294.19
484.10	21373.77
484.28	22054.87
484.46	21865.28
484.64	22195.30
484.82	22059.55
485.00	22230.41
485.18	22530.00
485.35	22932.57
485.53	22967.68
485.71	23293.01
485.89	23297.69
486.07	23164.28
486.25	23288.33
486.43	23447.49
486.61	23468.55
486.78	24170.71
486.96	23824.31
487.14	24236.25
487.32	24503.07
487.50	24739.46
487.68	24868.19
487.85	25453.33
488.03	25340.98
488.21	25357.36
488.39	25682.70
488.57	25907.39
488.75	26228.04
488.92	26520.61
489.10	26745.30
489.28	26625.93
489.46	26984.04
489.64	26792.11
489.81	27538.74
489.99	27351.50
490.17	27653.43
490.35	27892.16
490.53	27978.76
490.70	28283.03
490.88	27969.40
491.06	28936.04
491.24	28950.09
491.41	28816.68
491.59	28943.06
491.77	29177.12
491.95	29736.51
492.13	29825.45
492.30	29797.36
492.48	29729.48
492.66	29888.64
492.84	30466.75
493.01	30937.20
493.19	30829.54
493.37	30944.22
493.54	31208.70
493.72	31735.32
493.90	31845.33
494.08	31374.88
494.25	31878.10
494.43	31807.88
494.61	32238.54
494.79	32306.41
494.96	32418.76
495.14	32823.67
495.32	32783.88
495.49	32849.42
495.67	33230.93
495.85	33493.07
496.02	33687.33
496.20	33818.40
496.38	33785.63
496.55	34050.11
496.73	34991.01
496.91	34604.82
497.09	34834.19
497.26	35154.85
497.44	34923.13
497.62	35079.95
497.79	35653.38
497.97	35168.89
498.14	35620.61
498.32	35974.03
498.50	35849.99
498.67	36336.82
498.85	36533.42
499.03	36528.74
499.20	36755.77
499.38	36769.82
499.56	36947.70
499.73	37118.56
499.91	37390.06
500.08	37933.06
500.26	37060.04
500.44	37511.77
500.61	37624.11
500.79	37933.06
500.97	38087.54
501.14	38225.63
501.32	38888.00
501.49	38337.98
501.67	38267.76
501.84	38941.83
502.02	39056.52
502.20	39152.48
502.37	39119.71
502.55	39115.03
502.72	39374.83
502.90	39433.35
503.07	39494.20
503.25	39608.89
503.43	39828.90
503.60	40032.52
503.78	40149.55
503.95	40158.91
504.13	40350.84
504.30	40643.40
504.48	40201.04
504.65	40343.81
504.83	40856.39
505.01	41380.67
505.18	41404.08
505.36	41509.40
505.53	40732.34
505.71	41254.28
505.88	41801.97
506.06	41291.73
506.23	42117.94
506.41	41680.26
506.58	41717.71
506.76	41930.70
506.93	42190.50
507.11	42258.37
507.28	42611.79
507.46	42487.74
507.63	42902.02
507.81	43007.34
507.98	42909.04
508.16	43082.24
508.33	43206.29
508.50	43508.22
508.68	43845.26
508.85	43643.97
509.03	43325.66
509.20	44048.88
509.38	44734.66
509.55	44336.77
509.73	44444.43
509.90	44184.63
510.08	44238.47
510.25	44341.45
510.42	44268.89
510.60	44966.37
510.77	45024.89
510.95	45387.67
511.12	44917.22
511.30	44811.90
511.47	45275.32
511.64	44945.31
511.82	45265.96
511.99	45881.52
512.17	45897.91
512.34	45989.19
512.51	45785.56
512.69	46588.36
512.86	46536.87
513.04	46623.47
513.21	46373.03
513.38	46429.21
513.56	46576.66
513.73	46335.59
513.90	46892.63
514.08	46759.22
514.25	47192.22
514.43	47224.99
514.60	47180.52
514.77	47023.70
514.95	47709.48
515.12	47470.75
515.29	47285.84
515.47	47674.37
515.64	48100.35
515.81	47793.74
515.99	48067.58
516.16	48570.80
516.33	48114.39
516.51	48247.80
516.68	48435.05
516.85	48900.81
517.03	48479.52
517.20	48596.54
517.37	48397.60
517.54	48762.72
517.72	48741.66
517.89	49308.07
518.06	49050.61
518.24	48940.60
518.41	49418.07
518.58	49078.69
518.75	49153.59
518.93	49319.77
519.10	49443.82
519.27	49460.20
519.45	49588.93
519.62	49804.26
519.79	49745.75
519.96	49584.25
520.14	49937.67
520.31	49876.82
520.48	50162.36
520.65	50497.06
520.83	50518.12
521.00	50279.39
521.17	50452.59
521.34	50471.31
521.52	50628.13
521.69	50630.47
521.86	51089.21
522.03	51316.25
522.20	50897.29
522.38	51253.05
522.55	51042.40
522.72	51386.46
522.89	51288.16
523.07	51632.22
523.24	51470.72
523.41	51381.78
523.58	51334.97
523.75	51604.13
523.92	51562.00
524.10	51784.35
524.27	51770.31
524.44	51655.62
524.61	52074.58
524.78	52020.75
524.96	52179.90
525.13	52357.78
525.30	52341.40
525.47	52385.87
525.64	52245.44
525.81	52453.75
525.98	52582.48
526.16	52200.97
526.33	52680.78
526.50	52591.84
526.67	52334.38
526.84	53006.11
527.01	52720.57
527.18	52891.43
527.36	52694.82
527.53	53069.31
527.70	53310.38
527.87	53598.27
528.04	53183.99
528.21	53202.72
528.38	53308.04
528.55	53691.89
528.72	53153.57
528.89	53581.88
529.07	53088.03
529.24	53226.12
529.41	53717.64
529.58	53696.57
529.75	53584.22
529.92	53598.27
530.09	53932.96
530.26	54017.22
530.43	54082.76
530.60	53764.45
530.77	53872.11
530.94	54012.54
531.11	54035.95
531.28	53928.28
531.46	53778.49
531.63	54253.62
531.80	54419.80
531.97	54401.07
532.14	54255.96
532.31	54370.64
532.48	54499.37
532.65	54677.25
532.82	54419.80
532.99	54520.44
533.16	54637.47
533.33	54761.51
533.50	54651.51
533.67	54897.27
533.84	54710.02
534.01	54780.24
534.18	54768.54
534.35	55173.45
534.52	54993.23
534.69	54878.54
534.86	55075.15
535.03	55105.57
535.20	55316.22
535.37	55154.72
535.54	55199.19
535.71	55407.50
535.88	55384.10
536.05	55341.97
536.22	55533.89
536.38	55704.75
536.55	55536.23
536.72	55545.59
536.89	55416.86
537.06	55206.22
537.23	55547.93
537.40	55435.59
537.57	55739.86
537.74	55442.61
537.91	55931.78
538.08	55536.23
538.25	55620.49
538.42	55978.59
538.59	56025.40
538.75	55683.69
538.92	55943.48
539.09	56093.28
539.26	56041.79
539.43	55859.23
539.60	56149.45
539.77	55978.59
539.94	56313.29
540.11	56184.56
540.28	56236.05
540.44	56168.18
540.61	56418.61
540.78	56378.82
540.95	56537.98
541.12	56399.89
541.29	56559.05
541.46	56470.11
541.62	56537.98
541.79	56629.26
541.96	56254.78
542.13	56617.56
542.30	56521.60
542.47	56835.23
542.63	56512.23
542.80	56856.29
542.97	57139.50
543.14	57027.15
543.31	57029.49
543.48	57333.76
543.64	57247.16
543.81	57382.91
543.98	57116.09
544.15	57069.28
544.32	57406.32
544.48	57427.38
544.65	57298.65
544.82	57411.00
544.99	57270.57
545.16	57532.71
545.32	57485.90
545.49	57691.86
545.66	57607.61
545.83	57612.29
546.00	57609.95
546.16	57546.75
546.33	57434.41
546.50	57378.23
546.67	57722.29
546.83	57546.75
547.00	57563.14
547.17	57528.03
547.34	57773.78
547.50	58005.50
547.67	57975.07
547.84	57705.91
548.00	58099.12
548.17	58159.97
548.34	58031.24
548.51	58073.37
548.67	58199.76
548.84	58017.20
549.01	57961.03
549.18	58305.09
549.34	58246.57
549.51	58284.02
549.68	58328.49
549.84	58183.38
550.01	58447.86
550.18	58347.21
550.34	58475.94
550.51	58447.86
550.68	58333.17
550.84	58258.27
551.01	58562.54
551.18	58265.30
551.34	58539.14
551.51	58396.37
551.68	58312.11
551.84	58316.79
552.01	58382.32
552.18	58745.11
552.34	58323.81
552.51	58761.49
552.68	58398.71
552.84	58625.74
553.01	58775.53
553.18	58726.38
553.34	58911.28
553.51	58588.29
553.67	58841.07
553.84	58768.51
554.01	58831.71
554.17	58944.05
554.34	58993.20
554.51	58829.37
554.67	59051.72
554.84	58866.81
555.00	58941.71
555.17	58972.14
555.33	58705.32
555.50	58880.86
555.67	58817.66
555.83	59035.33
556.00	58967.46
556.16	59313.86
556.33	59133.63
556.50	59009.59
556.66	59206.19
556.83	59077.46
556.99	59365.35
557.16	59487.06
557.32	59388.75
557.49	59611.10
557.65	59124.27
557.82	59391.09
557.98	59363.01
558.15	59458.97
558.32	59409.82
558.48	59402.80
558.65	59346.62
558.81	59484.72
558.98	59503.44
559.14	59405.14
559.31	59510.46
559.47	59501.10
559.64	59725.79
559.80	59636.85
559.97	59700.04
560.13	59559.61
560.30	59639.19
560.46	59587.70
560.63	59676.64
560.79	59721.11
560.96	59901.33
561.12	59760.90
561.29	59709.41
561.45	59931.76
561.61	59730.47
561.78	59746.86
561.94	59807.71
562.11	59615.79
562.27	59641.53
562.44	60111.98
562.60	59915.37
562.77	60102.62
562.93	59767.92
563.10	60214.96
563.26	59770.26
563.42	60046.44
563.59	59831.11
563.75	59934.10
563.92	59894.31
564.08	60076.87
564.24	60023.04
564.41	60102.62
564.57	60016.02
564.74	60154.11
564.90	59994.95
565.07	60046.44
565.23	60135.38
565.39	59835.80
565.56	60081.55
565.72	60093.25
565.88	60018.36
566.05	60175.17
566.21	60083.89
566.38	60226.66
566.54	60404.55
566.70	60252.41
566.87	60336.67
567.03	60076.87
567.19	60257.09
567.36	60280.50
567.52	60383.48
567.68	60561.36
567.85	60364.76
568.01	60406.89
568.17	60051.12
568.34	60212.62
568.50	60306.24
568.66	60177.51
568.83	60210.28
568.99	60266.45
569.15	60224.32
569.32	60207.94
569.48	60205.60
569.64	60399.86
569.81	60488.80
569.97	60245.39
570.13	60659.66
570.30	60439.65
570.46	60530.93
570.62	60430.29
570.78	60449.02
570.95	60500.51
571.11	60369.44
571.27	60425.61
571.43	60388.16
571.60	60568.38
571.76	60418.59
571.92	60530.93
572.09	60615.19
572.25	60507.53
572.41	60470.08
572.57	60556.68
572.74	60669.03
572.90	60718.18
573.06	60549.66
573.22	60456.04
573.38	60392.84
573.55	60486.46
573.71	60781.37
573.87	60537.96
574.03	60451.36
574.20	60610.51
574.36	60605.83
574.52	60701.79
574.68	60603.49
574.84	60755.63
575.01	60917.12
575.17	60584.77
575.33	60624.56
575.49	60559.02
575.65	60657.32
575.82	60697.11
575.98	60867.97
576.14	60882.02
576.30	60903.08
576.46	60486.46
576.62	60685.41
576.79	60568.38
576.95	60544.98
577.11	60699.45
577.27	60886.70
577.43	60825.84
577.59	60617.53
577.75	60821.16
577.92	60519.23
578.08	60683.07
578.24	60734.56
578.40	61066.92
578.56	60886.70
578.72	60654.98
578.88	60781.37
579.04	60980.32
579.21	60612.85
579.37	60989.68
579.53	60851.59
579.69	60800.10
579.85	60608.17
580.01	60715.84
580.17	60561.36
580.33	60860.95
580.49	60750.94
580.65	60772.01
580.82	60748.60
580.98	60889.04
581.14	60807.12
581.30	61097.34
581.46	60788.39
581.62	60800.10
581.78	60727.54
581.94	60886.70
582.10	60893.72
582.26	60725.20
582.42	60844.57
582.58	60699.45
582.74	60832.86
582.90	60748.60
583.06	60851.59
583.22	60720.52
583.38	60776.69
583.54	60919.46
583.70	60856.27
583.86	60889.04
584.02	60713.50
584.18	61027.13
584.34	60968.61
584.50	60853.93
584.66	60912.44
584.82	60699.45
584.98	61010.74
585.14	60858.61
585.30	60755.63
585.46	60844.57
585.62	60734.56
585.78	61066.92
585.94	60687.75
586.10	60996.70
586.26	61132.45
586.42	61183.94
586.58	60994.36
586.74	60924.14
586.90	60938.19
587.06	61013.08
587.22	61130.11
587.38	60947.55
587.54	61059.90
587.70	61176.92
587.86	61190.97
588.02	61041.17
588.18	61233.10
588.34	61052.87
588.49	61036.49
