SpectraSuite Data File
++++++++++++++++++++++++++++++++++++
Date: Fri Oct 25 10:44:12 EDT 2013
User: price-jones
Dark Spectrum Present: No
Reference Spectrum Present: No
Number of Sampled Component Spectra: 1
Spectrometers: USB2+H05261
Integration Time (usec): 100000 (USB2+H05261)
Spectra Averaged: 1 (USB2+H05261)
Boxcar Smoothing: 0 (USB2+H05261)
Correct for Electrical Dark: No (USB2+H05261)
Strobe/Lamp Enabled: No (USB2+H05261)
Correct for Detector Non-linearity: No (USB2+H05261)
Correct for Stray Light: No (USB2+H05261)
Number of Pixels in Processed Spectrum: 2048
>>>>>Begin Processed Spectral Data<<<<<
365.73	119.37
365.92	119.37
366.12	119.37
366.32	77.24
366.52	91.28
366.72	81.92
366.91	11.70
367.11	0.00
367.31	37.45
367.51	7.02
367.70	0.00
367.90	0.00
368.10	0.00
368.30	72.56
368.49	56.17
368.69	46.81
368.89	7.02
369.09	42.13
369.28	51.49
369.48	70.22
369.68	95.96
369.87	58.51
370.07	49.15
370.27	114.69
370.47	175.54
370.66	437.68
370.86	411.93
371.06	449.38
371.25	526.62
371.45	435.34
371.65	423.64
371.84	428.32
372.04	482.15
372.24	484.49
372.44	550.03
372.63	503.22
372.83	496.19
373.03	606.20
373.22	472.79
373.42	477.47
373.62	512.58
373.81	500.87
374.01	521.94
374.21	554.71
374.40	531.30
374.60	587.47
374.79	592.16
374.99	533.64
375.19	496.19
375.38	589.82
375.58	620.24
375.78	617.90
375.97	643.65
376.17	610.88
376.37	664.71
376.56	617.90
376.76	575.77
376.95	559.39
377.15	601.52
377.35	645.99
377.54	582.79
377.74	594.50
377.93	669.39
378.13	620.24
378.33	608.54
378.52	636.63
378.72	671.73
378.91	723.23
379.11	601.52
379.31	594.50
379.50	615.56
379.70	662.37
379.89	760.67
380.09	758.33
380.28	669.39
380.48	741.95
380.68	697.48
380.87	704.50
381.07	669.39
381.26	741.95
381.46	741.95
381.65	763.01
381.85	751.31
382.04	751.31
382.24	767.70
382.43	716.20
382.63	704.50
382.83	711.52
383.02	755.99
383.22	772.38
383.41	751.31
383.61	678.76
383.80	753.65
384.00	760.67
384.19	809.83
384.39	861.32
384.58	826.21
384.78	763.01
384.97	779.40
385.17	837.91
385.36	739.61
385.56	765.36
385.75	774.72
385.95	737.27
386.14	936.21
386.34	940.90
386.53	880.04
386.72	875.36
386.92	807.48
387.11	844.93
387.31	889.40
387.50	828.55
387.70	894.08
387.89	779.40
388.09	870.68
388.28	842.59
388.48	882.38
388.67	1011.11
388.86	898.77
389.06	971.32
389.25	1025.15
389.45	945.58
389.64	1006.43
389.84	1064.94
390.03	968.98
390.22	1001.75
390.42	938.55
390.61	1011.11
390.81	1039.20
391.00	1057.92
391.19	1062.60
391.39	976.00
391.58	1027.50
391.78	1057.92
391.97	1095.37
392.16	961.96
392.36	1034.52
392.55	1078.99
392.75	1001.75
392.94	1013.45
393.13	1008.77
393.33	950.26
393.52	1011.11
393.71	1135.16
393.91	1069.62
394.10	1067.28
394.29	1086.01
394.49	1128.14
394.68	1212.40
394.88	1210.06
395.07	1313.04
395.26	1291.98
395.46	1174.95
395.65	1254.53
395.84	1214.74
396.04	1259.21
396.23	1121.12
396.42	1181.97
396.62	1174.95
396.81	1200.69
397.00	1205.38
397.19	1252.19
397.39	1273.25
397.58	1306.02
397.77	1359.85
397.97	1404.32
398.16	1423.05
398.35	1397.30
398.55	1465.18
398.74	1507.30
398.93	1554.12
399.12	1453.47
399.32	1488.58
399.51	1409.00
399.70	1490.92
399.90	1472.20
400.09	1593.90
400.28	1696.89
400.47	1586.88
400.67	1755.40
400.86	1715.61
401.05	1652.42
401.24	1645.40
401.44	1600.93
401.63	1739.02
401.82	1629.01
402.01	1708.59
402.21	1750.72
402.40	1778.81
402.59	1734.34
402.78	1757.74
402.97	1797.53
403.17	1774.13
403.36	1792.85
403.55	1877.11
403.74	1877.11
403.93	1914.56
404.13	1879.45
404.32	1877.11
404.51	1849.02
404.70	1790.51
404.89	1893.49
405.09	1942.64
405.28	1968.39
405.47	1888.81
405.66	1994.14
405.85	1949.67
406.05	1905.20
406.24	2017.54
406.43	2040.95
406.62	2052.65
406.81	2094.78
407.00	1961.37
407.20	1998.82
407.39	2148.61
407.58	2132.23
407.77	2183.72
407.96	2127.55
408.15	2211.81
408.34	2209.47
408.54	2216.49
408.73	2277.34
408.92	2230.53
409.11	2267.98
409.30	2200.10
409.49	2438.84
409.68	2406.07
409.87	2312.45
410.07	2326.49
410.26	2399.05
410.45	2373.30
410.64	2401.39
410.83	2502.03
411.02	2452.88
411.21	2572.25
411.40	2476.29
411.59	2574.59
411.78	2574.59
411.98	2539.48
412.17	2558.21
412.36	2670.55
412.55	2675.23
412.74	2731.41
412.93	2686.94
413.12	2796.94
413.31	2855.45
413.50	2752.47
413.69	2848.43
413.88	2925.67
414.07	2958.44
414.26	3000.57
414.45	2904.60
414.64	3000.57
414.83	3035.67
415.02	3038.02
415.22	3075.46
415.41	2953.76
415.60	3068.44
415.79	3073.12
415.98	3262.71
416.17	3101.21
416.36	3124.62
416.55	3281.43
416.74	3213.56
416.93	3192.49
417.12	3129.30
417.31	3428.88
417.50	3342.28
417.69	3459.31
417.88	3405.48
418.07	3515.48
418.26	3241.64
418.45	3419.52
418.64	3569.32
418.83	3494.42
419.02	3538.89
419.21	3566.98
419.39	3576.34
419.58	3637.19
419.77	3440.59
419.96	3613.79
420.15	3489.74
420.34	3791.67
420.53	3686.34
420.72	3669.96
420.91	3740.18
421.10	3765.92
421.29	3850.18
421.48	3618.47
421.67	3740.18
421.86	3782.31
422.05	3866.56
422.24	3651.24
422.43	3665.28
422.61	3768.26
422.80	3836.14
422.99	4009.34
423.18	4016.36
423.37	3904.01
423.56	3794.01
423.75	3868.91
423.94	3812.73
424.13	3658.26
424.32	3796.35
424.50	3838.48
424.69	3920.40
424.88	4049.13
425.07	3901.67
425.26	3798.69
425.45	3934.44
425.64	3927.42
425.83	3908.69
426.01	3960.19
426.20	3997.64
426.39	4007.00
426.58	3950.82
426.77	4016.36
426.96	3955.51
427.15	4002.32
427.33	4119.34
427.52	3995.29
427.71	4173.18
427.90	4205.94
428.09	4121.68
428.28	4208.28
428.46	4163.81
428.65	4154.45
428.84	4315.95
429.03	4365.10
429.22	4112.32
429.40	4156.79
429.59	4035.08
429.78	4032.74
429.97	3840.82
430.16	4074.87
430.34	4002.32
430.53	4121.68
430.72	4086.58
430.91	4194.24
431.10	4346.37
431.28	4493.83
431.47	4622.56
431.66	4655.33
431.85	4421.27
432.03	4561.70
432.22	4781.71
432.41	4533.62
432.60	4716.18
432.79	4636.60
432.97	4772.35
433.16	4758.31
433.35	4652.98
433.54	4561.70
433.72	4655.33
433.91	4676.39
434.10	4748.95
434.28	4744.27
434.47	4688.09
434.66	4765.33
434.85	5085.98
435.03	4912.78
435.22	4877.68
435.41	4980.66
435.59	5067.26
435.78	4978.32
435.97	5025.13
436.16	5081.30
436.34	4950.23
436.53	5121.09
436.72	5123.43
436.90	5125.77
437.09	5083.64
437.28	5064.92
437.46	5121.09
437.65	5195.99
437.84	5238.12
438.02	5095.35
438.21	5137.48
438.40	5142.16
438.58	5497.92
438.77	5453.45
438.96	5427.70
439.14	5493.24
439.33	5614.95
439.52	5563.45
439.70	5596.22
439.89	5689.84
440.08	5624.31
440.26	5502.60
440.45	5820.91
440.63	5867.72
440.82	5893.47
441.01	5935.60
441.19	5870.06
441.38	6036.24
441.57	6087.73
441.75	6097.10
441.94	6253.91
442.12	6214.12
442.31	6289.02
442.50	6263.27
442.68	6366.26
442.87	6314.77
443.05	6253.91
443.24	6424.77
443.43	6363.92
443.61	6628.40
443.80	6616.69
443.98	6321.79
444.17	6190.72
444.35	6686.91
444.54	6593.29
444.73	6579.25
444.91	6600.31
445.10	6532.44
445.28	6422.43
445.47	6424.77
445.65	6286.68
445.84	6333.49
446.02	6354.55
446.21	6506.69
446.39	6609.67
446.58	6562.86
446.77	6546.48
446.95	6562.86
447.14	6775.85
447.32	6731.38
447.51	6516.05
447.69	6691.59
447.88	6462.22
448.06	6642.44
448.25	6717.34
448.43	6785.21
448.62	6633.08
448.80	6658.82
448.99	6822.66
449.17	6768.83
449.36	6803.94
449.54	6867.13
449.73	6923.30
449.91	7054.37
450.10	6998.20
450.28	7241.62
450.46	7302.47
450.65	7133.95
450.83	7353.96
451.02	7138.63
451.20	7344.60
451.39	7325.88
451.57	7096.50
451.76	7211.19
451.94	7194.81
452.13	7206.51
452.31	7136.29
452.49	7066.08
452.68	7199.49
452.86	7096.50
453.05	7187.79
453.23	7314.17
453.42	7424.18
453.60	7513.12
453.78	7445.24
453.97	7389.07
454.15	7325.88
454.34	7480.35
454.52	7375.03
454.70	7452.27
454.89	7482.69
455.07	7431.20
455.26	7510.78
455.44	7676.96
455.62	7960.16
455.81	7709.72
455.99	7749.51
456.17	7775.26
456.36	7901.65
456.54	7808.03
456.73	7885.26
456.91	8210.60
457.09	8051.44
457.28	8098.25
457.46	7990.59
457.64	8315.92
457.83	8102.93
458.01	7864.20
458.19	8170.81
458.38	8131.02
458.56	8327.63
458.74	8210.60
458.93	8159.11
459.11	8159.11
459.29	8243.37
459.48	8311.24
459.66	8051.44
459.84	8332.31
460.03	8512.53
460.21	8547.64
460.39	8446.99
460.57	8482.10
460.76	8545.30
460.94	8578.06
461.12	8664.66
461.31	8580.40
461.49	8634.24
461.67	8505.51
461.85	8805.10
462.04	8767.65
462.22	9057.87
462.40	8975.95
462.59	8814.46
462.77	8777.01
462.95	8833.18
463.13	8891.70
463.32	8791.05
463.50	8990.00
463.68	9006.38
463.86	8898.72
464.05	8985.32
464.23	8732.54
464.41	8992.34
464.59	8872.97
464.78	9357.46
464.96	8964.25
465.14	9114.05
465.32	9224.05
465.50	9329.38
465.69	9228.73
465.87	9200.65
466.05	9287.25
466.23	9041.49
466.41	9174.90
466.60	9200.65
466.78	8961.91
466.96	9104.68
467.14	9188.94
467.32	9137.45
467.51	9462.79
467.69	9102.34
467.87	9392.57
468.05	9540.02
468.23	9383.21
468.41	9380.87
468.60	9497.89
468.78	9713.22
468.96	9530.66
469.14	9710.88
469.32	9643.01
469.50	9551.73
469.69	9689.82
469.87	10036.22
470.05	9678.12
470.23	9643.01
470.41	9767.06
470.59	9846.63
470.77	9596.20
470.95	9830.25
471.14	10115.80
471.32	9914.51
471.50	10029.20
471.68	10251.55
471.86	10146.22
472.04	10370.91
472.22	10649.44
472.40	10307.72
472.58	10480.92
472.77	10387.30
472.95	10626.03
473.13	10799.23
473.31	10462.19
473.49	10476.24
473.67	10583.90
473.85	10494.96
474.03	10906.90
474.21	10874.13
474.39	10984.13
474.57	10991.16
474.75	11061.37
474.93	11091.80
475.12	11194.78
475.30	11136.27
475.48	11056.69
475.66	11243.93
475.84	11412.45
476.02	11372.66
476.20	11431.18
476.38	11723.74
476.56	11808.00
476.74	11957.80
476.92	11679.27
477.10	11793.96
477.28	11903.96
477.46	11779.92
477.64	11981.20
477.82	12341.64
478.00	12606.13
478.18	12346.33
478.36	12521.87
478.54	12610.81
478.72	12664.64
478.90	12798.05
479.08	13034.44
479.26	13156.15
479.44	13226.37
479.62	13125.72
479.80	13233.39
479.98	13291.90
480.16	13804.48
480.34	13415.95
480.52	13806.82
480.70	13530.64
480.88	13542.34
481.06	13731.92
481.24	13755.33
481.41	14176.62
481.59	14338.12
481.77	14410.68
481.95	14209.39
482.13	14712.61
482.31	14506.64
482.49	14778.14
482.67	14743.03
482.85	14958.36
483.03	15332.85
483.21	15407.75
483.39	15412.43
483.57	15339.87
483.74	15510.73
483.92	15658.18
484.10	15587.97
484.28	15903.94
484.46	16100.55
484.64	16184.80
484.82	15667.55
485.00	16210.55
485.18	16304.17
485.35	16346.30
485.53	16292.47
485.71	16128.63
485.89	16535.88
486.07	16404.81
486.25	16596.74
486.43	16901.01
486.61	17291.88
486.78	17198.26
486.96	17240.39
487.14	17804.46
487.32	17544.66
487.50	17940.21
487.68	18097.02
487.85	18394.27
488.03	18324.05
488.21	18520.66
488.39	18452.78
488.57	18684.50
488.75	18845.99
488.92	18991.11
489.10	19239.20
489.28	19304.74
489.46	19447.51
489.64	19726.04
489.81	19969.45
489.99	20065.41
490.17	20116.90
490.35	20081.80
490.53	20271.38
490.70	20568.63
490.88	20393.09
491.06	20772.25
491.24	20702.04
491.41	20683.31
491.59	20798.00
491.77	20636.50
491.95	21153.76
492.13	21252.06
492.30	21614.85
492.48	21916.78
492.66	21575.06
492.84	21876.99
493.01	21989.33
493.19	21869.97
493.37	22143.81
493.54	22129.77
493.72	22590.85
493.90	22551.06
494.08	22735.96
494.25	23110.45
494.43	23056.62
494.61	22904.48
494.79	23339.82
494.96	23246.20
495.14	23264.92
495.32	23648.77
495.49	23559.83
495.67	23672.18
495.85	24116.88
496.02	24002.19
496.20	24252.63
496.38	24372.00
496.55	24313.48
496.73	25256.72
496.91	24636.48
497.09	24950.11
497.26	25191.19
497.44	24702.01
497.62	25254.38
497.79	25261.40
497.97	25315.23
498.14	25465.03
498.32	25867.60
498.50	25591.42
498.67	26066.55
498.85	25593.76
499.03	26068.89
499.20	25923.77
499.38	26061.87
499.56	26113.36
499.73	26218.68
499.91	26719.56
500.08	26288.90
500.26	26359.11
500.44	26845.94
500.61	26604.87
500.79	26555.72
500.97	26855.31
501.14	27030.85
501.32	27058.93
501.49	27082.34
501.67	27117.45
501.84	27173.62
502.02	27194.68
502.20	27508.32
502.37	27384.27
502.55	27604.28
502.72	28074.73
502.90	27971.74
503.07	28018.55
503.25	28095.79
503.43	27866.42
503.60	27807.90
503.78	28149.62
503.95	28058.34
504.13	28479.64
504.30	28231.54
504.48	28313.46
504.65	28980.51
504.83	29294.14
505.01	28968.81
505.18	29064.77
505.36	29729.48
505.53	29249.67
505.71	29465.00
505.88	29687.36
506.06	29415.85
506.23	29827.79
506.41	29429.90
506.58	30008.01
506.76	30125.04
506.93	30118.01
507.11	30202.27
507.28	29958.86
507.46	30312.28
507.63	30265.47
507.81	30323.98
507.98	30515.90
508.16	30115.67
508.33	30895.07
508.50	30382.49
508.68	30988.69
508.85	31136.15
509.03	31063.59
509.20	30773.36
509.38	31255.51
509.55	30939.54
509.73	31365.52
509.90	31248.49
510.08	31442.76
510.25	31262.54
510.42	31262.54
510.60	31594.89
510.77	31409.99
510.95	32137.90
511.12	31831.29
511.30	31861.71
511.47	32369.61
511.64	32126.19
511.82	32505.36
511.99	31976.40
512.17	32601.32
512.34	32114.49
512.51	33113.90
512.69	32989.85
512.86	32692.60
513.04	32818.99
513.21	32788.56
513.38	32517.06
513.56	32711.33
513.73	32634.09
513.90	33251.99
514.08	32907.93
514.25	33085.81
514.43	33240.29
514.60	33333.91
514.77	33270.72
514.95	33659.24
515.12	33589.03
515.29	33656.90
515.47	33961.17
515.64	33996.28
515.81	34155.44
515.99	33677.97
516.16	33986.92
516.33	33525.83
516.51	33968.19
516.68	33380.72
516.85	33347.95
517.03	33228.59
517.20	33895.64
517.37	34218.63
517.54	34625.89
517.72	34251.40
517.89	34007.98
518.06	34139.05
518.24	34239.70
518.41	34293.53
518.58	34019.69
518.75	34572.05
518.93	35091.65
519.10	35007.39
519.27	34466.73
519.45	35475.50
519.62	35318.68
519.79	35082.29
519.96	35192.30
520.14	35754.02
520.31	35295.28
520.48	35346.77
520.65	35271.87
520.83	35913.18
521.00	35978.72
521.17	36070.00
521.34	36077.02
521.52	36182.34
521.69	36273.62
521.86	36437.46
522.03	36177.66
522.20	36414.05
522.38	36484.27
522.55	36350.86
522.72	36624.70
522.89	36416.40
523.07	36872.80
523.24	36687.90
523.41	37111.53
523.58	36645.77
523.75	37165.37
523.92	36992.17
524.10	37591.34
524.27	37589.00
524.44	37373.67
524.61	37212.18
524.78	37394.74
524.96	38007.96
525.13	37383.04
525.30	37680.28
525.47	37937.74
525.64	37673.26
525.81	37890.93
525.98	37551.56
526.16	37359.63
526.33	37315.16
526.50	37867.53
526.67	37689.65
526.84	37525.81
527.01	37383.04
527.18	37706.03
527.36	38213.93
527.53	38007.96
527.70	38293.50
527.87	38572.03
528.04	38298.19
528.21	38569.69
528.38	38602.46
528.55	39035.45
528.72	38965.24
528.89	39194.61
529.07	39110.35
529.24	38775.66
529.41	38377.76
529.58	38745.23
529.75	39054.18
529.92	39585.48
530.09	39143.12
530.26	39239.08
530.43	39414.62
530.60	39000.35
530.77	39274.19
530.94	39564.42
531.11	39115.03
531.28	39402.92
531.46	39489.52
531.63	39721.23
531.80	39019.07
531.97	39407.60
532.14	39482.50
532.31	39292.91
532.48	39723.57
532.65	39491.86
532.82	39793.79
532.99	40013.80
533.16	39634.63
533.33	40076.99
533.50	39646.33
533.67	40114.44
533.84	39913.16
534.01	40322.75
534.18	39761.02
534.35	40430.41
534.52	40086.36
534.69	40320.41
534.86	40711.28
535.03	40069.97
535.20	41076.40
535.37	40697.24
535.54	40959.38
535.71	40528.72
535.88	40975.76
536.05	40498.29
536.22	41067.04
536.38	41088.10
536.55	40535.74
536.72	41202.79
536.89	40741.71
537.06	40825.96
537.23	40954.69
537.40	41200.45
537.57	41312.80
537.74	41088.10
537.91	41390.03
538.08	41163.00
538.25	40952.35
538.42	40739.36
538.59	41584.30
538.75	41277.69
538.92	41378.33
539.09	41542.17
539.26	41675.58
539.43	41134.92
539.60	41375.99
539.77	41518.76
539.94	41478.97
540.11	41387.69
540.28	41549.19
540.44	41509.40
540.61	41464.93
540.78	41368.97
540.95	41139.60
541.12	41727.07
541.29	41907.29
541.46	42127.30
541.62	42068.79
541.79	41944.74
541.96	41481.31
542.13	42223.26
542.30	41909.63
542.47	41773.88
542.63	42117.94
542.80	42136.66
542.97	42749.88
543.14	42700.73
543.31	42644.56
543.48	42705.41
543.64	42974.58
543.81	43044.79
543.98	43030.75
544.15	42845.85
544.32	43232.04
544.48	42927.77
544.65	43093.94
544.82	43419.28
544.99	42593.07
545.16	42714.78
545.32	43096.28
545.49	43421.62
545.66	43379.49
545.83	43402.89
546.00	43302.25
546.16	43138.41
546.33	43180.54
546.50	42967.55
546.67	43021.39
546.83	42939.47
547.00	43189.91
547.17	43349.06
547.34	43133.73
547.50	43393.53
547.67	43449.70
547.84	43445.02
548.00	43721.21
548.17	43948.24
548.34	44266.55
548.51	44350.81
548.67	43658.01
548.84	43758.66
549.01	43543.33
549.18	43924.83
549.34	43592.48
549.51	44091.01
549.68	44458.48
549.84	44282.94
550.01	44402.30
550.18	44191.65
550.34	44161.23
550.51	44020.80
550.68	43976.33
550.84	43702.48
551.01	44144.84
551.18	44093.35
551.34	43770.36
551.51	44535.71
551.68	44823.60
551.84	44617.63
552.01	44018.46
552.18	44374.22
552.34	43896.75
552.51	44493.58
552.68	44210.38
552.84	44275.91
553.01	44594.23
553.18	44727.64
553.34	44460.82
553.51	44460.82
553.67	44610.61
553.84	44650.40
554.01	44828.28
554.17	44879.77
554.34	44809.56
554.51	44570.82
554.67	44795.51
554.84	44769.77
555.00	45052.97
555.17	45017.86
555.33	44910.20
555.50	44580.18
555.67	44601.25
555.83	44823.60
556.00	45308.09
556.16	45265.96
556.33	44800.19
556.50	44584.86
556.66	45315.11
556.83	44547.42
556.99	44706.57
557.16	45301.07
557.32	45038.93
557.49	45588.95
557.65	44924.24
557.82	45160.64
557.98	45720.02
558.15	45146.59
558.32	45563.21
558.48	45467.25
558.65	45345.54
558.81	45242.56
558.98	44882.11
559.14	45436.82
559.31	45528.10
559.47	45591.30
559.64	45551.51
559.80	45722.37
559.97	45359.58
560.13	45265.96
560.30	45265.96
560.46	45172.34
560.63	45368.94
560.79	45860.46
560.96	45895.56
561.12	45818.33
561.29	45504.70
561.45	45460.23
561.61	45820.67
561.78	45467.25
561.94	45366.60
562.11	45329.16
562.27	45134.89
562.44	45883.86
562.60	45893.22
562.77	46003.23
562.93	45883.86
563.10	45982.16
563.26	45464.91
563.42	45535.12
563.59	45397.03
563.75	45382.99
563.92	46012.59
564.08	45956.42
564.24	45673.21
564.41	45811.31
564.57	45785.56
564.74	45696.62
564.90	45689.60
565.07	45478.95
565.23	45890.88
565.39	45453.20
565.56	46117.92
565.72	45605.34
565.88	45792.58
566.05	45500.01
566.21	45799.60
566.38	45633.42
566.54	46174.09
566.70	46197.49
566.87	46272.39
567.03	46146.00
567.19	46295.80
567.36	45909.61
567.52	45968.12
567.68	45949.40
567.85	46080.47
568.01	45855.78
568.17	46127.28
568.34	45799.60
568.50	46167.07
568.66	45841.73
568.83	45963.44
568.99	45471.93
569.15	45628.74
569.32	45708.32
569.48	45853.44
569.64	45975.14
569.81	46202.18
569.97	46033.66
570.13	46164.73
570.30	45390.01
570.46	45675.55
570.62	45738.75
570.78	45652.15
570.95	45783.22
571.11	45895.56
571.27	45865.14
571.43	45649.81
571.60	45757.47
571.76	46101.53
571.92	46244.30
572.09	46148.34
572.25	46045.36
572.41	46244.30
572.57	46082.81
572.74	46791.99
572.90	46007.91
573.06	46043.02
573.22	46384.74
573.38	46101.53
573.55	45329.16
573.71	46518.15
573.87	46115.58
574.03	46012.59
574.20	46148.34
574.36	45923.65
574.52	46066.42
574.68	46356.65
574.84	45961.10
575.01	45848.75
575.17	46277.07
575.33	45626.40
575.49	46286.43
575.65	46564.96
575.82	46424.53
575.98	45996.21
576.14	46300.48
576.30	46347.29
576.46	45991.53
576.62	45991.53
576.79	46267.71
576.95	45949.40
577.11	46412.82
577.27	45951.74
577.43	46349.63
577.59	46337.93
577.75	46108.55
577.92	45720.02
578.08	45794.92
578.24	45659.17
578.40	46291.12
578.56	46146.00
578.72	46340.27
578.88	46199.83
579.04	46646.88
579.21	46337.93
579.37	46319.20
579.53	45476.61
579.69	46108.55
579.85	45720.02
580.01	46469.00
580.17	46148.34
580.33	46183.45
580.49	46368.35
580.65	46195.15
580.82	45925.99
580.98	46302.82
581.14	46028.98
581.30	46501.76
581.46	46457.29
581.62	46256.01
581.78	46183.45
581.94	46752.20
582.10	46527.51
582.26	46204.52
582.42	46328.56
582.58	46595.38
582.74	46557.94
582.90	46494.74
583.06	45975.14
583.22	46590.70
583.38	46316.86
583.54	46660.92
583.70	46347.29
583.86	46394.10
584.02	46101.53
584.18	46471.34
584.34	46272.39
584.50	46298.14
584.66	46410.48
584.82	46101.53
584.98	46344.95
585.14	46527.51
585.30	46401.12
585.46	46419.84
585.62	45490.65
585.78	46351.97
585.94	45846.41
586.10	45876.84
586.26	45993.87
586.42	46574.32
586.58	46454.95
586.74	46204.52
586.90	45956.42
587.06	45827.69
587.22	46354.31
587.38	46227.92
587.54	46658.58
587.70	46611.77
587.86	46525.17
588.02	46354.31
588.18	46445.59
588.34	46375.37
588.49	45560.87
588.65	45617.04
588.81	45764.49
588.97	46227.92
589.13	45888.54
589.29	46085.15
589.45	46258.35
589.61	46314.52
589.77	46461.97
589.93	46494.74
