SpectraSuite Data File
++++++++++++++++++++++++++++++++++++
Date: Fri Oct 25 11:33:20 EDT 2013
User: price-jones
Dark Spectrum Present: No
Reference Spectrum Present: No
Number of Sampled Component Spectra: 1
Spectrometers: USB2+H05261
Integration Time (usec): 100000 (USB2+H05261)
Spectra Averaged: 1 (USB2+H05261)
Boxcar Smoothing: 0 (USB2+H05261)
Correct for Electrical Dark: No (USB2+H05261)
Strobe/Lamp Enabled: No (USB2+H05261)
Correct for Detector Non-linearity: No (USB2+H05261)
Correct for Stray Light: No (USB2+H05261)
Number of Pixels in Processed Spectrum: 2048
>>>>>Begin Processed Spectral Data<<<<<
365.73	236.39
365.92	236.39
366.12	236.39
366.32	208.31
366.52	161.50
366.72	220.01
366.91	248.10
367.11	119.37
367.31	168.52
367.51	140.43
367.70	131.07
367.90	194.26
368.10	156.82
368.30	159.16
368.49	152.13
368.69	220.01
368.89	227.03
369.09	187.24
369.28	166.18
369.48	257.46
369.68	180.22
369.87	203.63
370.07	255.12
370.27	278.52
370.47	346.40
370.66	430.66
370.86	503.22
371.06	575.77
371.25	521.94
371.45	463.43
371.65	533.64
371.84	585.13
372.04	594.50
372.24	521.94
372.44	503.22
372.63	692.80
372.83	545.34
373.03	510.24
373.22	608.54
373.42	617.90
373.62	655.35
373.81	671.73
374.01	650.67
374.21	657.69
374.40	620.24
374.60	624.92
374.79	650.67
374.99	676.41
375.19	681.10
375.38	678.76
375.58	723.23
375.78	730.25
375.97	683.44
376.17	716.20
376.37	596.84
376.56	662.37
376.76	627.26
376.95	674.07
377.15	629.60
377.35	641.31
377.54	695.14
377.74	678.76
377.93	657.69
378.13	741.95
378.33	676.41
378.52	723.23
378.72	727.91
378.91	730.25
379.11	683.44
379.31	634.29
379.50	739.61
379.70	828.55
379.89	809.83
380.09	716.20
380.28	645.99
380.48	774.72
380.68	685.78
380.87	669.39
381.07	716.20
381.26	692.80
381.46	727.91
381.65	807.48
381.85	678.76
382.04	798.12
382.24	739.61
382.43	781.74
382.63	765.36
382.83	723.23
383.02	758.33
383.22	800.46
383.41	809.83
383.61	777.06
383.80	844.93
384.00	807.48
384.19	732.59
384.39	844.93
384.58	931.53
384.78	800.46
384.97	901.11
385.17	765.36
385.36	861.32
385.56	858.98
385.75	875.36
385.95	847.27
386.14	847.27
386.34	863.66
386.53	896.43
386.72	957.28
386.92	908.13
387.11	882.38
387.31	809.83
387.50	856.64
387.70	915.15
387.89	894.08
388.09	870.68
388.28	891.74
388.48	924.51
388.67	950.26
388.86	917.49
389.06	980.68
389.25	947.92
389.45	1025.15
389.64	947.92
389.84	978.34
390.03	964.30
390.22	964.30
390.42	983.02
390.61	992.39
390.81	1008.77
391.00	945.58
391.19	1057.92
391.39	1046.22
391.58	1022.81
391.78	1011.11
391.97	978.34
392.16	889.40
392.36	1088.35
392.55	1090.69
392.75	997.07
392.94	1036.86
393.13	1057.92
393.33	1029.84
393.52	1107.07
393.71	1060.26
393.91	1004.09
394.10	1071.97
394.29	1071.97
394.49	1114.10
394.68	1067.28
394.88	1139.84
395.07	1116.44
395.26	1210.06
395.46	1135.16
395.65	1217.08
395.84	1184.31
396.04	1275.59
396.23	1100.05
396.42	1210.06
396.62	1207.72
396.81	1193.67
397.00	1226.44
397.19	1200.69
397.39	1277.93
397.58	1242.82
397.77	1196.01
397.97	1224.10
398.16	1235.80
398.35	1322.40
398.55	1254.53
398.74	1254.53
398.93	1352.83
399.12	1371.55
399.32	1289.64
399.51	1308.36
399.70	1294.32
399.90	1404.32
400.09	1371.55
400.28	1345.81
400.47	1451.13
400.67	1451.13
400.86	1469.86
401.05	1364.53
401.24	1413.68
401.44	1474.54
401.63	1448.79
401.82	1504.96
402.01	1488.58
402.21	1448.79
402.40	1533.05
402.59	1432.41
402.78	1451.13
402.97	1490.92
403.17	1493.26
403.36	1516.67
403.55	1579.86
403.74	1563.48
403.93	1511.99
404.13	1610.29
404.32	1586.88
404.51	1504.96
404.70	1652.42
404.89	1645.40
405.09	1722.63
405.28	1713.27
405.47	1694.55
405.66	1696.89
405.85	1783.49
406.05	1741.36
406.24	1685.19
406.43	1767.10
406.62	1689.87
406.81	1893.49
407.00	1748.38
407.20	1830.30
407.39	1771.79
407.58	1856.04
407.77	1851.36
407.96	1900.52
408.15	1937.96
408.34	1858.39
408.54	1956.69
408.73	1905.20
408.92	1949.67
409.11	2003.50
409.30	1973.07
409.49	2094.78
409.68	2001.16
409.87	2003.50
410.07	2045.63
410.26	2115.84
410.45	2031.58
410.64	2052.65
410.83	2155.63
411.02	2246.91
411.21	2134.57
411.40	2204.78
411.59	2190.74
411.78	2211.81
411.98	2291.38
412.17	2153.29
412.36	2275.00
412.55	2340.54
412.74	2392.03
412.93	2377.98
413.12	2230.53
413.31	2396.71
413.50	2345.22
413.69	2513.74
413.88	2527.78
414.07	2495.01
414.26	2420.11
414.45	2478.63
414.64	2626.08
414.83	2647.15
415.02	2703.32
415.22	2724.38
415.41	2626.08
415.60	2672.89
415.79	2668.21
415.98	2761.83
416.17	2768.85
416.36	2759.49
416.55	2750.13
416.74	2874.18
416.93	2920.99
417.12	2904.60
417.31	2874.18
417.50	2909.29
417.69	2974.82
417.88	2909.29
418.07	2986.52
418.26	2951.42
418.45	3038.02
418.64	3098.87
418.83	3045.04
419.02	3087.17
419.21	3131.64
419.39	3159.72
419.58	3145.68
419.77	3159.72
419.96	3187.81
420.15	3166.74
420.34	3218.24
420.53	3253.34
420.72	3337.60
420.91	3265.05
421.10	3199.51
421.29	3300.16
421.48	3229.94
421.67	3316.54
421.86	3255.69
422.05	3279.09
422.24	3311.86
422.43	3393.78
422.61	3300.16
422.80	3438.25
422.99	3459.31
423.18	3585.70
423.37	3508.46
423.56	3435.91
423.75	3339.94
423.94	3412.50
424.13	3148.02
424.32	3309.52
424.50	3485.06
424.69	3597.40
424.88	3398.46
425.07	3513.14
425.26	3508.46
425.45	3442.93
425.64	3510.80
425.83	3419.52
426.01	3667.62
426.20	3459.31
426.39	3522.51
426.58	3463.99
426.77	3571.66
426.96	3585.70
427.15	3492.08
427.33	3702.73
427.52	3538.89
427.71	3648.90
427.90	3705.07
428.09	3763.58
428.28	3761.24
428.46	3639.53
428.65	3719.11
428.84	3901.67
429.03	3646.55
429.22	3740.18
429.40	3763.58
429.59	3794.01
429.78	3651.24
429.97	3653.58
430.16	3887.63
430.34	3838.48
430.53	3843.16
430.72	3995.29
430.91	3850.18
431.10	3803.37
431.28	3882.95
431.47	4081.89
431.66	3974.23
431.85	3995.29
432.03	4142.75
432.22	4093.60
432.41	3950.82
432.60	4152.11
432.79	4095.94
432.97	4231.69
433.16	4145.09
433.35	4056.15
433.54	4084.23
433.72	4147.43
433.91	4227.01
434.10	4189.56
434.28	4177.86
434.47	4257.43
434.66	4280.84
434.85	4383.82
435.03	4273.82
435.22	4283.18
435.41	4514.89
435.59	4475.10
435.78	4503.19
435.97	4589.79
436.16	4395.53
436.34	4442.34
436.53	4514.89
436.72	4681.07
436.90	4463.40
437.09	4645.96
437.28	4447.02
437.46	4514.89
437.65	4622.56
437.84	4652.98
438.02	4638.94
438.21	4603.83
438.40	4538.30
438.58	4835.55
438.77	4882.36
438.96	4765.33
439.14	4772.35
439.33	4922.15
439.52	5011.09
439.70	5018.11
439.89	5071.94
440.08	5060.24
440.26	5200.67
440.45	4968.96
440.63	5001.72
440.82	5249.82
441.01	5123.43
441.19	5210.03
441.38	5273.23
441.57	5270.89
441.75	5338.76
441.94	5533.03
442.12	5411.32
442.31	5476.85
442.50	5348.12
442.68	5434.72
442.87	5497.92
443.05	5488.56
443.24	5607.92
443.43	5537.71
443.61	5579.84
443.80	5699.20
443.98	5556.43
444.17	5411.32
444.35	5614.95
444.54	5666.44
444.73	5654.73
444.91	5727.29
445.10	5636.01
445.28	5586.86
445.47	5738.99
445.65	5694.52
445.84	5830.27
446.02	5724.95
446.21	5846.66
446.39	5696.86
446.58	5820.91
446.77	5973.05
446.95	5568.13
447.14	5795.17
447.32	5963.68
447.51	5928.58
447.69	5865.38
447.88	5940.28
448.06	5881.77
448.25	5996.45
448.43	5837.30
448.62	5942.62
448.80	6017.52
448.99	5963.68
449.17	6010.50
449.36	5797.51
449.54	5837.30
449.73	6101.78
449.91	6054.97
450.10	6078.37
450.28	6204.76
450.46	6022.20
450.65	6003.47
450.83	6272.64
451.02	6141.57
451.20	6174.33
451.39	6230.51
451.57	6277.32
451.76	6209.44
451.94	6307.74
452.13	6352.21
452.31	6359.24
452.49	6157.95
452.68	6413.07
452.86	6286.68
453.05	6424.77
453.23	6434.13
453.42	6450.52
453.60	6387.32
453.78	6490.31
453.97	6427.11
454.15	6565.20
454.34	6352.21
454.52	6607.33
454.70	6506.69
454.89	6588.61
455.07	6555.84
455.26	6717.34
455.44	6719.68
455.62	6794.58
455.81	6787.55
455.99	6689.25
456.17	6630.74
456.36	6810.96
456.54	6942.03
456.73	7049.69
456.91	7138.63
457.09	7119.91
457.28	7117.57
457.46	7040.33
457.64	7042.67
457.83	6981.82
458.01	7131.61
458.19	7407.80
458.38	7360.98
458.56	7494.40
458.74	7307.15
458.93	7190.13
459.11	7452.27
459.29	7487.37
459.48	7440.56
459.66	7309.49
459.84	7307.15
460.03	7414.82
460.21	7564.61
460.39	7368.01
460.57	7335.24
460.76	7452.27
460.94	7630.15
461.12	7695.68
461.31	7569.29
461.49	7625.47
461.67	7566.95
461.85	7749.51
462.04	7583.34
462.22	8236.35
462.40	7934.42
462.59	7747.17
462.77	7772.92
462.95	7751.85
463.13	7744.83
463.32	7899.31
463.50	8049.10
463.68	8023.36
463.86	8189.53
464.05	7861.86
464.23	7857.18
464.41	8116.98
464.59	7948.46
464.78	8241.03
464.96	7941.44
465.14	8114.64
465.32	7889.95
465.50	8028.04
465.69	8219.96
465.87	8217.62
466.05	8187.19
466.23	8294.86
466.41	8163.79
466.60	8198.90
466.78	8210.60
466.96	8248.05
467.14	8147.40
467.32	8510.19
467.51	8493.80
467.69	8201.24
467.87	8325.29
468.05	8493.80
468.23	8294.86
468.41	8248.05
468.60	8596.79
468.78	8489.12
468.96	8395.50
469.14	8634.24
469.32	8842.54
469.50	8423.59
469.69	8823.82
469.87	8840.20
470.05	8826.16
470.23	8922.12
470.41	8954.89
470.59	9001.70
470.77	8896.38
470.95	8922.12
471.14	9029.79
471.32	8865.95
471.50	9177.24
471.68	9181.92
471.86	9334.06
472.04	9205.33
472.22	9376.19
472.40	9256.82
472.58	9210.01
472.77	9338.74
472.95	9521.30
473.13	9774.08
473.31	9434.70
473.49	9320.01
473.67	9621.94
473.85	9577.47
474.03	9750.67
474.21	9820.89
474.39	10080.69
474.57	9797.48
474.75	9860.68
474.93	10076.01
475.12	9940.26
475.30	10085.37
475.48	10066.64
475.66	10296.02
475.84	10225.80
476.02	10272.61
476.20	10361.55
476.38	10429.43
476.56	10696.25
476.74	10764.12
476.92	10459.85
477.10	10511.35
477.28	10766.46
477.46	10616.67
477.64	10998.18
477.82	10853.06
478.00	11407.77
478.18	11162.01
478.36	11337.56
478.54	11452.24
478.72	11543.52
478.90	11679.27
479.08	11789.28
479.26	11400.75
479.44	11686.29
479.62	11901.62
479.80	12004.61
479.98	12035.03
480.16	12315.90
480.34	12163.76
480.52	12556.97
480.70	12568.68
480.88	12203.55
481.06	12423.56
481.24	12723.15
481.41	12500.80
481.59	12889.33
481.77	13104.66
481.95	12877.63
482.13	13135.09
482.31	13071.89
482.49	13593.83
482.67	13474.46
482.85	13891.08
483.03	13860.65
483.21	13778.73
483.39	13870.01
483.57	13781.07
483.74	14043.21
483.92	14244.50
484.10	14066.62
484.28	14462.17
484.46	14408.34
484.64	14768.78
484.82	14530.05
485.00	14616.65
485.18	14808.57
485.35	15370.30
485.53	15070.71
485.71	15316.47
485.89	15445.20
486.07	15531.80
486.25	15576.27
486.43	15817.34
486.61	15878.19
486.78	16095.86
486.96	16044.37
487.14	16402.47
487.32	16283.11
487.50	16290.13
487.68	16294.81
487.85	16812.07
488.03	17181.87
488.21	17282.52
488.39	17184.21
488.57	17547.00
488.75	17326.99
488.92	17486.14
489.10	17755.30
489.28	17858.29
489.46	17809.14
489.64	17970.63
489.81	18368.52
489.99	18071.28
490.17	18204.69
490.35	18789.82
490.53	18782.80
490.70	18885.78
490.88	18672.79
491.06	18888.12
491.24	19103.45
491.41	19295.38
491.59	19302.40
491.77	19260.27
491.95	19744.76
492.13	19702.63
492.30	19522.41
492.48	19915.62
492.66	19639.44
492.84	19892.21
493.01	20184.78
493.19	20409.47
493.37	20657.57
493.54	20805.02
493.72	20758.21
493.90	21338.66
494.08	21034.39
494.25	20812.04
494.43	21238.02
494.61	21357.39
494.79	21497.82
494.96	21385.47
495.14	21748.26
495.32	21874.65
495.49	21628.89
495.67	22010.40
495.85	22162.53
496.02	22520.63
496.20	22817.88
496.38	22654.05
496.55	22508.93
496.73	23019.17
496.91	22909.16
497.09	22787.46
497.26	23077.68
497.44	23101.09
497.62	23255.56
497.79	23587.92
497.97	23693.24
498.14	23742.39
498.32	24271.36
498.50	23892.19
498.67	24102.84
498.85	24168.37
499.03	24081.77
499.20	24435.19
499.38	24486.68
499.56	25116.29
499.73	24706.70
499.91	24797.98
500.08	24720.74
500.26	24678.61
500.44	24875.21
500.61	25179.48
500.79	25003.94
500.97	25326.94
501.14	25844.20
501.32	25528.22
501.49	25661.63
501.67	25724.83
501.84	25727.17
502.02	26001.01
502.20	25869.94
502.37	26288.90
502.55	25766.96
502.72	26370.82
502.90	26230.38
503.07	26265.49
503.25	26548.70
503.43	26218.68
503.60	26515.93
503.78	26869.35
503.95	26649.34
504.13	26932.54
504.30	26820.20
504.48	26995.74
504.65	27524.70
504.83	27211.07
505.01	27688.54
505.18	27433.42
505.36	27613.64
505.53	27807.90
505.71	27618.32
505.88	27819.61
506.06	27702.58
506.23	27763.43
506.41	27875.78
506.58	27674.49
506.76	28018.55
506.93	28264.31
507.11	28315.80
507.28	28308.78
507.46	28444.53
507.63	28528.79
507.81	28247.93
507.98	28678.58
508.16	28720.71
508.33	29144.35
508.50	29111.58
508.68	28936.04
508.85	29053.07
509.03	29195.84
509.20	29427.56
509.38	29696.72
509.55	29589.05
509.73	29408.83
509.90	30010.35
510.08	29766.93
510.25	29509.47
510.42	29855.87
510.60	30106.31
510.77	29986.94
510.95	30518.25
511.12	30057.16
511.30	30218.66
511.47	30338.02
511.64	30574.42
511.82	30391.86
511.99	30885.71
512.17	30661.02
512.34	30354.41
512.51	31321.05
512.69	31424.03
512.86	30920.82
513.04	31082.31
513.21	31112.74
513.38	31267.22
513.56	31571.49
513.73	31658.09
513.90	31091.68
514.08	31498.93
514.25	31498.93
514.43	31674.47
514.60	32187.05
514.77	32294.71
514.95	32060.66
515.12	32219.81
515.29	31859.37
515.47	32283.01
515.64	32308.76
515.81	32095.77
515.99	32666.86
516.16	32790.91
516.33	32765.16
516.51	33048.36
516.68	32748.78
516.85	32945.38
517.03	32547.49
517.20	33116.24
517.37	33195.82
517.54	33195.82
517.72	33467.32
517.89	33069.43
518.06	33549.24
518.24	33731.80
518.41	33785.63
518.58	33294.12
518.75	33467.32
518.93	33645.20
519.10	33694.35
519.27	33544.56
519.45	33872.23
519.62	34026.71
519.79	33909.68
519.96	33909.68
520.14	34274.80
520.31	34295.87
520.48	34553.33
520.65	33986.92
520.83	34377.79
521.00	34829.51
521.17	34593.12
521.34	34782.70
521.52	34660.99
521.69	34469.07
521.86	34969.94
522.03	35023.78
522.20	34965.26
522.38	35704.87
522.55	35592.53
522.72	35447.41
522.89	35374.86
523.07	35501.25
523.24	35725.94
523.41	35494.22
523.58	35374.86
523.75	35882.75
523.92	35730.62
524.10	36065.31
524.27	35604.23
524.44	36051.27
524.61	36336.82
524.78	36285.33
524.96	36547.47
525.13	36172.98
525.30	36346.18
525.47	36402.35
525.64	36388.31
525.81	36725.35
525.98	36833.01
526.16	36753.43
526.33	36350.86
526.50	36980.46
526.67	36655.13
526.84	37273.03
527.01	37008.55
527.18	36884.50
527.36	37209.84
527.53	37354.95
527.70	37551.56
527.87	37600.71
528.04	37294.10
528.21	37591.34
528.38	37256.65
528.55	37926.04
528.72	37736.46
528.89	37230.90
529.07	37270.69
529.24	37390.06
529.41	38155.41
529.58	37848.80
529.75	37586.66
529.92	37694.33
530.09	37881.57
530.26	38148.39
530.43	38195.20
530.60	37701.35
530.77	38101.58
530.94	38124.99
531.11	37902.64
531.28	38136.69
531.46	38543.94
531.63	38808.42
531.80	38520.54
531.97	39070.56
532.14	38483.09
532.31	39140.78
532.48	38948.85
532.65	39363.13
532.82	39042.48
532.99	39058.86
533.16	38998.01
533.33	39210.99
533.50	39412.28
533.67	39049.50
533.84	39353.77
534.01	39306.96
534.18	39332.70
534.35	39505.90
534.52	39295.25
534.69	40006.78
534.86	39910.82
535.03	39372.49
535.20	39814.85
535.37	39817.19
535.54	39899.11
535.71	39957.63
535.88	40179.98
536.05	40013.80
536.22	40107.42
536.38	39899.11
536.55	39819.53
536.72	40252.53
536.89	40016.14
537.06	40559.14
537.23	40465.52
537.40	40086.36
537.57	40126.14
537.74	40491.27
537.91	40467.86
538.08	40311.05
538.25	40444.46
538.42	40528.72
538.59	40868.09
538.75	40439.78
538.92	41446.21
539.09	41282.37
539.26	40774.47
539.43	40950.01
539.60	40914.90
539.77	41242.58
539.94	41385.35
540.11	41043.63
540.28	41478.97
540.44	40985.12
540.61	41289.39
540.78	40849.37
540.95	41277.69
541.12	41034.27
541.29	41008.53
541.46	41656.85
541.62	41411.10
541.79	41392.37
541.96	41518.76
542.13	41502.38
542.30	41450.89
542.47	41619.41
542.63	41371.31
542.80	41951.76
542.97	42450.30
543.14	42534.56
543.31	41968.15
543.48	42089.85
543.64	42586.05
543.81	42445.62
543.98	42389.44
544.15	42094.53
544.32	42635.20
544.48	43049.47
544.65	42838.83
544.82	42557.96
544.99	42553.28
545.16	42164.75
545.32	42394.12
545.49	43276.51
545.66	42761.59
545.83	42969.90
546.00	43440.34
546.16	42190.50
546.33	42848.19
546.50	42782.65
546.67	43199.27
546.83	43023.73
547.00	43150.12
547.17	43033.09
547.34	42927.77
547.50	43676.74
547.67	43831.21
547.84	43267.14
548.00	43669.72
548.17	43337.36
548.34	43606.52
548.51	43686.10
548.67	43634.61
548.84	43725.89
549.01	43615.88
549.18	43470.77
549.34	43983.35
549.51	43655.67
549.68	44062.93
549.84	43856.96
550.01	44034.84
550.18	43428.64
550.34	44296.98
550.51	44397.62
550.68	44032.50
550.84	43409.92
551.01	44577.84
551.18	43721.21
551.34	44093.35
551.51	44271.23
551.68	44011.43
551.84	44378.90
552.01	44137.82
552.18	44226.76
552.34	43903.77
552.51	44507.63
552.68	44505.29
552.84	44741.68
553.01	45006.16
553.18	44678.49
553.34	44779.13
553.51	44629.34
553.67	44828.28
553.84	44863.39
554.01	44971.05
554.17	44624.65
554.34	44994.46
554.51	45099.78
554.67	45027.23
554.84	44898.50
555.00	44989.78
555.17	45095.10
555.33	45104.46
555.50	44868.07
555.67	45029.57
555.83	44879.77
556.00	45151.27
556.16	45647.47
556.33	45195.74
556.50	45146.59
556.66	45130.21
556.83	44872.75
556.99	45457.88
557.16	45481.29
557.32	45986.85
557.49	45137.23
557.65	45205.11
557.82	45104.46
557.98	45195.74
558.15	45174.68
558.32	45799.60
558.48	45659.17
558.65	45741.09
558.81	45474.27
558.98	45827.69
559.14	45708.32
559.31	45413.41
559.47	45713.00
559.64	45785.56
559.80	45853.44
559.97	46148.34
560.13	45530.44
560.30	45984.51
560.46	46513.47
560.63	45989.19
560.79	46314.52
560.96	46333.24
561.12	46431.55
561.29	45834.71
561.45	45890.88
561.61	46115.58
561.78	45933.01
561.94	46190.47
562.11	45902.59
562.27	46138.98
562.44	46202.18
562.60	46115.58
562.77	46457.29
562.93	45958.76
563.10	46401.12
563.26	46012.59
563.42	46579.00
563.59	46155.36
563.75	45925.99
563.92	46433.89
564.08	46232.60
564.24	46230.26
564.41	46373.03
564.57	46630.49
564.74	45991.53
564.90	46417.50
565.07	46143.66
565.23	46724.11
565.39	46494.74
565.56	46653.90
565.72	46330.90
565.88	46499.42
566.05	46469.00
566.21	46691.35
566.38	46644.54
566.54	46602.41
566.70	46976.89
566.87	46696.03
567.03	46398.78
567.19	46777.95
567.36	46733.48
567.52	46960.51
567.68	46976.89
567.85	46897.31
568.01	47077.54
568.17	46387.08
568.34	46946.47
568.50	47056.47
568.66	46443.25
568.83	46749.86
568.99	47028.38
569.15	46625.81
569.32	46813.05
569.48	47035.41
569.64	47363.08
569.81	46880.93
569.97	47089.24
570.13	47182.86
570.30	47175.84
570.46	47353.72
570.62	47138.39
570.78	46976.89
570.95	47007.32
571.11	47669.69
571.27	47262.44
571.43	46759.22
571.60	47000.30
571.76	47246.05
571.92	46787.31
572.09	46749.86
572.25	46841.14
572.41	46948.81
572.57	46951.15
572.74	47686.07
572.90	47227.33
573.06	47243.71
573.22	46859.87
573.38	47224.99
573.55	47194.56
573.71	47786.72
573.87	47351.38
574.03	47236.69
574.20	47489.47
574.36	47686.07
574.52	47473.09
574.68	47203.92
574.84	47327.97
575.01	47679.05
575.17	47742.25
575.33	47372.44
575.49	47021.36
575.65	47964.60
575.82	47828.85
575.98	47470.75
576.14	47299.89
576.30	47604.16
576.46	47313.93
576.62	47826.51
576.79	47728.20
576.95	46862.21
577.11	47192.22
577.27	47428.62
577.43	47208.61
577.59	47494.15
577.75	47222.65
577.92	46990.94
578.08	47269.46
578.24	47281.16
578.40	47482.45
578.56	47580.75
578.72	47803.10
578.88	47868.64
579.04	47562.03
579.21	47531.60
579.37	47466.06
579.53	47660.33
579.69	47529.26
579.85	47461.38
580.01	47746.93
580.17	47613.52
580.33	47426.28
580.49	47665.01
580.65	47365.42
580.82	47377.12
580.98	47393.51
581.14	47426.28
581.30	47917.79
581.46	47353.72
581.62	47590.11
581.78	47187.54
581.94	47669.69
582.10	47386.49
582.26	47688.42
582.42	47353.72
582.58	47508.19
582.74	47796.08
582.90	47739.91
583.06	47494.15
583.22	47704.80
583.38	47955.24
583.54	47917.79
583.70	47470.75
583.86	47810.12
584.02	47739.91
584.18	48196.31
584.34	47985.66
584.50	48126.10
584.66	47880.34
584.82	47674.37
584.98	47863.96
585.14	48224.40
585.30	47765.65
585.46	47828.85
585.62	47775.02
585.78	47657.99
585.94	47529.26
586.10	48079.28
586.26	47585.43
586.42	47524.58
586.58	47943.53
586.74	47360.74
586.90	47709.48
587.06	47908.43
587.22	47966.94
587.38	48219.72
587.54	47480.11
587.70	48285.25
587.86	47861.61
588.02	47676.71
588.18	47559.69
588.34	48013.75
588.49	47674.37
588.65	47934.17
588.81	48072.26
588.97	47667.35
589.13	48090.99
589.29	47875.66
589.45	48016.09
589.61	48135.46
589.77	47938.85
589.93	48385.89
