SpectraSuite Data File
++++++++++++++++++++++++++++++++++++
Date: Fri Oct 25 11:23:46 EDT 2013
User: price-jones
Dark Spectrum Present: No
Reference Spectrum Present: No
Number of Sampled Component Spectra: 1
Spectrometers: USB2+H05261
Integration Time (usec): 100000 (USB2+H05261)
Spectra Averaged: 1 (USB2+H05261)
Boxcar Smoothing: 0 (USB2+H05261)
Correct for Electrical Dark: No (USB2+H05261)
Strobe/Lamp Enabled: No (USB2+H05261)
Correct for Detector Non-linearity: No (USB2+H05261)
Correct for Stray Light: No (USB2+H05261)
Number of Pixels in Processed Spectrum: 2048
>>>>>Begin Processed Spectral Data<<<<<
365.73	229.37
365.92	229.37
366.12	229.37
366.32	119.37
366.52	60.85
366.72	98.30
366.91	159.16
367.11	63.19
367.31	88.94
367.51	95.96
367.70	126.39
367.90	107.66
368.10	131.07
368.30	154.48
368.49	152.13
368.69	84.26
368.89	142.77
369.09	180.22
369.28	163.84
369.48	60.85
369.68	152.13
369.87	203.63
370.07	203.63
370.27	184.90
370.47	351.08
370.66	571.09
370.86	545.34
371.06	657.69
371.25	627.26
371.45	596.84
371.65	737.27
371.84	725.57
372.04	629.60
372.24	706.84
372.44	688.12
372.63	657.69
372.83	758.33
373.03	812.17
373.22	758.33
373.42	727.91
373.62	868.34
373.81	802.80
374.01	777.06
374.21	821.53
374.40	711.52
374.60	837.91
374.79	814.51
374.99	786.42
375.19	866.00
375.38	866.00
375.58	908.13
375.78	889.40
375.97	896.43
376.17	861.32
376.37	891.74
376.56	866.00
376.76	807.48
376.95	851.96
377.15	870.68
377.35	903.45
377.54	936.21
377.74	964.30
377.93	880.04
378.13	924.51
378.33	931.53
378.52	978.34
378.72	905.79
378.91	924.51
379.11	875.36
379.31	866.00
379.50	898.77
379.70	994.73
379.89	994.73
380.09	997.07
380.28	880.04
380.48	1015.79
380.68	1020.47
380.87	1053.24
381.07	940.90
381.26	990.05
381.46	1053.24
381.65	985.37
381.85	936.21
382.04	1116.44
382.24	1062.60
382.43	1132.82
382.63	1118.78
382.83	1076.65
383.02	1093.03
383.22	1088.35
383.41	1039.20
383.61	1109.41
383.80	1107.07
384.00	1090.69
384.19	1130.48
384.39	1083.67
384.58	1137.50
384.78	1116.44
384.97	1139.84
385.17	1200.69
385.36	1219.42
385.56	1151.54
385.75	1130.48
385.95	1170.27
386.14	1172.61
386.34	1125.80
386.53	1188.99
386.72	1224.10
386.92	1212.40
387.11	1249.85
387.31	1287.29
387.50	1249.85
387.70	1245.16
387.89	1287.29
388.09	1228.78
388.28	1331.76
388.48	1301.34
388.67	1277.93
388.86	1263.89
389.06	1324.74
389.25	1352.83
389.45	1355.17
389.64	1434.75
389.84	1409.00
390.03	1451.13
390.22	1364.53
390.42	1380.92
390.61	1366.87
390.81	1418.36
391.00	1458.15
391.19	1575.18
391.39	1413.68
391.58	1507.30
391.78	1493.26
391.97	1446.45
392.16	1416.02
392.36	1561.14
392.55	1568.16
392.75	1530.71
392.94	1582.20
393.13	1570.50
393.33	1526.03
393.52	1519.01
393.71	1561.14
393.91	1575.18
394.10	1490.92
394.29	1636.03
394.49	1600.93
394.68	1837.32
394.88	1614.97
395.07	1717.95
395.26	1703.91
395.46	1694.55
395.65	1825.62
395.84	1792.85
396.04	1891.15
396.23	1792.85
396.42	1797.53
396.62	1703.91
396.81	1785.83
397.00	1834.98
397.19	1865.41
397.39	1820.94
397.58	1776.47
397.77	1788.17
397.97	1867.75
398.16	1898.17
398.35	1856.04
398.55	1825.62
398.74	1963.71
398.93	1912.22
399.12	1902.86
399.32	1959.03
399.51	1968.39
399.70	2022.22
399.90	1954.35
400.09	2019.88
400.28	1975.41
400.47	1991.80
400.67	2115.84
400.86	1975.41
401.05	2106.48
401.24	2038.61
401.44	2153.29
401.63	2122.87
401.82	2209.47
402.01	2146.27
402.21	2165.00
402.40	2080.74
402.59	2174.36
402.78	2246.91
402.97	2303.09
403.17	2375.64
403.36	2310.11
403.55	2354.58
403.74	2331.17
403.93	2434.16
404.13	2335.85
404.32	2387.35
404.51	2333.51
404.70	2534.80
404.89	2385.01
405.09	2544.16
405.28	2555.86
405.47	2473.95
405.66	2686.94
405.85	2555.86
406.05	2623.74
406.24	2583.95
406.43	2464.58
406.62	2670.55
406.81	2663.53
407.00	2551.18
407.20	2644.81
407.39	2525.44
407.58	2712.68
407.77	2843.75
407.96	2848.43
408.15	2869.50
408.34	2771.19
408.54	2738.43
408.73	2834.39
408.92	2745.45
409.11	2857.79
409.30	2864.82
409.49	2860.13
409.68	2904.60
409.87	2993.55
410.07	2967.80
410.26	2979.50
410.45	2942.05
410.64	3063.76
410.83	3133.98
411.02	3084.83
411.21	3157.38
411.40	3211.22
411.59	3279.09
411.78	3211.22
411.98	3141.00
412.17	3281.43
412.36	3229.94
412.55	3431.23
412.74	3421.86
412.93	3492.08
413.12	3419.52
413.31	3620.81
413.50	3590.38
413.69	3442.93
413.88	3625.49
414.07	3583.36
414.26	3623.15
414.45	3698.05
414.64	3653.58
414.83	3716.77
415.02	3691.02
415.22	3742.52
415.41	3843.16
415.60	3843.16
415.79	3990.61
415.98	3988.27
416.17	4077.21
416.36	4065.51
416.55	3971.89
416.74	4011.68
416.93	4007.00
417.12	4065.51
417.31	4203.60
417.50	4138.07
417.69	4301.90
417.88	4327.65
418.07	4140.41
418.26	4348.72
418.45	4203.60
418.64	4421.27
418.83	4418.93
419.02	4507.87
419.21	4442.34
419.39	4528.94
419.58	4369.78
419.77	4540.64
419.96	4667.03
420.15	4657.67
420.34	4617.88
420.53	4620.22
420.72	4805.12
420.91	4669.37
421.10	4695.11
421.29	4915.12
421.48	4652.98
421.67	4791.08
421.86	4727.88
422.05	4753.63
422.24	4884.70
422.43	4917.47
422.61	4868.31
422.80	5020.45
422.99	4938.53
423.18	4966.62
423.37	4957.25
423.56	4990.02
423.75	5090.67
423.94	4842.57
424.13	4770.01
424.32	4791.08
424.50	5057.90
424.69	5116.41
424.88	5184.29
425.07	5032.15
425.26	4915.12
425.45	5039.17
425.64	4980.66
425.83	4983.00
426.01	5029.81
426.20	4898.74
426.39	5090.67
426.58	5149.18
426.77	5135.14
426.96	5224.08
427.15	5179.61
427.33	5221.74
427.52	5364.51
427.71	5434.72
427.90	5315.36
428.09	5268.55
428.28	5481.53
428.46	5390.25
428.65	5390.25
428.84	5565.79
429.03	5408.98
429.22	5416.00
429.40	5483.88
429.59	5373.87
429.78	5423.02
429.97	5427.70
430.16	5570.48
430.34	5643.03
430.53	5516.64
430.72	5769.42
430.91	5633.67
431.10	5666.44
431.28	5720.27
431.47	5881.77
431.66	6022.20
431.85	5771.76
432.03	5870.06
432.22	5816.23
432.41	5982.41
432.60	5963.68
432.79	5933.26
432.97	6010.50
433.16	6017.52
433.35	6050.28
433.54	5970.71
433.72	6113.48
433.91	5951.98
434.10	6031.56
434.28	6200.08
434.47	6267.95
434.66	6256.25
434.85	6387.32
435.03	6366.26
435.22	6452.86
435.41	6626.06
435.59	6232.85
435.78	6349.87
435.97	6593.29
436.16	6466.90
436.34	6438.81
436.53	6441.15
436.72	6583.93
436.90	6485.62
437.09	6862.45
437.28	6406.05
437.46	6677.55
437.65	6621.38
437.84	6759.47
438.02	6902.24
438.21	6888.20
438.40	6630.74
438.58	6902.24
438.77	7222.89
438.96	6864.79
439.14	7136.29
439.33	7101.19
439.52	7330.56
439.70	7229.91
439.89	7360.98
440.08	7389.07
440.26	7410.14
440.45	7447.58
440.63	7426.52
440.82	7613.76
441.01	7595.04
441.19	7522.48
441.38	7803.35
441.57	7648.87
441.75	7894.63
441.94	7868.88
442.12	7978.89
442.31	7955.48
442.50	8098.25
442.68	8222.30
442.87	8056.12
443.05	8126.34
443.24	8341.67
443.43	8126.34
443.61	8276.13
443.80	8442.31
443.98	8035.06
444.17	7826.75
444.35	8236.35
444.54	8400.18
444.73	8386.14
444.91	8402.52
445.10	8486.78
445.28	8526.57
445.47	8297.20
445.65	8311.24
445.84	8353.37
446.02	8641.26
446.21	8299.54
446.39	8376.78
446.58	8535.93
446.77	8601.47
446.95	8294.86
447.14	8390.82
447.32	8692.75
447.51	8468.06
447.69	8533.59
447.88	8542.96
448.06	8549.98
448.25	8582.74
448.43	8528.91
448.62	8601.47
448.80	8524.23
448.99	8772.33
449.17	8744.24
449.36	8603.81
449.54	8990.00
449.73	8994.68
449.91	8985.32
450.10	8971.27
450.28	8950.21
450.46	9165.54
450.65	9195.96
450.83	9116.39
451.02	9139.79
451.20	9240.44
451.39	9233.41
451.57	9041.49
451.76	9163.20
451.94	9191.28
452.13	9582.15
452.31	9392.57
452.49	9238.09
452.68	9490.87
452.86	9610.24
453.05	9483.85
453.23	9577.47
453.42	9301.29
453.60	9514.28
453.78	9593.86
453.97	9282.56
454.15	9673.43
454.34	9556.41
454.52	9591.52
454.70	9554.07
454.89	9827.91
455.07	10017.49
455.26	9811.53
455.44	10090.05
455.62	9898.13
455.81	9888.76
455.99	10052.60
456.17	9970.68
456.36	10267.93
456.54	10403.68
456.73	10232.82
456.91	10626.03
457.09	10525.39
457.28	10525.39
457.46	10476.24
457.64	10766.46
457.83	10525.39
458.01	10436.45
458.19	10885.83
458.38	10714.97
458.56	10630.71
458.74	10843.70
458.93	10719.65
459.11	10850.72
459.29	10984.13
459.48	10998.18
459.66	11028.60
459.84	10923.28
460.03	11033.29
460.21	11152.65
460.39	11075.42
460.57	11023.92
460.76	11098.82
460.94	11267.34
461.12	11302.45
461.31	10934.98
461.49	11276.70
461.67	11138.61
461.85	11604.38
462.04	11147.97
462.22	11735.45
462.40	11726.08
462.59	11688.64
462.77	11506.07
462.95	11784.60
463.13	11456.92
463.32	11866.52
463.50	11721.40
463.68	11714.38
463.86	11941.41
464.05	11578.63
464.23	11562.25
464.41	11967.16
464.59	11838.43
464.78	12088.87
464.96	12126.32
465.14	12072.48
465.32	11988.22
465.50	12189.51
465.69	12116.95
465.87	11990.56
466.05	12201.21
466.23	12582.72
466.41	12498.46
466.60	12643.57
466.78	12208.23
466.96	12451.65
467.14	12439.95
467.32	12435.27
467.51	12751.24
467.69	12379.09
467.87	12744.22
468.05	12807.41
468.23	12472.71
468.41	12507.82
468.60	12652.94
468.78	12842.52
468.96	12800.39
469.14	12732.51
469.32	13186.58
469.50	12615.49
469.69	13088.28
469.87	13205.30
470.05	13231.05
470.23	13172.54
470.41	13385.52
470.59	13593.83
470.77	13259.13
470.95	13202.96
471.14	13717.88
471.32	13233.39
471.50	13528.30
471.68	13591.49
471.86	13710.86
472.04	13893.42
472.22	14146.20
472.40	14057.26
472.58	13804.48
472.77	14026.83
472.95	14038.53
473.13	14813.25
473.31	14174.28
473.49	14527.71
473.67	14061.94
473.85	14494.94
474.03	14590.90
474.21	14640.05
474.39	14906.87
474.57	14934.96
474.75	15091.77
474.93	15096.46
475.12	15276.68
475.30	15314.13
475.48	15110.50
475.66	15599.67
475.84	15117.52
476.02	15538.82
476.20	15541.16
476.38	15730.74
476.56	16016.29
476.74	15983.52
476.92	15838.41
477.10	15861.81
477.28	15941.39
477.46	16184.80
477.64	16748.87
477.82	16788.66
478.00	16884.62
478.18	17003.99
478.36	16978.25
478.54	17238.05
478.72	17298.90
478.90	17326.99
479.08	17544.66
479.26	17809.14
479.44	17855.95
479.62	18223.41
479.80	18171.92
479.98	18471.51
480.16	18579.17
480.34	18647.05
480.52	18457.46
480.70	18609.60
480.88	18452.78
481.06	18862.38
481.24	19016.85
481.41	19456.87
481.59	19264.95
481.77	19381.98
481.95	19660.50
482.13	19922.64
482.31	19623.05
482.49	20212.87
482.67	20112.22
482.85	20475.01
483.03	20725.44
483.21	21099.93
483.39	20875.24
483.57	20669.27
483.74	21282.49
483.92	21422.92
484.10	21387.82
484.28	21568.04
484.46	22263.18
484.64	22352.12
484.82	22427.01
485.00	22574.47
485.18	22986.40
485.35	23075.34
485.53	23140.88
485.71	23278.97
485.89	23627.71
486.07	23498.98
486.25	23452.17
486.43	23950.70
486.61	23955.38
486.78	24224.54
486.96	24142.63
487.14	24549.88
487.32	24776.91
487.50	24767.55
487.68	24975.86
487.85	25656.95
488.03	26230.38
488.21	25965.90
488.39	25867.60
488.57	26192.94
488.75	26394.22
488.92	26263.15
489.10	26632.96
489.28	26867.01
489.46	27454.48
489.64	27199.37
489.81	27915.57
489.99	28039.62
490.17	28011.53
490.35	28573.26
490.53	28121.54
490.70	28716.03
490.88	28467.94
491.06	28952.43
491.24	29111.58
491.41	29144.35
491.59	29502.45
491.77	29186.48
491.95	29792.68
492.13	30300.58
492.30	30125.04
492.48	29790.34
492.66	30670.38
492.84	30621.23
493.01	30972.31
493.19	30855.28
493.37	31089.34
493.54	31620.64
493.72	31468.50
493.90	31681.49
494.08	31908.52
494.25	31948.31
494.43	32055.98
494.61	32273.65
494.79	32980.49
494.96	32889.21
495.14	32706.65
495.32	33069.43
495.49	33521.15
495.67	33268.37
495.85	33619.46
496.02	33963.51
496.20	34227.99
496.38	33797.34
496.55	34424.60
496.73	34773.34
496.91	34618.86
497.09	34850.58
497.26	34979.31
497.44	35271.87
497.62	35508.27
497.79	35791.47
497.97	35868.71
498.14	36168.30
498.32	36498.31
498.50	36917.27
498.67	36856.42
498.85	36711.30
499.03	37322.18
499.20	36854.08
499.38	37088.13
499.56	37228.56
499.73	37579.64
499.91	37500.06
500.08	37708.37
500.26	37371.33
500.44	37986.89
500.61	37736.46
500.79	38197.54
500.97	38272.44
501.14	38714.80
501.32	38817.78
501.49	38642.24
501.67	38981.62
501.84	39346.75
502.02	38831.83
502.20	39145.46
502.37	39321.00
502.55	39440.37
502.72	39658.04
502.90	39466.11
503.07	39475.48
503.25	40156.57
503.43	39718.89
503.60	40067.63
503.78	40154.23
503.95	40512.33
504.13	41069.38
504.30	40910.22
504.48	40863.41
504.65	41043.63
504.83	41163.00
505.01	41832.39
505.18	41670.90
505.36	41715.37
505.53	41132.57
505.71	41808.99
505.88	41975.17
506.06	41535.15
506.23	42176.45
506.41	42066.45
506.58	42174.11
506.76	42391.78
506.93	43091.60
507.11	42733.50
507.28	42511.15
507.46	43033.09
507.63	43414.60
507.81	43688.44
507.98	43232.04
508.16	43122.03
508.33	43346.72
508.50	43831.21
508.68	44060.58
508.85	43882.70
509.03	44229.10
509.20	44587.21
509.38	44488.90
509.55	44996.80
509.73	44751.04
509.90	44568.48
510.08	44570.82
510.25	44318.04
510.42	45155.96
510.60	44975.73
510.77	45282.34
510.95	45109.14
511.12	45237.87
511.30	45439.16
511.47	45507.04
511.64	46066.42
511.82	46089.83
511.99	45511.72
512.17	45977.48
512.34	46176.43
512.51	46562.62
512.69	46370.69
512.86	46307.50
513.04	46894.97
513.21	46976.89
513.38	46719.43
513.56	47320.95
513.73	46836.46
513.90	47412.23
514.08	46529.85
514.25	47213.29
514.43	47988.00
514.60	47550.32
514.77	47433.30
514.95	47798.42
515.12	47973.96
515.29	47964.60
515.47	48264.19
515.64	48383.55
515.81	48177.59
515.99	48217.38
516.16	48664.42
516.33	48949.96
516.51	48886.77
516.68	48720.59
516.85	48713.57
517.03	49031.88
517.20	49081.03
517.37	48973.37
517.54	48849.32
517.72	49406.37
517.89	48945.28
518.06	49287.00
518.24	49647.44
518.41	49387.64
518.58	49570.21
518.75	49373.60
518.93	49668.51
519.10	49532.76
519.27	49921.29
519.45	50157.68
519.62	49745.75
519.79	50005.55
519.96	50153.00
520.14	50504.08
520.31	50244.28
520.48	50852.82
520.65	50361.31
520.83	50710.05
521.00	50836.44
521.17	50831.75
521.34	51016.66
521.52	50873.88
521.69	50529.83
521.86	51299.86
522.03	51454.34
522.20	51529.23
522.38	51831.16
522.55	51517.53
522.72	51428.59
522.89	51679.03
523.07	52020.75
523.24	51735.20
523.41	52018.41
523.58	51475.40
523.75	52135.43
523.92	52154.16
524.10	52144.80
524.27	51978.62
524.44	52278.21
524.61	52154.16
524.78	52591.84
524.96	52229.05
525.13	52718.23
525.30	52736.95
525.47	52853.98
525.64	52896.11
525.81	52624.60
525.98	52889.09
526.16	52886.74
526.33	52818.87
526.50	53453.15
526.67	53029.52
526.84	53024.84
527.01	52837.59
527.18	53319.74
527.36	53212.08
527.53	53179.31
527.70	53769.13
527.87	53389.96
528.04	53546.78
528.21	53642.74
528.38	53399.32
528.55	53825.30
528.72	53806.58
528.89	53755.08
529.07	53504.65
529.24	53443.79
529.41	53914.24
529.58	54188.08
529.75	53932.96
529.92	53631.04
530.09	54171.70
530.26	53975.09
530.43	54138.93
530.60	53935.30
530.77	54155.32
530.94	54281.70
531.11	54110.85
531.28	54138.93
531.46	54330.86
531.63	54522.78
531.80	54468.95
531.97	54464.27
532.14	54518.10
532.31	54614.06
532.48	54361.28
532.65	54899.61
532.82	54731.09
532.99	54939.39
533.16	55000.25
533.33	54892.58
533.50	55136.00
533.67	54897.27
533.84	54955.78
534.01	54958.12
534.18	55098.55
534.35	55353.67
534.52	55241.32
534.69	55695.39
534.86	55569.00
535.03	55435.59
535.20	55302.18
535.37	55660.28
535.54	55250.69
535.71	55199.19
535.88	55735.18
536.05	55580.70
536.22	55938.80
536.38	55735.18
536.55	55959.87
536.72	55910.72
536.89	55587.72
537.06	55849.86
537.23	55910.72
537.40	55716.45
537.57	55859.23
537.74	56011.36
537.91	56282.86
538.08	55990.30
538.25	55866.25
538.42	55910.72
538.59	56193.92
538.75	55997.32
538.92	56067.53
539.09	56329.67
539.26	56175.20
539.43	56280.52
539.60	56310.95
539.77	56399.89
539.94	56566.07
540.11	56449.04
540.28	56582.45
540.44	56488.83
540.61	56680.75
540.78	56472.45
540.95	56830.55
541.12	56491.17
541.29	56575.43
541.46	56481.81
541.62	56619.90
541.79	56870.34
541.96	56584.79
542.13	56739.27
542.30	56790.76
542.47	56711.18
542.63	57102.05
542.80	57251.84
542.97	56811.82
543.14	57343.12
543.31	57537.39
543.48	57361.85
543.64	57361.85
543.81	57495.26
543.98	57511.64
544.15	57560.79
544.32	57616.97
544.48	57813.57
544.65	57570.16
544.82	57544.41
544.99	57448.45
545.16	57556.11
545.32	57565.48
545.49	57902.51
545.66	57813.57
545.83	57572.50
546.00	57703.57
546.16	57708.25
546.33	57626.33
546.50	57687.18
546.67	57743.36
546.83	57567.82
547.00	57867.40
547.17	57844.00
547.34	57993.79
547.50	58089.76
547.67	58227.85
547.84	58302.74
548.00	58342.53
548.17	58307.43
548.34	58300.40
548.51	58429.13
548.67	58178.70
548.84	58365.94
549.01	58049.97
549.18	58220.83
549.34	58408.07
549.51	58548.50
549.68	58635.10
549.84	58529.78
550.01	58564.88
550.18	58429.13
550.34	58663.19
550.51	58506.37
550.68	58665.53
550.84	58541.48
551.01	58763.83
551.18	58658.51
551.34	58822.34
551.51	58695.95
551.68	58794.26
551.84	58583.61
552.01	58518.07
552.18	58754.47
552.34	58801.28
552.51	58890.22
552.68	58546.16
552.84	58665.53
553.01	59042.35
553.18	58990.86
553.34	59014.27
553.51	58944.05
553.67	59161.72
553.84	58894.90
554.01	59173.42
554.17	59295.13
554.34	58948.73
554.51	59299.81
554.67	59182.79
554.84	59114.91
555.00	59157.04
555.17	59056.40
555.33	59243.64
555.50	59187.47
555.67	59058.74
555.83	59075.12
556.00	59231.94
556.16	59484.72
556.33	59461.31
556.50	59332.58
556.66	59561.95
556.83	59430.88
556.99	59522.16
557.16	59800.69
557.32	59578.34
557.49	59835.80
557.65	59494.08
557.82	59491.74
557.98	59510.46
558.15	59522.16
558.32	59728.13
558.48	59533.87
558.65	59671.96
558.81	59620.47
558.98	59559.61
559.14	59662.60
559.31	59700.04
559.47	59955.16
559.64	59728.13
559.80	59760.90
559.97	59723.45
560.13	59781.96
560.30	59969.21
560.46	59763.24
560.63	59870.90
560.79	59875.58
560.96	59980.91
561.12	59990.27
561.29	60055.81
561.45	59840.48
561.61	59936.44
561.78	59842.82
561.94	59664.94
562.11	59999.63
562.27	59901.33
562.44	60221.98
562.60	60067.51
562.77	60168.15
562.93	59777.28
563.10	60083.89
563.26	60027.72
563.42	60317.95
563.59	60149.43
563.75	60126.02
563.92	60177.51
564.08	60205.60
564.24	60287.52
564.41	60371.78
564.57	60175.17
564.74	60317.95
564.90	60418.59
565.07	60170.49
565.23	60348.37
565.39	60252.41
565.56	60275.82
565.72	60247.73
565.88	60432.63
566.05	60221.98
566.21	60175.17
566.38	60355.39
566.54	60289.86
566.70	60493.49
566.87	60423.27
567.03	60219.64
567.19	60624.56
567.36	60563.70
567.52	60189.22
567.68	60552.00
567.85	60598.81
568.01	60456.04
568.17	60395.18
568.34	60547.32
568.50	60519.23
568.66	60360.08
568.83	60544.98
568.99	60434.97
569.15	60523.91
569.32	60404.55
569.48	60502.85
569.64	60484.12
569.81	60552.00
569.97	60479.44
570.13	60575.40
570.30	60596.47
570.46	60617.53
570.62	60884.36
570.78	60760.31
570.95	60554.34
571.11	60626.90
571.27	60498.17
571.43	60673.71
571.60	60816.48
571.76	60764.99
571.92	60779.03
572.09	60767.33
572.25	60591.79
572.41	60933.51
572.57	60884.36
572.74	60821.16
572.90	60860.95
573.06	60832.86
573.22	60786.05
573.38	60774.35
573.55	60760.31
573.71	60832.86
573.87	60858.61
574.03	60732.22
574.20	60701.79
574.36	60779.03
574.52	60900.74
574.68	60865.63
574.84	60907.76
575.01	60764.99
575.17	60863.29
575.33	60647.96
575.49	60884.36
575.65	61001.38
575.82	60889.04
575.98	60994.36
576.14	61031.81
576.30	60919.46
576.46	60793.07
576.62	60802.44
576.79	60926.49
576.95	60790.73
577.11	61113.73
577.27	61113.73
577.43	60973.30
577.59	60863.29
577.75	60743.92
577.92	60842.23
578.08	61006.06
578.24	60982.66
578.40	61020.11
578.56	61062.24
578.72	60739.24
578.88	61111.39
579.04	61066.92
579.21	61020.11
579.37	61090.32
579.53	61123.09
579.69	60842.23
579.85	61055.21
580.01	60989.68
580.17	60910.10
580.33	60900.74
580.49	61256.50
580.65	60954.57
580.82	60893.72
580.98	61027.13
581.14	60893.72
581.30	61064.58
581.46	61106.71
581.62	61127.77
581.78	61151.18
581.94	60989.68
582.10	60949.89
582.26	61109.05
582.42	60860.95
582.58	61001.38
582.74	61118.41
582.90	61123.09
583.06	60935.85
583.22	60846.91
583.38	60874.99
583.54	60985.00
583.70	61169.90
583.86	61148.84
584.02	61041.17
584.18	61062.24
584.34	61176.92
584.50	61106.71
584.66	60963.93
584.82	61062.24
584.98	61258.84
585.14	61272.88
585.30	60977.98
585.46	61139.47
585.62	61102.03
585.78	61333.74
585.94	60928.83
586.10	61118.41
586.26	61069.26
586.42	61197.99
586.58	61172.24
586.74	61080.96
586.90	61083.30
587.06	61190.97
587.22	61106.71
587.38	61155.86
587.54	61249.48
587.70	61408.64
587.86	61106.71
588.02	61240.12
588.18	61258.84
588.34	61209.69
588.49	61085.64
