SpectraSuite Data File
++++++++++++++++++++++++++++++++++++
Date: Fri Oct 25 11:33:36 EDT 2013
User: price-jones
Dark Spectrum Present: No
Reference Spectrum Present: No
Number of Sampled Component Spectra: 1
Spectrometers: USB2+H05261
Integration Time (usec): 100000 (USB2+H05261)
Spectra Averaged: 1 (USB2+H05261)
Boxcar Smoothing: 0 (USB2+H05261)
Correct for Electrical Dark: No (USB2+H05261)
Strobe/Lamp Enabled: No (USB2+H05261)
Correct for Detector Non-linearity: No (USB2+H05261)
Correct for Stray Light: No (USB2+H05261)
Number of Pixels in Processed Spectrum: 2048
>>>>>Begin Processed Spectral Data<<<<<
365.73	222.35
365.92	222.35
366.12	222.35
366.32	168.52
366.52	161.50
366.72	227.03
366.91	119.37
367.11	191.92
367.31	159.16
367.51	220.01
367.70	133.41
367.90	159.16
368.10	149.79
368.30	205.97
368.49	245.76
368.69	166.18
368.89	241.08
369.09	124.05
369.28	191.92
369.48	257.46
369.68	166.18
369.87	222.35
370.07	161.50
370.27	276.18
370.47	346.40
370.66	507.90
370.86	535.98
371.06	528.96
371.25	613.22
371.45	559.39
371.65	601.52
371.84	585.13
372.04	552.37
372.24	615.56
372.44	662.37
372.63	559.39
372.83	582.79
373.03	692.80
373.22	587.47
373.42	615.56
373.62	575.77
373.81	594.50
374.01	648.33
374.21	629.60
374.40	699.82
374.60	699.82
374.79	669.39
374.99	615.56
375.19	631.94
375.38	669.39
375.58	617.90
375.78	690.46
375.97	554.71
376.17	695.14
376.37	671.73
376.56	638.97
376.76	669.39
376.95	685.78
377.15	746.63
377.35	671.73
377.54	695.14
377.74	774.72
377.93	622.58
378.13	669.39
378.33	760.67
378.52	702.16
378.72	748.97
378.91	622.58
379.11	751.31
379.31	688.12
379.50	653.01
379.70	765.36
379.89	793.44
380.09	685.78
380.28	746.63
380.48	660.03
380.68	704.50
380.87	767.70
381.07	706.84
381.26	727.91
381.46	765.36
381.65	753.65
381.85	779.40
382.04	851.96
382.24	765.36
382.43	709.18
382.63	807.48
382.83	812.17
383.02	847.27
383.22	765.36
383.41	800.46
383.61	805.14
383.80	812.17
384.00	737.27
384.19	798.12
384.39	821.53
384.58	830.89
384.78	791.10
384.97	777.06
385.17	807.48
385.36	828.55
385.56	809.83
385.75	908.13
385.95	819.19
386.14	858.98
386.34	830.89
386.53	933.87
386.72	791.10
386.92	863.66
387.11	870.68
387.31	858.98
387.50	915.15
387.70	835.57
387.89	901.11
388.09	973.66
388.28	912.81
388.48	840.25
388.67	891.74
388.86	931.53
389.06	950.26
389.25	999.41
389.45	947.92
389.64	954.94
389.84	924.51
390.03	887.06
390.22	929.19
390.42	973.66
390.61	994.73
390.81	954.94
391.00	1046.22
391.19	1025.15
391.39	1064.94
391.58	1069.62
391.78	1006.43
391.97	1097.71
392.16	1032.18
392.36	968.98
392.55	968.98
392.75	1032.18
392.94	999.41
393.13	1139.84
393.33	1107.07
393.52	1116.44
393.71	1139.84
393.91	1062.60
394.10	1055.58
394.29	1064.94
394.49	1071.97
394.68	1078.99
394.88	1090.69
395.07	1139.84
395.26	1027.50
395.46	1186.65
395.65	1165.59
395.84	1198.35
396.04	1205.38
396.23	1163.25
396.42	1177.29
396.62	1315.38
396.81	1153.88
397.00	1240.48
397.19	1294.32
397.39	1200.69
397.58	1200.69
397.77	1221.76
397.97	1226.44
398.16	1249.85
398.35	1350.49
398.55	1334.11
398.74	1184.31
398.93	1320.06
399.12	1303.68
399.32	1350.49
399.51	1270.91
399.70	1348.15
399.90	1338.79
400.09	1420.71
400.28	1331.76
400.47	1331.76
400.67	1331.76
400.86	1502.62
401.05	1383.26
401.24	1416.02
401.44	1352.83
401.63	1490.92
401.82	1507.30
402.01	1446.45
402.21	1430.07
402.40	1502.62
402.59	1444.11
402.78	1465.18
402.97	1570.50
403.17	1551.78
403.36	1537.73
403.55	1535.39
403.74	1661.78
403.93	1624.33
404.13	1612.63
404.32	1654.76
404.51	1671.14
404.70	1654.76
404.89	1673.48
405.09	1668.80
405.28	1720.29
405.47	1701.57
405.66	1781.15
405.85	1699.23
406.05	1680.50
406.24	1643.06
406.43	1783.49
406.62	1732.00
406.81	1785.83
407.00	1657.10
407.20	1715.61
407.39	1799.87
407.58	1799.87
407.77	1849.02
407.96	1912.22
408.15	1846.68
408.34	1867.75
408.54	1926.26
408.73	1867.75
408.92	1980.09
409.11	1895.83
409.30	2085.42
409.49	1858.39
409.68	1942.64
409.87	1966.05
410.07	2057.33
410.26	2015.20
410.45	2003.50
410.64	1984.77
410.83	2033.93
411.02	2104.14
411.21	2146.27
411.40	2209.47
411.59	2101.80
411.78	2258.62
411.98	2134.57
412.17	2246.91
412.36	2214.15
412.55	2321.81
412.74	2275.00
412.93	2235.21
413.12	2260.96
413.31	2410.75
413.50	2284.36
413.69	2354.58
413.88	2417.77
414.07	2462.24
414.26	2499.69
414.45	2555.86
414.64	2443.52
414.83	2560.55
415.02	2567.57
415.22	2665.87
415.41	2530.12
415.60	2623.74
415.79	2649.49
415.98	2782.90
416.17	2822.69
416.36	2736.09
416.55	2825.03
416.74	2785.24
416.93	2810.98
417.12	2850.77
417.31	2726.72
417.50	2768.85
417.69	3063.76
417.88	2892.90
418.07	3007.59
418.26	3007.59
418.45	2972.48
418.64	3166.74
418.83	3038.02
419.02	3061.42
419.21	3054.40
419.39	3117.59
419.58	3091.85
419.77	3061.42
419.96	3063.76
420.15	2970.14
420.34	3180.79
420.53	3126.96
420.72	3239.30
420.91	3169.09
421.10	3133.98
421.29	3304.84
421.48	3220.58
421.67	3274.41
421.86	3328.24
422.05	3279.09
422.24	3251.00
422.43	3386.76
422.61	3454.63
422.80	3412.50
422.99	3419.52
423.18	3363.35
423.37	3398.46
423.56	3325.90
423.75	3480.38
423.94	3344.63
424.13	3253.34
424.32	3384.41
424.50	3431.23
424.69	3499.10
424.88	3478.04
425.07	3424.20
425.26	3508.46
425.45	3403.14
425.64	3358.67
425.83	3449.95
426.01	3559.95
426.20	3524.85
426.39	3566.98
426.58	3482.72
426.77	3541.23
426.96	3517.83
427.15	3517.83
427.33	3555.27
427.52	3541.23
427.71	3637.19
427.90	3627.83
428.09	3676.98
428.28	3705.07
428.46	3655.92
428.65	3691.02
428.84	3798.69
429.03	3824.44
429.22	3590.38
429.40	3740.18
429.59	3737.84
429.78	3625.49
429.97	3574.00
430.16	3838.48
430.34	3801.03
430.53	3756.56
430.72	3878.27
430.91	3925.08
431.10	3805.71
431.28	3962.53
431.47	4091.26
431.66	3915.72
431.85	3803.37
432.03	4028.06
432.22	4227.01
432.41	4046.79
432.60	4173.18
432.79	4016.36
432.97	4016.36
433.16	4095.94
433.35	3983.59
433.54	4126.36
433.72	4156.79
433.91	4119.34
434.10	4222.33
434.28	4231.69
434.47	4315.95
434.66	4229.35
434.85	4318.29
435.03	4411.91
435.22	4372.12
435.41	4346.37
435.59	4372.12
435.78	4470.42
435.97	4383.82
436.16	4273.82
436.34	4379.14
436.53	4301.90
436.72	4587.45
436.90	4318.29
437.09	4496.17
437.28	4451.70
437.46	4535.96
437.65	4631.92
437.84	4709.16
438.02	4683.41
438.21	4610.86
438.40	4568.73
438.58	4737.24
438.77	4908.10
438.96	4657.67
439.14	4840.23
439.33	4849.59
439.52	4882.36
439.70	4975.98
439.89	4945.55
440.08	5013.43
440.26	4964.28
440.45	4880.02
440.63	5111.73
440.82	5219.39
441.01	5118.75
441.19	5203.01
441.38	5184.29
441.57	5212.37
441.75	5266.21
441.94	5359.83
442.12	5373.87
442.31	5486.22
442.50	5373.87
442.68	5327.06
442.87	5537.71
443.05	5572.82
443.24	5427.70
443.43	5561.11
443.61	5514.30
443.80	5724.95
443.98	5523.66
444.17	5343.44
444.35	5493.24
444.54	5738.99
444.73	5589.20
444.91	5493.24
445.10	5666.44
445.28	5554.09
445.47	5628.99
445.65	5724.95
445.84	5715.59
446.02	5767.08
446.21	5708.57
446.39	5680.48
446.58	5694.52
446.77	5753.04
446.95	5671.12
447.14	5673.46
447.32	5865.38
447.51	5767.08
447.69	5760.06
447.88	5706.23
448.06	5802.19
448.25	5575.16
448.43	5785.80
448.62	5916.87
448.80	5792.83
448.99	5884.11
449.17	5928.58
449.36	5811.55
449.54	6118.16
449.73	5933.26
449.91	6190.72
450.10	5949.64
450.28	6143.91
450.46	5949.64
450.65	6129.86
450.83	6022.20
451.02	5989.43
451.20	6230.51
451.39	6141.57
451.57	6223.48
451.76	5975.39
451.94	6200.08
452.13	6333.49
452.31	6307.74
452.49	6171.99
452.68	6396.68
452.86	6298.38
453.05	6497.33
453.23	6317.11
453.42	6424.77
453.60	6228.17
453.78	6504.35
453.97	6179.01
454.15	6401.37
454.34	6382.64
454.52	6558.18
454.70	6464.56
454.89	6469.24
455.07	6483.28
455.26	6572.22
455.44	6892.88
455.62	6607.33
455.81	6672.87
455.99	6684.57
456.17	6705.63
456.36	6752.45
456.54	6736.06
456.73	6895.22
456.91	6951.39
457.09	7014.59
457.28	6974.80
457.46	6960.75
457.64	7152.68
457.83	7148.00
458.01	6885.86
458.19	7211.19
458.38	7056.72
458.56	7414.82
458.74	7253.32
458.93	7250.98
459.11	7279.07
459.29	7246.30
459.48	7307.15
459.66	7208.85
459.84	7328.22
460.03	7403.11
460.21	7529.50
460.39	7269.70
460.57	7557.59
460.76	7140.97
460.94	7393.75
461.12	7398.43
461.31	7531.84
461.49	7585.68
461.67	7510.78
461.85	7592.70
462.04	7522.48
462.22	8063.15
462.40	7599.72
462.59	7646.53
462.77	7667.60
462.95	7824.41
463.13	7686.32
463.32	7836.11
463.50	7978.89
463.68	8021.02
463.86	7885.26
464.05	7831.43
464.23	7882.92
464.41	7955.48
464.59	7852.50
464.78	8088.89
464.96	7981.23
465.14	7836.11
465.32	7943.78
465.50	8116.98
465.69	8063.15
465.87	8168.47
466.05	8046.76
466.23	8051.44
466.41	8248.05
466.60	8248.05
466.78	8006.97
466.96	8063.15
467.14	8102.93
467.32	8344.01
467.51	8409.54
467.69	8243.37
467.87	8325.29
468.05	8496.14
468.23	8339.33
468.41	8395.50
468.60	8498.49
468.78	8500.83
468.96	8477.42
469.14	8594.45
469.32	8634.24
469.50	8503.17
469.69	8622.53
469.87	8781.69
470.05	8744.24
470.23	8692.75
470.41	8947.87
470.59	8765.31
470.77	8943.19
470.95	8774.67
471.14	9050.85
471.32	8725.52
471.50	9095.32
471.68	8959.57
471.86	9011.06
472.04	9142.13
472.22	9224.05
472.40	9179.58
472.58	9015.74
472.77	9336.40
472.95	9217.03
473.13	9558.75
473.31	9210.01
473.49	9193.62
473.67	9308.31
473.85	9432.36
474.03	9570.45
474.21	9762.37
474.39	9741.31
474.57	9694.50
474.75	9996.43
474.93	10038.56
475.12	9827.91
475.30	9998.77
475.48	10057.28
475.66	10066.64
475.84	9949.62
476.02	10284.31
476.20	10193.03
476.38	10342.83
476.56	10651.78
476.74	10452.83
476.92	10345.17
477.10	10267.93
477.28	10658.80
477.46	10682.20
477.64	10771.15
477.82	10883.49
478.00	11180.74
478.18	11112.86
478.36	11117.54
478.54	11201.80
478.72	11201.80
478.90	11583.31
479.08	11426.50
479.26	11887.58
479.44	11541.18
479.62	11840.77
479.80	11918.01
479.98	11789.28
480.16	12311.22
480.34	12086.53
480.52	12222.28
480.70	12250.36
480.88	12299.52
481.06	12224.62
481.24	12489.10
481.41	12697.41
481.59	12753.58
481.77	12882.31
481.95	12723.15
482.13	13006.36
482.31	12966.57
482.49	13352.76
482.67	13270.84
482.85	13495.53
483.03	13638.30
483.21	13633.62
483.39	13923.85
483.57	13664.05
483.74	13788.10
483.92	13940.23
484.10	14036.19
484.28	14448.13
484.46	14326.42
484.64	14857.72
484.82	14406.00
485.00	14368.55
485.18	14995.81
485.35	15197.10
485.53	14862.40
485.71	14754.74
485.89	15660.52
486.07	15276.68
486.25	15496.69
486.43	15363.28
486.61	15697.97
486.78	15585.63
486.96	15747.12
487.14	15976.50
487.32	16074.80
487.50	16283.11
487.68	16540.57
487.85	16290.13
488.03	16805.05
488.21	17048.46
488.39	16898.67
488.57	17078.89
488.75	17181.87
488.92	17268.47
489.10	17282.52
489.28	17551.68
489.46	17542.32
489.64	17706.15
489.81	18256.18
489.99	17982.34
490.17	18267.88
490.35	18310.01
490.53	18534.70
490.70	18548.75
490.88	18469.17
491.06	18948.98
491.24	19269.63
491.41	19037.92
491.59	19080.05
491.77	18960.68
491.95	19452.19
492.13	19683.91
492.30	19571.56
492.48	19756.46
492.66	19976.47
492.84	19697.95
493.01	20049.03
493.19	20240.95
493.37	20599.05
493.54	20374.36
493.72	20505.43
493.90	20547.56
494.08	20908.01
494.25	20863.54
494.43	20872.90
494.61	20954.82
494.79	21137.38
494.96	21223.98
495.14	21458.03
495.32	21654.64
495.49	21497.82
495.67	21717.83
495.85	21860.60
496.02	22113.38
496.20	22511.27
496.38	22450.42
496.55	22499.57
496.73	22974.70
496.91	22581.49
497.09	22775.75
497.26	22937.25
497.44	22899.80
497.62	23248.54
497.79	23452.17
497.97	23241.52
498.14	23421.74
498.32	23709.63
498.50	23578.56
498.67	23924.96
498.85	23833.68
499.03	23777.50
499.20	24486.68
499.38	24226.89
499.56	24112.20
499.73	24397.74
499.91	24425.83
500.08	24725.42
500.26	24610.73
500.44	24886.92
500.61	24552.22
500.79	24868.19
500.97	25254.38
501.14	25097.56
501.32	25355.02
501.49	25439.28
501.67	25359.70
501.84	25422.90
502.02	25689.72
502.20	25425.24
502.37	25816.11
502.55	25242.68
502.72	25881.64
502.90	25783.34
503.07	25963.56
503.25	25785.68
503.43	25841.85
503.60	26422.31
503.78	26300.60
503.95	26398.90
504.13	26473.80
504.30	26962.97
504.48	26836.58
504.65	26881.05
504.83	26991.06
505.01	26995.74
505.18	26960.63
505.36	27501.29
505.53	27082.34
505.71	27143.19
505.88	27669.81
506.06	27508.32
506.23	27459.16
506.41	27173.62
506.58	27948.34
506.76	27793.86
506.93	28180.05
507.11	28161.33
507.28	27997.49
507.46	28381.34
507.63	28301.76
507.81	28467.94
507.98	28442.19
508.16	28421.13
508.33	28362.61
508.50	28629.43
508.68	28643.48
508.85	28968.81
509.03	29017.96
509.20	29081.16
509.38	29369.04
509.55	29184.14
509.73	29565.65
509.90	29736.51
510.08	29448.62
510.25	29357.34
510.42	29450.96
510.60	29675.65
510.77	29853.53
510.95	30071.20
511.12	30136.74
511.30	30118.01
511.47	30272.49
511.64	30075.88
511.82	30246.74
511.99	30274.83
512.17	30211.64
512.34	30520.59
512.51	30822.51
512.69	31035.50
512.86	30614.21
513.04	31077.63
513.21	31026.14
513.38	30871.67
513.56	31197.00
513.73	30759.32
513.90	31363.18
514.08	31178.28
514.25	31599.57
514.43	31211.04
514.60	31669.79
514.77	31344.45
514.95	31948.31
515.12	31360.84
515.29	31749.37
515.47	32353.23
515.64	32329.82
515.81	31950.65
515.99	32114.49
516.16	32404.72
516.33	32273.65
516.51	32381.31
516.68	32194.07
516.85	32353.23
517.03	32844.74
517.20	32877.51
517.37	32648.13
517.54	32713.67
517.72	32737.07
517.89	32968.79
518.06	33273.06
518.24	33053.05
518.41	32971.13
518.58	32863.46
518.75	32701.96
518.93	33591.37
519.10	33305.82
519.27	33603.07
519.45	33228.59
519.62	33713.08
519.79	33757.55
519.96	33752.87
520.14	34115.65
520.31	33991.60
520.48	34216.29
520.65	34022.03
520.83	34422.26
521.00	34319.28
521.17	34459.71
521.34	34625.89
521.52	34342.68
521.69	34597.80
521.86	34691.42
522.03	34986.33
522.20	34806.11
522.38	35117.40
522.55	34703.12
522.72	34749.93
522.89	35225.06
523.07	35569.12
523.24	34974.63
523.41	35178.25
523.58	35189.95
523.75	35648.70
523.92	35171.23
524.10	35763.39
524.27	35669.76
524.44	35751.68
524.61	35522.31
524.78	36210.43
524.96	35779.77
525.13	36062.97
525.30	35885.09
525.47	35950.63
525.64	36182.34
525.81	36238.51
525.98	36067.66
526.16	36369.58
526.33	36116.81
526.50	36414.05
526.67	36280.64
526.84	36369.58
527.01	36758.11
527.18	36811.95
527.36	36790.88
527.53	36601.30
527.70	37146.64
527.87	36776.84
528.04	36797.90
528.21	37118.56
528.38	37163.03
528.55	37081.11
528.72	37226.22
528.89	37677.94
529.07	37223.88
529.24	37074.09
529.41	37092.81
529.58	37654.54
529.75	37811.35
529.92	37523.47
530.09	37930.72
530.26	37783.27
530.43	37745.82
530.60	37689.65
530.77	37724.75
530.94	37797.31
531.11	37844.12
531.28	37661.56
531.46	37968.17
531.63	37680.28
531.80	38019.66
531.97	38057.11
532.14	38263.08
532.31	37961.15
532.48	38539.26
532.65	38958.22
532.82	38480.75
532.99	38375.42
533.16	38522.88
533.33	39136.10
533.50	38548.62
533.67	38251.38
533.84	38623.52
534.01	39222.70
534.18	39180.57
534.35	39323.34
534.52	39274.19
534.69	38925.45
534.86	39110.35
535.03	39306.96
535.20	39508.24
535.37	39438.03
535.54	39903.79
535.71	39501.22
535.88	39686.12
536.05	39793.79
536.22	39763.36
536.38	39590.16
536.55	39566.76
536.72	40072.31
536.89	39367.81
537.06	39976.35
537.23	39620.59
537.40	40004.44
537.57	39515.26
537.74	39716.55
537.91	40079.33
538.08	40210.40
538.25	40100.40
538.42	40025.50
538.59	40353.18
538.75	40273.60
538.92	40273.60
539.09	40713.62
539.26	40612.98
539.43	40477.22
539.60	40297.00
539.77	39929.54
539.94	40708.94
540.11	40620.00
540.28	40912.56
540.44	40840.01
540.61	40942.99
540.78	40587.23
540.95	41116.19
541.12	40832.99
541.29	40804.90
541.46	41118.53
541.62	41347.90
541.79	41378.33
541.96	40945.33
542.13	40868.09
542.30	40891.50
542.47	41277.69
542.63	41364.29
542.80	41256.62
542.97	41755.16
543.14	42038.36
543.31	41558.55
543.48	41443.87
543.64	42143.69
543.81	42426.89
543.98	41511.74
544.15	41942.40
544.32	41797.29
544.48	42068.79
544.65	42213.90
544.82	42253.69
544.99	41830.05
545.16	42188.16
545.32	42234.97
545.49	42408.17
545.66	42939.47
545.83	42632.86
546.00	42799.04
546.16	42574.34
546.33	42328.59
546.50	42328.59
546.67	42253.69
546.83	42340.29
547.00	42546.26
547.17	42403.49
547.34	42740.52
547.50	43056.50
547.67	43070.54
547.84	42969.90
548.00	42848.19
548.17	43374.81
548.34	43360.76
548.51	43360.76
548.67	43714.19
548.84	42667.97
549.01	43014.37
549.18	43405.23
549.34	43761.00
549.51	43468.43
549.68	43585.46
549.84	43505.88
550.01	43571.41
550.18	43054.15
550.34	43622.90
550.51	43924.83
550.68	43749.29
550.84	43517.58
551.01	43337.36
551.18	43412.26
551.34	43452.05
551.51	43763.34
551.68	43690.78
551.84	43962.28
552.01	43381.83
552.18	43882.70
552.34	43810.15
552.51	43744.61
552.68	44151.87
552.84	44210.38
553.01	44032.50
553.18	44432.73
553.34	44381.24
553.51	44023.14
553.67	44133.14
553.84	44341.45
554.01	44172.93
554.17	44502.95
554.34	44715.93
554.51	44605.93
554.67	44421.03
554.84	44882.11
555.00	44701.89
555.17	44795.51
555.33	44435.07
555.50	44535.71
555.67	45155.96
555.83	44491.24
556.00	45191.06
556.16	45067.02
556.33	44762.75
556.50	44924.24
556.66	44917.22
556.83	44725.30
556.99	45303.41
557.16	44793.17
557.32	45085.74
557.49	44975.73
557.65	44879.77
557.82	44863.39
557.98	45069.36
558.15	45240.21
558.32	44947.65
558.48	45024.89
558.65	45289.37
558.81	45139.57
558.98	45155.96
559.14	45268.30
559.31	44882.11
559.47	45258.94
559.64	45336.18
559.80	45757.47
559.97	45331.50
560.13	45584.27
560.30	45390.01
560.46	46064.08
560.63	45640.45
560.79	45603.00
560.96	45951.74
561.12	45940.04
561.29	45792.58
561.45	45785.56
561.61	45551.51
561.78	44982.76
561.94	45848.75
562.11	45474.27
562.27	45287.03
562.44	45785.56
562.60	46204.52
562.77	45944.72
562.93	45617.04
563.10	45935.35
563.26	45801.94
563.42	46356.65
563.59	45771.52
563.75	46071.10
563.92	45865.14
564.08	46066.42
564.24	46045.36
564.41	45904.93
564.57	45780.88
564.74	45799.60
564.90	45841.73
565.07	45958.76
565.23	46059.40
565.39	46265.37
565.56	46623.47
565.72	46351.97
565.88	46010.25
566.05	46087.49
566.21	46251.33
566.38	46227.92
566.54	46433.89
566.70	46902.00
566.87	46305.16
567.03	46431.55
567.19	46211.54
567.36	46326.22
567.52	46342.61
567.68	46639.86
567.85	46384.74
568.01	46681.98
568.17	46293.46
568.34	46415.16
568.50	46506.44
568.66	46440.91
568.83	46401.12
568.99	46426.87
569.15	46422.19
569.32	46490.06
569.48	46328.56
569.64	46347.29
569.81	46855.18
569.97	47058.81
570.13	46370.69
570.30	46361.33
570.46	46590.70
570.62	46567.30
570.78	46541.55
570.95	46660.92
571.11	46752.20
571.27	46431.55
571.43	46536.87
571.60	46754.54
571.76	46569.64
571.92	46878.59
572.09	46302.82
572.25	46476.02
572.41	46962.85
572.57	46679.64
572.74	47000.30
572.90	46719.43
573.06	47089.24
573.22	47105.62
573.38	46843.48
573.55	46918.38
573.71	47110.30
573.87	46667.94
574.03	46719.43
574.20	46951.15
574.36	47009.66
574.52	46880.93
574.68	46733.48
574.84	47016.68
575.01	47023.70
575.17	47299.89
575.33	46939.44
575.49	46862.21
575.65	47112.64
575.82	47182.86
575.98	47049.45
576.14	47320.95
576.30	47515.22
576.46	46763.90
576.62	46983.91
576.79	47189.88
576.95	46424.53
577.11	46555.60
577.27	46995.62
577.43	46878.59
577.59	47143.07
577.75	46717.09
577.92	46450.27
578.08	47058.81
578.24	46871.57
578.40	47117.32
578.56	47014.34
578.72	47030.72
578.88	47342.02
579.04	47103.28
579.21	47318.61
579.37	47309.25
579.53	47213.29
579.69	46902.00
579.85	46902.00
580.01	47564.37
580.17	47232.01
580.33	47407.55
580.49	47208.61
580.65	47058.81
580.82	47061.15
580.98	47175.84
581.14	47049.45
581.30	47437.98
581.46	47023.70
581.62	47295.21
581.78	46719.43
581.94	47487.13
582.10	46894.97
582.26	47615.86
582.42	47437.98
582.58	47164.14
582.74	47288.18
582.90	47157.11
583.06	47636.92
583.22	47140.73
583.38	47583.09
583.54	47384.15
583.70	47353.72
583.86	47604.16
584.02	47089.24
584.18	47669.69
584.34	47578.41
584.50	47585.43
584.66	47599.47
584.82	46880.93
584.98	47597.13
585.14	47526.92
585.30	47276.48
585.46	47091.58
585.62	46873.91
585.78	47402.87
585.94	46962.85
586.10	47236.69
586.26	47224.99
586.42	47131.37
586.58	47470.75
586.74	47639.26
586.90	47192.22
587.06	47346.70
587.22	47536.28
587.38	47201.58
587.54	47655.65
587.70	47730.54
587.86	47501.17
588.02	47166.48
588.18	47508.19
588.34	47269.46
588.49	47269.46
588.65	47297.55
588.81	47159.45
588.97	47494.15
589.13	47508.19
589.29	47585.43
589.45	47732.89
589.61	47812.46
589.77	48037.16
589.93	47674.37
590.08	47620.54
