SpectraSuite Data File
++++++++++++++++++++++++++++++++++++
Date: Fri Oct 25 10:47:52 EDT 2013
User: price-jones
Dark Spectrum Present: No
Reference Spectrum Present: No
Number of Sampled Component Spectra: 1
Spectrometers: USB2+H05261
Integration Time (usec): 100000 (USB2+H05261)
Spectra Averaged: 1 (USB2+H05261)
Boxcar Smoothing: 0 (USB2+H05261)
Correct for Electrical Dark: No (USB2+H05261)
Strobe/Lamp Enabled: No (USB2+H05261)
Correct for Detector Non-linearity: No (USB2+H05261)
Correct for Stray Light: No (USB2+H05261)
Number of Pixels in Processed Spectrum: 2048
>>>>>Begin Processed Spectral Data<<<<<
365.73	140.43
365.92	140.43
366.12	140.43
366.32	39.79
366.52	100.64
366.72	53.83
366.91	0.00
367.11	67.88
367.31	39.79
367.51	60.85
367.70	60.85
367.90	98.30
368.10	86.60
368.30	16.38
368.49	0.00
368.69	53.83
368.89	51.49
369.09	63.19
369.28	98.30
369.48	42.13
369.68	95.96
369.87	138.09
370.07	100.64
370.27	159.16
370.47	135.75
370.66	416.62
370.86	437.68
371.06	442.36
371.25	470.45
371.45	440.02
371.65	444.70
371.84	440.02
372.04	414.27
372.24	449.38
372.44	449.38
372.63	519.60
372.83	526.62
373.03	482.15
373.22	477.47
373.42	550.03
373.62	454.06
373.81	547.69
374.01	517.26
374.21	552.37
374.40	580.45
374.60	493.85
374.79	559.39
374.99	587.47
375.19	561.73
375.38	568.75
375.58	526.62
375.78	601.52
375.97	599.18
376.17	573.43
376.37	610.88
376.56	517.26
376.76	547.69
376.95	533.64
377.15	592.16
377.35	608.54
377.54	568.75
377.74	660.03
377.93	505.56
378.13	617.90
378.33	674.07
378.52	638.97
378.72	734.93
378.91	634.29
379.11	683.44
379.31	582.79
379.50	669.39
379.70	641.31
379.89	671.73
380.09	653.01
380.28	573.43
380.48	674.07
380.68	608.54
380.87	552.37
381.07	622.58
381.26	753.65
381.46	657.69
381.65	653.01
381.85	627.26
382.04	676.41
382.24	695.14
382.43	641.31
382.63	671.73
382.83	697.48
383.02	713.86
383.22	695.14
383.41	664.71
383.61	681.10
383.80	704.50
384.00	774.72
384.19	760.67
384.39	767.70
384.58	657.69
384.78	709.18
384.97	819.19
385.17	758.33
385.36	741.95
385.56	741.95
385.75	805.14
385.95	737.27
386.14	835.57
386.34	760.67
386.53	833.23
386.72	734.93
386.92	828.55
387.11	856.64
387.31	882.38
387.50	793.44
387.70	793.44
387.89	830.89
388.09	847.27
388.28	781.74
388.48	882.38
388.67	826.21
388.86	849.61
389.06	936.21
389.25	863.66
389.45	826.21
389.64	945.58
389.84	938.55
390.03	933.87
390.22	971.32
390.42	894.08
390.61	943.24
390.81	931.53
391.00	947.92
391.19	959.62
391.39	971.32
391.58	858.98
391.78	971.32
391.97	936.21
392.16	973.66
392.36	910.47
392.55	964.30
392.75	968.98
392.94	938.55
393.13	976.00
393.33	1036.86
393.52	997.07
393.71	1015.79
393.91	1071.97
394.10	1067.28
394.29	1097.71
394.49	1146.86
394.68	1107.07
394.88	1142.18
395.07	1076.65
395.26	1086.01
395.46	1130.48
395.65	1184.31
395.84	1226.44
396.04	1167.93
396.23	1139.84
396.42	1139.84
396.62	1015.79
396.81	1104.73
397.00	1196.01
397.19	1104.73
397.39	1247.51
397.58	1299.00
397.77	1291.98
397.97	1231.12
398.16	1231.12
398.35	1313.04
398.55	1266.23
398.74	1291.98
398.93	1352.83
399.12	1343.47
399.32	1221.76
399.51	1303.68
399.70	1357.51
399.90	1341.13
400.09	1315.38
400.28	1502.62
400.47	1322.40
400.67	1493.26
400.86	1427.73
401.05	1242.82
401.24	1462.83
401.44	1444.11
401.63	1394.96
401.82	1451.13
402.01	1483.90
402.21	1535.39
402.40	1537.73
402.59	1568.16
402.78	1530.71
402.97	1533.05
403.17	1577.52
403.36	1598.59
403.55	1626.67
403.74	1685.19
403.93	1692.21
404.13	1638.38
404.32	1636.03
404.51	1720.29
404.70	1664.12
404.89	1643.06
405.09	1722.63
405.28	1678.16
405.47	1741.36
405.66	1727.32
405.85	1806.89
406.05	1755.40
406.24	1844.34
406.43	1741.36
406.62	1746.04
406.81	1830.30
407.00	1846.68
407.20	1781.15
407.39	1811.57
407.58	1928.60
407.77	1837.32
407.96	1823.28
408.15	1937.96
408.34	1991.80
408.54	2045.63
408.73	1956.69
408.92	2015.20
409.11	2057.33
409.30	2127.55
409.49	1994.14
409.68	2005.84
409.87	2125.21
410.07	2045.63
410.26	2172.02
410.45	2134.57
410.64	2190.74
410.83	2232.87
411.02	2214.15
411.21	2239.89
411.40	2256.28
411.59	2251.60
411.78	2232.87
411.98	2249.25
412.17	2406.07
412.36	2279.68
412.55	2413.09
412.74	2480.97
412.93	2429.48
413.12	2415.43
413.31	2553.52
413.50	2562.89
413.69	2464.58
413.88	2455.22
414.07	2623.74
414.26	2626.08
414.45	2663.53
414.64	2595.65
414.83	2703.32
415.02	2693.96
415.22	2778.22
415.41	2874.18
415.60	2691.62
415.79	2827.37
415.98	2923.33
416.17	2860.13
416.36	2902.26
416.55	2848.43
416.74	2928.01
416.93	2897.58
417.12	2953.76
417.31	2932.69
417.50	2897.58
417.69	3138.66
417.88	3176.11
418.07	3021.63
418.26	3089.51
418.45	3002.91
418.64	3241.64
418.83	3068.44
419.02	3192.49
419.21	3215.90
419.39	3052.06
419.58	3206.53
419.77	3150.36
419.96	3173.77
420.15	3288.45
420.34	3318.88
420.53	3339.94
420.72	3499.10
420.91	3363.35
421.10	3426.54
421.29	3503.78
421.48	3281.43
421.67	3520.17
421.86	3396.12
422.05	3412.50
422.24	3412.50
422.43	3520.17
422.61	3513.14
422.80	3478.04
422.99	3452.29
423.18	3510.80
423.37	3660.60
423.56	3662.94
423.75	3456.97
423.94	3461.65
424.13	3251.00
424.32	3482.72
424.50	3545.91
424.69	3545.91
424.88	3714.43
425.07	3531.87
425.26	3574.00
425.45	3534.21
425.64	3574.00
425.83	3473.36
426.01	3524.85
426.20	3595.06
426.39	3639.53
426.58	3548.25
426.77	3536.55
426.96	3637.19
427.15	3681.66
427.33	3754.22
427.52	3632.51
427.71	3796.35
427.90	3716.77
428.09	3808.05
428.28	3836.14
428.46	3808.05
428.65	3861.88
428.84	3831.46
429.03	3941.46
429.22	3859.54
429.40	3836.14
429.59	3904.01
429.78	3681.66
429.97	3686.34
430.16	3665.28
430.34	3740.18
430.53	3810.39
430.72	3934.44
430.91	3733.15
431.10	3871.25
431.28	4100.62
431.47	4217.65
431.66	4077.21
431.85	4002.32
432.03	4142.75
432.22	4175.52
432.41	4285.52
432.60	4339.35
432.79	4121.68
432.97	4264.46
433.16	4285.52
433.35	4212.96
433.54	4299.56
433.72	4348.72
433.91	4170.83
434.10	4374.46
434.28	4191.90
434.47	4250.41
434.66	4358.08
434.85	4334.67
435.03	4367.44
435.22	4390.84
435.41	4631.92
435.59	4514.89
435.78	4397.87
435.97	4636.60
436.16	4573.41
436.34	4578.09
436.53	4550.00
436.72	4727.88
436.90	4575.75
437.09	4758.31
437.28	4564.04
437.46	4641.28
437.65	4571.07
437.84	4770.01
438.02	4542.98
438.21	4704.48
438.40	4627.24
438.58	4844.91
438.77	4823.84
438.96	4891.72
439.14	4865.97
439.33	5097.69
439.52	5104.71
439.70	4957.25
439.89	5085.98
440.08	5043.85
440.26	5224.08
440.45	5135.14
440.63	5214.71
440.82	5203.01
441.01	5334.08
441.19	5394.93
441.38	5380.89
441.57	5397.28
441.75	5556.43
441.94	5579.84
442.12	5516.64
442.31	5678.14
442.50	5626.65
442.68	5554.09
442.87	5647.71
443.05	5713.25
443.24	5736.65
443.43	5678.14
443.61	5586.86
443.80	5930.92
443.98	5565.79
444.17	5502.60
444.35	5888.79
444.54	5834.96
444.73	5905.17
444.91	5708.57
445.10	5792.83
445.28	5792.83
445.47	5783.46
445.65	5706.23
445.84	5830.27
446.02	5839.64
446.21	5806.87
446.39	5865.38
446.58	5956.66
446.77	5856.02
446.95	5727.29
447.14	5919.21
447.32	6115.82
447.51	6057.31
447.69	5970.71
447.88	5987.09
448.06	5811.55
448.25	6108.80
448.43	6012.84
448.62	6069.01
448.80	6162.63
448.99	6101.78
449.17	6122.84
449.36	6073.69
449.54	6090.07
449.73	6314.77
449.91	6300.72
450.10	6361.58
450.28	6328.81
450.46	6352.21
450.65	6429.45
450.83	6490.31
451.02	6331.15
451.20	6448.18
451.39	6420.09
451.57	6319.45
451.76	6604.99
451.94	6345.19
452.13	6424.77
452.31	6607.33
452.49	6303.06
452.68	6544.14
452.86	6469.24
453.05	6572.22
453.23	6764.15
453.42	6513.71
453.60	6675.21
453.78	6635.42
453.97	6525.41
454.15	6609.67
454.34	6492.65
454.52	6815.64
454.70	6843.73
454.89	6771.17
455.07	6586.27
455.26	6951.39
455.44	6691.59
455.62	6860.11
455.81	6956.07
455.99	6967.77
456.17	7040.33
456.36	7045.01
456.54	7019.27
456.73	7162.04
456.91	7157.36
457.09	7417.16
457.28	7377.37
457.46	7162.04
457.64	7470.99
457.83	7258.00
458.01	7112.89
458.19	7442.90
458.38	7386.73
458.56	7368.01
458.74	7356.30
458.93	7419.50
459.11	7499.08
459.29	7513.12
459.48	7543.55
459.66	7314.17
459.84	7534.18
460.03	7681.64
460.21	7672.28
460.39	7705.04
460.57	7447.58
460.76	7744.83
460.94	7941.44
461.12	7779.94
461.31	7779.94
461.49	7873.56
461.67	7719.09
461.85	7985.91
462.04	7791.64
462.22	8372.10
462.40	7903.99
462.59	8086.55
462.77	7847.82
462.95	8009.31
463.13	8042.08
463.32	7915.69
463.50	8116.98
463.68	7950.80
463.86	8032.72
464.05	7950.80
464.23	8138.04
464.41	8226.98
464.59	8046.76
464.78	8166.13
464.96	8329.97
465.14	8315.92
465.32	8381.46
465.50	8339.33
465.69	8203.58
465.87	8217.62
466.05	8255.07
466.23	8311.24
466.41	8241.03
466.60	8557.00
466.78	8428.27
466.96	8503.17
467.14	8299.54
467.32	8404.86
467.51	8409.54
467.69	8147.40
467.87	8409.54
468.05	8727.86
468.23	8479.76
468.41	8524.23
468.60	8479.76
468.78	8727.86
468.96	8634.24
469.14	8624.87
469.32	8669.34
469.50	8769.99
469.69	8856.59
469.87	8779.35
470.05	8912.76
470.23	8889.35
470.41	8992.34
470.59	9125.75
470.77	9102.34
470.95	8973.61
471.14	9378.53
471.32	8854.25
471.50	9383.21
471.68	9364.48
471.86	9256.82
472.04	9341.08
472.22	9479.17
472.40	9205.33
472.58	9343.42
472.77	9486.19
472.95	9680.46
473.13	9795.14
473.31	9647.69
473.49	9572.79
473.67	9570.45
473.85	9738.97
474.03	10019.83
474.21	9928.55
474.39	9809.19
474.57	9991.75
474.75	10033.88
474.93	10045.58
475.12	9944.94
475.30	10300.70
475.48	10150.90
475.66	10335.81
475.84	10366.23
476.02	10354.53
476.20	10314.74
476.38	10583.90
476.56	10768.80
476.74	10714.97
476.92	10693.91
477.10	10700.93
477.28	11080.10
477.46	10810.93
477.64	10897.53
477.82	11098.82
478.00	11248.61
478.18	11225.21
478.36	11595.01
478.54	11391.39
478.72	11672.25
478.90	11707.36
479.08	11789.28
479.26	12035.03
479.44	12028.01
479.62	12161.42
479.80	12152.06
479.98	12135.68
480.16	12432.93
480.34	11985.88
480.52	12325.26
480.70	12662.30
480.88	12301.86
481.06	12278.45
481.24	12727.83
481.41	12973.59
481.59	12950.18
481.77	13245.09
481.95	13158.49
482.13	13099.98
482.31	13322.33
482.49	13394.89
482.67	13582.13
482.85	13441.70
483.03	13713.20
483.21	13893.42
483.39	13914.48
483.57	14005.77
483.74	14207.05
483.92	14384.93
484.10	14394.29
484.28	14553.45
484.46	14588.56
484.64	14977.09
484.82	14740.69
485.00	14885.81
485.18	15161.99
485.35	14984.11
485.53	14956.02
485.71	14988.79
485.89	15082.41
486.07	15431.15
486.25	15557.54
486.43	15477.96
486.61	15616.05
486.78	15758.83
486.96	16006.92
487.14	16238.64
487.32	16561.63
487.50	16458.65
487.68	16781.64
487.85	16919.73
488.03	16833.13
488.21	17310.60
488.39	16947.82
488.57	17352.73
488.75	17247.41
488.92	17441.67
489.10	17535.29
489.28	17881.69
489.46	17755.30
489.64	17575.08
489.81	18532.36
489.99	18349.80
490.17	18567.47
490.35	18415.34
490.53	18515.98
490.70	18773.44
490.88	18972.38
491.06	19192.39
491.24	18984.09
491.41	19094.09
491.59	19339.85
491.77	19281.33
491.95	19541.13
492.13	19697.95
492.30	19761.14
492.48	19807.95
492.66	19920.30
492.84	19999.88
493.01	20243.29
493.19	20283.08
493.37	20608.42
493.54	20404.79
493.72	20500.75
493.90	21010.99
494.08	20844.81
494.25	21078.86
494.43	21153.76
494.61	21364.41
494.79	21673.36
494.96	21186.53
495.14	21212.28
495.32	21738.90
495.49	21867.63
495.67	21851.24
495.85	22094.66
496.02	22181.26
496.20	22579.15
496.38	22363.82
496.55	22546.38
496.73	22995.76
496.91	22473.82
497.09	22686.81
497.26	22885.76
497.44	23037.89
497.62	23288.33
497.79	23220.45
497.97	23173.64
498.14	23290.67
498.32	23601.96
498.50	23625.37
498.67	23686.22
498.85	23590.26
499.03	24119.22
499.20	23929.64
499.38	24283.06
499.56	24070.07
499.73	24297.10
499.91	23997.51
500.08	24702.01
500.26	24390.72
500.44	24790.95
500.61	24716.06
500.79	24776.91
500.97	24734.78
501.14	25408.86
501.32	25453.33
501.49	25064.80
501.67	25193.53
501.84	25378.43
502.02	25476.73
502.20	25802.07
502.37	25628.87
502.55	25724.83
502.72	25689.72
502.90	25678.02
503.07	26071.23
503.25	26082.93
503.43	26082.93
503.60	26272.51
503.78	26012.71
503.95	26316.98
504.13	26106.34
504.30	26494.86
504.48	26316.98
504.65	26583.80
504.83	26977.01
505.01	27143.19
505.18	26677.43
505.36	27065.96
505.53	27040.21
505.71	27517.68
505.88	27686.20
506.06	26981.70
506.23	27344.48
506.41	27274.26
506.58	27880.46
506.76	27704.92
506.93	27955.36
507.11	27995.15
507.28	27686.20
507.46	27667.47
507.63	27976.42
507.81	27953.02
507.98	28002.17
508.16	28173.03
508.33	28287.71
508.50	28060.68
508.68	28570.92
508.85	28601.35
509.03	29099.88
509.20	28886.89
509.38	28905.62
509.55	29420.53
509.73	29226.27
509.90	29308.19
510.08	28793.27
510.25	29537.56
510.42	29305.85
510.60	29715.44
510.77	29551.60
510.95	29549.26
511.12	29507.13
511.30	30066.52
511.47	30015.03
511.64	29905.02
511.82	30183.55
511.99	30148.44
512.17	30050.14
512.34	30211.64
512.51	30511.22
512.69	30724.21
512.86	30682.08
513.04	30630.59
513.21	30244.40
513.38	30670.38
513.56	30663.36
513.73	30754.64
513.90	30874.01
514.08	30883.37
514.25	31615.96
514.43	31246.15
514.60	30766.34
514.77	31192.32
514.95	31145.51
515.12	31323.39
515.29	31365.52
515.47	31424.03
515.64	31274.24
515.81	31531.70
515.99	31990.44
516.16	31807.88
516.33	31562.12
516.51	32086.40
516.68	31152.53
516.85	31505.95
517.03	31700.22
517.20	31938.95
517.37	32081.72
517.54	32554.51
517.72	32503.02
517.89	32304.07
518.06	32451.53
518.24	32196.41
518.41	32329.82
518.58	32404.72
518.75	32552.17
518.93	33034.32
519.10	32528.77
519.27	32669.20
519.45	33064.75
519.62	33003.89
519.79	33291.78
519.96	32973.47
520.14	33647.54
520.31	32933.68
520.48	33434.55
520.65	33453.28
520.83	33795.00
521.00	33631.16
521.17	33628.82
521.34	33919.04
521.52	33820.74
521.69	33956.49
521.86	33860.53
522.03	33963.51
522.20	34239.70
522.38	34281.83
522.55	34323.96
522.72	34382.47
522.89	34185.86
523.07	34511.20
523.24	34546.31
523.41	34576.73
523.58	34377.79
523.75	34883.34
523.92	34529.92
524.10	34799.08
524.27	34930.16
524.44	34909.09
524.61	35030.80
524.78	35196.98
524.96	35005.05
525.13	35278.89
525.30	35742.32
525.47	35398.26
525.64	35587.85
525.81	35541.03
525.98	35599.55
526.16	35157.19
526.33	35571.46
526.50	35655.72
526.67	35058.88
526.84	35597.21
527.01	35550.40
527.18	36044.25
527.36	36025.53
527.53	36264.26
527.70	36465.55
527.87	36521.72
528.04	36105.10
528.21	36280.64
528.38	36290.01
528.55	36271.28
528.72	36369.58
528.89	36491.29
529.07	36177.66
529.24	36301.71
529.41	36334.48
529.58	36982.80
529.75	36453.84
529.92	36346.18
530.09	37193.45
530.26	36734.71
530.43	36774.50
530.60	36905.57
530.77	36835.35
530.94	37046.00
531.11	37174.73
531.28	37205.16
531.46	37390.06
531.63	37216.86
531.80	37172.39
531.97	37336.23
532.14	37317.50
532.31	37048.34
532.48	37628.79
532.65	37654.54
532.82	37228.56
532.99	37975.19
533.16	37830.08
533.33	37764.54
533.50	37926.04
533.67	38291.16
533.84	37532.83
534.01	37741.14
534.18	37926.04
534.35	37837.10
534.52	37790.29
534.69	37942.42
534.86	38157.75
535.03	38272.44
535.20	38260.74
535.37	38466.70
535.54	38721.82
535.71	38415.21
535.88	38164.78
536.05	38499.47
536.22	38656.29
536.38	38555.64
536.55	38494.79
536.72	38845.87
536.89	38637.56
537.06	38696.08
537.23	39056.52
537.40	38476.07
537.57	38869.28
537.74	39086.95
537.91	39246.10
538.08	39093.97
538.25	38555.64
538.42	38885.66
538.59	39037.80
538.75	38880.98
538.92	38986.30
539.09	39323.34
539.26	39325.68
539.43	39253.12
539.60	39597.18
539.77	39421.64
539.94	39529.31
540.11	38988.64
540.28	39510.58
540.44	39489.52
540.61	39936.56
540.78	39332.70
540.95	39435.69
541.12	39232.06
541.29	39398.24
541.46	39449.73
541.62	39585.48
541.79	39899.11
541.96	39426.32
542.13	39700.17
542.30	39793.79
542.47	39913.16
542.63	39599.52
542.80	40371.90
542.97	40397.65
543.14	40971.08
543.31	40694.89
543.48	40762.77
543.64	41172.36
543.81	40514.67
543.98	40505.31
544.15	40671.49
544.32	41024.91
544.48	41357.27
544.65	40851.71
544.82	40809.58
544.99	40638.72
545.16	40973.42
545.32	40865.75
545.49	40966.40
545.66	40706.60
545.83	41095.13
546.00	41495.36
546.16	41654.51
546.33	40765.11
546.50	40524.04
546.67	41097.47
546.83	40952.35
547.00	41390.03
547.17	41050.66
547.34	40868.09
547.50	41067.04
547.67	41509.40
547.84	41301.09
548.00	41581.96
548.17	41825.37
548.34	41233.22
548.51	42052.41
548.67	41708.35
548.84	41584.30
549.01	41600.68
549.18	41464.93
549.34	41621.75
549.51	42038.36
549.68	42085.17
549.84	41717.71
550.01	42047.72
550.18	41914.31
550.34	42071.13
550.51	41832.39
550.68	41961.12
550.84	41790.27
551.01	42232.63
551.18	42167.09
551.34	41759.84
551.51	42190.50
551.68	42499.45
551.84	41893.25
552.01	41979.85
552.18	42368.38
552.34	42026.66
552.51	42445.62
552.68	42452.64
552.84	42384.76
553.01	42684.35
553.18	42227.95
553.34	42595.41
553.51	42244.33
553.67	42602.43
553.84	42955.85
554.01	42096.88
554.17	42831.80
554.34	43185.22
554.51	42616.47
554.67	43096.28
554.84	42862.23
555.00	42871.59
555.17	42415.19
555.33	42941.81
555.50	42965.21
555.67	42721.80
555.83	42955.85
556.00	43255.44
556.16	43339.70
556.33	43124.37
556.50	43140.75
556.66	42899.68
556.83	43203.95
556.99	43164.16
557.16	43131.39
557.32	43192.25
557.49	43393.53
557.65	42883.30
557.82	43049.47
557.98	43215.65
558.15	43220.33
558.32	43683.76
558.48	43180.54
558.65	43070.54
558.81	43138.41
558.98	43407.58
559.14	43531.62
559.31	43304.59
559.47	43711.84
559.64	43833.55
559.80	43618.22
559.97	43606.52
560.13	42909.04
560.30	43475.45
560.46	42967.55
560.63	43388.85
560.79	43482.47
560.96	43952.92
561.12	43597.16
561.29	43674.40
561.45	43639.29
561.61	43498.86
561.78	43386.51
561.94	43365.45
562.11	43496.52
562.27	43559.71
562.44	43709.50
562.60	43878.02
562.77	44006.75
562.93	43863.98
563.10	43833.55
563.26	43894.41
563.42	43679.08
563.59	43807.81
563.75	43793.76
563.92	43995.05
564.08	43597.16
564.24	44172.93
564.41	43927.17
564.57	43929.51
564.74	43573.75
564.90	44034.84
565.07	44081.65
565.23	44072.29
565.39	43646.31
565.56	44285.28
565.72	44126.12
565.88	43899.09
566.05	43758.66
566.21	44079.31
566.38	43697.80
566.54	44289.96
566.70	43957.60
566.87	44210.38
567.03	44308.68
567.19	44334.43
567.36	44608.27
567.52	43615.88
567.68	44325.07
567.85	44395.28
568.01	43896.75
568.17	44100.37
568.34	43889.73
568.50	44285.28
568.66	44266.55
568.83	44568.48
568.99	44102.71
569.15	44046.54
569.32	44133.14
569.48	43913.13
569.64	44301.66
569.81	44524.01
569.97	44458.48
570.13	44563.80
570.30	44114.42
570.46	43854.62
570.62	44172.93
570.78	44179.95
570.95	44072.29
571.11	44692.53
571.27	44273.57
571.43	43938.88
571.60	44868.07
571.76	44203.36
571.92	44292.30
572.09	44385.92
572.25	44505.29
572.41	44395.28
572.57	44533.37
572.74	45422.78
572.90	44622.31
573.06	44500.61
573.22	44439.75
573.38	44189.31
573.55	44184.63
573.71	44645.72
573.87	44435.07
574.03	44027.82
574.20	44311.02
574.36	44547.42
574.52	44519.33
574.68	44753.38
574.84	44137.82
575.01	44563.80
575.17	44360.17
575.33	44341.45
575.49	44343.79
575.65	44921.90
575.82	45298.73
575.98	44566.14
576.14	44540.39
576.30	44715.93
576.46	44287.62
576.62	44343.79
576.79	44444.43
576.95	43910.79
577.11	44903.18
577.27	44584.86
577.43	44561.46
577.59	44531.03
577.75	44460.82
577.92	44062.93
578.08	43849.94
578.24	43969.30
578.40	44601.25
578.56	44498.26
578.72	44758.06
578.88	44538.05
579.04	45170.00
579.21	44341.45
579.37	44657.42
579.53	44531.03
579.69	44552.10
579.85	44327.41
580.01	44460.82
580.17	44514.65
580.33	44786.15
580.49	44584.86
580.65	44739.34
580.82	44891.48
580.98	44580.18
581.14	44304.00
581.30	44844.66
581.46	44858.71
581.62	44570.82
581.78	44444.43
581.94	44718.28
582.10	44697.21
582.26	45010.84
582.42	44739.34
582.58	44729.98
582.74	44533.37
582.90	44582.52
583.06	44804.88
583.22	44917.22
583.38	45048.29
583.54	44718.28
583.70	44257.19
583.86	44549.76
584.02	44252.51
584.18	44444.43
584.34	44755.72
584.50	44926.58
584.66	44638.70
584.82	44559.12
584.98	44994.46
585.14	44889.13
585.30	44608.27
585.46	44191.65
585.62	44158.89
585.78	44863.39
585.94	44458.48
586.10	44669.12
586.26	44502.95
586.42	44727.64
586.58	45015.52
586.74	44545.08
586.90	44650.40
587.06	44870.41
587.22	44732.32
587.38	44266.55
587.54	45340.86
587.70	45095.10
587.86	45146.59
588.02	44863.39
588.18	45097.44
588.34	44793.17
588.49	44741.68
588.65	44776.79
588.81	44362.51
588.97	44858.71
589.13	44500.61
589.29	44786.15
589.45	44928.92
589.61	44952.33
589.77	45193.40
589.93	44945.31
590.08	45008.50
590.24	45041.27
