SpectraSuite Data File
++++++++++++++++++++++++++++++++++++
Date: Fri Oct 25 11:23:14 EDT 2013
User: price-jones
Dark Spectrum Present: No
Reference Spectrum Present: No
Number of Sampled Component Spectra: 1
Spectrometers: USB2+H05261
Integration Time (usec): 100000 (USB2+H05261)
Spectra Averaged: 1 (USB2+H05261)
Boxcar Smoothing: 0 (USB2+H05261)
Correct for Electrical Dark: No (USB2+H05261)
Strobe/Lamp Enabled: No (USB2+H05261)
Correct for Detector Non-linearity: No (USB2+H05261)
Correct for Stray Light: No (USB2+H05261)
Number of Pixels in Processed Spectrum: 2048
>>>>>Begin Processed Spectral Data<<<<<
365.73	198.95
365.92	198.95
366.12	198.95
366.32	147.45
366.52	184.90
366.72	145.11
366.91	117.03
367.11	138.09
367.31	119.37
367.51	175.54
367.70	124.05
367.90	107.66
368.10	126.39
368.30	180.22
368.49	133.41
368.69	135.75
368.89	124.05
369.09	135.75
369.28	67.88
369.48	166.18
369.68	180.22
369.87	140.43
370.07	128.73
370.27	238.73
370.47	301.93
370.66	648.33
370.86	615.56
371.06	678.76
371.25	732.59
371.45	624.92
371.65	695.14
371.84	615.56
372.04	711.52
372.24	725.57
372.44	692.80
372.63	732.59
372.83	720.88
373.03	798.12
373.22	692.80
373.42	805.14
373.62	765.36
373.81	713.86
374.01	833.23
374.21	837.91
374.40	840.25
374.60	791.10
374.79	791.10
374.99	830.89
375.19	842.59
375.38	816.85
375.58	823.87
375.78	973.66
375.97	777.06
376.17	922.17
376.37	842.59
376.56	866.00
376.76	880.04
376.95	901.11
377.15	877.70
377.35	901.11
377.54	922.17
377.74	929.19
377.93	957.28
378.13	863.66
378.33	917.49
378.52	889.40
378.72	992.39
378.91	976.00
379.11	926.85
379.31	922.17
379.50	910.47
379.70	964.30
379.89	1069.62
380.09	938.55
380.28	1011.11
380.48	947.92
380.68	971.32
380.87	933.87
381.07	1104.73
381.26	1022.81
381.46	961.96
381.65	1043.88
381.85	1032.18
382.04	1050.90
382.24	1029.84
382.43	1081.33
382.63	1020.47
382.83	1067.28
383.02	1036.86
383.22	1076.65
383.41	1128.14
383.61	1125.80
383.80	1125.80
384.00	1163.25
384.19	1146.86
384.39	1151.54
384.58	1158.57
384.78	1144.52
384.97	1123.46
385.17	1109.41
385.36	1123.46
385.56	1224.10
385.75	1104.73
385.95	1198.35
386.14	1289.64
386.34	1231.12
386.53	1221.76
386.72	1235.80
386.92	1186.65
387.11	1231.12
387.31	1289.64
387.50	1270.91
387.70	1235.80
387.89	1273.25
388.09	1371.55
388.28	1376.24
388.48	1275.59
388.67	1357.51
388.86	1317.72
389.06	1357.51
389.25	1282.61
389.45	1327.08
389.64	1383.26
389.84	1427.73
390.03	1413.68
390.22	1399.64
390.42	1401.98
390.61	1315.38
390.81	1322.40
391.00	1439.43
391.19	1401.98
391.39	1483.90
391.58	1420.71
391.78	1497.94
391.97	1476.88
392.16	1467.52
392.36	1570.50
392.55	1535.39
392.75	1507.30
392.94	1479.22
393.13	1490.92
393.33	1526.03
393.52	1619.65
393.71	1659.44
393.91	1558.80
394.10	1558.80
394.29	1582.20
394.49	1568.16
394.68	1636.03
394.88	1626.67
395.07	1645.40
395.26	1568.16
395.46	1739.02
395.65	1788.17
395.84	1771.79
396.04	1757.74
396.23	1708.59
396.42	1666.46
396.62	1750.72
396.81	1792.85
397.00	1739.02
397.19	1797.53
397.39	1809.23
397.58	1785.83
397.77	1856.04
397.97	1863.07
398.16	1923.92
398.35	1930.94
398.55	1940.30
398.74	1874.77
398.93	1996.48
399.12	1966.05
399.32	1944.99
399.51	1959.03
399.70	1940.30
399.90	1877.11
400.09	2038.61
400.28	2003.50
400.47	1998.82
400.67	2022.22
400.86	2076.06
401.05	2045.63
401.24	2167.34
401.44	2064.35
401.63	2141.59
401.82	2136.91
402.01	2186.06
402.21	2160.31
402.40	2225.85
402.59	2202.44
402.78	2186.06
402.97	2324.15
403.17	2242.23
403.36	2312.45
403.55	2216.49
403.74	2340.54
403.93	2333.51
404.13	2223.51
404.32	2373.30
404.51	2441.18
404.70	2478.63
404.89	2457.56
405.09	2544.16
405.28	2572.25
405.47	2551.18
405.66	2520.76
405.85	2506.71
406.05	2558.21
406.24	2696.30
406.43	2537.14
406.62	2679.91
406.81	2628.42
407.00	2642.46
407.20	2525.44
407.39	2595.65
407.58	2782.90
407.77	2813.32
407.96	2747.79
408.15	2738.43
408.34	2761.83
408.54	2832.05
408.73	2787.58
408.92	2876.52
409.11	2752.47
409.30	2956.10
409.49	2995.89
409.68	2918.65
409.87	2829.71
410.07	2965.46
410.26	3005.25
410.45	2991.20
410.64	3056.74
410.83	3220.58
411.02	3131.64
411.21	3215.90
411.40	3148.02
411.59	3138.66
411.78	3143.34
411.98	3169.09
412.17	3166.74
412.36	3417.18
412.55	3506.12
412.74	3501.44
412.93	3414.84
413.12	3332.92
413.31	3571.66
413.50	3534.21
413.69	3550.59
413.88	3655.92
414.07	3501.44
414.26	3681.66
414.45	3581.02
414.64	3709.75
414.83	3747.20
415.02	3772.94
415.22	3803.37
415.41	3852.52
415.60	3833.80
415.79	3957.85
415.98	3978.91
416.17	3999.98
416.36	3985.93
416.55	3990.61
416.74	4112.32
416.93	3990.61
417.12	4039.76
417.31	4210.62
417.50	4159.13
417.69	4327.65
417.88	4393.19
418.07	4341.69
418.26	4332.33
418.45	4355.74
418.64	4358.08
418.83	4486.81
419.02	4416.59
419.21	4545.32
419.39	4795.76
419.58	4447.02
419.77	4442.34
419.96	4568.73
420.15	4760.65
420.34	4648.30
420.53	4711.50
420.72	4835.55
420.91	4741.93
421.10	4793.42
421.29	4816.82
421.48	4725.54
421.67	5015.77
421.86	4812.14
422.05	4851.93
422.24	4931.51
422.43	4903.42
422.61	5060.24
422.80	5130.45
422.99	4985.34
423.18	4894.06
423.37	5191.31
423.56	4903.42
423.75	4992.36
423.94	4765.33
424.13	4685.75
424.32	4788.74
424.50	5006.41
424.69	5107.05
424.88	5041.51
425.07	5116.41
425.26	4947.89
425.45	4983.00
425.64	4994.70
425.83	4968.96
426.01	5050.88
426.20	5022.79
426.39	5018.11
426.58	5144.50
426.77	5018.11
426.96	5188.97
427.15	5118.75
427.33	5088.32
427.52	5181.95
427.71	5322.38
427.90	5151.52
428.09	5430.04
428.28	5345.78
428.46	5350.46
428.65	5511.96
428.84	5516.64
429.03	5373.87
429.22	5329.40
429.40	5458.13
429.59	5469.83
429.78	5320.04
429.97	5261.52
430.16	5628.99
430.34	5654.73
430.53	5666.44
430.72	5715.59
430.91	5614.95
431.10	5577.50
431.28	5750.70
431.47	5760.06
431.66	5813.89
431.85	5900.49
432.03	5933.26
432.22	6274.98
432.41	5905.17
432.60	5928.58
432.79	6015.18
432.97	6097.10
433.16	6073.69
433.35	5956.66
433.54	6263.27
433.72	6186.04
433.91	6099.44
434.10	6279.66
434.28	6188.38
434.47	6235.19
434.66	6319.45
434.85	6197.74
435.03	6286.68
435.22	6324.13
435.41	6466.90
435.59	6375.62
435.78	6511.37
435.97	6555.84
436.16	6471.58
436.34	6464.56
436.53	6450.52
436.72	6492.65
436.90	6476.26
437.09	6724.36
437.28	6642.44
437.46	6707.98
437.65	6548.82
437.84	6820.32
438.02	6820.32
438.21	6871.81
438.40	6722.02
438.58	6995.86
438.77	7033.31
438.96	7009.90
439.14	7136.29
439.33	7218.21
439.52	7229.91
439.70	7248.64
439.89	7473.33
440.08	7410.14
440.26	7538.87
440.45	7473.33
440.63	7424.18
440.82	7595.04
441.01	7529.50
441.19	7599.72
441.38	7735.47
441.57	7751.85
441.75	7758.88
441.94	7971.86
442.12	8042.08
442.31	7999.95
442.50	8159.11
442.68	8105.28
442.87	8112.30
443.05	8128.68
443.24	8255.07
443.43	8189.53
443.61	8266.77
443.80	8706.79
443.98	8133.36
444.17	7885.26
444.35	8133.36
444.54	8404.86
444.73	8390.82
444.91	8442.31
445.10	8571.04
445.28	8421.25
445.47	8138.04
445.65	8439.97
445.84	8456.36
446.02	8589.77
446.21	8496.14
446.39	8657.64
446.58	8505.51
446.77	8528.91
446.95	8308.90
447.14	8617.85
447.32	8643.60
447.51	8568.70
447.69	8407.20
447.88	8552.32
448.06	8559.34
448.25	8585.08
448.43	8524.23
448.62	8809.78
448.80	8603.81
448.99	8706.79
449.17	8802.75
449.36	8676.37
449.54	8702.11
449.73	9062.55
449.91	9158.52
450.10	8884.67
450.28	9076.60
450.46	9200.65
450.65	9083.62
450.83	9193.62
451.02	9172.56
451.20	9254.48
451.39	9336.40
451.57	9116.39
451.76	9001.70
451.94	9291.93
452.13	9586.83
452.31	9341.08
452.49	9308.31
452.68	9305.97
452.86	9624.28
453.05	9469.81
453.23	9603.22
453.42	9514.28
453.60	9525.98
453.78	9579.81
453.97	9565.77
454.15	9596.20
454.34	9556.41
454.52	9753.01
454.70	9720.24
454.89	9851.31
455.07	9839.61
455.26	9884.08
455.44	9937.91
455.62	10136.86
455.81	9921.53
455.99	10092.39
456.17	10059.62
456.36	10246.87
456.54	10265.59
456.73	10143.88
456.91	10509.01
457.09	10391.98
457.28	10619.01
457.46	10235.16
457.64	10476.24
457.83	10729.02
458.01	10562.84
458.19	10883.49
458.38	10546.45
458.56	10761.78
458.74	10651.78
458.93	10719.65
459.11	10773.49
459.29	10827.32
459.48	10970.09
459.66	10869.45
459.84	11035.63
460.03	10998.18
460.21	10911.58
460.39	11143.29
460.57	10949.03
460.76	11176.06
460.94	11293.08
461.12	11204.14
461.31	11456.92
461.49	11248.61
461.67	11236.91
461.85	11545.86
462.04	11335.21
462.22	11405.43
462.40	11702.68
462.59	11688.64
462.77	11543.52
462.95	11712.04
463.13	11733.11
463.32	11737.79
463.50	11805.66
463.68	11859.49
463.86	11957.80
464.05	11726.08
464.23	11648.85
464.41	12177.81
464.59	11822.05
464.78	12149.72
464.96	12187.17
465.14	12002.27
465.32	12292.49
465.50	12196.53
465.69	12332.28
465.87	12233.98
466.05	12262.07
466.23	12346.33
466.41	12402.50
466.60	12421.22
466.78	12379.09
466.96	12372.07
467.14	12329.94
467.32	12360.37
467.51	12746.56
467.69	12142.70
467.87	12491.44
468.05	12828.48
468.23	12676.34
468.41	12659.96
468.60	12718.47
468.78	12571.02
468.96	12547.61
469.14	12826.14
469.32	13193.60
469.50	12720.81
469.69	13092.96
469.87	13074.23
470.05	13083.59
470.23	13462.76
470.41	13413.61
470.59	13348.08
470.77	13362.12
470.95	13516.59
471.14	13420.63
471.32	13163.17
471.50	13806.82
471.68	13907.46
471.86	13717.88
472.04	13748.31
472.22	14061.94
472.40	13848.95
472.58	14026.83
472.77	14094.71
472.95	14237.48
473.13	14721.97
473.31	14209.39
473.49	14413.02
473.67	14373.23
473.85	14363.87
474.03	14850.70
474.21	14654.09
474.39	14967.73
474.57	14768.78
474.75	15016.88
474.93	14836.66
475.12	15239.23
475.30	15066.03
475.48	15229.87
475.66	15482.64
475.84	15119.86
476.02	15489.67
476.20	15543.50
476.38	15658.18
476.56	16400.13
476.74	16210.55
476.92	16105.23
477.10	15917.98
477.28	16395.45
477.46	16205.87
477.64	16659.93
477.82	16678.66
478.00	17144.42
478.18	16987.61
478.36	16732.49
478.54	17123.36
478.72	17032.08
478.90	17666.36
479.08	17582.10
479.26	18115.75
479.44	17834.88
479.62	17841.90
479.80	18066.60
479.98	18445.76
480.16	18417.68
480.34	18455.12
480.52	18452.78
480.70	18860.04
480.88	18647.05
481.06	19236.86
481.24	19075.37
481.41	19470.92
481.59	19552.84
481.77	19557.52
481.95	19810.29
482.13	19798.59
482.31	19768.16
482.49	20498.41
482.67	20416.49
482.85	20489.05
483.03	20561.61
483.21	20982.90
483.39	21221.64
483.57	20896.30
483.74	21312.92
483.92	21893.37
484.10	21308.24
484.28	22054.87
484.46	22040.82
484.64	22590.85
484.82	22279.56
485.00	22497.23
485.18	22902.14
485.35	23080.02
485.53	22733.62
485.71	23346.84
485.89	23800.91
486.07	23508.34
486.25	23695.58
486.43	23571.54
486.61	24004.53
486.78	24411.79
486.96	24409.45
487.14	24144.97
487.32	25137.35
487.50	24933.73
487.68	25095.22
487.85	25535.24
488.03	25715.47
488.21	26047.82
488.39	26197.62
488.57	26380.18
488.75	26473.80
488.92	26632.96
489.10	26937.23
489.28	26747.64
489.46	27192.34
489.64	27285.97
489.81	27613.64
489.99	27770.46
490.17	27971.74
490.35	28421.13
490.53	28556.88
490.70	28608.37
490.88	28453.89
491.06	29032.00
491.24	28980.51
491.41	28971.15
491.59	29345.64
491.77	29635.86
491.95	29696.72
492.13	29942.47
492.30	30115.67
492.48	30225.68
492.66	30576.76
492.84	30728.89
493.01	31035.50
493.19	30995.71
493.37	31119.76
493.54	31267.22
493.72	31761.07
493.90	31538.72
494.08	32173.00
494.25	32292.37
494.43	32243.22
494.61	32540.47
494.79	32865.80
494.96	32828.35
495.14	33125.60
495.32	33404.13
495.49	33249.65
495.67	32999.21
495.85	34171.82
496.02	34342.68
496.20	34375.45
496.38	34169.48
496.55	34335.66
496.73	34913.77
496.91	34979.31
497.09	35051.86
497.26	35154.85
497.44	34920.79
497.62	35351.45
497.79	36217.45
497.97	35529.33
498.14	36060.63
498.32	36416.40
498.50	36055.95
498.67	37020.25
498.85	36861.10
499.03	36795.56
499.20	37001.53
499.38	37074.09
499.56	37462.61
499.73	37493.04
499.91	37694.33
500.08	37830.08
500.26	37958.81
500.44	37893.27
500.61	38265.42
500.79	38045.41
500.97	38808.42
501.14	38632.88
501.32	38806.08
501.49	39058.86
501.67	39379.51
501.84	39215.68
502.02	39606.55
502.20	39262.49
502.37	39505.90
502.55	39599.52
502.72	39735.27
502.90	39952.94
503.07	39454.41
503.25	39777.40
503.43	39938.90
503.60	40322.75
503.78	40325.09
503.95	40872.78
504.13	40664.47
504.30	41076.40
504.48	40477.22
504.65	40966.40
504.83	41481.31
505.01	41383.01
505.18	41553.87
505.36	41895.59
505.53	41097.47
505.71	42000.91
505.88	42398.80
506.06	41701.32
506.23	42462.00
506.41	41923.68
506.58	42588.39
506.76	42466.68
506.93	42808.40
507.11	42775.63
507.28	42979.26
507.46	42981.60
507.63	43428.64
507.81	43683.76
507.98	43016.71
508.16	43667.37
508.33	43576.09
508.50	43889.73
508.68	43807.81
508.85	44341.45
509.03	44041.86
509.20	44184.63
509.38	44725.30
509.55	44444.43
509.73	44610.61
509.90	44938.29
510.08	44832.96
510.25	45188.72
510.42	45221.49
510.60	45041.27
510.77	45631.08
510.95	46003.23
511.12	45670.87
511.30	45614.70
511.47	45818.33
511.64	45869.82
511.82	45961.10
511.99	46263.03
512.17	46417.50
512.34	46213.88
512.51	46918.38
512.69	46742.84
512.86	46504.10
513.04	47012.00
513.21	46777.95
513.38	47716.50
513.56	47206.26
513.73	47325.63
513.90	47529.26
514.08	47117.32
514.25	47693.10
514.43	47629.90
514.60	47723.52
514.77	47665.01
514.95	48058.22
515.12	47608.84
515.29	47800.76
515.47	48385.89
515.64	48079.28
515.81	48732.29
515.99	48385.89
516.16	48919.54
516.33	48823.58
516.51	49144.23
516.68	48842.30
516.85	49036.56
517.03	49132.53
517.20	49523.40
517.37	49317.43
517.54	49102.10
517.72	49102.10
517.89	49265.94
518.06	49354.88
518.24	49490.63
518.41	49853.41
518.58	49881.50
518.75	49682.55
518.93	49535.10
519.10	49317.43
519.27	50059.38
519.45	49951.71
519.62	50204.49
519.79	50124.91
519.96	50342.58
520.14	50443.23
520.31	50174.06
520.48	50731.11
520.65	50829.41
520.83	51054.11
521.00	50988.57
521.17	51007.29
521.34	50995.59
521.52	50901.97
521.69	51360.72
521.86	51367.74
522.03	51583.07
522.20	51721.16
522.38	51679.03
522.55	51531.57
522.72	51526.89
522.89	51739.88
523.07	51774.99
523.24	51501.15
523.41	51863.93
523.58	51847.55
523.75	52310.97
523.92	52116.71
524.10	52247.78
524.27	52488.85
524.44	52231.40
524.61	52416.30
524.78	52584.82
524.96	52348.42
525.13	52498.22
525.30	52931.22
525.47	52568.43
525.64	52774.40
525.81	52795.46
525.98	52835.25
526.16	52877.38
526.33	52743.97
526.50	52926.53
526.67	52942.92
526.84	53055.26
527.01	52994.41
527.18	53191.01
527.36	53148.88
527.53	53509.33
527.70	53727.00
527.87	53551.46
528.04	53294.00
528.21	53640.40
528.38	53506.99
528.55	54052.33
528.72	53729.34
528.89	53609.97
529.07	53242.51
529.24	53858.07
529.41	54061.69
529.58	53886.15
529.75	53865.09
529.92	54033.61
530.09	53963.39
530.26	54181.06
530.43	54405.75
530.60	53951.69
530.77	54113.19
530.94	54237.23
531.11	54225.53
531.28	54459.58
531.46	54562.57
531.63	54461.93
531.80	54569.59
531.97	54471.29
532.14	54801.30
532.31	54707.68
532.48	54871.52
532.65	55065.78
532.82	54850.45
532.99	54990.89
533.16	55011.95
533.33	55065.78
533.50	55030.68
533.67	54948.76
533.84	54997.91
534.01	55042.38
534.18	55124.30
534.35	55449.63
534.52	55449.63
534.69	55281.11
534.86	55494.10
535.03	55143.02
535.20	55334.95
535.37	55627.51
535.54	55683.69
535.71	55454.31
535.88	55618.15
536.05	55735.18
536.22	55863.91
536.38	55838.16
536.55	55709.43
536.72	56090.94
536.89	55639.22
537.06	55746.88
537.23	55966.89
537.40	55973.91
537.57	55966.89
537.74	55917.74
537.91	56060.51
538.08	56217.33
538.25	55950.51
538.42	56186.90
538.59	56575.43
538.75	56126.05
538.92	56144.77
539.09	56509.89
539.26	56390.53
539.43	56357.76
539.60	56388.19
539.77	56491.17
539.94	56554.36
540.11	56633.94
540.28	56647.99
540.44	56507.55
540.61	56559.05
540.78	56657.35
540.95	56626.92
541.12	56608.20
541.29	56516.92
541.46	57008.43
541.62	56863.32
541.79	57008.43
541.96	56652.67
542.13	56830.55
542.30	56907.79
542.47	57071.62
542.63	57258.87
542.80	57104.39
542.97	57188.65
543.14	57324.40
543.31	57308.02
543.48	57240.14
543.64	57499.94
543.81	57528.03
543.98	57439.09
544.15	57506.96
544.32	57879.11
544.48	57766.76
544.65	57698.89
544.82	57523.35
544.99	57441.43
545.16	57656.76
545.32	57638.03
545.49	58003.16
545.66	57832.30
545.83	58031.24
546.00	58024.22
546.16	57932.94
546.33	57680.16
546.50	57822.93
546.67	58115.50
546.83	57642.71
547.00	58071.03
547.17	57778.46
547.34	58103.80
547.50	58066.35
547.67	58241.89
547.84	58382.32
548.00	58403.39
548.17	58424.45
548.34	58040.60
548.51	58592.97
548.67	58232.53
548.84	58293.38
549.01	58291.04
549.18	58326.15
549.34	58447.86
549.51	58614.04
549.68	58513.39
549.84	58541.48
550.01	58667.87
550.18	58592.97
550.34	58567.23
550.51	58812.98
550.68	58838.73
550.84	58553.18
551.01	58791.92
551.18	58506.37
551.34	58801.28
551.51	58717.02
551.68	58848.09
551.84	58878.52
552.01	58447.86
552.18	58791.92
552.34	58660.85
552.51	58990.86
552.68	58702.98
552.84	58955.75
553.01	59255.34
553.18	58958.09
553.34	59159.38
553.51	58784.90
553.67	58920.65
553.84	58965.12
554.01	59054.06
554.17	59348.96
554.34	59241.30
554.51	59257.68
554.67	59182.79
554.84	59234.28
555.00	59302.15
555.17	59185.13
555.33	59318.54
555.50	59171.08
555.67	59103.21
555.83	59100.87
556.00	59330.24
556.16	59812.39
556.33	59655.57
556.50	59306.83
556.66	59704.73
556.83	59208.53
556.99	59512.80
557.16	59620.47
557.32	59501.10
557.49	59723.45
557.65	59613.44
557.82	59473.01
557.98	59599.40
558.15	59561.95
558.32	59590.04
558.48	59648.55
558.65	59606.42
558.81	59660.26
558.98	59737.49
559.14	59917.71
559.31	59770.26
559.47	59838.14
559.64	59901.33
559.80	59779.62
559.97	60013.68
560.13	59875.58
560.30	60058.15
560.46	59987.93
560.63	60229.01
560.79	59964.52
560.96	60053.47
561.12	59882.61
561.29	60027.72
561.45	59931.76
561.61	60156.45
561.78	60151.77
561.94	60170.49
562.11	60102.62
562.27	60074.53
562.44	60083.89
562.60	60245.39
562.77	60214.96
562.93	59880.27
563.10	60158.79
563.26	60147.09
563.42	60336.67
563.59	60205.60
563.75	60093.25
563.92	60257.09
564.08	60149.43
564.24	60285.18
564.41	60119.00
564.57	60430.29
564.74	60257.09
564.90	60327.31
565.07	60219.64
565.23	60449.02
565.39	60271.14
565.56	60303.90
565.72	60205.60
565.88	60374.12
566.05	60287.52
566.21	60413.91
566.38	60453.70
566.54	60512.21
566.70	60451.36
566.87	60526.25
567.03	60535.62
567.19	60683.07
567.36	60350.71
567.52	60481.78
567.68	60626.90
567.85	60650.30
568.01	60413.91
568.17	60493.49
568.34	60554.34
568.50	60575.40
568.66	60797.76
568.83	60549.66
568.99	60516.89
569.15	60657.32
569.32	60495.83
569.48	60624.56
569.64	60608.17
569.81	60570.72
569.97	60544.98
570.13	60699.45
570.30	60608.17
570.46	60697.11
570.62	60605.83
570.78	60678.39
570.95	60903.08
571.11	60772.01
571.27	60617.53
571.43	60715.84
571.60	60879.67
571.76	60811.80
571.92	60846.91
572.09	60849.25
572.25	60839.89
572.41	60727.54
572.57	60793.07
572.74	61010.74
572.90	60790.73
573.06	60800.10
573.22	60772.01
573.38	60797.76
573.55	60671.37
573.71	61233.10
573.87	60800.10
574.03	60877.33
574.20	60879.67
574.36	60729.88
574.52	60851.59
574.68	60933.51
574.84	61228.41
575.01	60910.10
575.17	60959.25
575.33	60900.74
575.49	60874.99
575.65	61205.01
575.82	61057.56
575.98	60975.64
576.14	61127.77
576.30	61116.07
576.46	60797.76
576.62	60816.48
576.79	60947.55
576.95	60760.31
577.11	60921.80
577.27	61031.81
577.43	60973.30
577.59	60921.80
577.75	60926.49
577.92	60858.61
578.08	61029.47
578.24	61102.03
578.40	61209.69
578.56	61036.49
578.72	60963.93
578.88	61010.74
579.04	61291.61
579.21	61186.28
579.37	61265.86
579.53	61291.61
579.69	60914.78
579.85	61106.71
580.01	61095.00
580.17	61315.01
580.33	61179.26
580.49	61223.73
580.65	61160.54
580.82	60973.30
580.98	60980.32
581.14	61123.09
581.30	61113.73
581.46	61045.85
581.62	61193.31
581.78	61057.56
581.94	60921.80
582.10	61256.50
582.26	60994.36
582.42	60966.27
582.58	61118.41
582.74	61123.09
582.90	61109.05
583.06	61041.17
583.22	60884.36
583.38	61233.10
583.54	61254.16
583.70	61261.18
583.86	61148.84
584.02	60975.64
584.18	61268.20
584.34	61118.41
584.50	61237.78
584.66	61062.24
584.82	61087.98
584.98	61322.04
585.14	61174.58
585.30	61071.60
585.46	61235.44
585.62	61214.37
585.78	61263.52
585.94	61027.13
586.10	61087.98
586.26	61268.20
586.42	61319.70
586.58	61172.24
586.74	61153.52
586.90	61066.92
587.06	61216.71
587.22	61375.87
587.38	61284.59
587.54	61293.95
587.70	61373.53
587.86	61392.25
588.02	61352.46
588.18	61525.66
588.34	61242.46
588.49	61151.18
