SpectraSuite Data File
++++++++++++++++++++++++++++++++++++
Date: Fri Oct 25 10:44:49 EDT 2013
User: price-jones
Dark Spectrum Present: No
Reference Spectrum Present: No
Number of Sampled Component Spectra: 1
Spectrometers: USB2+H05261
Integration Time (usec): 100000 (USB2+H05261)
Spectra Averaged: 1 (USB2+H05261)
Boxcar Smoothing: 0 (USB2+H05261)
Correct for Electrical Dark: No (USB2+H05261)
Strobe/Lamp Enabled: No (USB2+H05261)
Correct for Detector Non-linearity: No (USB2+H05261)
Correct for Stray Light: No (USB2+H05261)
Number of Pixels in Processed Spectrum: 2048
>>>>>Begin Processed Spectral Data<<<<<
365.73	100.64
365.92	100.64
366.12	100.64
366.32	23.41
366.52	0.00
366.72	0.00
366.91	0.00
367.11	105.32
367.31	0.00
367.51	14.04
367.70	0.00
367.90	23.41
368.10	14.04
368.30	7.02
368.49	35.11
368.69	84.26
368.89	81.92
369.09	0.00
369.28	67.88
369.48	37.45
369.68	18.72
369.87	60.85
370.07	70.22
370.27	81.92
370.47	198.95
370.66	372.15
370.86	477.47
371.06	374.49
371.25	444.70
371.45	440.02
371.65	353.42
371.84	461.09
372.04	447.04
372.24	369.80
372.44	437.68
372.63	489.17
372.83	456.40
373.03	510.24
373.22	505.56
373.42	580.45
373.62	557.05
373.81	528.96
374.01	543.00
374.21	531.30
374.40	557.05
374.60	524.28
374.79	543.00
374.99	561.73
375.19	573.43
375.38	596.84
375.58	543.00
375.78	592.16
375.97	627.26
376.17	624.92
376.37	557.05
376.56	631.94
376.76	620.24
376.95	547.69
377.15	566.41
377.35	622.58
377.54	545.34
377.74	564.07
377.93	603.86
378.13	653.01
378.33	575.77
378.52	645.99
378.72	561.73
378.91	648.33
379.11	613.22
379.31	582.79
379.50	608.54
379.70	702.16
379.89	634.29
380.09	653.01
380.28	653.01
380.48	634.29
380.68	627.26
380.87	545.34
381.07	638.97
381.26	608.54
381.46	699.82
381.65	767.70
381.85	599.18
382.04	718.54
382.24	624.92
382.43	627.26
382.63	669.39
382.83	627.26
383.02	739.61
383.22	753.65
383.41	620.24
383.61	737.27
383.80	795.78
384.00	711.52
384.19	704.50
384.39	800.46
384.58	774.72
384.78	725.57
384.97	713.86
385.17	732.59
385.36	709.18
385.56	774.72
385.75	746.63
385.95	786.42
386.14	671.73
386.34	807.48
386.53	741.95
386.72	805.14
386.92	882.38
387.11	777.06
387.31	716.20
387.50	716.20
387.70	830.89
387.89	821.53
388.09	786.42
388.28	779.40
388.48	805.14
388.67	809.83
388.86	863.66
389.06	847.27
389.25	908.13
389.45	828.55
389.64	915.15
389.84	915.15
390.03	926.85
390.22	842.59
390.42	910.47
390.61	851.96
390.81	870.68
391.00	889.40
391.19	945.58
391.39	952.60
391.58	1046.22
391.78	912.81
391.97	966.64
392.16	980.68
392.36	999.41
392.55	1053.24
392.75	940.90
392.94	1008.77
393.13	978.34
393.33	919.83
393.52	990.05
393.71	992.39
393.91	1111.75
394.10	1018.13
394.29	1060.26
394.49	1132.82
394.68	1088.35
394.88	1139.84
395.07	1095.37
395.26	1139.84
395.46	1139.84
395.65	1130.48
395.84	1050.90
396.04	1118.78
396.23	1097.71
396.42	1121.12
396.62	1018.13
396.81	1179.63
397.00	1165.59
397.19	1114.10
397.39	1203.04
397.58	1277.93
397.77	1158.57
397.97	1254.53
398.16	1299.00
398.35	1249.85
398.55	1275.59
398.74	1238.14
398.93	1329.42
399.12	1303.68
399.32	1310.70
399.51	1420.71
399.70	1329.42
399.90	1359.85
400.09	1401.98
400.28	1329.42
400.47	1439.43
400.67	1416.02
400.86	1373.89
401.05	1441.77
401.24	1460.49
401.44	1523.69
401.63	1511.99
401.82	1446.45
402.01	1453.47
402.21	1575.18
402.40	1455.81
402.59	1544.75
402.78	1558.80
402.97	1542.41
403.17	1575.18
403.36	1598.59
403.55	1584.54
403.74	1617.31
403.93	1596.25
404.13	1666.46
404.32	1715.61
404.51	1699.23
404.70	1788.17
404.89	1664.12
405.09	1675.82
405.28	1722.63
405.47	1729.66
405.66	1741.36
405.85	1769.44
406.05	1771.79
406.24	1795.19
406.43	1739.02
406.62	1834.98
406.81	1898.17
407.00	1853.70
407.20	1844.34
407.39	1902.86
407.58	1891.15
407.77	1902.86
407.96	1970.73
408.15	2029.24
408.34	1944.99
408.54	2040.95
408.73	1980.09
408.92	1954.35
409.11	2033.93
409.30	2085.42
409.49	2057.33
409.68	2090.10
409.87	1977.75
410.07	2193.08
410.26	2101.80
410.45	2120.53
410.64	2120.53
410.83	2174.36
411.02	2270.32
411.21	2272.66
411.40	2279.68
411.59	2223.51
411.78	2256.28
411.98	2167.34
412.17	2267.98
412.36	2319.47
412.55	2448.20
412.74	2370.96
412.93	2375.64
413.12	2380.32
413.31	2504.37
413.50	2485.65
413.69	2576.93
413.88	2696.30
414.07	2537.14
414.26	2682.25
414.45	2654.17
414.64	2537.14
414.83	2700.98
415.02	2658.85
415.22	2750.13
415.41	2789.92
415.60	2754.81
415.79	2801.62
415.98	2939.71
416.17	3000.57
416.36	2843.75
416.55	2864.82
416.74	2876.52
416.93	2935.03
417.12	2960.78
417.31	3070.78
417.50	2998.23
417.69	3009.93
417.88	3075.46
418.07	3178.45
418.26	3103.55
418.45	2993.55
418.64	3176.11
418.83	3206.53
419.02	3115.25
419.21	3166.74
419.39	3103.55
419.58	3389.10
419.77	3183.13
419.96	3183.13
420.15	3356.33
420.34	3239.30
420.53	3211.22
420.72	3311.86
420.91	3396.12
421.10	3316.54
421.29	3419.52
421.48	3391.44
421.67	3478.04
421.86	3419.52
422.05	3290.79
422.24	3346.97
422.43	3468.67
422.61	3435.91
422.80	3492.08
422.99	3473.36
423.18	3566.98
423.37	3449.95
423.56	3407.82
423.75	3520.17
423.94	3412.50
424.13	3335.26
424.32	3405.48
424.50	3609.11
424.69	3651.24
424.88	3695.71
425.07	3632.51
425.26	3517.83
425.45	3515.48
425.64	3536.55
425.83	3574.00
426.01	3620.81
426.20	3536.55
426.39	3604.42
426.58	3637.19
426.77	3557.61
426.96	3705.07
427.15	3632.51
427.33	3770.60
427.52	3686.34
427.71	3831.46
427.90	3817.41
428.09	3669.96
428.28	3695.71
428.46	3845.50
428.65	3712.09
428.84	3712.09
429.03	3941.46
429.22	3791.67
429.40	3770.60
429.59	3693.37
429.78	3777.62
429.97	3583.36
430.16	3803.37
430.34	3871.25
430.53	3925.08
430.72	3819.75
430.91	4014.02
431.10	3918.06
431.28	4112.32
431.47	4238.71
431.66	4140.41
431.85	4147.43
432.03	4189.56
432.22	4276.16
432.41	4334.67
432.60	4369.78
432.79	4159.13
432.97	4278.50
433.16	4290.20
433.35	4283.18
433.54	4222.33
433.72	4248.07
433.91	4229.35
434.10	4456.38
434.28	4362.76
434.47	4404.89
434.66	4383.82
434.85	4313.61
435.03	4271.48
435.22	4449.36
435.41	4578.09
435.59	4610.86
435.78	4613.20
435.97	4526.60
436.16	4601.49
436.34	4568.73
436.53	4491.49
436.72	4716.18
436.90	4599.15
437.09	4753.63
437.28	4559.36
437.46	4716.18
437.65	4774.69
437.84	4870.65
438.02	4744.27
438.21	4674.05
438.40	4676.39
438.58	4957.25
438.77	4877.68
438.96	4985.34
439.14	4975.98
439.33	5020.45
439.52	4894.06
439.70	5020.45
439.89	5090.67
440.08	5174.92
440.26	5294.29
440.45	5212.37
440.63	5195.99
440.82	5397.28
441.01	5305.99
441.19	5224.08
441.38	5591.54
441.57	5338.76
441.75	5476.85
441.94	5549.41
442.12	5593.88
442.31	5781.12
442.50	5748.36
442.68	5689.84
442.87	5668.78
443.05	5607.92
443.24	5750.70
443.43	5654.73
443.61	5729.63
443.80	5942.62
443.98	5586.86
444.17	5528.35
444.35	5968.37
444.54	5926.24
444.73	5846.66
444.91	5743.67
445.10	5820.91
445.28	5802.19
445.47	5785.80
445.65	5797.51
445.84	5820.91
446.02	5947.30
446.21	5989.43
446.39	5888.79
446.58	5825.59
446.77	5898.15
446.95	5987.09
447.14	5914.53
447.32	6029.22
447.51	5991.77
447.69	5921.56
447.88	5954.32
448.06	5973.05
448.25	6038.58
448.43	6174.33
448.62	5982.41
448.80	5853.68
448.99	6022.20
449.17	6113.48
449.36	6246.89
449.54	6232.85
449.73	6176.67
449.91	6431.79
450.10	6356.90
450.28	6375.62
450.46	6384.98
450.65	6464.56
450.83	6342.85
451.02	6368.60
451.20	6464.56
451.39	6469.24
451.57	6576.91
451.76	6284.34
451.94	6490.31
452.13	6560.52
452.31	6443.49
452.49	6384.98
452.68	6518.39
452.86	6377.96
453.05	6539.46
453.23	6656.48
453.42	6565.20
453.60	6663.51
453.78	6672.87
453.97	6548.82
454.15	6551.16
454.34	6682.23
454.52	6789.89
454.70	6771.17
454.89	6665.85
455.07	6839.05
455.26	6773.51
455.44	6979.48
455.62	6895.22
455.81	6897.56
455.99	6970.12
456.17	7103.53
456.36	7096.50
456.54	7110.55
456.73	7169.06
456.91	7269.70
457.09	7131.61
457.28	7386.73
457.46	7332.90
457.64	7248.64
457.83	7339.92
458.01	7129.27
458.19	7389.07
458.38	7335.24
458.56	7552.91
458.74	7375.03
458.93	7475.67
459.11	7433.54
459.29	7445.24
459.48	7438.22
459.66	7449.93
459.84	7468.65
460.03	7646.53
460.21	7716.75
460.39	7440.56
460.57	7651.21
460.76	7918.03
460.94	7852.50
461.12	7737.81
461.31	7772.92
461.49	7786.96
461.67	7772.92
461.85	7892.29
462.04	7812.71
462.22	7911.01
462.40	7992.93
462.59	7927.39
462.77	8025.70
462.95	8023.36
463.13	8084.21
463.32	8210.60
463.50	8021.02
463.68	8124.00
463.86	8177.83
464.05	7927.39
464.23	8035.06
464.41	8201.24
464.59	8084.21
464.78	8271.45
464.96	8217.62
465.14	8177.83
465.32	8283.16
465.50	8432.95
465.69	8191.88
465.87	8327.63
466.05	8100.59
466.23	8266.77
466.41	8341.67
466.60	8484.44
466.78	8442.31
466.96	8416.57
467.14	8386.14
467.32	8458.70
467.51	8737.22
467.69	8308.90
467.87	8334.65
468.05	8479.76
468.23	8657.64
468.41	8549.98
468.60	8678.71
468.78	8636.58
468.96	8599.13
469.14	8760.63
469.32	8954.89
469.50	8580.40
469.69	8812.12
469.87	8887.01
470.05	8812.12
470.23	9025.11
470.41	8952.55
470.59	9184.26
470.77	9004.04
470.95	9078.94
471.14	9329.38
471.32	8980.64
471.50	9369.16
471.68	9217.03
471.86	9366.82
472.04	9294.27
472.22	9837.27
472.40	9420.66
472.58	9444.06
472.77	9460.45
472.95	9565.77
473.13	9877.06
473.31	9523.64
473.49	9612.58
473.67	9769.40
473.85	9757.69
474.03	10073.67
474.21	9984.73
474.39	9930.89
474.57	10092.39
474.75	10066.64
474.93	10235.16
475.12	10052.60
475.30	10293.68
475.48	10134.52
475.66	10202.40
475.84	10251.55
476.02	10176.65
476.20	10394.32
476.38	10548.79
476.56	10848.38
476.74	10736.04
476.92	10541.77
477.10	10775.83
477.28	10878.81
477.46	11035.63
477.64	11117.54
477.82	11143.29
478.00	11382.03
478.18	11407.77
478.36	11398.41
478.54	11440.54
478.72	11550.54
478.90	11597.35
479.08	11761.19
479.26	11742.47
479.44	11988.22
479.62	11983.54
479.80	12114.61
479.98	12439.95
480.16	12414.20
480.34	12170.79
480.52	12666.98
480.70	12301.86
480.88	12339.30
481.06	12566.34
481.24	12645.91
481.41	12835.50
481.59	12814.43
481.77	12908.05
481.95	13095.30
482.13	13549.36
482.31	13123.38
482.49	13554.04
482.67	13549.36
482.85	13685.11
483.03	13813.84
483.21	13886.40
483.39	14094.71
483.57	14143.86
483.74	14181.31
483.92	14319.40
484.10	13954.27
484.28	14602.60
484.46	14684.52
484.64	14890.49
484.82	14672.82
485.00	14946.66
485.18	15105.82
485.35	15281.36
485.53	14951.34
485.71	15049.64
485.89	15435.83
486.07	15445.20
486.25	15604.35
486.43	15578.61
486.61	15520.09
486.78	15620.74
486.96	15978.84
487.14	16294.81
487.32	16322.90
487.50	16718.45
487.68	16526.52
487.85	16800.37
488.03	17092.93
488.21	17151.45
488.39	17078.89
488.57	17142.08
488.75	17397.20
488.92	17252.09
489.10	17460.40
489.28	17855.95
489.46	17907.44
489.64	18085.32
489.81	18452.78
489.99	18366.18
490.17	18225.75
490.35	18764.07
490.53	18565.13
490.70	18740.67
490.88	18752.37
491.06	18977.06
491.24	19171.33
491.41	18845.99
491.59	19030.90
491.77	19213.46
491.95	19091.75
492.13	19510.71
492.30	19719.01
492.48	19784.55
492.66	20170.74
492.84	19721.35
493.01	20224.57
493.19	20135.63
493.37	20355.64
493.54	20414.15
493.72	20657.57
493.90	20561.61
494.08	20985.24
494.25	21149.08
494.43	21268.45
494.61	21673.36
494.79	21268.45
494.96	21619.53
495.14	21710.81
495.32	21516.54
495.49	21731.87
495.67	22003.38
495.85	22150.83
496.02	22307.65
496.20	22155.51
496.38	22820.22
496.55	22586.17
496.73	23171.30
496.91	22955.97
497.09	23021.51
497.26	23021.51
497.44	23012.15
497.62	23089.38
497.79	23424.08
497.97	23070.66
498.14	23557.49
498.32	23393.65
498.50	23704.95
498.67	24020.92
498.85	23681.54
499.03	24123.90
499.20	24386.04
499.38	23929.64
499.56	23992.83
499.73	24563.92
499.91	24634.14
500.08	24819.04
500.26	24603.71
500.44	24819.04
500.61	24641.16
500.79	24510.09
500.97	25273.10
501.14	25209.91
501.32	25102.25
501.49	25333.96
501.67	25097.56
501.84	25474.39
502.02	25099.90
502.20	25645.25
502.37	25778.66
502.55	25977.61
502.72	25766.96
502.90	25708.44
503.07	25853.56
503.25	25872.28
503.43	26132.08
503.60	25893.35
503.78	25883.98
503.95	25944.84
504.13	26494.86
504.30	26401.24
504.48	26703.17
504.65	26721.90
504.83	26679.77
505.01	26836.58
505.18	26904.46
505.36	27295.33
505.53	27000.42
505.71	27239.15
505.88	27587.89
506.06	27082.34
506.23	27302.35
506.41	26944.25
506.58	27786.84
506.76	27707.26
506.93	27576.19
507.11	27967.06
507.28	27784.50
507.46	27871.10
507.63	27953.02
507.81	28041.96
507.98	27854.72
508.16	28053.66
508.33	28680.92
508.50	28353.25
508.68	28552.20
508.85	29057.75
509.03	28767.52
509.20	28694.97
509.38	28945.41
509.55	28451.55
509.73	29270.74
509.90	29371.38
510.08	29174.78
510.25	29008.60
510.42	29380.74
510.60	29530.54
510.77	29729.48
510.95	29549.26
511.12	29549.26
511.30	29706.08
511.47	29797.36
511.64	30120.35
511.82	30457.39
511.99	30309.94
512.17	29914.39
512.34	30333.34
512.51	30396.54
512.69	30581.44
512.86	30513.56
513.04	30532.29
513.21	30761.66
513.38	30609.53
513.56	30490.16
513.73	30930.18
513.90	30962.95
514.08	30731.23
514.25	30904.43
514.43	31051.89
514.60	30817.83
514.77	31447.44
514.95	31033.16
515.12	31136.15
515.29	31356.16
515.47	31878.10
515.64	31737.66
515.81	31548.08
515.99	31681.49
516.16	31620.64
516.33	31592.55
516.51	31714.26
516.68	31885.12
516.85	31491.91
517.03	31613.62
517.20	31826.60
517.37	31920.23
517.54	32112.15
517.72	31880.44
517.89	32222.16
518.06	31889.80
518.24	31981.08
518.41	32311.10
518.58	32685.58
518.75	32311.10
518.93	32828.35
519.10	32910.27
519.27	32863.46
519.45	32542.81
519.62	32982.83
519.79	33296.46
519.96	33020.28
520.14	32980.49
520.31	33153.69
520.48	33626.48
520.65	33284.76
520.83	33371.36
521.00	33584.35
521.17	33682.65
521.34	33689.67
521.52	33647.54
521.69	33605.41
521.86	34101.61
522.03	34066.50
522.20	34178.84
522.38	34588.44
522.55	34508.86
522.72	34405.88
522.89	33991.60
523.07	34265.44
523.24	34347.36
523.41	34546.31
523.58	34644.61
523.75	35051.86
523.92	34693.76
524.10	35196.98
524.27	34962.92
524.44	34600.14
524.61	35204.00
524.78	35342.09
524.96	35412.31
525.13	35213.36
525.30	35424.01
525.47	35440.39
525.64	35152.51
525.81	35552.74
525.98	35604.23
526.16	35459.12
526.33	35143.14
526.50	35283.58
526.67	34763.98
526.84	35414.65
527.01	35178.25
527.18	35695.51
527.36	35866.37
527.53	35704.87
527.70	36121.49
527.87	36385.97
528.04	35845.30
528.21	36219.79
528.38	35842.96
528.55	36343.84
528.72	36299.37
528.89	36683.22
529.07	36765.14
529.24	36261.92
529.41	36554.49
529.58	36411.71
529.75	36439.80
529.92	36533.42
530.09	36568.53
530.26	36739.39
530.43	36741.73
530.60	36828.33
530.77	36891.52
530.94	37118.56
531.11	37490.70
531.28	37158.34
531.46	37127.92
531.63	37148.98
531.80	37212.18
531.97	37041.32
532.14	37090.47
532.31	36954.72
532.48	37263.67
532.65	37570.28
532.82	37844.12
532.99	37897.95
533.16	37345.59
533.33	37715.39
533.50	37883.91
533.67	37771.57
533.84	37537.51
534.01	37677.94
534.18	37890.93
534.35	37942.42
534.52	37771.57
534.69	38267.76
534.86	37998.60
535.03	38483.09
535.20	38396.49
535.37	38705.44
535.54	38347.34
535.71	38197.54
535.88	38167.12
536.05	38356.70
536.22	38546.28
536.38	38864.60
536.55	38043.07
536.72	38717.14
536.89	38188.18
537.06	38204.56
537.23	38974.60
537.40	38855.23
537.57	38738.21
537.74	38679.69
537.91	39311.64
538.08	39026.09
538.25	38906.73
538.42	38873.96
538.59	38998.01
538.75	38719.48
538.92	38897.36
539.09	39381.85
539.26	39414.62
539.43	38948.85
539.60	39171.21
539.77	39229.72
539.94	39133.76
540.11	39178.23
540.28	39295.25
540.44	39267.17
540.61	38960.56
540.78	39253.12
540.95	39384.19
541.12	39278.87
541.29	39482.50
541.46	39416.96
541.62	39566.76
541.79	40018.48
541.96	38862.26
542.13	39761.02
542.30	39824.22
542.47	39941.24
542.63	39754.00
542.80	40432.75
542.97	40203.38
543.14	40582.55
543.31	40203.38
543.48	40580.21
543.64	40828.30
543.81	40966.40
543.98	40715.96
544.15	40378.92
544.32	40772.13
544.48	41106.83
544.65	40313.39
544.82	40470.20
544.99	40982.78
545.16	40484.25
545.32	40905.54
545.49	41139.60
545.66	41134.92
545.83	40802.56
546.00	41111.51
546.16	40774.47
546.33	41036.61
546.50	40882.14
546.67	40818.94
546.83	40837.67
547.00	40868.09
547.17	41010.87
547.34	40835.33
547.50	41338.54
547.67	41722.39
547.84	40961.72
548.00	41689.62
548.17	41717.71
548.34	41502.38
548.51	42052.41
548.67	41624.09
548.84	41701.32
549.01	41544.51
549.18	41844.10
549.34	41493.02
549.51	42211.56
549.68	41787.92
549.84	41837.08
550.01	41380.67
550.18	41387.69
550.34	41563.23
550.51	41996.23
550.68	41794.95
550.84	41352.58
551.01	42249.01
551.18	42267.73
551.34	42124.96
551.51	42078.15
551.68	42256.03
551.84	42155.39
552.01	42073.47
552.18	42256.03
552.34	41888.57
552.51	42026.66
552.68	42000.91
552.84	42244.33
553.01	42419.87
553.18	42108.58
553.34	42672.65
553.51	41942.40
553.67	42628.18
553.84	42272.42
554.01	43005.00
554.17	42443.27
554.34	42794.36
554.51	42628.18
554.67	42756.91
554.84	42918.40
555.00	42513.49
555.17	42782.65
555.33	42941.81
555.50	42621.16
555.67	42639.88
555.83	42855.21
556.00	42803.72
556.16	42841.17
556.33	43093.94
556.50	42653.92
556.66	42813.08
556.83	42782.65
556.99	43129.05
557.16	42604.77
557.32	42962.87
557.49	43136.07
557.65	42752.23
557.82	43283.53
557.98	43082.24
558.15	43196.93
558.32	43372.47
558.48	42941.81
558.65	42871.59
558.81	42691.37
558.98	42983.94
559.14	43061.18
559.31	43196.93
559.47	43082.24
559.64	43388.85
559.80	43335.02
559.97	43442.68
560.13	43009.68
560.30	43473.11
560.46	43405.23
560.63	43533.96
560.79	43707.16
560.96	43695.46
561.12	44156.55
561.29	43241.40
561.45	43583.12
561.61	43517.58
561.78	43316.29
561.94	43323.32
562.11	43896.75
562.27	43590.14
562.44	43576.09
562.60	43613.54
562.77	43800.79
562.93	43629.93
563.10	43524.60
563.26	42810.74
563.42	43768.02
563.59	43545.67
563.75	43737.59
563.92	43959.94
564.08	43786.74
564.24	43910.79
564.41	43943.56
564.57	43772.70
564.74	44062.93
564.90	43718.87
565.07	43999.73
565.23	44002.07
565.39	43718.87
565.56	43658.01
565.72	43871.00
565.88	43847.60
566.05	43763.34
566.21	43938.88
566.38	44018.46
566.54	43863.98
566.70	44098.03
566.87	44385.92
567.03	44369.54
567.19	44507.63
567.36	44334.43
567.52	44205.70
567.68	43990.37
567.85	43948.24
568.01	44474.86
568.17	43608.86
568.34	44016.11
568.50	43971.64
568.66	43622.90
568.83	43821.85
568.99	44210.38
569.15	43555.03
569.32	43906.11
569.48	44275.91
569.64	44041.86
569.81	44137.82
569.97	44109.74
570.13	44198.68
570.30	43805.47
570.46	43749.29
570.62	43922.49
570.78	43887.39
570.95	43807.81
571.11	44378.90
571.27	44304.00
571.43	44133.14
571.60	44247.83
571.76	44107.40
571.92	44245.49
572.09	44392.94
572.25	44191.65
572.41	44219.74
572.57	44528.69
572.74	44451.45
572.90	43948.24
573.06	44273.57
573.22	44477.20
573.38	44273.57
573.55	44275.91
573.71	44498.26
573.87	44294.64
574.03	44224.42
574.20	44044.20
574.36	44376.56
574.52	44444.43
574.68	43990.37
574.84	44383.58
575.01	43763.34
575.17	44086.33
575.33	43746.95
575.49	43828.87
575.65	44699.55
575.82	44404.64
575.98	44406.98
576.14	44301.66
576.30	44594.23
576.46	44196.34
576.62	44294.64
576.79	44318.04
576.95	44102.71
577.11	44643.38
577.27	44343.79
577.43	44519.33
577.59	43959.94
577.75	44025.48
577.92	43805.47
578.08	44217.40
578.24	43842.92
578.40	44051.22
578.56	44151.87
578.72	44182.29
578.88	44786.15
579.04	44671.46
579.21	44481.88
579.37	44264.21
579.53	44481.88
579.69	44065.27
579.85	44430.39
580.01	44194.00
580.17	44240.81
580.33	44383.58
580.49	44524.01
580.65	44332.09
580.82	44851.69
580.98	44346.13
581.14	44655.08
581.30	44598.91
581.46	44591.89
581.62	44783.81
581.78	44470.18
581.94	44645.72
582.10	44156.55
582.26	44222.08
582.42	44561.46
582.58	44596.57
582.74	44610.61
582.90	44432.73
583.06	44769.77
583.22	45085.74
583.38	44587.21
583.54	44418.69
583.70	44818.92
583.86	44505.29
584.02	44172.93
584.18	44484.22
584.34	44664.44
584.50	44385.92
584.66	44706.57
584.82	44629.34
584.98	44896.16
585.14	44765.09
585.30	44608.27
585.46	44898.50
585.62	44486.56
585.78	44610.61
585.94	44210.38
586.10	44329.75
586.26	44376.56
586.42	44636.36
586.58	44828.28
586.74	44645.72
586.90	44212.72
587.06	44240.81
587.22	44285.28
587.38	44268.89
587.54	45078.72
587.70	44577.84
587.86	44629.34
588.02	44900.84
588.18	44444.43
588.34	44348.47
588.49	44437.41
588.65	44041.86
588.81	44210.38
588.97	44418.69
589.13	44430.39
589.29	44629.34
589.45	44526.35
589.61	44573.16
589.77	44748.70
589.93	44601.25
590.08	45043.61
590.24	44491.24
590.40	44861.05
