SpectraSuite Data File
++++++++++++++++++++++++++++++++++++
Date: Fri Oct 25 10:44:27 EDT 2013
User: price-jones
Dark Spectrum Present: No
Reference Spectrum Present: No
Number of Sampled Component Spectra: 1
Spectrometers: USB2+H05261
Integration Time (usec): 100000 (USB2+H05261)
Spectra Averaged: 1 (USB2+H05261)
Boxcar Smoothing: 0 (USB2+H05261)
Correct for Electrical Dark: No (USB2+H05261)
Strobe/Lamp Enabled: No (USB2+H05261)
Correct for Detector Non-linearity: No (USB2+H05261)
Correct for Stray Light: No (USB2+H05261)
Number of Pixels in Processed Spectrum: 2048
>>>>>Begin Processed Spectral Data<<<<<
365.73	91.28
365.92	91.28
366.12	91.28
366.32	77.24
366.52	37.45
366.72	0.00
366.91	4.68
367.11	39.79
367.31	49.15
367.51	63.19
367.70	0.00
367.90	23.41
368.10	56.17
368.30	0.00
368.49	0.00
368.69	70.22
368.89	11.70
369.09	0.00
369.28	102.98
369.48	0.00
369.68	39.79
369.87	91.28
370.07	23.41
370.27	81.92
370.47	245.76
370.66	376.83
370.86	430.66
371.06	416.62
371.25	557.05
371.45	475.13
371.65	463.43
371.84	442.36
372.04	428.32
372.24	594.50
372.44	411.93
372.63	475.13
372.83	592.16
373.03	428.32
373.22	500.87
373.42	554.71
373.62	550.03
373.81	468.11
374.01	472.79
374.21	519.60
374.40	580.45
374.60	517.26
374.79	528.96
374.99	510.24
375.19	594.50
375.38	561.73
375.58	629.60
375.78	571.09
375.97	578.11
376.17	627.26
376.37	629.60
376.56	540.66
376.76	606.20
376.95	634.29
377.15	704.50
377.35	564.07
377.54	631.94
377.74	669.39
377.93	638.97
378.13	704.50
378.33	692.80
378.52	674.07
378.72	650.67
378.91	706.84
379.11	718.54
379.31	674.07
379.50	664.71
379.70	678.76
379.89	676.41
380.09	709.18
380.28	791.10
380.48	685.78
380.68	713.86
380.87	631.94
381.07	699.82
381.26	753.65
381.46	763.01
381.65	720.88
381.85	753.65
382.04	697.48
382.24	685.78
382.43	784.08
382.63	732.59
382.83	655.35
383.02	653.01
383.22	765.36
383.41	760.67
383.61	739.61
383.80	833.23
384.00	774.72
384.19	835.57
384.39	763.01
384.58	837.91
384.78	833.23
384.97	798.12
385.17	795.78
385.36	821.53
385.56	765.36
385.75	861.32
385.95	842.59
386.14	812.17
386.34	851.96
386.53	891.74
386.72	770.04
386.92	821.53
387.11	821.53
387.31	891.74
387.50	837.91
387.70	814.51
387.89	873.02
388.09	873.02
388.28	828.55
388.48	936.21
388.67	940.90
388.86	910.47
389.06	961.96
389.25	1029.84
389.45	926.85
389.64	999.41
389.84	1078.99
390.03	978.34
390.22	1029.84
390.42	1090.69
390.61	992.39
390.81	999.41
391.00	1160.91
391.19	1093.03
391.39	1034.52
391.58	1046.22
391.78	1071.97
391.97	1022.81
392.16	1001.75
392.36	1050.90
392.55	992.39
392.75	1029.84
392.94	954.94
393.13	1004.09
393.33	1001.75
393.52	1067.28
393.71	1142.18
393.91	1170.27
394.10	1135.16
394.29	1252.19
394.49	1160.91
394.68	1263.89
394.88	1235.80
395.07	1261.55
395.26	1191.33
395.46	1310.70
395.65	1273.25
395.84	1259.21
396.04	1277.93
396.23	1142.18
396.42	1165.59
396.62	1139.84
396.81	1245.16
397.00	1322.40
397.19	1352.83
397.39	1373.89
397.58	1371.55
397.77	1404.32
397.97	1341.13
398.16	1490.92
398.35	1514.33
398.55	1411.34
398.74	1502.62
398.93	1500.28
399.12	1504.96
399.32	1465.18
399.51	1458.15
399.70	1593.90
399.90	1537.73
400.09	1619.65
400.28	1748.38
400.47	1600.93
400.67	1647.74
400.86	1694.55
401.05	1596.25
401.24	1760.08
401.44	1769.44
401.63	1820.94
401.82	1739.02
402.01	1715.61
402.21	1825.62
402.40	1760.08
402.59	1830.30
402.78	1816.26
402.97	1809.23
403.17	1811.57
403.36	1776.47
403.55	1893.49
403.74	2017.54
403.93	1863.07
404.13	1863.07
404.32	1926.26
404.51	1849.02
404.70	1991.80
404.89	1914.56
405.09	2047.97
405.28	2031.58
405.47	1977.75
405.66	1863.07
405.85	1994.14
406.05	2057.33
406.24	2069.03
406.43	2155.63
406.62	2183.72
406.81	2125.21
407.00	2122.87
407.20	1994.14
407.39	2169.68
407.58	2097.12
407.77	2263.30
407.96	2427.14
408.15	2253.94
408.34	2204.78
408.54	2340.54
408.73	2317.13
408.92	2366.28
409.11	2445.86
409.30	2363.94
409.49	2387.35
409.68	2230.53
409.87	2319.47
410.07	2359.26
410.26	2572.25
410.45	2487.99
410.64	2450.54
410.83	2539.48
411.02	2588.63
411.21	2679.91
411.40	2705.66
411.59	2764.17
411.78	2715.02
411.98	2722.04
412.17	2780.56
412.36	2724.38
412.55	2717.36
412.74	2846.09
412.93	2885.88
413.12	2679.91
413.31	3000.57
413.50	2944.39
413.69	2906.95
413.88	2960.78
414.07	2937.37
414.26	2998.23
414.45	3012.27
414.64	3066.10
414.83	3047.38
415.02	3178.45
415.22	3110.57
415.41	3183.13
415.60	3194.83
415.79	3265.05
415.98	3417.18
416.17	3325.90
416.36	3288.45
416.55	3229.94
416.74	3262.71
416.93	3342.28
417.12	3431.23
417.31	3417.18
417.50	3396.12
417.69	3463.99
417.88	3522.51
418.07	3478.04
418.26	3412.50
418.45	3669.96
418.64	3625.49
418.83	3672.30
419.02	3564.64
419.21	3728.47
419.39	3712.09
419.58	3623.15
419.77	3688.68
419.96	3611.45
420.15	3749.54
420.34	3803.37
420.53	4002.32
420.72	3896.99
420.91	3826.78
421.10	3983.59
421.29	4049.13
421.48	3892.31
421.67	3941.46
421.86	3880.61
422.05	3960.19
422.24	3733.15
422.43	3915.72
422.61	3936.78
422.80	4023.38
422.99	4051.47
423.18	4119.34
423.37	4063.17
423.56	4138.07
423.75	4035.08
423.94	4060.83
424.13	3971.89
424.32	3861.88
424.50	4032.74
424.69	4105.30
424.88	4100.62
425.07	3990.61
425.26	4011.68
425.45	3974.23
425.64	3981.25
425.83	4030.40
426.01	4046.79
426.20	4049.13
426.39	4042.11
426.58	4121.68
426.77	4114.66
426.96	4067.85
427.15	4028.06
427.33	4126.36
427.52	4126.36
427.71	4306.59
427.90	4332.33
428.09	4311.27
428.28	4304.25
428.46	4332.33
428.65	4416.59
428.84	4269.14
429.03	4360.42
429.22	4156.79
429.40	4168.49
429.59	4285.52
429.78	3894.65
429.97	4049.13
430.16	4124.02
430.34	4227.01
430.53	4299.56
430.72	4215.30
430.91	4379.14
431.10	4500.85
431.28	4545.32
431.47	4697.46
431.66	4816.82
431.85	4620.22
432.03	4664.69
432.22	4798.10
432.41	4739.58
432.60	4823.84
432.79	4727.88
432.97	4889.38
433.16	4842.57
433.35	4755.97
433.54	4564.04
433.72	4720.86
433.91	4781.71
434.10	4753.63
434.28	4915.12
434.47	4973.64
434.66	5121.09
434.85	5001.72
435.03	5074.28
435.22	5186.63
435.41	5146.84
435.59	5095.35
435.78	5125.77
435.97	5296.63
436.16	5242.80
436.34	5294.29
436.53	5085.98
436.72	5439.40
436.90	5167.90
437.09	5338.76
437.28	5142.16
437.46	5315.36
437.65	5270.89
437.84	5467.49
438.02	5256.84
438.21	5348.12
438.40	5298.97
438.58	5486.22
438.77	5486.22
438.96	5558.77
439.14	5624.31
439.33	5877.09
439.52	5734.31
439.70	5717.93
439.89	5729.63
440.08	5783.46
440.26	5823.25
440.45	5760.06
440.63	5996.45
440.82	6209.44
441.01	6164.97
441.19	6059.65
441.38	6265.61
441.57	6326.47
441.75	6225.82
441.94	6462.22
442.12	6347.53
442.31	6600.31
442.50	6682.23
442.68	6518.39
442.87	6403.71
443.05	6576.91
443.24	6773.51
443.43	6602.65
443.61	6679.89
443.80	6773.51
443.98	6553.50
444.17	6352.21
444.35	6654.14
444.54	6682.23
444.73	6614.35
444.91	6548.82
445.10	6637.76
445.28	6619.04
445.47	6609.67
445.65	6483.28
445.84	6593.29
446.02	6792.23
446.21	6726.70
446.39	6785.21
446.58	6803.94
446.77	6974.80
446.95	6764.15
447.14	6871.81
447.32	6939.69
447.51	6843.73
447.69	6766.49
447.88	6799.26
448.06	6686.91
448.25	6698.61
448.43	6803.94
448.62	6736.06
448.80	7080.12
448.99	6965.43
449.17	7066.08
449.36	6956.07
449.54	7126.93
449.73	7185.44
449.91	7492.05
450.10	7234.60
450.28	7482.69
450.46	7328.22
450.65	7363.33
450.83	7545.89
451.02	7314.17
451.20	7440.56
451.39	7550.57
451.57	7485.03
451.76	7438.22
451.94	7557.59
452.13	7393.75
452.31	7440.56
452.49	7211.19
452.68	7482.69
452.86	7323.54
453.05	7581.00
453.23	7463.97
453.42	7328.22
453.60	7569.29
453.78	7632.49
453.97	7360.98
454.15	7644.19
454.34	7496.74
454.52	7721.43
454.70	7793.98
454.89	7934.42
455.07	7735.47
455.26	7793.98
455.44	7955.48
455.62	7836.11
455.81	7911.01
455.99	7964.84
456.17	8006.97
456.36	8116.98
456.54	8077.19
456.73	8006.97
456.91	8290.18
457.09	8266.77
457.28	8353.37
457.46	8194.22
457.64	8198.90
457.83	8374.44
458.01	8191.88
458.19	8477.42
458.38	8362.73
458.56	8465.72
458.74	8252.73
458.93	8416.57
459.11	8641.26
459.29	8341.67
459.48	8475.08
459.66	8601.47
459.84	8624.87
460.03	8760.63
460.21	8589.77
460.39	8737.22
460.57	8875.31
460.76	8812.12
460.94	8903.40
461.12	8840.20
461.31	8964.25
461.49	8837.86
461.67	8755.94
461.85	9046.17
462.04	8854.25
462.22	9324.69
462.40	9144.47
462.59	9224.05
462.77	9085.96
462.95	9188.94
463.13	9027.45
463.32	9160.86
463.50	9214.69
463.68	9240.44
463.86	9142.13
464.05	9296.61
464.23	9179.58
464.41	9128.09
464.59	9071.92
464.78	9383.21
464.96	9282.56
465.14	9217.03
465.32	9298.95
465.50	9432.36
465.69	9652.37
465.87	9589.17
466.05	9458.10
466.23	9266.18
466.41	9453.42
466.60	9561.09
466.78	9558.75
466.96	9317.67
467.14	9448.74
467.32	9563.43
467.51	9841.95
467.69	9490.87
467.87	9647.69
468.05	9760.03
468.23	9525.98
468.41	9694.50
468.60	9834.93
468.78	9895.78
468.96	9806.84
469.14	9902.81
469.32	9909.83
469.50	9872.38
469.69	9900.47
469.87	10132.18
470.05	10115.80
470.23	10106.43
470.41	10029.20
470.59	10286.65
470.77	10225.80
470.95	10104.09
471.14	10476.24
471.32	10150.90
471.50	10579.22
471.68	10431.77
471.86	10565.18
472.04	10640.08
472.22	10822.64
472.40	10654.12
472.58	10562.84
472.77	10623.69
472.95	10883.49
473.13	11257.98
473.31	10738.38
473.49	10911.58
473.67	10965.41
473.85	11021.58
474.03	11005.20
474.21	11037.97
474.39	11253.30
474.57	11463.94
474.75	11150.31
474.93	11414.79
475.12	11410.11
475.30	11548.20
475.48	11496.71
475.66	11672.25
475.84	11543.52
476.02	11681.61
476.20	11674.59
476.38	11831.41
476.56	12236.32
476.74	11866.52
476.92	12271.43
477.10	12074.82
477.28	12456.33
477.46	12402.50
477.64	12659.96
477.82	12566.34
478.00	13022.74
478.18	12606.13
478.36	13097.64
478.54	12814.43
478.72	13034.44
478.90	13547.02
479.08	13226.37
479.26	13277.86
479.44	13579.79
479.62	13444.04
479.80	13401.91
479.98	13881.72
480.16	14150.88
480.34	13820.86
480.52	14005.77
480.70	14108.75
480.88	13839.59
481.06	14265.57
481.24	14153.22
481.41	14623.67
481.59	14705.59
481.77	14700.90
481.95	14607.28
482.13	14963.04
482.31	15084.75
482.49	15009.86
482.67	14986.45
482.85	15332.85
483.03	15396.04
483.21	15585.63
483.39	15800.96
483.57	15789.25
483.74	15798.62
483.92	15735.42
484.10	15807.98
484.28	16105.23
484.46	16430.56
484.64	16821.43
484.82	16407.16
485.00	16484.39
485.18	17095.27
485.35	16755.90
485.53	16482.05
485.71	16460.99
485.89	16755.90
486.07	16889.31
486.25	16964.20
486.43	17259.11
486.61	17610.19
486.78	17532.95
486.96	17617.21
487.14	18139.15
487.32	18153.20
487.50	18384.91
487.68	18504.28
487.85	18963.02
488.03	18714.92
488.21	19117.50
488.39	19044.94
488.57	18895.14
488.75	19171.33
488.92	19192.39
489.10	19632.41
489.28	19662.84
489.46	20009.24
489.64	20030.30
489.81	20470.33
489.99	20755.87
490.17	20968.86
490.35	21006.31
490.53	20835.45
490.70	20776.94
490.88	20786.30
491.06	21036.74
491.24	21472.07
491.41	21191.21
491.59	21336.32
491.77	21266.11
491.95	21656.98
492.13	21778.68
492.30	22045.51
492.48	22216.36
492.66	22164.87
492.84	22288.92
493.01	22459.78
493.19	22654.05
493.37	22813.20
493.54	22637.66
493.72	22948.95
493.90	23133.86
494.08	23264.92
494.25	24056.03
494.43	23679.20
494.61	23941.34
494.79	24114.54
494.96	23812.61
495.14	24102.84
495.32	24247.95
495.49	24049.00
495.67	24049.00
495.85	24435.19
496.02	24915.00
496.20	24615.41
496.38	25219.27
496.55	24844.79
496.73	25544.61
496.91	25055.43
497.09	25338.64
497.26	25724.83
497.44	25441.62
497.62	25642.91
497.79	25954.20
497.97	25804.41
498.14	26040.80
498.32	25986.97
498.50	26316.98
498.67	26335.71
498.85	26548.70
499.03	26801.47
499.20	27101.06
499.38	26948.93
499.56	26728.92
499.73	27325.75
499.91	27087.02
500.08	26831.90
500.26	26934.88
500.44	27264.90
500.61	27267.24
500.79	27051.91
500.97	27648.75
501.14	27679.18
501.32	27454.48
501.49	27964.72
501.67	27761.09
501.84	27950.68
502.02	28224.52
502.20	28039.62
502.37	28283.03
502.55	28254.95
502.72	28933.70
502.90	28889.23
503.07	28570.92
503.25	28875.19
503.43	28453.89
503.60	28563.90
503.78	28865.83
503.95	28563.90
504.13	29116.26
504.30	29184.14
504.48	29221.59
504.65	29717.78
504.83	29596.07
505.01	29797.36
505.18	29893.32
505.36	30103.97
505.53	30209.29
505.71	30181.21
505.88	30312.28
506.06	29883.96
506.23	30815.49
506.41	30036.09
506.58	30492.50
506.76	30209.29
506.93	30684.42
507.11	30380.15
507.28	31082.31
507.46	30551.01
507.63	30576.76
507.81	30768.68
507.98	30429.30
508.16	30855.28
508.33	31360.84
508.50	31365.52
508.68	31292.96
508.85	31768.09
509.03	31407.65
509.20	31723.62
509.38	31812.56
509.55	31686.17
509.73	31929.59
509.90	31910.86
510.08	31814.90
510.25	31990.44
510.42	32716.01
510.60	32107.47
510.77	32467.91
510.95	32320.46
511.12	32783.88
511.30	33010.92
511.47	33013.26
511.64	33067.09
511.82	33387.74
511.99	32893.89
512.17	32744.09
512.34	32900.91
512.51	33345.61
512.69	33734.14
512.86	33434.55
513.04	33872.23
513.21	33476.68
513.38	33413.49
513.56	33476.68
513.73	33280.08
513.90	33610.09
514.08	33860.53
514.25	33844.15
514.43	34000.96
514.60	33876.91
514.77	34085.22
514.95	34490.13
515.12	34227.99
515.29	34204.59
515.47	34668.02
515.64	34932.50
515.81	34490.13
515.99	34384.81
516.16	34071.18
516.33	34197.57
516.51	34244.38
516.68	33905.00
516.85	33680.31
517.03	34213.95
517.20	34157.78
517.37	34572.05
517.54	34953.56
517.72	35124.42
517.89	34242.04
518.06	34293.53
518.24	35047.18
518.41	35248.47
518.58	35152.51
518.75	35384.22
518.93	35587.85
519.10	35285.92
519.27	35606.57
519.45	35187.61
519.62	36119.15
519.79	35803.17
519.96	35922.54
520.14	35810.20
520.31	35969.35
520.48	36112.13
520.65	36259.58
520.83	36512.36
521.00	36818.97
521.17	36524.06
521.34	36605.98
521.52	36676.19
521.69	36697.26
521.86	36931.31
522.03	36891.52
522.20	36776.84
522.38	36856.42
522.55	37024.93
522.72	36884.50
522.89	37029.62
523.07	37317.50
523.24	37263.67
523.41	37682.62
523.58	37663.90
523.75	37806.67
523.92	38000.94
524.10	38206.90
524.27	37968.17
524.44	38003.28
524.61	38052.43
524.78	38071.15
524.96	37654.54
525.13	38253.72
525.30	38288.82
525.47	38761.61
525.64	38309.89
525.81	38256.06
525.98	38230.31
526.16	37883.91
526.33	37937.74
526.50	38263.08
526.67	37769.22
526.84	37675.60
527.01	37993.92
527.18	38691.40
527.36	38990.98
527.53	38972.26
527.70	38979.28
527.87	39168.87
528.04	39115.03
528.21	39367.81
528.38	38845.87
528.55	39679.10
528.72	39718.89
528.89	39651.02
529.07	39538.67
529.24	39173.55
529.41	39311.64
529.58	39704.85
529.75	39414.62
529.92	39807.83
530.09	39840.60
530.26	39976.35
530.43	40439.78
530.60	39775.06
530.77	40060.61
530.94	40044.23
531.11	40079.33
531.28	40114.44
531.46	40154.23
531.63	40577.87
531.80	40219.77
531.97	40046.57
532.14	40320.41
532.31	40016.14
532.48	40144.87
532.65	40161.25
532.82	40545.10
532.99	40683.19
533.16	39964.65
533.33	40730.00
533.50	40938.31
533.67	40825.96
533.84	40547.44
534.01	40863.41
534.18	40751.07
534.35	40891.50
534.52	40608.29
534.69	40933.63
534.86	41284.71
535.03	40694.89
535.20	41567.91
535.37	41432.16
535.54	41684.94
535.71	41429.82
535.88	41308.11
536.05	41661.54
536.22	41738.77
536.38	41319.82
536.55	41020.23
536.72	41354.93
536.89	41291.73
537.06	41361.95
537.23	41476.63
537.40	41696.64
537.57	41916.65
537.74	41977.51
537.91	41996.23
538.08	41902.61
538.25	42117.94
538.42	41591.32
538.59	42462.00
538.75	41888.57
538.92	42127.30
539.09	42017.30
539.26	41949.42
539.43	42321.57
539.60	42174.11
539.77	41886.23
539.94	42394.12
540.11	42157.73
540.28	41897.93
540.44	42139.00
540.61	42176.45
540.78	42305.18
540.95	42211.56
541.12	42337.95
541.29	42293.48
541.46	42178.79
541.62	43126.71
541.79	42724.14
541.96	42431.57
542.13	42445.62
542.30	42742.86
542.47	43012.02
542.63	42644.56
542.80	43023.73
542.97	43292.89
543.14	43576.09
543.31	43487.15
543.48	43192.25
543.64	44182.29
543.81	43749.29
543.98	43730.57
544.15	43409.92
544.32	43594.82
544.48	43438.00
544.65	43863.98
544.82	43686.10
544.99	43398.21
545.16	43915.47
545.32	43636.95
545.49	44144.84
545.66	43985.69
545.83	44229.10
546.00	43981.01
546.16	44013.77
546.33	43859.30
546.50	43494.18
546.67	43749.29
546.83	43426.30
547.00	43976.33
547.17	43807.81
547.34	43931.86
547.50	44315.70
547.67	44435.07
547.84	43903.77
548.00	44568.48
548.17	44430.39
548.34	44409.32
548.51	44802.53
548.67	44535.71
548.84	44545.08
549.01	44320.38
549.18	44343.79
549.34	44591.89
549.51	44505.29
549.68	44442.09
549.84	44549.76
550.01	44304.00
550.18	44570.82
550.34	44832.96
550.51	44788.49
550.68	44928.92
550.84	44238.47
551.01	44980.42
551.18	44580.18
551.34	45191.06
551.51	45663.85
551.68	45308.09
551.84	45193.40
552.01	44566.14
552.18	45116.17
552.34	44680.83
552.51	44800.19
552.68	44811.90
552.84	45127.87
553.01	45345.54
553.18	44985.10
553.34	45502.35
553.51	45041.27
553.67	45090.42
553.84	45675.55
554.01	45481.29
554.17	45560.87
554.34	45495.33
554.51	45610.02
554.67	45563.21
554.84	45790.24
555.00	45198.09
555.17	45469.59
555.33	45574.91
555.50	45153.62
555.67	45497.67
555.83	45619.38
556.00	45684.92
556.16	46248.99
556.33	45471.93
556.50	45691.94
556.66	45497.67
556.83	45579.59
556.99	45801.94
557.16	45801.94
557.32	45853.44
557.49	45851.09
557.65	45397.03
557.82	45731.73
557.98	46213.88
558.15	45687.26
558.32	45605.34
558.48	45949.40
558.65	46288.77
558.81	45443.84
558.98	45315.11
559.14	45518.74
559.31	45539.80
559.47	45853.44
559.64	46202.18
559.80	46274.73
559.97	46403.46
560.13	45832.37
560.30	46143.66
560.46	45830.03
560.63	46108.55
560.79	46052.38
560.96	46068.76
561.12	46054.72
561.29	46026.63
561.45	46328.56
561.61	46263.03
561.78	45954.08
561.94	45921.31
562.11	45907.27
562.27	46316.86
562.44	46171.75
562.60	46473.68
562.77	46319.20
562.93	46263.03
563.10	46534.53
563.26	45844.07
563.42	46646.88
563.59	46216.22
563.75	45949.40
563.92	46490.06
564.08	46567.30
564.24	46120.26
564.41	46389.42
564.57	46295.80
564.74	46396.44
564.90	46461.97
565.07	46494.74
565.23	46281.75
565.39	45944.72
565.56	46054.72
565.72	46270.05
565.88	46220.90
566.05	46302.82
566.21	46293.46
566.38	46632.83
566.54	46223.24
566.70	46752.20
566.87	46567.30
567.03	46597.73
567.19	46658.58
567.36	46799.01
567.52	46534.53
567.68	46663.26
567.85	46536.87
568.01	46660.92
568.17	45872.16
568.34	46382.40
568.50	46061.74
568.66	46253.67
568.83	46541.55
568.99	45935.35
569.15	46260.69
569.32	46436.23
569.48	46003.23
569.64	46436.23
569.81	46579.00
569.97	46726.46
570.13	46387.08
570.30	46307.50
570.46	45982.16
570.62	46190.47
570.78	46461.97
570.95	46124.94
571.11	46511.13
571.27	46536.87
571.43	46457.29
571.60	46312.18
571.76	46277.07
571.92	46447.93
572.09	46349.63
572.25	46452.61
572.41	46782.63
572.57	46902.00
572.74	46965.19
572.90	47224.99
573.06	46513.47
573.22	46473.68
573.38	46335.59
573.55	46490.06
573.71	47065.83
573.87	46813.05
574.03	46321.54
574.20	46525.17
574.36	46433.89
574.52	46759.22
574.68	46813.05
574.84	46976.89
575.01	46616.45
575.17	46356.65
575.33	46480.70
575.49	46618.79
575.65	46883.27
575.82	46569.64
575.98	46632.83
576.14	46810.71
576.30	46845.82
576.46	46827.10
576.62	46667.94
576.79	46302.82
576.95	46670.28
577.11	46436.23
577.27	46773.27
577.43	46569.64
577.59	46684.33
577.75	46738.16
577.92	46176.43
578.08	46291.12
578.24	46576.66
578.40	46344.95
578.56	46326.22
578.72	46347.29
578.88	46880.93
579.04	46880.93
579.21	46492.40
579.37	46738.16
579.53	46719.43
579.69	46651.56
579.85	46841.14
580.01	46696.03
580.17	46440.91
580.33	46623.47
580.49	46986.25
580.65	46909.02
580.82	46817.74
580.98	46363.67
581.14	46490.06
581.30	46548.57
581.46	46850.50
581.62	46707.73
581.78	47030.72
581.94	47065.83
582.10	46497.08
582.26	46986.25
582.42	46658.58
582.58	46763.90
582.74	47206.26
582.90	46777.95
583.06	46808.37
583.22	46852.84
583.38	47292.86
583.54	47068.17
583.70	47070.51
583.86	46925.40
584.02	46822.42
584.18	47119.66
584.34	46873.91
584.50	46773.27
584.66	46766.24
584.82	46869.23
584.98	46976.89
585.14	47021.36
585.30	46454.95
585.46	47061.15
585.62	46326.22
585.78	46791.99
585.94	46394.10
586.10	46848.16
586.26	46508.79
586.42	47178.18
586.58	47283.50
586.74	47346.70
586.90	46649.22
587.06	46855.18
587.22	46859.87
587.38	47150.09
587.54	46782.63
587.70	46913.70
587.86	46906.68
588.02	46976.89
588.18	47262.44
588.34	46625.81
588.49	46571.98
588.65	46600.07
588.81	46335.59
588.97	46124.94
589.13	46415.16
589.29	46405.80
589.45	46370.69
589.61	46909.02
589.77	46663.26
589.93	46384.74
