SpectraSuite Data File
++++++++++++++++++++++++++++++++++++
Date: Fri Oct 25 11:26:35 EDT 2013
User: price-jones
Dark Spectrum Present: No
Reference Spectrum Present: No
Number of Sampled Component Spectra: 1
Spectrometers: USB2+H05261
Integration Time (usec): 100000 (USB2+H05261)
Spectra Averaged: 1 (USB2+H05261)
Boxcar Smoothing: 0 (USB2+H05261)
Correct for Electrical Dark: No (USB2+H05261)
Strobe/Lamp Enabled: No (USB2+H05261)
Correct for Detector Non-linearity: No (USB2+H05261)
Correct for Stray Light: No (USB2+H05261)
Number of Pixels in Processed Spectrum: 2048
>>>>>Begin Processed Spectral Data<<<<<
365.73	241.08
365.92	241.08
366.12	241.08
366.32	224.69
366.52	147.45
366.72	100.64
366.91	159.16
367.11	180.22
367.31	140.43
367.51	67.88
367.70	128.73
367.90	124.05
368.10	140.43
368.30	142.77
368.49	180.22
368.69	140.43
368.89	184.90
369.09	147.45
369.28	189.58
369.48	220.01
369.68	175.54
369.87	194.26
370.07	187.24
370.27	198.95
370.47	315.97
370.66	599.18
370.86	596.84
371.06	678.76
371.25	627.26
371.45	655.35
371.65	753.65
371.84	690.46
372.04	709.18
372.24	732.59
372.44	739.61
372.63	706.84
372.83	727.91
373.03	678.76
373.22	725.57
373.42	781.74
373.62	821.53
373.81	837.91
374.01	816.85
374.21	807.48
374.40	770.04
374.60	866.00
374.79	891.74
374.99	805.14
375.19	774.72
375.38	861.32
375.58	812.17
375.78	891.74
375.97	894.08
376.17	821.53
376.37	840.25
376.56	854.30
376.76	894.08
376.95	835.57
377.15	847.27
377.35	880.04
377.54	924.51
377.74	966.64
377.93	889.40
378.13	957.28
378.33	910.47
378.52	978.34
378.72	959.62
378.91	983.02
379.11	947.92
379.31	917.49
379.50	922.17
379.70	1004.09
379.89	908.13
380.09	976.00
380.28	966.64
380.48	1015.79
380.68	994.73
380.87	1018.13
381.07	1071.97
381.26	1060.26
381.46	1022.81
381.65	1046.22
381.85	992.39
382.04	1076.65
382.24	1095.37
382.43	1118.78
382.63	1020.47
382.83	1036.86
383.02	1177.29
383.22	1128.14
383.41	1121.12
383.61	1090.69
383.80	1158.57
384.00	1027.50
384.19	1172.61
384.39	1146.86
384.58	1198.35
384.78	1221.76
384.97	1207.72
385.17	1111.75
385.36	1160.91
385.56	1151.54
385.75	1151.54
385.95	1214.74
386.14	1116.44
386.34	1160.91
386.53	1231.12
386.72	1193.67
386.92	1235.80
387.11	1259.21
387.31	1327.08
387.50	1238.14
387.70	1259.21
387.89	1268.57
388.09	1228.78
388.28	1196.01
388.48	1303.68
388.67	1233.46
388.86	1359.85
389.06	1287.29
389.25	1345.81
389.45	1303.68
389.64	1350.49
389.84	1401.98
390.03	1320.06
390.22	1371.55
390.42	1373.89
390.61	1371.55
390.81	1376.24
391.00	1411.34
391.19	1390.28
391.39	1444.11
391.58	1565.82
391.78	1514.33
391.97	1502.62
392.16	1453.47
392.36	1631.35
392.55	1586.88
392.75	1565.82
392.94	1586.88
393.13	1607.95
393.33	1423.05
393.52	1575.18
393.71	1614.97
393.91	1647.74
394.10	1579.86
394.29	1598.59
394.49	1605.61
394.68	1624.33
394.88	1605.61
395.07	1804.55
395.26	1687.53
395.46	1769.44
395.65	1696.89
395.84	1701.57
396.04	1769.44
396.23	1753.06
396.42	1736.68
396.62	1809.23
396.81	1741.36
397.00	1865.41
397.19	1799.87
397.39	1788.17
397.58	1757.74
397.77	1851.36
397.97	1914.56
398.16	1785.83
398.35	2022.22
398.55	1881.79
398.74	1940.30
398.93	2008.18
399.12	1933.28
399.32	1961.37
399.51	1977.75
399.70	2090.10
399.90	2015.20
400.09	2073.71
400.28	2022.22
400.47	1977.75
400.67	2043.29
400.86	2008.18
401.05	2066.69
401.24	2251.60
401.44	2146.27
401.63	2214.15
401.82	2129.89
402.01	2062.01
402.21	2108.82
402.40	2104.14
402.59	2083.08
402.78	2363.94
402.97	2251.60
403.17	2399.05
403.36	2333.51
403.55	2228.19
403.74	2324.15
403.93	2401.39
404.13	2275.00
404.32	2534.80
404.51	2406.07
404.70	2527.78
404.89	2352.24
405.09	2565.23
405.28	2455.22
405.47	2569.91
405.66	2539.48
405.85	2553.52
406.05	2518.42
406.24	2539.48
406.43	2693.96
406.62	2628.42
406.81	2647.15
407.00	2565.23
407.20	2530.12
407.39	2562.89
407.58	2759.49
407.77	2789.92
407.96	2670.55
408.15	2825.03
408.34	2642.46
408.54	2803.96
408.73	2733.75
408.92	2815.66
409.11	2888.22
409.30	2937.37
409.49	2967.80
409.68	2918.65
409.87	2951.42
410.07	2974.82
410.26	3012.27
410.45	3014.61
410.64	3026.31
410.83	3169.09
411.02	3124.62
411.21	3260.37
411.40	3148.02
411.59	3384.41
411.78	3222.92
411.98	3300.16
412.17	3241.64
412.36	3279.09
412.55	3342.28
412.74	3356.33
412.93	3421.86
413.12	3431.23
413.31	3574.00
413.50	3487.40
413.69	3651.24
413.88	3590.38
414.07	3627.83
414.26	3555.27
414.45	3667.62
414.64	3817.41
414.83	3808.05
415.02	3744.86
415.22	3908.69
415.41	3920.40
415.60	3896.99
415.79	3868.91
415.98	3978.91
416.17	3988.27
416.36	4042.11
416.55	4049.13
416.74	4093.60
416.93	4156.79
417.12	4051.47
417.31	4241.05
417.50	4243.39
417.69	4372.12
417.88	4287.86
418.07	4138.07
418.26	4262.12
418.45	4292.54
418.64	4344.03
418.83	4507.87
419.02	4278.50
419.21	4435.32
419.39	4477.44
419.58	4493.83
419.77	4470.42
419.96	4709.16
420.15	4660.01
420.34	4552.34
420.53	4648.30
420.72	4706.82
420.91	4774.69
421.10	4734.90
421.29	4877.68
421.48	4652.98
421.67	4739.58
421.86	4905.76
422.05	4997.04
422.24	4753.63
422.43	5018.11
422.61	4856.61
422.80	4954.91
422.99	4929.17
423.18	4910.44
423.37	5085.98
423.56	5011.09
423.75	5025.13
423.94	4830.87
424.13	4580.43
424.32	4821.50
424.50	5078.96
424.69	5074.28
424.88	5210.03
425.07	5041.51
425.26	5004.07
425.45	4896.40
425.64	5186.63
425.83	5078.96
426.01	5085.98
426.20	5081.30
426.39	5151.52
426.58	4952.57
426.77	5027.47
426.96	5210.03
427.15	5034.49
427.33	5238.12
427.52	5186.63
427.71	5320.04
427.90	5273.23
428.09	5308.34
428.28	5282.59
428.46	5490.90
428.65	5329.40
428.84	5572.82
429.03	5612.60
429.22	5387.91
429.40	5509.62
429.59	5497.92
429.78	5275.57
429.97	5252.16
430.16	5605.58
430.34	5750.70
430.53	5769.42
430.72	5666.44
430.91	5668.78
431.10	5790.49
431.28	5912.19
431.47	5813.89
431.66	5877.09
431.85	5774.10
432.03	5968.37
432.22	6136.88
432.41	5916.87
432.60	5966.03
432.79	6061.99
432.97	5982.41
433.16	5853.68
433.35	5989.43
433.54	6071.35
433.72	6078.37
433.91	6171.99
434.10	6038.58
434.28	6012.84
434.47	6415.41
434.66	6235.19
434.85	6289.02
435.03	6263.27
435.22	6237.53
435.41	6600.31
435.59	6466.90
435.78	6523.07
435.97	6567.54
436.16	6279.66
436.34	6541.80
436.53	6483.28
436.72	6778.19
436.90	6494.99
437.09	6729.04
437.28	6509.03
437.46	6672.87
437.65	6911.60
437.84	6911.60
438.02	6745.42
438.21	6726.70
438.40	6630.74
438.58	6981.82
438.77	6949.05
438.96	6942.03
439.14	7159.70
439.33	7152.68
439.52	7199.49
439.70	7267.36
439.89	7463.97
440.08	7407.80
440.26	7576.31
440.45	7295.45
440.63	7597.38
440.82	7691.00
441.01	7501.42
441.19	7611.42
441.38	7801.01
441.57	7836.11
441.75	7784.62
441.94	8142.72
442.12	7777.60
442.31	7943.78
442.50	7906.33
442.68	8114.64
442.87	8028.04
443.05	8301.88
443.24	8224.64
443.43	8266.77
443.61	8311.24
443.80	8461.04
443.98	8100.59
444.17	7887.61
444.35	8294.86
444.54	8486.78
444.73	8444.65
444.91	8332.31
445.10	8568.70
445.28	8379.12
445.47	8435.29
445.65	8374.44
445.84	8601.47
446.02	8437.63
446.21	8329.97
446.39	8236.35
446.58	8505.51
446.77	8585.08
446.95	8294.86
447.14	8374.44
447.32	8711.47
447.51	8627.21
447.69	8552.32
447.88	8557.00
448.06	8444.65
448.25	8557.00
448.43	8795.73
448.62	8564.02
448.80	8585.08
448.99	8702.11
449.17	8936.17
449.36	8599.13
449.54	8957.23
449.73	9018.08
449.91	9135.11
450.10	9092.98
450.28	9144.47
450.46	9174.90
450.65	9011.06
450.83	9018.08
451.02	9179.58
451.20	9046.17
451.39	9355.12
451.57	9231.07
451.76	9200.65
451.94	8954.89
452.13	9511.94
452.31	9226.39
452.49	9064.89
452.68	9418.32
452.86	9404.27
453.05	9455.76
453.23	9628.96
453.42	9298.95
453.60	9245.12
453.78	9741.31
453.97	9334.06
454.15	9708.54
454.34	9568.11
454.52	9891.10
454.70	9591.52
454.89	9734.29
455.07	10045.58
455.26	9975.36
455.44	9987.07
455.62	9940.26
455.81	10001.11
455.99	10078.35
456.17	10260.91
456.36	10127.50
456.54	10085.37
456.73	10391.98
456.91	10300.70
457.09	10314.74
457.28	10623.69
457.46	10310.06
457.64	10740.72
457.83	10813.28
458.01	10623.69
458.19	10822.64
458.38	10520.71
458.56	10764.12
458.74	10843.70
458.93	10750.08
459.11	10820.30
459.29	10663.48
459.48	10932.64
459.66	10803.91
459.84	10944.34
460.03	11073.07
460.21	11061.37
460.39	11082.44
460.57	10944.34
460.76	11241.59
460.94	11229.89
461.12	11222.87
461.31	11077.76
461.49	11145.63
461.67	11239.25
461.85	11475.65
462.04	11456.92
462.22	11424.15
462.40	11648.85
462.59	11625.44
462.77	11569.27
462.95	11770.55
463.13	11375.00
463.32	11662.89
463.50	11707.36
463.68	11728.42
463.86	12170.79
464.05	11595.01
464.23	11744.81
464.41	12053.76
464.59	11751.83
464.78	12077.16
464.96	12116.95
465.14	11971.84
465.32	11962.48
465.50	12135.68
465.69	12222.28
465.87	11983.54
466.05	12201.21
466.23	12180.15
466.41	12334.62
466.60	12585.06
466.78	12070.14
466.96	12418.88
467.14	12411.86
467.32	12484.42
467.51	12484.42
467.69	12112.27
467.87	12482.08
468.05	12765.28
468.23	12482.08
468.41	12524.21
468.60	12549.95
468.78	12954.87
468.96	12601.44
469.14	12957.21
469.32	13235.73
469.50	12603.78
469.69	12989.97
469.87	13036.78
470.05	13158.49
470.23	13277.86
470.41	13228.71
470.59	13462.76
470.77	13142.11
470.95	13291.90
471.14	13446.38
471.32	13069.55
471.50	13614.90
471.68	13523.62
471.86	13743.63
472.04	13818.52
472.22	14127.47
472.40	13792.78
472.58	13837.25
472.77	14167.26
472.95	13975.34
473.13	14714.95
473.31	14312.38
473.49	14417.70
473.67	13832.57
473.85	14162.58
474.03	14743.03
474.21	14782.82
474.39	14871.76
474.57	14780.48
474.75	14754.74
474.93	14913.89
475.12	14916.23
475.30	15005.17
475.48	14965.39
475.66	15108.16
475.84	15056.67
476.02	15513.07
476.20	15571.58
476.38	15683.93
476.56	16018.63
476.74	15882.88
476.92	16147.36
477.10	15859.47
477.28	16037.35
477.46	16159.06
477.64	16690.36
477.82	16603.76
478.00	17074.21
478.18	16858.88
478.36	17121.02
478.54	17137.40
478.72	17142.08
478.90	17411.25
479.08	17584.44
479.26	17535.29
479.44	17785.73
479.62	18146.17
479.80	17961.27
479.98	18141.49
480.16	18817.91
480.34	18420.02
480.52	18789.82
480.70	18815.57
480.88	18679.82
481.06	18778.12
481.24	19019.19
481.41	19257.93
481.59	19562.20
481.77	19389.00
481.95	19770.51
482.13	19953.07
482.31	19878.17
482.49	20329.89
482.67	20259.68
482.85	20514.80
483.03	20798.00
483.21	21027.37
483.39	21205.25
483.57	21238.02
483.74	21160.78
483.92	21680.38
484.10	21596.12
484.28	21837.20
484.46	21813.79
484.64	22342.75
484.82	22019.76
485.00	22492.55
485.18	22799.16
485.35	23056.62
485.53	22946.61
485.71	23164.28
485.89	23709.63
486.07	23339.82
486.25	23817.29
486.43	23721.33
486.61	23852.40
486.78	24002.19
486.96	24088.79
487.14	24861.17
487.32	24706.70
487.50	24987.56
487.68	24936.07
487.85	25413.54
488.03	25858.24
488.21	25654.61
488.39	25998.67
488.57	26249.11
488.75	26298.26
488.92	26324.01
489.10	26820.20
489.28	26824.88
489.46	27042.55
489.64	27190.00
489.81	27578.53
489.99	27730.67
490.17	27779.82
490.35	28528.79
490.53	28245.58
490.70	28638.80
490.88	28507.72
491.06	28840.08
491.24	29378.40
491.41	29057.75
491.59	29453.30
491.77	29535.22
491.95	29727.14
492.13	29837.15
492.30	30096.95
492.48	30015.03
492.66	30352.07
492.84	30649.32
493.01	30679.74
493.19	30778.04
493.37	31028.48
493.54	31131.47
493.72	31489.57
493.90	31714.26
494.08	31901.50
494.25	32481.95
494.43	32322.80
494.61	32292.37
494.79	32994.53
494.96	32793.25
495.14	32458.55
495.32	33062.41
495.49	33223.90
495.67	33736.48
495.85	33570.30
496.02	34036.07
496.20	34602.48
496.38	33907.34
496.55	34787.38
496.73	34892.71
496.91	35117.40
497.09	34934.84
497.26	35206.34
497.44	35147.82
497.62	35349.11
497.79	36105.10
497.97	35838.28
498.14	36217.45
498.32	36524.06
498.50	36020.84
498.67	36474.91
498.85	36776.84
499.03	37038.98
499.20	36804.92
499.38	36760.45
499.56	37020.25
499.73	37560.92
499.91	37254.31
500.08	37652.20
500.26	37387.72
500.44	38068.81
500.61	38096.90
500.79	37869.87
500.97	38139.03
501.14	38642.24
501.32	38972.26
501.49	38763.95
501.67	38934.81
501.84	39140.78
502.02	39079.92
502.20	38995.67
502.37	39594.84
502.55	39468.45
502.72	39597.18
502.90	39999.76
503.07	39522.29
503.25	40355.52
503.43	40437.44
503.60	40648.08
503.78	40491.27
503.95	40271.26
504.13	40790.86
504.30	41200.45
504.48	41003.85
504.65	40851.71
504.83	41216.83
505.01	41834.74
505.18	41188.75
505.36	41801.97
505.53	41631.11
505.71	41713.03
505.88	41771.54
506.06	41544.51
506.23	42429.23
506.41	41982.19
506.58	41940.06
506.76	42253.69
506.93	42239.65
507.11	42642.22
507.28	42983.94
507.46	42642.22
507.63	43208.63
507.81	43784.40
507.98	43086.92
508.16	43068.20
508.33	43522.26
508.50	43311.61
508.68	43871.00
508.85	44203.36
509.03	43786.74
509.20	44378.90
509.38	44547.42
509.55	44706.57
509.73	44580.18
509.90	44683.17
510.08	44617.63
510.25	44594.23
510.42	44947.65
510.60	45113.83
510.77	45209.79
510.95	45226.17
511.12	45193.40
511.30	45439.16
511.47	45523.42
511.64	45432.14
511.82	45965.78
511.99	46174.09
512.17	46000.89
512.34	46059.40
512.51	46368.35
512.69	46506.44
512.86	46766.24
513.04	46951.15
513.21	46974.55
513.38	47215.63
513.56	47196.90
513.73	46733.48
513.90	47072.85
514.08	47098.60
514.25	47547.98
514.43	47449.68
514.60	47264.78
514.77	47613.52
514.95	47859.27
515.12	47683.73
515.29	47751.61
515.47	47988.00
515.64	48100.35
515.81	47777.36
515.99	48357.81
516.16	48540.37
516.33	48493.56
516.51	48832.94
516.68	48367.17
516.85	48509.94
517.03	49097.42
517.20	48938.26
517.37	48910.17
517.54	48924.22
517.72	49052.95
517.89	49357.22
518.06	49675.53
518.24	49322.11
518.41	49502.33
518.58	49530.42
518.75	49579.57
518.93	49872.14
519.10	49518.71
519.27	49890.86
519.45	49808.94
519.62	50033.63
519.79	49932.99
519.96	50024.27
520.14	50342.58
520.31	50246.62
520.48	50473.65
520.65	50370.67
520.83	50583.66
521.00	51089.21
521.17	50932.40
521.34	50972.19
521.52	51040.06
521.69	51159.43
521.86	51093.89
522.03	51121.98
522.20	51627.54
522.38	51887.34
522.55	51580.73
522.72	51173.47
522.89	51529.23
523.07	51746.90
523.24	51571.36
523.41	51901.38
523.58	51220.28
523.75	52041.81
523.92	51770.31
524.10	52037.13
524.27	52060.54
524.44	52465.45
524.61	52093.30
524.78	52381.19
524.96	52046.49
525.13	52224.37
525.30	52378.85
525.47	52711.20
525.64	52523.96
525.81	52435.02
525.98	52921.85
526.16	52928.87
526.33	52605.88
526.50	53111.44
526.67	52690.14
526.84	52938.24
527.01	53073.99
527.18	53139.52
527.36	52963.98
527.53	53371.24
527.70	53497.62
527.87	53619.33
528.04	53120.80
528.21	53272.93
528.38	53226.12
528.55	53298.68
528.72	53581.88
528.89	53368.90
529.07	53588.91
529.24	53698.91
529.41	53694.23
529.58	54094.46
529.75	53560.82
529.92	54073.40
530.09	54113.19
530.26	53867.43
530.43	54152.97
530.60	53862.75
530.77	53937.65
530.94	54431.50
531.11	53942.33
531.28	54178.72
531.46	54298.09
531.63	54284.04
531.80	54230.21
531.97	54429.16
532.14	54450.22
532.31	54536.82
532.48	54707.68
532.65	54637.47
532.82	54796.62
532.99	54756.83
533.16	54667.89
533.33	54838.75
533.50	55000.25
533.67	54932.37
533.84	54845.77
534.01	54958.12
534.18	55056.42
534.35	55442.61
534.52	55147.70
534.69	55285.79
534.86	55391.12
535.03	55180.47
535.20	55311.54
535.37	55758.58
535.54	55522.19
535.71	55505.80
535.88	55484.74
536.05	55487.08
536.22	55732.84
536.38	55875.61
536.55	55838.16
536.72	55646.24
536.89	55407.50
537.06	55648.58
537.23	55880.29
537.40	55880.29
537.57	56060.51
537.74	56018.38
537.91	56002.00
538.08	56147.11
538.25	56100.30
538.42	55910.72
538.59	56367.12
538.75	55962.21
538.92	56191.58
539.09	56385.85
539.26	56261.80
539.43	56172.86
539.60	56245.41
539.77	56411.59
539.94	56472.45
540.11	56580.11
540.28	56577.77
540.44	56554.36
540.61	56378.82
540.78	56727.56
540.95	56631.60
541.12	56512.23
541.29	56559.05
541.46	56509.89
541.62	56722.88
541.79	57073.96
541.96	56601.18
542.13	56556.70
542.30	56910.13
542.47	56807.14
542.63	56877.36
542.80	57062.26
542.97	57113.75
543.14	57251.84
543.31	57188.65
543.48	57361.85
543.64	57542.07
543.81	57319.72
543.98	57492.92
544.15	57478.88
544.32	57673.14
544.48	57631.01
544.65	57326.74
544.82	57518.67
544.99	57530.37
545.16	57598.24
545.32	57371.21
545.49	57820.59
545.66	57673.14
545.83	57612.29
546.00	57872.09
546.16	57614.63
546.33	57593.56
546.50	57654.42
546.67	57787.83
546.83	57605.26
547.00	57738.68
547.17	57860.38
547.34	57769.10
547.50	57965.71
547.67	58223.17
547.84	57993.79
548.00	58188.06
548.17	58431.47
548.34	58110.82
548.51	58340.19
548.67	58578.93
548.84	58241.89
549.01	58272.32
549.18	58382.32
549.34	58370.62
549.51	58628.08
549.68	58632.76
549.84	58450.20
550.01	58667.87
550.18	58342.53
550.34	58721.70
550.51	58499.35
550.68	58396.37
550.84	58232.53
551.01	58529.78
551.18	58581.27
551.34	58583.61
551.51	58489.99
551.68	58815.32
551.84	58602.33
552.01	58639.78
552.18	58768.51
552.34	58396.37
552.51	58862.13
552.68	58733.40
552.84	58761.49
553.01	58981.50
553.18	58827.02
553.34	58894.90
553.51	58930.01
553.67	58827.02
553.84	59021.29
554.01	59208.53
554.17	58988.52
554.34	59117.25
554.51	58932.35
554.67	59164.06
554.84	59002.56
555.00	58822.34
555.17	59000.22
555.33	59070.44
555.50	59063.42
555.67	59025.97
555.83	59061.08
556.00	59355.99
556.16	59613.44
556.33	59332.58
556.50	59238.96
556.66	59475.35
556.83	59224.92
556.99	59566.63
557.16	59489.40
557.32	59442.59
557.49	59559.61
557.65	59515.14
557.82	59449.61
557.98	59576.00
558.15	59440.24
558.32	59522.16
558.48	59540.89
558.65	59669.62
558.81	59688.34
558.98	59480.03
559.14	59779.62
559.31	59955.16
559.47	59779.62
559.64	59739.83
559.80	59615.79
559.97	59896.65
560.13	59824.09
560.30	59952.82
560.46	59847.50
560.63	59910.69
560.79	59760.90
560.96	59945.80
561.12	59714.09
561.29	59910.69
561.45	60104.96
561.61	59842.82
561.78	59898.99
561.94	59810.05
562.11	59868.56
562.27	60051.12
562.44	60006.65
562.60	59987.93
562.77	60189.22
562.93	59859.20
563.10	60114.32
563.26	60069.85
563.42	60294.54
563.59	60065.17
563.75	60144.75
563.92	60285.18
564.08	60009.00
564.24	60315.61
564.41	60184.54
564.57	60369.44
564.74	60065.17
564.90	60100.28
565.07	60273.48
565.23	60331.99
565.39	60259.43
565.56	60299.22
565.72	60273.48
565.88	60430.29
566.05	60245.39
566.21	60301.56
566.38	60329.65
566.54	60388.16
566.70	60348.37
566.87	60416.25
567.03	60214.96
567.19	60552.00
567.36	60425.61
567.52	60362.42
567.68	60615.19
567.85	60369.44
568.01	60769.67
568.17	60376.46
568.34	60554.34
568.50	60231.35
568.66	60320.29
568.83	60465.40
568.99	60353.05
569.15	60608.17
569.32	60645.62
569.48	60502.85
569.64	60624.56
569.81	60788.39
569.97	60559.02
570.13	60687.75
570.30	60472.42
570.46	60603.49
570.62	60594.13
570.78	60587.11
570.95	60549.66
571.11	60671.37
571.27	60631.58
571.43	60676.05
571.60	60608.17
571.76	60650.30
571.92	60666.69
572.09	60697.11
572.25	60619.88
572.41	60807.12
572.57	60750.94
572.74	60797.76
572.90	60610.51
573.06	60673.71
573.22	60704.13
573.38	60809.46
573.55	60676.05
573.71	61052.87
573.87	60739.24
574.03	60783.71
574.20	60720.52
574.36	60837.54
574.52	60750.94
574.68	60734.56
574.84	60741.58
575.01	60910.10
575.17	60851.59
575.33	60676.05
575.49	60729.88
575.65	60832.86
575.82	60924.14
575.98	60919.46
576.14	61057.56
576.30	60968.61
576.46	60912.44
576.62	60767.33
576.79	60814.14
576.95	60832.86
577.11	60767.33
577.27	60992.02
577.43	60992.02
577.59	60657.32
577.75	60650.30
577.92	60640.94
578.08	60867.97
578.24	60982.66
578.40	61169.90
578.56	61050.53
578.72	60961.59
578.88	61153.52
579.04	61118.41
579.21	61045.85
579.37	60919.46
579.53	60912.44
579.69	60816.48
579.85	60753.29
580.01	60886.70
580.17	60757.97
580.33	60961.59
580.49	60912.44
580.65	61116.07
580.82	60942.87
580.98	60818.82
581.14	60837.54
581.30	61228.41
581.46	60952.23
581.62	60996.70
581.78	60856.27
581.94	60980.32
582.10	61158.20
582.26	61010.74
582.42	60980.32
582.58	61116.07
582.74	61062.24
582.90	60921.80
583.06	60910.10
583.22	60851.59
583.38	60980.32
583.54	60956.91
583.70	61097.34
583.86	61193.31
584.02	61017.77
584.18	61113.73
584.34	61137.13
584.50	61113.73
584.66	60898.40
584.82	61020.11
584.98	61242.46
585.14	60989.68
585.30	60987.34
585.46	61069.26
585.62	61251.82
585.78	61244.80
585.94	60781.37
586.10	60963.93
586.26	61155.86
586.42	61050.53
586.58	61200.33
586.74	60914.78
586.90	61041.17
587.06	61141.81
587.22	61331.40
587.38	61265.86
587.54	61233.10
587.70	61279.91
587.86	60977.98
588.02	61036.49
588.18	61329.06
588.34	61127.77
