SpectraSuite Data File
++++++++++++++++++++++++++++++++++++
Date: Fri Oct 25 10:48:18 EDT 2013
User: price-jones
Dark Spectrum Present: No
Reference Spectrum Present: No
Number of Sampled Component Spectra: 1
Spectrometers: USB2+H05261
Integration Time (usec): 100000 (USB2+H05261)
Spectra Averaged: 1 (USB2+H05261)
Boxcar Smoothing: 0 (USB2+H05261)
Correct for Electrical Dark: No (USB2+H05261)
Strobe/Lamp Enabled: No (USB2+H05261)
Correct for Detector Non-linearity: No (USB2+H05261)
Correct for Stray Light: No (USB2+H05261)
Number of Pixels in Processed Spectrum: 2048
>>>>>Begin Processed Spectral Data<<<<<
365.73	128.73
365.92	128.73
366.12	128.73
366.32	159.16
366.52	65.54
366.72	131.07
366.91	51.49
367.11	49.15
367.31	100.64
367.51	0.00
367.70	46.81
367.90	49.15
368.10	72.56
368.30	21.06
368.49	9.36
368.69	56.17
368.89	0.00
369.09	79.58
369.28	65.54
369.48	79.58
369.68	65.54
369.87	95.96
370.07	93.62
370.27	131.07
370.47	208.31
370.66	376.83
370.86	444.70
371.06	444.70
371.25	580.45
371.45	489.17
371.65	550.03
371.84	447.04
372.04	451.72
372.24	580.45
372.44	496.19
372.63	554.71
372.83	585.13
373.03	514.92
373.22	517.26
373.42	557.05
373.62	573.43
373.81	486.83
374.01	528.96
374.21	638.97
374.40	559.39
374.60	622.58
374.79	575.77
374.99	554.71
375.19	524.28
375.38	660.03
375.58	692.80
375.78	638.97
375.97	552.37
376.17	695.14
376.37	653.01
376.56	683.44
376.76	610.88
376.95	669.39
377.15	627.26
377.35	664.71
377.54	690.46
377.74	674.07
377.93	678.76
378.13	744.29
378.33	807.48
378.52	706.84
378.72	723.23
378.91	688.12
379.11	697.48
379.31	676.41
379.50	699.82
379.70	706.84
379.89	620.24
380.09	758.33
380.28	723.23
380.48	704.50
380.68	727.91
380.87	725.57
381.07	702.16
381.26	823.87
381.46	755.99
381.65	667.05
381.85	746.63
382.04	774.72
382.24	753.65
382.43	732.59
382.63	748.97
382.83	777.06
383.02	760.67
383.22	816.85
383.41	805.14
383.61	683.44
383.80	854.30
384.00	814.51
384.19	858.98
384.39	849.61
384.58	758.33
384.78	870.68
384.97	772.38
385.17	819.19
385.36	802.80
385.56	840.25
385.75	819.19
385.95	821.53
386.14	882.38
386.34	931.53
386.53	851.96
386.72	943.24
386.92	908.13
387.11	891.74
387.31	870.68
387.50	861.32
387.70	922.17
387.89	880.04
388.09	922.17
388.28	905.79
388.48	908.13
388.67	926.85
388.86	870.68
389.06	945.58
389.25	978.34
389.45	1034.52
389.64	1093.03
389.84	1123.46
390.03	1170.27
390.22	1088.35
390.42	973.66
390.61	1081.33
390.81	1064.94
391.00	1114.10
391.19	1114.10
391.39	1107.07
391.58	1090.69
391.78	1116.44
391.97	1128.14
392.16	1050.90
392.36	1069.62
392.55	1039.20
392.75	1081.33
392.94	1034.52
393.13	1018.13
393.33	1076.65
393.52	1071.97
393.71	1186.65
393.91	1062.60
394.10	1083.67
394.29	1203.04
394.49	1245.16
394.68	1245.16
394.88	1268.57
395.07	1320.06
395.26	1268.57
395.46	1186.65
395.65	1289.64
395.84	1362.19
396.04	1280.27
396.23	1289.64
396.42	1205.38
396.62	1284.95
396.81	1249.85
397.00	1289.64
397.19	1327.08
397.39	1474.54
397.58	1390.28
397.77	1371.55
397.97	1406.66
398.16	1432.41
398.35	1530.71
398.55	1626.67
398.74	1666.46
398.93	1584.54
399.12	1563.48
399.32	1563.48
399.51	1540.07
399.70	1629.01
399.90	1673.48
400.09	1600.93
400.28	1619.65
400.47	1696.89
400.67	1750.72
400.86	1699.23
401.05	1769.44
401.24	1713.27
401.44	1830.30
401.63	1673.48
401.82	1856.04
402.01	1748.38
402.21	1760.08
402.40	1839.66
402.59	1778.81
402.78	1767.10
402.97	1834.98
403.17	1818.60
403.36	1895.83
403.55	1909.88
403.74	2059.67
403.93	1928.60
404.13	1849.02
404.32	1952.01
404.51	1912.22
404.70	1989.46
404.89	1954.35
405.09	2052.65
405.28	2026.90
405.47	2001.16
405.66	1973.07
405.85	2045.63
406.05	1980.09
406.24	2040.95
406.43	2094.78
406.62	2197.76
406.81	2225.85
407.00	2148.61
407.20	2153.29
407.39	2078.40
407.58	2162.66
407.77	2282.02
407.96	2335.85
408.15	2296.07
408.34	2165.00
408.54	2356.92
408.73	2335.85
408.92	2349.90
409.11	2335.85
409.30	2406.07
409.49	2338.20
409.68	2363.94
409.87	2303.09
410.07	2410.75
410.26	2389.69
410.45	2448.20
410.64	2562.89
410.83	2602.68
411.02	2651.83
411.21	2630.76
411.40	2619.06
411.59	2794.60
411.78	2710.34
411.98	2630.76
412.17	2745.45
412.36	2754.81
412.55	2853.11
412.74	2913.97
412.93	2717.36
413.12	2754.81
413.31	2860.13
413.50	2888.22
413.69	2932.69
413.88	3021.63
414.07	3054.40
414.26	3063.76
414.45	2984.18
414.64	3030.99
414.83	3166.74
415.02	3138.66
415.22	3157.38
415.41	3337.60
415.60	3325.90
415.79	3283.77
415.98	3272.07
416.17	3339.94
416.36	3328.24
416.55	3307.18
416.74	3377.39
416.93	3379.73
417.12	3510.80
417.31	3468.67
417.50	3534.21
417.69	3602.08
417.88	3459.31
418.07	3489.74
418.26	3590.38
418.45	3527.19
418.64	3824.44
418.83	3674.64
419.02	3698.05
419.21	3803.37
419.39	3698.05
419.58	3609.11
419.77	3653.58
419.96	3634.85
420.15	3829.12
420.34	3808.05
420.53	3936.78
420.72	3995.29
420.91	3763.58
421.10	3955.51
421.29	4081.89
421.48	3929.76
421.67	4102.96
421.86	4018.70
422.05	3999.98
422.24	3995.29
422.43	3880.61
422.61	4037.42
422.80	3772.94
422.99	3927.42
423.18	3978.91
423.37	4095.94
423.56	4056.15
423.75	4009.34
423.94	4114.66
424.13	3751.88
424.32	3894.65
424.50	3997.64
424.69	4184.88
424.88	4170.83
425.07	4042.11
425.26	3927.42
425.45	3871.25
425.64	4131.05
425.83	4306.59
426.01	4102.96
426.20	4147.43
426.39	4072.53
426.58	4021.04
426.77	3950.82
426.96	4173.18
427.15	4135.73
427.33	4086.58
427.52	4227.01
427.71	4278.50
427.90	4194.24
428.09	4299.56
428.28	4156.79
428.46	4252.75
428.65	4358.08
428.84	4318.29
429.03	4379.14
429.22	4243.39
429.40	4365.10
429.59	4241.05
429.78	4067.85
429.97	4067.85
430.16	4088.92
430.34	4170.83
430.53	4376.80
430.72	4397.87
430.91	4386.16
431.10	4416.59
431.28	4753.63
431.47	4739.58
431.66	4816.82
431.85	4603.83
432.03	4709.16
432.22	4816.82
432.41	4936.19
432.60	4919.81
432.79	5011.09
432.97	4917.47
433.16	4873.00
433.35	4877.68
433.54	4929.17
433.72	4919.81
433.91	4741.93
434.10	4868.31
434.28	5001.72
434.47	4812.14
434.66	5053.22
434.85	5121.09
435.03	5088.32
435.22	4938.53
435.41	5205.35
435.59	5254.50
435.78	5214.71
435.97	5371.53
436.16	5324.72
436.34	5268.55
436.53	5343.44
436.72	5504.94
436.90	5104.71
437.09	5317.70
437.28	5172.58
437.46	5266.21
437.65	5305.99
437.84	5469.83
438.02	5362.17
438.21	5308.34
438.40	5123.43
438.58	5427.70
438.77	5591.54
438.96	5685.16
439.14	5689.84
439.33	5806.87
439.52	5825.59
439.70	5799.85
439.89	5837.30
440.08	5849.00
440.26	5877.09
440.45	5956.66
440.63	6026.88
440.82	5998.79
441.01	6293.70
441.19	6363.92
441.38	6118.16
441.57	6270.30
441.75	6359.24
441.94	6441.15
442.12	6630.74
442.31	6626.06
442.50	6668.19
442.68	6509.03
442.87	6518.39
443.05	6551.16
443.24	6738.40
443.43	6537.12
443.61	6644.78
443.80	6761.81
443.98	6607.33
444.17	6349.87
444.35	6693.93
444.54	6836.70
444.73	6675.21
444.91	6593.29
445.10	6736.06
445.28	6630.74
445.47	6485.62
445.65	6476.26
445.84	6759.47
446.02	6722.02
446.21	6803.94
446.39	6768.83
446.58	6766.49
446.77	6750.10
446.95	6712.66
447.14	6792.23
447.32	6951.39
447.51	6801.60
447.69	6920.96
447.88	6820.32
448.06	7005.22
448.25	7005.22
448.43	6906.92
448.62	6974.80
448.80	6981.82
448.99	6857.77
449.17	7026.29
449.36	6953.73
449.54	7176.08
449.73	7229.91
449.91	7267.36
450.10	7372.69
450.28	7492.05
450.46	7442.90
450.65	7417.16
450.83	7377.37
451.02	7318.86
451.20	7405.46
451.39	7445.24
451.57	7391.41
451.76	7300.13
451.94	7487.37
452.13	7541.21
452.31	7162.04
452.49	7225.23
452.68	7258.00
452.86	7365.67
453.05	7571.63
453.23	7653.55
453.42	7676.96
453.60	7604.40
453.78	7644.19
453.97	7503.76
454.15	7632.49
454.34	7541.21
454.52	7854.84
454.70	7751.85
454.89	7815.05
455.07	7801.01
455.26	8028.04
455.44	8074.85
455.62	8077.19
455.81	7892.29
455.99	8023.36
456.17	7934.42
456.36	8152.09
456.54	8049.10
456.73	8161.45
456.91	8355.71
457.09	8409.54
457.28	8489.12
457.46	8386.14
457.64	8336.99
457.83	8400.18
458.01	8072.51
458.19	8744.24
458.38	8503.17
458.56	8606.15
458.74	8425.93
458.93	8461.04
459.11	8617.85
459.29	8393.16
459.48	8535.93
459.66	8578.06
459.84	8542.96
460.03	8814.46
460.21	8631.90
460.39	8650.62
460.57	8762.97
460.76	8891.70
460.94	9048.51
461.12	8872.97
461.31	8856.59
461.49	8798.07
461.67	8922.12
461.85	9125.75
462.04	9013.40
462.22	9376.19
462.40	9144.47
462.59	9146.81
462.77	9153.84
462.95	9142.13
463.13	9125.75
463.32	9179.58
463.50	9095.32
463.68	9289.59
463.86	9252.14
464.05	9107.02
464.23	9390.23
464.41	9610.24
464.59	9156.18
464.78	9500.23
464.96	9310.65
465.14	9104.68
465.32	9397.25
465.50	9394.91
465.69	9441.72
465.87	9530.66
466.05	9430.02
466.23	9469.81
466.41	9425.34
466.60	9577.47
466.78	9287.25
466.96	9554.07
467.14	9474.49
467.32	9551.73
467.51	9654.71
467.69	9474.49
467.87	9699.18
468.05	9696.84
468.23	9650.03
468.41	9741.31
468.60	9830.25
468.78	9657.05
468.96	9905.15
469.14	9968.34
469.32	10022.17
469.50	9633.64
469.69	10108.77
469.87	10120.48
470.05	10284.31
470.23	9989.41
470.41	10111.11
470.59	10251.55
470.77	10249.21
470.95	9968.34
471.14	10445.81
471.32	10183.67
471.50	10523.05
471.68	10569.86
471.86	10832.00
472.04	10628.37
472.22	10890.51
472.40	10506.66
472.58	10665.82
472.77	10857.75
472.95	10848.38
473.13	11199.46
473.31	10867.11
473.49	11059.03
473.67	10946.69
473.85	11117.54
474.03	11353.94
474.21	11239.25
474.39	11304.79
474.57	11370.32
474.75	11419.47
474.93	11573.95
475.12	11433.52
475.30	11524.80
475.48	11611.40
475.66	11569.27
475.84	11669.91
476.02	11962.48
476.20	11777.58
476.38	11840.77
476.56	12201.21
476.74	12119.29
476.92	12063.12
477.10	12123.98
477.28	12489.10
477.46	12498.46
477.64	12456.33
477.82	12725.49
478.00	12833.16
478.18	13043.81
478.36	12898.69
478.54	12919.76
478.72	13006.36
478.90	13245.09
479.08	13586.81
479.26	13631.28
479.44	13511.91
479.62	13399.57
479.80	13778.73
479.98	13778.73
480.16	14085.34
480.34	13867.67
480.52	13905.12
480.70	14150.88
480.88	13973.00
481.06	14169.60
481.24	14534.73
481.41	14572.18
481.59	14911.55
481.77	14934.96
481.95	14792.19
482.13	15094.11
482.31	15133.90
482.49	15218.16
482.67	15555.20
482.85	15365.62
483.03	15639.46
483.21	15503.71
483.39	15807.98
483.57	15688.61
483.74	15871.17
483.92	16091.18
484.10	16053.73
484.28	16322.90
484.46	16484.39
484.64	16793.34
484.82	16617.80
485.00	16510.14
485.18	16795.68
485.35	17067.19
485.53	16512.48
485.71	16620.14
485.89	17001.65
486.07	16589.72
486.25	16856.54
486.43	17301.24
486.61	17795.09
486.78	17750.62
486.96	17900.42
487.14	18230.43
487.32	18412.99
487.50	18810.89
487.68	18583.85
487.85	19014.51
488.03	18780.46
488.21	19307.08
488.39	19126.86
488.57	19513.05
488.75	19510.71
488.92	19403.04
489.10	19873.49
489.28	19929.66
489.46	20013.92
489.64	20479.69
489.81	20634.16
489.99	20769.91
490.17	20734.81
490.35	21179.51
490.53	20893.96
490.70	21188.87
490.88	20936.09
491.06	21390.16
491.24	20943.11
491.41	21333.98
491.59	21614.85
491.77	21469.73
491.95	21488.46
492.13	21687.40
492.30	21914.44
492.48	22094.66
492.66	22232.75
492.84	22438.72
493.01	22530.00
493.19	22466.80
493.37	22689.15
493.54	22733.62
493.72	23054.28
493.90	23084.70
494.08	23463.87
494.25	23817.29
494.43	23737.71
494.61	24229.23
494.79	24266.67
494.96	23875.80
495.14	23950.70
495.32	24372.00
495.49	24364.98
495.67	24638.82
495.85	24851.81
496.02	24751.17
496.20	25020.33
496.38	24947.77
496.55	25333.96
496.73	25560.99
496.91	25523.54
497.09	25710.78
497.26	25832.49
497.44	25825.47
497.62	25809.09
497.79	25942.50
497.97	25860.58
498.14	26080.59
498.32	26288.90
498.50	26354.43
498.67	26817.86
498.85	26747.64
499.03	26981.70
499.20	27080.00
499.38	26895.10
499.56	27082.34
499.73	27302.35
499.91	27590.24
500.08	27557.47
500.26	27133.83
500.44	27569.17
500.61	27716.62
500.79	27234.47
500.97	27433.42
501.14	28032.60
501.32	27887.48
501.49	27625.34
501.67	27683.86
501.84	28142.60
502.02	28109.83
502.20	28402.40
502.37	28243.24
502.55	28617.73
502.72	29034.35
502.90	28922.00
503.07	29149.03
503.25	28819.02
503.43	28364.95
503.60	28540.49
503.78	29132.65
503.95	28957.11
504.13	29139.67
504.30	29415.85
504.48	29600.76
504.65	29401.81
504.83	29560.97
505.01	30197.59
505.18	30153.12
505.36	30349.73
505.53	30096.95
505.71	30150.78
505.88	30766.34
506.06	30099.29
506.23	29855.87
506.41	30429.30
506.58	30572.08
506.76	30438.67
506.93	30864.64
507.11	31033.16
507.28	30623.57
507.46	30794.43
507.63	30670.38
507.81	31044.87
507.98	30876.35
508.16	31096.36
508.33	31307.01
508.50	31454.46
508.68	31812.56
508.85	32133.21
509.03	31889.80
509.20	31997.46
509.38	32067.68
509.55	32573.24
509.73	32109.81
509.90	32257.26
510.08	31732.98
510.25	32746.44
510.42	32252.58
510.60	32428.12
510.77	32870.48
510.95	32636.43
511.12	32804.95
511.30	33104.54
511.47	33340.93
511.64	33464.98
511.82	33247.31
511.99	32879.85
512.17	33277.74
512.34	33022.62
512.51	33235.61
512.69	33764.57
512.86	33762.23
513.04	33961.17
513.21	33825.42
513.38	33661.58
513.56	33780.95
513.73	33546.90
513.90	33684.99
514.08	33703.71
514.25	33797.34
514.43	33905.00
514.60	33933.09
514.77	34087.56
514.95	34415.24
515.12	34410.56
515.29	34043.09
515.47	35089.31
515.64	34848.24
515.81	34660.99
515.99	34382.47
516.16	34873.98
516.33	34164.80
516.51	34508.86
516.68	34391.83
516.85	34389.49
517.03	34412.90
517.20	34653.97
517.37	34941.86
517.54	35180.59
517.72	35040.16
517.89	35077.61
518.06	34829.51
518.24	35168.89
518.41	34967.60
518.58	35487.20
518.75	35571.46
518.93	35739.98
519.10	35803.17
519.27	35950.63
519.45	36002.12
519.62	36313.41
519.79	36320.43
519.96	36664.49
520.14	36589.59
520.31	36631.72
520.48	36720.66
520.65	36364.90
520.83	36840.03
521.00	36456.18
521.17	36641.09
521.34	36861.10
521.52	37282.39
521.69	37713.05
521.86	36982.80
522.03	37560.92
522.20	37055.36
522.38	37488.36
522.55	37483.68
522.72	37277.71
522.89	37207.50
523.07	37703.69
523.24	37963.49
523.41	37813.70
523.58	37855.82
523.75	37741.14
523.92	38085.20
524.10	38251.38
524.27	37972.85
524.44	38141.37
524.61	38279.46
524.78	38808.42
524.96	38279.46
525.13	38637.56
525.30	38490.11
525.47	38604.80
525.64	38459.68
525.81	38698.42
525.98	38574.37
526.16	37965.83
526.33	38326.27
526.50	38738.21
526.67	38230.31
526.84	38649.27
527.01	38595.43
527.18	38593.09
527.36	38995.67
527.53	39035.45
527.70	39669.74
527.87	39351.43
528.04	38813.10
528.21	39714.21
528.38	39791.45
528.55	39821.87
528.72	39632.29
528.89	39997.41
529.07	39765.70
529.24	39510.58
529.41	39859.32
529.58	40023.16
529.75	39943.58
529.92	40367.22
530.09	40058.27
530.26	40179.98
530.43	40512.33
530.60	40226.79
530.77	40205.72
530.94	40257.21
531.11	40179.98
531.28	40404.67
531.46	40554.46
531.63	40699.58
531.80	40917.25
531.97	40573.19
532.14	40786.18
532.31	40388.28
532.48	40605.95
532.65	40554.46
532.82	40484.25
532.99	41265.99
533.16	40531.06
533.33	40919.59
533.50	40875.12
533.67	41347.90
533.84	40657.45
534.01	41010.87
534.18	40999.16
534.35	41443.87
534.52	40945.33
534.69	41031.93
534.86	41432.16
535.03	41214.49
535.20	41607.70
535.37	41448.55
535.54	41787.92
535.71	41497.70
535.88	41457.91
536.05	41530.47
536.22	42045.38
536.38	41741.11
536.55	41448.55
536.72	41642.81
536.89	41457.91
537.06	41610.04
537.23	41902.61
537.40	41951.76
537.57	41813.67
537.74	42443.27
537.91	41940.06
538.08	42607.11
538.25	41916.65
538.42	42614.13
538.59	42609.45
538.75	41965.81
538.92	42246.67
539.09	42775.63
539.26	42356.67
539.43	42452.64
539.60	42314.55
539.77	42469.02
539.94	42323.91
540.11	42335.61
540.28	42700.73
540.44	42351.99
540.61	42099.22
540.78	42670.31
540.95	42588.39
541.12	42525.19
541.29	42951.17
541.46	42625.84
541.62	43126.71
541.79	42887.98
541.96	42951.17
542.13	42770.95
542.30	42740.52
542.47	42799.04
542.63	43269.48
542.80	43346.72
542.97	43943.56
543.14	43784.40
543.31	43419.28
543.48	43929.51
543.64	43639.29
543.81	44121.44
543.98	43962.28
544.15	43950.58
544.32	44184.63
544.48	44058.24
544.65	44147.18
544.82	43667.37
544.99	43981.01
545.16	44083.99
545.32	43697.80
545.49	43838.23
545.66	44369.54
545.83	44304.00
546.00	44353.15
546.16	44334.43
546.33	44109.74
546.50	43681.42
546.67	44163.57
546.83	43693.12
547.00	43983.35
547.17	44093.35
547.34	44577.84
547.50	44549.76
547.67	44737.00
547.84	44629.34
548.00	44711.25
548.17	44453.79
548.34	44409.32
548.51	44924.24
548.67	44598.91
548.84	45120.85
549.01	44875.09
549.18	44704.23
549.34	44975.73
549.51	44924.24
549.68	45043.61
549.84	44802.53
550.01	45254.26
550.18	44587.21
550.34	45216.81
550.51	45062.33
550.68	45165.32
550.84	44467.84
551.01	45443.84
551.18	45205.11
551.34	45144.25
551.51	45130.21
551.68	45647.47
551.84	45450.86
552.01	45137.23
552.18	45483.63
552.34	45120.85
552.51	45511.72
552.68	45581.93
552.84	45427.46
553.01	45930.67
553.18	45738.75
553.34	45705.98
553.51	45734.07
553.67	45925.99
553.84	45689.60
554.01	45869.82
554.17	45738.75
554.34	45647.47
554.51	45867.48
554.67	45801.94
554.84	45448.52
555.00	45542.14
555.17	45815.99
555.33	46066.42
555.50	45495.33
555.67	45937.69
555.83	45729.39
556.00	45947.06
556.16	46169.41
556.33	46415.16
556.50	45738.75
556.66	46110.89
556.83	45584.27
556.99	46061.74
557.16	46181.11
557.32	46635.17
557.49	46068.76
557.65	45895.56
557.82	46146.00
557.98	46096.85
558.15	46106.21
558.32	46073.45
558.48	45916.63
558.65	45904.93
558.81	46096.85
558.98	45713.00
559.14	46061.74
559.31	45989.19
559.47	46433.89
559.64	46330.90
559.80	46532.19
559.97	46398.78
560.13	45778.54
560.30	46351.97
560.46	46078.13
560.63	46281.75
560.79	46288.77
560.96	46499.42
561.12	46330.90
561.29	46590.70
561.45	46038.34
561.61	46181.11
561.78	46469.00
561.94	46129.62
562.11	46810.71
562.27	46473.68
562.44	46487.72
562.60	47166.48
562.77	47161.79
562.93	46836.46
563.10	46777.95
563.26	46164.73
563.42	46852.84
563.59	46604.75
563.75	46511.13
563.92	46375.37
564.08	46548.57
564.24	46703.05
564.41	46899.65
564.57	46698.37
564.74	46791.99
564.90	46801.35
565.07	46616.45
565.23	46515.81
565.39	46366.01
565.56	46679.64
565.72	46494.74
565.88	46721.77
566.05	47000.30
566.21	46515.81
566.38	46574.32
566.54	46925.40
566.70	46927.74
566.87	47463.72
567.03	47061.15
567.19	47346.70
567.36	47007.32
567.52	46876.25
567.68	47189.88
567.85	47136.05
568.01	46873.91
568.17	46909.02
568.34	46768.58
568.50	46777.95
568.66	47159.45
568.83	46817.74
568.99	46562.62
569.15	46850.50
569.32	46909.02
569.48	46586.02
569.64	46693.69
569.81	47054.13
569.97	46653.90
570.13	46965.19
570.30	46696.03
570.46	46707.73
570.62	46459.63
570.78	46902.00
570.95	46904.34
571.11	46670.28
571.27	46909.02
571.43	46976.89
571.60	47356.06
571.76	46824.76
571.92	46951.15
572.09	47388.83
572.25	46916.04
572.41	47117.32
572.57	46894.97
572.74	47693.10
572.90	46995.62
573.06	47122.01
573.22	47021.36
573.38	47138.39
573.55	46887.95
573.71	47250.74
573.87	47337.33
574.03	47210.95
574.20	47098.60
574.36	46925.40
574.52	47028.38
574.68	47042.43
574.84	46981.57
575.01	47187.54
575.17	46960.51
575.33	46607.09
575.49	46916.04
575.65	47271.80
575.82	47217.97
575.98	47206.26
576.14	47416.91
576.30	47136.05
576.46	47021.36
576.62	46995.62
576.79	47079.88
576.95	47049.45
577.11	46864.55
577.27	46934.76
577.43	47379.46
577.59	46990.94
577.75	47143.07
577.92	46913.70
578.08	46747.52
578.24	46354.31
578.40	47044.77
578.56	47117.32
578.72	47138.39
578.88	47061.15
579.04	47285.84
579.21	46799.01
579.37	46700.71
579.53	47365.42
579.69	46852.84
579.85	46794.33
580.01	47140.73
580.17	47150.09
580.33	47386.49
580.49	47215.63
580.65	46927.74
580.82	47318.61
580.98	46955.83
581.14	47037.75
581.30	47522.24
581.46	46983.91
581.62	47215.63
581.78	47576.07
581.94	47601.82
582.10	47428.62
582.26	47494.15
582.42	47210.95
582.58	47388.83
582.74	47126.69
582.90	47271.80
583.06	47058.81
583.22	47203.92
583.38	47283.50
583.54	47437.98
583.70	47316.27
583.86	47248.39
584.02	46869.23
584.18	47482.45
584.34	47285.84
584.50	47463.72
584.66	46988.60
584.82	47133.71
584.98	47550.32
585.14	47014.34
585.30	47042.43
585.46	47365.42
585.62	47096.26
585.78	46972.21
585.94	46927.74
586.10	47311.59
586.26	47154.77
586.42	47430.96
586.58	47414.57
586.74	47334.99
586.90	47154.77
587.06	46967.53
587.22	47028.38
587.38	46979.23
587.54	47445.00
587.70	47721.18
587.86	47508.19
588.02	47054.13
588.18	47049.45
588.34	46724.11
588.49	47129.03
588.65	46410.48
588.81	46733.48
588.97	46576.66
589.13	46754.54
589.29	47206.26
589.45	46597.73
589.61	47164.14
589.77	47449.68
