SpectraSuite Data File
++++++++++++++++++++++++++++++++++++
Date: Fri Oct 25 11:26:36 EDT 2013
User: price-jones
Dark Spectrum Present: No
Reference Spectrum Present: No
Number of Sampled Component Spectra: 1
Spectrometers: USB2+H05261
Integration Time (usec): 100000 (USB2+H05261)
Spectra Averaged: 1 (USB2+H05261)
Boxcar Smoothing: 0 (USB2+H05261)
Correct for Electrical Dark: No (USB2+H05261)
Strobe/Lamp Enabled: No (USB2+H05261)
Correct for Detector Non-linearity: No (USB2+H05261)
Correct for Stray Light: No (USB2+H05261)
Number of Pixels in Processed Spectrum: 2048
>>>>>Begin Processed Spectral Data<<<<<
365.73	257.46
365.92	257.46
366.12	257.46
366.32	182.56
366.52	133.41
366.72	140.43
366.91	182.56
367.11	128.73
367.31	168.52
367.51	182.56
367.70	131.07
367.90	147.45
368.10	140.43
368.30	126.39
368.49	117.03
368.69	149.79
368.89	138.09
369.09	131.07
369.28	241.08
369.48	145.11
369.68	255.12
369.87	220.01
370.07	271.50
370.27	203.63
370.47	322.99
370.66	547.69
370.86	624.92
371.06	645.99
371.25	730.25
371.45	702.16
371.65	697.48
371.84	685.78
372.04	638.97
372.24	744.29
372.44	709.18
372.63	739.61
372.83	763.01
373.03	723.23
373.22	751.31
373.42	777.06
373.62	823.87
373.81	765.36
374.01	816.85
374.21	856.64
374.40	791.10
374.60	870.68
374.79	854.30
374.99	844.93
375.19	798.12
375.38	840.25
375.58	866.00
375.78	849.61
375.97	858.98
376.17	793.44
376.37	866.00
376.56	781.74
376.76	847.27
376.95	887.06
377.15	877.70
377.35	858.98
377.54	954.94
377.74	880.04
377.93	945.58
378.13	898.77
378.33	950.26
378.52	880.04
378.72	959.62
378.91	943.24
379.11	866.00
379.31	933.87
379.50	861.32
379.70	954.94
379.89	992.39
380.09	947.92
380.28	917.49
380.48	1015.79
380.68	966.64
380.87	971.32
381.07	1013.45
381.26	1060.26
381.46	1081.33
381.65	1011.11
381.85	933.87
382.04	1050.90
382.24	1135.16
382.43	1001.75
382.63	1137.50
382.83	1043.88
383.02	1114.10
383.22	1160.91
383.41	1046.22
383.61	1020.47
383.80	1184.31
384.00	1111.75
384.19	1064.94
384.39	1078.99
384.58	1100.05
384.78	1111.75
384.97	1102.39
385.17	1123.46
385.36	1104.73
385.56	1163.25
385.75	1198.35
385.95	1186.65
386.14	1303.68
386.34	1156.22
386.53	1191.33
386.72	1233.46
386.92	1231.12
387.11	1341.13
387.31	1273.25
387.50	1186.65
387.70	1280.27
387.89	1226.44
388.09	1331.76
388.28	1259.21
388.48	1306.02
388.67	1338.79
388.86	1287.29
389.06	1362.19
389.25	1336.45
389.45	1444.11
389.64	1380.92
389.84	1345.81
390.03	1373.89
390.22	1390.28
390.42	1430.07
390.61	1369.21
390.81	1327.08
391.00	1376.24
391.19	1502.62
391.39	1432.41
391.58	1380.92
391.78	1540.07
391.97	1497.94
392.16	1451.13
392.36	1570.50
392.55	1596.25
392.75	1439.43
392.94	1549.43
393.13	1476.88
393.33	1528.37
393.52	1451.13
393.71	1589.22
393.91	1626.67
394.10	1577.52
394.29	1668.80
394.49	1591.56
394.68	1647.74
394.88	1586.88
395.07	1682.85
395.26	1673.48
395.46	1661.78
395.65	1748.38
395.84	1739.02
396.04	1818.60
396.23	1673.48
396.42	1710.93
396.62	1760.08
396.81	1842.00
397.00	1792.85
397.19	1799.87
397.39	1825.62
397.58	1816.26
397.77	1724.97
397.97	1813.92
398.16	1884.13
398.35	1895.83
398.55	1827.96
398.74	1891.15
398.93	1968.39
399.12	1867.75
399.32	1919.24
399.51	1970.73
399.70	2115.84
399.90	1921.58
400.09	2132.23
400.28	2003.50
400.47	2076.06
400.67	2113.50
400.86	2111.16
401.05	2073.71
401.24	2017.54
401.44	2165.00
401.63	2129.89
401.82	2099.46
402.01	2134.57
402.21	2202.44
402.40	2242.23
402.59	2207.13
402.78	2246.91
402.97	2230.53
403.17	2172.02
403.36	2349.90
403.55	2335.85
403.74	2415.43
403.93	2251.60
404.13	2352.24
404.32	2452.88
404.51	2347.56
404.70	2469.27
404.89	2382.67
405.09	2569.91
405.28	2406.07
405.47	2520.76
405.66	2532.46
405.85	2607.36
406.05	2560.55
406.24	2466.92
406.43	2595.65
406.62	2616.72
406.81	2644.81
407.00	2649.49
407.20	2649.49
407.39	2649.49
407.58	2789.92
407.77	2708.00
407.96	2750.13
408.15	2761.83
408.34	2731.41
408.54	2785.24
408.73	2717.36
408.92	2813.32
409.11	2899.92
409.30	2899.92
409.49	2846.09
409.68	2876.52
409.87	2960.78
410.07	3030.99
410.26	3030.99
410.45	3112.91
410.64	3129.30
410.83	3129.30
411.02	3091.85
411.21	3222.92
411.40	3185.47
411.59	3265.05
411.78	3269.73
411.98	3229.94
412.17	3185.47
412.36	3286.11
412.55	3344.63
412.74	3276.75
412.93	3332.92
413.12	3325.90
413.31	3513.14
413.50	3365.69
413.69	3524.85
413.88	3578.68
414.07	3588.04
414.26	3688.68
414.45	3681.66
414.64	3623.15
414.83	3765.92
415.02	3838.48
415.22	3840.82
415.41	3892.31
415.60	3817.41
415.79	3882.95
415.98	3974.23
416.17	3852.52
416.36	3899.33
416.55	4039.76
416.74	4145.09
416.93	4067.85
417.12	4154.45
417.31	4086.58
417.50	4327.65
417.69	4290.20
417.88	4255.09
418.07	4117.00
418.26	4292.54
418.45	4306.59
418.64	4454.04
418.83	4746.61
419.02	4435.32
419.21	4627.24
419.39	4542.98
419.58	4552.34
419.77	4503.19
419.96	4606.17
420.15	4643.62
420.34	4636.60
420.53	4503.19
420.72	4695.11
420.91	4683.41
421.10	4676.39
421.29	4842.57
421.48	5018.11
421.67	4861.29
421.86	4837.89
422.05	4873.00
422.24	4774.69
422.43	4833.21
422.61	4816.82
422.80	4826.18
422.99	4858.95
423.18	5011.09
423.37	5015.77
423.56	4889.38
423.75	4997.04
423.94	4849.59
424.13	4601.49
424.32	4828.53
424.50	5053.22
424.69	5083.64
424.88	5205.35
425.07	5032.15
425.26	4924.49
425.45	5039.17
425.64	5062.58
425.83	4978.32
426.01	4833.21
426.20	5151.52
426.39	5198.33
426.58	5123.43
426.77	5282.59
426.96	5104.71
427.15	5259.18
427.33	5135.14
427.52	5282.59
427.71	5247.48
427.90	5252.16
428.09	5352.81
428.28	5469.83
428.46	5432.38
428.65	5397.28
428.84	5490.90
429.03	5324.72
429.22	5387.91
429.40	5600.90
429.59	5617.29
429.78	5261.52
429.97	5210.03
430.16	5509.62
430.34	5640.69
430.53	5722.61
430.72	5748.36
430.91	5605.58
431.10	5582.18
431.28	5715.59
431.47	5678.14
431.66	5790.49
431.85	5881.77
432.03	5839.64
432.22	5996.45
432.41	5893.47
432.60	5893.47
432.79	6017.52
432.97	5863.04
433.16	6033.90
433.35	5991.77
433.54	6246.89
433.72	6265.61
433.91	6073.69
434.10	6120.50
434.28	6092.41
434.47	6239.87
434.66	6392.00
434.85	6314.77
435.03	6422.43
435.22	6216.46
435.41	6338.17
435.59	6347.53
435.78	6539.46
435.97	6478.60
436.16	6487.96
436.34	6399.02
436.53	6626.06
436.72	6642.44
436.90	6537.12
437.09	6832.02
437.28	6560.52
437.46	6630.74
437.65	6665.85
437.84	6904.58
438.02	6633.08
438.21	6782.87
438.40	6640.10
438.58	7145.66
438.77	6881.18
438.96	6981.82
439.14	7248.64
439.33	7215.87
439.52	7281.41
439.70	7199.49
439.89	7520.14
440.08	7438.22
440.26	7391.41
440.45	7360.98
440.63	7410.14
440.82	7494.40
441.01	7597.38
441.19	7791.64
441.38	7658.23
441.57	7742.49
441.75	7946.12
441.94	7796.32
442.12	8011.65
442.31	7889.95
442.50	7854.84
442.68	8035.06
442.87	8128.68
443.05	8135.70
443.24	8255.07
443.43	8140.38
443.61	8046.76
443.80	8283.16
443.98	7889.95
444.17	7775.26
444.35	8142.72
444.54	8416.57
444.73	8367.42
444.91	8360.39
445.10	8297.20
445.28	8210.60
445.47	8215.28
445.65	8372.10
445.84	8353.37
446.02	8421.25
446.21	8538.27
446.39	8402.52
446.58	8421.25
446.77	8538.27
446.95	8322.94
447.14	8404.86
447.32	8638.92
447.51	8566.36
447.69	8681.05
447.88	8528.91
448.06	8514.87
448.25	8603.81
448.43	8692.75
448.62	8582.74
448.80	8678.71
448.99	8561.68
449.17	8812.12
449.36	8781.69
449.54	8741.90
449.73	8837.86
449.91	8882.33
450.10	8856.59
450.28	9109.36
450.46	9095.32
450.65	9219.37
450.83	9240.44
451.02	9057.87
451.20	9142.13
451.39	9184.26
451.57	9198.31
451.76	9104.68
451.94	9231.07
452.13	9287.25
452.31	9434.70
452.49	9188.94
452.68	9493.21
452.86	9355.12
453.05	9467.47
453.23	9563.43
453.42	9348.10
453.60	9432.36
453.78	9551.73
453.97	9413.63
454.15	9734.29
454.34	9444.06
454.52	9816.21
454.70	9741.31
454.89	9729.61
455.07	9848.97
455.26	9816.21
455.44	9947.28
455.62	9872.38
455.81	9755.35
455.99	9984.73
456.17	9926.21
456.36	10010.47
456.54	10181.33
456.73	10340.49
456.91	10274.95
457.09	10462.19
457.28	10422.41
457.46	10422.41
457.64	10457.51
457.83	10375.59
458.01	10251.55
458.19	10647.10
458.38	10335.81
458.56	10663.48
458.74	10782.85
458.93	10682.20
459.11	10794.55
459.29	10775.83
459.48	11075.42
459.66	10717.31
459.84	10843.70
460.03	10911.58
460.21	10991.16
460.39	11131.59
460.57	10778.17
460.76	11337.56
460.94	11342.24
461.12	11281.38
461.31	11185.42
461.49	11129.25
461.67	11208.83
461.85	11527.14
462.04	11421.81
462.22	11417.13
462.40	11723.74
462.59	11283.72
462.77	11531.82
462.95	11793.96
463.13	11630.12
463.32	11719.06
463.50	11810.34
463.68	11786.94
463.86	11737.79
464.05	11646.51
464.23	11831.41
464.41	12060.78
464.59	11765.87
464.78	12203.55
464.96	12208.23
465.14	11817.36
465.32	11824.39
465.50	12538.25
465.69	12259.73
465.87	12060.78
466.05	12138.02
466.23	11974.18
466.41	12009.29
466.60	12311.22
466.78	12226.96
466.96	12306.54
467.14	12386.12
467.32	12524.21
467.51	12648.26
467.69	12379.09
467.87	12463.35
468.05	12552.29
468.23	12526.55
468.41	12592.08
468.60	12580.38
468.78	12741.88
468.96	12414.20
469.14	12666.98
469.32	13221.69
469.50	12573.36
469.69	13146.79
469.87	13130.41
470.05	13067.21
470.23	13376.16
470.41	13399.57
470.59	13532.98
470.77	13219.35
470.95	13310.63
471.14	13570.43
471.32	12945.50
471.50	13497.87
471.68	13612.56
471.86	13577.45
472.04	13673.41
472.22	13867.67
472.40	13806.82
472.58	13916.83
472.77	14061.94
472.95	14132.15
473.13	14644.73
473.31	14094.71
473.49	14005.77
473.67	14185.99
473.85	14366.21
474.03	14480.89
474.21	14635.37
474.39	14668.14
474.57	14600.26
474.75	14782.82
474.93	14892.83
475.12	14654.09
475.30	15147.95
475.48	14881.13
475.66	15246.25
475.84	15164.33
476.02	15583.29
476.20	15257.95
476.38	15779.89
476.56	16116.93
476.74	16191.83
476.92	16166.08
477.10	15822.02
477.28	16149.70
477.46	16009.26
477.64	16248.00
477.82	16673.98
478.00	16615.46
478.18	16957.18
478.36	16723.13
478.54	17212.30
478.72	17352.73
478.90	17439.33
479.08	17488.48
479.26	18057.23
479.44	17818.50
479.62	18122.77
479.80	18155.54
479.98	18143.83
480.16	18590.88
480.34	18562.79
480.52	18925.57
480.70	18719.60
480.88	18202.35
481.06	18853.02
481.24	18941.96
481.41	19199.41
481.59	19084.73
481.77	19417.08
481.95	19510.71
482.13	19840.72
482.31	19723.69
482.49	20547.56
482.67	20154.35
482.85	20381.38
483.03	20706.72
483.21	20428.20
483.39	21076.52
483.57	20730.12
483.74	21404.20
483.92	21282.49
484.10	21240.36
484.28	21603.14
484.46	21785.71
484.64	22031.46
484.82	21862.94
485.00	22443.40
485.18	22820.22
485.35	23276.63
485.53	22953.63
485.71	23122.15
485.89	23475.57
486.07	23557.49
486.25	23381.95
486.43	23812.61
486.61	23901.55
486.78	24130.92
486.96	24329.87
487.14	24463.28
487.32	24678.61
487.50	24957.13
487.68	25153.74
487.85	25518.86
488.03	25919.09
488.21	26150.81
488.39	26031.44
488.57	26162.51
488.75	26464.44
488.92	26412.95
489.10	26724.24
489.28	26794.45
489.46	26867.01
489.64	27260.22
489.81	27784.50
489.99	27903.87
490.17	27990.47
490.35	28161.33
490.53	28301.76
490.70	28229.20
490.88	28334.53
491.06	28730.08
491.24	28900.94
491.41	29216.91
491.59	29432.24
491.77	29074.13
491.95	29841.83
492.13	29900.34
492.30	30026.73
492.48	30150.78
492.66	30567.40
492.84	30094.61
493.01	30899.75
493.19	30658.68
493.37	31035.50
493.54	31421.69
493.72	31620.64
493.90	31704.90
494.08	31964.70
494.25	31964.70
494.43	32435.14
494.61	32215.13
494.79	32755.80
494.96	32409.40
495.14	32978.15
495.32	33497.75
495.49	32921.98
495.67	33235.61
495.85	33443.91
496.02	33717.76
496.20	33769.25
496.38	34377.79
496.55	34532.26
496.73	35182.93
496.91	34609.50
497.09	34806.11
497.26	34820.15
497.44	35150.17
497.62	35737.64
497.79	35824.24
497.97	35812.54
498.14	35931.90
498.32	36353.20
498.50	36402.35
498.67	36896.20
498.85	36439.80
499.03	36610.66
499.20	36598.96
499.38	36898.55
499.56	36968.76
499.73	37331.54
499.91	37607.73
500.08	37631.13
500.26	37626.45
500.44	37523.47
500.61	37947.11
500.79	37631.13
500.97	38010.30
501.14	38555.64
501.32	38508.83
501.49	38602.46
501.67	38183.50
501.84	39306.96
502.02	38773.31
502.20	38967.58
502.37	39065.88
502.55	39423.98
502.72	39503.56
502.90	39763.36
503.07	39676.76
503.25	39709.53
503.43	39803.15
503.60	39992.73
503.78	40292.32
503.95	40191.68
504.13	40259.55
504.30	41048.32
504.48	40840.01
504.65	40919.59
504.83	41064.70
505.01	41434.50
505.18	41251.94
505.36	41907.29
505.53	41390.03
505.71	41661.54
505.88	41666.22
506.06	41621.75
506.23	41890.91
506.41	41710.69
506.58	42281.78
506.76	42064.11
506.93	42581.37
507.11	42700.73
507.28	42333.27
507.46	43075.22
507.63	43178.20
507.81	43033.09
507.98	42817.76
508.16	43459.07
508.33	43189.91
508.50	43367.79
508.68	43686.10
508.85	43922.49
509.03	43639.29
509.20	44046.54
509.38	44968.71
509.55	44671.46
509.73	44596.57
509.90	44573.16
510.08	45162.98
510.25	45062.33
510.42	45088.08
510.60	45059.99
510.77	45179.36
510.95	45635.77
511.12	45263.62
511.30	45291.71
511.47	45446.18
511.64	45918.97
511.82	45408.73
511.99	46082.81
512.17	46031.32
512.34	45830.03
512.51	46466.66
512.69	46665.60
512.86	46419.84
513.04	46616.45
513.21	46579.00
513.38	46780.29
513.56	47143.07
513.73	46932.42
513.90	47086.90
514.08	46939.44
514.25	47690.76
514.43	47473.09
514.60	47082.22
514.77	47409.89
514.95	47629.90
515.12	47538.62
515.29	47690.76
515.47	48610.59
515.64	48147.16
515.81	47629.90
515.99	48193.97
516.16	48055.88
516.33	48460.79
516.51	48891.45
516.68	48933.58
516.85	48479.52
517.03	48975.71
517.20	49057.63
517.37	48655.06
517.54	48954.64
517.72	48942.94
517.89	49102.10
518.06	49081.03
518.24	49336.15
518.41	49294.02
518.58	49319.77
518.75	49581.91
518.93	49528.08
519.10	49591.27
519.27	49965.76
519.45	49932.99
519.62	50012.57
519.79	50206.83
519.96	49949.37
520.14	50291.09
520.31	50199.81
520.48	50644.51
520.65	50277.05
520.83	50667.92
521.00	50602.38
521.17	50876.22
521.34	51004.95
521.52	50834.10
521.69	51033.04
521.86	50796.65
522.03	51100.92
522.20	51456.68
522.38	51562.00
522.55	51304.54
522.72	51269.43
522.89	51531.57
523.07	51735.20
523.24	51707.12
523.41	51917.76
523.58	51487.10
523.75	51910.74
523.92	51896.70
524.10	52065.22
524.27	52315.65
524.44	52048.83
524.61	51938.83
524.78	51903.72
524.96	52133.09
525.13	52154.16
525.30	52399.91
525.47	52804.83
525.64	52729.93
525.81	52437.36
525.98	52601.20
526.16	52458.43
526.33	52830.57
526.50	53006.11
526.67	52968.66
526.84	52971.00
527.01	52596.52
527.18	52758.02
527.36	53233.14
527.53	53296.34
527.70	53633.38
527.87	53546.78
528.04	53425.07
528.21	53509.33
528.38	53542.10
528.55	53989.14
528.72	53514.01
528.89	53284.64
529.07	53785.51
529.24	53359.53
529.41	53694.23
529.58	53729.34
529.75	53654.44
529.92	53844.02
530.09	53787.85
530.26	53965.73
530.43	54099.14
530.60	54003.18
530.77	53928.28
530.94	54152.97
531.11	53977.43
531.28	54080.42
531.46	54213.83
531.63	54199.79
531.80	54237.23
531.97	54763.85
532.14	54529.80
532.31	54653.85
532.48	54550.87
532.65	54578.95
532.82	54710.02
532.99	54707.68
533.16	54759.17
533.33	54995.57
533.50	54901.95
533.67	54906.63
533.84	54862.16
534.01	54972.16
534.18	54782.58
534.35	55201.53
534.52	55082.17
534.69	55159.41
534.86	55363.03
535.03	55217.92
535.20	55248.35
535.37	55400.48
535.54	55456.65
535.71	55215.58
535.88	55400.48
536.05	55564.32
536.22	55922.42
536.38	55480.06
536.55	55531.55
536.72	55620.49
536.89	55531.55
537.06	55746.88
537.23	55964.55
537.40	55643.90
537.57	55978.59
537.74	55980.93
537.91	56126.05
538.08	55800.71
538.25	55751.56
538.42	55819.44
538.59	56149.45
538.75	55835.82
538.92	56203.28
539.09	56233.71
539.26	56257.12
539.43	56252.44
539.60	56210.31
539.77	56425.64
539.94	56212.65
540.11	56420.95
540.28	56505.21
540.44	56608.20
540.61	56601.18
540.78	56413.93
540.95	56549.68
541.12	56486.49
541.29	56650.33
541.46	56757.99
541.62	56491.17
541.79	56652.67
541.96	56498.19
542.13	56748.63
542.30	56687.78
542.47	56830.55
542.63	56914.81
542.80	57095.03
542.97	57293.97
543.14	57373.55
543.31	57181.63
543.48	57350.15
543.64	57560.79
543.81	57413.34
543.98	57322.06
544.15	57539.73
544.32	57354.83
544.48	57813.57
544.65	57733.99
544.82	57605.26
544.99	57361.85
545.16	57745.70
545.32	57286.95
545.49	57773.78
545.66	57612.29
545.83	57478.88
546.00	57635.69
546.16	57745.70
546.33	57518.67
546.50	57495.26
546.67	57738.68
546.83	57696.55
547.00	57691.86
547.17	57663.78
547.34	57813.57
547.50	57801.87
547.67	58106.14
547.84	58064.01
548.00	57989.11
548.17	58405.73
548.34	58071.03
548.51	58220.83
548.67	58382.32
548.84	58230.19
549.01	58246.57
549.18	58082.73
549.34	58408.07
549.51	58220.83
549.68	58379.98
549.84	58340.19
550.01	58480.63
550.18	58412.75
550.34	58543.82
550.51	58576.59
550.68	58571.91
550.84	58115.50
551.01	58567.23
551.18	58611.70
551.34	58686.59
551.51	58656.17
551.68	58700.64
551.84	58473.60
552.01	58679.57
552.18	58728.72
552.34	58578.93
552.51	58672.55
552.68	58536.80
552.84	58848.09
553.01	59058.74
553.18	58796.60
553.34	59236.62
553.51	58927.67
553.67	58710.00
553.84	59016.61
554.01	59159.38
554.17	58927.67
554.34	59014.27
554.51	59187.47
554.67	59110.23
554.84	58941.71
555.00	58951.07
555.17	58958.09
555.33	59182.79
555.50	58965.12
555.67	59025.97
555.83	59255.34
556.00	59192.15
556.16	59426.20
556.33	59363.01
556.50	59166.40
556.66	59496.42
556.83	59140.66
556.99	59531.53
557.16	59400.46
557.32	59435.56
557.49	59606.42
557.65	59458.97
557.82	59473.01
557.98	59323.22
558.15	59564.29
558.32	59597.06
558.48	59363.01
558.65	59554.93
558.81	59660.26
558.98	59465.99
559.14	59580.68
559.31	59700.04
559.47	59735.15
559.64	59400.46
559.80	59859.20
559.97	59767.92
560.13	59540.89
560.30	59725.79
560.46	59676.64
560.63	59735.15
560.79	59847.50
560.96	59934.10
561.12	59910.69
561.29	59980.91
561.45	59990.27
561.61	59781.96
561.78	59847.50
561.94	59838.14
562.11	60004.31
562.27	59976.23
562.44	59950.48
562.60	59934.10
562.77	60109.64
562.93	59910.69
563.10	60095.60
563.26	59901.33
563.42	60341.35
563.59	60004.31
563.75	59915.37
563.92	59985.59
564.08	60111.98
564.24	60306.24
564.41	60196.24
564.57	60149.43
564.74	59999.63
564.90	60142.41
565.07	60051.12
565.23	60179.85
565.39	60088.57
565.56	60210.28
565.72	60434.97
565.88	60364.76
566.05	60093.25
566.21	60151.77
566.38	60149.43
566.54	60360.08
566.70	60451.36
566.87	60521.57
567.03	60219.64
567.19	60280.50
567.36	60261.77
567.52	60521.57
567.68	60427.95
567.85	60420.93
568.01	60516.89
568.17	60479.44
568.34	60434.97
568.50	60360.08
568.66	60404.55
568.83	60355.39
568.99	60383.48
569.15	60439.65
569.32	60320.29
569.48	60479.44
569.64	60678.39
569.81	60566.04
569.97	60619.88
570.13	60444.33
570.30	60385.82
570.46	60523.91
570.62	60631.58
570.78	60505.19
570.95	60748.60
571.11	60542.64
571.27	60491.15
571.43	60596.47
571.60	60690.09
571.76	60666.69
571.92	60516.89
572.09	60598.81
572.25	60608.17
572.41	60591.79
572.57	60790.73
572.74	60764.99
572.90	60662.00
573.06	60643.28
573.22	60526.25
573.38	60624.56
573.55	60662.00
573.71	61179.26
573.87	60626.90
574.03	60533.28
574.20	60956.91
574.36	60793.07
574.52	60891.38
574.68	60865.63
574.84	60917.12
575.01	60949.89
575.17	60544.98
575.33	60633.92
575.49	60636.26
575.65	60970.96
575.82	60931.17
575.98	60846.91
576.14	61087.98
576.30	60832.86
576.46	60828.18
576.62	60828.18
576.79	60870.31
576.95	60874.99
577.11	60884.36
577.27	60947.55
577.43	60952.23
577.59	60687.75
577.75	60800.10
577.92	60697.11
578.08	60814.14
578.24	60832.86
578.40	60788.39
578.56	61024.79
578.72	60940.53
578.88	61045.85
579.04	60931.17
579.21	60989.68
579.37	61160.54
579.53	61078.62
579.69	60617.53
579.85	60764.99
580.01	60900.74
580.17	60654.98
580.33	60931.17
580.49	61207.35
580.65	60973.30
580.82	60786.05
580.98	60694.77
581.14	60893.72
581.30	61116.07
581.46	61036.49
581.62	60863.29
581.78	60865.63
581.94	61038.83
582.10	60989.68
582.26	61050.53
582.42	60743.92
582.58	60884.36
582.74	60828.18
582.90	60961.59
583.06	61167.56
583.22	60725.20
583.38	61095.00
583.54	61162.88
583.70	61111.39
583.86	61036.49
584.02	61031.81
584.18	61132.45
584.34	61076.28
584.50	61272.88
584.66	60989.68
584.82	60884.36
584.98	61361.82
585.14	61066.92
585.30	60938.19
585.46	61090.32
585.62	61197.99
585.78	61205.01
585.94	60741.58
586.10	60949.89
586.26	61305.65
586.42	61200.33
586.58	61141.81
586.74	61043.51
586.90	61240.12
587.06	61052.87
587.22	61169.90
587.38	60989.68
587.54	61125.43
587.70	61368.85
587.86	60877.33
588.02	61120.75
588.18	61244.80
588.34	61144.16
588.49	61080.96
