SpectraSuite Data File
++++++++++++++++++++++++++++++++++++
Date: Fri Oct 25 11:26:38 EDT 2013
User: price-jones
Dark Spectrum Present: No
Reference Spectrum Present: No
Number of Sampled Component Spectra: 1
Spectrometers: USB2+H05261
Integration Time (usec): 100000 (USB2+H05261)
Spectra Averaged: 1 (USB2+H05261)
Boxcar Smoothing: 0 (USB2+H05261)
Correct for Electrical Dark: No (USB2+H05261)
Strobe/Lamp Enabled: No (USB2+H05261)
Correct for Detector Non-linearity: No (USB2+H05261)
Correct for Stray Light: No (USB2+H05261)
Number of Pixels in Processed Spectrum: 2048
>>>>>Begin Processed Spectral Data<<<<<
365.73	264.48
365.92	264.48
366.12	264.48
366.32	208.31
366.52	102.98
366.72	105.32
366.91	131.07
367.11	128.73
367.31	114.69
367.51	107.66
367.70	168.52
367.90	72.56
368.10	133.41
368.30	72.56
368.49	154.48
368.69	161.50
368.89	212.99
369.09	79.58
369.28	189.58
369.48	231.71
369.68	191.92
369.87	245.76
370.07	201.29
370.27	252.78
370.47	346.40
370.66	601.52
370.86	617.90
371.06	732.59
371.25	732.59
371.45	660.03
371.65	697.48
371.84	706.84
372.04	681.10
372.24	753.65
372.44	681.10
372.63	809.83
372.83	819.19
373.03	772.38
373.22	844.93
373.42	763.01
373.62	809.83
373.81	851.96
374.01	809.83
374.21	898.77
374.40	835.57
374.60	842.59
374.79	823.87
374.99	809.83
375.19	833.23
375.38	830.89
375.58	940.90
375.78	858.98
375.97	819.19
376.17	915.15
376.37	800.46
376.56	854.30
376.76	807.48
376.95	802.80
377.15	947.92
377.35	957.28
377.54	940.90
377.74	957.28
377.93	887.06
378.13	936.21
378.33	983.02
378.52	945.58
378.72	945.58
378.91	950.26
379.11	940.90
379.31	999.41
379.50	924.51
379.70	976.00
379.89	964.30
380.09	936.21
380.28	954.94
380.48	990.05
380.68	1025.15
380.87	1004.09
381.07	1097.71
381.26	1083.67
381.46	1018.13
381.65	1050.90
381.85	1107.07
382.04	1067.28
382.24	1081.33
382.43	1104.73
382.63	1107.07
382.83	1067.28
383.02	999.41
383.22	1029.84
383.41	1186.65
383.61	1177.29
383.80	1172.61
384.00	1174.95
384.19	1069.62
384.39	1160.91
384.58	1057.92
384.78	1109.41
384.97	1214.74
385.17	1156.22
385.36	1167.93
385.56	1163.25
385.75	1163.25
385.95	1217.08
386.14	1240.48
386.34	1214.74
386.53	1259.21
386.72	1165.59
386.92	1238.14
387.11	1242.82
387.31	1193.67
387.50	1179.63
387.70	1240.48
387.89	1254.53
388.09	1210.06
388.28	1268.57
388.48	1350.49
388.67	1390.28
388.86	1254.53
389.06	1432.41
389.25	1416.02
389.45	1301.34
389.64	1341.13
389.84	1376.24
390.03	1364.53
390.22	1380.92
390.42	1327.08
390.61	1376.24
390.81	1387.94
391.00	1446.45
391.19	1399.64
391.39	1430.07
391.58	1413.68
391.78	1514.33
391.97	1462.83
392.16	1467.52
392.36	1514.33
392.55	1526.03
392.75	1556.46
392.94	1509.65
393.13	1451.13
393.33	1476.88
393.52	1572.84
393.71	1591.56
393.91	1621.99
394.10	1551.78
394.29	1591.56
394.49	1610.29
394.68	1720.29
394.88	1584.54
395.07	1717.95
395.26	1699.23
395.46	1671.14
395.65	1640.72
395.84	1767.10
396.04	1783.49
396.23	1739.02
396.42	1813.92
396.62	1842.00
396.81	1715.61
397.00	1727.32
397.19	1703.91
397.39	1806.89
397.58	1799.87
397.77	1886.47
397.97	1881.79
398.16	1870.09
398.35	1842.00
398.55	1863.07
398.74	1891.15
398.93	2003.50
399.12	2015.20
399.32	1956.69
399.51	1991.80
399.70	1891.15
399.90	1940.30
400.09	2059.67
400.28	2139.25
400.47	2090.10
400.67	2099.46
400.86	2043.29
401.05	2111.16
401.24	2059.67
401.44	2083.08
401.63	2132.23
401.82	2202.44
402.01	2162.66
402.21	2115.84
402.40	2162.66
402.59	2221.17
402.78	2129.89
402.97	2232.87
403.17	2244.57
403.36	2286.70
403.55	2366.28
403.74	2361.60
403.93	2342.88
404.13	2471.61
404.32	2380.32
404.51	2392.03
404.70	2310.11
404.89	2354.58
405.09	2408.41
405.28	2487.99
405.47	2551.18
405.66	2513.74
405.85	2476.29
406.05	2586.29
406.24	2605.02
406.43	2609.70
406.62	2658.85
406.81	2715.02
407.00	2750.13
407.20	2609.70
407.39	2593.31
407.58	2649.49
407.77	2710.34
407.96	2768.85
408.15	2745.45
408.34	2712.68
408.54	2757.15
408.73	2717.36
408.92	2853.11
409.11	2937.37
409.30	2942.05
409.49	2951.42
409.68	2951.42
409.87	3026.31
410.07	3052.06
410.26	2981.84
410.45	3026.31
410.64	3091.85
410.83	3141.00
411.02	3068.44
411.21	3073.12
411.40	3164.40
411.59	3204.19
411.78	3321.22
411.98	3325.90
412.17	3344.63
412.36	3229.94
412.55	3353.99
412.74	3529.53
412.93	3452.29
413.12	3489.74
413.31	3588.04
413.50	3566.98
413.69	3538.89
413.88	3595.06
414.07	3550.59
414.26	3712.09
414.45	3545.91
414.64	3660.60
414.83	3754.22
415.02	3756.56
415.22	3836.14
415.41	3801.03
415.60	3934.44
415.79	3859.54
415.98	3969.55
416.17	3985.93
416.36	3983.59
416.55	3950.82
416.74	4152.11
416.93	3950.82
417.12	4182.54
417.31	4124.02
417.50	4219.99
417.69	4360.42
417.88	4292.54
418.07	4147.43
418.26	4208.28
418.45	4280.84
418.64	4512.55
418.83	4470.42
419.02	4470.42
419.21	4617.88
419.39	4498.51
419.58	4484.47
419.77	4430.63
419.96	4631.92
420.15	4526.60
420.34	4603.83
420.53	4645.96
420.72	4674.05
420.91	4844.91
421.10	4674.05
421.29	4765.33
421.48	4638.94
421.67	4781.71
421.86	4798.10
422.05	4865.97
422.24	4678.73
422.43	4821.50
422.61	5006.41
422.80	4992.36
422.99	4760.65
423.18	4952.57
423.37	5109.39
423.56	4947.89
423.75	4929.17
423.94	4849.59
424.13	4711.50
424.32	4631.92
424.50	4898.74
424.69	5205.35
424.88	5151.52
425.07	5055.56
425.26	4926.83
425.45	4936.19
425.64	5071.94
425.83	4975.98
426.01	5018.11
426.20	5060.24
426.39	5036.83
426.58	5060.24
426.77	5090.67
426.96	5022.79
427.15	5036.83
427.33	5296.63
427.52	5163.22
427.71	5200.67
427.90	5327.06
428.09	5383.23
428.28	5481.53
428.46	5235.78
428.65	5188.97
428.84	5533.03
429.03	5600.90
429.22	5280.25
429.40	5521.32
429.59	5523.66
429.78	5458.13
429.97	5210.03
430.16	5486.22
430.34	5717.93
430.53	5577.50
430.72	5579.84
430.91	5628.99
431.10	5645.37
431.28	5881.77
431.47	5762.40
431.66	5832.62
431.85	5729.63
432.03	5902.83
432.22	5998.79
432.41	5942.62
432.60	5879.43
432.79	6101.78
432.97	6139.23
433.16	5947.30
433.35	6022.20
433.54	6078.37
433.72	6148.59
433.91	6202.42
434.10	6214.12
434.28	6125.18
434.47	6155.61
434.66	6228.17
434.85	6349.87
435.03	6352.21
435.22	6286.68
435.41	6389.66
435.59	6408.39
435.78	6548.82
435.97	6431.79
436.16	6160.29
436.34	6293.70
436.53	6434.13
436.72	6523.07
436.90	6546.48
437.09	6593.29
437.28	6668.19
437.46	6560.52
437.65	6588.61
437.84	6677.55
438.02	6729.04
438.21	6972.46
438.40	6633.08
438.58	6876.49
438.77	7073.10
438.96	7094.16
439.14	7126.93
439.33	7075.44
439.52	7269.70
439.70	7215.87
439.89	7267.36
440.08	7438.22
440.26	7543.55
440.45	7321.20
440.63	7496.74
440.82	7688.66
441.01	7510.78
441.19	7466.31
441.38	7803.35
441.57	7772.92
441.75	7789.30
441.94	8053.78
442.12	7819.73
442.31	8208.26
442.50	8112.30
442.68	7901.65
442.87	7896.97
443.05	8191.88
443.24	8252.73
443.43	8245.71
443.61	8142.72
443.80	8322.94
443.98	8226.98
444.17	8105.28
444.35	8313.58
444.54	8353.37
444.73	8325.29
444.91	8243.37
445.10	8315.92
445.28	8327.63
445.47	8346.35
445.65	8416.57
445.84	8500.83
446.02	8446.99
446.21	8585.08
446.39	8582.74
446.58	8573.38
446.77	8404.86
446.95	8360.39
447.14	8599.13
447.32	8627.21
447.51	8538.27
447.69	8407.20
447.88	8472.74
448.06	8472.74
448.25	8648.28
448.43	8765.31
448.62	8688.07
448.80	8575.72
448.99	8769.99
449.17	8865.95
449.36	8737.22
449.54	8793.39
449.73	8982.98
449.91	9153.84
450.10	8868.29
450.28	9163.20
450.46	9114.05
450.65	9125.75
450.83	8997.02
451.02	9046.17
451.20	9261.50
451.39	9394.91
451.57	9071.92
451.76	9135.11
451.94	9050.85
452.13	9432.36
452.31	9254.48
452.49	9233.41
452.68	9411.29
452.86	9308.31
453.05	9392.57
453.23	9575.13
453.42	9404.27
453.60	9366.82
453.78	9650.03
453.97	9462.79
454.15	9699.18
454.34	9537.68
454.52	9802.16
454.70	9497.89
454.89	9628.96
455.07	9856.00
455.26	9977.70
455.44	9973.02
455.62	9792.80
455.81	10036.22
455.99	9998.77
456.17	10024.51
456.36	10296.02
456.54	10436.45
456.73	10223.46
456.91	10471.56
457.09	10614.33
457.28	10761.78
457.46	10281.97
457.64	10516.03
457.83	10504.32
458.01	10487.94
458.19	10953.71
458.38	10628.37
458.56	10986.47
458.74	10771.15
458.93	10707.95
459.11	10490.28
459.29	10773.49
459.48	10878.81
459.66	10768.80
459.84	11091.80
460.03	11281.38
460.21	10885.83
460.39	10862.43
460.57	10897.53
460.76	11089.46
460.94	11318.83
461.12	11112.86
461.31	11360.96
461.49	11323.51
461.67	11307.13
461.85	11623.10
462.04	11349.26
462.22	11595.01
462.40	11716.72
462.59	11712.04
462.77	11655.87
462.95	11885.24
463.13	11742.47
463.32	11679.27
463.50	11716.72
463.68	11637.14
463.86	11847.79
464.05	11698.00
464.23	11899.28
464.41	11836.09
464.59	11936.73
464.78	12276.11
464.96	12046.74
465.14	11840.77
465.32	12098.23
465.50	12159.08
465.69	12229.30
465.87	12212.92
466.05	12252.70
466.23	12044.40
466.41	12255.04
466.60	12688.04
466.78	12187.17
466.96	12037.38
467.14	12175.47
467.32	12262.07
467.51	12856.56
467.69	12086.53
467.87	12381.43
468.05	12753.58
468.23	12320.58
468.41	12367.39
468.60	12617.83
468.78	13015.72
468.96	12870.61
469.14	12898.69
469.32	12975.93
469.50	12791.03
469.69	13111.68
469.87	13158.49
470.05	13291.90
470.23	13221.69
470.41	13219.35
470.59	13490.85
470.77	13298.92
470.95	13212.32
471.14	13596.17
471.32	13224.03
471.50	13624.26
471.68	13853.63
471.86	13614.90
472.04	13642.98
472.22	14033.85
472.40	13781.07
472.58	14099.39
472.77	13968.32
472.95	14148.54
473.13	14520.68
473.31	14139.18
473.49	14338.12
473.67	14141.52
473.85	14483.24
474.03	14569.83
474.21	14824.95
474.39	14656.43
474.57	14897.51
474.75	15035.60
474.93	15161.99
475.12	15040.28
475.30	15370.30
475.48	15211.14
475.66	15166.67
475.84	15119.86
476.02	15513.07
476.20	15286.04
476.38	15639.46
476.56	16191.83
476.74	15815.00
476.92	16027.99
477.10	15946.07
477.28	16217.57
477.46	16074.80
477.64	16280.77
477.82	16453.97
478.00	16999.31
478.18	16709.08
478.36	16788.66
478.54	17301.24
478.72	17214.64
478.90	17266.13
479.08	17429.97
479.26	17720.20
479.44	17605.51
479.62	17989.36
479.80	17912.12
479.98	18092.34
480.16	18843.65
480.34	18565.13
480.52	18604.92
480.70	18838.97
480.88	18441.08
481.06	18796.84
481.24	18579.17
481.41	19400.70
481.59	19414.74
481.77	19501.34
481.95	19859.45
482.13	19983.49
482.31	19983.49
482.49	20379.04
482.67	20177.76
482.85	20861.19
483.03	20760.55
483.21	20847.15
483.39	21095.25
483.57	20912.69
483.74	21123.33
483.92	21476.76
484.10	21310.58
484.28	21584.42
484.46	21909.75
484.64	22691.49
484.82	21991.67
485.00	22497.23
485.18	22539.36
485.35	22923.21
485.53	22693.83
485.71	23124.49
485.89	23482.59
486.07	23316.42
486.25	23316.42
486.43	24102.84
486.61	23641.75
486.78	24369.66
486.96	24432.85
487.14	24514.77
487.32	24783.93
487.50	25017.99
487.68	25352.68
487.85	25546.95
488.03	25645.25
488.21	26199.96
488.39	26024.42
488.57	26199.96
488.75	25958.88
488.92	26389.54
489.10	26637.64
489.28	26684.45
489.46	27381.93
489.64	27143.19
489.81	27768.12
489.99	27625.34
490.17	28224.52
490.35	28027.92
490.53	28121.54
490.70	28428.15
490.88	28257.29
491.06	29266.06
491.24	28889.23
491.41	29134.99
491.59	29013.28
491.77	29383.09
491.95	29546.92
492.13	29703.74
492.30	30110.99
492.48	30132.06
492.66	30623.57
492.84	30815.49
493.01	30813.15
493.19	30548.67
493.37	30991.03
493.54	31094.02
493.72	31124.44
493.90	31178.28
494.08	31782.13
494.25	32229.18
494.43	32301.73
494.61	32180.03
494.79	32931.34
494.96	32350.88
495.14	32701.96
495.32	33223.90
495.49	33167.73
495.67	33940.11
495.85	33617.11
496.02	33970.54
496.20	34164.80
496.38	34199.91
496.55	34396.51
496.73	34927.81
496.91	34588.44
497.09	34623.54
497.26	35086.97
497.44	34965.26
497.62	35316.34
497.79	35744.66
497.97	35693.17
498.14	35754.02
498.32	36055.95
498.50	36346.18
498.67	36669.17
498.85	36996.85
499.03	36697.26
499.20	37195.79
499.38	36622.36
499.56	36730.03
499.73	37270.69
499.91	37111.53
500.08	37684.97
500.26	37270.69
500.44	37919.02
500.61	37904.98
500.79	37867.53
500.97	38490.11
501.14	38539.26
501.32	38932.47
501.49	38651.61
501.67	38703.10
501.84	39143.12
502.02	38808.42
502.20	39302.28
502.37	39339.72
502.55	39718.89
502.72	39564.42
502.90	39959.97
503.07	39501.22
503.25	40114.44
503.43	39936.56
503.60	40416.37
503.78	40439.78
503.95	40437.44
504.13	40505.31
504.30	40732.34
504.48	40893.84
504.65	40472.54
504.83	41495.36
505.01	41235.56
505.18	41478.97
505.36	41900.27
505.53	41226.20
505.71	41202.79
505.88	41928.36
506.06	41750.48
506.23	41879.21
506.41	41895.59
506.58	42178.79
506.76	42443.27
506.93	42838.83
507.11	42323.91
507.28	42731.16
507.46	43122.03
507.63	42983.94
507.81	43515.24
507.98	43044.79
508.16	43313.95
508.33	43131.39
508.50	43227.35
508.68	43819.51
508.85	44299.32
509.03	43964.62
509.20	43854.62
509.38	44184.63
509.55	44453.79
509.73	44732.32
509.90	45013.18
510.08	45010.84
510.25	45048.29
510.42	44931.26
510.60	45275.32
510.77	45102.12
510.95	45380.65
511.12	45272.98
511.30	45287.03
511.47	45942.38
511.64	45776.20
511.82	46174.09
511.99	45593.64
512.17	45846.41
512.34	45886.20
512.51	46258.35
512.69	46595.38
512.86	46686.67
513.04	46433.89
513.21	46698.37
513.38	46855.18
513.56	47040.09
513.73	46815.40
513.90	46939.44
514.08	46808.37
514.25	47309.25
514.43	47508.19
514.60	47334.99
514.77	47639.26
514.95	47817.14
515.12	47405.21
515.29	47466.06
515.47	47789.06
515.64	48121.41
515.81	47887.36
515.99	48411.64
516.16	48884.43
516.33	48465.47
516.51	48662.08
516.68	48456.11
516.85	48823.58
517.03	48935.92
517.20	49188.70
517.37	48753.36
517.54	49045.93
517.72	48975.71
517.89	49256.57
518.06	49275.30
518.24	49389.98
518.41	49382.96
518.58	49392.33
518.75	49631.06
518.93	49860.43
519.10	49766.81
519.27	50003.20
519.45	49729.36
519.62	50120.23
519.79	49734.04
519.96	50057.04
520.14	50092.15
520.31	50038.31
520.48	50419.82
520.65	50417.48
520.83	50878.57
521.00	50522.80
521.17	50777.92
521.34	50941.76
521.52	50834.10
521.69	51255.39
521.86	51026.02
522.03	51311.56
522.20	51346.67
522.38	51597.11
522.55	51311.56
522.72	51318.59
522.89	51363.06
523.07	51524.55
523.24	51264.75
523.41	51798.40
523.58	51536.26
523.75	51838.18
523.92	51847.55
524.10	52257.14
524.27	52062.88
524.44	52163.52
524.61	52254.80
524.78	52004.36
524.96	52313.31
525.13	52275.87
525.30	52545.03
525.47	52830.57
525.64	52582.48
525.81	52617.58
525.98	52832.91
526.16	52378.85
526.33	53013.13
526.50	52823.55
526.67	53008.45
526.84	53235.48
527.01	53172.29
527.18	52886.74
527.36	52926.53
527.53	53235.48
527.70	53584.22
527.87	53464.86
528.04	53249.53
528.21	53338.47
528.38	53343.15
528.55	53448.47
528.72	53532.73
528.89	53411.02
529.07	53549.12
529.24	53537.41
529.41	53979.78
529.58	53829.98
529.75	53858.07
529.92	54073.40
530.09	53909.56
530.26	53989.14
530.43	54181.06
530.60	53944.67
530.77	53668.48
530.94	54195.10
531.11	53968.07
531.28	54478.31
531.46	54340.22
531.63	54127.23
531.80	54253.62
531.97	54468.95
532.14	54574.27
532.31	54518.10
532.48	54672.57
532.65	54529.80
532.82	54625.76
532.99	54852.80
533.16	54719.38
533.33	54794.28
533.50	54871.52
533.67	54897.27
533.84	54686.62
534.01	54993.23
534.18	54932.37
534.35	55075.15
534.52	55189.83
534.69	55494.10
534.86	55173.45
535.03	55229.62
535.20	55552.62
535.37	55660.28
535.54	55601.77
535.71	55285.79
535.88	55358.35
536.05	55634.53
536.22	55866.25
536.38	55543.25
536.55	55587.72
536.72	55697.73
536.89	55442.61
537.06	55625.17
537.23	55646.24
537.40	55714.11
537.57	55604.11
537.74	55671.98
537.91	55896.67
538.08	55976.25
538.25	55856.88
538.42	56177.54
538.59	56011.36
538.75	55999.66
538.92	55980.93
539.09	56189.24
539.26	56355.42
539.43	56182.22
539.60	56376.48
539.77	56214.99
539.94	56404.57
540.11	56378.82
540.28	56437.34
540.44	56535.64
540.61	56460.74
540.78	56460.74
540.95	56596.49
541.12	56472.45
541.29	56655.01
541.46	56657.35
541.62	56582.45
541.79	56865.66
541.96	56498.19
542.13	56868.00
542.30	56694.80
542.47	56914.81
542.63	56835.23
542.80	56879.70
542.97	57118.43
543.14	57331.42
543.31	57148.86
543.48	57261.21
543.64	57607.61
543.81	57546.75
543.98	57607.61
544.15	57097.37
544.32	57577.18
544.48	57633.35
544.65	57308.02
544.82	57457.81
544.99	57364.19
545.16	57607.61
545.32	57413.34
545.49	57963.37
545.66	57883.79
545.83	57670.80
546.00	57778.46
546.16	57729.31
546.33	57483.56
546.50	57506.96
546.67	57895.49
546.83	57521.01
547.00	58010.18
547.17	57776.12
547.34	58113.16
547.50	58033.58
547.67	58174.02
547.84	58148.27
548.00	58056.99
548.17	58258.27
548.34	58262.96
548.51	58262.96
548.67	58145.93
548.84	58220.83
549.01	57977.41
549.18	58143.59
549.34	58262.96
549.51	58349.56
549.68	58464.24
549.84	58375.30
550.01	58333.17
550.18	58379.98
550.34	58642.12
550.51	58618.72
550.68	58522.76
550.84	58326.15
551.01	58810.64
551.18	58660.85
551.34	58473.60
551.51	58574.25
551.68	58740.42
551.84	58658.51
552.01	58382.32
552.18	58670.21
552.34	58639.78
552.51	58787.24
552.68	58670.21
552.84	58585.95
553.01	58843.41
553.18	58789.58
553.34	58993.20
553.51	58848.09
553.67	58934.69
553.84	58990.86
554.01	59030.65
554.17	59018.95
554.34	59119.59
554.51	59128.95
554.67	59098.53
554.84	58925.33
555.00	59091.51
555.17	59091.51
555.33	59110.23
555.50	58768.51
555.67	59084.48
555.83	59157.04
556.00	59021.29
556.16	59554.93
556.33	59554.93
556.50	59327.90
556.66	59164.06
556.83	59145.34
556.99	59590.04
557.16	59758.56
557.32	59627.49
557.49	59721.11
557.65	59487.06
557.82	59550.25
557.98	59594.72
558.15	59332.58
558.32	59547.91
558.48	59482.37
558.65	59655.57
558.81	59550.25
558.98	59599.40
559.14	59618.13
559.31	59529.19
559.47	59686.00
559.64	59803.03
559.80	59774.94
559.97	59863.88
560.13	59482.37
560.30	59723.45
560.46	59831.11
560.63	59870.90
560.79	59669.62
560.96	60055.81
561.12	60013.68
561.29	59824.09
561.45	60093.25
561.61	60062.83
561.78	59866.22
561.94	59891.97
562.11	59842.82
562.27	59962.18
562.44	60046.44
562.60	60025.38
562.77	60203.26
562.93	59948.14
563.10	60133.04
563.26	59929.42
563.42	60268.79
563.59	60046.44
563.75	60119.00
563.92	60142.41
564.08	60142.41
564.24	60191.56
564.41	60219.64
564.57	60055.81
564.74	60261.77
564.90	60186.88
565.07	60102.62
565.23	60095.60
565.39	60041.76
565.56	60130.70
565.72	60371.78
565.88	60374.12
566.05	60151.77
566.21	60163.47
566.38	60102.62
566.54	60378.80
566.70	60355.39
566.87	60355.39
567.03	60104.96
567.19	60385.82
567.36	60388.16
567.52	60250.07
567.68	60952.23
567.85	60390.50
568.01	60336.67
568.17	60364.76
568.34	60369.44
568.50	60362.42
568.66	60470.08
568.83	60409.23
568.99	60381.14
569.15	60371.78
569.32	60640.94
569.48	60369.44
569.64	60685.41
569.81	60512.21
569.97	60559.02
570.13	60376.46
570.30	60205.60
570.46	60509.87
570.62	60427.95
570.78	60650.30
570.95	60498.17
571.11	60617.53
571.27	60505.19
571.43	60481.78
571.60	60736.90
571.76	60439.65
571.92	60633.92
572.09	60654.98
572.25	60430.29
572.41	60474.76
572.57	60720.52
572.74	60755.63
572.90	60638.60
573.06	60825.84
573.22	60839.89
573.38	60823.50
573.55	60699.45
573.71	60720.52
573.87	60863.29
574.03	60601.15
574.20	60535.62
574.36	60650.30
574.52	60701.79
574.68	60802.44
574.84	60947.55
575.01	60931.17
575.17	60781.37
575.33	60727.54
575.49	60671.37
575.65	60921.80
575.82	60977.98
575.98	60942.87
576.14	61109.05
576.30	60790.73
576.46	60772.01
576.62	60734.56
576.79	60767.33
576.95	60788.39
577.11	60982.66
577.27	60921.80
577.43	60788.39
577.59	60762.65
577.75	60643.28
577.92	60900.74
578.08	60837.54
578.24	60692.43
578.40	60975.64
578.56	60987.34
578.72	60776.69
578.88	61057.56
579.04	61083.30
579.21	60837.54
579.37	61003.72
579.53	61144.16
579.69	60624.56
579.85	60753.29
580.01	60685.41
580.17	60762.65
580.33	60942.87
580.49	60800.10
580.65	60921.80
580.82	60748.60
580.98	60825.84
581.14	60959.25
581.30	61106.71
581.46	61015.43
581.62	60938.19
581.78	60790.73
581.94	61055.21
582.10	60963.93
582.26	60931.17
582.42	60882.02
582.58	60853.93
582.74	60994.36
582.90	61048.19
583.06	60963.93
583.22	60823.50
583.38	60896.06
583.54	60860.95
583.70	61123.09
583.86	60910.10
584.02	60884.36
584.18	61034.15
584.34	60987.34
584.50	60764.99
584.66	60924.14
584.82	61057.56
584.98	61104.37
585.14	61298.63
585.30	60931.17
585.46	60968.61
585.62	61020.11
585.78	61076.28
585.94	60884.36
586.10	60893.72
586.26	61279.91
586.42	61228.41
586.58	61179.26
586.74	61153.52
586.90	61188.63
587.06	61146.50
587.22	60982.66
587.38	61085.64
587.54	61209.69
587.70	61265.86
587.86	61022.45
588.02	60949.89
588.18	61284.59
588.34	60896.06
588.49	61008.40
