SpectraSuite Data File
++++++++++++++++++++++++++++++++++++
Date: Fri Oct 25 10:43:52 EDT 2013
User: price-jones
Dark Spectrum Present: No
Reference Spectrum Present: No
Number of Sampled Component Spectra: 1
Spectrometers: USB2+H05261
Integration Time (usec): 100000 (USB2+H05261)
Spectra Averaged: 1 (USB2+H05261)
Boxcar Smoothing: 0 (USB2+H05261)
Correct for Electrical Dark: No (USB2+H05261)
Strobe/Lamp Enabled: No (USB2+H05261)
Correct for Detector Non-linearity: No (USB2+H05261)
Correct for Stray Light: No (USB2+H05261)
Number of Pixels in Processed Spectrum: 2048
>>>>>Begin Processed Spectral Data<<<<<
365.73	138.09
365.92	138.09
366.12	138.09
366.32	0.00
366.52	11.70
366.72	0.00
366.91	0.00
367.11	35.11
367.31	0.00
367.51	44.47
367.70	37.45
367.90	4.68
368.10	0.00
368.30	65.54
368.49	23.41
368.69	30.43
368.89	77.24
369.09	0.00
369.28	58.51
369.48	126.39
369.68	53.83
369.87	117.03
370.07	67.88
370.27	100.64
370.47	126.39
370.66	379.17
370.86	500.87
371.06	433.00
371.25	491.51
371.45	468.11
371.65	449.38
371.84	526.62
372.04	411.93
372.24	505.56
372.44	479.81
372.63	484.49
372.83	507.90
373.03	486.83
373.22	566.41
373.42	521.94
373.62	528.96
373.81	496.19
374.01	631.94
374.21	566.41
374.40	538.32
374.60	608.54
374.79	505.56
374.99	571.09
375.19	596.84
375.38	575.77
375.58	559.39
375.78	564.07
375.97	638.97
376.17	702.16
376.37	603.86
376.56	627.26
376.76	557.05
376.95	650.67
377.15	610.88
377.35	692.80
377.54	683.44
377.74	704.50
377.93	716.20
378.13	730.25
378.33	667.05
378.52	678.76
378.72	725.57
378.91	664.71
379.11	638.97
379.31	629.60
379.50	587.47
379.70	683.44
379.89	763.01
380.09	716.20
380.28	699.82
380.48	725.57
380.68	770.04
380.87	763.01
381.07	720.88
381.26	755.99
381.46	777.06
381.65	765.36
381.85	690.46
382.04	805.14
382.24	784.08
382.43	809.83
382.63	727.91
382.83	758.33
383.02	784.08
383.22	683.44
383.41	634.29
383.61	805.14
383.80	870.68
384.00	821.53
384.19	849.61
384.39	748.97
384.58	814.51
384.78	896.43
384.97	802.80
385.17	851.96
385.36	863.66
385.56	819.19
385.75	882.38
385.95	844.93
386.14	793.44
386.34	772.38
386.53	924.51
386.72	887.06
386.92	987.71
387.11	912.81
387.31	903.45
387.50	833.23
387.70	830.89
387.89	959.62
388.09	880.04
388.28	858.98
388.48	873.02
388.67	901.11
388.86	1001.75
389.06	936.21
389.25	901.11
389.45	1022.81
389.64	999.41
389.84	1011.11
390.03	978.34
390.22	1064.94
390.42	1018.13
390.61	1116.44
390.81	1015.79
391.00	1149.20
391.19	1104.73
391.39	1109.41
391.58	1041.54
391.78	1086.01
391.97	1053.24
392.16	1074.31
392.36	1128.14
392.55	1006.43
392.75	1060.26
392.94	931.53
393.13	945.58
393.33	994.73
393.52	1043.88
393.71	1160.91
393.91	1144.52
394.10	1203.04
394.29	1163.25
394.49	1188.99
394.68	1247.51
394.88	1210.06
395.07	1235.80
395.26	1214.74
395.46	1336.45
395.65	1299.00
395.84	1217.08
396.04	1268.57
396.23	1261.55
396.42	1095.37
396.62	1224.10
396.81	1270.91
397.00	1193.67
397.19	1317.72
397.39	1329.42
397.58	1380.92
397.77	1383.26
397.97	1420.71
398.16	1413.68
398.35	1593.90
398.55	1390.28
398.74	1462.83
398.93	1586.88
399.12	1626.67
399.32	1554.12
399.51	1460.49
399.70	1486.24
399.90	1668.80
400.09	1603.27
400.28	1659.44
400.47	1640.72
400.67	1706.25
400.86	1811.57
401.05	1732.00
401.24	1732.00
401.44	1804.55
401.63	1842.00
401.82	1706.25
402.01	1781.15
402.21	1774.13
402.40	1757.74
402.59	1778.81
402.78	1919.24
402.97	1870.09
403.17	1834.98
403.36	1930.94
403.55	1907.54
403.74	1959.03
403.93	1954.35
404.13	1975.41
404.32	1823.28
404.51	1923.92
404.70	1930.94
404.89	1944.99
405.09	2059.67
405.28	2012.86
405.47	1975.41
405.66	1863.07
405.85	2069.03
406.05	1982.43
406.24	2069.03
406.43	2148.61
406.62	2132.23
406.81	2162.66
407.00	2092.44
407.20	2160.31
407.39	2228.19
407.58	2134.57
407.77	2157.97
407.96	2260.96
408.15	2324.15
408.34	2347.56
408.54	2275.00
408.73	2392.03
408.92	2314.79
409.11	2361.60
409.30	2499.69
409.49	2333.51
409.68	2363.94
409.87	2373.30
410.07	2513.74
410.26	2473.95
410.45	2382.67
410.64	2525.44
410.83	2572.25
411.02	2590.97
411.21	2717.36
411.40	2633.10
411.59	2579.27
411.78	2649.49
411.98	2679.91
412.17	2672.89
412.36	2878.86
412.55	2752.47
412.74	2658.85
412.93	2803.96
413.12	2785.24
413.31	3059.08
413.50	2885.88
413.69	2949.08
413.88	3045.04
414.07	2902.26
414.26	3122.27
414.45	3110.57
414.64	3159.72
414.83	3108.23
415.02	3070.78
415.22	3162.06
415.41	3145.68
415.60	3166.74
415.79	3190.15
415.98	3361.01
416.17	3403.14
416.36	3433.57
416.55	3318.88
416.74	3438.25
416.93	3452.29
417.12	3438.25
417.31	3522.51
417.50	3384.41
417.69	3529.53
417.88	3503.78
418.07	3466.33
418.26	3515.48
418.45	3679.32
418.64	3681.66
418.83	3564.64
419.02	3716.77
419.21	3625.49
419.39	3723.79
419.58	3665.28
419.77	3639.53
419.96	3723.79
420.15	3688.68
420.34	3819.75
420.53	3819.75
420.72	4007.00
420.91	3971.89
421.10	4072.53
421.29	4039.76
421.48	3808.05
421.67	3983.59
421.86	3908.69
422.05	3880.61
422.24	3798.69
422.43	3889.97
422.61	3920.40
422.80	4060.83
422.99	3962.53
423.18	3985.93
423.37	4119.34
423.56	4037.42
423.75	4065.51
423.94	3932.10
424.13	3817.41
424.32	4014.02
424.50	4081.89
424.69	3981.25
424.88	4175.52
425.07	4081.89
425.26	4067.85
425.45	4105.30
425.64	4145.09
425.83	4070.19
426.01	4114.66
426.20	4189.56
426.39	4156.79
426.58	4025.72
426.77	4074.87
426.96	4159.13
427.15	4135.73
427.33	4086.58
427.52	4159.13
427.71	4222.33
427.90	4344.03
428.09	4264.46
428.28	4147.43
428.46	4095.94
428.65	4311.27
428.84	4344.03
429.03	4351.06
429.22	4262.12
429.40	4269.14
429.59	4294.88
429.78	3981.25
429.97	3983.59
430.16	3838.48
430.34	4084.23
430.53	4287.86
430.72	4287.86
430.91	4435.32
431.10	4468.08
431.28	4645.96
431.47	4688.09
431.66	4683.41
431.85	4678.73
432.03	4711.50
432.22	4702.14
432.41	4870.65
432.60	4830.87
432.79	4779.37
432.97	4833.21
433.16	4894.06
433.35	4805.12
433.54	4837.89
433.72	4950.23
433.91	4767.67
434.10	5008.75
434.28	4802.78
434.47	4966.62
434.66	5107.05
434.85	5013.43
435.03	5170.24
435.22	5041.51
435.41	5256.84
435.59	5284.93
435.78	5366.85
435.97	5313.02
436.16	5240.46
436.34	5341.10
436.53	5261.52
436.72	5364.51
436.90	5317.70
437.09	5355.15
437.28	5146.84
437.46	5301.31
437.65	5207.69
437.84	5462.81
438.02	5294.29
438.21	5219.39
438.40	5434.72
438.58	5617.29
438.77	5619.63
438.96	5577.50
439.14	5671.12
439.33	5750.70
439.52	5928.58
439.70	5783.46
439.89	5762.40
440.08	5816.23
440.26	5757.72
440.45	5783.46
440.63	6057.31
440.82	6031.56
441.01	5884.11
441.19	6282.00
441.38	6377.96
441.57	6506.69
441.75	6377.96
441.94	6480.94
442.12	6424.77
442.31	6616.69
442.50	6380.30
442.68	6417.75
442.87	6480.94
443.05	6558.18
443.24	6686.91
443.43	6520.73
443.61	6670.53
443.80	6920.96
443.98	6628.40
444.17	6230.51
444.35	6696.27
444.54	6710.32
444.73	6609.67
444.91	6719.68
445.10	6729.04
445.28	6609.67
445.47	6597.97
445.65	6700.95
445.84	6764.15
446.02	6761.81
446.21	6696.27
446.39	6778.19
446.58	6883.52
446.77	6820.32
446.95	6663.51
447.14	6855.43
447.32	6998.20
447.51	6977.14
447.69	6740.74
447.88	6853.09
448.06	6869.47
448.25	6906.92
448.43	7049.69
448.62	6792.23
448.80	7002.88
448.99	7061.40
449.17	7084.80
449.36	7047.35
449.54	7164.38
449.73	7194.81
449.91	7225.23
450.10	7417.16
450.28	7524.82
450.46	7377.37
450.65	7559.93
450.83	7339.92
451.02	7382.05
451.20	7454.61
451.39	7527.16
451.57	7414.82
451.76	7321.20
451.94	7424.18
452.13	7447.58
452.31	7573.97
452.49	7372.69
452.68	7520.14
452.86	7403.11
453.05	7501.42
453.23	7569.29
453.42	7557.59
453.60	7456.95
453.78	7545.89
453.97	7566.95
454.15	7637.17
454.34	7599.72
454.52	7709.72
454.70	7566.95
454.89	7674.62
455.07	7730.79
455.26	7894.63
455.44	8119.32
455.62	7889.95
455.81	8133.36
455.99	7969.52
456.17	7920.37
456.36	8109.96
456.54	8107.62
456.73	8046.76
456.91	8184.85
457.09	8360.39
457.28	8369.76
457.46	8308.90
457.64	8449.33
457.83	8269.11
458.01	8360.39
458.19	8376.78
458.38	8285.50
458.56	8519.55
458.74	8507.85
458.93	8351.03
459.11	8344.01
459.29	8297.20
459.48	8435.29
459.66	8573.38
459.84	8552.32
460.03	8854.25
460.21	8779.35
460.39	8713.81
460.57	8662.32
460.76	9013.40
460.94	8835.52
461.12	8748.92
461.31	8702.11
461.49	8940.85
461.67	8884.67
461.85	9104.68
462.04	9102.34
462.22	9153.84
462.40	9200.65
462.59	9130.43
462.77	9174.90
462.95	9252.14
463.13	9179.58
463.32	9128.09
463.50	9202.99
463.68	9184.26
463.86	9228.73
464.05	9263.84
464.23	9153.84
464.41	9289.59
464.59	8887.01
464.78	9411.29
464.96	9430.02
465.14	9308.31
465.32	9418.32
465.50	9441.72
465.69	9565.77
465.87	9472.15
466.05	9350.44
466.23	9366.82
466.41	9488.53
466.60	9776.42
466.78	9589.17
466.96	9628.96
467.14	9696.84
467.32	9689.82
467.51	9619.60
467.69	9362.14
467.87	9570.45
468.05	9839.61
468.23	9558.75
468.41	9715.56
468.60	9912.17
468.78	9874.72
468.96	9617.26
469.14	10064.30
469.32	10005.79
469.50	9776.42
469.69	10064.30
469.87	9898.13
470.05	10010.47
470.23	10064.30
470.41	10080.69
470.59	10207.08
470.77	9940.26
470.95	10328.78
471.14	10434.11
471.32	10127.50
471.50	10693.91
471.68	10588.58
471.86	10700.93
472.04	10686.89
472.22	10871.79
472.40	10408.36
472.58	10853.06
472.77	10642.42
472.95	10731.36
473.13	11112.86
473.31	10803.91
473.49	10747.74
473.67	11052.01
473.85	10909.24
474.03	11311.81
474.21	11075.42
474.39	11410.11
474.57	11461.60
474.75	11499.05
474.93	11515.44
475.12	11499.05
475.30	11571.61
475.48	11562.25
475.66	11627.78
475.84	11480.33
476.02	11946.09
476.20	11939.07
476.38	12088.87
476.56	11964.82
476.74	11829.07
476.92	12077.16
477.10	12269.09
477.28	12442.29
477.46	12322.92
477.64	12404.84
477.82	12343.99
478.00	12779.32
478.18	12755.92
478.36	12798.05
478.54	12912.74
478.72	13109.34
478.90	13507.23
479.08	13572.77
479.26	13671.07
479.44	13511.91
479.62	13465.10
479.80	13823.20
479.98	13701.50
480.16	14176.62
480.34	13689.79
480.52	13977.68
480.70	13980.02
480.88	13774.05
481.06	14052.58
481.24	14305.35
481.41	14614.30
481.59	14743.03
481.77	14714.95
481.95	14698.56
482.13	14979.43
482.31	15119.86
482.49	15344.55
482.67	15201.78
482.85	15363.28
483.03	15513.07
483.21	15955.43
483.39	15625.42
483.57	15499.03
483.74	15793.94
483.92	16049.05
484.10	15852.45
484.28	16404.81
484.46	16292.47
484.64	16772.28
484.82	16320.56
485.00	16510.14
485.18	16893.99
485.35	16793.34
485.53	16489.07
485.71	16519.50
485.89	16704.40
486.07	16959.52
486.25	16865.90
486.43	17088.25
486.61	17575.08
486.78	17547.00
486.96	17797.43
487.14	18001.06
487.32	18153.20
487.50	18518.32
487.68	18361.50
487.85	18888.12
488.03	18888.12
488.21	18965.36
488.39	18820.25
488.57	18958.34
488.75	19248.57
488.92	19508.37
489.10	19587.94
489.28	19955.41
489.46	20264.36
489.64	20318.19
489.81	20491.39
489.99	20744.17
490.17	20320.53
490.35	20910.35
490.53	20664.59
490.70	20950.14
490.88	20823.75
491.06	21029.71
491.24	21284.83
491.41	21008.65
491.59	21305.90
491.77	21202.91
491.95	21909.75
492.13	21783.37
492.30	22164.87
492.48	22190.62
492.66	22174.24
492.84	22548.72
493.01	22581.49
493.19	22335.73
493.37	22782.77
493.54	23232.16
493.72	22927.89
493.90	23183.01
494.08	23915.59
494.25	23454.51
494.43	23707.29
494.61	24290.08
494.79	24159.01
494.96	24142.63
495.14	24056.03
495.32	24313.48
495.49	24009.22
495.67	24201.14
495.85	24526.47
496.02	24634.14
496.20	24964.15
496.38	24819.04
496.55	25422.90
496.73	25568.01
496.91	25158.42
497.09	25582.06
497.26	25467.37
497.44	25479.07
497.62	25788.02
497.79	26024.42
497.97	25771.64
498.14	26115.70
498.32	26333.37
498.50	26270.17
498.67	26649.34
498.85	26740.62
499.03	26714.87
499.20	26843.60
499.38	26955.95
499.56	26906.80
499.73	27152.55
499.91	27154.90
500.08	27253.20
500.26	26740.62
500.44	27321.07
500.61	27201.71
500.79	27145.53
500.97	27805.56
501.14	27716.62
501.32	27173.62
501.49	27826.63
501.67	27491.93
501.84	28018.55
502.02	28107.49
502.20	27896.85
502.37	28510.07
502.55	28465.60
502.72	28641.14
502.90	28877.53
503.07	28851.78
503.25	28772.21
503.43	28795.61
503.60	28615.39
503.78	28861.15
503.95	28917.32
504.13	29060.09
504.30	29479.05
504.48	29244.99
504.65	29867.58
504.83	28905.62
505.01	29610.12
505.18	29525.86
505.36	30045.46
505.53	29846.51
505.71	30494.84
505.88	30153.12
506.06	30150.78
506.23	30309.94
506.41	30146.10
506.58	30387.18
506.76	30670.38
506.93	30480.80
507.11	30558.03
507.28	30714.85
507.46	30284.19
507.63	30707.83
507.81	30682.08
507.98	30625.91
508.16	30754.64
508.33	31583.19
508.50	31356.16
508.68	31686.17
508.85	31660.43
509.03	32034.91
509.20	31976.40
509.38	31796.18
509.55	31854.69
509.73	32011.51
509.90	32144.92
510.08	32002.14
510.25	32051.30
510.42	32484.30
510.60	32058.32
510.77	32699.62
510.95	32481.95
511.12	32933.68
511.30	33132.62
511.47	33158.37
511.64	32912.61
511.82	33198.16
511.99	32521.74
512.17	32811.97
512.34	32961.76
512.51	33317.53
512.69	33251.99
512.86	33500.09
513.04	33881.60
513.21	33455.62
513.38	33373.70
513.56	33376.04
513.73	33111.56
513.90	33874.57
514.08	33446.26
514.25	33804.36
514.43	34101.61
514.60	34036.07
514.77	34653.97
514.95	34265.44
515.12	34115.65
515.29	33991.60
515.47	34792.06
515.64	34962.92
515.81	34389.49
515.99	34845.90
516.16	34522.90
516.33	34113.31
516.51	34099.26
516.68	34162.46
516.85	33666.27
517.03	33762.23
517.20	34422.26
517.37	34855.26
517.54	35054.20
517.72	34838.87
517.89	34799.08
518.06	34440.98
518.24	34274.80
518.41	34682.06
518.58	35576.14
518.75	35274.21
518.93	35601.89
519.10	35262.51
519.27	35627.63
519.45	35730.62
519.62	35901.48
519.79	36123.83
519.96	35903.82
520.14	36580.23
520.31	35796.15
520.48	36301.71
520.65	36254.90
520.83	36797.90
521.00	36533.42
521.17	36479.59
521.34	36683.22
521.52	36739.39
521.69	36886.84
521.86	37109.19
522.03	37003.87
522.20	36907.91
522.38	36432.78
522.55	37610.07
522.72	37139.62
522.89	37294.10
523.07	37500.06
523.24	37277.71
523.41	37717.73
523.58	37457.93
523.75	38342.66
523.92	37689.65
524.10	38080.52
524.27	38244.35
524.44	37947.11
524.61	38143.71
524.78	38298.19
524.96	37682.62
525.13	38082.86
525.30	38504.15
525.47	38450.32
525.64	38333.29
525.81	38206.90
525.98	38312.23
526.16	38359.04
526.33	37471.98
526.50	37984.55
526.67	37968.17
526.84	38010.30
527.01	38085.20
527.18	38206.90
527.36	38763.95
527.53	38909.07
527.70	39091.63
527.87	39353.77
528.04	39072.90
528.21	38864.60
528.38	39180.57
528.55	39597.18
528.72	39435.69
528.89	39800.81
529.07	39288.23
529.24	39583.14
529.41	39189.93
529.58	39533.99
529.75	39643.99
529.92	39653.36
530.09	39749.32
530.26	39950.60
530.43	40081.67
530.60	39761.02
530.77	39763.36
530.94	40329.77
531.11	40081.67
531.28	40158.91
531.46	40533.40
531.63	40107.42
531.80	40268.92
531.97	40065.29
532.14	40383.60
532.31	39711.87
532.48	39854.64
532.65	40783.83
532.82	40130.83
532.99	40168.27
533.16	40865.75
533.33	40776.81
533.50	40842.35
533.67	40552.12
533.84	40423.39
534.01	40818.94
534.18	40418.71
534.35	41359.61
534.52	41287.05
534.69	40971.08
534.86	40861.07
535.03	41031.93
535.20	41579.62
535.37	41535.15
535.54	41680.26
535.71	41724.73
535.88	41022.57
536.05	41130.23
536.22	41397.06
536.38	41801.97
536.55	41457.91
536.72	41397.06
536.89	41619.41
537.06	41486.00
537.23	41675.58
537.40	41841.76
537.57	41853.46
537.74	41907.29
537.91	42459.66
538.08	42052.41
538.25	41298.75
538.42	42204.54
538.59	42160.07
538.75	41647.49
538.92	41970.49
539.09	42375.40
539.26	41766.86
539.43	41797.29
539.60	42050.06
539.77	42029.00
539.94	41975.17
540.11	42153.05
540.28	41872.18
540.44	42195.18
540.61	41801.97
540.78	41888.57
540.95	42333.27
541.12	42424.55
541.29	42267.73
541.46	42546.26
541.62	42501.79
541.79	42902.02
541.96	42511.15
542.13	42499.45
542.30	42625.84
542.47	42466.68
542.63	43047.13
542.80	42887.98
542.97	43316.29
543.14	43442.68
543.31	43014.37
543.48	43335.02
543.64	43653.33
543.81	43346.72
543.98	43281.19
544.15	43510.56
544.32	43377.15
544.48	43730.57
544.65	43697.80
544.82	43662.69
544.99	43140.75
545.16	43318.64
545.32	43517.58
545.49	43983.35
545.66	44091.01
545.83	44161.23
546.00	44018.46
546.16	43753.97
546.33	43672.06
546.50	43758.66
546.67	43826.53
546.83	43618.22
547.00	43910.79
547.17	43840.57
547.34	43718.87
547.50	43613.54
547.67	43999.73
547.84	44126.12
548.00	44109.74
548.17	44287.62
548.34	44325.07
548.51	44540.39
548.67	44587.21
548.84	44133.14
549.01	44182.29
549.18	44264.21
549.34	44240.81
549.51	44531.03
549.68	44781.47
549.84	44650.40
550.01	44863.39
550.18	44643.38
550.34	44870.41
550.51	44861.05
550.68	44222.08
550.84	44538.05
551.01	44685.51
551.18	44767.43
551.34	44720.62
551.51	45170.00
551.68	45226.17
551.84	45001.48
552.01	44734.66
552.18	44954.67
552.34	44659.76
552.51	44603.59
552.68	44769.77
552.84	45104.46
553.01	45024.89
553.18	45134.89
553.34	45015.52
553.51	44973.39
553.67	45333.84
553.84	45453.20
554.01	45017.86
554.17	45102.12
554.34	45371.28
554.51	45429.80
554.67	45399.37
554.84	45167.66
555.00	45162.98
555.17	45291.71
555.33	45296.39
555.50	45593.64
555.67	45216.81
555.83	45481.29
556.00	45301.07
556.16	45855.78
556.33	45518.74
556.50	45586.61
556.66	45916.63
556.83	45116.17
556.99	45535.12
557.16	45918.97
557.32	45600.66
557.49	45640.45
557.65	46000.89
557.82	45982.16
557.98	45371.28
558.15	45680.24
558.32	45642.79
558.48	45249.58
558.65	45544.48
558.81	45462.57
558.98	45832.37
559.14	45317.45
559.31	45790.24
559.47	46099.19
559.64	46017.27
559.80	45839.39
559.97	46040.68
560.13	45792.58
560.30	45743.43
560.46	46176.43
560.63	45904.93
560.79	46092.17
560.96	46082.81
561.12	45825.35
561.29	45766.84
561.45	45591.30
561.61	45970.46
561.78	45675.55
561.94	45785.56
562.11	45867.48
562.27	45546.82
562.44	46080.47
562.60	46298.14
562.77	46246.65
562.93	46398.78
563.10	46309.84
563.26	45684.92
563.42	46410.48
563.59	45689.60
563.75	46082.81
563.92	46080.47
564.08	46347.29
564.24	46689.01
564.41	46440.91
564.57	46190.47
564.74	46162.39
564.90	46466.66
565.07	45972.80
565.23	46026.63
565.39	46368.35
565.56	46321.54
565.72	45603.00
565.88	46429.21
566.05	45890.88
566.21	46080.47
566.38	46295.80
566.54	46550.91
566.70	46656.24
566.87	46419.84
567.03	46284.09
567.19	46979.23
567.36	46473.68
567.52	46490.06
567.68	46639.86
567.85	46700.71
568.01	46473.68
568.17	46419.84
568.34	46642.20
568.50	46230.26
568.66	46424.53
568.83	46401.12
568.99	46279.41
569.15	46373.03
569.32	46511.13
569.48	46260.69
569.64	46848.16
569.81	46085.15
569.97	45886.20
570.13	46277.07
570.30	45942.38
570.46	45855.78
570.62	46033.66
570.78	45635.77
570.95	46106.21
571.11	46674.96
571.27	46127.28
571.43	46532.19
571.60	46246.65
571.76	46401.12
571.92	46733.48
572.09	46312.18
572.25	46579.00
572.41	46777.95
572.57	46791.99
572.74	47023.70
572.90	46698.37
573.06	47009.66
573.22	46557.94
573.38	46270.05
573.55	46433.89
573.71	46770.93
573.87	46913.70
574.03	46539.21
574.20	46600.07
574.36	46431.55
574.52	46593.04
574.68	46469.00
574.84	46848.16
575.01	46319.20
575.17	46492.40
575.33	46370.69
575.49	46422.19
575.65	46635.17
575.82	46447.93
575.98	46681.98
576.14	46649.22
576.30	46761.56
576.46	46377.72
576.62	46553.26
576.79	46560.28
576.95	46391.76
577.11	46440.91
577.27	46939.44
577.43	46948.81
577.59	46391.76
577.75	46518.15
577.92	46174.09
578.08	46663.26
578.24	46843.48
578.40	46791.99
578.56	46632.83
578.72	46791.99
578.88	46733.48
579.04	46763.90
579.21	46583.68
579.37	46621.13
579.53	46431.55
579.69	46672.62
579.85	46635.17
580.01	46714.75
580.17	46593.04
580.33	46864.55
580.49	46763.90
580.65	46951.15
580.82	46930.08
580.98	46887.95
581.14	46356.65
581.30	46824.76
581.46	46770.93
581.62	46700.71
581.78	46609.43
581.94	47185.20
582.10	46227.92
582.26	46628.15
582.42	47040.09
582.58	46878.59
582.74	46745.18
582.90	46707.73
583.06	47292.86
583.22	46829.44
583.38	46934.76
583.54	46887.95
583.70	46714.75
583.86	46962.85
584.02	46440.91
584.18	46909.02
584.34	46717.09
584.50	46820.08
584.66	46747.52
584.82	46759.22
584.98	47274.14
585.14	47075.19
585.30	46583.68
585.46	46817.74
585.62	46485.38
585.78	46478.36
585.94	46433.89
586.10	46316.86
586.26	46361.33
586.42	46927.74
586.58	47129.03
586.74	46471.34
586.90	46646.88
587.06	46651.56
587.22	47004.98
587.38	46646.88
587.54	46665.60
587.70	46939.44
587.86	46829.44
588.02	46600.07
588.18	46632.83
588.34	46082.81
588.49	46181.11
588.65	46300.48
588.81	46174.09
588.97	46450.27
589.13	46412.82
589.29	46256.01
589.45	46670.28
589.61	47044.77
589.77	46864.55
589.93	46738.16
