SpectraSuite Data File
++++++++++++++++++++++++++++++++++++
Date: Fri Oct 25 11:26:24 EDT 2013
User: price-jones
Dark Spectrum Present: No
Reference Spectrum Present: No
Number of Sampled Component Spectra: 1
Spectrometers: USB2+H05261
Integration Time (usec): 100000 (USB2+H05261)
Spectra Averaged: 1 (USB2+H05261)
Boxcar Smoothing: 0 (USB2+H05261)
Correct for Electrical Dark: No (USB2+H05261)
Strobe/Lamp Enabled: No (USB2+H05261)
Correct for Detector Non-linearity: No (USB2+H05261)
Correct for Stray Light: No (USB2+H05261)
Number of Pixels in Processed Spectrum: 2048
>>>>>Begin Processed Spectral Data<<<<<
365.73	215.33
365.92	215.33
366.12	215.33
366.32	187.24
366.52	112.35
366.72	159.16
366.91	126.39
367.11	121.71
367.31	100.64
367.51	191.92
367.70	135.75
367.90	119.37
368.10	145.11
368.30	184.90
368.49	170.86
368.69	95.96
368.89	194.26
369.09	117.03
369.28	184.90
369.48	142.77
369.68	194.26
369.87	208.31
370.07	210.65
370.27	245.76
370.47	294.91
370.66	589.82
370.86	545.34
371.06	692.80
371.25	655.35
371.45	685.78
371.65	774.72
371.84	685.78
372.04	685.78
372.24	713.86
372.44	723.23
372.63	739.61
372.83	748.97
373.03	758.33
373.22	641.31
373.42	669.39
373.62	840.25
373.81	837.91
374.01	788.76
374.21	858.98
374.40	784.08
374.60	858.98
374.79	802.80
374.99	866.00
375.19	894.08
375.38	884.72
375.58	877.70
375.78	922.17
375.97	908.13
376.17	873.02
376.37	910.47
376.56	894.08
376.76	863.66
376.95	952.60
377.15	903.45
377.35	877.70
377.54	882.38
377.74	961.96
377.93	919.83
378.13	933.87
378.33	903.45
378.52	917.49
378.72	887.06
378.91	929.19
379.11	950.26
379.31	980.68
379.50	997.07
379.70	999.41
379.89	1015.79
380.09	1006.43
380.28	966.64
380.48	1022.81
380.68	954.94
380.87	983.02
381.07	880.04
381.26	1006.43
381.46	1050.90
381.65	1067.28
381.85	1013.45
382.04	952.60
382.24	1121.12
382.43	1048.56
382.63	1050.90
382.83	1132.82
383.02	1118.78
383.22	1130.48
383.41	1034.52
383.61	1083.67
383.80	1123.46
384.00	1078.99
384.19	1170.27
384.39	1174.95
384.58	1163.25
384.78	1128.14
384.97	1231.12
385.17	1142.18
385.36	1177.29
385.56	1158.57
385.75	1095.37
385.95	1095.37
386.14	1207.72
386.34	1167.93
386.53	1224.10
386.72	1263.89
386.92	1282.61
387.11	1313.04
387.31	1308.36
387.50	1219.42
387.70	1280.27
387.89	1249.85
388.09	1331.76
388.28	1322.40
388.48	1282.61
388.67	1301.34
388.86	1259.21
389.06	1362.19
389.25	1277.93
389.45	1331.76
389.64	1254.53
389.84	1390.28
390.03	1446.45
390.22	1497.94
390.42	1317.72
390.61	1357.51
390.81	1371.55
391.00	1404.32
391.19	1373.89
391.39	1465.18
391.58	1362.19
391.78	1526.03
391.97	1504.96
392.16	1352.83
392.36	1472.20
392.55	1598.59
392.75	1509.65
392.94	1537.73
393.13	1572.84
393.33	1502.62
393.52	1551.78
393.71	1600.93
393.91	1469.86
394.10	1530.71
394.29	1579.86
394.49	1584.54
394.68	1671.14
394.88	1596.25
395.07	1671.14
395.26	1636.03
395.46	1633.69
395.65	1614.97
395.84	1753.06
396.04	1715.61
396.23	1706.25
396.42	1774.13
396.62	1806.89
396.81	1806.89
397.00	1849.02
397.19	1755.40
397.39	1837.32
397.58	1753.06
397.77	1856.04
397.97	1778.81
398.16	1849.02
398.35	1959.03
398.55	1921.58
398.74	1834.98
398.93	1902.86
399.12	1879.45
399.32	1884.13
399.51	1877.11
399.70	1977.75
399.90	1930.94
400.09	2038.61
400.28	1980.09
400.47	2104.14
400.67	2136.91
400.86	2045.63
401.05	1998.82
401.24	2183.72
401.44	2047.97
401.63	2176.70
401.82	2174.36
402.01	2179.04
402.21	2157.97
402.40	2256.28
402.59	2162.66
402.78	2101.80
402.97	2237.55
403.17	2279.68
403.36	2211.81
403.55	2228.19
403.74	2340.54
403.93	2410.75
404.13	2326.49
404.32	2333.51
404.51	2312.45
404.70	2424.80
404.89	2333.51
405.09	2495.01
405.28	2436.50
405.47	2469.27
405.66	2471.61
405.85	2516.08
406.05	2497.35
406.24	2593.31
406.43	2630.76
406.62	2555.86
406.81	2539.48
407.00	2495.01
407.20	2616.72
407.39	2745.45
407.58	2768.85
407.77	2782.90
407.96	2768.85
408.15	2736.09
408.34	2750.13
408.54	2724.38
408.73	2663.53
408.92	2813.32
409.11	2963.12
409.30	2883.54
409.49	2986.52
409.68	2984.18
409.87	2960.78
410.07	2890.56
410.26	2967.80
410.45	3002.91
410.64	3014.61
410.83	3054.40
411.02	3089.51
411.21	3066.10
411.40	3133.98
411.59	3220.58
411.78	3098.87
411.98	3229.94
412.17	3215.90
412.36	3258.03
412.55	3316.54
412.74	3358.67
412.93	3447.61
413.12	3295.47
413.31	3679.32
413.50	3454.63
413.69	3597.40
413.88	3609.11
414.07	3583.36
414.26	3604.42
414.45	3688.68
414.64	3620.81
414.83	3763.58
415.02	3709.75
415.22	3728.47
415.41	3840.82
415.60	3894.65
415.79	3840.82
415.98	3873.59
416.17	3868.91
416.36	3810.39
416.55	4004.66
416.74	4168.49
416.93	3976.57
417.12	4131.05
417.31	3999.98
417.50	4140.41
417.69	4173.18
417.88	4224.67
418.07	4156.79
418.26	4351.06
418.45	4379.14
418.64	4613.20
418.83	4430.63
419.02	4369.78
419.21	4393.19
419.39	4397.87
419.58	4411.91
419.77	4273.82
419.96	4486.81
420.15	4512.55
420.34	4442.34
420.53	4613.20
420.72	4620.22
420.91	4554.68
421.10	4760.65
421.29	4774.69
421.48	4725.54
421.67	4875.34
421.86	4669.37
422.05	4723.20
422.24	4774.69
422.43	4711.50
422.61	4835.55
422.80	4964.28
422.99	4849.59
423.18	4880.02
423.37	4894.06
423.56	4975.98
423.75	5001.72
423.94	4739.58
424.13	4489.15
424.32	4891.72
424.50	4901.08
424.69	5097.69
424.88	5153.86
425.07	4971.30
425.26	4933.85
425.45	4868.31
425.64	4849.59
425.83	5006.41
426.01	4905.76
426.20	5064.92
426.39	5144.50
426.58	4978.32
426.77	5025.13
426.96	5060.24
427.15	5067.26
427.33	5139.82
427.52	5095.35
427.71	5284.93
427.90	5284.93
428.09	5308.34
428.28	5345.78
428.46	5310.68
428.65	5331.74
428.84	5437.06
429.03	5303.65
429.22	5427.70
429.40	5481.53
429.59	5427.70
429.78	5301.31
429.97	5186.63
430.16	5540.05
430.34	5701.54
430.53	5605.58
430.72	5591.54
430.91	5549.41
431.10	5624.31
431.28	5596.22
431.47	5760.06
431.66	5912.19
431.85	5774.10
432.03	5923.90
432.22	5916.87
432.41	5851.34
432.60	6026.88
432.79	5933.26
432.97	5844.32
433.16	6078.37
433.35	5891.13
433.54	6080.71
433.72	6066.67
433.91	5989.43
434.10	5982.41
434.28	6069.01
434.47	6118.16
434.66	6190.72
434.85	6232.85
435.03	6347.53
435.22	6188.38
435.41	6410.73
435.59	6387.32
435.78	6408.39
435.97	6429.45
436.16	6392.00
436.34	6438.81
436.53	6480.94
436.72	6530.09
436.90	6289.02
437.09	6595.63
437.28	6420.09
437.46	6628.40
437.65	6530.09
437.84	6633.08
438.02	6705.63
438.21	6705.63
438.40	6780.53
438.58	7012.24
438.77	7023.95
438.96	6843.73
439.14	7087.14
439.33	7131.61
439.52	7049.69
439.70	7152.68
439.89	7274.38
440.08	7246.30
440.26	7152.68
440.45	7353.96
440.63	7517.80
440.82	7515.46
441.01	7442.90
441.19	7733.13
441.38	7700.36
441.57	7772.92
441.75	7789.30
441.94	7934.42
442.12	8009.31
442.31	7981.23
442.50	8084.21
442.68	7815.05
442.87	8025.70
443.05	8212.94
443.24	8081.87
443.43	8107.62
443.61	8154.43
443.80	8486.78
443.98	8210.60
444.17	7803.35
444.35	8140.38
444.54	8344.01
444.73	8243.37
444.91	8315.92
445.10	8285.50
445.28	8479.76
445.47	8315.92
445.65	8189.53
445.84	8451.67
446.02	8465.72
446.21	8411.89
446.39	8421.25
446.58	8430.61
446.77	8486.78
446.95	8346.35
447.14	8301.88
447.32	8662.32
447.51	8533.59
447.69	8489.12
447.88	8479.76
448.06	8491.46
448.25	8524.23
448.43	8540.61
448.62	8505.51
448.80	8521.89
448.99	8610.83
449.17	8751.26
449.36	8472.74
449.54	8800.41
449.73	8835.52
449.91	8865.95
450.10	8798.07
450.28	9153.84
450.46	9102.34
450.65	8894.04
450.83	8926.80
451.02	8784.03
451.20	9100.00
451.39	9043.83
451.57	9116.39
451.76	9156.18
451.94	9322.35
452.13	9090.64
452.31	9249.80
452.49	9132.77
452.68	9287.25
452.86	9301.29
453.05	9451.08
453.23	9483.85
453.42	9263.84
453.60	9500.23
453.78	9259.16
453.97	9371.50
454.15	9511.94
454.34	9355.12
454.52	9680.46
454.70	9591.52
454.89	9710.88
455.07	9535.34
455.26	9678.12
455.44	9961.32
455.62	9893.44
455.81	9877.06
455.99	10104.09
456.17	10040.90
456.36	10061.96
456.54	9942.60
456.73	10066.64
456.91	10281.97
457.09	10225.80
457.28	10567.52
457.46	10384.96
457.64	10431.77
457.83	10450.49
458.01	10342.83
458.19	10733.70
458.38	10242.18
458.56	10726.68
458.74	10747.74
458.93	10654.12
459.11	10682.20
459.29	10719.65
459.48	10890.51
459.66	10602.63
459.84	10853.06
460.03	11033.29
460.21	11183.08
460.39	10799.23
460.57	10794.55
460.76	11105.84
460.94	11269.68
461.12	11304.79
461.31	10923.28
461.49	10981.79
461.67	11133.93
461.85	11279.04
462.04	11250.96
462.22	11840.77
462.40	11438.20
462.59	11014.56
462.77	11545.86
462.95	11695.66
463.13	11482.67
463.32	11852.47
463.50	11726.08
463.68	11559.91
463.86	11777.58
464.05	11674.59
464.23	11651.19
464.41	11616.08
464.59	11552.88
464.78	12121.63
464.96	12002.27
465.14	11782.26
465.32	11932.05
465.50	11962.48
465.69	12065.46
465.87	11964.82
466.05	12065.46
466.23	12098.23
466.41	12306.54
466.60	12372.07
466.78	12163.76
466.96	12147.38
467.14	12241.00
467.32	12613.15
467.51	12524.21
467.69	11812.68
467.87	12353.35
468.05	12606.13
468.23	12400.16
468.41	12702.09
468.60	12615.49
468.78	12800.39
468.96	12636.55
469.14	12823.80
469.32	12835.50
469.50	12641.23
469.69	12760.60
469.87	13095.30
470.05	12812.09
470.23	13128.06
470.41	13104.66
470.59	13102.32
470.77	13209.98
470.95	13137.43
471.14	13406.59
471.32	13018.06
471.50	13362.12
471.68	13497.87
471.86	13589.15
472.04	13703.84
472.22	13968.32
472.40	13570.43
472.58	13727.24
472.77	14005.77
472.95	14031.51
473.13	14455.15
473.31	14071.30
473.49	13914.48
473.67	14043.21
473.85	14333.44
474.03	14539.41
474.21	14490.26
474.39	14836.66
474.57	14778.14
474.75	14618.99
474.93	14998.15
475.12	14719.63
475.30	14974.75
475.48	15073.05
475.66	15082.41
475.84	14986.45
476.02	15173.69
476.20	15288.38
476.38	15637.12
476.56	16072.46
476.74	15854.79
476.92	15896.92
477.10	15669.89
477.28	16226.93
477.46	16107.57
477.64	16081.82
477.82	16212.89
478.00	16898.67
478.18	16582.70
478.36	16643.55
478.54	16992.29
478.72	17179.53
478.90	17373.80
479.08	17415.93
479.26	17621.89
479.44	17645.30
479.62	17881.69
479.80	17947.23
479.98	17841.90
480.16	18139.15
480.34	18321.71
480.52	18501.93
480.70	18621.30
480.88	18178.94
481.06	18572.15
481.24	18698.54
481.41	19098.77
481.59	19384.32
481.77	19711.99
481.95	19524.75
482.13	19307.08
482.31	19529.43
482.49	20114.56
482.67	20219.89
482.85	20306.49
483.03	20491.39
483.21	20613.10
483.39	20903.32
483.57	20655.23
483.74	21223.98
483.92	21301.22
484.10	20945.45
484.28	21322.28
484.46	21905.07
484.64	21881.67
484.82	22192.96
485.00	22111.04
485.18	22621.28
485.35	22881.08
485.53	22700.86
485.71	23131.51
485.89	23285.99
486.07	23515.36
486.25	23344.50
486.43	23201.73
486.61	23735.37
486.78	24044.32
486.96	24182.42
487.14	24418.81
487.32	24577.97
487.50	24985.22
487.68	24915.00
487.85	25263.74
488.03	25301.19
488.21	25481.41
488.39	25280.13
488.57	25975.27
488.75	25844.20
488.92	25961.22
489.10	26511.25
489.28	26721.90
489.46	27147.87
489.64	26717.22
489.81	27590.24
489.99	27833.65
490.17	27714.28
490.35	28060.68
490.53	27695.56
490.70	28245.58
490.88	28498.36
491.06	28594.32
491.24	29146.69
491.41	29109.24
491.59	28790.93
491.77	29090.52
491.95	29394.79
492.13	29390.11
492.30	29933.11
492.48	29713.10
492.66	29984.60
492.84	30160.14
493.01	30553.35
493.19	30490.16
493.37	30965.29
493.54	30691.44
493.72	31379.56
493.90	31299.98
494.08	31283.60
494.25	31604.25
494.43	31449.78
494.61	31948.31
494.79	32077.04
494.96	32217.47
495.14	32561.53
495.32	33141.99
495.49	33259.01
495.67	32613.02
495.85	33628.82
496.02	33120.92
496.20	33790.31
496.38	33687.33
496.55	33692.01
496.73	34665.67
496.91	34185.86
497.09	34684.40
497.26	34541.63
497.44	34761.64
497.62	35068.25
497.79	35580.82
497.97	35152.51
498.14	35578.48
498.32	36226.81
498.50	36081.70
498.67	35929.56
498.85	36432.78
499.03	36538.10
499.20	36498.31
499.38	36400.01
499.56	36720.66
499.73	36905.57
499.91	37104.51
500.08	37357.29
500.26	37364.31
500.44	37254.31
500.61	37479.00
500.79	37689.65
500.97	37612.41
501.14	38492.45
501.32	38321.59
501.49	37872.21
501.67	38422.23
501.84	38948.85
502.02	38810.76
502.20	38836.51
502.37	38998.01
502.55	38607.14
502.72	39089.29
502.90	39150.14
503.07	39604.20
503.25	39559.73
503.43	39398.24
503.60	39739.96
503.78	39672.08
503.95	40037.20
504.13	39999.76
504.30	40512.33
504.48	40339.13
504.65	40350.84
504.83	40722.98
505.01	41118.53
505.18	40968.74
505.36	41581.96
505.53	40971.08
505.71	41144.28
505.88	41357.27
506.06	41226.20
506.23	41844.10
506.41	41577.28
506.58	41691.96
506.76	42244.33
506.93	42340.29
507.11	42265.39
507.28	42431.57
507.46	42527.53
507.63	42307.52
507.81	42887.98
507.98	42169.43
508.16	42707.76
508.33	42988.62
508.50	43299.91
508.68	43281.19
508.85	43562.05
509.03	43812.49
509.20	43714.19
509.38	44006.75
509.55	44149.53
509.73	44067.61
509.90	44666.78
510.08	44360.17
510.25	44196.34
510.42	44566.14
510.60	44598.91
510.77	44847.00
510.95	44758.06
511.12	45137.23
511.30	45027.23
511.47	45029.57
511.64	45008.50
511.82	45794.92
511.99	45579.59
512.17	45830.03
512.34	45867.48
512.51	46370.69
512.69	46398.78
512.86	46621.13
513.04	46787.31
513.21	46560.28
513.38	46604.75
513.56	46506.44
513.73	46412.82
513.90	46836.46
514.08	46686.67
514.25	47224.99
514.43	46738.16
514.60	47213.29
514.77	47189.88
514.95	47452.02
515.12	47082.22
515.29	47042.43
515.47	47529.26
515.64	47782.04
515.81	47587.77
515.99	48254.82
516.16	48355.47
516.33	48107.37
516.51	48488.88
516.68	48411.64
516.85	48435.05
517.03	48435.05
517.20	48687.82
517.37	48783.79
517.54	48641.01
517.72	48704.21
517.89	49024.86
518.06	49151.25
518.24	48933.58
518.41	48949.96
518.58	48861.02
518.75	48528.67
518.93	49448.50
519.10	49148.91
519.27	49397.01
519.45	49516.37
519.62	49724.68
519.79	49918.95
519.96	49895.54
520.14	49996.18
520.31	50000.86
520.48	50050.02
520.65	50017.25
520.83	50333.22
521.00	50365.99
521.17	50143.64
521.34	50609.40
521.52	50150.66
521.69	50777.92
521.86	50754.52
522.03	50731.11
522.20	50990.91
522.38	51213.26
522.55	51334.97
522.72	50808.35
522.89	51063.47
523.07	51625.20
523.24	51098.58
523.41	51288.16
523.58	51166.45
523.75	51760.95
523.92	51632.22
524.10	51653.28
524.27	52030.11
524.44	51784.35
524.61	51943.51
524.78	52210.33
524.96	52069.90
525.13	52123.73
525.30	52273.52
525.47	52474.81
525.64	52207.99
525.81	52142.45
525.98	52514.60
526.16	52346.08
526.33	52587.16
526.50	52687.80
526.67	52430.34
526.84	52570.77
527.01	52699.50
527.18	52734.61
527.36	52924.19
527.53	52842.27
527.70	53200.38
527.87	53188.67
528.04	53144.20
528.21	53333.79
528.38	53085.69
528.55	53347.83
528.72	53483.58
528.89	53439.11
529.07	53284.64
529.24	53081.01
529.41	53532.73
529.58	53364.21
529.75	53436.77
529.92	53446.13
530.09	53478.90
530.26	53914.24
530.43	53860.41
530.60	53476.56
530.77	53591.25
530.94	54010.20
531.11	53689.55
531.28	53984.46
531.46	53951.69
531.63	54354.26
531.80	53942.33
531.97	53998.50
532.14	54143.61
532.31	54309.79
532.48	54415.11
532.65	54270.00
532.82	54167.02
532.99	54630.44
533.16	54368.30
533.33	54688.96
533.50	54955.78
533.67	54564.91
533.84	54443.20
534.01	54672.57
534.18	54600.02
534.35	55309.20
534.52	54752.15
534.69	54836.41
534.86	55196.85
535.03	54866.84
535.20	54995.57
535.37	55325.58
535.54	55304.52
535.71	55000.25
535.88	55128.98
536.05	55412.18
536.22	55356.01
536.38	55337.29
536.55	55398.14
536.72	55463.67
536.89	55213.24
537.06	55466.02
537.23	55634.53
537.40	55608.79
537.57	55402.82
537.74	55491.76
537.91	55854.54
538.08	55814.76
538.25	55402.82
538.42	55753.90
538.59	55964.55
538.75	55679.00
538.92	55767.94
539.09	55849.86
539.26	55943.48
539.43	55739.86
539.60	56009.02
539.77	56175.20
539.94	56355.42
540.11	56102.64
540.28	56229.03
540.44	56266.48
540.61	56317.97
540.78	56332.01
540.95	56397.55
541.12	56102.64
541.29	56151.79
541.46	56243.07
541.62	56439.68
541.79	56378.82
541.96	56177.54
542.13	56622.24
542.30	56453.72
542.47	56802.46
542.63	56685.43
542.80	56736.93
542.97	56985.02
543.14	57230.78
543.31	57083.33
543.48	57148.86
543.64	57263.55
543.81	57223.76
543.98	57172.27
544.15	57158.22
544.32	57387.60
544.48	57228.44
544.65	57085.67
544.82	57109.07
544.99	57382.91
545.16	57291.63
545.32	57127.80
545.49	57453.13
545.66	57586.54
545.83	57450.79
546.00	57598.24
546.16	57464.83
546.33	57275.25
546.50	57350.15
546.67	57509.30
546.83	57183.97
547.00	57649.74
547.17	57546.75
547.34	57829.96
547.50	57675.48
547.67	57832.30
547.84	57820.59
548.00	57666.12
548.17	58026.56
548.34	58007.84
548.51	58026.56
548.67	58246.57
548.84	57961.03
549.01	58066.35
549.18	58096.78
549.34	58045.29
549.51	58003.16
549.68	58056.99
549.84	58080.39
550.01	58178.70
550.18	58115.50
550.34	58389.34
550.51	58492.33
550.68	58178.70
550.84	58141.25
551.01	58391.68
551.18	58354.24
551.34	58391.68
551.51	58782.55
551.68	58532.12
551.84	58511.05
552.01	58209.12
552.18	58511.05
552.34	58248.91
552.51	58628.08
552.68	58281.68
552.84	58747.45
553.01	58829.37
553.18	58672.55
553.34	58686.59
553.51	58714.68
553.67	58714.68
553.84	58611.70
554.01	58862.13
554.17	58592.97
554.34	58850.43
554.51	58660.85
554.67	59086.82
554.84	58782.55
555.00	58866.81
555.17	58925.33
555.33	58983.84
555.50	58820.00
555.67	58901.92
555.83	58937.03
556.00	58958.09
556.16	59367.69
556.33	59002.56
556.50	59100.87
556.66	59084.48
556.83	59061.08
556.99	59072.78
557.16	59320.88
557.32	59379.39
557.49	59568.97
557.65	59285.77
557.82	59304.49
557.98	59306.83
558.15	59543.23
558.32	59320.88
558.48	59194.49
558.65	59477.69
558.81	59278.75
558.98	59295.13
559.14	59597.06
559.31	59451.95
559.47	59554.93
559.64	59391.09
559.80	59718.77
559.97	59678.98
560.13	59388.75
560.30	59561.95
560.46	59627.49
560.63	59622.81
560.79	59531.53
560.96	59803.03
561.12	59714.09
561.29	59742.17
561.45	59606.42
561.61	59760.90
561.78	59859.20
561.94	59615.79
562.11	59683.66
562.27	59686.00
562.44	59882.61
562.60	60030.06
562.77	60041.76
562.93	59683.66
563.10	60006.65
563.26	59985.59
563.42	60097.94
563.59	59866.22
563.75	59711.75
563.92	59889.63
564.08	59728.13
564.24	59866.22
564.41	60151.77
564.57	60130.70
564.74	59903.67
564.90	59976.23
565.07	59889.63
565.23	59894.31
565.39	59955.16
565.56	60046.44
565.72	59929.42
565.88	60048.78
566.05	60193.90
566.21	60006.65
566.38	60069.85
566.54	60037.08
566.70	60072.19
566.87	60189.22
567.03	59969.21
567.19	60168.15
567.36	60037.08
567.52	60186.88
567.68	60413.91
567.85	60165.81
568.01	60456.04
568.17	60306.24
568.34	60296.88
568.50	60317.95
568.66	60025.38
568.83	60364.76
568.99	60289.86
569.15	60369.44
569.32	60292.20
569.48	60137.72
569.64	60224.32
569.81	60186.88
569.97	60247.73
570.13	60409.23
570.30	60114.32
570.46	60388.16
570.62	60264.11
570.78	60219.64
570.95	60376.46
571.11	60516.89
571.27	60205.60
571.43	60493.49
571.60	60465.40
571.76	60392.84
571.92	60465.40
572.09	60310.92
572.25	60573.06
572.41	60245.39
572.57	60537.96
572.74	60615.19
572.90	60615.19
573.06	60339.01
573.22	60580.09
573.38	60381.14
573.55	60411.57
573.71	60652.64
573.87	60488.80
574.03	60416.25
574.20	60470.08
574.36	60521.57
574.52	60774.35
574.68	60685.41
574.84	60736.90
575.01	60631.58
575.17	60486.46
575.33	60622.22
575.49	60470.08
575.65	60629.24
575.82	60821.16
575.98	60615.19
576.14	60837.54
576.30	60636.26
576.46	60563.70
576.62	60568.38
576.79	60552.00
576.95	60636.26
577.11	60664.35
577.27	60884.36
577.43	60739.24
577.59	60495.83
577.75	60589.45
577.92	60680.73
578.08	60678.39
578.24	60767.33
578.40	60760.31
578.56	60860.95
578.72	60683.07
578.88	60800.10
579.04	60736.90
579.21	60711.16
579.37	60753.29
579.53	60804.78
579.69	60563.70
579.85	60654.98
580.01	60601.15
580.17	60669.03
580.33	60598.81
580.49	60722.86
580.65	60832.86
580.82	60685.41
580.98	60764.99
581.14	60544.98
581.30	61008.40
581.46	60860.95
581.62	60811.80
581.78	60715.84
581.94	60807.12
582.10	60823.50
582.26	60732.22
582.42	60671.37
582.58	60772.01
582.74	60896.06
582.90	60720.52
583.06	60849.25
583.22	60526.25
583.38	60853.93
583.54	60781.37
583.70	60804.78
583.86	60708.82
584.02	60727.54
584.18	61015.43
584.34	60844.57
584.50	60949.89
584.66	60828.18
584.82	60610.51
584.98	60921.80
585.14	60942.87
585.30	60781.37
585.46	61073.94
585.62	60760.31
585.78	61059.90
585.94	60669.03
586.10	61062.24
586.26	60919.46
586.42	60896.06
586.58	61080.96
586.74	60980.32
586.90	60947.55
587.06	60786.05
587.22	61118.41
587.38	60774.35
587.54	61073.94
587.70	61179.26
587.86	61020.11
588.02	60928.83
588.18	60952.23
588.34	60718.18
588.49	60774.35
