SpectraSuite Data File
++++++++++++++++++++++++++++++++++++
Date: Fri Oct 25 11:26:13 EDT 2013
User: price-jones
Dark Spectrum Present: No
Reference Spectrum Present: No
Number of Sampled Component Spectra: 1
Spectrometers: USB2+H05261
Integration Time (usec): 100000 (USB2+H05261)
Spectra Averaged: 1 (USB2+H05261)
Boxcar Smoothing: 0 (USB2+H05261)
Correct for Electrical Dark: No (USB2+H05261)
Strobe/Lamp Enabled: No (USB2+H05261)
Correct for Detector Non-linearity: No (USB2+H05261)
Correct for Stray Light: No (USB2+H05261)
Number of Pixels in Processed Spectrum: 2048
>>>>>Begin Processed Spectral Data<<<<<
365.73	243.42
365.92	243.42
366.12	243.42
366.32	163.84
366.52	102.98
366.72	156.82
366.91	114.69
367.11	138.09
367.31	135.75
367.51	124.05
367.70	147.45
367.90	182.56
368.10	140.43
368.30	208.31
368.49	135.75
368.69	145.11
368.89	215.33
369.09	191.92
369.28	189.58
369.48	126.39
369.68	177.88
369.87	163.84
370.07	262.14
370.27	322.99
370.47	280.86
370.66	613.22
370.86	622.58
371.06	613.22
371.25	784.08
371.45	732.59
371.65	704.50
371.84	695.14
372.04	645.99
372.24	667.05
372.44	744.29
372.63	751.31
372.83	800.46
373.03	706.84
373.22	730.25
373.42	753.65
373.62	835.57
373.81	819.19
374.01	784.08
374.21	795.78
374.40	798.12
374.60	840.25
374.79	856.64
374.99	826.21
375.19	870.68
375.38	828.55
375.58	1006.43
375.78	856.64
375.97	856.64
376.17	1027.50
376.37	889.40
376.56	936.21
376.76	898.77
376.95	856.64
377.15	889.40
377.35	936.21
377.54	866.00
377.74	870.68
377.93	940.90
378.13	945.58
378.33	896.43
378.52	945.58
378.72	1006.43
378.91	940.90
379.11	987.71
379.31	828.55
379.50	954.94
379.70	1027.50
379.89	1013.45
380.09	1025.15
380.28	966.64
380.48	985.37
380.68	901.11
380.87	968.98
381.07	1055.58
381.26	1071.97
381.46	987.71
381.65	1008.77
381.85	1118.78
382.04	1039.20
382.24	1064.94
382.43	1100.05
382.63	1107.07
382.83	1074.31
383.02	1118.78
383.22	1139.84
383.41	1132.82
383.61	1102.39
383.80	1156.22
384.00	1071.97
384.19	1142.18
384.39	1088.35
384.58	1172.61
384.78	1153.88
384.97	1163.25
385.17	1160.91
385.36	1132.82
385.56	1181.97
385.75	1205.38
385.95	1207.72
386.14	1212.40
386.34	1245.16
386.53	1132.82
386.72	1245.16
386.92	1268.57
387.11	1273.25
387.31	1275.59
387.50	1254.53
387.70	1184.31
387.89	1306.02
388.09	1310.70
388.28	1275.59
388.48	1270.91
388.67	1299.00
388.86	1350.49
389.06	1313.04
389.25	1348.15
389.45	1355.17
389.64	1313.04
389.84	1345.81
390.03	1458.15
390.22	1479.22
390.42	1446.45
390.61	1345.81
390.81	1373.89
391.00	1479.22
391.19	1444.11
391.39	1441.77
391.58	1591.56
391.78	1472.20
391.97	1462.83
392.16	1476.88
392.36	1542.41
392.55	1460.49
392.75	1547.09
392.94	1565.82
393.13	1502.62
393.33	1509.65
393.52	1582.20
393.71	1610.29
393.91	1652.42
394.10	1650.08
394.29	1603.27
394.49	1584.54
394.68	1575.18
394.88	1591.56
395.07	1647.74
395.26	1633.69
395.46	1612.63
395.65	1652.42
395.84	1713.27
396.04	1797.53
396.23	1802.21
396.42	1776.47
396.62	1804.55
396.81	1895.83
397.00	1851.36
397.19	1748.38
397.39	1820.94
397.58	1879.45
397.77	1874.77
397.97	1825.62
398.16	1846.68
398.35	1806.89
398.55	1977.75
398.74	1874.77
398.93	1849.02
399.12	1952.01
399.32	1909.88
399.51	1895.83
399.70	2071.37
399.90	1891.15
400.09	1968.39
400.28	2017.54
400.47	1956.69
400.67	2029.24
400.86	1994.14
401.05	1921.58
401.24	2094.78
401.44	2059.67
401.63	2120.53
401.82	2162.66
402.01	2036.27
402.21	2127.55
402.40	2211.81
402.59	2118.18
402.78	2181.38
402.97	2289.04
403.17	2251.60
403.36	2202.44
403.55	2340.54
403.74	2237.55
403.93	2420.11
404.13	2373.30
404.32	2352.24
404.51	2328.83
404.70	2335.85
404.89	2352.24
405.09	2504.37
405.28	2457.56
405.47	2497.35
405.66	2396.71
405.85	2490.33
406.05	2541.82
406.24	2588.63
406.43	2600.34
406.62	2731.41
406.81	2745.45
407.00	2621.40
407.20	2595.65
407.39	2661.19
407.58	2637.78
407.77	2726.72
407.96	2658.85
408.15	2782.90
408.34	2792.26
408.54	2738.43
408.73	2766.51
408.92	2726.72
409.11	2787.58
409.30	2923.33
409.49	2846.09
409.68	2850.77
409.87	2925.67
410.07	2970.14
410.26	3066.10
410.45	3047.38
410.64	3026.31
410.83	3045.04
411.02	3213.56
411.21	3290.79
411.40	3103.55
411.59	3166.74
411.78	3152.70
411.98	3213.56
412.17	3286.11
412.36	3251.00
412.55	3290.79
412.74	3302.50
412.93	3424.20
413.12	3314.20
413.31	3574.00
413.50	3431.23
413.69	3576.34
413.88	3679.32
414.07	3543.57
414.26	3810.39
414.45	3637.19
414.64	3630.17
414.83	3761.24
415.02	3817.41
415.22	3770.60
415.41	3878.27
415.60	3812.73
415.79	3747.20
415.98	3969.55
416.17	3882.95
416.36	3969.55
416.55	4009.34
416.74	3892.31
416.93	4044.45
417.12	4018.70
417.31	4044.45
417.50	4142.75
417.69	4243.39
417.88	4299.56
418.07	4205.94
418.26	4285.52
418.45	4372.12
418.64	4456.38
418.83	4432.97
419.02	4386.16
419.21	4411.91
419.39	4409.57
419.58	4479.79
419.77	4449.36
419.96	4631.92
420.15	4550.00
420.34	4437.66
420.53	4528.94
420.72	4784.06
420.91	4667.03
421.10	4652.98
421.29	4884.70
421.48	4674.05
421.67	4620.22
421.86	4746.61
422.05	4739.58
422.24	4833.21
422.43	4924.49
422.61	4882.36
422.80	5029.81
422.99	4990.02
423.18	4947.89
423.37	5071.94
423.56	5013.43
423.75	4887.04
423.94	4805.12
424.13	4557.02
424.32	4786.40
424.50	4971.30
424.69	5006.41
424.88	4987.68
425.07	5022.79
425.26	4912.78
425.45	4903.42
425.64	4999.38
425.83	4884.70
426.01	5184.29
426.20	5020.45
426.39	5076.62
426.58	5008.75
426.77	5008.75
426.96	5123.43
427.15	5153.86
427.33	5191.31
427.52	5174.92
427.71	5226.42
427.90	5242.80
428.09	5317.70
428.28	5350.46
428.46	5303.65
428.65	5387.91
428.84	5551.75
429.03	5397.28
429.22	5188.97
429.40	5336.42
429.59	5439.40
429.78	5350.46
429.97	5226.42
430.16	5551.75
430.34	5643.03
430.53	5743.67
430.72	5554.09
430.91	5465.15
431.10	5563.45
431.28	5731.97
431.47	5867.72
431.66	5891.13
431.85	5661.76
432.03	5858.36
432.22	5900.49
432.41	5746.02
432.60	5940.28
432.79	5900.49
432.97	5951.98
433.16	5820.91
433.35	5916.87
433.54	5977.73
433.72	6253.91
433.91	6176.67
434.10	6277.32
434.28	6099.44
434.47	6132.20
434.66	6230.51
434.85	6307.74
435.03	6441.15
435.22	6214.12
435.41	6525.41
435.59	6340.51
435.78	6326.47
435.97	6445.84
436.16	6384.98
436.34	6265.61
436.53	6565.20
436.72	6595.63
436.90	6497.33
437.09	6534.78
437.28	6509.03
437.46	6684.57
437.65	6696.27
437.84	6644.78
438.02	6637.76
438.21	6869.47
438.40	6796.92
438.58	6850.75
438.77	7040.33
438.96	6696.27
439.14	7075.44
439.33	7087.14
439.52	7253.32
439.70	7417.16
439.89	7353.96
440.08	7133.95
440.26	7386.73
440.45	7393.75
440.63	7463.97
440.82	7527.16
441.01	7478.01
441.19	7573.97
441.38	7564.61
441.57	7637.17
441.75	7786.96
441.94	7913.35
442.12	8081.87
442.31	7925.05
442.50	8056.12
442.68	7915.69
442.87	8156.77
443.05	8037.40
443.24	8128.68
443.43	8229.32
443.61	8196.56
443.80	8620.19
443.98	7948.46
444.17	7723.77
444.35	8196.56
444.54	8475.08
444.73	8334.65
444.91	8194.22
445.10	8444.65
445.28	8236.35
445.47	8238.69
445.65	8365.07
445.84	8390.82
446.02	8379.12
446.21	8374.44
446.39	8449.33
446.58	8734.88
446.77	8634.24
446.95	8203.58
447.14	8491.46
447.32	8397.84
447.51	8411.89
447.69	8367.42
447.88	8496.14
448.06	8533.59
448.25	8367.42
448.43	8512.53
448.62	8446.99
448.80	8528.91
448.99	8725.52
449.17	8683.39
449.36	8519.55
449.54	8709.13
449.73	8842.54
449.91	8973.61
450.10	8882.33
450.28	9036.81
450.46	8968.93
450.65	8990.00
450.83	8999.36
451.02	8924.46
451.20	8964.25
451.39	9247.46
451.57	9139.79
451.76	9142.13
451.94	9057.87
452.13	9240.44
452.31	9329.38
452.49	8889.35
452.68	9291.93
452.86	9331.72
453.05	9568.11
453.23	9418.32
453.42	9467.47
453.60	9228.73
453.78	9343.42
453.97	9544.70
454.15	9486.19
454.34	9420.66
454.52	9771.74
454.70	9399.59
454.89	9675.77
455.07	9818.55
455.26	9921.53
455.44	9961.32
455.62	9713.22
455.81	9848.97
455.99	10160.27
456.17	10122.82
456.36	10043.24
456.54	10174.31
456.73	10214.10
456.91	10560.50
457.09	10207.08
457.28	10384.96
457.46	10368.57
457.64	10487.94
457.83	10296.02
458.01	10347.51
458.19	10530.07
458.38	10614.33
458.56	10698.59
458.74	10654.12
458.93	10593.26
459.11	10752.42
459.29	10551.14
459.48	10794.55
459.66	10452.83
459.84	10848.38
460.03	11040.31
460.21	10949.03
460.39	10967.75
460.57	10951.37
460.76	11164.36
460.94	11227.55
461.12	11096.48
461.31	11208.83
461.49	11358.62
461.67	11262.66
461.85	11592.67
462.04	11379.68
462.22	11915.67
462.40	11573.95
462.59	11375.00
462.77	11438.20
462.95	11454.58
463.13	11707.36
463.32	11555.22
463.50	11648.85
463.68	11779.92
463.86	11871.20
464.05	11485.01
464.23	11705.02
464.41	11709.70
464.59	11714.38
464.78	12133.34
464.96	11967.16
465.14	11826.73
465.32	11913.33
465.50	12112.27
465.69	11997.59
465.87	11885.24
466.05	12058.44
466.23	12135.68
466.41	12276.11
466.60	12451.65
466.78	12107.59
466.96	11995.25
467.14	12411.86
467.32	12231.64
467.51	12329.94
467.69	12233.98
467.87	12475.06
468.05	12554.63
468.23	12395.48
468.41	12358.03
468.60	12524.21
468.78	12615.49
468.96	12564.00
469.14	12500.80
469.32	12905.71
469.50	12606.13
469.69	13076.57
469.87	13018.06
470.05	13184.24
470.23	13305.95
470.41	13160.83
470.59	13186.58
470.77	13071.89
470.95	13153.81
471.14	13427.65
471.32	13242.75
471.50	13650.00
471.68	13507.23
471.86	13350.42
472.04	13701.50
472.22	13855.97
472.40	13582.13
472.58	13532.98
472.77	14146.20
472.95	14225.78
473.13	14319.40
473.31	13944.91
473.49	13991.72
473.67	13916.83
473.85	14230.46
474.03	14499.62
474.21	14410.68
474.39	14721.97
474.57	14677.50
474.75	14721.97
474.93	14691.54
475.12	15056.67
475.30	15138.58
475.48	15208.80
475.66	15337.53
475.84	15246.25
476.02	15400.72
476.20	15508.39
476.38	15487.32
476.56	16077.14
476.74	15817.34
476.92	15789.25
477.10	15697.97
477.28	15967.13
477.46	16243.32
477.64	16058.42
477.82	16400.13
478.00	16809.73
478.18	16690.36
478.36	17067.19
478.54	17060.16
478.72	16975.91
478.90	17298.90
479.08	17701.47
479.26	17535.29
479.44	17598.49
479.62	17444.01
479.80	18052.55
479.98	18010.42
480.16	18384.91
480.34	18272.56
480.52	18525.34
480.70	18609.60
480.88	18555.77
481.06	18661.09
481.24	18677.48
481.41	18925.57
481.59	19152.60
481.77	19337.51
481.95	19414.74
482.13	19854.76
482.31	19398.36
482.49	20114.56
482.67	20060.73
482.85	20517.14
483.03	20357.98
483.21	20477.35
483.39	20622.46
483.57	20688.00
483.74	20987.58
483.92	21270.79
484.10	21032.05
484.28	21584.42
484.46	22143.81
484.64	22080.61
484.82	22005.72
485.00	21989.33
485.18	22370.84
485.35	22747.67
485.53	23037.89
485.71	22750.01
485.89	23702.61
486.07	23323.44
486.25	23421.74
486.43	23646.43
486.61	23957.72
486.78	24266.67
486.96	23929.64
487.14	24643.50
487.32	24393.06
487.50	24687.97
487.68	24989.90
487.85	25027.35
488.03	25607.80
488.21	25518.86
488.39	25598.44
488.57	26054.84
488.75	26059.52
488.92	26347.41
489.10	26806.16
489.28	26920.84
489.46	26745.30
489.64	26979.36
489.81	27435.76
489.99	27470.87
490.17	27552.79
490.35	27924.93
490.53	28114.52
490.70	28409.42
490.88	28271.33
491.06	28620.07
491.24	28725.39
491.41	28779.23
491.59	29317.55
491.77	29687.36
491.95	29450.96
492.13	29500.11
492.30	29640.54
492.48	29963.54
492.66	29949.50
492.84	30057.16
493.01	30721.87
493.19	30511.22
493.37	30696.13
493.54	30962.95
493.72	31143.17
493.90	31234.45
494.08	31693.19
494.25	31552.76
494.43	31718.94
494.61	31983.42
494.79	32266.63
494.96	32325.14
495.14	32961.76
495.32	33244.97
495.49	32931.34
495.67	32872.82
495.85	33556.26
496.02	33809.04
496.20	33783.29
496.38	33701.37
496.55	33893.30
496.73	34455.03
496.91	34515.88
497.09	34513.54
497.26	34771.00
497.44	34382.47
497.62	34965.26
497.79	35786.79
497.97	35133.78
498.14	36016.16
498.32	35878.07
498.50	35807.86
498.67	36477.25
498.85	36114.47
499.03	36332.14
499.20	36481.93
499.38	36891.52
499.56	36957.06
499.73	36947.70
499.91	37242.60
500.08	37635.81
500.26	37350.27
500.44	37532.83
500.61	37654.54
500.79	38010.30
500.97	38227.97
501.14	38689.06
501.32	38321.59
501.49	37989.24
501.67	38323.93
501.84	39007.37
502.02	38923.11
502.20	39136.10
502.37	39590.16
502.55	39428.66
502.72	39412.28
502.90	39093.97
503.07	39051.84
503.25	39924.86
503.43	39470.79
503.60	39873.37
503.78	40147.21
503.95	40100.40
504.13	40470.20
504.30	40582.55
504.48	40053.59
504.65	40701.92
504.83	40935.97
505.01	41265.99
505.18	41099.81
505.36	41354.93
505.53	40832.99
505.71	41048.32
505.88	41752.82
506.06	41041.29
506.23	41968.15
506.41	41521.10
506.58	42066.45
506.76	41811.33
506.93	42307.52
507.11	42127.30
507.28	42234.97
507.46	42557.96
507.63	42497.11
507.81	43112.67
507.98	42667.97
508.16	43084.58
508.33	43566.73
508.50	43299.91
508.68	43505.88
508.85	43758.66
509.03	43709.50
509.20	43695.46
509.38	43910.79
509.55	44708.91
509.73	44360.17
509.90	44072.29
510.08	44484.22
510.25	44720.62
510.42	44531.03
510.60	44524.01
510.77	45059.99
510.95	45448.52
511.12	45088.08
511.30	45017.86
511.47	44907.86
511.64	45308.09
511.82	45453.20
511.99	45368.94
512.17	46010.25
512.34	45977.48
512.51	46033.66
512.69	46148.34
512.86	46146.00
513.04	46452.61
513.21	46270.05
513.38	46834.12
513.56	46925.40
513.73	46485.38
513.90	47054.13
514.08	46667.94
514.25	46916.04
514.43	47421.59
514.60	47318.61
514.77	46841.14
514.95	46988.60
515.12	47468.40
515.29	47571.39
515.47	47803.10
515.64	47753.95
515.81	47627.56
515.99	47995.03
516.16	48416.32
516.33	47861.61
516.51	48713.57
516.68	48626.97
516.85	48247.80
517.03	48690.16
517.20	48552.07
517.37	49013.16
517.54	48655.06
517.72	48612.93
517.89	48718.25
518.06	49411.05
518.24	49125.50
518.41	49209.76
518.58	49256.57
518.75	48971.03
518.93	49279.98
519.10	48999.12
519.27	49584.25
519.45	49607.65
519.62	49991.50
519.79	49820.64
519.96	49900.22
520.14	50005.55
520.31	50019.59
520.48	50452.59
520.65	49879.16
520.83	50176.40
521.00	50590.68
521.17	50583.66
521.34	50391.73
521.52	50604.72
521.69	50836.44
521.86	50866.86
522.03	50761.54
522.20	51437.95
522.38	51437.95
522.55	51161.77
522.72	51196.88
522.89	51028.36
523.07	51337.31
523.24	51157.09
523.41	51461.36
523.58	51145.39
523.75	51578.39
523.92	51447.32
524.10	51896.70
524.27	51948.19
524.44	52168.20
524.61	52090.96
524.78	52123.73
524.96	51922.44
525.13	52137.77
525.30	52275.87
525.47	52086.28
525.64	52072.24
525.81	52669.08
525.98	52449.06
526.16	52472.47
526.33	52144.80
526.50	52914.83
526.67	52481.83
526.84	52919.51
527.01	52498.22
527.18	52821.21
527.36	52669.08
527.53	52938.24
527.70	53165.27
527.87	53315.06
528.04	53010.79
528.21	53137.18
528.38	53312.72
528.55	53478.90
528.72	53404.00
528.89	53366.55
529.07	53240.17
529.24	53354.85
529.41	53638.06
529.58	53556.14
529.75	53680.19
529.92	53722.32
530.09	53567.84
530.26	53883.81
530.43	53478.90
530.60	53750.40
530.77	53701.25
530.94	53970.41
531.11	53609.97
531.28	53734.02
531.46	54038.29
531.63	53851.05
531.80	54115.53
531.97	54387.03
532.14	54223.19
532.31	54380.01
532.48	54384.69
532.65	54560.23
532.82	54403.41
532.99	54445.54
533.16	54394.05
533.33	54803.64
533.50	54932.37
533.67	54670.23
533.84	54574.27
534.01	54932.37
534.18	54766.20
534.35	55185.15
534.52	55014.29
534.69	55047.06
534.86	55047.06
535.03	54981.52
535.20	55037.70
535.37	55196.85
535.54	55339.63
535.71	55075.15
535.88	55255.37
536.05	55519.85
536.22	55351.33
536.38	55533.89
536.55	55608.79
536.72	55566.66
536.89	55306.86
537.06	55416.86
537.23	55669.64
537.40	55311.54
537.57	55618.15
537.74	55543.25
537.91	55756.24
538.08	55887.31
538.25	55681.34
538.42	55693.05
538.59	56172.86
538.75	55463.67
538.92	56025.40
539.09	55971.57
539.26	56135.41
539.43	56184.56
539.60	55929.44
539.77	56053.49
539.94	56229.03
540.11	56130.73
540.28	56254.78
540.44	56299.25
540.61	56399.89
540.78	56210.31
540.95	56151.79
541.12	56294.56
541.29	56090.94
541.46	56378.82
541.62	56367.12
541.79	56554.36
541.96	56535.64
542.13	56350.74
542.30	56535.64
542.47	56587.13
542.63	56645.65
542.80	56678.41
542.97	57092.69
543.14	56938.21
543.31	57043.54
543.48	57172.27
543.64	57378.23
543.81	57219.08
543.98	57073.96
544.15	57202.69
544.32	57193.33
544.48	57467.17
544.65	57310.36
544.82	57446.11
544.99	56961.62
545.16	57172.27
545.32	57315.04
545.49	57586.54
545.66	57516.32
545.83	57329.08
546.00	57719.95
546.16	57745.70
546.33	57579.52
546.50	57460.15
546.67	57696.55
546.83	57251.84
547.00	57638.03
547.17	57591.22
547.34	57626.33
547.50	58028.90
547.67	58026.56
547.84	57958.69
548.00	58103.80
548.17	58021.88
548.34	58038.26
548.51	58087.42
548.67	57848.68
548.84	57975.07
549.01	57986.77
549.18	58085.07
549.34	58141.25
549.51	58145.93
549.68	58227.85
549.84	58101.46
550.01	58527.44
550.18	58211.46
550.34	58216.14
550.51	58492.33
550.68	58225.51
550.84	58195.08
551.01	58541.48
551.18	58497.01
551.34	58394.03
551.51	58611.70
551.68	58326.15
551.84	58625.74
552.01	58361.26
552.18	58459.56
552.34	58630.42
552.51	58721.70
552.68	58335.51
552.84	58489.99
553.01	58700.64
553.18	58468.92
553.34	58801.28
553.51	58787.24
553.67	58770.85
553.84	58609.35
554.01	58887.88
554.17	58892.56
554.34	59032.99
554.51	58981.50
554.67	58913.62
554.84	58892.56
555.00	58796.60
555.17	58843.41
555.33	58934.69
555.50	58887.88
555.67	58965.12
555.83	59114.91
556.00	59107.89
556.16	59430.88
556.33	59255.34
556.50	59061.08
556.66	59140.66
556.83	58841.07
556.99	59245.98
557.16	59138.32
557.32	59412.16
557.49	59599.40
557.65	59227.26
557.82	59384.07
557.98	59496.42
558.15	59241.30
558.32	59318.54
558.48	59419.18
558.65	59456.63
558.81	59606.42
558.98	59447.27
559.14	59526.84
559.31	59592.38
559.47	59461.31
559.64	59559.61
559.80	59330.24
559.97	59669.62
560.13	59697.70
560.30	59592.38
560.46	59887.29
560.63	59770.26
560.79	59620.47
560.96	59737.49
561.12	59732.81
561.29	59721.11
561.45	59625.15
561.61	59721.11
561.78	59561.95
561.94	59597.06
562.11	59849.84
562.27	59838.14
562.44	59849.84
562.60	59875.58
562.77	59674.30
562.93	59587.70
563.10	59772.60
563.26	59887.29
563.42	60020.70
563.59	59880.27
563.75	59845.16
563.92	60111.98
564.08	59980.91
564.24	60107.30
564.41	59807.71
564.57	60032.40
564.74	60004.31
564.90	60055.81
565.07	59997.29
565.23	59870.90
565.39	59852.18
565.56	60205.60
565.72	60177.51
565.88	59957.50
566.05	59952.82
566.21	60062.83
566.38	59915.37
566.54	60140.07
566.70	60158.79
566.87	60030.06
567.03	60037.08
567.19	60193.90
567.36	60214.96
567.52	60161.13
567.68	60580.09
567.85	60210.28
568.01	60479.44
568.17	60130.70
568.34	60217.30
568.50	60331.99
568.66	60133.04
568.83	60310.92
568.99	60214.96
569.15	60378.80
569.32	60285.18
569.48	60360.08
569.64	60336.67
569.81	60399.86
569.97	60303.90
570.13	60449.02
570.30	60137.72
570.46	60221.98
570.62	60271.14
570.78	60324.97
570.95	60306.24
571.11	60346.03
571.27	60355.39
571.43	60353.05
571.60	60533.28
571.76	60346.03
571.92	60493.49
572.09	60540.30
572.25	60552.00
572.41	60577.75
572.57	60556.68
572.74	60802.44
572.90	60561.36
573.06	60399.86
573.22	60561.36
573.38	60544.98
573.55	60652.64
573.71	60552.00
573.87	60540.30
574.03	60451.36
574.20	60512.21
574.36	60624.56
574.52	60385.82
574.68	60631.58
574.84	60687.75
575.01	60561.36
575.17	60547.32
575.33	60544.98
575.49	60704.13
575.65	60725.20
575.82	60839.89
575.98	60589.45
576.14	60919.46
576.30	60860.95
576.46	60552.00
576.62	60622.22
576.79	60495.83
576.95	60533.28
577.11	60708.82
577.27	60676.05
577.43	60762.65
577.59	60814.14
577.75	60568.38
577.92	60671.37
578.08	60741.58
578.24	60640.94
578.40	60907.76
578.56	60804.78
578.72	60654.98
578.88	60793.07
579.04	60926.49
579.21	60704.13
579.37	60980.32
579.53	60788.39
579.69	60683.07
579.85	60753.29
580.01	60748.60
580.17	60589.45
580.33	61057.56
580.49	60907.76
580.65	60900.74
580.82	60814.14
580.98	60743.92
581.14	60830.52
581.30	60856.27
581.46	60907.76
581.62	60697.11
581.78	60638.60
581.94	60591.79
582.10	60804.78
582.26	60872.65
582.42	60788.39
582.58	60732.22
582.74	60795.42
582.90	60952.23
583.06	60823.50
583.22	60697.11
583.38	60685.41
583.54	60940.53
583.70	60921.80
583.86	60886.70
584.02	60734.56
584.18	60999.04
584.34	60781.37
584.50	60882.02
584.66	60896.06
584.82	60764.99
584.98	61057.56
585.14	60900.74
585.30	60985.00
585.46	61020.11
585.62	60818.82
585.78	61080.96
585.94	60580.09
586.10	60814.14
586.26	60914.78
586.42	60863.29
586.58	61087.98
586.74	60830.52
586.90	60879.67
587.06	60914.78
587.22	61097.34
587.38	60963.93
587.54	61116.07
587.70	61125.43
587.86	60907.76
588.02	60954.57
588.18	61134.79
588.34	60832.86
