SpectraSuite Data File
++++++++++++++++++++++++++++++++++++
Date: Fri Oct 25 11:33:10 EDT 2013
User: price-jones
Dark Spectrum Present: No
Reference Spectrum Present: No
Number of Sampled Component Spectra: 1
Spectrometers: USB2+H05261
Integration Time (usec): 100000 (USB2+H05261)
Spectra Averaged: 1 (USB2+H05261)
Boxcar Smoothing: 0 (USB2+H05261)
Correct for Electrical Dark: No (USB2+H05261)
Strobe/Lamp Enabled: No (USB2+H05261)
Correct for Detector Non-linearity: No (USB2+H05261)
Correct for Stray Light: No (USB2+H05261)
Number of Pixels in Processed Spectrum: 2048
>>>>>Begin Processed Spectral Data<<<<<
365.73	327.68
365.92	327.68
366.12	327.68
366.32	168.52
366.52	142.77
366.72	180.22
366.91	156.82
367.11	117.03
367.31	198.95
367.51	163.84
367.70	124.05
367.90	194.26
368.10	217.67
368.30	222.35
368.49	201.29
368.69	149.79
368.89	173.20
369.09	187.24
369.28	196.60
369.48	161.50
369.68	252.78
369.87	175.54
370.07	180.22
370.27	262.14
370.47	348.74
370.66	433.00
370.86	528.96
371.06	559.39
371.25	528.96
371.45	510.24
371.65	491.51
371.84	517.26
372.04	528.96
372.24	582.79
372.44	559.39
372.63	550.03
372.83	620.24
373.03	631.94
373.22	545.34
373.42	615.56
373.62	547.69
373.81	629.60
374.01	596.84
374.21	695.14
374.40	702.16
374.60	695.14
374.79	613.22
374.99	678.76
375.19	718.54
375.38	638.97
375.58	624.92
375.78	636.63
375.97	690.46
376.17	767.70
376.37	580.45
376.56	681.10
376.76	587.47
376.95	599.18
377.15	723.23
377.35	753.65
377.54	664.71
377.74	774.72
377.93	702.16
378.13	704.50
378.33	713.86
378.52	688.12
378.72	690.46
378.91	716.20
379.11	678.76
379.31	667.05
379.50	681.10
379.70	800.46
379.89	725.57
380.09	718.54
380.28	746.63
380.48	821.53
380.68	727.91
380.87	763.01
381.07	688.12
381.26	720.88
381.46	683.44
381.65	760.67
381.85	807.48
382.04	765.36
382.24	737.27
382.43	805.14
382.63	739.61
382.83	763.01
383.02	814.51
383.22	772.38
383.41	779.40
383.61	821.53
383.80	840.25
384.00	828.55
384.19	767.70
384.39	926.85
384.58	812.17
384.78	774.72
384.97	884.72
385.17	826.21
385.36	873.02
385.56	856.64
385.75	875.36
385.95	798.12
386.14	873.02
386.34	891.74
386.53	943.24
386.72	856.64
386.92	922.17
387.11	940.90
387.31	987.71
387.50	908.13
387.70	816.85
387.89	896.43
388.09	894.08
388.28	1011.11
388.48	863.66
388.67	929.19
388.86	961.96
389.06	936.21
389.25	887.06
389.45	940.90
389.64	947.92
389.84	938.55
390.03	936.21
390.22	985.37
390.42	1039.20
390.61	978.34
390.81	919.83
391.00	952.60
391.19	1053.24
391.39	1057.92
391.58	1027.50
391.78	961.96
391.97	1097.71
392.16	1050.90
392.36	1069.62
392.55	1060.26
392.75	1130.48
392.94	1006.43
393.13	1071.97
393.33	1004.09
393.52	1275.59
393.71	1163.25
393.91	1104.73
394.10	1020.47
394.29	1188.99
394.49	1135.16
394.68	1193.67
394.88	1041.54
395.07	1109.41
395.26	1109.41
395.46	1188.99
395.65	1165.59
395.84	1233.46
396.04	1226.44
396.23	1240.48
396.42	1128.14
396.62	1174.95
396.81	1214.74
397.00	1186.65
397.19	1240.48
397.39	1238.14
397.58	1303.68
397.77	1233.46
397.97	1301.34
398.16	1242.82
398.35	1254.53
398.55	1198.35
398.74	1217.08
398.93	1334.11
399.12	1261.55
399.32	1352.83
399.51	1434.75
399.70	1425.39
399.90	1299.00
400.09	1348.15
400.28	1392.62
400.47	1425.39
400.67	1453.47
400.86	1385.60
401.05	1458.15
401.24	1500.28
401.44	1448.79
401.63	1528.37
401.82	1371.55
402.01	1420.71
402.21	1565.82
402.40	1462.83
402.59	1507.30
402.78	1504.96
402.97	1540.07
403.17	1474.54
403.36	1572.84
403.55	1551.78
403.74	1605.61
403.93	1678.16
404.13	1650.08
404.32	1689.87
404.51	1624.33
404.70	1629.01
404.89	1645.40
405.09	1645.40
405.28	1603.27
405.47	1657.10
405.66	1811.57
405.85	1699.23
406.05	1753.06
406.24	1820.94
406.43	1689.87
406.62	1811.57
406.81	1816.26
407.00	1680.50
407.20	1781.15
407.39	1774.13
407.58	1877.11
407.77	1839.66
407.96	1870.09
408.15	1959.03
408.34	1830.30
408.54	1912.22
408.73	1928.60
408.92	1991.80
409.11	1975.41
409.30	1998.82
409.49	1989.46
409.68	2026.90
409.87	1980.09
410.07	2043.29
410.26	2029.24
410.45	2155.63
410.64	2097.12
410.83	2172.02
411.02	2017.54
411.21	2188.40
411.40	2097.12
411.59	2169.68
411.78	2225.85
411.98	2246.91
412.17	2314.79
412.36	2361.60
412.55	2310.11
412.74	2342.88
412.93	2443.52
413.12	2331.17
413.31	2511.39
413.50	2413.09
413.69	2340.54
413.88	2356.92
414.07	2513.74
414.26	2511.39
414.45	2483.31
414.64	2565.23
414.83	2497.35
415.02	2602.68
415.22	2649.49
415.41	2719.70
415.60	2658.85
415.79	2715.02
415.98	2871.84
416.17	2736.09
416.36	2745.45
416.55	2780.56
416.74	2897.58
416.93	2881.20
417.12	2855.45
417.31	2942.05
417.50	2925.67
417.69	3014.61
417.88	2981.84
418.07	3049.72
418.26	3103.55
418.45	2970.14
418.64	2995.89
418.83	3000.57
419.02	2888.22
419.21	3192.49
419.39	3199.51
419.58	3047.38
419.77	3148.02
419.96	3124.62
420.15	3180.79
420.34	3108.23
420.53	3087.17
420.72	3325.90
420.91	3206.53
421.10	3323.56
421.29	3269.73
421.48	3220.58
421.67	3363.35
421.86	3199.51
422.05	3213.56
422.24	3234.62
422.43	3386.76
422.61	3482.72
422.80	3414.84
422.99	3412.50
423.18	3440.59
423.37	3475.70
423.56	3517.83
423.75	3468.67
423.94	3363.35
424.13	3054.40
424.32	3304.84
424.50	3407.82
424.69	3482.72
424.88	3482.72
425.07	3356.33
425.26	3538.89
425.45	3393.78
425.64	3398.46
425.83	3487.40
426.01	3410.16
426.20	3468.67
426.39	3562.30
426.58	3527.19
426.77	3452.29
426.96	3508.46
427.15	3468.67
427.33	3599.74
427.52	3686.34
427.71	3555.27
427.90	3541.23
428.09	3749.54
428.28	3574.00
428.46	3777.62
428.65	3698.05
428.84	3737.84
429.03	3646.55
429.22	3681.66
429.40	3843.16
429.59	3854.86
429.78	3740.18
429.97	3634.85
430.16	3915.72
430.34	3688.68
430.53	3878.27
430.72	3913.38
430.91	3915.72
431.10	3929.76
431.28	4025.72
431.47	4063.17
431.66	4016.36
431.85	4044.45
432.03	4023.38
432.22	4145.09
432.41	4119.34
432.60	4091.26
432.79	4074.87
432.97	4219.99
433.16	4215.30
433.35	4117.00
433.54	4107.64
433.72	4250.41
433.91	4304.25
434.10	4236.37
434.28	4250.41
434.47	4250.41
434.66	4362.76
434.85	4337.01
435.03	4463.40
435.22	4301.90
435.41	4423.61
435.59	4477.44
435.78	4367.44
435.97	4456.38
436.16	4425.95
436.34	4482.13
436.53	4402.55
436.72	4535.96
436.90	4402.55
437.09	4585.11
437.28	4540.64
437.46	4376.80
437.65	4685.75
437.84	4727.88
438.02	4727.88
438.21	4711.50
438.40	4629.58
438.58	4809.80
438.77	4786.40
438.96	4774.69
439.14	4835.55
439.33	4713.84
439.52	4877.68
439.70	4973.64
439.89	4992.36
440.08	5195.99
440.26	5078.96
440.45	5062.58
440.63	5034.49
440.82	5315.36
441.01	5149.18
441.19	5081.30
441.38	5404.30
441.57	5254.50
441.75	5383.23
441.94	5474.51
442.12	5561.11
442.31	5682.82
442.50	5504.94
442.68	5200.67
442.87	5617.29
443.05	5558.77
443.24	5621.97
443.43	5535.37
443.61	5631.33
443.80	5617.29
443.98	5474.51
444.17	5303.65
444.35	5474.51
444.54	5619.63
444.73	5666.44
444.91	5640.69
445.10	5750.70
445.28	5675.80
445.47	5682.82
445.65	5617.29
445.84	5760.06
446.02	5930.92
446.21	5694.52
446.39	5668.78
446.58	5699.20
446.77	5818.57
446.95	5689.84
447.14	5769.42
447.32	5792.83
447.51	5792.83
447.69	5809.21
447.88	5874.74
448.06	5907.51
448.25	5895.81
448.43	5823.25
448.62	5872.40
448.80	5921.56
448.99	5998.79
449.17	5970.71
449.36	5849.00
449.54	5956.66
449.73	6125.18
449.91	6197.74
450.10	6202.42
450.28	6253.91
450.46	6221.14
450.65	6284.34
450.83	6347.53
451.02	6162.63
451.20	6282.00
451.39	6139.23
451.57	6274.98
451.76	6069.01
451.94	6300.72
452.13	6429.45
452.31	6331.15
452.49	6310.08
452.68	6373.28
452.86	6328.81
453.05	6289.02
453.23	6349.87
453.42	6408.39
453.60	6389.66
453.78	6565.20
453.97	6504.35
454.15	6424.77
454.34	6352.21
454.52	6656.48
454.70	6644.78
454.89	6651.80
455.07	6633.08
455.26	6794.58
455.44	6951.39
455.62	6588.61
455.81	6623.72
455.99	6778.19
456.17	6792.23
456.36	6712.66
456.54	7040.33
456.73	6986.50
456.91	7056.72
457.09	7192.47
457.28	7103.53
457.46	7075.44
457.64	7218.21
457.83	7012.24
458.01	7101.19
458.19	7250.98
458.38	7122.25
458.56	7419.50
458.74	7407.80
458.93	7234.60
459.11	7428.86
459.29	7274.38
459.48	7552.91
459.66	7351.62
459.84	7307.15
460.03	7557.59
460.21	7311.83
460.39	7653.55
460.57	7414.82
460.76	7468.65
460.94	7721.43
461.12	7632.49
461.31	7524.82
461.49	7770.58
461.67	7679.30
461.85	7686.32
462.04	7611.42
462.22	8042.08
462.40	7976.55
462.59	7831.43
462.77	7723.77
462.95	7913.35
463.13	7693.34
463.32	7957.82
463.50	8079.53
463.68	7903.99
463.86	8053.78
464.05	7955.48
464.23	7932.08
464.41	8121.66
464.59	7913.35
464.78	8065.49
464.96	8163.79
465.14	7971.86
465.32	8039.74
465.50	8280.82
465.69	8131.02
465.87	8109.96
466.05	8173.15
466.23	8313.58
466.41	8299.54
466.60	8461.04
466.78	8255.07
466.96	8168.47
467.14	8351.03
467.32	8475.08
467.51	8404.86
467.69	8257.41
467.87	8400.18
468.05	8535.93
468.23	8451.67
468.41	8435.29
468.60	8617.85
468.78	8592.11
468.96	8367.42
469.14	8659.98
469.32	8676.37
469.50	8545.30
469.69	8772.33
469.87	8781.69
470.05	8737.22
470.23	8950.21
470.41	8807.44
470.59	8910.42
470.77	8704.45
470.95	8861.27
471.14	9174.90
471.32	8840.20
471.50	9081.28
471.68	9090.64
471.86	9015.74
472.04	9242.78
472.22	9383.21
472.40	9210.01
472.58	9301.29
472.77	9369.16
472.95	9317.67
473.13	9813.87
473.31	9518.96
473.49	9563.43
473.67	9537.68
473.85	9687.48
474.03	9589.17
474.21	9699.18
474.39	10108.77
474.57	9898.13
474.75	9900.47
474.93	10136.86
475.12	10036.22
475.30	10134.52
475.48	9933.23
475.66	10183.67
475.84	10054.94
476.02	10394.32
476.20	10326.44
476.38	10630.71
476.56	10586.24
476.74	10691.57
476.92	10572.20
477.10	10527.73
477.28	10803.91
477.46	10799.23
477.64	10768.80
477.82	11253.30
478.00	11548.20
478.18	11356.28
478.36	11419.47
478.54	11496.71
478.72	11365.64
478.90	11571.61
479.08	11803.32
479.26	11915.67
479.44	11681.61
479.62	11845.45
479.80	12011.63
479.98	12149.72
480.16	12521.87
480.34	12224.62
480.52	12231.64
480.70	12308.88
480.88	12184.83
481.06	12456.33
481.24	12559.31
481.41	12678.68
481.59	12774.64
481.77	12819.11
481.95	12994.65
482.13	13123.38
482.31	13062.53
482.49	13429.99
482.67	13343.39
482.85	13687.45
483.03	13790.44
483.21	13837.25
483.39	14221.10
483.57	13975.34
483.74	13837.25
483.92	14242.16
484.10	14338.12
484.28	14352.16
484.46	14710.27
484.64	14663.46
484.82	14422.38
485.00	14682.18
485.18	15328.17
485.35	15510.73
485.53	14951.34
485.71	15089.43
485.89	15702.65
486.07	15669.89
486.25	15527.11
486.43	15597.33
486.61	15887.56
486.78	16063.10
486.96	15983.52
487.14	16290.13
487.32	16533.54
487.50	16456.31
487.68	16393.11
487.85	16524.18
488.03	16755.90
488.21	17373.80
488.39	16886.97
488.57	17371.46
488.75	17453.37
488.92	17703.81
489.10	17640.62
489.28	17736.58
489.46	17972.97
489.64	17909.78
489.81	18515.98
489.99	18321.71
490.17	18347.46
490.35	18331.08
490.53	18523.00
490.70	18888.12
490.88	18824.93
491.06	18946.64
491.24	19000.47
491.41	19246.23
491.59	19536.45
491.77	19412.40
491.95	19531.77
492.13	20018.60
492.30	19786.89
492.48	19522.41
492.66	19932.00
492.84	20128.61
493.01	20353.30
493.19	20428.20
493.37	20390.75
493.54	20643.52
493.72	20884.60
493.90	20725.44
494.08	21245.04
494.25	21130.36
494.43	21109.29
494.61	21268.45
494.79	21525.91
494.96	21612.51
495.14	21774.00
495.32	21666.34
495.49	22094.66
495.67	22059.55
495.85	22008.06
496.02	22527.66
496.20	22644.68
496.38	22368.50
496.55	22768.73
496.73	23255.56
496.91	22883.42
497.09	22871.72
497.26	23000.44
497.44	23229.82
497.62	23168.96
497.79	23653.45
497.97	23585.58
498.14	23730.69
498.32	23990.49
498.50	24093.47
498.67	23941.34
498.85	24353.27
499.03	24224.54
499.20	24577.97
499.38	24477.32
499.56	24432.85
499.73	24711.38
499.91	24793.29
500.08	24943.09
500.26	25017.99
500.44	24779.25
500.61	25411.20
500.79	25008.62
500.97	25172.46
501.14	25378.43
501.32	25343.32
501.49	25504.82
501.67	25593.76
501.84	25647.59
502.02	25972.92
502.20	25916.75
502.37	25912.07
502.55	25851.22
502.72	25993.99
502.90	26459.76
503.07	25937.82
503.25	26518.27
503.43	26405.92
503.60	26497.20
503.78	27101.06
503.95	26955.95
504.13	26801.47
504.30	27061.27
504.48	26710.19
504.65	27028.51
504.83	27325.75
505.01	27529.38
505.18	27449.80
505.36	27515.34
505.53	27328.10
505.71	27145.53
505.88	28006.85
506.06	27431.08
506.23	28292.40
506.41	27468.53
506.58	28016.21
506.76	28379.00
506.93	28449.21
507.11	28589.64
507.28	28720.71
507.46	28603.69
507.63	28655.18
507.81	29149.03
507.98	28540.49
508.16	28666.88
508.33	29111.58
508.50	29032.00
508.68	29006.26
508.85	29266.06
509.03	28994.56
509.20	29535.22
509.38	29649.91
509.55	30010.35
509.73	29673.31
509.90	29654.59
510.08	29614.80
510.25	29766.93
510.42	29893.32
510.60	29762.25
510.77	30249.08
510.95	30649.32
511.12	29928.43
511.30	30061.84
511.47	30672.72
511.64	30328.66
511.82	30728.89
511.99	30768.68
512.17	30658.68
512.34	30656.34
512.51	31124.44
512.69	31220.41
512.86	31213.38
513.04	31234.45
513.21	31271.90
513.38	31105.72
513.56	31330.41
513.73	31124.44
513.90	31653.40
514.08	31433.39
514.25	31866.39
514.43	32011.51
514.60	32079.38
514.77	31660.43
514.95	31859.37
515.12	31777.45
515.29	31854.69
515.47	32222.16
515.64	32416.42
515.81	32343.86
515.99	32510.04
516.16	32713.67
516.33	32914.95
516.51	32510.04
516.68	32758.14
516.85	32863.46
517.03	32765.16
517.20	33326.89
517.37	33029.64
517.54	32835.38
517.72	33256.67
517.89	33254.33
518.06	33474.34
518.24	33507.11
518.41	33130.28
518.58	33460.30
518.75	33806.70
518.93	33942.45
519.10	33750.52
519.27	33780.95
519.45	34125.01
519.62	33956.49
519.79	34366.09
519.96	34162.46
520.14	33935.43
520.31	34045.43
520.48	34494.82
520.65	34433.96
520.83	34541.63
521.00	34747.59
521.17	34824.83
521.34	35023.78
521.52	35040.16
521.69	34639.93
521.86	35194.64
522.03	35173.57
522.20	35152.51
522.38	35243.79
522.55	35559.76
522.72	35079.95
522.89	35196.98
523.07	35978.72
523.24	35192.30
523.41	35931.90
523.58	35192.30
523.75	35931.90
523.92	35754.02
524.10	35681.47
524.27	36123.83
524.44	35566.78
524.61	36257.24
524.78	35889.77
524.96	36353.20
525.13	36484.27
525.30	36517.04
525.47	36842.37
525.64	36229.15
525.81	36531.08
525.98	37055.36
526.16	36421.08
526.33	36692.58
526.50	37280.05
526.67	36620.02
526.84	36774.50
527.01	36823.65
527.18	37333.89
527.36	37165.37
527.53	37139.62
527.70	37699.01
527.87	37717.73
528.04	37486.02
528.21	37397.08
528.38	37167.71
528.55	38054.77
528.72	37546.87
528.89	37289.42
529.07	37614.75
529.24	37865.19
529.41	37673.26
529.58	37984.55
529.75	37710.71
529.92	37706.03
530.09	38169.46
530.26	38171.80
530.43	38319.25
530.60	37951.79
530.77	38440.96
530.94	38188.18
531.11	38515.86
531.28	38817.78
531.46	38457.34
531.63	38485.43
531.80	38672.67
531.97	38637.56
532.14	38607.14
532.31	38370.74
532.48	39199.29
532.65	39395.90
532.82	38759.27
532.99	39030.77
533.16	38705.44
533.33	39243.76
533.50	39248.44
533.67	39409.94
533.84	39187.59
534.01	39129.08
534.18	39374.83
534.35	39442.71
534.52	39332.70
534.69	39611.23
534.86	39721.23
535.03	39433.35
535.20	39517.60
535.37	39805.49
535.54	39913.16
535.71	39643.99
535.88	39807.83
536.05	39882.73
536.22	40343.81
536.38	40240.83
536.55	39966.99
536.72	39992.73
536.89	40453.82
537.06	40545.10
537.23	40432.75
537.40	39784.43
537.57	40158.91
537.74	39800.81
537.91	40531.06
538.08	40531.06
538.25	40179.98
538.42	40636.38
538.59	41088.10
538.75	40409.35
538.92	40835.33
539.09	41017.89
539.26	40781.49
539.43	40528.72
539.60	41361.95
539.77	41170.02
539.94	40968.74
540.11	41359.61
540.28	41296.41
540.44	41174.70
540.61	40900.86
540.78	41050.66
540.95	41148.96
541.12	41422.80
541.29	41371.31
541.46	41401.74
541.62	41633.45
541.79	41584.30
541.96	41191.09
542.13	41574.94
542.30	41446.21
542.47	41457.91
542.63	41614.72
542.80	41996.23
542.97	42010.28
543.14	42363.70
543.31	41991.55
543.48	42300.50
543.64	42644.56
543.81	42717.12
543.98	42155.39
544.15	42321.57
544.32	42515.83
544.48	42689.03
544.65	42714.78
544.82	42490.09
544.99	42511.15
545.16	42497.11
545.32	42361.36
545.49	43243.74
545.66	43475.45
545.83	42815.42
546.00	43110.33
546.16	43496.52
546.33	42801.38
546.50	42796.70
546.67	43473.11
546.83	42670.31
547.00	42972.24
547.17	43056.50
547.34	43215.65
547.50	43363.11
547.67	43398.21
547.84	43316.29
548.00	43356.08
548.17	44261.87
548.34	43674.40
548.51	43601.84
548.67	43349.06
548.84	43669.72
549.01	43356.08
549.18	43718.87
549.34	43796.10
549.51	43978.67
549.68	43707.16
549.84	43536.30
550.01	44069.95
550.18	43875.68
550.34	44053.56
550.51	44172.93
550.68	44325.07
550.84	43821.85
551.01	44091.01
551.18	44065.27
551.34	43725.89
551.51	44526.35
551.68	44336.77
551.84	44353.15
552.01	44184.63
552.18	44404.64
552.34	44306.34
552.51	44367.20
552.68	44208.04
552.84	44336.77
553.01	44587.21
553.18	44512.31
553.34	44626.99
553.51	44816.58
553.67	44968.71
553.84	45120.85
554.01	44751.04
554.17	44390.60
554.34	44971.05
554.51	45165.32
554.67	45022.54
554.84	45186.38
555.00	44877.43
555.17	45158.30
555.33	45256.60
555.50	45397.03
555.67	45254.26
555.83	45015.52
556.00	45008.50
556.16	46033.66
556.33	45277.66
556.50	45462.57
556.66	45734.07
556.83	45338.52
556.99	45394.69
557.16	45631.08
557.32	45598.32
557.49	45834.71
557.65	45588.95
557.82	45975.14
557.98	45507.04
558.15	45338.52
558.32	45235.53
558.48	45368.94
558.65	45738.75
558.81	45584.27
558.98	45738.75
559.14	45315.11
559.31	45722.37
559.47	45708.32
559.64	45682.58
559.80	45872.16
559.97	46127.28
560.13	45778.54
560.30	45759.81
560.46	46007.91
560.63	46031.32
560.79	46300.48
560.96	46110.89
561.12	46373.03
561.29	46277.07
561.45	46099.19
561.61	46279.41
561.78	46267.71
561.94	45584.27
562.11	46024.29
562.27	46080.47
562.44	46138.98
562.60	46164.73
562.77	46415.16
562.93	46167.07
563.10	46595.38
563.26	46129.62
563.42	46749.86
563.59	45989.19
563.75	46080.47
563.92	46454.95
564.08	46389.42
564.24	46333.24
564.41	46635.17
564.57	46597.73
564.74	46277.07
564.90	46176.43
565.07	46401.12
565.23	46389.42
565.39	46677.30
565.56	46953.49
565.72	46892.63
565.88	46742.84
566.05	46824.76
566.21	46466.66
566.38	46911.36
566.54	46768.58
566.70	46604.75
566.87	46373.03
567.03	46602.41
567.19	46586.02
567.36	46583.68
567.52	46871.57
567.68	47133.71
567.85	47035.41
568.01	46817.74
568.17	46770.93
568.34	47096.26
568.50	47019.02
568.66	46740.50
568.83	47040.09
568.99	46656.24
569.15	46824.76
569.32	47145.41
569.48	46932.42
569.64	47372.44
569.81	47107.96
569.97	47129.03
570.13	47086.90
570.30	46726.46
570.46	47049.45
570.62	47339.68
570.78	46990.94
570.95	47110.30
571.11	47412.23
571.27	46955.83
571.43	46707.73
571.60	46916.04
571.76	46595.38
571.92	46878.59
572.09	46930.08
572.25	47014.34
572.41	47082.22
572.57	47229.67
572.74	47660.33
572.90	47234.35
573.06	47695.44
573.22	47215.63
573.38	47248.39
573.55	47707.14
573.71	47896.72
573.87	47412.23
574.03	46864.55
574.20	47702.46
574.36	47246.05
574.52	47882.68
574.68	47463.72
574.84	47573.73
575.01	47213.29
575.17	47845.23
575.33	47370.10
575.49	47171.16
575.65	47522.24
575.82	47842.89
575.98	47206.26
576.14	47756.29
576.30	47569.05
576.46	47634.58
576.62	47388.83
576.79	47339.68
576.95	47360.74
577.11	47533.94
577.27	47416.91
577.43	47400.53
577.59	47131.37
577.75	47648.63
577.92	47749.27
578.08	47330.31
578.24	47402.87
578.40	47702.46
578.56	47075.19
578.72	47674.37
578.88	47746.93
579.04	47842.89
579.21	47388.83
579.37	47892.04
579.53	47941.19
579.69	47206.26
579.85	47611.18
580.01	47847.57
580.17	47409.89
580.33	47669.69
580.49	47194.56
580.65	47494.15
580.82	47447.34
580.98	46930.08
581.14	47601.82
581.30	47320.95
581.46	47578.41
581.62	47114.98
581.78	47592.45
581.94	47948.21
582.10	47264.78
582.26	47739.91
582.42	47536.28
582.58	47784.38
582.74	47990.34
582.90	47833.53
583.06	48140.14
583.22	47583.09
583.38	47667.35
583.54	47899.06
583.70	48065.24
583.86	47899.06
584.02	47608.84
584.18	48090.99
584.34	48058.22
584.50	48102.69
584.66	47887.36
584.82	47665.01
584.98	48048.86
585.14	47936.51
585.30	47580.75
585.46	47709.48
585.62	47363.08
585.78	47971.62
585.94	47538.62
586.10	47674.37
586.26	47613.52
586.42	47344.36
586.58	47859.27
586.74	47655.65
586.90	47861.61
587.06	47945.87
587.22	47948.21
587.38	47641.60
587.54	48257.17
587.70	47943.53
587.86	47791.40
588.02	47622.88
588.18	47807.78
588.34	47732.89
588.49	47875.66
588.65	47821.83
588.81	47751.61
588.97	48041.84
589.13	47681.39
589.29	48083.97
589.45	48439.73
589.61	47952.90
589.77	47990.34
589.93	48266.53
