SpectraSuite Data File
++++++++++++++++++++++++++++++++++++
Date: Fri Oct 25 11:34:26 EDT 2013
User: price-jones
Dark Spectrum Present: No
Reference Spectrum Present: No
Number of Sampled Component Spectra: 1
Spectrometers: USB2+H05261
Integration Time (usec): 100000 (USB2+H05261)
Spectra Averaged: 1 (USB2+H05261)
Boxcar Smoothing: 0 (USB2+H05261)
Correct for Electrical Dark: No (USB2+H05261)
Strobe/Lamp Enabled: No (USB2+H05261)
Correct for Detector Non-linearity: No (USB2+H05261)
Correct for Stray Light: No (USB2+H05261)
Number of Pixels in Processed Spectrum: 2048
>>>>>Begin Processed Spectral Data<<<<<
365.73	236.39
365.92	236.39
366.12	236.39
366.32	201.29
366.52	191.92
366.72	161.50
366.91	255.12
367.11	128.73
367.31	161.50
367.51	187.24
367.70	250.44
367.90	138.09
368.10	189.58
368.30	166.18
368.49	156.82
368.69	168.52
368.89	210.65
369.09	201.29
369.28	201.29
369.48	203.63
369.68	243.42
369.87	283.20
370.07	245.76
370.27	381.51
370.47	428.32
370.66	440.02
370.86	547.69
371.06	498.53
371.25	575.77
371.45	493.85
371.65	564.07
371.84	533.64
372.04	512.58
372.24	582.79
372.44	535.98
372.63	596.84
372.83	571.09
373.03	571.09
373.22	594.50
373.42	603.86
373.62	674.07
373.81	606.20
374.01	681.10
374.21	592.16
374.40	615.56
374.60	601.52
374.79	699.82
374.99	718.54
375.19	653.01
375.38	720.88
375.58	587.47
375.78	645.99
375.97	685.78
376.17	683.44
376.37	613.22
376.56	645.99
376.76	739.61
376.95	695.14
377.15	648.33
377.35	606.20
377.54	667.05
377.74	585.13
377.93	627.26
378.13	702.16
378.33	699.82
378.52	657.69
378.72	692.80
378.91	746.63
379.11	664.71
379.31	699.82
379.50	744.29
379.70	720.88
379.89	781.74
380.09	753.65
380.28	599.18
380.48	683.44
380.68	746.63
380.87	711.52
381.07	772.38
381.26	650.67
381.46	826.21
381.65	821.53
381.85	660.03
382.04	823.87
382.24	760.67
382.43	795.78
382.63	695.14
382.83	755.99
383.02	809.83
383.22	823.87
383.41	793.44
383.61	835.57
383.80	760.67
384.00	741.95
384.19	849.61
384.39	781.74
384.58	800.46
384.78	863.66
384.97	793.44
385.17	748.97
385.36	875.36
385.56	819.19
385.75	873.02
385.95	863.66
386.14	957.28
386.34	866.00
386.53	767.70
386.72	870.68
386.92	943.24
387.11	880.04
387.31	884.72
387.50	863.66
387.70	851.96
387.89	812.17
388.09	791.10
388.28	903.45
388.48	912.81
388.67	877.70
388.86	908.13
389.06	849.61
389.25	894.08
389.45	931.53
389.64	898.77
389.84	936.21
390.03	877.70
390.22	915.15
390.42	940.90
390.61	873.02
390.81	856.64
391.00	933.87
391.19	1015.79
391.39	954.94
391.58	999.41
391.78	994.73
391.97	973.66
392.16	954.94
392.36	1090.69
392.55	1027.50
392.75	994.73
392.94	1067.28
393.13	1029.84
393.33	1071.97
393.52	1107.07
393.71	1062.60
393.91	1043.88
394.10	1114.10
394.29	1018.13
394.49	1004.09
394.68	990.05
394.88	1130.48
395.07	1123.46
395.26	1102.39
395.46	1125.80
395.65	1149.20
395.84	1139.84
396.04	1226.44
396.23	1212.40
396.42	1170.27
396.62	1235.80
396.81	1167.93
397.00	1301.34
397.19	1214.74
397.39	1125.80
397.58	1240.48
397.77	1135.16
397.97	1282.61
398.16	1179.63
398.35	1308.36
398.55	1188.99
398.74	1235.80
398.93	1277.93
399.12	1341.13
399.32	1186.65
399.51	1341.13
399.70	1345.81
399.90	1256.87
400.09	1352.83
400.28	1345.81
400.47	1343.47
400.67	1380.92
400.86	1343.47
401.05	1383.26
401.24	1373.89
401.44	1399.64
401.63	1460.49
401.82	1493.26
402.01	1317.72
402.21	1441.77
402.40	1411.34
402.59	1448.79
402.78	1516.67
402.97	1418.36
403.17	1493.26
403.36	1416.02
403.55	1537.73
403.74	1497.94
403.93	1626.67
404.13	1565.82
404.32	1467.52
404.51	1589.22
404.70	1568.16
404.89	1547.09
405.09	1771.79
405.28	1666.46
405.47	1685.19
405.66	1607.95
405.85	1617.31
406.05	1640.72
406.24	1687.53
406.43	1689.87
406.62	1666.46
406.81	1762.42
407.00	1715.61
407.20	1659.44
407.39	1664.12
407.58	1722.63
407.77	1785.83
407.96	1776.47
408.15	1809.23
408.34	1760.08
408.54	1853.70
408.73	1893.49
408.92	1949.67
409.11	1912.22
409.30	1919.24
409.49	2033.93
409.68	1968.39
409.87	1907.54
410.07	1881.79
410.26	2005.84
410.45	1956.69
410.64	1998.82
410.83	2017.54
411.02	2071.37
411.21	2078.40
411.40	2057.33
411.59	2136.91
411.78	2120.53
411.98	2200.10
412.17	2092.44
412.36	2230.53
412.55	2197.76
412.74	2076.06
412.93	2342.88
413.12	2235.21
413.31	2258.62
413.50	2375.64
413.69	2305.43
413.88	2298.41
414.07	2272.66
414.26	2448.20
414.45	2483.31
414.64	2392.03
414.83	2534.80
415.02	2518.42
415.22	2513.74
415.41	2534.80
415.60	2530.12
415.79	2607.36
415.98	2691.62
416.17	2523.10
416.36	2546.50
416.55	2696.30
416.74	2689.28
416.93	2700.98
417.12	2682.25
417.31	2796.94
417.50	2750.13
417.69	2937.37
417.88	2988.86
418.07	2864.82
418.26	2918.65
418.45	2853.11
418.64	2956.10
418.83	2881.20
419.02	3005.25
419.21	2986.52
419.39	2906.95
419.58	2981.84
419.77	2956.10
419.96	3180.79
420.15	2967.80
420.34	3023.97
420.53	3066.10
420.72	3105.89
420.91	3192.49
421.10	3159.72
421.29	3152.70
421.48	3108.23
421.67	3103.55
421.86	3108.23
422.05	3220.58
422.24	3236.96
422.43	3213.56
422.61	3288.45
422.80	3379.73
422.99	3379.73
423.18	3225.26
423.37	3269.73
423.56	3300.16
423.75	3382.07
423.94	3276.75
424.13	3087.17
424.32	3183.13
424.50	3183.13
424.69	3407.82
424.88	3379.73
425.07	3236.96
425.26	3316.54
425.45	3400.80
425.64	3361.01
425.83	3325.90
426.01	3431.23
426.20	3265.05
426.39	3370.37
426.58	3410.16
426.77	3246.32
426.96	3384.41
427.15	3557.61
427.33	3389.10
427.52	3452.29
427.71	3517.83
427.90	3452.29
428.09	3496.76
428.28	3435.91
428.46	3487.40
428.65	3452.29
428.84	3637.19
429.03	3688.68
429.22	3562.30
429.40	3543.57
429.59	3698.05
429.78	3520.17
429.97	3487.40
430.16	3740.18
430.34	3705.07
430.53	3686.34
430.72	3742.52
430.91	3875.93
431.10	3768.26
431.28	3712.09
431.47	3878.27
431.66	3894.65
431.85	3831.46
432.03	3854.86
432.22	3960.19
432.41	3899.33
432.60	3955.51
432.79	3999.98
432.97	3967.21
433.16	3864.22
433.35	3894.65
433.54	3932.10
433.72	3953.16
433.91	3962.53
434.10	4189.56
434.28	3978.91
434.47	3960.19
434.66	4210.62
434.85	4283.18
435.03	4205.94
435.22	4138.07
435.41	4285.52
435.59	4304.25
435.78	4231.69
435.97	4170.83
436.16	4128.70
436.34	4257.43
436.53	4252.75
436.72	4407.23
436.90	4318.29
437.09	4353.40
437.28	4175.52
437.46	4259.78
437.65	4470.42
437.84	4442.34
438.02	4535.96
438.21	4475.10
438.40	4337.01
438.58	4519.57
438.77	4669.37
438.96	4545.32
439.14	4748.95
439.33	4557.02
439.52	4709.16
439.70	4821.50
439.89	4875.34
440.08	4844.91
440.26	4760.65
440.45	4868.31
440.63	4800.44
440.82	5006.41
441.01	4961.94
441.19	5137.48
441.38	4987.68
441.57	4873.00
441.75	5095.35
441.94	5207.69
442.12	5259.18
442.31	5336.42
442.50	5343.44
442.68	5203.01
442.87	5240.46
443.05	5336.42
443.24	5380.89
443.43	5357.49
443.61	5331.74
443.80	5479.19
443.98	5203.01
444.17	5043.85
444.35	5284.93
444.54	5432.38
444.73	5416.00
444.91	5313.02
445.10	5434.72
445.28	5516.64
445.47	5383.23
445.65	5446.43
445.84	5336.42
446.02	5591.54
446.21	5523.66
446.39	5387.91
446.58	5455.79
446.77	5628.99
446.95	5462.81
447.14	5467.49
447.32	5640.69
447.51	5589.20
447.69	5558.77
447.88	5603.24
448.06	5673.46
448.25	5607.92
448.43	5558.77
448.62	5589.20
448.80	5792.83
448.99	5544.73
449.17	5724.95
449.36	5750.70
449.54	5636.01
449.73	5753.04
449.91	5872.40
450.10	5781.12
450.28	5870.06
450.46	5867.72
450.65	5689.84
450.83	5921.56
451.02	5743.67
451.20	5895.81
451.39	5921.56
451.57	6066.67
451.76	5902.83
451.94	6122.84
452.13	5973.05
452.31	5926.24
452.49	5930.92
452.68	6059.65
452.86	6094.76
453.05	6064.33
453.23	6232.85
453.42	6092.41
453.60	6031.56
453.78	6214.12
453.97	6136.88
454.15	6167.31
454.34	6057.31
454.52	6307.74
454.70	6382.64
454.89	6396.68
455.07	6193.06
455.26	6480.94
455.44	6303.06
455.62	6483.28
455.81	6665.85
455.99	6530.09
456.17	6541.80
456.36	6455.20
456.54	6436.47
456.73	6628.40
456.91	6862.45
457.09	6846.07
457.28	6881.18
457.46	6717.34
457.64	6820.32
457.83	6864.79
458.01	6853.09
458.19	6836.70
458.38	6771.17
458.56	6820.32
458.74	6930.33
458.93	6885.86
459.11	7047.35
459.29	7124.59
459.48	6958.41
459.66	6883.52
459.84	6885.86
460.03	7241.62
460.21	7208.85
460.39	7162.04
460.57	7026.29
460.76	7281.41
460.94	7208.85
461.12	7148.00
461.31	7276.73
461.49	7070.76
461.67	7358.64
461.85	7332.90
462.04	7311.83
462.22	7751.85
462.40	7541.21
462.59	7585.68
462.77	7309.49
462.95	7522.48
463.13	7557.59
463.32	7541.21
463.50	7630.15
463.68	7730.79
463.86	7709.72
464.05	7688.66
464.23	7644.19
464.41	7686.32
464.59	7637.17
464.78	7749.51
464.96	7655.89
465.14	7588.02
465.32	7742.49
465.50	7761.22
465.69	7786.96
465.87	7728.45
466.05	7845.48
466.23	7899.31
466.41	7878.24
466.60	8032.72
466.78	7826.75
466.96	8056.12
467.14	7861.86
467.32	7911.01
467.51	8107.62
467.69	7915.69
467.87	8013.99
468.05	7953.14
468.23	8058.46
468.41	8131.02
468.60	8170.81
468.78	8079.53
468.96	8166.13
469.14	8376.78
469.32	8278.47
469.50	8084.21
469.69	8308.90
469.87	8344.01
470.05	8369.76
470.23	8287.84
470.41	8535.93
470.59	8533.59
470.77	8444.65
470.95	8304.22
471.14	8713.81
471.32	8465.72
471.50	8634.24
471.68	8683.39
471.86	8762.97
472.04	8643.60
472.22	8985.32
472.40	8564.02
472.58	8805.10
472.77	8755.94
472.95	9195.96
473.13	9130.43
473.31	9280.22
473.49	9097.66
473.67	9062.55
473.85	9198.31
474.03	9228.73
474.21	9453.42
474.39	9525.98
474.57	9252.14
474.75	9481.51
474.93	9542.36
475.12	9706.20
475.30	9572.79
475.48	9493.21
475.66	9741.31
475.84	9727.27
476.02	9708.54
476.20	9774.08
476.38	9928.55
476.56	10146.22
476.74	9975.36
476.92	10026.86
477.10	9989.41
477.28	10218.78
477.46	10211.76
477.64	10473.90
477.82	10609.65
478.00	10876.47
478.18	10686.89
478.36	10586.24
478.54	10939.66
478.72	10768.80
478.90	10778.17
479.08	11143.29
479.26	11138.61
479.44	11260.32
479.62	11300.11
479.80	11499.05
479.98	11442.88
480.16	11899.28
480.34	11747.15
480.52	11763.53
480.70	11737.79
480.88	11693.32
481.06	11754.17
481.24	11939.07
481.41	12196.53
481.59	12138.02
481.77	12292.49
481.95	12369.73
482.13	12592.08
482.31	12540.59
482.49	13034.44
482.67	12655.28
482.85	12697.41
483.03	13011.04
483.21	13256.79
483.39	13062.53
483.57	13050.83
483.74	13369.14
483.92	13406.59
484.10	13359.78
484.28	13540.00
484.46	14001.08
484.64	13865.33
484.82	13771.71
485.00	13982.36
485.18	14356.85
485.35	14583.88
485.53	14253.86
485.71	14335.78
485.89	14824.95
486.07	14609.62
486.25	14820.27
486.43	14916.23
486.61	14820.27
486.78	15185.40
486.96	15204.12
487.14	15585.63
487.32	15548.18
487.50	15599.67
487.68	15618.39
487.85	15756.49
488.03	15889.90
488.21	16404.81
488.39	16437.58
488.57	16484.39
488.75	16587.38
488.92	16816.75
489.10	16875.26
489.28	16908.03
489.46	17359.75
489.64	16673.98
489.81	17352.73
489.99	17565.72
490.17	17493.16
490.35	17748.28
490.53	17710.83
490.70	18012.76
490.88	17572.74
491.06	18251.50
491.24	18176.60
491.41	18263.20
491.59	18766.42
491.77	18483.21
491.95	18618.96
492.13	18766.42
492.30	18927.91
492.48	18750.03
492.66	18707.90
492.84	18871.74
493.01	19321.12
493.19	19267.29
493.37	19674.54
493.54	19711.99
493.72	19793.91
493.90	19627.73
494.08	19941.36
494.25	19999.88
494.43	19999.88
494.61	20226.91
494.79	20451.60
494.96	20648.21
495.14	20585.01
495.32	21008.65
495.49	20699.70
495.67	20996.95
495.85	21106.95
496.02	21312.92
496.20	21212.28
496.38	21345.69
496.55	21331.64
496.73	21811.45
496.91	21603.14
497.09	21797.41
497.26	22019.76
497.44	21869.97
497.62	22169.55
497.79	22185.94
497.97	22349.78
498.14	22462.12
498.32	22773.41
498.50	22967.68
498.67	22960.66
498.85	22419.99
499.03	22834.27
499.20	22878.74
499.38	22841.29
499.56	23426.42
499.73	23171.30
499.91	23435.78
500.08	23630.05
500.26	23449.83
500.44	23583.24
500.61	23922.62
500.79	24046.66
500.97	24086.45
501.14	24205.82
501.32	24484.34
501.49	23854.74
501.67	24247.95
501.84	24554.56
502.02	24409.45
502.20	24250.29
502.37	24364.98
502.55	24467.96
502.72	24936.07
502.90	24830.74
503.07	24713.72
503.25	25188.85
503.43	24868.19
503.60	25097.56
503.78	25240.34
503.95	25488.43
504.13	25120.97
504.30	25273.10
504.48	25415.88
504.65	25724.83
504.83	25832.49
505.01	25928.45
505.18	25909.73
505.36	26441.03
505.53	25727.17
505.71	26111.02
505.88	26445.71
506.06	26309.96
506.23	26085.27
506.41	26368.48
506.58	26359.11
506.76	26445.71
506.93	26801.47
507.11	26810.84
507.28	26771.05
507.46	26728.92
507.63	26829.56
507.81	26932.54
507.98	27367.88
508.16	27503.64
508.33	27580.87
508.50	27576.19
508.68	27845.35
508.85	28004.51
509.03	27843.01
509.20	27611.30
509.38	27920.25
509.55	28088.77
509.73	27915.57
509.90	27955.36
510.08	28283.03
510.25	28278.35
510.42	28528.79
510.60	28577.94
510.77	28435.17
510.95	28709.01
511.12	28699.65
511.30	28781.57
511.47	28870.51
511.64	28732.42
511.82	28987.53
511.99	29097.54
512.17	28989.88
512.34	28959.45
512.51	29223.93
512.69	29605.44
512.86	29273.08
513.04	29764.59
513.21	29970.56
513.38	29635.86
513.56	29642.88
513.73	29890.98
513.90	29834.81
514.08	30040.78
514.25	30139.08
514.43	30150.78
514.60	30504.20
514.77	30398.88
514.95	30433.99
515.12	30253.76
515.29	30181.21
515.47	30569.74
515.64	30930.18
515.81	30672.72
515.99	30888.05
516.16	31222.75
516.33	30611.87
516.51	31063.59
516.68	31285.94
516.85	31253.17
517.03	31480.21
517.20	31016.78
517.37	31211.04
517.54	31585.53
517.72	31239.13
517.89	31344.45
518.06	31431.05
518.24	31679.15
518.41	31735.32
518.58	31948.31
518.75	31833.63
518.93	31934.27
519.10	32140.24
519.27	31873.42
519.45	32154.28
519.62	32222.16
519.79	32187.05
519.96	32224.50
520.14	31941.29
520.31	32226.84
520.48	32528.77
520.65	32212.79
520.83	33233.27
521.00	33057.73
521.17	32769.84
521.34	32706.65
521.52	33106.88
521.69	32769.84
521.86	33039.00
522.03	33766.91
522.20	33200.50
522.38	33734.14
522.55	33579.67
522.72	33607.75
522.89	33436.89
523.07	34040.75
523.24	33778.61
523.41	34192.89
523.58	33659.24
523.75	33797.34
523.92	33689.67
524.10	34171.82
524.27	34274.80
524.44	34096.92
524.61	34202.25
524.78	34309.91
524.96	34656.31
525.13	34672.70
525.30	34749.93
525.47	34719.51
525.64	34340.34
525.81	34890.37
525.98	34588.44
526.16	34742.91
526.33	34951.22
526.50	35278.89
526.67	34969.94
526.84	35012.07
527.01	34824.83
527.18	35274.21
527.36	34991.01
527.53	35021.44
527.70	35924.88
527.87	35681.47
528.04	35501.25
528.21	35304.64
528.38	35665.08
528.55	35997.44
528.72	35412.31
528.89	35541.03
529.07	35667.42
529.24	35435.71
529.41	35697.85
529.58	35639.34
529.75	35566.78
529.92	36144.89
530.09	36308.73
530.26	36315.75
530.43	36355.54
530.60	35665.08
530.77	36070.00
530.94	36488.95
531.11	36194.04
531.28	36002.12
531.46	36252.56
531.63	36503.00
531.80	36460.87
531.97	36912.59
532.14	36723.01
532.31	36378.95
532.48	36629.38
532.65	36800.24
532.82	36650.45
532.99	37130.26
533.16	37223.88
533.33	37170.05
533.50	37368.99
533.67	36999.19
533.84	36739.39
534.01	37038.98
534.18	37219.20
534.35	37818.38
534.52	37221.54
534.69	37923.70
534.86	37638.15
535.03	37663.90
535.20	37736.46
535.37	38000.94
535.54	37804.33
535.71	37773.91
535.88	38328.61
536.05	37383.04
536.22	37940.08
536.38	37998.60
536.55	38052.43
536.72	38281.80
536.89	37832.42
537.06	38122.65
537.23	38309.89
537.40	38291.16
537.57	38003.28
537.74	37762.20
537.91	38382.45
538.08	38401.17
538.25	38508.83
538.42	38677.35
538.59	38675.01
538.75	38548.62
538.92	38330.95
539.09	38721.82
539.26	38628.20
539.43	38824.81
539.60	38948.85
539.77	38962.90
539.94	38930.13
540.11	38883.32
540.28	38838.85
540.44	39044.82
540.61	39201.63
540.78	39318.66
540.95	38836.51
541.12	38689.06
541.29	39330.36
541.46	39693.15
541.62	39744.64
541.79	39583.14
541.96	39187.59
542.13	39543.35
542.30	39419.30
542.47	39761.02
542.63	39356.11
542.80	39833.58
542.97	40254.87
543.14	40526.38
543.31	39849.96
543.48	40191.68
543.64	40563.82
543.81	40395.31
543.98	40175.30
544.15	40105.08
544.32	40177.64
544.48	40556.80
544.65	40451.48
544.82	40402.33
544.99	39992.73
545.16	40430.41
545.32	40718.30
545.49	40414.03
545.66	40973.42
545.83	40830.65
546.00	40734.68
546.16	40854.05
546.33	40828.30
546.50	40751.07
546.67	41041.29
546.83	40622.34
547.00	40907.88
547.17	41104.49
547.34	40940.65
547.50	41209.81
547.67	41717.71
547.84	41258.96
548.00	41254.28
548.17	41581.96
548.34	41251.94
548.51	41289.39
548.67	41537.49
548.84	41057.68
549.01	41713.03
549.18	41689.62
549.34	41542.17
549.51	41483.66
549.68	41656.85
549.84	41532.81
550.01	41720.05
550.18	41469.61
550.34	41825.37
550.51	41734.09
550.68	41911.97
550.84	41640.47
551.01	42176.45
551.18	41808.99
551.34	41853.46
551.51	41731.75
551.68	41998.57
551.84	41954.10
552.01	41603.02
552.18	42260.71
552.34	41965.81
552.51	41935.38
552.68	42181.13
552.84	42270.08
553.01	42557.96
553.18	42361.36
553.34	42820.10
553.51	42005.59
553.67	42848.19
553.84	42717.12
554.01	42689.03
554.17	42541.58
554.34	43133.73
554.51	42581.37
554.67	42756.91
554.84	42923.08
555.00	42579.03
555.17	42794.36
555.33	43012.02
555.50	43016.71
555.67	43194.59
555.83	42658.60
556.00	43271.82
556.16	43079.90
556.33	43206.29
556.50	43063.52
556.66	43091.60
556.83	42845.85
556.99	43353.74
557.16	43653.33
557.32	43320.98
557.49	43473.11
557.65	42864.57
557.82	43257.78
557.98	43215.65
558.15	43021.39
558.32	43737.59
558.48	43243.74
558.65	43545.67
558.81	43363.11
558.98	43423.96
559.14	43082.24
559.31	43461.41
559.47	43335.02
559.64	43594.82
559.80	43592.48
559.97	43482.47
560.13	43707.16
560.30	44123.78
560.46	43976.33
560.63	43613.54
560.79	43356.08
560.96	44126.12
561.12	43880.36
561.29	44002.07
561.45	44016.11
561.61	43688.44
561.78	43725.89
561.94	43545.67
562.11	43498.86
562.27	43718.87
562.44	44109.74
562.60	43702.48
562.77	43608.86
562.93	43908.45
563.10	44561.46
563.26	43714.19
563.42	44350.81
563.59	44289.96
563.75	44037.18
563.92	43835.89
564.08	44266.55
564.24	44046.54
564.41	44318.04
564.57	44442.09
564.74	44105.06
564.90	44123.78
565.07	44006.75
565.23	44069.95
565.39	44182.29
565.56	44002.07
565.72	44287.62
565.88	44306.34
566.05	44121.44
566.21	44154.21
566.38	44584.86
566.54	44381.24
566.70	44318.04
566.87	44573.16
567.03	44357.83
567.19	44360.17
567.36	44626.99
567.52	44659.76
567.68	45085.74
567.85	44624.65
568.01	44587.21
568.17	44559.12
568.34	44320.38
568.50	44659.76
568.66	44243.15
568.83	44655.08
568.99	44306.34
569.15	44847.00
569.32	44727.64
569.48	45144.25
569.64	44664.44
569.81	44989.78
569.97	44594.23
570.13	45226.17
570.30	44830.62
570.46	44903.18
570.62	44786.15
570.78	44912.54
570.95	44643.38
571.11	44980.42
571.27	44865.73
571.43	44767.43
571.60	44786.15
571.76	44582.52
571.92	44622.31
572.09	44694.87
572.25	44673.81
572.41	45151.27
572.57	44381.24
572.74	44715.93
572.90	45050.63
573.06	45514.06
573.22	45095.10
573.38	44910.20
573.55	45123.19
573.71	45415.76
573.87	44898.50
574.03	44793.17
574.20	45111.49
574.36	45116.17
574.52	45148.93
574.68	45296.39
574.84	45160.64
575.01	45029.57
575.17	45397.03
575.33	45464.91
575.49	44877.43
575.65	45212.13
575.82	45298.73
575.98	45265.96
576.14	45539.80
576.30	45624.06
576.46	45415.76
576.62	45254.26
576.79	45282.34
576.95	45181.70
577.11	44687.85
577.27	45024.89
577.43	45062.33
577.59	45085.74
577.75	45116.17
577.92	44198.68
578.08	45191.06
578.24	45305.75
578.40	45574.91
578.56	45530.44
578.72	45109.14
578.88	45766.84
579.04	45507.04
579.21	45151.27
579.37	45717.68
579.53	45539.80
579.69	44886.79
579.85	45130.21
580.01	45464.91
580.17	45359.58
580.33	45474.27
580.49	45411.07
580.65	45642.79
580.82	44910.20
580.98	45118.51
581.14	44800.19
581.30	45703.64
581.46	45483.63
581.62	45598.32
581.78	45160.64
581.94	45666.19
582.10	45427.46
582.26	45179.36
582.42	45310.43
582.58	45432.14
582.74	45673.21
582.90	45502.35
583.06	45368.94
583.22	45373.63
583.38	45757.47
583.54	45794.92
583.70	45429.80
583.86	45790.24
584.02	45450.86
584.18	46136.64
584.34	45677.90
584.50	45294.05
584.66	46068.76
584.82	45759.81
584.98	45691.94
585.14	45572.57
585.30	45350.22
585.46	45399.37
585.62	45516.40
585.78	45598.32
585.94	45600.66
586.10	45514.06
586.26	45612.36
586.42	45256.60
586.58	45549.17
586.74	45921.31
586.90	45268.30
587.06	45551.51
587.22	45659.17
587.38	45738.75
587.54	45799.60
587.70	45708.32
587.86	45813.65
588.02	45116.17
588.18	45415.76
588.34	45670.87
588.49	45832.37
588.65	45504.70
588.81	45734.07
588.97	45413.41
589.13	45317.45
589.29	46050.04
589.45	45858.12
589.61	46085.15
589.77	45970.46
589.93	45977.48
590.08	45893.22
