SpectraSuite Data File
++++++++++++++++++++++++++++++++++++
Date: Fri Oct 25 10:43:15 EDT 2013
User: price-jones
Dark Spectrum Present: No
Reference Spectrum Present: No
Number of Sampled Component Spectra: 1
Spectrometers: USB2+H05261
Integration Time (usec): 100000 (USB2+H05261)
Spectra Averaged: 1 (USB2+H05261)
Boxcar Smoothing: 0 (USB2+H05261)
Correct for Electrical Dark: No (USB2+H05261)
Strobe/Lamp Enabled: No (USB2+H05261)
Correct for Detector Non-linearity: No (USB2+H05261)
Correct for Stray Light: No (USB2+H05261)
Number of Pixels in Processed Spectrum: 2048
>>>>>Begin Processed Spectral Data<<<<<
365.73	147.45
365.92	147.45
366.12	147.45
366.32	44.47
366.52	9.36
366.72	81.92
366.91	0.00
367.11	0.00
367.31	110.01
367.51	39.79
367.70	37.45
367.90	0.00
368.10	0.00
368.30	0.00
368.49	42.13
368.69	100.64
368.89	28.09
369.09	65.54
369.28	46.81
369.48	35.11
369.68	98.30
369.87	39.79
370.07	25.75
370.27	177.88
370.47	243.42
370.66	351.08
370.86	362.78
371.06	437.68
371.25	465.77
371.45	425.98
371.65	456.40
371.84	440.02
372.04	409.59
372.24	418.96
372.44	554.71
372.63	510.24
372.83	571.09
373.03	493.85
373.22	498.53
373.42	468.11
373.62	587.47
373.81	585.13
374.01	535.98
374.21	594.50
374.40	543.00
374.60	540.66
374.79	599.18
374.99	564.07
375.19	573.43
375.38	667.05
375.58	566.41
375.78	603.86
375.97	571.09
376.17	713.86
376.37	613.22
376.56	599.18
376.76	613.22
376.95	638.97
377.15	554.71
377.35	613.22
377.54	674.07
377.74	664.71
377.93	580.45
378.13	695.14
378.33	657.69
378.52	664.71
378.72	629.60
378.91	723.23
379.11	650.67
379.31	585.13
379.50	594.50
379.70	795.78
379.89	734.93
380.09	580.45
380.28	650.67
380.48	744.29
380.68	741.95
380.87	702.16
381.07	718.54
381.26	706.84
381.46	683.44
381.65	730.25
381.85	671.73
382.04	779.40
382.24	685.78
382.43	723.23
382.63	664.71
382.83	727.91
383.02	786.42
383.22	760.67
383.41	706.84
383.61	692.80
383.80	741.95
384.00	720.88
384.19	744.29
384.39	779.40
384.58	791.10
384.78	812.17
384.97	807.48
385.17	774.72
385.36	809.83
385.56	844.93
385.75	842.59
385.95	835.57
386.14	896.43
386.34	837.91
386.53	868.34
386.72	830.89
386.92	889.40
387.11	842.59
387.31	814.51
387.50	812.17
387.70	826.21
387.89	809.83
388.09	884.72
388.28	917.49
388.48	931.53
388.67	950.26
388.86	873.02
389.06	889.40
389.25	966.64
389.45	957.28
389.64	997.07
389.84	1008.77
390.03	1025.15
390.22	957.28
390.42	1043.88
390.61	976.00
390.81	985.37
391.00	973.66
391.19	1128.14
391.39	987.71
391.58	1109.41
391.78	1036.86
391.97	1036.86
392.16	919.83
392.36	947.92
392.55	997.07
392.75	966.64
392.94	1006.43
393.13	1055.58
393.33	931.53
393.52	1069.62
393.71	1142.18
393.91	1128.14
394.10	1107.07
394.29	1210.06
394.49	1139.84
394.68	1179.63
394.88	1217.08
395.07	1313.04
395.26	1132.82
395.46	1184.31
395.65	1280.27
395.84	1306.02
396.04	1322.40
396.23	1256.87
396.42	1088.35
396.62	1165.59
396.81	1259.21
397.00	1191.33
397.19	1350.49
397.39	1235.80
397.58	1228.78
397.77	1411.34
397.97	1516.67
398.16	1476.88
398.35	1589.22
398.55	1369.21
398.74	1453.47
398.93	1509.65
399.12	1530.71
399.32	1490.92
399.51	1540.07
399.70	1565.82
399.90	1603.27
400.09	1605.61
400.28	1556.46
400.47	1610.29
400.67	1703.91
400.86	1612.63
401.05	1727.32
401.24	1600.93
401.44	1563.48
401.63	1743.70
401.82	1750.72
402.01	1699.23
402.21	1671.14
402.40	1764.76
402.59	1729.66
402.78	1851.36
402.97	1832.64
403.17	1774.13
403.36	1720.29
403.55	1877.11
403.74	1898.17
403.93	1849.02
404.13	1900.52
404.32	1818.60
404.51	1809.23
404.70	1806.89
404.89	1844.34
405.09	1867.75
405.28	1996.48
405.47	2012.86
405.66	2080.74
405.85	2031.58
406.05	1968.39
406.24	2017.54
406.43	1970.73
406.62	2036.27
406.81	2085.42
407.00	2022.22
407.20	2146.27
407.39	2045.63
407.58	2218.83
407.77	2228.19
407.96	2113.50
408.15	2179.04
408.34	2197.76
408.54	2228.19
408.73	2242.23
408.92	2209.47
409.11	2284.36
409.30	2326.49
409.49	2401.39
409.68	2291.38
409.87	2242.23
410.07	2289.04
410.26	2338.20
410.45	2382.67
410.64	2417.77
410.83	2396.71
411.02	2445.86
411.21	2642.46
411.40	2572.25
411.59	2574.59
411.78	2679.91
411.98	2612.04
412.17	2630.76
412.36	2820.35
412.55	2740.77
412.74	2794.60
412.93	2782.90
413.12	2794.60
413.31	2911.63
413.50	2904.60
413.69	2928.01
413.88	2899.92
414.07	2960.78
414.26	2897.58
414.45	2897.58
414.64	2951.42
414.83	3068.44
415.02	3052.06
415.22	3126.96
415.41	3016.95
415.60	3087.17
415.79	3220.58
415.98	3169.09
416.17	3342.28
416.36	3253.34
416.55	3276.75
416.74	3213.56
416.93	3379.73
417.12	3428.88
417.31	3361.01
417.50	3419.52
417.69	3417.18
417.88	3478.04
418.07	3501.44
418.26	3494.42
418.45	3529.53
418.64	3545.91
418.83	3618.47
419.02	3620.81
419.21	3517.83
419.39	3454.63
419.58	3576.34
419.77	3522.51
419.96	3632.51
420.15	3768.26
420.34	3616.13
420.53	3747.20
420.72	3779.97
420.91	3815.07
421.10	3693.37
421.29	3861.88
421.48	3723.79
421.67	3852.52
421.86	3744.86
422.05	3747.20
422.24	3763.58
422.43	3796.35
422.61	3838.48
422.80	3988.27
422.99	3913.38
423.18	3901.67
423.37	3953.16
423.56	3908.69
423.75	3784.65
423.94	3892.31
424.13	3691.02
424.32	3918.06
424.50	4051.47
424.69	4009.34
424.88	3988.27
425.07	3878.27
425.26	3840.82
425.45	3957.85
425.64	3976.57
425.83	3974.23
426.01	3988.27
426.20	4004.66
426.39	4072.53
426.58	3957.85
426.77	4028.06
426.96	3990.61
427.15	3978.91
427.33	3983.59
427.52	4131.05
427.71	4152.11
427.90	4196.58
428.09	4234.03
428.28	4201.26
428.46	4117.00
428.65	4133.39
428.84	4147.43
429.03	4252.75
429.22	4124.02
429.40	4273.82
429.59	4264.46
429.78	3974.23
429.97	4025.72
430.16	4025.72
430.34	4053.81
430.53	4222.33
430.72	4259.78
430.91	4236.37
431.10	4334.67
431.28	4559.36
431.47	4746.61
431.66	4774.69
431.85	4589.79
432.03	4596.81
432.22	4592.13
432.41	4753.63
432.60	4636.60
432.79	4697.46
432.97	4718.52
433.16	4816.82
433.35	4578.09
433.54	4720.86
433.72	4631.92
433.91	4755.97
434.10	4802.78
434.28	4915.12
434.47	4896.40
434.66	4798.10
434.85	4945.55
435.03	4812.14
435.22	4865.97
435.41	5123.43
435.59	5114.07
435.78	5231.10
435.97	5060.24
436.16	5170.24
436.34	5137.48
436.53	5207.69
436.72	5308.34
436.90	5043.85
437.09	5247.48
437.28	5041.51
437.46	5093.01
437.65	5125.77
437.84	5212.37
438.02	5210.03
438.21	5296.63
438.40	5207.69
438.58	5430.04
438.77	5460.47
438.96	5343.44
439.14	5465.15
439.33	5586.86
439.52	5568.13
439.70	5708.57
439.89	5647.71
440.08	5741.33
440.26	5874.74
440.45	5771.76
440.63	5806.87
440.82	5849.00
441.01	5921.56
441.19	6066.67
441.38	6171.99
441.57	6043.26
441.75	6162.63
441.94	6431.79
442.12	6370.94
442.31	6462.22
442.50	6333.49
442.68	6256.25
442.87	6356.90
443.05	6340.51
443.24	6218.80
443.43	6324.13
443.61	6352.21
443.80	6649.46
443.98	6296.04
444.17	6054.97
444.35	6497.33
444.54	6612.01
444.73	6497.33
444.91	6588.61
445.10	6424.77
445.28	6480.94
445.47	6328.81
445.65	6420.09
445.84	6473.92
446.02	6541.80
446.21	6455.20
446.39	6480.94
446.58	6525.41
446.77	6640.10
446.95	6736.06
447.14	6675.21
447.32	6691.59
447.51	6651.80
447.69	6665.85
447.88	6644.78
448.06	6773.51
448.25	6843.73
448.43	6656.48
448.62	6738.40
448.80	6637.76
448.99	6677.55
449.17	6834.36
449.36	6794.58
449.54	6913.94
449.73	7080.12
449.91	7126.93
450.10	7218.21
450.28	7255.66
450.46	7234.60
450.65	7143.32
450.83	7204.17
451.02	7253.32
451.20	7351.62
451.39	7260.34
451.57	7314.17
451.76	7222.89
451.94	7346.94
452.13	7155.02
452.31	7279.07
452.49	7049.69
452.68	7267.36
452.86	7101.19
453.05	7461.63
453.23	7372.69
453.42	7335.24
453.60	7349.28
453.78	7452.27
453.97	7325.88
454.15	7386.73
454.34	7447.58
454.52	7531.84
454.70	7431.20
454.89	7555.25
455.07	7616.10
455.26	7637.17
455.44	7616.10
455.62	7606.74
455.81	7955.48
455.99	7754.19
456.17	7758.88
456.36	7796.32
456.54	7801.01
456.73	7934.42
456.91	8194.22
457.09	8018.68
457.28	8086.55
457.46	8067.83
457.64	8107.62
457.83	8112.30
458.01	8140.38
458.19	8271.45
458.38	8229.32
458.56	8105.28
458.74	8100.59
458.93	8461.04
459.11	8334.65
459.29	8322.94
459.48	8341.67
459.66	8088.89
459.84	8489.12
460.03	8521.89
460.21	8423.59
460.39	8479.76
460.57	8662.32
460.76	8615.51
460.94	8446.99
461.12	8578.06
461.31	8877.65
461.49	8772.33
461.67	8568.70
461.85	8884.67
462.04	8681.05
462.22	9198.31
462.40	8980.64
462.59	8999.36
462.77	8905.74
462.95	8973.61
463.13	8788.71
463.32	8887.01
463.50	8966.59
463.68	9015.74
463.86	9125.75
464.05	8847.22
464.23	8982.98
464.41	9146.81
464.59	8964.25
464.78	9020.42
464.96	9074.26
465.14	8922.12
465.32	9207.67
465.50	9263.84
465.69	9359.80
465.87	9277.88
466.05	9160.86
466.23	9151.49
466.41	9315.33
466.60	9259.16
466.78	9245.12
466.96	9359.80
467.14	9373.85
467.32	9343.42
467.51	9460.45
467.69	9210.01
467.87	9586.83
468.05	9598.54
468.23	9364.48
468.41	9348.10
468.60	9540.02
468.78	9530.66
468.96	9523.64
469.14	9671.09
469.32	9799.82
469.50	9315.33
469.69	9563.43
469.87	9839.61
470.05	9652.37
470.23	9975.36
470.41	9891.10
470.59	10031.54
470.77	9692.16
470.95	9891.10
471.14	10352.19
471.32	9877.06
471.50	10188.35
471.68	10331.12
471.86	10272.61
472.04	10258.57
472.22	10471.56
472.40	10373.25
472.58	10445.81
472.77	10462.19
472.95	10375.59
473.13	10764.12
473.31	10635.39
473.49	10600.29
473.67	10593.26
473.85	10991.16
474.03	10904.56
474.21	11150.31
474.39	11124.57
474.57	11222.87
474.75	11190.10
474.93	11297.77
475.12	11077.76
475.30	11339.90
475.48	11234.57
475.66	11403.09
475.84	11405.43
476.02	11328.19
476.20	11389.05
476.38	11592.67
476.56	11815.02
476.74	11927.37
476.92	11534.16
477.10	11712.04
477.28	12276.11
477.46	12173.13
477.64	12114.61
477.82	12472.71
478.00	12592.08
478.18	12819.11
478.36	12585.06
478.54	12727.83
478.72	12725.49
478.90	12823.80
479.08	13071.89
479.26	13177.22
479.44	13020.40
479.62	13142.11
479.80	13535.32
479.98	13626.60
480.16	13544.68
480.34	13441.70
480.52	13598.51
480.70	13628.94
480.88	13455.74
481.06	13839.59
481.24	14174.28
481.41	14113.43
481.59	14492.60
481.77	14546.43
481.95	14572.18
482.13	15068.37
482.31	14443.45
482.49	14752.40
482.67	14831.97
482.85	15091.77
483.03	15611.37
483.21	15393.70
483.39	15318.81
483.57	15517.75
483.74	15152.63
483.92	15503.71
484.10	15510.73
484.28	16060.76
484.46	16116.93
484.64	16248.00
484.82	16025.65
485.00	16091.18
485.18	16409.50
485.35	16409.50
485.53	16301.83
485.71	16093.52
485.89	16533.54
486.07	16505.46
486.25	16685.68
486.43	16973.56
486.61	17069.53
486.78	17249.75
486.96	17137.40
487.14	17568.06
487.32	17872.33
487.50	18150.85
487.68	18061.91
487.85	18340.44
488.03	18572.15
488.21	18511.30
488.39	18499.59
488.57	18801.52
488.75	18696.20
488.92	19241.54
489.10	19393.68
489.28	19470.92
489.46	19768.16
489.64	19777.53
489.81	19983.49
489.99	20173.08
490.17	20027.96
490.35	20236.27
490.53	20304.15
490.70	20402.45
490.88	20315.85
491.06	20968.86
491.24	20746.51
491.41	20699.70
491.59	20746.51
491.77	20865.88
491.95	21113.97
492.13	21249.72
492.30	21270.79
492.48	21806.77
492.66	21652.30
492.84	21589.10
493.01	22279.56
493.19	22155.51
493.37	22073.59
493.54	22111.04
493.72	22867.03
493.90	22621.28
494.08	22684.47
494.25	23164.28
494.43	23229.82
494.61	23594.94
494.79	23782.18
494.96	23180.67
495.14	23353.87
495.32	23391.31
495.49	23828.99
495.67	23461.53
495.85	24072.41
496.02	24051.34
496.20	23995.17
496.38	24444.56
496.55	24449.24
496.73	25043.73
496.91	24510.09
497.09	24856.49
497.26	25338.64
497.44	25247.36
497.62	24954.79
497.79	25516.52
497.97	25090.54
498.14	25418.22
498.32	25694.40
498.50	25736.53
498.67	25881.64
498.85	26150.81
499.03	26211.66
499.20	26218.68
499.38	26103.99
499.56	26064.21
499.73	26621.25
499.91	26714.87
500.08	26368.48
500.26	26389.54
500.44	26490.18
500.61	26689.13
500.79	26382.52
500.97	26717.22
501.14	26857.65
501.32	27089.36
501.49	27098.72
501.67	27325.75
501.84	27648.75
502.02	27391.29
502.20	27356.18
502.37	27510.66
502.55	28004.51
502.72	27763.43
502.90	28187.07
503.07	28025.57
503.25	28056.00
503.43	28109.83
503.60	28058.34
503.78	27995.15
503.95	28404.74
504.13	28327.50
504.30	28676.24
504.48	28701.99
504.65	28893.91
504.83	28893.91
505.01	28753.48
505.18	29191.16
505.36	29710.76
505.53	29214.57
505.71	29898.00
505.88	29631.18
506.06	29542.24
506.23	29883.96
506.41	29514.16
506.58	29572.67
506.76	30071.20
506.93	30075.88
507.11	30052.48
507.28	29628.84
507.46	29743.53
507.63	29729.48
507.81	30103.97
507.98	30267.81
508.16	29991.62
508.33	30225.68
508.50	30412.92
508.68	30724.21
508.85	31316.37
509.03	30995.71
509.20	31012.10
509.38	31033.16
509.55	31112.74
509.73	31353.82
509.90	31145.51
510.08	31229.77
510.25	31763.41
510.42	31358.50
510.60	32079.38
510.77	32250.24
510.95	31702.56
511.12	31576.17
511.30	32245.56
511.47	32304.07
511.64	32243.22
511.82	32435.14
511.99	31817.24
512.17	32531.11
512.34	32055.98
512.51	32467.91
512.69	32851.76
512.86	32830.69
513.04	33076.45
513.21	32783.88
513.38	32779.20
513.56	33062.41
513.73	32540.47
513.90	33031.98
514.08	33165.39
514.25	32716.01
514.43	33336.25
514.60	33502.43
514.77	33268.37
514.95	33734.14
515.12	33607.75
515.29	33839.47
515.47	33989.26
515.64	34094.58
515.81	33560.94
515.99	33579.67
516.16	33954.15
516.33	32919.63
516.51	33802.02
516.68	33120.92
516.85	33380.72
517.03	33359.66
517.20	34110.97
517.37	34038.41
517.54	34639.93
517.72	34094.58
517.89	34167.14
518.06	34335.66
518.24	34082.88
518.41	34155.44
518.58	34307.57
518.75	34476.09
518.93	34799.08
519.10	35117.40
519.27	35086.97
519.45	35007.39
519.62	35215.70
519.79	35477.84
519.96	35302.30
520.14	34991.01
520.31	35351.45
520.48	35505.93
520.65	35370.18
520.83	35688.49
521.00	36044.25
521.17	35981.06
521.34	35526.99
521.52	36336.82
521.69	36006.80
521.86	35959.99
522.03	36364.90
522.20	36287.67
522.38	36364.90
522.55	36392.99
522.72	36346.18
522.89	36505.34
523.07	36830.67
523.24	36477.25
523.41	37167.71
523.58	36643.43
523.75	37399.42
523.92	36804.92
524.10	37038.98
524.27	37408.78
524.44	36627.04
524.61	37460.27
524.78	37301.12
524.96	37104.51
525.13	37659.22
525.30	38059.45
525.47	37406.44
525.64	37418.14
525.81	37450.91
525.98	37099.83
526.16	37528.15
526.33	36952.38
526.50	37694.33
526.67	37333.89
526.84	37392.40
527.01	37420.48
527.18	37455.59
527.36	38059.45
527.53	38230.31
527.70	38499.47
527.87	38705.44
528.04	38230.31
528.21	38700.76
528.38	38548.62
528.55	38927.79
528.72	38983.96
528.89	38995.67
529.07	38515.86
529.24	38260.74
529.41	39021.41
529.58	38452.66
529.75	38590.75
529.92	38635.22
530.09	39367.81
530.26	39091.63
530.43	39005.03
530.60	39136.10
530.77	39529.31
530.94	39353.77
531.11	39133.76
531.28	39496.54
531.46	39428.66
531.63	39620.59
531.80	39164.18
531.97	39290.57
532.14	39248.44
532.31	38972.26
532.48	39573.78
532.65	39894.43
532.82	39194.61
532.99	39723.57
533.16	39751.66
533.33	39842.94
533.50	39761.02
533.67	39959.97
533.84	39775.06
534.01	40294.66
534.18	40182.32
534.35	40002.10
534.52	40076.99
534.69	40268.92
534.86	40409.35
535.03	40236.15
535.20	41048.32
535.37	41029.59
535.54	40692.55
535.71	40704.26
535.88	40383.60
536.05	40297.00
536.22	40612.98
536.38	40814.26
536.55	40392.97
536.72	40715.96
536.89	40657.45
537.06	40465.52
537.23	41200.45
537.40	41048.32
537.57	40760.43
537.74	40568.51
537.91	41378.33
538.08	40903.20
538.25	40950.01
538.42	41273.01
538.59	41471.95
538.75	40524.04
538.92	41099.81
539.09	41448.55
539.26	41354.93
539.43	41336.20
539.60	41621.75
539.77	41326.84
539.94	41148.96
540.11	41886.23
540.28	41462.59
540.44	41816.01
540.61	41319.82
540.78	41902.61
540.95	41497.70
541.12	41418.12
541.29	41603.02
541.46	41490.68
541.62	41937.72
541.79	41844.10
541.96	41357.27
542.13	42068.79
542.30	41956.44
542.47	41689.62
542.63	41464.93
542.80	42237.31
542.97	42487.74
543.14	42600.09
543.31	42363.70
543.48	42454.98
543.64	42653.92
543.81	42829.46
543.98	42632.86
544.15	42326.25
544.32	42787.33
544.48	43503.54
544.65	42672.65
544.82	42749.88
544.99	42321.57
545.16	42618.81
545.32	42965.21
545.49	43400.55
545.66	43349.06
545.83	42586.05
546.00	43470.77
546.16	42899.68
546.33	42637.54
546.50	42710.10
546.67	43531.62
546.83	42857.55
547.00	42880.95
547.17	42981.60
547.34	42972.24
547.50	43438.00
547.67	43622.90
547.84	43653.33
548.00	43452.05
548.17	43929.51
548.34	43477.79
548.51	43959.94
548.67	43826.53
548.84	43335.02
549.01	43297.57
549.18	43683.76
549.34	43398.21
549.51	43749.29
549.68	43723.55
549.84	44076.97
550.01	44194.00
550.18	43538.65
550.34	43821.85
550.51	43908.45
550.68	43695.46
550.84	43217.99
551.01	44184.63
551.18	44048.88
551.34	43545.67
551.51	44100.37
551.68	43812.49
551.84	44158.89
552.01	43835.89
552.18	43992.71
552.34	43725.89
552.51	44069.95
552.68	44353.15
552.84	44105.06
553.01	44198.68
553.18	44168.25
553.34	44105.06
553.51	44341.45
553.67	44638.70
553.84	44751.04
554.01	44456.14
554.17	44809.56
554.34	44699.55
554.51	44945.31
554.67	44397.62
554.84	44683.17
555.00	44435.07
555.17	44327.41
555.33	44797.85
555.50	44973.39
555.67	44694.87
555.83	44619.97
556.00	44737.00
556.16	45092.76
556.33	44559.12
556.50	44945.31
556.66	44704.23
556.83	44474.86
556.99	44832.96
557.16	45188.72
557.32	44652.74
557.49	44744.02
557.65	44598.91
557.82	44868.07
557.98	45095.10
558.15	44931.26
558.32	45219.15
558.48	44554.44
558.65	44940.63
558.81	44751.04
558.98	44839.98
559.14	44900.84
559.31	44655.08
559.47	45233.19
559.64	44818.92
559.80	45179.36
559.97	44868.07
560.13	45102.12
560.30	44554.44
560.46	45001.48
560.63	45099.78
560.79	45081.06
560.96	45567.89
561.12	45160.64
561.29	45329.16
561.45	44926.58
561.61	45202.77
561.78	45139.57
561.94	45481.29
562.11	45219.15
562.27	44942.97
562.44	45305.75
562.60	45418.10
562.77	45415.76
562.93	45097.44
563.10	45490.65
563.26	45331.50
563.42	45474.27
563.59	45322.13
563.75	45624.06
563.92	45579.59
564.08	45600.66
564.24	45687.26
564.41	45221.49
564.57	45656.83
564.74	45586.61
564.90	45785.56
565.07	45546.82
565.23	45485.97
565.39	45462.57
565.56	45546.82
565.72	45382.99
565.88	45666.19
566.05	45507.04
566.21	45310.43
566.38	45109.14
566.54	45553.85
566.70	45661.51
566.87	45942.38
567.03	45586.61
567.19	46157.70
567.36	45771.52
567.52	45237.87
567.68	45701.30
567.85	45223.83
568.01	45675.55
568.17	45865.14
568.34	46169.41
568.50	45352.56
568.66	45808.96
568.83	45783.22
568.99	45633.42
569.15	45673.21
569.32	45820.67
569.48	45701.30
569.64	45846.41
569.81	45944.72
569.97	45610.02
570.13	45413.41
570.30	45272.98
570.46	45439.16
570.62	45268.30
570.78	45212.13
570.95	44973.39
571.11	45635.77
571.27	45230.85
571.43	45441.50
571.60	45787.90
571.76	45738.75
571.92	45846.41
572.09	45895.56
572.25	45464.91
572.41	46040.68
572.57	45982.16
572.74	46417.50
572.90	45956.42
573.06	46080.47
573.22	46028.98
573.38	45930.67
573.55	45808.96
573.71	46080.47
573.87	45940.04
574.03	45815.99
574.20	45710.66
574.36	45640.45
574.52	45558.53
574.68	45961.10
574.84	45811.31
575.01	45839.39
575.17	45811.31
575.33	45563.21
575.49	46078.13
575.65	46160.05
575.82	45876.84
575.98	46052.38
576.14	45902.59
576.30	46054.72
576.46	45949.40
576.62	45764.49
576.79	45752.79
576.95	45867.48
577.11	45453.20
577.27	45705.98
577.43	45593.64
577.59	45694.28
577.75	45551.51
577.92	45354.90
578.08	45357.24
578.24	45614.70
578.40	45598.32
578.56	45666.19
578.72	45776.20
578.88	46160.05
579.04	45979.82
579.21	45329.16
579.37	45909.61
579.53	46089.83
579.69	45308.09
579.85	45893.22
580.01	45979.82
580.17	45603.00
580.33	46244.30
580.49	45745.77
580.65	45806.62
580.82	45846.41
580.98	45823.01
581.14	45436.82
581.30	46197.49
581.46	45996.21
581.62	45986.85
581.78	46157.70
581.94	46108.55
582.10	46162.39
582.26	45705.98
582.42	46213.88
582.58	46010.25
582.74	46066.42
582.90	45986.85
583.06	46000.89
583.22	45858.12
583.38	46096.85
583.54	46330.90
583.70	46078.13
583.86	46246.65
584.02	45757.47
584.18	46153.02
584.34	45523.42
584.50	46211.54
584.66	45846.41
584.82	46216.22
584.98	45785.56
585.14	46328.56
585.30	45467.25
585.46	45579.59
585.62	45263.62
585.78	45949.40
585.94	45553.85
586.10	45698.96
586.26	45827.69
586.42	46176.43
586.58	46181.11
586.74	45909.61
586.90	45961.10
587.06	45902.59
587.22	46031.32
587.38	45823.01
587.54	46239.62
587.70	45944.72
587.86	46005.57
588.02	45881.52
588.18	45975.14
588.34	45703.64
588.49	45287.03
588.65	45879.18
588.81	45471.93
588.97	45869.82
589.13	45364.26
589.29	45748.11
589.45	45572.57
589.61	45869.82
589.77	45968.12
589.93	46019.61
590.08	46211.54
