SpectraSuite Data File
++++++++++++++++++++++++++++++++++++
Date: Fri Oct 25 10:43:28 EDT 2013
User: price-jones
Dark Spectrum Present: No
Reference Spectrum Present: No
Number of Sampled Component Spectra: 1
Spectrometers: USB2+H05261
Integration Time (usec): 100000 (USB2+H05261)
Spectra Averaged: 1 (USB2+H05261)
Boxcar Smoothing: 0 (USB2+H05261)
Correct for Electrical Dark: No (USB2+H05261)
Strobe/Lamp Enabled: No (USB2+H05261)
Correct for Detector Non-linearity: No (USB2+H05261)
Correct for Stray Light: No (USB2+H05261)
Number of Pixels in Processed Spectrum: 2048
>>>>>Begin Processed Spectral Data<<<<<
365.73	112.35
365.92	112.35
366.12	112.35
366.32	110.01
366.52	21.06
366.72	32.77
366.91	0.00
367.11	0.00
367.31	0.00
367.51	2.34
367.70	18.72
367.90	51.49
368.10	0.00
368.30	60.85
368.49	0.00
368.69	128.73
368.89	63.19
369.09	74.90
369.28	93.62
369.48	58.51
369.68	102.98
369.87	79.58
370.07	23.41
370.27	81.92
370.47	184.90
370.66	313.63
370.86	444.70
371.06	395.55
371.25	526.62
371.45	449.38
371.65	519.60
371.84	475.13
372.04	465.77
372.24	484.49
372.44	500.87
372.63	463.43
372.83	489.17
373.03	521.94
373.22	470.45
373.42	533.64
373.62	510.24
373.81	519.60
374.01	482.15
374.21	620.24
374.40	566.41
374.60	514.92
374.79	531.30
374.99	512.58
375.19	615.56
375.38	543.00
375.58	657.69
375.78	594.50
375.97	578.11
376.17	596.84
376.37	615.56
376.56	636.63
376.76	610.88
376.95	601.52
377.15	615.56
377.35	648.33
377.54	683.44
377.74	692.80
377.93	561.73
378.13	653.01
378.33	671.73
378.52	613.22
378.72	711.52
378.91	681.10
379.11	662.37
379.31	645.99
379.50	657.69
379.70	674.07
379.89	730.25
380.09	655.35
380.28	688.12
380.48	601.52
380.68	697.48
380.87	695.14
381.07	713.86
381.26	718.54
381.46	755.99
381.65	624.92
381.85	683.44
382.04	620.24
382.24	678.76
382.43	704.50
382.63	617.90
382.83	699.82
383.02	826.21
383.22	739.61
383.41	725.57
383.61	713.86
383.80	821.53
384.00	741.95
384.19	709.18
384.39	835.57
384.58	777.06
384.78	833.23
384.97	692.80
385.17	746.63
385.36	713.86
385.56	814.51
385.75	732.59
385.95	767.70
386.14	861.32
386.34	826.21
386.53	847.27
386.72	830.89
386.92	870.68
387.11	887.06
387.31	821.53
387.50	901.11
387.70	873.02
387.89	880.04
388.09	858.98
388.28	882.38
388.48	858.98
388.67	905.79
388.86	943.24
389.06	898.77
389.25	877.70
389.45	1020.47
389.64	915.15
389.84	1055.58
390.03	1041.54
390.22	1025.15
390.42	1055.58
390.61	983.02
390.81	1036.86
391.00	1053.24
391.19	1055.58
391.39	1064.94
391.58	1034.52
391.78	1011.11
391.97	1011.11
392.16	957.28
392.36	1048.56
392.55	1067.28
392.75	964.30
392.94	940.90
393.13	997.07
393.33	943.24
393.52	983.02
393.71	980.68
393.91	1090.69
394.10	1137.50
394.29	1102.39
394.49	1125.80
394.68	1247.51
394.88	1151.54
395.07	1275.59
395.26	1160.91
395.46	1177.29
395.65	1247.51
395.84	1188.99
396.04	1252.19
396.23	1240.48
396.42	1142.18
396.62	1193.67
396.81	1055.58
397.00	1280.27
397.19	1228.78
397.39	1277.93
397.58	1313.04
397.77	1357.51
397.97	1322.40
398.16	1437.09
398.35	1313.04
398.55	1380.92
398.74	1390.28
398.93	1451.13
399.12	1409.00
399.32	1509.65
399.51	1507.30
399.70	1593.90
399.90	1610.29
400.09	1516.67
400.28	1593.90
400.47	1643.06
400.67	1732.00
400.86	1598.59
401.05	1605.61
401.24	1722.63
401.44	1734.34
401.63	1694.55
401.82	1795.19
402.01	1671.14
402.21	1629.01
402.40	1650.08
402.59	1713.27
402.78	1713.27
402.97	1781.15
403.17	1797.53
403.36	1748.38
403.55	1776.47
403.74	1764.76
403.93	1825.62
404.13	1863.07
404.32	1806.89
404.51	1895.83
404.70	1790.51
404.89	1790.51
405.09	1966.05
405.28	1881.79
405.47	1937.96
405.66	1973.07
405.85	2054.99
406.05	1933.28
406.24	2026.90
406.43	2125.21
406.62	2024.56
406.81	2024.56
407.00	2069.03
407.20	2022.22
407.39	2050.31
407.58	2083.08
407.77	2237.55
407.96	2204.78
408.15	2300.75
408.34	2190.74
408.54	2214.15
408.73	2356.92
408.92	2300.75
409.11	2218.83
409.30	2230.53
409.49	2263.30
409.68	2291.38
409.87	2141.59
410.07	2305.43
410.26	2363.94
410.45	2296.07
410.64	2352.24
410.83	2410.75
411.02	2527.78
411.21	2569.91
411.40	2525.44
411.59	2572.25
411.78	2572.25
411.98	2509.05
412.17	2586.29
412.36	2635.44
412.55	2745.45
412.74	2686.94
412.93	2712.68
413.12	2661.19
413.31	2717.36
413.50	2761.83
413.69	2717.36
413.88	2899.92
414.07	2965.46
414.26	2944.39
414.45	2939.71
414.64	2988.86
414.83	3019.29
415.02	2949.08
415.22	3005.25
415.41	3087.17
415.60	3023.97
415.79	3159.72
415.98	3281.43
416.17	3260.37
416.36	3236.96
416.55	3222.92
416.74	3239.30
416.93	3145.68
417.12	3279.09
417.31	3332.92
417.50	3286.11
417.69	3424.20
417.88	3372.71
418.07	3274.41
418.26	3424.20
418.45	3337.60
418.64	3559.95
418.83	3419.52
419.02	3419.52
419.21	3648.90
419.39	3674.64
419.58	3419.52
419.77	3459.31
419.96	3655.92
420.15	3719.11
420.34	3592.72
420.53	3611.45
420.72	3691.02
420.91	3786.99
421.10	3777.62
421.29	3749.54
421.48	3702.73
421.67	3896.99
421.86	3721.45
422.05	3904.01
422.24	3625.49
422.43	3861.88
422.61	3906.35
422.80	3866.56
422.99	3838.48
423.18	3922.74
423.37	3878.27
423.56	3843.16
423.75	3789.33
423.94	3878.27
424.13	3763.58
424.32	3861.88
424.50	3927.42
424.69	4035.08
424.88	3971.89
425.07	3953.16
425.26	3831.46
425.45	3943.80
425.64	3838.48
425.83	3915.72
426.01	3995.29
426.20	3946.14
426.39	3889.97
426.58	4028.06
426.77	3873.59
426.96	3936.78
427.15	3922.74
427.33	3997.64
427.52	4074.87
427.71	3948.48
427.90	4074.87
428.09	4056.15
428.28	4138.07
428.46	4084.23
428.65	4173.18
428.84	4196.58
429.03	4208.28
429.22	3976.57
429.40	4175.52
429.59	4021.04
429.78	3920.40
429.97	3925.08
430.16	4147.43
430.34	4035.08
430.53	4133.39
430.72	3995.29
430.91	4180.20
431.10	4184.88
431.28	4545.32
431.47	4580.43
431.66	4606.17
431.85	4500.85
432.03	4519.57
432.22	4636.60
432.41	4587.45
432.60	4524.26
432.79	4674.05
432.97	4641.28
433.16	4720.86
433.35	4669.37
433.54	4599.15
433.72	4788.74
433.91	4688.09
434.10	4725.54
434.28	4751.29
434.47	4770.01
434.66	4802.78
434.85	5006.41
435.03	4765.33
435.22	4833.21
435.41	4943.21
435.59	4903.42
435.78	5032.15
435.97	5057.90
436.16	4957.25
436.34	5050.88
436.53	5090.67
436.72	5345.78
436.90	5055.56
437.09	5071.94
437.28	5081.30
437.46	4966.62
437.65	5121.09
437.84	4999.38
438.02	5071.94
438.21	5125.77
438.40	5057.90
438.58	5320.04
438.77	5277.91
438.96	5249.82
439.14	5341.10
439.33	5472.17
439.52	5528.35
439.70	5455.79
439.89	5638.35
440.08	5556.43
440.26	5668.78
440.45	5636.01
440.63	5706.23
440.82	5944.96
441.01	5710.91
441.19	6043.26
441.38	5989.43
441.57	5961.34
441.75	6265.61
441.94	6274.98
442.12	6239.87
442.31	6216.46
442.50	6209.44
442.68	6258.59
442.87	6134.54
443.05	6392.00
443.24	6289.02
443.43	6431.79
443.61	6342.85
443.80	6434.13
443.98	6263.27
444.17	6190.72
444.35	6602.65
444.54	6537.12
444.73	6422.43
444.91	6457.54
445.10	6377.96
445.28	6242.21
445.47	6335.83
445.65	6136.88
445.84	6375.62
446.02	6448.18
446.21	6569.88
446.39	6415.41
446.58	6532.44
446.77	6464.56
446.95	6696.27
447.14	6633.08
447.32	6815.64
447.51	6527.75
447.69	6576.91
447.88	6679.89
448.06	6506.69
448.25	6595.63
448.43	6705.63
448.62	6562.86
448.80	6548.82
448.99	6780.53
449.17	6693.93
449.36	6628.40
449.54	7002.88
449.73	6916.28
449.91	7171.40
450.10	7045.01
450.28	7073.10
450.46	7056.72
450.65	7126.93
450.83	6970.12
451.02	7185.44
451.20	7353.96
451.39	7267.36
451.57	7131.61
451.76	7145.66
451.94	7080.12
452.13	7000.54
452.31	7253.32
452.49	6946.71
452.68	7030.97
452.86	6925.65
453.05	7236.94
453.23	7239.28
453.42	7337.58
453.60	7321.20
453.78	7236.94
453.97	7236.94
454.15	7309.49
454.34	7169.06
454.52	7433.54
454.70	7339.92
454.89	7419.50
455.07	7461.63
455.26	7506.10
455.44	7552.91
455.62	7662.91
455.81	7712.07
455.99	7578.65
456.17	7686.32
456.36	7786.96
456.54	7763.56
456.73	7882.92
456.91	8025.70
457.09	7995.27
457.28	8152.09
457.46	7971.86
457.64	8084.21
457.83	7957.82
458.01	7971.86
458.19	8175.49
458.38	7953.14
458.56	8109.96
458.74	8142.72
458.93	8077.19
459.11	8131.02
459.29	8028.04
459.48	8241.03
459.66	8142.72
459.84	8255.07
460.03	8444.65
460.21	8383.80
460.39	8360.39
460.57	8390.82
460.76	8643.60
460.94	8582.74
461.12	8610.83
461.31	8601.47
461.49	8564.02
461.67	8334.65
461.85	8720.84
462.04	8739.56
462.22	9242.78
462.40	8716.16
462.59	8856.59
462.77	8833.18
462.95	8695.09
463.13	8798.07
463.32	8868.29
463.50	8901.06
463.68	8985.32
463.86	8908.08
464.05	8863.61
464.23	9088.30
464.41	8943.19
464.59	8814.46
464.78	9174.90
464.96	9172.56
465.14	8849.57
465.32	8947.87
465.50	9123.41
465.69	9296.61
465.87	9102.34
466.05	9245.12
466.23	9142.13
466.41	9029.79
466.60	9233.41
466.78	9008.72
466.96	9312.99
467.14	9200.65
467.32	9212.35
467.51	9341.08
467.69	9090.64
467.87	9514.28
468.05	9418.32
468.23	9228.73
468.41	9397.25
468.60	9156.18
468.78	9446.40
468.96	9287.25
469.14	9610.24
469.32	9540.02
469.50	9359.80
469.69	9619.60
469.87	9799.82
470.05	9682.80
470.23	9781.10
470.41	9671.09
470.59	9942.60
470.77	9631.30
470.95	9844.29
471.14	10052.60
471.32	9809.19
471.50	10356.87
471.68	10281.97
471.86	10361.55
472.04	10164.95
472.22	10448.15
472.40	10129.84
472.58	10270.27
472.77	10307.72
472.95	10520.71
473.13	10691.57
473.31	10497.30
473.49	10415.38
473.67	10478.58
473.85	10497.30
474.03	10602.63
474.21	10878.81
474.39	10759.44
474.57	10726.68
474.75	11126.91
474.93	10885.83
475.12	10972.43
475.30	11295.43
475.48	11075.42
475.66	10965.41
475.84	11239.25
476.02	11150.31
476.20	11618.42
476.38	11595.01
476.56	11779.92
476.74	11627.78
476.92	11536.50
477.10	11618.42
477.28	12074.82
477.46	12006.95
477.64	12184.83
477.82	12081.85
478.00	12329.94
478.18	12442.29
478.36	12353.35
478.54	12446.97
478.72	12470.37
478.90	12844.86
479.08	12924.44
479.26	13043.81
479.44	13139.77
479.62	13004.02
479.80	13224.03
479.98	13378.50
480.16	13369.14
480.34	13355.10
480.52	13696.82
480.70	13998.74
480.88	13696.82
481.06	13919.17
481.24	14017.47
481.41	14085.34
481.59	14230.46
481.77	14090.02
481.95	14090.02
482.13	14520.68
482.31	14221.10
482.49	14410.68
482.67	14745.38
482.85	14909.21
483.03	14941.98
483.21	15014.54
483.39	15349.23
483.57	15080.07
483.74	15215.82
483.92	15267.31
484.10	15365.62
484.28	15754.15
484.46	15917.98
484.64	16051.39
484.82	16135.65
485.00	15854.79
485.18	16271.40
485.35	16336.94
485.53	15964.79
485.71	15885.22
485.89	16475.03
486.07	16126.29
486.25	16308.85
486.43	17041.44
486.61	16910.37
486.78	17139.74
486.96	17114.00
487.14	17326.99
487.32	17331.67
487.50	17942.55
487.68	17825.52
487.85	18150.85
488.03	18382.57
488.21	18501.93
488.39	18401.29
488.57	18438.74
488.75	18487.89
488.92	18927.91
489.10	19173.67
489.28	19215.80
489.46	19426.45
489.64	19143.24
489.81	19730.72
489.99	19763.48
490.17	20112.22
490.35	20294.79
490.53	20240.95
490.70	20222.23
490.88	20313.51
491.06	20786.30
491.24	20524.16
491.41	20285.42
491.59	20526.50
491.77	20491.39
491.95	20854.17
492.13	20790.98
492.30	21343.35
492.48	21256.75
492.66	21607.83
492.84	21593.78
493.01	21874.65
493.19	21781.03
493.37	21982.31
493.54	22132.11
493.72	22197.64
493.90	22586.17
494.08	23065.98
494.25	22850.65
494.43	22850.65
494.61	23147.90
494.79	23021.51
494.96	23325.78
495.14	23271.95
495.32	23260.24
495.49	23208.75
495.67	23438.12
495.85	23726.01
496.02	23964.75
496.20	24341.57
496.38	23981.13
496.55	24334.55
496.73	25055.43
496.91	24624.78
497.09	24505.41
497.26	25008.62
497.44	24865.85
497.62	25113.95
497.79	24992.24
497.97	24713.72
498.14	25055.43
498.32	25469.71
498.50	25291.83
498.67	25745.89
498.85	25727.17
499.03	26029.10
499.20	25893.35
499.38	26258.47
499.56	26221.02
499.73	25965.90
499.91	26167.19
500.08	26314.64
500.26	26176.55
500.44	26359.11
500.61	26391.88
500.79	26338.05
500.97	26740.62
501.14	26614.23
501.32	26593.17
501.49	26890.41
501.67	26614.23
501.84	27056.59
502.02	27426.40
502.20	27424.06
502.37	26969.99
502.55	27667.47
502.72	27756.41
502.90	27625.34
503.07	27634.71
503.25	27866.42
503.43	27758.75
503.60	27697.90
503.78	27824.29
503.95	27491.93
504.13	28205.80
504.30	28292.40
504.48	28322.82
504.65	28439.85
504.83	28706.67
505.01	29149.03
505.18	28685.61
505.36	28933.70
505.53	29537.56
505.71	29083.50
505.88	29298.83
506.06	28800.29
506.23	29062.43
506.41	29230.95
506.58	29507.13
506.76	29207.55
506.93	29481.39
507.11	29727.14
507.28	29596.07
507.46	29277.76
507.63	29851.19
507.81	29998.65
507.98	29399.47
508.16	30195.25
508.33	30403.56
508.50	30490.16
508.68	30230.36
508.85	30684.42
509.03	30522.93
509.20	30338.02
509.38	30700.81
509.55	31187.64
509.73	31124.44
509.90	31250.83
510.08	31337.43
510.25	30960.61
510.42	31339.77
510.60	30939.54
510.77	31484.89
510.95	32074.70
511.12	31587.87
511.30	31793.84
511.47	31770.43
511.64	32002.14
511.82	32322.80
511.99	31934.27
512.17	32484.30
512.34	32105.13
512.51	32210.45
512.69	32271.31
512.86	32367.27
513.04	32842.40
513.21	32615.37
513.38	32381.31
513.56	32467.91
513.73	32404.72
513.90	32877.51
514.08	32341.52
514.25	32694.94
514.43	32636.43
514.60	32896.23
514.77	32622.39
514.95	33422.85
515.12	33376.04
515.29	33202.84
515.47	34059.48
515.64	33905.00
515.81	33418.17
515.99	33294.12
516.16	33207.52
516.33	33277.74
516.51	33333.91
516.68	32973.47
516.85	33303.48
517.03	32940.70
517.20	33408.81
517.37	34293.53
517.54	34103.95
517.72	33806.70
517.89	33692.01
518.06	33507.11
518.24	33692.01
518.41	33883.94
518.58	34089.90
518.75	34132.03
518.93	34562.69
519.10	34625.89
519.27	34878.66
519.45	34602.48
519.62	34969.94
519.79	34810.79
519.96	34948.88
520.14	35367.84
520.31	34733.55
520.48	34899.73
520.65	34981.65
520.83	35344.43
521.00	35744.66
521.17	35622.95
521.34	35599.55
521.52	35917.86
521.69	35997.44
521.86	36126.17
522.03	36147.23
522.20	35728.28
522.38	36088.72
522.55	36187.02
522.72	35772.75
522.89	35974.03
523.07	36353.20
523.24	36343.84
523.41	36327.45
523.58	36175.32
523.75	37163.03
523.92	37036.64
524.10	36360.22
524.27	37048.34
524.44	36847.05
524.61	36795.56
524.78	36760.45
524.96	37219.20
525.13	37226.22
525.30	37565.60
525.47	37413.46
525.64	37116.22
525.81	37336.23
525.98	36999.19
526.16	36854.08
526.33	36704.28
526.50	37439.21
526.67	36495.97
526.84	36926.63
527.01	37301.12
527.18	37759.86
527.36	37993.92
527.53	37851.14
527.70	38288.82
527.87	37942.42
528.04	37914.34
528.21	37780.93
528.38	38162.43
528.55	38438.62
528.72	38462.02
528.89	38904.38
529.07	38382.45
529.24	37666.24
529.41	38347.34
529.58	37935.40
529.75	38579.05
529.92	38550.96
530.09	38794.38
530.26	38499.47
530.43	39007.37
530.60	38644.59
530.77	39154.82
530.94	39290.57
531.11	38705.44
531.28	38705.44
531.46	38998.01
531.63	39515.26
531.80	38429.26
531.97	38869.28
532.14	38979.28
532.31	38433.94
532.48	38895.02
532.65	39274.19
532.82	38930.13
532.99	38944.17
533.16	39557.39
533.33	39309.30
533.50	39278.87
533.67	39583.14
533.84	39786.77
534.01	39449.73
534.18	39739.96
534.35	39662.72
534.52	39597.18
534.69	40009.12
534.86	40339.13
535.03	40027.84
535.20	40266.58
535.37	40559.14
535.54	40388.28
535.71	40187.00
535.88	40184.66
536.05	40477.22
536.22	40502.97
536.38	40285.30
536.55	40587.23
536.72	39983.37
536.89	40236.15
537.06	40502.97
537.23	41015.55
537.40	40095.72
537.57	41111.51
537.74	40879.80
537.91	40683.19
538.08	40652.76
538.25	40811.92
538.42	40746.39
538.59	41127.89
538.75	40804.90
538.92	41148.96
539.09	41076.40
539.26	40697.24
539.43	40795.54
539.60	40980.44
539.77	41167.68
539.94	40636.38
540.11	40837.67
540.28	41083.42
540.44	41200.45
540.61	41038.95
540.78	41010.87
540.95	41006.19
541.12	40933.63
541.29	40994.48
541.46	41397.06
541.62	41261.30
541.79	41722.39
541.96	41083.42
542.13	41872.18
542.30	41493.02
542.47	41598.34
542.63	41345.56
542.80	41869.84
542.97	41926.02
543.14	41998.57
543.31	42209.22
543.48	42251.35
543.64	42080.49
543.81	42916.06
543.98	42504.13
544.15	42389.44
544.32	42628.18
544.48	43203.95
544.65	42213.90
544.82	42616.47
544.99	42185.82
545.16	42581.37
545.32	42359.02
545.49	42815.42
545.66	43124.37
545.83	42843.51
546.00	42609.45
546.16	42686.69
546.33	42359.02
546.50	42494.77
546.67	42508.81
546.83	42234.97
547.00	43175.86
547.17	42604.77
547.34	42525.19
547.50	42923.08
547.67	42831.80
547.84	43185.22
548.00	43304.59
548.17	43587.80
548.34	43152.46
548.51	43805.47
548.67	43365.45
548.84	43445.02
549.01	43274.16
549.18	42827.12
549.34	43021.39
549.51	43264.80
549.68	43189.91
549.84	43559.71
550.01	43643.97
550.18	43702.48
550.34	43578.43
550.51	43522.26
550.68	43693.12
550.84	42995.64
551.01	43814.83
551.18	43756.32
551.34	43508.22
551.51	43908.45
551.68	43562.05
551.84	43866.32
552.01	43945.90
552.18	43728.23
552.34	43875.68
552.51	43501.20
552.68	44243.15
552.84	44081.65
553.01	44301.66
553.18	43709.50
553.34	43540.99
553.51	43948.24
553.67	43908.45
553.84	44580.18
554.01	44470.18
554.17	44168.25
554.34	44041.86
554.51	44011.43
554.67	44098.03
554.84	44177.61
555.00	44467.84
555.17	44360.17
555.33	44308.68
555.50	44259.53
555.67	44659.76
555.83	44179.95
556.00	44456.14
556.16	44758.06
556.33	44470.18
556.50	44493.58
556.66	43955.26
556.83	44479.54
556.99	44713.59
557.16	44453.79
557.32	44399.96
557.49	45015.52
557.65	44671.46
557.82	44652.74
557.98	44409.32
558.15	44975.73
558.32	44479.54
558.48	44341.45
558.65	44453.79
558.81	44252.51
558.98	44465.50
559.14	44430.39
559.31	44729.98
559.47	44357.83
559.64	45179.36
559.80	44631.68
559.97	45195.74
560.13	44563.80
560.30	44893.82
560.46	45198.09
560.63	44924.24
560.79	45380.65
560.96	44839.98
561.12	44882.11
561.29	44643.38
561.45	44772.11
561.61	44907.86
561.78	44854.03
561.94	45067.02
562.11	45008.50
562.27	45172.34
562.44	44928.92
562.60	45366.60
562.77	45453.20
562.93	44559.12
563.10	45378.31
563.26	45174.68
563.42	45069.36
563.59	44947.65
563.75	45031.91
563.92	45406.39
564.08	45078.72
564.24	45413.41
564.41	45368.94
564.57	45172.34
564.74	44982.76
564.90	45338.52
565.07	45310.43
565.23	45200.43
565.39	44847.00
565.56	45277.66
565.72	45029.57
565.88	45422.78
566.05	45202.77
566.21	44971.05
566.38	45237.87
566.54	45420.44
566.70	45909.61
566.87	45476.61
567.03	45600.66
567.19	45890.88
567.36	45535.12
567.52	45633.42
567.68	45443.84
567.85	45146.59
568.01	45280.00
568.17	45563.21
568.34	45567.89
568.50	45556.19
568.66	45380.65
568.83	45397.03
568.99	45118.51
569.15	45322.13
569.32	45373.63
569.48	45284.68
569.64	45628.74
569.81	45563.21
569.97	45530.44
570.13	45221.49
570.30	45242.56
570.46	44687.85
570.62	44999.14
570.78	44776.79
570.95	45394.69
571.11	45748.11
571.27	45368.94
571.43	45226.17
571.60	45612.36
571.76	45408.73
571.92	45514.06
572.09	45453.20
572.25	45439.16
572.41	45495.33
572.57	45853.44
572.74	46693.69
572.90	45139.57
573.06	45773.86
573.22	46031.32
573.38	45677.90
573.55	45485.97
573.71	45736.41
573.87	45923.65
574.03	45298.73
574.20	46066.42
574.36	45511.72
574.52	45453.20
574.68	45902.59
574.84	45628.74
575.01	45659.17
575.17	45471.93
575.33	45038.93
575.49	45584.27
575.65	45876.84
575.82	45745.77
575.98	45404.05
576.14	45731.73
576.30	46059.40
576.46	45701.30
576.62	45914.29
576.79	45123.19
576.95	45462.57
577.11	45628.74
577.27	45799.60
577.43	45815.99
577.59	45254.26
577.75	45439.16
577.92	45249.58
578.08	45265.96
578.24	45469.59
578.40	45425.12
578.56	45827.69
578.72	45516.40
578.88	45888.54
579.04	45642.79
579.21	45586.61
579.37	45495.33
579.53	45722.37
579.69	45406.39
579.85	45483.63
580.01	45277.66
580.17	45460.23
580.33	45588.95
580.49	45619.38
580.65	45860.46
580.82	45565.55
580.98	45347.88
581.14	45560.87
581.30	45909.61
581.46	45474.27
581.62	45572.57
581.78	45303.41
581.94	46068.76
582.10	46138.98
582.26	45825.35
582.42	45741.09
582.58	45677.90
582.74	45635.77
582.90	45801.94
583.06	45961.10
583.22	45839.39
583.38	45841.73
583.54	45642.79
583.70	45511.72
583.86	45764.49
584.02	46043.02
584.18	45567.89
584.34	45727.05
584.50	45815.99
584.66	45663.85
584.82	45275.32
584.98	45668.53
585.14	45841.73
585.30	45736.41
585.46	45900.25
585.62	45298.73
585.78	45820.67
585.94	45429.80
586.10	45610.02
586.26	45998.55
586.42	45715.34
586.58	45698.96
586.74	45935.35
586.90	45710.66
587.06	45525.76
587.22	45982.16
587.38	45572.57
587.54	45897.91
587.70	46174.09
587.86	45633.42
588.02	45778.54
588.18	46007.91
588.34	45696.62
588.49	45380.65
588.65	45308.09
588.81	45059.99
588.97	45418.10
589.13	45099.78
589.29	45233.19
589.45	45382.99
589.61	45631.08
589.77	45979.82
589.93	45645.13
590.08	45811.31
