SpectraSuite Data File
++++++++++++++++++++++++++++++++++++
Date: Fri Oct 25 11:22:54 EDT 2013
User: price-jones
Dark Spectrum Present: No
Reference Spectrum Present: No
Number of Sampled Component Spectra: 1
Spectrometers: USB2+H05261
Integration Time (usec): 100000 (USB2+H05261)
Spectra Averaged: 1 (USB2+H05261)
Boxcar Smoothing: 0 (USB2+H05261)
Correct for Electrical Dark: No (USB2+H05261)
Strobe/Lamp Enabled: No (USB2+H05261)
Correct for Detector Non-linearity: No (USB2+H05261)
Correct for Stray Light: No (USB2+H05261)
Number of Pixels in Processed Spectrum: 2048
>>>>>Begin Processed Spectral Data<<<<<
365.73	250.44
365.92	250.44
366.12	250.44
366.32	154.48
366.52	163.84
366.72	161.50
366.91	126.39
367.11	44.47
367.31	65.54
367.51	102.98
367.70	119.37
367.90	98.30
368.10	105.32
368.30	173.20
368.49	72.56
368.69	170.86
368.89	149.79
369.09	121.71
369.28	217.67
369.48	140.43
369.68	229.37
369.87	156.82
370.07	154.48
370.27	203.63
370.47	365.12
370.66	601.52
370.86	671.73
371.06	723.23
371.25	648.33
371.45	599.18
371.65	650.67
371.84	702.16
372.04	613.22
372.24	676.41
372.44	725.57
372.63	739.61
372.83	730.25
373.03	760.67
373.22	748.97
373.42	737.27
373.62	765.36
373.81	779.40
374.01	847.27
374.21	870.68
374.40	812.17
374.60	770.04
374.79	711.52
374.99	807.48
375.19	828.55
375.38	828.55
375.58	716.20
375.78	877.70
375.97	779.40
376.17	926.85
376.37	819.19
376.56	851.96
376.76	854.30
376.95	837.91
377.15	919.83
377.35	875.36
377.54	861.32
377.74	947.92
377.93	933.87
378.13	931.53
378.33	961.96
378.52	959.62
378.72	947.92
378.91	884.72
379.11	929.19
379.31	889.40
379.50	891.74
379.70	983.02
379.89	1018.13
380.09	1022.81
380.28	987.71
380.48	1015.79
380.68	877.70
380.87	968.98
381.07	1029.84
381.26	1055.58
381.46	1032.18
381.65	1043.88
381.85	985.37
382.04	1034.52
382.24	1116.44
382.43	1109.41
382.63	978.34
382.83	1151.54
383.02	1139.84
383.22	1158.57
383.41	1027.50
383.61	1125.80
383.80	1193.67
384.00	1081.33
384.19	1142.18
384.39	1114.10
384.58	1116.44
384.78	1181.97
384.97	1184.31
385.17	1205.38
385.36	976.00
385.56	1191.33
385.75	1121.12
385.95	1254.53
386.14	1268.57
386.34	1149.20
386.53	1160.91
386.72	1114.10
386.92	1245.16
387.11	1240.48
387.31	1193.67
387.50	1238.14
387.70	1306.02
387.89	1320.06
388.09	1299.00
388.28	1310.70
388.48	1294.32
388.67	1296.66
388.86	1261.55
389.06	1254.53
389.25	1296.66
389.45	1306.02
389.64	1336.45
389.84	1366.87
390.03	1507.30
390.22	1369.21
390.42	1462.83
390.61	1343.47
390.81	1329.42
391.00	1455.81
391.19	1416.02
391.39	1441.77
391.58	1469.86
391.78	1469.86
391.97	1406.66
392.16	1448.79
392.36	1544.75
392.55	1530.71
392.75	1476.88
392.94	1476.88
393.13	1535.39
393.33	1476.88
393.52	1490.92
393.71	1558.80
393.91	1584.54
394.10	1692.21
394.29	1624.33
394.49	1589.22
394.68	1638.38
394.88	1668.80
395.07	1717.95
395.26	1673.48
395.46	1682.85
395.65	1668.80
395.84	1680.50
396.04	1818.60
396.23	1774.13
396.42	1661.78
396.62	1785.83
396.81	1825.62
397.00	1699.23
397.19	1856.04
397.39	1851.36
397.58	1774.13
397.77	1877.11
397.97	1832.64
398.16	1921.58
398.35	1930.94
398.55	1900.52
398.74	1909.88
398.93	1973.07
399.12	1912.22
399.32	1961.37
399.51	1888.81
399.70	1966.05
399.90	1942.64
400.09	2062.01
400.28	2036.27
400.47	2010.52
400.67	2064.35
400.86	2153.29
401.05	1989.46
401.24	2174.36
401.44	2200.10
401.63	2181.38
401.82	2127.55
402.01	2094.78
402.21	2073.71
402.40	2167.34
402.59	2218.83
402.78	2307.77
402.97	2263.30
403.17	2242.23
403.36	2307.77
403.55	2284.36
403.74	2338.20
403.93	2422.45
404.13	2300.75
404.32	2342.88
404.51	2359.26
404.70	2492.67
404.89	2408.41
405.09	2462.24
405.28	2509.05
405.47	2485.65
405.66	2614.38
405.85	2642.46
406.05	2506.71
406.24	2574.59
406.43	2614.38
406.62	2642.46
406.81	2731.41
407.00	2623.74
407.20	2588.63
407.39	2607.36
407.58	2710.34
407.77	2810.98
407.96	2785.24
408.15	2867.16
408.34	2825.03
408.54	2869.50
408.73	2906.95
408.92	2827.37
409.11	2785.24
409.30	3009.93
409.49	2890.56
409.68	2958.44
409.87	2984.18
410.07	3007.59
410.26	2909.29
410.45	2958.44
410.64	3049.72
410.83	2977.16
411.02	3131.64
411.21	3304.84
411.40	3112.91
411.59	3150.36
411.78	3138.66
411.98	3269.73
412.17	3260.37
412.36	3398.46
412.55	3456.97
412.74	3377.39
412.93	3365.69
413.12	3361.01
413.31	3400.80
413.50	3487.40
413.69	3534.21
413.88	3466.33
414.07	3637.19
414.26	3588.04
414.45	3740.18
414.64	3672.30
414.83	3868.91
415.02	3698.05
415.22	3667.62
415.41	3939.12
415.60	3997.64
415.79	3964.87
415.98	3983.59
416.17	3957.85
416.36	3936.78
416.55	4060.83
416.74	4245.73
416.93	4138.07
417.12	4217.65
417.31	4273.82
417.50	4318.29
417.69	4341.69
417.88	4236.37
418.07	4264.46
418.26	4252.75
418.45	4297.22
418.64	4674.05
418.83	4409.57
419.02	4430.63
419.21	4652.98
419.39	4496.17
419.58	4514.89
419.77	4514.89
419.96	4517.23
420.15	4627.24
420.34	4608.51
420.53	4702.14
420.72	4648.30
420.91	4755.97
421.10	4748.95
421.29	4854.27
421.48	4779.37
421.67	4828.53
421.86	4826.18
422.05	4840.23
422.24	4842.57
422.43	4858.95
422.61	4985.34
422.80	4964.28
422.99	5048.54
423.18	4919.81
423.37	5043.85
423.56	5055.56
423.75	4814.48
423.94	4894.06
424.13	4730.22
424.32	4667.03
424.50	5102.37
424.69	5125.77
424.88	5125.77
425.07	4950.23
425.26	5069.60
425.45	4947.89
425.64	4975.98
425.83	5132.79
426.01	5102.37
426.20	5060.24
426.39	5195.99
426.58	5039.17
426.77	5083.64
426.96	5081.30
427.15	5107.05
427.33	5195.99
427.52	5233.44
427.71	5195.99
427.90	5158.54
428.09	5350.46
428.28	5401.96
428.46	5570.48
428.65	5509.62
428.84	5458.13
429.03	5643.03
429.22	5404.30
429.40	5547.07
429.59	5495.58
429.78	5317.70
429.97	5322.38
430.16	5589.20
430.34	5727.29
430.53	5584.52
430.72	5731.97
430.91	5710.91
431.10	5645.37
431.28	5764.74
431.47	5900.49
431.66	5935.60
431.85	5795.17
432.03	6019.86
432.22	5982.41
432.41	6066.67
432.60	5973.05
432.79	5907.51
432.97	5996.45
433.16	5930.92
433.35	6139.23
433.54	6057.31
433.72	6235.19
433.91	6209.44
434.10	6244.55
434.28	6141.57
434.47	6253.91
434.66	6380.30
434.85	6328.81
435.03	6340.51
435.22	6511.37
435.41	6527.75
435.59	6455.20
435.78	6406.05
435.97	6583.93
436.16	6487.96
436.34	6555.84
436.53	6553.50
436.72	6775.85
436.90	6597.97
437.09	6649.46
437.28	6448.18
437.46	6780.53
437.65	6686.91
437.84	6789.89
438.02	6841.39
438.21	6841.39
438.40	6710.32
438.58	7126.93
438.77	6904.58
438.96	7042.67
439.14	7143.32
439.33	7122.25
439.52	7215.87
439.70	7112.89
439.89	7424.18
440.08	7449.93
440.26	7442.90
440.45	7295.45
440.63	7524.82
440.82	7613.76
441.01	7463.97
441.19	7737.81
441.38	7777.60
441.57	7716.75
441.75	7808.03
441.94	8063.15
442.12	8119.32
442.31	8142.72
442.50	8006.97
442.68	8203.58
442.87	8088.89
443.05	8210.60
443.24	8173.15
443.43	8234.00
443.61	8203.58
443.80	8664.66
443.98	8032.72
444.17	7908.67
444.35	8212.94
444.54	8475.08
444.73	8400.18
444.91	8470.40
445.10	8554.66
445.28	8458.70
445.47	8355.71
445.65	8379.12
445.84	8585.08
446.02	8620.19
446.21	8589.77
446.39	8648.28
446.58	8465.72
446.77	8608.49
446.95	8372.10
447.14	8315.92
447.32	8521.89
447.51	8575.72
447.69	8439.97
447.88	8489.12
448.06	8564.02
448.25	8645.94
448.43	8753.60
448.62	8697.43
448.80	8657.64
448.99	8596.79
449.17	8854.25
449.36	8643.60
449.54	8910.42
449.73	9022.77
449.91	9102.34
450.10	9064.89
450.28	9125.75
450.46	9186.60
450.65	9067.24
450.83	9116.39
451.02	8971.27
451.20	9186.60
451.39	9036.81
451.57	9198.31
451.76	9100.00
451.94	9111.71
452.13	9390.23
452.31	9109.36
452.49	9125.75
452.68	9549.39
452.86	9240.44
453.05	9516.62
453.23	9376.19
453.42	9308.31
453.60	9430.02
453.78	9701.52
453.97	9476.83
454.15	9654.71
454.34	9612.58
454.52	9895.78
454.70	9635.99
454.89	9727.27
455.07	10036.22
455.26	9797.48
455.44	9900.47
455.62	9827.91
455.81	9926.21
455.99	9919.19
456.17	10118.14
456.36	10052.60
456.54	10296.02
456.73	10480.92
456.91	10501.98
457.09	10494.96
457.28	10520.71
457.46	10494.96
457.64	10581.56
457.83	10717.31
458.01	10441.13
458.19	10764.12
458.38	10642.42
458.56	10874.13
458.74	10761.78
458.93	10782.85
459.11	10609.65
459.29	10759.44
459.48	10904.56
459.66	10920.94
459.84	11002.86
460.03	11257.98
460.21	11007.54
460.39	11105.84
460.57	11335.21
460.76	11037.97
460.94	11194.78
461.12	11185.42
461.31	11246.27
461.49	11183.08
461.67	11283.72
461.85	11562.25
462.04	11131.59
462.22	11840.77
462.40	11695.66
462.59	11548.20
462.77	11438.20
462.95	11676.93
463.13	11595.01
463.32	11948.43
463.50	11662.89
463.68	11791.62
463.86	11903.96
464.05	11749.49
464.23	11606.72
464.41	12334.62
464.59	11714.38
464.78	12145.04
464.96	12123.98
465.14	12018.65
465.32	12051.42
465.50	12262.07
465.69	12217.60
465.87	12159.08
466.05	12170.79
466.23	12339.30
466.41	12205.89
466.60	12418.88
466.78	12451.65
466.96	12156.74
467.14	12461.01
467.32	12470.37
467.51	12561.66
467.69	12379.09
467.87	12510.16
468.05	12830.82
468.23	12479.74
468.41	12521.87
468.60	12622.51
468.78	12762.94
468.96	12662.30
469.14	12940.82
469.32	12938.48
469.50	12732.51
469.69	13029.76
469.87	13343.39
470.05	13212.32
470.23	13277.86
470.41	13315.31
470.59	13231.05
470.77	13366.80
470.95	13355.10
471.14	14108.75
471.32	13202.96
471.50	13350.42
471.68	13680.43
471.86	13987.04
472.04	13928.53
472.22	14317.06
472.40	13799.80
472.58	14061.94
472.77	14197.69
472.95	14436.42
473.13	14764.10
473.31	14075.98
473.49	14256.20
473.67	14377.91
473.85	14256.20
474.03	14775.80
474.21	14927.94
474.39	14860.06
474.57	14848.36
474.75	14890.49
474.93	14792.19
475.12	14965.39
475.30	15463.92
475.48	15267.31
475.66	15145.61
475.84	15178.37
476.02	15557.54
476.20	15356.25
476.38	15660.52
476.56	16266.72
476.74	16137.99
476.92	15908.62
477.10	16257.36
477.28	16255.02
477.46	16425.88
477.64	16662.27
477.82	16418.86
478.00	16987.61
478.18	16854.20
478.36	17326.99
478.54	17263.79
478.72	17006.33
478.90	17755.30
479.08	17762.33
479.26	17247.41
479.44	18078.30
479.62	17818.50
479.80	18059.57
479.98	18408.31
480.16	18640.03
480.34	18572.15
480.52	18621.30
480.70	18712.58
480.88	18384.91
481.06	18967.70
481.24	19061.32
481.41	19133.88
481.59	19784.55
481.77	19548.15
481.95	19714.33
482.13	19964.77
482.31	20074.77
482.49	20262.02
482.67	20140.31
482.85	20912.69
483.03	20833.11
483.21	20915.03
483.39	20849.49
483.57	21055.46
483.74	21479.10
483.92	21682.72
484.10	21322.28
484.28	22092.32
484.46	22244.45
484.64	22513.61
484.82	22417.65
485.00	22562.76
485.18	22979.38
485.35	23138.54
485.53	23239.18
485.71	23332.80
485.89	23445.15
486.07	23501.32
486.25	23812.61
486.43	23463.87
486.61	24095.82
486.78	24360.30
486.96	24308.80
487.14	24641.16
487.32	24973.52
487.50	25530.56
487.68	25041.39
487.85	25734.19
488.03	25516.52
488.21	25708.44
488.39	26434.01
488.57	26431.67
488.75	26525.29
488.92	26501.89
489.10	26930.20
489.28	26831.90
489.46	27002.76
489.64	27466.19
489.81	28109.83
489.99	27974.08
490.17	27814.93
490.35	28217.50
490.53	28458.57
490.70	28886.89
490.88	28673.90
491.06	29404.15
491.24	29219.25
491.41	29436.92
491.59	29582.03
491.77	29221.59
491.95	29792.68
492.13	30038.44
492.30	30293.55
492.48	30139.08
492.66	30569.74
492.84	30642.29
493.01	30859.96
493.19	30998.06
493.37	31337.43
493.54	31360.84
493.72	31850.01
493.90	31648.72
494.08	32456.21
494.25	32816.65
494.43	32320.46
494.61	32559.19
494.79	33036.66
494.96	33083.47
495.14	33177.09
495.32	33619.46
495.49	33518.81
495.67	33577.33
495.85	33928.41
496.02	33900.32
496.20	34749.93
496.38	34230.33
496.55	34745.25
496.73	35150.17
496.91	34703.12
497.09	35079.95
497.26	35852.33
497.44	35028.46
497.62	35569.12
497.79	36187.02
497.97	35812.54
498.14	35988.08
498.32	36507.68
498.50	36320.43
498.67	37081.11
498.85	36428.10
499.03	37060.04
499.20	37001.53
499.38	37127.92
499.56	37256.65
499.73	37443.89
499.91	37661.56
500.08	37986.89
500.26	37544.53
500.44	38085.20
500.61	38047.75
500.79	38370.74
500.97	38431.60
501.14	38742.89
501.32	39285.89
501.49	39201.63
501.67	38782.68
501.84	39075.24
502.02	39173.55
502.20	39337.38
502.37	39861.66
502.55	39714.21
502.72	39833.58
502.90	40027.84
503.07	39957.63
503.25	40184.66
503.43	40179.98
503.60	40205.72
503.78	40861.07
503.95	40891.50
504.13	40786.18
504.30	40634.04
504.48	40931.29
504.65	41148.96
504.83	41486.00
505.01	41366.63
505.18	41291.73
505.36	41551.53
505.53	41263.64
505.71	41916.65
505.88	42155.39
506.06	41741.11
506.23	42314.55
506.41	42129.64
506.58	42410.51
506.76	42607.11
506.93	43208.63
507.11	42698.39
507.28	43241.40
507.46	43093.94
507.63	43103.31
507.81	43676.74
507.98	42838.83
508.16	43604.18
508.33	43793.76
508.50	44376.56
508.68	43959.94
508.85	43903.77
509.03	44217.40
509.20	44575.50
509.38	44519.33
509.55	44807.22
509.73	44868.07
509.90	44886.79
510.08	44985.10
510.25	45148.93
510.42	45057.65
510.60	45722.37
510.77	45619.38
510.95	46066.42
511.12	45411.07
511.30	45734.07
511.47	45631.08
511.64	45900.25
511.82	46185.79
511.99	46134.30
512.17	46394.10
512.34	46246.65
512.51	46274.73
512.69	46717.09
512.86	46438.57
513.04	46843.48
513.21	47487.13
513.38	46878.59
513.56	47421.59
513.73	47292.86
513.90	47098.60
514.08	47454.36
514.25	48079.28
514.43	47969.28
514.60	47718.84
514.77	47917.79
514.95	48294.61
515.12	47976.30
515.29	47985.66
515.47	48505.26
515.64	48296.95
515.81	48112.05
515.99	48884.43
516.16	48872.73
516.33	48619.95
516.51	48912.52
516.68	49045.93
516.85	48828.26
517.03	48713.57
517.20	49294.02
517.37	49130.19
517.54	49595.95
517.72	49483.61
517.89	49577.23
518.06	49518.71
518.24	49675.53
518.41	49254.23
518.58	49914.26
518.75	49474.24
518.93	50246.62
519.10	49757.45
519.27	49897.88
519.45	50251.30
519.62	50253.64
519.79	50195.13
519.96	50387.05
520.14	50309.82
520.31	50279.39
520.48	50916.01
520.65	50635.15
520.83	50976.87
521.00	51264.75
521.17	50777.92
521.34	51114.96
521.52	50841.12
521.69	50906.65
521.86	51229.65
522.03	51299.86
522.20	51807.76
522.38	51957.55
522.55	51503.49
522.72	51531.57
522.89	51693.07
523.07	52158.84
523.24	51760.95
523.41	52048.83
523.58	51854.57
523.75	52339.06
523.92	51938.83
524.10	52107.35
524.27	52278.21
524.44	52486.51
524.61	52303.95
524.78	52357.78
524.96	52711.20
525.13	52715.89
525.30	52732.27
525.47	52622.26
525.64	52795.46
525.81	52938.24
525.98	52870.36
526.16	53013.13
526.33	52729.93
526.50	53528.05
526.67	52877.38
526.84	53083.35
527.01	53294.00
527.18	53392.30
527.36	53488.26
527.53	53174.63
527.70	53607.63
527.87	53584.22
528.04	53270.59
528.21	53502.31
528.38	53514.01
528.55	53638.06
528.72	53801.89
528.89	53675.51
529.07	53914.24
529.24	53584.22
529.41	53755.08
529.58	54138.93
529.75	53947.01
529.92	53947.01
530.09	54017.22
530.26	54305.11
530.43	54316.81
530.60	54195.10
530.77	54162.34
530.94	54518.10
531.11	54171.70
531.28	54265.32
531.46	54389.37
531.63	54438.52
531.80	54569.59
531.97	54518.10
532.14	54813.01
532.31	54976.84
532.48	54979.18
532.65	54953.44
532.82	54588.31
532.99	55145.36
533.16	54775.56
533.33	55079.83
533.50	54990.89
533.67	55009.61
533.84	55011.95
534.01	55128.98
534.18	55175.79
534.35	55491.76
534.52	55601.77
534.69	55454.31
534.86	55604.11
535.03	55407.50
535.20	55157.06
535.37	55625.17
535.54	55547.93
535.71	55627.51
535.88	55756.24
536.05	55917.74
536.22	55868.59
536.38	55702.41
536.55	55798.37
536.72	55964.55
536.89	55796.03
537.06	55796.03
537.23	56060.51
537.40	56144.77
537.57	55866.25
537.74	56076.90
537.91	56465.42
538.08	56067.53
538.25	56144.77
538.42	56086.26
538.59	56376.48
538.75	56296.91
538.92	56315.63
539.09	56458.40
539.26	56423.29
539.43	56093.28
539.60	56502.87
539.77	56406.91
539.94	56545.00
540.11	56388.19
540.28	56722.88
540.44	56685.43
540.61	56699.48
540.78	56406.91
540.95	56537.98
541.12	56554.36
541.29	56624.58
541.46	56935.87
541.62	56832.89
541.79	56596.49
541.96	56673.73
542.13	56797.78
542.30	56868.00
542.47	57034.17
542.63	56961.62
542.80	57179.29
542.97	57240.14
543.14	57401.64
543.31	57329.08
543.48	57378.23
543.64	57563.14
543.81	57577.18
543.98	57560.79
544.15	57684.84
544.32	57776.12
544.48	57839.32
544.65	57921.24
544.82	57780.81
544.99	57572.50
545.16	57785.49
545.32	57521.01
545.49	58080.39
545.66	57958.69
545.83	57914.22
546.00	57930.60
546.16	57806.55
546.33	57872.09
546.50	57607.61
546.67	57937.62
546.83	57635.69
547.00	58096.78
547.17	58251.25
547.34	58080.39
547.50	58230.19
547.67	58284.02
547.84	58330.83
548.00	58473.60
548.17	58403.39
548.34	58213.80
548.51	58553.18
548.67	58356.58
548.84	58307.43
549.01	58246.57
549.18	58438.50
549.34	58445.52
549.51	58534.46
549.68	58550.84
549.84	58464.24
550.01	58829.37
550.18	58422.11
550.34	58784.90
550.51	58761.49
550.68	58707.66
550.84	58424.45
551.01	58808.30
551.18	58714.68
551.34	58742.77
551.51	58698.30
551.68	58686.59
551.84	58834.05
552.01	58508.71
552.18	58864.47
552.34	58880.86
552.51	59002.56
552.68	58901.92
552.84	58859.79
553.01	59145.34
553.18	59068.10
553.34	59107.89
553.51	58733.40
553.67	59110.23
553.84	58990.86
554.01	59222.58
554.17	59353.65
554.34	59281.09
554.51	59421.52
554.67	59313.86
554.84	59187.47
555.00	59299.81
555.17	59164.06
555.33	59150.02
555.50	59173.42
555.67	59253.00
555.83	59112.57
556.00	59355.99
556.16	59697.70
556.33	59625.15
556.50	59508.12
556.66	59398.12
556.83	59405.14
556.99	59728.13
557.16	59690.68
557.32	59695.36
557.49	59896.65
557.65	59573.66
557.82	59873.24
557.98	59576.00
558.15	59606.42
558.32	59711.75
558.48	59510.46
558.65	59580.68
558.81	59732.81
558.98	59840.48
559.14	59735.15
559.31	59756.22
559.47	59906.01
559.64	59854.52
559.80	59992.61
559.97	60023.04
560.13	59990.27
560.30	60041.76
560.46	59962.18
560.63	60086.23
560.79	59985.59
560.96	60196.24
561.12	60264.11
561.29	60264.11
561.45	60027.72
561.61	60065.17
561.78	59990.27
561.94	60018.36
562.11	60076.87
562.27	60168.15
562.44	60109.64
562.60	60128.36
562.77	60109.64
562.93	60060.49
563.10	60240.71
563.26	59948.14
563.42	60430.29
563.59	60420.93
563.75	60189.22
563.92	60240.71
564.08	60231.35
564.24	60406.89
564.41	60247.73
564.57	60395.18
564.74	60357.74
564.90	60533.28
565.07	60292.20
565.23	60320.29
565.39	60287.52
565.56	60383.48
565.72	60266.45
565.88	60266.45
566.05	60425.61
566.21	60449.02
566.38	60549.66
566.54	60638.60
566.70	60552.00
566.87	60563.70
567.03	60397.52
567.19	60713.50
567.36	60533.28
567.52	60406.89
567.68	60657.32
567.85	60507.53
568.01	60643.28
568.17	60502.85
568.34	60570.72
568.50	60441.99
568.66	60385.82
568.83	60622.22
568.99	60650.30
569.15	60690.09
569.32	60757.97
569.48	60647.96
569.64	60701.79
569.81	60776.69
569.97	60596.47
570.13	60650.30
570.30	60575.40
570.46	60603.49
570.62	60568.38
570.78	60736.90
570.95	60598.81
571.11	60692.43
571.27	60711.16
571.43	60732.22
571.60	60914.78
571.76	60966.27
571.92	60914.78
572.09	60692.43
572.25	60713.50
572.41	60594.13
572.57	60807.12
572.74	61137.13
572.90	60671.37
573.06	60837.54
573.22	60835.20
573.38	60743.92
573.55	60982.66
573.71	61078.62
573.87	60931.17
574.03	60755.63
574.20	60802.44
574.36	60779.03
574.52	61069.26
574.68	60961.59
574.84	61048.19
575.01	60818.82
575.17	60956.91
575.33	60828.18
575.49	61043.51
575.65	61087.98
575.82	60992.02
575.98	60882.02
576.14	61261.18
576.30	61006.06
576.46	60973.30
576.62	61006.06
576.79	61027.13
576.95	60985.00
577.11	60973.30
577.27	60905.42
577.43	61179.26
577.59	61010.74
577.75	60968.61
577.92	61010.74
578.08	60954.57
578.24	61116.07
578.40	61254.16
578.56	61139.47
578.72	61015.43
578.88	61207.35
579.04	61359.48
579.21	61041.17
579.37	61270.54
579.53	61249.48
579.69	60961.59
579.85	61111.39
580.01	61132.45
580.17	61050.53
580.33	61277.57
580.49	61205.01
580.65	61038.83
580.82	61059.90
580.98	61038.83
581.14	60921.80
581.30	61279.91
581.46	61038.83
581.62	61282.25
581.78	61116.07
581.94	61254.16
582.10	61078.62
582.26	61003.72
582.42	60921.80
582.58	61151.18
582.74	61216.71
582.90	61022.45
583.06	60987.34
583.22	60832.86
583.38	61179.26
583.54	61237.78
583.70	61284.59
583.86	61127.77
584.02	61078.62
584.18	61293.95
584.34	61343.10
584.50	61216.71
584.66	61282.25
584.82	60811.80
584.98	61214.37
585.14	61415.66
585.30	61043.51
585.46	61104.37
585.62	61261.18
585.78	61097.34
585.94	61165.22
586.10	61230.75
586.26	61216.71
586.42	61359.48
586.58	61329.06
586.74	61350.12
586.90	60994.36
587.06	61118.41
587.22	61406.30
587.38	61193.31
587.54	61284.59
587.70	61382.89
587.86	61247.14
588.02	61422.68
588.18	61422.68
588.34	61406.30
588.49	61300.97
