SpectraSuite Data File
++++++++++++++++++++++++++++++++++++
Date: Fri Oct 25 11:25:57 EDT 2013
User: price-jones
Dark Spectrum Present: No
Reference Spectrum Present: No
Number of Sampled Component Spectra: 1
Spectrometers: USB2+H05261
Integration Time (usec): 100000 (USB2+H05261)
Spectra Averaged: 1 (USB2+H05261)
Boxcar Smoothing: 0 (USB2+H05261)
Correct for Electrical Dark: No (USB2+H05261)
Strobe/Lamp Enabled: No (USB2+H05261)
Correct for Detector Non-linearity: No (USB2+H05261)
Correct for Stray Light: No (USB2+H05261)
Number of Pixels in Processed Spectrum: 2048
>>>>>Begin Processed Spectral Data<<<<<
365.73	278.52
365.92	278.52
366.12	278.52
366.32	95.96
366.52	241.08
366.72	138.09
366.91	133.41
367.11	159.16
367.31	152.13
367.51	98.30
367.70	138.09
367.90	161.50
368.10	154.48
368.30	131.07
368.49	121.71
368.69	175.54
368.89	156.82
369.09	135.75
369.28	156.82
369.48	128.73
369.68	161.50
369.87	168.52
370.07	217.67
370.27	266.82
370.47	346.40
370.66	552.37
370.86	624.92
371.06	664.71
371.25	709.18
371.45	589.82
371.65	709.18
371.84	695.14
372.04	678.76
372.24	669.39
372.44	737.27
372.63	784.08
372.83	711.52
373.03	760.67
373.22	699.82
373.42	774.72
373.62	802.80
373.81	765.36
374.01	814.51
374.21	786.42
374.40	753.65
374.60	837.91
374.79	833.23
374.99	823.87
375.19	849.61
375.38	812.17
375.58	805.14
375.78	844.93
375.97	870.68
376.17	891.74
376.37	875.36
376.56	847.27
376.76	851.96
376.95	816.85
377.15	889.40
377.35	873.02
377.54	980.68
377.74	926.85
377.93	863.66
378.13	1004.09
378.33	936.21
378.52	917.49
378.72	1043.88
378.91	938.55
379.11	851.96
379.31	891.74
379.50	1004.09
379.70	954.94
379.89	959.62
380.09	976.00
380.28	938.55
380.48	894.08
380.68	926.85
380.87	943.24
381.07	943.24
381.26	992.39
381.46	968.98
381.65	1081.33
381.85	997.07
382.04	1055.58
382.24	1097.71
382.43	1043.88
382.63	1109.41
382.83	1041.54
383.02	1057.92
383.22	1090.69
383.41	1083.67
383.61	1088.35
383.80	1130.48
384.00	1123.46
384.19	1081.33
384.39	1071.97
384.58	1163.25
384.78	1125.80
384.97	1219.42
385.17	1102.39
385.36	1172.61
385.56	1137.50
385.75	1242.82
385.95	1191.33
386.14	1235.80
386.34	1107.07
386.53	1196.01
386.72	1146.86
386.92	1259.21
387.11	1245.16
387.31	1261.55
387.50	1196.01
387.70	1336.45
387.89	1284.95
388.09	1289.64
388.28	1263.89
388.48	1273.25
388.67	1362.19
388.86	1308.36
389.06	1369.21
389.25	1282.61
389.45	1364.53
389.64	1394.96
389.84	1448.79
390.03	1390.28
390.22	1394.96
390.42	1345.81
390.61	1373.89
390.81	1411.34
391.00	1486.24
391.19	1390.28
391.39	1373.89
391.58	1451.13
391.78	1451.13
391.97	1455.81
392.16	1519.01
392.36	1600.93
392.55	1509.65
392.75	1551.78
392.94	1572.84
393.13	1600.93
393.33	1516.67
393.52	1486.24
393.71	1600.93
393.91	1584.54
394.10	1629.01
394.29	1584.54
394.49	1645.40
394.68	1507.30
394.88	1598.59
395.07	1603.27
395.26	1619.65
395.46	1640.72
395.65	1710.93
395.84	1729.66
396.04	1774.13
396.23	1755.40
396.42	1774.13
396.62	1790.51
396.81	1809.23
397.00	1827.96
397.19	1809.23
397.39	1811.57
397.58	1753.06
397.77	1820.94
397.97	1930.94
398.16	1902.86
398.35	1888.81
398.55	1792.85
398.74	1912.22
398.93	1963.71
399.12	1886.47
399.32	1874.77
399.51	1881.79
399.70	1991.80
399.90	1966.05
400.09	2040.95
400.28	2108.82
400.47	1977.75
400.67	1994.14
400.86	2057.33
401.05	1963.71
401.24	2120.53
401.44	2169.68
401.63	2108.82
401.82	2087.76
402.01	2139.25
402.21	2188.40
402.40	2237.55
402.59	2054.99
402.78	2160.31
402.97	2260.96
403.17	2382.67
403.36	2354.58
403.55	2279.68
403.74	2333.51
403.93	2380.32
404.13	2436.50
404.32	2382.67
404.51	2403.73
404.70	2480.97
404.89	2406.07
405.09	2499.69
405.28	2441.18
405.47	2445.86
405.66	2597.99
405.85	2509.05
406.05	2518.42
406.24	2539.48
406.43	2525.44
406.62	2609.70
406.81	2752.47
407.00	2534.80
407.20	2623.74
407.39	2586.29
407.58	2675.23
407.77	2750.13
407.96	2764.17
408.15	2808.64
408.34	2782.90
408.54	2839.07
408.73	2789.92
408.92	2810.98
409.11	2909.29
409.30	2850.77
409.49	2832.05
409.68	2918.65
409.87	2981.84
410.07	2984.18
410.26	2991.20
410.45	2867.16
410.64	2890.56
410.83	3042.70
411.02	3089.51
411.21	3150.36
411.40	3215.90
411.59	3328.24
411.78	3218.24
411.98	3148.02
412.17	3232.28
412.36	3220.58
412.55	3335.26
412.74	3403.14
412.93	3353.99
413.12	3417.18
413.31	3501.44
413.50	3386.76
413.69	3583.36
413.88	3637.19
414.07	3602.08
414.26	3695.71
414.45	3719.11
414.64	3644.21
414.83	3740.18
415.02	3712.09
415.22	3840.82
415.41	3882.95
415.60	3772.94
415.79	3805.71
415.98	3953.16
416.17	3929.76
416.36	4009.34
416.55	4053.81
416.74	4039.76
416.93	3969.55
417.12	4208.28
417.31	4112.32
417.50	4145.09
417.69	4344.03
417.88	4315.95
418.07	4311.27
418.26	4306.59
418.45	4196.58
418.64	4416.59
418.83	4496.17
419.02	4465.74
419.21	4524.26
419.39	4669.37
419.58	4505.53
419.77	4423.61
419.96	4514.89
420.15	4505.53
420.34	4629.58
420.53	4472.76
420.72	4664.69
420.91	4709.16
421.10	4718.52
421.29	4798.10
421.48	4528.94
421.67	4842.57
421.86	4734.90
422.05	4784.06
422.24	4833.21
422.43	4863.63
422.61	4973.64
422.80	4833.21
422.99	4954.91
423.18	4931.51
423.37	4997.04
423.56	4873.00
423.75	4983.00
423.94	4823.84
424.13	4650.64
424.32	4751.29
424.50	4973.64
424.69	5046.20
424.88	5137.48
425.07	5006.41
425.26	4959.60
425.45	4873.00
425.64	5029.81
425.83	4983.00
426.01	5085.98
426.20	5008.75
426.39	5095.35
426.58	5137.48
426.77	5020.45
426.96	5125.77
427.15	5228.76
427.33	5305.99
427.52	5207.69
427.71	5067.26
427.90	5226.42
428.09	5453.45
428.28	5404.30
428.46	5261.52
428.65	5359.83
428.84	5399.62
429.03	5483.88
429.22	5434.72
429.40	5497.92
429.59	5547.07
429.78	5350.46
429.97	5338.76
430.16	5575.16
430.34	5472.17
430.53	5530.69
430.72	5636.01
430.91	5577.50
431.10	5685.16
431.28	5844.32
431.47	5687.50
431.66	5923.90
431.85	5820.91
432.03	5863.04
432.22	5956.66
432.41	5975.39
432.60	5919.21
432.79	5909.85
432.97	6169.65
433.16	5949.64
433.35	6019.86
433.54	6118.16
433.72	6249.23
433.91	5987.09
434.10	6115.82
434.28	5928.58
434.47	6115.82
434.66	6249.23
434.85	6195.40
435.03	6080.71
435.22	6270.30
435.41	6455.20
435.59	6293.70
435.78	6406.05
435.97	6406.05
436.16	6368.60
436.34	6494.99
436.53	6579.25
436.72	6621.38
436.90	6375.62
437.09	6516.05
437.28	6612.01
437.46	6586.27
437.65	6637.76
437.84	6691.59
438.02	6761.81
438.21	6682.23
438.40	6707.98
438.58	7014.59
438.77	7096.50
438.96	6918.62
439.14	6956.07
439.33	7028.63
439.52	7103.53
439.70	7105.87
439.89	7335.24
440.08	7342.26
440.26	7440.56
440.45	7316.51
440.63	7520.14
440.82	7637.17
441.01	7606.74
441.19	7578.65
441.38	7698.02
441.57	7660.57
441.75	7901.65
441.94	7889.95
442.12	7946.12
442.31	8013.99
442.50	7953.14
442.68	8081.87
442.87	7983.57
443.05	8009.31
443.24	8145.06
443.43	8334.65
443.61	8184.85
443.80	8402.52
443.98	7894.63
444.17	7740.15
444.35	8168.47
444.54	8435.29
444.73	8404.86
444.91	8372.10
445.10	8416.57
445.28	8332.31
445.47	8322.94
445.65	8322.94
445.84	8374.44
446.02	8493.80
446.21	8306.56
446.39	8444.65
446.58	8521.89
446.77	8664.66
446.95	8154.43
447.14	8407.20
447.32	8645.94
447.51	8437.63
447.69	8388.48
447.88	8552.32
448.06	8475.08
448.25	8615.51
448.43	8589.77
448.62	8578.06
448.80	8648.28
448.99	8657.64
449.17	8659.98
449.36	8542.96
449.54	8903.40
449.73	8985.32
449.91	9001.70
450.10	8910.42
450.28	8966.59
450.46	8966.59
450.65	8943.19
450.83	9100.00
451.02	8973.61
451.20	9069.58
451.39	8980.64
451.57	9156.18
451.76	9191.28
451.94	9100.00
452.13	9245.12
452.31	9172.56
452.49	9071.92
452.68	9191.28
452.86	9418.32
453.05	9287.25
453.23	9591.52
453.42	9188.94
453.60	9217.03
453.78	9446.40
453.97	9392.57
454.15	9643.01
454.34	9338.74
454.52	9783.44
454.70	9928.55
454.89	9844.29
455.07	9748.33
455.26	9820.89
455.44	10064.30
455.62	9863.02
455.81	9781.10
455.99	10008.13
456.17	10057.28
456.36	10010.47
456.54	10059.62
456.73	10239.84
456.91	10457.51
457.09	10319.42
457.28	10567.52
457.46	10420.06
457.64	10611.99
457.83	10443.47
458.01	10469.22
458.19	10799.23
458.38	10775.83
458.56	10862.43
458.74	10745.40
458.93	10546.45
459.11	10738.38
459.29	10817.96
459.48	10572.20
459.66	10766.46
459.84	10913.92
460.03	10986.47
460.21	11089.46
460.39	10972.43
460.57	11119.89
460.76	11009.88
460.94	11342.24
461.12	11103.50
461.31	11136.27
461.49	11410.11
461.67	11061.37
461.85	11536.50
462.04	11302.45
462.22	11910.99
462.40	11555.22
462.59	11367.98
462.77	11438.20
462.95	11754.17
463.13	11639.48
463.32	11728.42
463.50	11543.52
463.68	11616.08
463.86	11634.80
464.05	11744.81
464.23	11829.07
464.41	11971.84
464.59	11587.99
464.78	12264.41
464.96	11974.18
465.14	11726.08
465.32	12100.57
465.50	12262.07
465.69	12013.97
465.87	12166.10
466.05	12025.67
466.23	12046.74
466.41	12053.76
466.60	12423.56
466.78	12343.99
466.96	12264.41
467.14	12074.82
467.32	12395.48
467.51	12519.53
467.69	11985.88
467.87	12453.99
468.05	12613.15
468.23	12566.34
468.41	12512.50
468.60	12624.85
468.78	12854.22
468.96	12732.51
469.14	12849.54
469.32	12835.50
469.50	12627.19
469.69	12996.99
469.87	13011.04
470.05	12800.39
470.23	13193.60
470.41	13081.25
470.59	13446.38
470.77	13090.62
470.95	13247.43
471.14	13310.63
471.32	13137.43
471.50	13635.96
471.68	13277.86
471.86	13458.08
472.04	13790.44
472.22	13762.35
472.40	13722.56
472.58	13774.05
472.77	14099.39
472.95	14150.88
473.13	14649.41
473.31	14106.41
473.49	14317.06
473.67	14167.26
473.85	14267.91
474.03	14541.75
474.21	14621.33
474.39	14558.13
474.57	14450.47
474.75	14820.27
474.93	15089.43
475.12	14820.27
475.30	15382.00
475.48	15009.86
475.66	15267.31
475.84	15000.49
476.02	15311.78
476.20	15452.22
476.38	15311.78
476.56	16013.95
476.74	16065.44
476.92	15616.05
477.10	15690.95
477.28	15927.35
477.46	16203.53
477.64	16297.15
477.82	16524.18
478.00	16716.11
478.18	16559.29
478.36	16975.91
478.54	17039.10
478.72	17081.23
478.90	17383.16
479.08	17441.67
479.26	17846.58
479.44	17759.98
479.62	17720.20
479.80	18157.88
479.98	18263.20
480.16	18504.28
480.34	18258.52
480.52	18492.57
480.70	18565.13
480.88	18525.34
481.06	18405.97
481.24	18614.28
481.41	19021.53
481.59	19271.97
481.77	19220.48
481.95	19377.30
482.13	19761.14
482.31	19733.06
482.49	20198.82
482.67	20196.48
482.85	20702.04
483.03	20395.43
483.21	20592.03
483.39	20531.18
483.57	20833.11
483.74	21025.03
483.92	21392.50
484.10	20919.71
484.28	21713.15
484.46	21900.39
484.64	22497.23
484.82	21954.22
485.00	22398.93
485.18	22558.08
485.35	22890.44
485.53	22824.90
485.71	22948.95
485.89	23559.83
486.07	23388.97
486.25	23173.64
486.43	23641.75
486.61	23779.84
486.78	24023.26
486.96	24229.23
487.14	24505.41
487.32	24657.54
487.50	25008.62
487.68	25008.62
487.85	25315.23
488.03	25671.00
488.21	25525.88
488.39	25720.15
488.57	25879.30
488.75	26113.36
488.92	26551.04
489.10	26644.66
489.28	26991.06
489.46	27171.28
489.64	26871.69
489.81	27721.30
489.99	27351.50
490.17	27590.24
490.35	28123.88
490.53	28432.83
490.70	28477.30
490.88	28170.69
491.06	28826.04
491.24	28781.57
491.41	28814.34
491.59	29371.38
491.77	29488.41
491.95	29223.93
492.13	29556.28
492.30	30031.41
492.48	29970.56
492.66	30005.67
492.84	30237.38
493.01	30590.80
493.19	30347.39
493.37	31026.14
493.54	30974.65
493.72	31264.88
493.90	31288.28
494.08	31807.88
494.25	31969.38
494.43	32257.26
494.61	32175.34
494.79	32280.67
494.96	32378.97
495.14	32601.32
495.32	32929.00
495.49	33156.03
495.67	33535.20
495.85	33390.08
496.02	33610.09
496.20	34270.12
496.38	33963.51
496.55	34274.80
496.73	34785.04
496.91	34370.77
497.09	34642.27
497.26	34883.34
497.44	34778.02
497.62	35061.22
497.79	35732.96
497.97	35629.98
498.14	36172.98
498.32	36505.34
498.50	36243.20
498.67	36655.13
498.85	36631.72
499.03	36341.50
499.20	36498.31
499.38	36615.34
499.56	37102.17
499.73	37043.66
499.91	37179.41
500.08	37401.76
500.26	37310.48
500.44	37567.94
500.61	37956.47
500.79	37539.85
500.97	38382.45
501.14	38363.72
501.32	38380.10
501.49	38576.71
501.67	38616.50
501.84	39412.28
502.02	38466.70
502.20	39012.05
502.37	39157.16
502.55	38761.61
502.72	39519.95
502.90	39641.65
503.07	39590.16
503.25	39576.12
503.43	39498.88
503.60	40259.55
503.78	40119.12
503.95	40175.30
504.13	40577.87
504.30	40383.60
504.48	40825.96
504.65	40367.22
504.83	40959.38
505.01	41361.95
505.18	40868.09
505.36	41603.02
505.53	40849.37
505.71	41322.16
505.88	41546.85
506.06	41684.94
506.23	42117.94
506.41	41890.91
506.58	42160.07
506.76	42131.98
506.93	42286.46
507.11	41956.44
507.28	42667.97
507.46	42630.52
507.63	42656.26
507.81	43328.00
507.98	43054.15
508.16	42930.11
508.33	43215.65
508.50	43246.08
508.68	43494.18
508.85	43854.62
509.03	43620.56
509.20	44121.44
509.38	44554.44
509.55	44147.18
509.73	44369.54
509.90	44463.16
510.08	44353.15
510.25	44411.67
510.42	45249.58
510.60	44924.24
510.77	45193.40
510.95	45549.17
511.12	45233.19
511.30	45371.28
511.47	45242.56
511.64	45457.88
511.82	45846.41
511.99	45626.40
512.17	45860.46
512.34	45933.01
512.51	45916.63
512.69	46415.16
512.86	46443.25
513.04	46263.03
513.21	46518.15
513.38	46576.66
513.56	46490.06
513.73	46766.24
513.90	46714.75
514.08	46920.72
514.25	47777.36
514.43	47423.93
514.60	47407.55
514.77	47082.22
514.95	47281.16
515.12	47400.53
515.29	47452.02
515.47	47718.84
515.64	48002.05
515.81	47676.71
515.99	48238.44
516.16	48519.31
516.33	48425.68
516.51	48355.47
516.68	48287.59
516.85	48683.14
517.03	48938.26
517.20	48924.22
517.37	48612.93
517.54	48839.96
517.72	49043.59
517.89	49090.40
518.06	48896.13
518.24	49130.19
518.41	49116.14
518.58	49364.24
518.75	49254.23
518.93	49567.87
519.10	49595.95
519.27	49544.46
519.45	49961.08
519.62	50005.55
519.79	49748.09
519.96	50005.55
520.14	49883.84
520.31	49911.92
520.48	50218.53
520.65	50160.02
520.83	50504.08
521.00	50923.04
521.17	50536.85
521.34	50742.81
521.52	50845.80
521.69	51063.47
521.86	50939.42
522.03	50962.82
522.20	51203.90
522.38	51295.18
522.55	51341.99
522.72	51065.81
522.89	51068.15
523.07	51531.57
523.24	51292.84
523.41	51870.95
523.58	51409.87
523.75	51639.24
523.92	51751.59
524.10	51601.79
524.27	51758.61
524.44	52053.51
524.61	51814.78
524.78	51753.93
524.96	52112.03
525.13	52163.52
525.30	52437.36
525.47	52491.19
525.64	52383.53
525.81	52769.72
525.98	52704.18
526.16	52282.89
526.33	52383.53
526.50	52809.51
526.67	52905.47
526.84	52844.62
527.01	52643.33
527.18	52889.09
527.36	53020.16
527.53	53013.13
527.70	53420.39
527.87	53591.25
528.04	53221.44
528.21	53624.01
528.38	53497.62
528.55	53607.63
528.72	53443.79
528.89	53666.14
529.07	53301.02
529.24	53446.13
529.41	53722.32
529.58	53305.70
529.75	53591.25
529.92	53691.89
530.09	53867.43
530.26	53979.78
530.43	54082.76
530.60	53696.57
530.77	53460.18
530.94	53937.65
531.11	54251.28
531.28	53998.50
531.46	54010.20
531.63	54082.76
531.80	54363.62
531.97	54403.41
532.14	54368.30
532.31	54632.78
532.48	54693.64
532.65	54536.82
532.82	54464.27
532.99	54749.81
533.16	54607.04
533.33	54808.32
533.50	54684.28
533.67	54920.67
533.84	54927.69
534.01	54798.96
534.18	54798.96
534.35	55444.95
534.52	55110.25
534.69	55185.15
534.86	55260.05
535.03	55098.55
535.20	55178.13
535.37	55412.18
535.54	55302.18
535.71	55222.60
535.88	55423.89
536.05	55356.01
536.22	55398.14
536.38	55606.45
536.55	55554.96
536.72	55442.61
536.89	55423.89
537.06	55594.74
537.23	55772.63
537.40	55636.87
537.57	55791.35
537.74	55791.35
537.91	55817.10
538.08	55648.58
538.25	55669.64
538.42	55791.35
538.59	56088.60
538.75	55859.23
538.92	55920.08
539.09	56163.50
539.26	56266.48
539.43	56002.00
539.60	56114.34
539.77	56250.09
539.94	56442.02
540.11	56353.08
540.28	56451.38
540.44	56303.93
540.61	56257.12
540.78	56453.72
540.95	56442.02
541.12	56317.97
541.29	56161.15
541.46	56280.52
541.62	56383.51
541.79	56512.23
541.96	56156.47
542.13	56355.42
542.30	56650.33
542.47	56856.29
542.63	56879.70
542.80	56877.36
542.97	57080.98
543.14	57017.79
543.31	57123.11
543.48	57272.91
543.64	57326.74
543.81	57345.47
543.98	57301.00
544.15	57244.82
544.32	57364.19
544.48	57535.05
544.65	57277.59
544.82	57216.74
544.99	57212.06
545.16	57642.71
545.32	57439.09
545.49	57616.97
545.66	57741.02
545.83	57708.25
546.00	57719.95
546.16	57631.01
546.33	57415.68
546.50	57556.11
546.67	57766.76
546.83	57532.71
547.00	57813.57
547.17	57579.52
547.34	57605.26
547.50	58026.56
547.67	58049.97
547.84	57968.05
548.00	58056.99
548.17	57925.92
548.34	58007.84
548.51	58174.02
548.67	58358.92
548.84	58129.54
549.01	57951.66
549.18	58052.31
549.34	58099.12
549.51	58171.67
549.68	58419.77
549.84	58354.24
550.01	58312.11
550.18	58473.60
550.34	58316.79
550.51	58351.90
550.68	58410.41
550.84	58265.30
551.01	58501.69
551.18	58623.40
551.34	58389.34
551.51	58637.44
551.68	58560.20
551.84	58628.08
552.01	58293.38
552.18	58773.19
552.34	58759.15
552.51	58611.70
552.68	58464.24
552.84	58712.34
553.01	58913.62
553.18	58791.92
553.34	58768.51
553.51	58745.11
553.67	58829.37
553.84	58925.33
554.01	58820.00
554.17	59133.63
554.34	58796.60
554.51	58873.84
554.67	59100.87
554.84	59025.97
555.00	58913.62
555.17	59077.46
555.33	58983.84
555.50	58890.22
555.67	58836.39
555.83	58873.84
556.00	59025.97
556.16	59395.77
556.33	59318.54
556.50	59241.30
556.66	59220.23
556.83	59061.08
556.99	59337.26
557.16	59421.52
557.32	59395.77
557.49	59557.27
557.65	59245.98
557.82	59379.39
557.98	59381.73
558.15	59571.32
558.32	59412.16
558.48	59475.35
558.65	59262.36
558.81	59550.25
558.98	59475.35
559.14	59512.80
559.31	59576.00
559.47	59732.81
559.64	59655.57
559.80	59613.44
559.97	59573.66
560.13	59430.88
560.30	59674.30
560.46	59732.81
560.63	59756.22
560.79	59561.95
560.96	59999.63
561.12	59695.36
561.29	59793.67
561.45	59882.61
561.61	59884.95
561.78	59788.98
561.94	59774.94
562.11	59629.83
562.27	59929.42
562.44	60039.42
562.60	60072.19
562.77	59856.86
562.93	59648.55
563.10	60001.97
563.26	59931.76
563.42	60165.81
563.59	59803.03
563.75	59805.37
563.92	59915.37
564.08	60044.10
564.24	60385.82
564.41	60069.85
564.57	60147.09
564.74	60032.40
564.90	60184.54
565.07	60126.02
565.23	60193.90
565.39	59936.44
565.56	60074.53
565.72	60079.21
565.88	60229.01
566.05	60065.17
566.21	59955.16
566.38	60126.02
566.54	60079.21
566.70	60463.06
566.87	60128.36
567.03	60086.23
567.19	60168.15
567.36	60329.65
567.52	60486.46
567.68	60505.19
567.85	60360.08
568.01	60280.50
568.17	60004.31
568.34	60334.33
568.50	60212.62
568.66	60568.38
568.83	60706.47
568.99	60413.91
569.15	60275.82
569.32	60425.61
569.48	60535.62
569.64	60404.55
569.81	60392.84
569.97	60151.77
570.13	60449.02
570.30	60238.37
570.46	60402.21
570.62	60554.34
570.78	60479.44
570.95	60205.60
571.11	60647.96
571.27	60617.53
571.43	60500.51
571.60	60629.24
571.76	60657.32
571.92	60584.77
572.09	60542.64
572.25	60509.87
572.41	60491.15
572.57	60636.26
572.74	60795.42
572.90	60523.91
573.06	60507.53
573.22	60664.35
573.38	60381.14
573.55	60582.43
573.71	60776.69
573.87	60807.12
574.03	60624.56
574.20	60699.45
574.36	60654.98
574.52	60561.36
574.68	60734.56
574.84	60650.30
575.01	60622.22
575.17	60685.41
575.33	60554.34
575.49	60491.15
575.65	60802.44
575.82	60788.39
575.98	60643.28
576.14	60720.52
576.30	60781.37
576.46	60678.39
576.62	60650.30
576.79	60774.35
576.95	60601.15
577.11	60769.67
577.27	60849.25
577.43	60935.85
577.59	60500.51
577.75	60626.90
577.92	60626.90
578.08	60732.22
578.24	60996.70
578.40	60963.93
578.56	61062.24
578.72	60743.92
578.88	60947.55
579.04	61179.26
579.21	60863.29
579.37	61029.47
579.53	60956.91
579.69	60505.19
579.85	60896.06
580.01	60697.11
580.17	60437.31
580.33	60842.23
580.49	60977.98
580.65	60786.05
580.82	60858.61
580.98	60764.99
581.14	60851.59
581.30	60898.40
581.46	60903.08
581.62	60985.00
581.78	60678.39
581.94	60977.98
582.10	60757.97
582.26	61015.43
582.42	60921.80
582.58	60921.80
582.74	60704.13
582.90	60860.95
583.06	60956.91
583.22	60882.02
583.38	60750.94
583.54	60889.04
583.70	60825.84
583.86	60905.42
584.02	60804.78
584.18	61085.64
584.34	61104.37
584.50	61151.18
584.66	60889.04
584.82	60640.94
584.98	61062.24
585.14	61041.17
585.30	60858.61
585.46	61186.28
585.62	60835.20
585.78	61078.62
585.94	60917.12
586.10	60898.40
586.26	60945.21
586.42	61041.17
586.58	61013.08
586.74	60959.25
586.90	60879.67
587.06	60842.23
587.22	61190.97
587.38	61048.19
587.54	61036.49
587.70	61066.92
587.86	61190.97
588.02	61066.92
588.18	61186.28
588.34	61015.43
588.49	61174.58
