SpectraSuite Data File
++++++++++++++++++++++++++++++++++++
Date: Fri Oct 25 11:23:57 EDT 2013
User: price-jones
Dark Spectrum Present: No
Reference Spectrum Present: No
Number of Sampled Component Spectra: 1
Spectrometers: USB2+H05261
Integration Time (usec): 100000 (USB2+H05261)
Spectra Averaged: 1 (USB2+H05261)
Boxcar Smoothing: 0 (USB2+H05261)
Correct for Electrical Dark: No (USB2+H05261)
Strobe/Lamp Enabled: No (USB2+H05261)
Correct for Detector Non-linearity: No (USB2+H05261)
Correct for Stray Light: No (USB2+H05261)
Number of Pixels in Processed Spectrum: 2048
>>>>>Begin Processed Spectral Data<<<<<
365.73	238.73
365.92	238.73
366.12	238.73
366.32	161.50
366.52	142.77
366.72	154.48
366.91	184.90
367.11	128.73
367.31	105.32
367.51	194.26
367.70	58.51
367.90	128.73
368.10	67.88
368.30	161.50
368.49	163.84
368.69	133.41
368.89	154.48
369.09	184.90
369.28	131.07
369.48	147.45
369.68	203.63
369.87	245.76
370.07	156.82
370.27	215.33
370.47	264.48
370.66	641.31
370.86	603.86
371.06	655.35
371.25	674.07
371.45	571.09
371.65	629.60
371.84	543.00
372.04	585.13
372.24	739.61
372.44	683.44
372.63	770.04
372.83	744.29
373.03	777.06
373.22	664.71
373.42	784.08
373.62	779.40
373.81	770.04
374.01	819.19
374.21	793.44
374.40	812.17
374.60	997.07
374.79	835.57
374.99	781.74
375.19	720.88
375.38	856.64
375.58	912.81
375.78	842.59
375.97	870.68
376.17	961.96
376.37	833.23
376.56	926.85
376.76	870.68
376.95	812.17
377.15	901.11
377.35	870.68
377.54	823.87
377.74	933.87
377.93	922.17
378.13	894.08
378.33	919.83
378.52	844.93
378.72	887.06
378.91	847.27
379.11	910.47
379.31	938.55
379.50	1004.09
379.70	964.30
379.89	1020.47
380.09	940.90
380.28	976.00
380.48	1036.86
380.68	1081.33
380.87	994.73
381.07	1034.52
381.26	1093.03
381.46	1048.56
381.65	1008.77
381.85	940.90
382.04	1034.52
382.24	1013.45
382.43	1043.88
382.63	1050.90
382.83	1111.75
383.02	1078.99
383.22	1100.05
383.41	1114.10
383.61	1076.65
383.80	1177.29
384.00	1086.01
384.19	1102.39
384.39	1142.18
384.58	1167.93
384.78	1135.16
384.97	1191.33
385.17	1109.41
385.36	1174.95
385.56	1226.44
385.75	1137.50
385.95	1242.82
386.14	1200.69
386.34	1165.59
386.53	1221.76
386.72	1109.41
386.92	1259.21
387.11	1233.46
387.31	1348.15
387.50	1128.14
387.70	1181.97
387.89	1256.87
388.09	1273.25
388.28	1322.40
388.48	1226.44
388.67	1350.49
388.86	1310.70
389.06	1238.14
389.25	1315.38
389.45	1352.83
389.64	1313.04
389.84	1352.83
390.03	1362.19
390.22	1409.00
390.42	1441.77
390.61	1362.19
390.81	1373.89
391.00	1362.19
391.19	1467.52
391.39	1371.55
391.58	1507.30
391.78	1423.05
391.97	1540.07
392.16	1399.64
392.36	1568.16
392.55	1486.24
392.75	1521.35
392.94	1633.69
393.13	1519.01
393.33	1626.67
393.52	1483.90
393.71	1706.25
393.91	1629.01
394.10	1511.99
394.29	1570.50
394.49	1631.35
394.68	1722.63
394.88	1584.54
395.07	1579.86
395.26	1678.16
395.46	1680.50
395.65	1743.70
395.84	1734.34
396.04	1696.89
396.23	1818.60
396.42	1720.29
396.62	1788.17
396.81	1792.85
397.00	1734.34
397.19	1755.40
397.39	1771.79
397.58	1870.09
397.77	1900.52
397.97	1853.70
398.16	1881.79
398.35	1947.33
398.55	1907.54
398.74	1863.07
398.93	1905.20
399.12	1937.96
399.32	1989.46
399.51	1926.26
399.70	1928.60
399.90	1909.88
400.09	2003.50
400.28	2127.55
400.47	2008.18
400.67	2052.65
400.86	2054.99
401.05	2127.55
401.24	2153.29
401.44	2094.78
401.63	2169.68
401.82	2176.70
402.01	2232.87
402.21	2211.81
402.40	2127.55
402.59	2167.34
402.78	2176.70
402.97	2193.08
403.17	2244.57
403.36	2296.07
403.55	2307.77
403.74	2445.86
403.93	2312.45
404.13	2235.21
404.32	2317.13
404.51	2352.24
404.70	2389.69
404.89	2377.98
405.09	2457.56
405.28	2499.69
405.47	2408.41
405.66	2459.90
405.85	2553.52
406.05	2506.71
406.24	2504.37
406.43	2539.48
406.62	2630.76
406.81	2623.74
407.00	2569.91
407.20	2462.24
407.39	2750.13
407.58	2658.85
407.77	2684.59
407.96	2771.19
408.15	2719.70
408.34	2787.58
408.54	2806.30
408.73	2862.48
408.92	2801.62
409.11	2925.67
409.30	2911.63
409.49	2951.42
409.68	2892.90
409.87	2920.99
410.07	3073.12
410.26	3103.55
410.45	2998.23
410.64	3028.65
410.83	3089.51
411.02	3082.49
411.21	3143.34
411.40	3056.74
411.59	3232.28
411.78	3187.81
411.98	3206.53
412.17	3258.03
412.36	3281.43
412.55	3335.26
412.74	3438.25
412.93	3468.67
413.12	3330.58
413.31	3597.40
413.50	3475.70
413.69	3473.36
413.88	3559.95
414.07	3550.59
414.26	3627.83
414.45	3829.12
414.64	3583.36
414.83	3894.65
415.02	3740.18
415.22	3922.74
415.41	3845.50
415.60	3810.39
415.79	3913.38
415.98	4140.41
416.17	3918.06
416.36	3946.14
416.55	4039.76
416.74	4201.26
416.93	4035.08
417.12	4138.07
417.31	4311.27
417.50	4229.35
417.69	4187.22
417.88	4337.01
418.07	4273.82
418.26	4322.97
418.45	4339.35
418.64	4559.36
418.83	4365.10
419.02	4491.49
419.21	4571.07
419.39	4610.86
419.58	4432.97
419.77	4440.00
419.96	4547.66
420.15	4547.66
420.34	4704.48
420.53	4631.92
420.72	4690.43
420.91	4767.67
421.10	4671.71
421.29	4844.91
421.48	4786.40
421.67	4786.40
421.86	4788.74
422.05	4777.03
422.24	4739.58
422.43	4898.74
422.61	4833.21
422.80	4894.06
422.99	4999.38
423.18	4978.32
423.37	4903.42
423.56	4894.06
423.75	4809.80
423.94	4863.63
424.13	4753.63
424.32	4753.63
424.50	4985.34
424.69	5179.61
424.88	5144.50
425.07	5025.13
425.26	4908.10
425.45	4924.49
425.64	5020.45
425.83	4959.60
426.01	5039.17
426.20	5249.82
426.39	5022.79
426.58	5130.45
426.77	5022.79
426.96	5032.15
427.15	5032.15
427.33	5198.33
427.52	5203.01
427.71	5280.25
427.90	5291.95
428.09	5390.25
428.28	5376.21
428.46	5352.81
428.65	5392.59
428.84	5584.52
429.03	5504.94
429.22	5362.17
429.40	5584.52
429.59	5511.96
429.78	5238.12
429.97	5324.72
430.16	5537.71
430.34	5624.31
430.53	5521.32
430.72	5488.56
430.91	5589.20
431.10	5753.04
431.28	5617.29
431.47	5867.72
431.66	5926.24
431.85	5776.44
432.03	5947.30
432.22	6094.76
432.41	5900.49
432.60	5975.39
432.79	5916.87
432.97	6080.71
433.16	6080.71
433.35	5935.60
433.54	6193.06
433.72	6106.46
433.91	6118.16
434.10	6305.40
434.28	6094.76
434.47	6153.27
434.66	6338.17
434.85	6328.81
435.03	6392.00
435.22	6216.46
435.41	6450.52
435.59	6464.56
435.78	6270.30
435.97	6502.01
436.16	6408.39
436.34	6422.43
436.53	6649.46
436.72	6565.20
436.90	6494.99
437.09	6642.44
437.28	6469.24
437.46	6686.91
437.65	6675.21
437.84	6658.82
438.02	6766.49
438.21	6810.96
438.40	6644.78
438.58	6963.09
438.77	7169.06
438.96	6925.65
439.14	7241.62
439.33	7370.35
439.52	7183.10
439.70	7239.28
439.89	7419.50
440.08	7456.95
440.26	7447.58
440.45	7466.31
440.63	7499.08
440.82	7740.15
441.01	7550.57
441.19	7524.82
441.38	7712.07
441.57	7644.19
441.75	7882.92
441.94	7941.44
442.12	8021.02
442.31	8067.83
442.50	8081.87
442.68	8159.11
442.87	8070.17
443.05	8341.67
443.24	8341.67
443.43	8271.45
443.61	8257.41
443.80	8290.18
443.98	7948.46
444.17	7957.82
444.35	8439.97
444.54	8404.86
444.73	8262.09
444.91	8329.97
445.10	8446.99
445.28	8351.03
445.47	8304.22
445.65	8219.96
445.84	8360.39
446.02	8449.33
446.21	8367.42
446.39	8362.73
446.58	8552.32
446.77	8397.84
446.95	8278.47
447.14	8540.61
447.32	8568.70
447.51	8524.23
447.69	8510.19
447.88	8479.76
448.06	8524.23
448.25	8435.29
448.43	8575.72
448.62	8772.33
448.80	8648.28
448.99	8655.30
449.17	8727.86
449.36	8704.45
449.54	8812.12
449.73	8975.95
449.91	8994.68
450.10	8971.27
450.28	9114.05
450.46	9100.00
450.65	9043.83
450.83	9160.86
451.02	9221.71
451.20	9217.03
451.39	9224.05
451.57	9116.39
451.76	9273.20
451.94	9137.45
452.13	9394.91
452.31	9245.12
452.49	9329.38
452.68	9425.34
452.86	9542.36
453.05	9385.55
453.23	9596.20
453.42	9451.08
453.60	9476.83
453.78	9579.81
453.97	9579.81
454.15	9605.56
454.34	9472.15
454.52	9710.88
454.70	9816.21
454.89	9820.89
455.07	9722.59
455.26	9909.83
455.44	9956.64
455.62	9799.82
455.81	9844.29
455.99	9975.36
456.17	10314.74
456.36	9916.85
456.54	10001.11
456.73	10164.95
456.91	10389.64
457.09	10333.47
457.28	10525.39
457.46	10513.69
457.64	10476.24
457.83	10593.26
458.01	10349.85
458.19	10679.86
458.38	10473.90
458.56	10698.59
458.74	10743.06
458.93	10689.23
459.11	10792.21
459.29	10810.93
459.48	10803.91
459.66	10740.72
459.84	10890.51
460.03	11124.57
460.21	11052.01
460.39	11019.24
460.57	10881.15
460.76	11304.79
460.94	11295.43
461.12	11115.20
461.31	11201.80
461.49	10920.94
461.67	11147.97
461.85	11417.13
462.04	11204.14
462.22	11407.77
462.40	11688.64
462.59	11372.66
462.77	11405.43
462.95	11651.19
463.13	11744.81
463.32	11648.85
463.50	11791.62
463.68	11812.68
463.86	11815.02
464.05	11583.31
464.23	11702.68
464.41	11953.12
464.59	11777.58
464.78	12098.23
464.96	11960.14
465.14	11798.64
465.32	11988.22
465.50	12149.72
465.69	12222.28
465.87	12255.04
466.05	12332.28
466.23	12198.87
466.41	12222.28
466.60	12229.30
466.78	12318.24
466.96	12435.27
467.14	12346.33
467.32	12388.46
467.51	12727.83
467.69	12222.28
467.87	12468.03
468.05	12592.08
468.23	12475.06
468.41	12418.88
468.60	12631.87
468.78	12776.98
468.96	12568.68
469.14	12961.89
469.32	12980.61
469.50	12695.07
469.69	12842.52
469.87	13305.95
470.05	12933.80
470.23	13296.58
470.41	13404.25
470.59	13383.18
470.77	13165.51
470.95	13256.79
471.14	13338.71
471.32	13167.85
471.50	13640.64
471.68	13542.34
471.86	13806.82
472.04	13809.16
472.22	14146.20
472.40	13727.24
472.58	13956.61
472.77	14024.49
472.95	14127.47
473.13	14600.26
473.31	14019.81
473.49	14115.77
473.67	14342.80
473.85	14239.82
474.03	14768.78
474.21	14810.91
474.39	14841.34
474.57	14438.76
474.75	15136.24
474.93	15108.16
475.12	14925.60
475.30	15246.25
475.48	15147.95
475.66	15286.04
475.84	14995.81
476.02	15351.57
476.20	15431.15
476.38	15637.12
476.56	15676.91
476.74	16051.39
476.92	16126.29
477.10	15843.09
477.28	16107.57
477.46	16023.31
477.64	16126.29
477.82	16919.73
478.00	16669.30
478.18	16545.25
478.36	16875.26
478.54	17151.45
478.72	17067.19
478.90	17406.56
479.08	17586.79
479.26	17383.16
479.44	17661.68
479.62	17933.18
479.80	18022.12
479.98	18188.30
480.16	18572.15
480.34	18398.95
480.52	18679.82
480.70	18794.50
480.88	18766.42
481.06	18778.12
481.24	19047.28
481.41	19365.59
481.59	19428.79
481.77	19616.03
481.95	19719.01
482.13	19765.82
482.31	20025.62
482.49	20247.97
482.67	20315.85
482.85	20704.38
483.03	20582.67
483.21	20821.41
483.39	21188.87
483.57	20809.70
483.74	21039.08
483.92	21528.25
484.10	21214.62
484.28	21788.05
484.46	21771.66
484.64	22195.30
484.82	22033.80
485.00	22256.15
485.18	22532.34
485.35	22668.09
485.53	22670.43
485.71	23101.09
485.89	23651.11
486.07	23335.14
486.25	23529.41
486.43	23676.86
486.61	23817.29
486.78	23873.46
486.96	24269.01
487.14	24807.34
487.32	24374.34
487.50	25036.71
487.68	25516.52
487.85	25289.49
488.03	25874.62
488.21	25858.24
488.39	25930.80
488.57	26209.32
488.75	26225.70
488.92	26272.51
489.10	26951.27
489.28	26792.11
489.46	27276.60
489.64	27087.02
489.81	27723.65
489.99	27445.12
490.17	27674.49
490.35	28320.48
490.53	28311.12
490.70	29062.43
490.88	28245.58
491.06	28762.84
491.24	28828.38
491.41	29411.17
491.59	28987.53
491.77	29200.52
491.95	29565.65
492.13	29649.91
492.30	30071.20
492.48	30176.53
492.66	30239.72
492.84	30120.35
493.01	30909.11
493.19	30593.14
493.37	31288.28
493.54	31115.08
493.72	31833.63
493.90	31398.29
494.08	32133.21
494.25	31931.93
494.43	32385.99
494.61	32620.05
494.79	32500.68
494.96	32842.40
495.14	33170.07
495.32	33193.48
495.49	33170.07
495.67	33144.33
495.85	33902.66
496.02	34209.27
496.20	34117.99
496.38	33720.10
496.55	34480.77
496.73	35044.84
496.91	34506.52
497.09	35140.80
497.26	35115.06
497.44	34845.90
497.62	35447.41
497.79	35866.37
497.97	35611.25
498.14	36093.40
498.32	35952.97
498.50	36402.35
498.67	36603.64
498.85	36215.11
499.03	36870.46
499.20	36868.12
499.38	36940.68
499.56	36992.17
499.73	37579.64
499.91	37556.24
500.08	37715.39
500.26	37963.49
500.44	37809.01
500.61	37965.83
500.79	37982.21
500.97	38382.45
501.14	38960.56
501.32	38483.09
501.49	38646.93
501.67	38801.40
501.84	39103.33
502.02	39363.13
502.20	38937.15
502.37	39297.59
502.55	39253.12
502.72	39782.09
502.90	39541.01
503.07	39871.03
503.25	40116.78
503.43	39901.45
503.60	40605.95
503.78	40509.99
503.95	40208.06
504.13	40722.98
504.30	41067.04
504.48	40680.85
504.65	40722.98
504.83	40847.03
505.01	41497.70
505.18	41277.69
505.36	41507.06
505.53	41212.15
505.71	41972.83
505.88	41792.61
506.06	41462.59
506.23	42424.55
506.41	42377.74
506.58	42415.19
506.76	42377.74
506.93	42789.67
507.11	42309.86
507.28	42162.41
507.46	42511.15
507.63	43196.93
507.81	43260.12
507.98	42834.14
508.16	43269.48
508.33	43459.07
508.50	44172.93
508.68	43454.39
508.85	44123.78
509.03	44107.40
509.20	44055.90
509.38	44802.53
509.55	44687.85
509.73	44753.38
509.90	44556.78
510.08	44666.78
510.25	44233.78
510.42	44949.99
510.60	45525.76
510.77	45195.74
510.95	45584.27
511.12	45392.35
511.30	45027.23
511.47	45586.61
511.64	45801.94
511.82	45956.42
511.99	45860.46
512.17	46188.13
512.34	46085.15
512.51	46679.64
512.69	46609.43
512.86	46361.33
513.04	46721.77
513.21	46794.33
513.38	47122.01
513.56	46944.12
513.73	47168.82
513.90	47093.92
514.08	47063.49
514.25	47407.55
514.43	47648.63
514.60	47206.26
514.77	47414.57
514.95	47856.93
515.12	47494.15
515.29	47845.23
515.47	48343.77
515.64	48158.86
515.81	48172.91
515.99	48128.44
516.16	48425.68
516.33	48451.43
516.51	48912.52
516.68	48119.07
516.85	48406.96
517.03	49043.59
517.20	49275.30
517.37	48788.47
517.54	49034.22
517.72	49336.15
517.89	49275.30
518.06	49357.22
518.24	49331.47
518.41	49387.64
518.58	49427.43
518.75	49123.16
518.93	49771.49
519.10	49820.64
519.27	50040.65
519.45	49879.16
519.62	50073.42
519.79	49691.91
519.96	50246.62
520.14	50094.49
520.31	50145.98
520.48	50653.87
520.65	50457.27
520.83	50625.79
521.00	50939.42
521.17	50649.19
521.34	50679.62
521.52	50944.10
521.69	50997.93
521.86	50965.17
522.03	51297.52
522.20	51468.38
522.38	51662.64
522.55	51222.62
522.72	51201.56
522.89	51325.61
523.07	51950.53
523.24	51449.66
523.41	51461.36
523.58	51522.21
523.75	52067.56
523.92	51948.19
524.10	52060.54
524.27	52233.74
524.44	52243.10
524.61	52072.24
524.78	52542.69
524.96	52189.27
525.13	52250.12
525.30	52353.10
525.47	52512.26
525.64	52425.66
525.81	52729.93
525.98	52793.12
526.16	52725.25
526.33	52889.09
526.50	53209.74
526.67	52650.35
526.84	53216.76
527.01	52858.66
527.18	53270.59
527.36	52900.79
527.53	53340.81
527.70	53396.98
527.87	53434.43
528.04	53261.23
528.21	53364.21
528.38	53638.06
528.55	53492.94
528.72	53432.09
528.89	53457.84
529.07	53359.53
529.24	53734.02
529.41	53923.60
529.58	53710.61
529.75	53907.22
529.92	54150.63
530.09	53600.61
530.26	54232.55
530.43	54307.45
530.60	53815.94
530.77	53722.32
530.94	54347.24
531.11	54049.99
531.28	54096.80
531.46	54232.55
531.63	54492.35
531.80	54372.99
531.97	54480.65
532.14	54672.57
532.31	54597.68
532.48	54710.02
532.65	54756.83
532.82	54539.16
532.99	54983.86
533.16	54485.33
533.33	54993.23
533.50	54820.03
533.67	54726.41
533.84	54803.64
534.01	54911.31
534.18	54852.80
534.35	55468.36
534.52	55515.17
534.69	55391.12
534.86	55168.77
535.03	55124.30
535.20	55288.13
535.37	55480.06
535.54	55456.65
535.71	55323.24
535.88	55590.06
536.05	55721.13
536.22	55721.13
536.38	55674.32
536.55	55339.63
536.72	55739.86
536.89	55760.92
537.06	55807.73
537.23	55941.14
537.40	55784.33
537.57	55835.82
537.74	55875.61
537.91	55901.36
538.08	55941.14
538.25	56023.06
538.42	55990.30
538.59	56264.14
538.75	56002.00
538.92	56018.38
539.09	56364.78
539.26	56282.86
539.43	56371.80
539.60	56355.42
539.77	56278.18
539.94	56477.13
540.11	56463.08
540.28	56549.68
540.44	56540.32
540.61	56477.13
540.78	56535.64
540.95	56488.83
541.12	56376.48
541.29	56523.94
541.46	56615.22
541.62	56795.44
541.79	56795.44
541.96	56626.92
542.13	56556.70
542.30	56795.44
542.47	57141.84
542.63	56919.49
542.80	56928.85
542.97	57137.16
543.14	57153.54
543.31	57207.37
543.48	57535.05
543.64	57408.66
543.81	57450.79
543.98	57251.84
544.15	57382.91
544.32	57631.01
544.48	57443.77
544.65	57357.17
544.82	57492.92
544.99	57425.04
545.16	57516.32
545.32	57462.49
545.49	57691.86
545.66	57623.99
545.83	57752.72
546.00	57961.03
546.16	57794.85
546.33	57808.89
546.50	57471.85
546.67	57855.70
546.83	57385.25
547.00	57818.25
547.17	57729.31
547.34	57895.49
547.50	57944.64
547.67	58326.15
547.84	57993.79
548.00	58197.42
548.17	58450.20
548.34	58375.30
548.51	58370.62
548.67	58298.06
548.84	58188.06
549.01	58117.84
549.18	57998.48
549.34	58295.72
549.51	58379.98
549.68	58475.94
549.84	58511.05
550.01	58719.36
550.18	58422.11
550.34	58379.98
550.51	58607.01
550.68	58417.43
550.84	58431.47
551.01	58810.64
551.18	58679.57
551.34	58480.63
551.51	58541.48
551.68	58698.30
551.84	58518.07
552.01	58541.48
552.18	58637.44
552.34	58520.41
552.51	58672.55
552.68	58635.10
552.84	58810.64
553.01	58925.33
553.18	58911.28
553.34	59166.40
553.51	58993.20
553.67	58843.41
553.84	59124.27
554.01	59150.02
554.17	58845.75
554.34	59288.11
554.51	59068.10
554.67	59194.49
554.84	59196.83
555.00	59054.06
555.17	58904.26
555.33	59068.10
555.50	59025.97
555.67	59072.78
555.83	59058.74
556.00	59224.92
556.16	59547.91
556.33	59451.95
556.50	59393.43
556.66	59615.79
556.83	59173.42
556.99	59449.61
557.16	59587.70
557.32	59543.23
557.49	59767.92
557.65	59442.59
557.82	59613.44
557.98	59480.03
558.15	59444.93
558.32	59662.60
558.48	59304.49
558.65	59517.48
558.81	59430.88
558.98	59765.58
559.14	59758.56
559.31	59676.64
559.47	59976.23
559.64	59597.06
559.80	59767.92
559.97	59812.39
560.13	59749.20
560.30	59763.24
560.46	59667.28
560.63	59817.07
560.79	59913.03
560.96	59999.63
561.12	59891.97
561.29	59987.93
561.45	59908.35
561.61	60001.97
561.78	59824.09
561.94	59884.95
562.11	59906.01
562.27	60083.89
562.44	60062.83
562.60	60306.24
562.77	60004.31
562.93	59983.25
563.10	60058.15
563.26	59973.89
563.42	60418.59
563.59	60175.17
563.75	60144.75
563.92	60001.97
564.08	60060.49
564.24	60170.49
564.41	60303.90
564.57	60186.88
564.74	60327.31
564.90	60308.58
565.07	60303.90
565.23	60142.41
565.39	60317.95
565.56	60287.52
565.72	60364.76
565.88	60114.32
566.05	60111.98
566.21	60048.78
566.38	60463.06
566.54	60411.57
566.70	60381.14
566.87	60463.06
567.03	59957.50
567.19	60495.83
567.36	60619.88
567.52	60306.24
567.68	60570.72
567.85	60561.36
568.01	60303.90
568.17	60411.57
568.34	60547.32
568.50	60566.04
568.66	60156.45
568.83	60427.95
568.99	60484.12
569.15	60580.09
569.32	60374.12
569.48	60594.13
569.64	60521.57
569.81	60507.53
569.97	60460.72
570.13	60420.93
570.30	60601.15
570.46	60711.16
570.62	60598.81
570.78	60612.85
570.95	60537.96
571.11	60746.26
571.27	60530.93
571.43	60439.65
571.60	60786.05
571.76	60711.16
571.92	60617.53
572.09	60711.16
572.25	60449.02
572.41	60666.69
572.57	60874.99
572.74	60767.33
572.90	60622.22
573.06	60612.85
573.22	60732.22
573.38	60811.80
573.55	60568.38
573.71	61087.98
573.87	60678.39
574.03	60739.24
574.20	60809.46
574.36	60743.92
574.52	60797.76
574.68	60905.42
574.84	60783.71
575.01	60797.76
575.17	60739.24
575.33	60645.62
575.49	60755.63
575.65	60821.16
575.82	60692.43
575.98	60886.70
576.14	61006.06
576.30	61064.58
576.46	60783.71
576.62	60729.88
576.79	60956.91
576.95	60666.69
577.11	60870.31
577.27	60961.59
577.43	60849.25
577.59	60706.47
577.75	60842.23
577.92	60699.45
578.08	60905.42
578.24	61055.21
578.40	60949.89
578.56	60973.30
578.72	60893.72
578.88	60907.76
579.04	60963.93
579.21	61130.11
579.37	61008.40
579.53	61254.16
579.69	60926.49
579.85	60891.38
580.01	60832.86
580.17	60837.54
580.33	61015.43
580.49	61148.84
580.65	61132.45
580.82	61015.43
580.98	60949.89
581.14	60970.96
581.30	61233.10
581.46	60870.31
581.62	61001.38
581.78	60956.91
581.94	60977.98
582.10	61137.13
582.26	60999.04
582.42	60947.55
582.58	60994.36
582.74	61008.40
582.90	60865.63
583.06	61071.60
583.22	60877.33
583.38	60858.61
583.54	60886.70
583.70	60903.08
583.86	61085.64
584.02	60989.68
584.18	61214.37
584.34	60954.57
584.50	60949.89
584.66	60992.02
584.82	61085.64
584.98	61197.99
585.14	60928.83
585.30	60889.04
585.46	61251.82
585.62	61181.60
585.78	61378.21
585.94	61106.71
586.10	61144.16
586.26	61406.30
586.42	61190.97
586.58	61261.18
586.74	61240.12
586.90	61020.11
587.06	60891.38
587.22	61151.18
587.38	61172.24
587.54	61176.92
587.70	61366.51
587.86	61202.67
588.02	61048.19
588.18	61279.91
588.34	61120.75
588.49	61270.54
