SpectraSuite Data File
++++++++++++++++++++++++++++++++++++
Date: Fri Oct 25 11:33:48 EDT 2013
User: price-jones
Dark Spectrum Present: No
Reference Spectrum Present: No
Number of Sampled Component Spectra: 1
Spectrometers: USB2+H05261
Integration Time (usec): 100000 (USB2+H05261)
Spectra Averaged: 1 (USB2+H05261)
Boxcar Smoothing: 0 (USB2+H05261)
Correct for Electrical Dark: No (USB2+H05261)
Strobe/Lamp Enabled: No (USB2+H05261)
Correct for Detector Non-linearity: No (USB2+H05261)
Correct for Stray Light: No (USB2+H05261)
Number of Pixels in Processed Spectrum: 2048
>>>>>Begin Processed Spectral Data<<<<<
365.73	278.52
365.92	278.52
366.12	278.52
366.32	184.90
366.52	187.24
366.72	203.63
366.91	147.45
367.11	119.37
367.31	205.97
367.51	191.92
367.70	168.52
367.90	227.03
368.10	95.96
368.30	170.86
368.49	170.86
368.69	184.90
368.89	119.37
369.09	182.56
369.28	259.80
369.48	177.88
369.68	222.35
369.87	208.31
370.07	203.63
370.27	215.33
370.47	252.78
370.66	528.96
370.86	538.32
371.06	496.19
371.25	571.09
371.45	531.30
371.65	521.94
371.84	589.82
372.04	601.52
372.24	538.32
372.44	601.52
372.63	587.47
372.83	622.58
373.03	608.54
373.22	620.24
373.42	655.35
373.62	624.92
373.81	676.41
374.01	674.07
374.21	627.26
374.40	615.56
374.60	627.26
374.79	641.31
374.99	655.35
375.19	653.01
375.38	657.69
375.58	671.73
375.78	676.41
375.97	699.82
376.17	718.54
376.37	653.01
376.56	718.54
376.76	657.69
376.95	641.31
377.15	674.07
377.35	655.35
377.54	655.35
377.74	734.93
377.93	725.57
378.13	704.50
378.33	704.50
378.52	685.78
378.72	711.52
378.91	732.59
379.11	638.97
379.31	751.31
379.50	697.48
379.70	716.20
379.89	777.06
380.09	753.65
380.28	720.88
380.48	685.78
380.68	767.70
380.87	851.96
381.07	830.89
381.26	770.04
381.46	718.54
381.65	751.31
381.85	716.20
382.04	767.70
382.24	777.06
382.43	819.19
382.63	746.63
382.83	781.74
383.02	702.16
383.22	809.83
383.41	781.74
383.61	751.31
383.80	929.19
384.00	858.98
384.19	805.14
384.39	777.06
384.58	765.36
384.78	858.98
384.97	786.42
385.17	851.96
385.36	830.89
385.56	812.17
385.75	870.68
385.95	851.96
386.14	940.90
386.34	889.40
386.53	922.17
386.72	863.66
386.92	917.49
387.11	819.19
387.31	896.43
387.50	851.96
387.70	912.81
387.89	919.83
388.09	903.45
388.28	968.98
388.48	929.19
388.67	952.60
388.86	912.81
389.06	884.72
389.25	926.85
389.45	978.34
389.64	912.81
389.84	1032.18
390.03	922.17
390.22	954.94
390.42	1006.43
390.61	901.11
390.81	964.30
391.00	1015.79
391.19	978.34
391.39	1020.47
391.58	1032.18
391.78	1069.62
391.97	1055.58
392.16	1069.62
392.36	1078.99
392.55	1137.50
392.75	1036.86
392.94	985.37
393.13	1039.20
393.33	1041.54
393.52	1118.78
393.71	1151.54
393.91	1069.62
394.10	1060.26
394.29	1104.73
394.49	1118.78
394.68	1191.33
394.88	1137.50
395.07	1102.39
395.26	1158.57
395.46	1160.91
395.65	1294.32
395.84	1142.18
396.04	1146.86
396.23	1196.01
396.42	1158.57
396.62	1273.25
396.81	1198.35
397.00	1165.59
397.19	1212.40
397.39	1203.04
397.58	1233.46
397.77	1268.57
397.97	1249.85
398.16	1263.89
398.35	1263.89
398.55	1270.91
398.74	1224.10
398.93	1380.92
399.12	1291.98
399.32	1343.47
399.51	1465.18
399.70	1434.75
399.90	1390.28
400.09	1357.51
400.28	1413.68
400.47	1343.47
400.67	1455.81
400.86	1385.60
401.05	1404.32
401.24	1483.90
401.44	1453.47
401.63	1411.34
401.82	1490.92
402.01	1502.62
402.21	1530.71
402.40	1453.47
402.59	1554.12
402.78	1561.14
402.97	1528.37
403.17	1586.88
403.36	1486.24
403.55	1519.01
403.74	1596.25
403.93	1554.12
404.13	1664.12
404.32	1591.56
404.51	1671.14
404.70	1556.46
404.89	1589.22
405.09	1741.36
405.28	1621.99
405.47	1643.06
405.66	1710.93
405.85	1703.91
406.05	1762.42
406.24	1746.04
406.43	1708.59
406.62	1867.75
406.81	1832.64
407.00	1750.72
407.20	1741.36
407.39	1886.47
407.58	1753.06
407.77	1795.19
407.96	1902.86
408.15	1851.36
408.34	1846.68
408.54	1874.77
408.73	1989.46
408.92	1909.88
409.11	1973.07
409.30	1991.80
409.49	1975.41
409.68	2019.88
409.87	2054.99
410.07	2003.50
410.26	2125.21
410.45	2087.76
410.64	2003.50
410.83	2080.74
411.02	2062.01
411.21	2190.74
411.40	2193.08
411.59	2214.15
411.78	2253.94
411.98	2111.16
412.17	2293.72
412.36	2179.04
412.55	2251.60
412.74	2394.37
412.93	2417.77
413.12	2275.00
413.31	2420.11
413.50	2338.20
413.69	2340.54
413.88	2368.62
414.07	2473.95
414.26	2534.80
414.45	2410.75
414.64	2403.73
414.83	2511.39
415.02	2626.08
415.22	2644.81
415.41	2759.49
415.60	2672.89
415.79	2614.38
415.98	2773.53
416.17	2834.39
416.36	2677.57
416.55	2761.83
416.74	2750.13
416.93	2780.56
417.12	2775.88
417.31	2869.50
417.50	2869.50
417.69	2960.78
417.88	2906.95
418.07	2916.31
418.26	3009.93
418.45	3068.44
418.64	3075.46
418.83	2951.42
419.02	2972.48
419.21	3094.19
419.39	3194.83
419.58	3028.65
419.77	2967.80
419.96	3159.72
420.15	3169.09
420.34	3084.83
420.53	3148.02
420.72	3321.22
420.91	3199.51
421.10	3159.72
421.29	3316.54
421.48	3222.92
421.67	3393.78
421.86	3267.39
422.05	3351.65
422.24	3269.73
422.43	3358.67
422.61	3393.78
422.80	3438.25
422.99	3398.46
423.18	3487.40
423.37	3426.54
423.56	3475.70
423.75	3375.05
423.94	3396.12
424.13	3197.17
424.32	3337.60
424.50	3468.67
424.69	3632.51
424.88	3391.44
425.07	3379.73
425.26	3431.23
425.45	3545.91
425.64	3665.28
425.83	3569.32
426.01	3641.87
426.20	3513.14
426.39	3527.19
426.58	3480.38
426.77	3445.27
426.96	3506.12
427.15	3555.27
427.33	3456.97
427.52	3581.02
427.71	3613.79
427.90	3653.58
428.09	3826.78
428.28	3784.65
428.46	3712.09
428.65	3686.34
428.84	3801.03
429.03	3791.67
429.22	3658.26
429.40	3831.46
429.59	3726.13
429.78	3684.00
429.97	3641.87
430.16	3733.15
430.34	3751.88
430.53	3847.84
430.72	3964.87
430.91	4007.00
431.10	3829.12
431.28	3796.35
431.47	3971.89
431.66	3948.48
431.85	3805.71
432.03	4081.89
432.22	4161.47
432.41	4051.47
432.60	4049.13
432.79	4100.62
432.97	4170.83
433.16	4084.23
433.35	4053.81
433.54	4114.66
433.72	4294.88
433.91	4255.09
434.10	4358.08
434.28	4161.47
434.47	4231.69
434.66	4292.54
434.85	4205.94
435.03	4332.33
435.22	4266.80
435.41	4334.67
435.59	4580.43
435.78	4397.87
435.97	4360.42
436.16	4301.90
436.34	4292.54
436.53	4463.40
436.72	4550.00
436.90	4386.16
437.09	4580.43
437.28	4456.38
437.46	4545.32
437.65	4472.76
437.84	4631.92
438.02	4669.37
438.21	4697.46
438.40	4531.28
438.58	4851.93
438.77	4807.46
438.96	4851.93
439.14	4903.42
439.33	5048.54
439.52	4961.94
439.70	4973.64
439.89	5034.49
440.08	4947.89
440.26	5081.30
440.45	5032.15
440.63	5074.28
440.82	5200.67
441.01	5130.45
441.19	5191.31
441.38	5233.44
441.57	5301.31
441.75	5448.77
441.94	5390.25
442.12	5425.36
442.31	5448.77
442.50	5507.28
442.68	5425.36
442.87	5420.68
443.05	5467.49
443.24	5661.76
443.43	5631.33
443.61	5650.05
443.80	5661.76
443.98	5551.75
444.17	5401.96
444.35	5448.77
444.54	5610.26
444.73	5729.63
444.91	5626.65
445.10	5493.24
445.28	5504.94
445.47	5589.20
445.65	5556.43
445.84	5741.33
446.02	5778.78
446.21	5724.95
446.39	5795.17
446.58	5851.34
446.77	5788.14
446.95	5614.95
447.14	5715.59
447.32	5762.40
447.51	5813.89
447.69	5818.57
447.88	5645.37
448.06	5886.45
448.25	5720.27
448.43	5900.49
448.62	5853.68
448.80	5776.44
448.99	5923.90
449.17	5961.34
449.36	5874.74
449.54	5837.30
449.73	6097.10
449.91	6190.72
450.10	6108.80
450.28	6087.73
450.46	6080.71
450.65	6015.18
450.83	6296.04
451.02	6031.56
451.20	5994.11
451.39	6361.58
451.57	6188.38
451.76	6209.44
451.94	6118.16
452.13	6197.74
452.31	6167.31
452.49	5937.94
452.68	6207.10
452.86	6441.15
453.05	6356.90
453.23	6270.30
453.42	6338.17
453.60	6324.13
453.78	6574.56
453.97	6452.86
454.15	6459.88
454.34	6445.84
454.52	6656.48
454.70	6628.40
454.89	6700.95
455.07	6483.28
455.26	6649.46
455.44	6717.34
455.62	6731.38
455.81	6689.25
455.99	6906.92
456.17	6754.79
456.36	6726.70
456.54	6684.57
456.73	6916.28
456.91	6998.20
457.09	6857.77
457.28	7192.47
457.46	7103.53
457.64	7105.87
457.83	7016.93
458.01	7148.00
458.19	7260.34
458.38	7019.27
458.56	7344.60
458.74	7482.69
458.93	7190.13
459.11	7283.75
459.29	7213.53
459.48	7332.90
459.66	7421.84
459.84	7391.41
460.03	7517.80
460.21	7543.55
460.39	7227.57
460.57	7421.84
460.76	7630.15
460.94	7506.10
461.12	7307.15
461.31	7466.31
461.49	7494.40
461.67	7569.29
461.85	7578.65
462.04	7419.50
462.22	8093.57
462.40	7784.62
462.59	7843.14
462.77	7768.24
462.95	7791.64
463.13	7772.92
463.32	7918.03
463.50	7964.84
463.68	7875.90
463.86	7988.25
464.05	7906.33
464.23	8037.40
464.41	8046.76
464.59	7782.28
464.78	8124.00
464.96	8107.62
465.14	7964.84
465.32	8126.34
465.50	8142.72
465.69	8152.09
465.87	8184.85
466.05	8116.98
466.23	8145.06
466.41	8175.49
466.60	8273.79
466.78	8299.54
466.96	8140.38
467.14	8236.35
467.32	8376.78
467.51	8283.16
467.69	8191.88
467.87	8348.69
468.05	8280.82
468.23	8353.37
468.41	8435.29
468.60	8519.55
468.78	8620.19
468.96	8407.20
469.14	8580.40
469.32	8791.05
469.50	8587.43
469.69	8905.74
469.87	8877.65
470.05	8685.73
470.23	8704.45
470.41	8924.46
470.59	8781.69
470.77	8751.26
470.95	9046.17
471.14	9041.49
471.32	8896.38
471.50	8987.66
471.68	9247.46
471.86	9184.26
472.04	9221.71
472.22	9130.43
472.40	9144.47
472.58	9308.31
472.77	9156.18
472.95	9296.61
473.13	9638.33
473.31	9427.68
473.49	9266.18
473.67	9460.45
473.85	9547.05
474.03	9631.30
474.21	9565.77
474.39	9797.48
474.57	9764.72
474.75	9825.57
474.93	9963.66
475.12	10050.26
475.30	10134.52
475.48	9958.98
475.66	10094.73
475.84	10122.82
476.02	10221.12
476.20	10150.90
476.38	10338.15
476.56	10593.26
476.74	10607.31
476.92	10511.35
477.10	10438.79
477.28	10707.95
477.46	10480.92
477.64	10934.98
477.82	10888.17
478.00	11246.27
478.18	11066.05
478.36	11449.90
478.54	11417.13
478.72	11433.52
478.90	11456.92
479.08	11723.74
479.26	11585.65
479.44	11557.57
479.62	11882.90
479.80	11833.75
479.98	11889.92
480.16	12343.99
480.34	12035.03
480.52	12393.14
480.70	12334.62
480.88	12025.67
481.06	12351.01
481.24	12482.08
481.41	12690.38
481.59	12769.96
481.77	12882.31
481.95	13064.87
482.13	12989.97
482.31	13160.83
482.49	13392.55
482.67	13392.55
482.85	13724.90
483.03	13668.73
483.21	13516.59
483.39	13664.05
483.57	13668.73
483.74	13855.97
483.92	14059.60
484.10	13965.98
484.28	14225.78
484.46	14310.04
484.64	14789.85
484.82	14597.92
485.00	14558.13
485.18	14796.87
485.35	15143.27
485.53	15152.63
485.71	15353.91
485.89	15548.18
486.07	15283.70
486.25	15548.18
486.43	15435.83
486.61	15768.19
486.78	15929.69
486.96	15859.47
487.14	16203.53
487.32	16273.74
487.50	16196.51
487.68	16517.16
487.85	16456.31
488.03	16690.36
488.21	17167.83
488.39	16901.01
488.57	17027.40
488.75	17186.55
488.92	17720.20
489.10	17380.82
489.28	17376.14
489.46	17837.22
489.64	18054.89
489.81	18260.86
489.99	18068.94
490.17	18485.55
490.35	18492.57
490.53	18614.28
490.70	18415.34
490.88	18359.16
491.06	18932.59
491.24	18820.25
491.41	19089.41
491.59	19281.33
491.77	19234.52
491.95	19641.78
492.13	19220.48
492.30	19686.25
492.48	19470.92
492.66	19632.41
492.84	19824.34
493.01	20065.41
493.19	19922.64
493.37	20203.50
493.54	20795.66
493.72	20790.98
493.90	20711.40
494.08	20950.14
494.25	20954.82
494.43	20781.62
494.61	21186.53
494.79	21273.13
494.96	20943.11
495.14	21317.60
495.32	21605.49
495.49	21380.79
495.67	21827.84
495.85	21820.81
496.02	21977.63
496.20	22490.21
496.38	22211.68
496.55	22689.15
496.73	23152.58
496.91	22733.62
497.09	22618.94
497.26	22803.84
497.44	22899.80
497.62	23283.65
497.79	23527.06
497.97	23393.65
498.14	23433.44
498.32	23655.79
498.50	23992.83
498.67	23660.48
498.85	24135.60
499.03	24046.66
499.20	24065.39
499.38	24159.01
499.56	24704.35
499.73	23974.11
499.91	24826.06
500.08	24992.24
500.26	24449.24
500.44	24933.73
500.61	24905.64
500.79	24821.38
500.97	24919.68
501.14	25158.42
501.32	25287.15
501.49	25254.38
501.67	25280.13
501.84	25500.14
502.02	25617.16
502.20	25766.96
502.37	25717.81
502.55	25790.36
502.72	25912.07
502.90	25909.73
503.07	25731.85
503.25	26209.32
503.43	26120.38
503.60	26618.91
503.78	26597.85
503.95	26246.77
504.13	26590.83
504.30	26766.37
504.48	26630.62
504.65	26857.65
504.83	27208.73
505.01	26902.12
505.18	27105.74
505.36	27257.88
505.53	26960.63
505.71	27648.75
505.88	27459.16
506.06	27136.17
506.23	27955.36
506.41	27772.80
506.58	28002.17
506.76	27864.08
506.93	28243.24
507.11	28198.77
507.28	28313.46
507.46	27838.33
507.63	28245.58
507.81	28655.18
507.98	28350.91
508.16	28491.34
508.33	28687.95
508.50	28760.50
508.68	29106.90
508.85	29043.71
509.03	28790.93
509.20	28823.70
509.38	29179.46
509.55	29413.51
509.73	29350.32
509.90	29542.24
510.08	29118.60
510.25	29846.51
510.42	29474.37
510.60	29876.94
510.77	29933.11
510.95	30246.74
511.12	29996.31
511.30	29792.68
511.47	30359.09
511.64	30223.34
511.82	30487.82
511.99	30157.80
512.17	30801.45
512.34	30661.02
512.51	30614.21
512.69	31147.85
512.86	31014.44
513.04	30923.16
513.21	31129.12
513.38	31049.55
513.56	30930.18
513.73	31192.32
513.90	31084.65
514.08	31185.30
514.25	31468.50
514.43	31349.14
514.60	31651.06
514.77	31615.96
514.95	31861.71
515.12	31880.44
515.29	31917.89
515.47	31917.89
515.64	32343.86
515.81	32027.89
515.99	32217.47
516.16	32245.56
516.33	32437.48
516.51	32851.76
516.68	32507.70
516.85	32547.49
517.03	32765.16
517.20	32673.88
517.37	32631.75
517.54	33003.89
517.72	32678.56
517.89	32999.21
518.06	32954.74
518.24	33017.94
518.41	33118.58
518.58	33319.87
518.75	33141.99
518.93	33574.98
519.10	33181.77
519.27	33338.59
519.45	33589.03
519.62	34010.32
519.79	33610.09
519.96	33940.11
520.14	33949.47
520.31	33813.72
520.48	34174.16
520.65	34026.71
520.83	34419.92
521.00	34543.97
521.17	34443.32
521.34	34361.40
521.52	34459.71
521.69	34609.50
521.86	34836.53
522.03	34323.96
522.20	34873.98
522.38	35061.22
522.55	34817.81
522.72	35147.82
522.89	35037.82
523.07	35353.79
523.24	35154.85
523.41	35145.48
523.58	35206.34
523.75	35644.02
523.92	35475.50
524.10	35608.91
524.27	35739.98
524.44	35599.55
524.61	35512.95
524.78	35849.99
524.96	35908.50
525.13	36023.19
525.30	36041.91
525.47	35997.44
525.64	35873.39
525.81	36383.63
525.98	36273.62
526.16	36570.87
526.33	36257.24
526.50	36809.61
526.67	36313.41
526.84	36608.32
527.01	36203.41
527.18	36720.66
527.36	36526.40
527.53	37062.38
527.70	37167.71
527.87	37364.31
528.04	37546.87
528.21	37235.58
528.38	37163.03
528.55	37277.71
528.72	37378.36
528.89	37233.24
529.07	37263.67
529.24	37097.49
529.41	37516.45
529.58	37336.23
529.75	37563.26
529.92	37551.56
530.09	37916.68
530.26	37757.52
530.43	37401.76
530.60	37652.20
530.77	38143.71
530.94	37759.86
531.11	37921.36
531.28	38274.78
531.46	38312.23
531.63	38211.59
531.80	38211.59
531.97	38284.14
532.14	38593.09
532.31	38080.52
532.48	38705.44
532.65	39049.50
532.82	38436.28
532.99	38593.09
533.16	38574.37
533.33	39000.35
533.50	38653.95
533.67	38946.51
533.84	38848.21
534.01	38738.21
534.18	38799.06
534.35	39269.51
534.52	39218.02
534.69	39215.68
534.86	39171.21
535.03	39159.50
535.20	39957.63
535.37	39285.89
535.54	39613.57
535.71	39601.86
535.88	39585.48
536.05	39831.24
536.22	39440.37
536.38	39533.99
536.55	40023.16
536.72	39810.17
536.89	39674.42
537.06	40006.78
537.23	39864.00
537.40	40187.00
537.57	40004.44
537.74	39786.77
537.91	40414.03
538.08	40217.43
538.25	39653.36
538.42	40215.08
538.59	40315.73
538.75	40271.26
538.92	40428.07
539.09	40547.44
539.26	40458.50
539.43	40549.78
539.60	40669.15
539.77	40414.03
539.94	40919.59
540.11	40797.88
540.28	41205.13
540.44	41015.55
540.61	40788.52
540.78	40851.71
540.95	40797.88
541.12	40774.47
541.29	40563.82
541.46	41270.67
541.62	41270.67
541.79	41209.81
541.96	40746.39
542.13	41067.04
542.30	41401.74
542.47	41373.65
542.63	41322.16
542.80	41277.69
542.97	41846.44
543.14	41911.97
543.31	41631.11
543.48	41762.18
543.64	42459.66
543.81	41972.83
543.98	41804.31
544.15	41797.29
544.32	42059.43
544.48	42244.33
544.65	42356.67
544.82	42068.79
544.99	41977.51
545.16	42183.48
545.32	42784.99
545.49	42813.08
545.66	42927.77
545.83	42574.34
546.00	42611.79
546.16	42459.66
546.33	42724.14
546.50	42550.94
546.67	42539.24
546.83	42424.55
547.00	42511.15
547.17	43007.34
547.34	42932.45
547.50	43058.84
547.67	43107.99
547.84	43325.66
548.00	43260.12
548.17	43196.93
548.34	43494.18
548.51	43372.47
548.67	43330.34
548.84	43283.53
549.01	43192.25
549.18	42885.64
549.34	42965.21
549.51	43821.85
549.68	43573.75
549.84	42974.58
550.01	43562.05
550.18	43243.74
550.34	43281.19
550.51	43526.94
550.68	44065.27
550.84	43405.23
551.01	43709.50
551.18	43454.39
551.34	44044.20
551.51	43700.14
551.68	43655.67
551.84	43714.19
552.01	43983.35
552.18	43819.51
552.34	44011.43
552.51	43997.39
552.68	43613.54
552.84	44112.08
553.01	44163.57
553.18	44212.72
553.34	44306.34
553.51	43475.45
553.67	44381.24
553.84	44779.13
554.01	44575.50
554.17	44622.31
554.34	44598.91
554.51	44615.29
554.67	45020.20
554.84	44732.32
555.00	44868.07
555.17	44540.39
555.33	44879.77
555.50	44547.42
555.67	44807.22
555.83	45113.83
556.00	44882.11
556.16	45488.31
556.33	44748.70
556.50	45043.61
556.66	45127.87
556.83	44699.55
556.99	45151.27
557.16	45490.65
557.32	45074.04
557.49	45312.77
557.65	44765.09
557.82	45460.23
557.98	44746.36
558.15	44818.92
558.32	45134.89
558.48	45015.52
558.65	45413.41
558.81	45134.89
558.98	44952.33
559.14	45244.90
559.31	45642.79
559.47	45240.21
559.64	45502.35
559.80	45240.21
559.97	45247.24
560.13	45539.80
560.30	45287.03
560.46	45366.60
560.63	45752.79
560.79	45944.72
560.96	45722.37
561.12	45619.38
561.29	45776.20
561.45	45701.30
561.61	45549.17
561.78	45869.82
561.94	45645.13
562.11	45427.46
562.27	45404.05
562.44	45670.87
562.60	45876.84
562.77	46230.26
562.93	45766.84
563.10	46033.66
563.26	45640.45
563.42	46326.22
563.59	46134.30
563.75	45570.23
563.92	45759.81
564.08	45944.72
564.24	45851.09
564.41	46223.24
564.57	46033.66
564.74	46211.54
564.90	45748.11
565.07	45500.01
565.23	46241.96
565.39	45942.38
565.56	46417.50
565.72	46134.30
565.88	45825.35
566.05	46454.95
566.21	46185.79
566.38	46483.04
566.54	46223.24
566.70	46387.08
566.87	46667.94
567.03	46286.43
567.19	46188.13
567.36	46286.43
567.52	46059.40
567.68	46869.23
567.85	46284.09
568.01	46693.69
568.17	46258.35
568.34	46211.54
568.50	46604.75
568.66	46256.01
568.83	46581.34
568.99	46735.82
569.15	46504.10
569.32	46167.07
569.48	46887.95
569.64	46782.63
569.81	46314.52
569.97	46705.39
570.13	46745.18
570.30	46398.78
570.46	46637.51
570.62	46256.01
570.78	47065.83
570.95	46667.94
571.11	47000.30
571.27	46614.11
571.43	47091.58
571.60	46742.84
571.76	46377.72
571.92	46326.22
572.09	46857.52
572.25	46752.20
572.41	46593.04
572.57	46714.75
572.74	47262.44
572.90	47063.49
573.06	47370.10
573.22	47063.49
573.38	47143.07
573.55	46843.48
573.71	47063.49
573.87	46946.47
574.03	47009.66
574.20	47260.10
574.36	46632.83
574.52	47065.83
574.68	46902.00
574.84	46852.84
575.01	47161.79
575.17	47147.75
575.33	47068.17
575.49	46747.52
575.65	47117.32
575.82	47077.54
575.98	46323.88
576.14	47210.95
576.30	46904.34
576.46	46932.42
576.62	46700.71
576.79	46993.28
576.95	47021.36
577.11	46967.53
577.27	46829.44
577.43	47098.60
577.59	47379.46
577.75	46543.89
577.92	47180.52
578.08	47126.69
578.24	47028.38
578.40	47199.24
578.56	47112.64
578.72	46946.47
578.88	46815.40
579.04	47269.46
579.21	46997.96
579.37	46981.57
579.53	47290.52
579.69	47009.66
579.85	46614.11
580.01	46885.61
580.17	47065.83
580.33	47091.58
580.49	47257.76
580.65	47253.08
580.82	46962.85
580.98	46885.61
581.14	47000.30
581.30	47086.90
581.46	47114.98
581.62	47014.34
581.78	46564.96
581.94	47014.34
582.10	47311.59
582.26	47246.05
582.42	47318.61
582.58	47290.52
582.74	47419.25
582.90	47089.24
583.06	47388.83
583.22	46932.42
583.38	47012.00
583.54	47215.63
583.70	47304.57
583.86	47129.03
584.02	47318.61
584.18	47536.28
584.34	47302.23
584.50	47243.71
584.66	47543.30
584.82	47342.02
584.98	47819.49
585.14	47721.18
585.30	47264.78
585.46	47505.85
585.62	47100.94
585.78	47224.99
585.94	47185.20
586.10	47285.84
586.26	46859.87
586.42	47206.26
586.58	47814.80
586.74	47531.60
586.90	47260.10
587.06	47192.22
587.22	47852.25
587.38	47168.82
587.54	47519.90
587.70	47700.12
587.86	47585.43
588.02	47980.98
588.18	47449.68
588.34	47524.58
588.49	47185.20
588.65	47283.50
588.81	47217.97
588.97	47721.18
589.13	47313.93
589.29	47297.55
589.45	47777.36
589.61	47278.82
589.77	47550.32
589.93	47693.10
