SpectraSuite Data File
++++++++++++++++++++++++++++++++++++
Date: Fri Oct 25 11:34:11 EDT 2013
User: price-jones
Dark Spectrum Present: No
Reference Spectrum Present: No
Number of Sampled Component Spectra: 1
Spectrometers: USB2+H05261
Integration Time (usec): 100000 (USB2+H05261)
Spectra Averaged: 1 (USB2+H05261)
Boxcar Smoothing: 0 (USB2+H05261)
Correct for Electrical Dark: No (USB2+H05261)
Strobe/Lamp Enabled: No (USB2+H05261)
Correct for Detector Non-linearity: No (USB2+H05261)
Correct for Stray Light: No (USB2+H05261)
Number of Pixels in Processed Spectrum: 2048
>>>>>Begin Processed Spectral Data<<<<<
365.73	285.55
365.92	285.55
366.12	285.55
366.32	208.31
366.52	191.92
366.72	149.79
366.91	154.48
367.11	166.18
367.31	117.03
367.51	114.69
367.70	189.58
367.90	182.56
368.10	182.56
368.30	191.92
368.49	273.84
368.69	227.03
368.89	203.63
369.09	203.63
369.28	248.10
369.48	252.78
369.68	299.59
369.87	294.91
370.07	224.69
370.27	285.55
370.47	278.52
370.66	421.30
370.86	507.90
371.06	535.98
371.25	521.94
371.45	491.51
371.65	557.05
371.84	531.30
372.04	521.94
372.24	566.41
372.44	496.19
372.63	664.71
372.83	615.56
373.03	603.86
373.22	580.45
373.42	662.37
373.62	578.11
373.81	594.50
374.01	645.99
374.21	603.86
374.40	627.26
374.60	681.10
374.79	648.33
374.99	596.84
375.19	657.69
375.38	610.88
375.58	585.13
375.78	667.05
375.97	622.58
376.17	709.18
376.37	662.37
376.56	645.99
376.76	676.41
376.95	755.99
377.15	763.01
377.35	688.12
377.54	678.76
377.74	730.25
377.93	699.82
378.13	711.52
378.33	709.18
378.52	653.01
378.72	676.41
378.91	681.10
379.11	779.40
379.31	781.74
379.50	713.86
379.70	826.21
379.89	697.48
380.09	772.38
380.28	727.91
380.48	746.63
380.68	702.16
380.87	655.35
381.07	706.84
381.26	741.95
381.46	779.40
381.65	711.52
381.85	697.48
382.04	725.57
382.24	774.72
382.43	814.51
382.63	737.27
382.83	760.67
383.02	741.95
383.22	826.21
383.41	753.65
383.61	809.83
383.80	793.44
384.00	819.19
384.19	741.95
384.39	788.76
384.58	877.70
384.78	823.87
384.97	809.83
385.17	858.98
385.36	777.06
385.56	805.14
385.75	765.36
385.95	823.87
386.14	905.79
386.34	798.12
386.53	814.51
386.72	795.78
386.92	819.19
387.11	837.91
387.31	952.60
387.50	877.70
387.70	835.57
387.89	889.40
388.09	908.13
388.28	882.38
388.48	837.91
388.67	919.83
388.86	903.45
389.06	971.32
389.25	882.38
389.45	889.40
389.64	966.64
389.84	966.64
390.03	957.28
390.22	980.68
390.42	926.85
390.61	954.94
390.81	898.77
391.00	924.51
391.19	912.81
391.39	987.71
391.58	997.07
391.78	1020.47
391.97	1039.20
392.16	1015.79
392.36	1039.20
392.55	997.07
392.75	926.85
392.94	1041.54
393.13	1057.92
393.33	1090.69
393.52	1043.88
393.71	1022.81
393.91	1018.13
394.10	1074.31
394.29	1015.79
394.49	1055.58
394.68	1186.65
394.88	1153.88
395.07	1064.94
395.26	1008.77
395.46	1111.75
395.65	1174.95
395.84	1191.33
396.04	1224.10
396.23	1135.16
396.42	1130.48
396.62	1277.93
396.81	1240.48
397.00	1165.59
397.19	1170.27
397.39	1221.76
397.58	1249.85
397.77	1273.25
397.97	1268.57
398.16	1231.12
398.35	1310.70
398.55	1203.04
398.74	1287.29
398.93	1334.11
399.12	1275.59
399.32	1378.58
399.51	1263.89
399.70	1334.11
399.90	1252.19
400.09	1252.19
400.28	1462.83
400.47	1322.40
400.67	1500.28
400.86	1458.15
401.05	1439.43
401.24	1324.74
401.44	1418.36
401.63	1448.79
401.82	1460.49
402.01	1462.83
402.21	1362.19
402.40	1554.12
402.59	1439.43
402.78	1401.98
402.97	1441.77
403.17	1600.93
403.36	1528.37
403.55	1509.65
403.74	1547.09
403.93	1516.67
404.13	1504.96
404.32	1540.07
404.51	1643.06
404.70	1626.67
404.89	1624.33
405.09	1598.59
405.28	1645.40
405.47	1675.82
405.66	1743.70
405.85	1727.32
406.05	1619.65
406.24	1675.82
406.43	1748.38
406.62	1652.42
406.81	1790.51
407.00	1732.00
407.20	1678.16
407.39	1741.36
407.58	1837.32
407.77	1734.34
407.96	1767.10
408.15	1816.26
408.34	1830.30
408.54	1879.45
408.73	1926.26
408.92	1916.90
409.11	1919.24
409.30	1954.35
409.49	1980.09
409.68	1928.60
409.87	1930.94
410.07	2050.31
410.26	2071.37
410.45	2005.84
410.64	2062.01
410.83	2076.06
411.02	2090.10
411.21	2207.13
411.40	2139.25
411.59	2188.40
411.78	2211.81
411.98	2136.91
412.17	2253.94
412.36	2321.81
412.55	2235.21
412.74	2242.23
412.93	2317.13
413.12	2282.02
413.31	2492.67
413.50	2263.30
413.69	2326.49
413.88	2368.62
414.07	2363.94
414.26	2375.64
414.45	2420.11
414.64	2464.58
414.83	2427.14
415.02	2434.16
415.22	2509.05
415.41	2640.12
415.60	2551.18
415.79	2693.96
415.98	2672.89
416.17	2677.57
416.36	2654.17
416.55	2745.45
416.74	2712.68
416.93	2768.85
417.12	2785.24
417.31	2766.51
417.50	2839.07
417.69	2977.16
417.88	2825.03
418.07	2928.01
418.26	2867.16
418.45	2881.20
418.64	2949.08
418.83	3101.21
419.02	2972.48
419.21	2974.82
419.39	3023.97
419.58	3059.08
419.77	3038.02
419.96	3084.83
420.15	3164.40
420.34	3124.62
420.53	3094.19
420.72	3164.40
420.91	3082.49
421.10	3255.69
421.29	3101.21
421.48	3136.32
421.67	3098.87
421.86	3176.11
422.05	3351.65
422.24	3262.71
422.43	3316.54
422.61	3197.17
422.80	3318.88
422.99	3386.76
423.18	3353.99
423.37	3346.97
423.56	3346.97
423.75	3281.43
423.94	3309.52
424.13	3115.25
424.32	3262.71
424.50	3456.97
424.69	3442.93
424.88	3417.18
425.07	3517.83
425.26	3358.67
425.45	3433.57
425.64	3290.79
425.83	3346.97
426.01	3293.13
426.20	3335.26
426.39	3332.92
426.58	3426.54
426.77	3379.73
426.96	3375.05
427.15	3463.99
427.33	3529.53
427.52	3552.93
427.71	3433.57
427.90	3538.89
428.09	3644.21
428.28	3536.55
428.46	3705.07
428.65	3576.34
428.84	3836.14
429.03	3653.58
429.22	3632.51
429.40	3693.37
429.59	3658.26
429.78	3531.87
429.97	3522.51
430.16	3712.09
430.34	3712.09
430.53	3779.97
430.72	3789.33
430.91	3906.35
431.10	3758.90
431.28	3836.14
431.47	3950.82
431.66	3915.72
431.85	3761.24
432.03	3997.64
432.22	3990.61
432.41	3925.08
432.60	4035.08
432.79	3913.38
432.97	3985.93
433.16	4081.89
433.35	4039.76
433.54	4154.45
433.72	4224.67
433.91	4074.87
434.10	3978.91
434.28	4173.18
434.47	4086.58
434.66	4215.30
434.85	4194.24
435.03	4091.26
435.22	4264.46
435.41	4351.06
435.59	4259.78
435.78	4344.03
435.97	4381.48
436.16	4243.39
436.34	4278.50
436.53	4458.72
436.72	4444.68
436.90	4362.76
437.09	4482.13
437.28	4367.44
437.46	4437.66
437.65	4320.63
437.84	4507.87
438.02	4533.62
438.21	4580.43
438.40	4432.97
438.58	4678.73
438.77	4713.84
438.96	4533.62
439.14	4622.56
439.33	4844.91
439.52	4908.10
439.70	4819.16
439.89	4901.08
440.08	5015.77
440.26	5102.37
440.45	4877.68
440.63	5022.79
440.82	5128.11
441.01	4931.51
441.19	5074.28
441.38	4966.62
441.57	5193.65
441.75	5298.97
441.94	5238.12
442.12	5373.87
442.31	5460.47
442.50	5373.87
442.68	5233.44
442.87	5254.50
443.05	5357.49
443.24	5504.94
443.43	5460.47
443.61	5401.96
443.80	5610.26
443.98	5284.93
444.17	5191.31
444.35	5446.43
444.54	5596.22
444.73	5526.00
444.91	5577.50
445.10	5488.56
445.28	5474.51
445.47	5423.02
445.65	5423.02
445.84	5483.88
446.02	5528.35
446.21	5518.98
446.39	5589.20
446.58	5715.59
446.77	5472.17
446.95	5577.50
447.14	5584.52
447.32	5680.48
447.51	5645.37
447.69	5467.49
447.88	5509.62
448.06	5755.38
448.25	5523.66
448.43	5729.63
448.62	5715.59
448.80	5666.44
448.99	5727.29
449.17	5811.55
449.36	5720.27
449.54	5921.56
449.73	5907.51
449.91	5912.19
450.10	5881.77
450.28	5944.96
450.46	6040.92
450.65	5959.00
450.83	5891.13
451.02	5937.94
451.20	6087.73
451.39	6029.22
451.57	6069.01
451.76	6005.81
451.94	6122.84
452.13	6120.50
452.31	6127.52
452.49	5891.13
452.68	6134.54
452.86	6183.70
453.05	6239.87
453.23	6277.32
453.42	6045.60
453.60	6113.48
453.78	6230.51
453.97	6218.80
454.15	6204.76
454.34	6359.24
454.52	6462.22
454.70	6195.40
454.89	6466.90
455.07	6609.67
455.26	6539.46
455.44	6630.74
455.62	6434.13
455.81	6604.99
455.99	6752.45
456.17	6619.04
456.36	6670.53
456.54	6661.16
456.73	6668.19
456.91	6869.47
457.09	6803.94
457.28	6848.41
457.46	6722.02
457.64	6806.28
457.83	7000.54
458.01	6810.96
458.19	6965.43
458.38	6747.76
458.56	7045.01
458.74	7178.42
458.93	7197.15
459.11	7007.56
459.29	7091.82
459.48	7056.72
459.66	7049.69
459.84	6946.71
460.03	7218.21
460.21	7157.36
460.39	7068.42
460.57	7094.16
460.76	7218.21
460.94	7276.73
461.12	7508.44
461.31	7293.11
461.49	7145.66
461.67	7449.93
461.85	7487.37
462.04	7405.46
462.22	7838.45
462.40	7716.75
462.59	7550.57
462.77	7639.51
462.95	7611.42
463.13	7506.10
463.32	7485.03
463.50	7756.54
463.68	7702.70
463.86	7683.98
464.05	7524.82
464.23	7665.25
464.41	7719.09
464.59	7627.81
464.78	7901.65
464.96	7763.56
465.14	7698.02
465.32	7864.20
465.50	7960.16
465.69	8018.68
465.87	7861.86
466.05	8004.63
466.23	8058.46
466.41	7880.58
466.60	8105.28
466.78	7885.26
466.96	8023.36
467.14	7932.08
467.32	8184.85
467.51	8294.86
467.69	8060.80
467.87	8210.60
468.05	8084.21
468.23	8315.92
468.41	8002.29
468.60	8367.42
468.78	8278.47
468.96	8135.70
469.14	8407.20
469.32	8493.80
469.50	8297.20
469.69	8409.54
469.87	8580.40
470.05	8318.26
470.23	8667.00
470.41	8571.04
470.59	8781.69
470.77	8645.94
470.95	8657.64
471.14	8847.22
471.32	8561.68
471.50	8711.47
471.68	8950.21
471.86	8861.27
472.04	9001.70
472.22	9121.07
472.40	8985.32
472.58	8966.59
472.77	9060.21
472.95	9177.24
473.13	9427.68
473.31	9165.54
473.49	9336.40
473.67	9111.71
473.85	9118.73
474.03	9579.81
474.21	9238.09
474.39	9579.81
474.57	9451.08
474.75	9689.82
474.93	9678.12
475.12	9834.93
475.30	10033.88
475.48	9832.59
475.66	9781.10
475.84	9764.72
476.02	9923.87
476.20	10024.51
476.38	10244.52
476.56	10331.12
476.74	10232.82
476.92	10289.00
477.10	10286.65
477.28	10335.81
477.46	10424.75
477.64	10527.73
477.82	10511.35
478.00	10918.60
478.18	10803.91
478.36	11117.54
478.54	10986.47
478.72	11108.18
478.90	11272.02
479.08	11145.63
479.26	11330.53
479.44	11424.15
479.62	11508.41
479.80	11573.95
479.98	11618.42
480.16	11946.09
480.34	11782.26
480.52	12070.14
480.70	11808.00
480.88	11751.83
481.06	12208.23
481.24	12182.49
481.41	12131.00
481.59	12446.97
481.77	12472.71
481.95	12545.27
482.13	12812.09
482.31	12636.55
482.49	12894.01
482.67	13034.44
482.85	13139.77
483.03	13221.69
483.21	13144.45
483.39	13460.42
483.57	13551.70
483.74	13614.90
483.92	13472.12
484.10	13635.96
484.28	13717.88
484.46	14174.28
484.64	14366.21
484.82	14059.60
485.00	13980.02
485.18	14469.19
485.35	14792.19
485.53	14780.48
485.71	14853.04
485.89	15084.75
486.07	15051.99
486.25	15171.35
486.43	15246.25
486.61	15264.97
486.78	15627.76
486.96	15241.57
487.14	15571.58
487.32	15653.50
487.50	15896.92
487.68	15889.90
487.85	16224.59
488.03	16222.25
488.21	16524.18
488.39	16397.79
488.57	16704.40
488.75	16631.85
488.92	16851.86
489.10	17348.05
489.28	17043.78
489.46	17348.05
489.64	17355.07
489.81	17614.87
489.99	17532.95
490.17	17783.39
490.35	18335.76
490.53	17935.53
490.70	18146.17
490.88	18181.28
491.06	18759.39
491.24	18424.70
491.41	18527.68
491.59	18824.93
491.77	18780.46
491.95	18869.40
492.13	19274.31
492.30	19253.25
492.48	19126.86
492.66	19445.17
492.84	19604.33
493.01	19697.95
493.19	19599.65
493.37	20002.22
493.54	20049.03
493.72	20348.62
493.90	19772.85
494.08	20460.96
494.25	20563.95
494.43	20386.07
494.61	20643.52
494.79	20978.22
494.96	20650.55
495.14	20809.70
495.32	21067.16
495.49	20966.52
495.67	21160.78
495.85	21420.58
496.02	21788.05
496.20	21811.45
496.38	21642.93
496.55	21764.64
496.73	22377.86
496.91	22104.02
497.09	22363.82
497.26	22373.18
497.44	21809.11
497.62	22457.44
497.79	22920.87
497.97	22834.27
498.14	23187.69
498.32	22988.74
498.50	23115.13
498.67	23381.95
498.85	23218.11
499.03	23597.28
499.20	23290.67
499.38	23316.42
499.56	24140.29
499.73	24032.62
499.91	24058.37
500.08	24250.29
500.26	24018.58
500.44	23896.87
500.61	23995.17
500.79	24453.92
500.97	24577.97
501.14	24805.00
501.32	24575.62
501.49	24671.59
501.67	24367.32
501.84	24966.49
502.02	24938.41
502.20	24952.45
502.37	25055.43
502.55	25259.06
502.72	25448.64
502.90	25558.65
503.07	25329.28
503.25	25556.31
503.43	25411.20
503.60	25282.47
503.78	25790.36
503.95	25792.70
504.13	25773.98
504.30	26040.80
504.48	25893.35
504.65	26132.08
504.83	26148.46
505.01	26324.01
505.18	26525.29
505.36	26647.00
505.53	26431.67
505.71	26576.78
505.88	26848.29
506.06	26925.52
506.23	26597.85
506.41	26661.04
506.58	27218.09
506.76	27194.68
506.93	27328.10
507.11	27431.08
507.28	27527.04
507.46	27414.69
507.63	27522.36
507.81	27536.40
507.98	27611.30
508.16	27484.91
508.33	27955.36
508.50	28135.58
508.68	28151.96
508.85	28407.08
509.03	28114.52
509.20	28425.81
509.38	28402.40
509.55	28402.40
509.73	28423.47
509.90	28760.50
510.08	28493.68
510.25	28304.10
510.42	29296.49
510.60	28833.06
510.77	29158.39
510.95	29551.60
511.12	29149.03
511.30	29024.98
511.47	29582.03
511.64	29319.89
511.82	29762.25
511.99	29408.83
512.17	29738.85
512.34	29598.41
512.51	30127.38
512.69	29916.73
512.86	29986.94
513.04	30359.09
513.21	30256.11
513.38	30312.28
513.56	30232.70
513.73	30295.89
513.90	30443.35
514.08	30480.80
514.25	30843.58
514.43	30621.23
514.60	30888.05
514.77	30759.32
514.95	30862.30
515.12	30939.54
515.29	31402.97
515.47	31311.69
515.64	31229.77
515.81	30890.39
515.99	31311.69
516.16	31587.87
516.33	31227.43
516.51	31662.77
516.68	31878.10
516.85	31693.19
517.03	31718.94
517.20	32016.19
517.37	31674.47
517.54	31910.86
517.72	32006.83
517.89	32212.79
518.06	32313.44
518.24	32503.02
518.41	32135.56
518.58	32077.04
518.75	32463.23
518.93	32519.40
519.10	32189.39
519.27	32421.10
519.45	32697.28
519.62	33010.92
519.79	32584.94
519.96	32746.44
520.14	32854.10
520.31	32774.52
520.48	32910.27
520.65	33371.36
520.83	33408.81
521.00	33757.55
521.17	33706.05
521.34	33521.15
521.52	33989.26
521.69	33687.33
521.86	34054.79
522.03	34064.16
522.20	34202.25
522.38	34155.44
522.55	33965.85
522.72	34195.23
522.89	34108.63
523.07	34534.60
523.24	34412.90
523.41	35051.86
523.58	34330.98
523.75	34614.18
523.92	34710.14
524.10	34799.08
524.27	34752.27
524.44	34862.28
524.61	34864.62
524.78	34986.33
524.96	35185.27
525.13	35021.44
525.30	35379.54
525.47	35161.87
525.64	35227.40
525.81	35276.55
525.98	35204.00
526.16	35405.28
526.33	35709.55
526.50	35629.98
526.67	35311.66
526.84	35700.19
527.01	35901.48
527.18	35868.71
527.36	36233.83
527.53	36250.22
527.70	36259.58
527.87	36027.87
528.04	36371.92
528.21	35882.75
528.38	36172.98
528.55	36416.40
528.72	35725.94
528.89	36339.16
529.07	36009.14
529.24	36275.96
529.41	36741.73
529.58	36327.45
529.75	36603.64
529.92	37029.62
530.09	36666.83
530.26	36608.32
530.43	36825.99
530.60	36673.85
530.77	36744.07
530.94	37282.39
531.11	36762.79
531.28	36727.69
531.46	37221.54
531.63	37172.39
531.80	37237.92
531.97	37457.93
532.14	37186.43
532.31	37563.26
532.48	37834.76
532.65	37642.84
532.82	37621.77
532.99	37680.28
533.16	37621.77
533.33	37429.85
533.50	37755.18
533.67	37731.78
533.84	37897.95
534.01	37453.25
534.18	38024.34
534.35	37862.85
534.52	38653.95
534.69	38445.64
534.86	38490.11
535.03	38359.04
535.20	38352.02
535.37	38342.66
535.54	38361.38
535.71	38171.80
535.88	38735.87
536.05	38555.64
536.22	38440.96
536.38	38499.47
536.55	38536.92
536.72	38869.28
536.89	38866.94
537.06	39117.37
537.23	39124.40
537.40	38700.76
537.57	38948.85
537.74	39023.75
537.91	39426.32
538.08	39049.50
538.25	39002.69
538.42	38848.21
538.59	39569.10
538.75	39248.44
538.92	39498.88
539.09	39388.88
539.26	39615.91
539.43	39370.15
539.60	39864.00
539.77	39569.10
539.94	39718.89
540.11	39716.55
540.28	40034.86
540.44	39573.78
540.61	39730.59
540.78	39952.94
540.95	39845.28
541.12	39274.19
541.29	39931.88
541.46	40006.78
541.62	40149.55
541.79	40390.62
541.96	39639.31
542.13	40072.31
542.30	40069.97
542.47	40336.79
542.63	40187.00
542.80	40706.60
542.97	41270.67
543.14	40685.53
543.31	40444.46
543.48	40313.39
543.64	41076.40
543.81	41031.93
543.98	40872.78
544.15	41097.47
544.32	41502.38
544.48	41380.67
544.65	41127.89
544.82	40954.69
544.99	41013.21
545.16	41284.71
545.32	40751.07
545.49	41724.73
545.66	41441.53
545.83	41961.12
546.00	41617.07
546.16	41827.71
546.33	41689.62
546.50	41326.84
546.67	41467.27
546.83	41113.85
547.00	41282.37
547.17	41455.57
547.34	41359.61
547.50	41834.74
547.67	42328.59
547.84	41659.20
548.00	42031.34
548.17	42113.26
548.34	42204.54
548.51	42569.66
548.67	42204.54
548.84	42068.79
549.01	42241.99
549.18	42181.13
549.34	42424.55
549.51	42185.82
549.68	42843.51
549.84	42141.35
550.01	42672.65
550.18	42344.97
550.34	42485.40
550.51	42911.38
550.68	42660.94
550.84	42450.30
551.01	42728.82
551.18	42752.23
551.34	42918.40
551.51	42824.78
551.68	42721.80
551.84	42555.62
552.01	42689.03
552.18	42838.83
552.34	42871.59
552.51	42995.64
552.68	42862.23
552.84	42792.01
553.01	43377.15
553.18	42644.56
553.34	43196.93
553.51	42969.90
553.67	42869.25
553.84	43770.36
554.01	43271.82
554.17	43187.56
554.34	43147.78
554.51	43512.90
554.67	43821.85
554.84	43695.46
555.00	43498.86
555.17	43824.19
555.33	43510.56
555.50	43782.06
555.67	44133.14
555.83	43620.56
556.00	44020.80
556.16	44196.34
556.33	43576.09
556.50	43756.32
556.66	43819.51
556.83	43777.38
556.99	44107.40
557.16	43849.94
557.32	44257.19
557.49	44100.37
557.65	44222.08
557.82	43749.29
557.98	43885.04
558.15	44168.25
558.32	44332.09
558.48	43920.15
558.65	44306.34
558.81	44343.79
558.98	44236.12
559.14	43847.60
559.31	43924.83
559.47	43988.03
559.64	44540.39
559.80	44662.10
559.97	44423.37
560.13	44509.97
560.30	44411.67
560.46	44776.79
560.63	44540.39
560.79	44617.63
560.96	44676.15
561.12	44737.00
561.29	44474.86
561.45	44650.40
561.61	44655.08
561.78	44821.26
561.94	44339.11
562.11	44486.56
562.27	44437.41
562.44	44676.15
562.60	45020.20
562.77	44910.20
562.93	44481.88
563.10	45099.78
563.26	44428.05
563.42	44926.58
563.59	44643.38
563.75	45141.91
563.92	44701.89
564.08	44657.42
564.24	45188.72
564.41	44596.57
564.57	44996.80
564.74	45024.89
564.90	45008.50
565.07	44671.46
565.23	44849.35
565.39	44992.12
565.56	45064.67
565.72	44755.72
565.88	45291.71
566.05	45310.43
566.21	45050.63
566.38	45305.75
566.54	45191.06
566.70	45038.93
566.87	44865.73
567.03	45074.04
567.19	45144.25
567.36	45219.15
567.52	45041.27
567.68	45539.80
567.85	45059.99
568.01	45624.06
568.17	44767.43
568.34	45146.59
568.50	45619.38
568.66	44825.94
568.83	45368.94
568.99	45464.91
569.15	45514.06
569.32	45467.25
569.48	45148.93
569.64	45607.68
569.81	45535.12
569.97	45542.14
570.13	45663.85
570.30	45359.58
570.46	45691.94
570.62	45670.87
570.78	45542.14
570.95	45825.35
571.11	45698.96
571.27	45485.97
571.43	45462.57
571.60	45844.07
571.76	45263.62
571.92	45553.85
572.09	45579.59
572.25	44971.05
572.41	45404.05
572.57	45478.95
572.74	46096.85
572.90	45698.96
573.06	45762.15
573.22	45792.58
573.38	46110.89
573.55	45785.56
573.71	45764.49
573.87	46122.60
574.03	45532.78
574.20	45949.40
574.36	46335.59
574.52	45558.53
574.68	45984.51
574.84	45937.69
575.01	45727.05
575.17	45713.00
575.33	45918.97
575.49	45827.69
575.65	46017.27
575.82	46005.57
575.98	45717.68
576.14	46131.96
576.30	45907.27
576.46	45837.05
576.62	45769.18
576.79	45893.22
576.95	46068.76
577.11	46127.28
577.27	45607.68
577.43	45741.09
577.59	46160.05
577.75	45911.95
577.92	45710.66
578.08	46174.09
578.24	45834.71
578.40	46199.83
578.56	45867.48
578.72	45930.67
578.88	46176.43
579.04	45886.20
579.21	45963.44
579.37	45832.37
579.53	46445.59
579.69	46094.51
579.85	46260.69
580.01	46536.87
580.17	46183.45
580.33	45982.16
580.49	46384.74
580.65	46164.73
580.82	46087.49
580.98	45860.46
581.14	46206.86
581.30	46155.36
581.46	46150.68
581.62	45897.91
581.78	45834.71
581.94	46323.88
582.10	45968.12
582.26	46263.03
582.42	46237.28
582.58	45993.87
582.74	46319.20
582.90	46230.26
583.06	46316.86
583.22	45965.78
583.38	46131.96
583.54	46302.82
583.70	46082.81
583.86	46361.33
584.02	46197.49
584.18	46539.21
584.34	46567.30
584.50	46330.90
584.66	46555.60
584.82	46234.94
584.98	46590.70
585.14	46256.01
585.30	46211.54
585.46	46607.09
585.62	46181.11
585.78	46279.41
585.94	46059.40
586.10	46415.16
586.26	46050.04
586.42	46082.81
586.58	46248.99
586.74	46260.69
586.90	46120.26
587.06	46160.05
587.22	46220.90
587.38	46157.70
587.54	46452.61
587.70	46607.09
587.86	46686.67
588.02	46326.22
588.18	46028.98
588.34	46131.96
588.49	46658.58
588.65	46256.01
588.81	46553.26
588.97	46555.60
589.13	46225.58
589.29	46604.75
589.45	46513.47
589.61	46749.86
589.77	46298.14
589.93	46742.84
590.08	46614.11
