SpectraSuite Data File
++++++++++++++++++++++++++++++++++++
Date: Fri Oct 25 11:22:34 EDT 2013
User: price-jones
Dark Spectrum Present: No
Reference Spectrum Present: No
Number of Sampled Component Spectra: 1
Spectrometers: USB2+H05261
Integration Time (usec): 100000 (USB2+H05261)
Spectra Averaged: 1 (USB2+H05261)
Boxcar Smoothing: 0 (USB2+H05261)
Correct for Electrical Dark: No (USB2+H05261)
Strobe/Lamp Enabled: No (USB2+H05261)
Correct for Detector Non-linearity: No (USB2+H05261)
Correct for Stray Light: No (USB2+H05261)
Number of Pixels in Processed Spectrum: 2048
>>>>>Begin Processed Spectral Data<<<<<
365.73	327.68
365.92	327.68
366.12	327.68
366.32	180.22
366.52	163.84
366.72	154.48
366.91	154.48
367.11	138.09
367.31	124.05
367.51	166.18
367.70	149.79
367.90	107.66
368.10	145.11
368.30	170.86
368.49	170.86
368.69	170.86
368.89	170.86
369.09	117.03
369.28	194.26
369.48	100.64
369.68	184.90
369.87	222.35
370.07	184.90
370.27	262.14
370.47	259.80
370.66	535.98
370.86	617.90
371.06	624.92
371.25	627.26
371.45	648.33
371.65	648.33
371.84	578.11
372.04	730.25
372.24	706.84
372.44	648.33
372.63	781.74
372.83	695.14
373.03	697.48
373.22	763.01
373.42	758.33
373.62	798.12
373.81	798.12
374.01	770.04
374.21	770.04
374.40	772.38
374.60	877.70
374.79	849.61
374.99	858.98
375.19	880.04
375.38	936.21
375.58	854.30
375.78	802.80
375.97	837.91
376.17	940.90
376.37	844.93
376.56	807.48
376.76	809.83
376.95	901.11
377.15	999.41
377.35	882.38
377.54	835.57
377.74	851.96
377.93	889.40
378.13	837.91
378.33	983.02
378.52	903.45
378.72	959.62
378.91	959.62
379.11	936.21
379.31	919.83
379.50	912.81
379.70	936.21
379.89	964.30
380.09	964.30
380.28	1029.84
380.48	1053.24
380.68	945.58
380.87	980.68
381.07	976.00
381.26	1050.90
381.46	917.49
381.65	978.34
381.85	1071.97
382.04	1081.33
382.24	1100.05
382.43	1139.84
382.63	1020.47
382.83	1114.10
383.02	1060.26
383.22	1186.65
383.41	1104.73
383.61	1064.94
383.80	1090.69
384.00	1135.16
384.19	1102.39
384.39	1207.72
384.58	1053.24
384.78	1137.50
384.97	1181.97
385.17	1160.91
385.36	1231.12
385.56	1142.18
385.75	1214.74
385.95	1198.35
386.14	1132.82
386.34	1121.12
386.53	1259.21
386.72	1207.72
386.92	1289.64
387.11	1245.16
387.31	1233.46
387.50	1287.29
387.70	1306.02
387.89	1277.93
388.09	1231.12
388.28	1261.55
388.48	1303.68
388.67	1322.40
388.86	1320.06
389.06	1397.30
389.25	1306.02
389.45	1439.43
389.64	1376.24
389.84	1404.32
390.03	1416.02
390.22	1380.92
390.42	1315.38
390.61	1420.71
390.81	1329.42
391.00	1401.98
391.19	1502.62
391.39	1455.81
391.58	1444.11
391.78	1474.54
391.97	1434.75
392.16	1401.98
392.36	1549.43
392.55	1551.78
392.75	1612.63
392.94	1547.09
393.13	1598.59
393.33	1544.75
393.52	1547.09
393.71	1593.90
393.91	1509.65
394.10	1582.20
394.29	1696.89
394.49	1558.80
394.68	1533.05
394.88	1619.65
395.07	1713.27
395.26	1673.48
395.46	1614.97
395.65	1743.70
395.84	1790.51
396.04	1785.83
396.23	1827.96
396.42	1715.61
396.62	1788.17
396.81	1825.62
397.00	1717.95
397.19	1753.06
397.39	1891.15
397.58	1865.41
397.77	1886.47
397.97	1961.37
398.16	1886.47
398.35	1942.64
398.55	1867.75
398.74	1872.43
398.93	1949.67
399.12	1956.69
399.32	1975.41
399.51	1987.11
399.70	1963.71
399.90	1860.73
400.09	1998.82
400.28	2031.58
400.47	2005.84
400.67	2078.40
400.86	2115.84
401.05	2080.74
401.24	2132.23
401.44	2207.13
401.63	2169.68
401.82	2162.66
402.01	2197.76
402.21	2209.47
402.40	2165.00
402.59	2237.55
402.78	2218.83
402.97	2263.30
403.17	2277.34
403.36	2296.07
403.55	2370.96
403.74	2345.22
403.93	2389.69
404.13	2361.60
404.32	2462.24
404.51	2401.39
404.70	2429.48
404.89	2354.58
405.09	2480.97
405.28	2525.44
405.47	2558.21
405.66	2434.16
405.85	2480.97
406.05	2555.86
406.24	2520.76
406.43	2499.69
406.62	2647.15
406.81	2705.66
407.00	2586.29
407.20	2633.10
407.39	2743.11
407.58	2672.89
407.77	2750.13
407.96	2782.90
408.15	2815.66
408.34	2670.55
408.54	2726.72
408.73	2731.41
408.92	2813.32
409.11	2846.09
409.30	2906.95
409.49	2979.50
409.68	2988.86
409.87	3016.95
410.07	2972.48
410.26	3129.30
410.45	3030.99
410.64	3056.74
410.83	3098.87
411.02	3110.57
411.21	3307.18
411.40	3171.43
411.59	3288.45
411.78	3386.76
411.98	3363.35
412.17	3262.71
412.36	3403.14
412.55	3403.14
412.74	3414.84
412.93	3344.63
413.12	3428.88
413.31	3578.68
413.50	3536.55
413.69	3494.42
413.88	3686.34
414.07	3541.23
414.26	3651.24
414.45	3634.85
414.64	3606.77
414.83	3911.04
415.02	3845.50
415.22	3885.29
415.41	4077.21
415.60	3887.63
415.79	3962.53
415.98	4023.38
416.17	4018.70
416.36	4060.83
416.55	4149.77
416.74	4194.24
416.93	4194.24
417.12	4067.85
417.31	4248.07
417.50	4203.60
417.69	4320.63
417.88	4262.12
418.07	4236.37
418.26	4278.50
418.45	4400.21
418.64	4550.00
418.83	4362.76
419.02	4479.79
419.21	4601.49
419.39	4578.09
419.58	4557.02
419.77	4400.21
419.96	4533.62
420.15	4657.67
420.34	4638.94
420.53	4568.73
420.72	4748.95
420.91	4753.63
421.10	4830.87
421.29	4875.34
421.48	4744.27
421.67	4828.53
421.86	4788.74
422.05	4861.29
422.24	4950.23
422.43	4938.53
422.61	4880.02
422.80	4933.85
422.99	4947.89
423.18	5109.39
423.37	5053.22
423.56	5043.85
423.75	4959.60
423.94	4905.76
424.13	4819.16
424.32	4760.65
424.50	5004.07
424.69	5137.48
424.88	5057.90
425.07	5008.75
425.26	4943.21
425.45	4933.85
425.64	5116.41
425.83	5055.56
426.01	4954.91
426.20	5060.24
426.39	5034.49
426.58	5046.20
426.77	4961.94
426.96	5142.16
427.15	5104.71
427.33	5217.05
427.52	5158.54
427.71	5362.17
427.90	5357.49
428.09	5441.75
428.28	5334.08
428.46	5219.39
428.65	5277.91
428.84	5558.77
429.03	5530.69
429.22	5366.85
429.40	5565.79
429.59	5664.10
429.78	5359.83
429.97	5397.28
430.16	5413.66
430.34	5596.22
430.53	5858.36
430.72	5586.86
430.91	5671.12
431.10	5547.07
431.28	5851.34
431.47	5982.41
431.66	5872.40
431.85	5921.56
432.03	5996.45
432.22	6146.25
432.41	6036.24
432.60	5940.28
432.79	6153.27
432.97	6106.46
433.16	6207.10
433.35	5902.83
433.54	6153.27
433.72	6354.55
433.91	6235.19
434.10	6071.35
434.28	6129.86
434.47	6253.91
434.66	6324.13
434.85	6331.15
435.03	6502.01
435.22	6487.96
435.41	6427.11
435.59	6352.21
435.78	6586.27
435.97	6619.04
436.16	6464.56
436.34	6441.15
436.53	6436.47
436.72	6621.38
436.90	6579.25
437.09	6647.12
437.28	6448.18
437.46	6698.61
437.65	6745.42
437.84	6869.47
438.02	6700.95
438.21	6803.94
438.40	6899.90
438.58	6967.77
438.77	7005.22
438.96	7002.88
439.14	7042.67
439.33	7197.15
439.52	7337.58
439.70	7337.58
439.89	7517.80
440.08	7536.52
440.26	7424.18
440.45	7482.69
440.63	7564.61
440.82	7506.10
441.01	7480.35
441.19	7653.55
441.38	7723.77
441.57	7803.35
441.75	7850.16
441.94	8086.55
442.12	8093.57
442.31	8077.19
442.50	8121.66
442.68	8205.92
442.87	8173.15
443.05	8271.45
443.24	8231.66
443.43	8306.56
443.61	8163.79
443.80	8578.06
443.98	8100.59
444.17	8028.04
444.35	8425.93
444.54	8414.23
444.73	8507.85
444.91	8367.42
445.10	8477.42
445.28	8465.72
445.47	8264.43
445.65	8341.67
445.84	8400.18
446.02	8449.33
446.21	8575.72
446.39	8533.59
446.58	8652.96
446.77	8671.68
446.95	8587.43
447.14	8603.81
447.32	8629.56
447.51	8664.66
447.69	8688.07
447.88	8706.79
448.06	8723.18
448.25	8376.78
448.43	8681.05
448.62	8697.43
448.80	8788.71
448.99	8659.98
449.17	8709.13
449.36	8777.01
449.54	8936.17
449.73	8943.19
449.91	9233.41
450.10	9142.13
450.28	9301.29
450.46	9144.47
450.65	8968.93
450.83	9231.07
451.02	9076.60
451.20	9200.65
451.39	9263.84
451.57	9376.19
451.76	9160.86
451.94	9312.99
452.13	9598.54
452.31	9282.56
452.49	9221.71
452.68	9612.58
452.86	9631.30
453.05	9488.53
453.23	9612.58
453.42	9554.07
453.60	9495.55
453.78	9713.22
453.97	9584.49
454.15	9596.20
454.34	9685.14
454.52	9806.84
454.70	9797.48
454.89	9867.70
455.07	9724.93
455.26	9846.63
455.44	10047.92
455.62	10003.45
455.81	10150.90
455.99	10132.18
456.17	10169.63
456.36	10094.73
456.54	10361.55
456.73	10354.53
456.91	10544.11
457.09	10530.07
457.28	10516.03
457.46	10363.89
457.64	10473.90
457.83	10654.12
458.01	10658.80
458.19	10792.21
458.38	10675.18
458.56	10808.59
458.74	10822.64
458.93	10932.64
459.11	10902.22
459.29	10703.27
459.48	10869.45
459.66	10881.15
459.84	10899.87
460.03	11290.74
460.21	11267.34
460.39	11080.10
460.57	11049.67
460.76	11000.52
460.94	11169.04
461.12	11288.40
461.31	11180.74
461.49	11363.30
461.67	11463.94
461.85	11562.25
462.04	11571.61
462.22	11669.91
462.40	11662.89
462.59	11665.23
462.77	11602.04
462.95	11655.87
463.13	11538.84
463.32	11800.98
463.50	11826.73
463.68	11868.86
463.86	11894.60
464.05	11573.95
464.23	12091.21
464.41	11918.01
464.59	11747.15
464.78	12236.32
464.96	12126.32
465.14	12035.03
465.32	12184.83
465.50	12159.08
465.69	12273.77
465.87	12486.76
466.05	12297.17
466.23	12264.41
466.41	12308.88
466.60	12613.15
466.78	12367.39
466.96	12224.62
467.14	12468.03
467.32	12390.80
467.51	12908.05
467.69	12180.15
467.87	12760.60
468.05	12847.20
468.23	12568.68
468.41	12416.54
468.60	12840.18
468.78	13046.15
468.96	12767.62
469.14	12751.24
469.32	13125.72
469.50	13050.83
469.69	13055.51
469.87	13036.78
470.05	13301.26
470.23	13317.65
470.41	13369.14
470.59	13479.15
470.77	13350.42
470.95	13369.14
471.14	13853.63
471.32	13362.12
471.50	13624.26
471.68	13474.46
471.86	13736.60
472.04	13879.38
472.22	14232.80
472.40	13860.65
472.58	13947.25
472.77	14228.12
472.95	14129.81
473.13	14991.13
473.31	14389.61
473.49	14338.12
473.67	14380.25
473.85	14490.26
474.03	14745.38
474.21	14827.29
474.39	14780.48
474.57	14824.95
474.75	15405.41
474.93	15161.99
475.12	15070.71
475.30	15449.88
475.48	15293.06
475.66	15405.41
475.84	15569.24
476.02	15798.62
476.20	15358.60
476.38	15957.77
476.56	16243.32
476.74	15946.07
476.92	16060.76
477.10	16070.12
477.28	16308.85
477.46	16173.10
477.64	16414.18
477.82	16631.85
478.00	16823.77
478.18	16821.43
478.36	17032.08
478.54	17528.27
478.72	17462.74
478.90	17734.24
479.08	17928.50
479.26	17956.59
479.44	17514.23
479.62	18059.57
479.80	18029.15
479.98	18408.31
480.16	18532.36
480.34	18464.49
480.52	18984.09
480.70	18864.72
480.88	18665.77
481.06	19023.87
481.24	18850.67
481.41	19257.93
481.59	19957.75
481.77	19831.36
481.95	19681.56
482.13	19999.88
482.31	20208.19
482.49	20416.49
482.67	20198.82
482.85	20868.22
483.03	20922.05
483.21	21282.49
483.39	21099.93
483.57	21380.79
483.74	21202.91
483.92	21671.02
484.10	21668.68
484.28	21645.27
484.46	22469.14
484.64	22576.81
484.82	22410.63
485.00	22436.38
485.18	23152.58
485.35	23339.82
485.53	23260.24
485.71	23452.17
485.89	24013.90
486.07	23372.59
486.25	23728.35
486.43	24041.98
486.61	24315.83
486.78	24528.81
486.96	24432.85
487.14	24606.05
487.32	25137.35
487.50	25036.71
487.68	25324.60
487.85	25649.93
488.03	25872.28
488.21	26345.07
488.39	26192.94
488.57	26274.85
488.75	26586.15
488.92	26567.42
489.10	26988.72
489.28	27278.94
489.46	27494.27
489.64	27393.63
489.81	27964.72
489.99	28500.70
490.17	27920.25
490.35	28694.97
490.53	28596.67
490.70	28694.97
490.88	28788.59
491.06	29130.31
491.24	29472.03
491.41	29280.10
491.59	29502.45
491.77	29998.65
491.95	29930.77
492.13	30583.78
492.30	30373.13
492.48	30476.12
492.66	30433.99
492.84	30682.08
493.01	31246.15
493.19	30988.69
493.37	31653.40
493.54	31819.58
493.72	31990.44
493.90	32023.21
494.08	32308.76
494.25	32407.06
494.43	32294.71
494.61	32816.65
494.79	33043.68
494.96	32889.21
495.14	33228.59
495.32	33546.90
495.49	33706.05
495.67	33476.68
495.85	34099.26
496.02	34115.65
496.20	34478.43
496.38	34522.90
496.55	34387.15
496.73	35091.65
496.91	34892.71
497.09	35283.58
497.26	35526.99
497.44	35290.60
497.62	35735.30
497.79	36460.87
497.97	36067.66
498.14	36573.21
498.32	36884.50
498.50	36552.15
498.67	36926.63
498.85	36690.24
499.03	37324.52
499.20	36889.18
499.38	37209.84
499.56	37481.34
499.73	37670.92
499.91	37858.17
500.08	37968.17
500.26	37490.70
500.44	38117.96
500.61	38436.28
500.79	38185.84
500.97	38504.15
501.14	38998.01
501.32	39133.76
501.49	38916.09
501.67	39173.55
501.84	39456.75
502.02	39377.17
502.20	39585.48
502.37	39625.27
502.55	39667.40
502.72	39875.71
502.90	39672.08
503.07	40086.36
503.25	40179.98
503.43	39789.11
503.60	40809.58
503.78	40528.72
503.95	40765.11
504.13	41024.91
504.30	41095.13
504.48	40804.90
504.65	40926.61
504.83	41347.90
505.01	41757.50
505.18	41378.33
505.36	41670.90
505.53	41701.32
505.71	42543.92
505.88	42494.77
506.06	42050.06
506.23	42670.31
506.41	42160.07
506.58	42597.75
506.76	42693.71
506.93	42813.08
507.11	43131.39
507.28	43328.00
507.46	43398.21
507.63	43405.23
507.81	43700.14
507.98	43107.99
508.16	43487.15
508.33	43608.86
508.50	43889.73
508.68	44322.72
508.85	44465.50
509.03	44046.54
509.20	44531.03
509.38	44839.98
509.55	44994.46
509.73	45006.16
509.90	45162.98
510.08	45006.16
510.25	45052.97
510.42	45460.23
510.60	45357.24
510.77	45338.52
510.95	46005.57
511.12	45743.43
511.30	45799.60
511.47	45261.28
511.64	46178.77
511.82	46316.86
511.99	46050.04
512.17	46457.29
512.34	46223.24
512.51	46775.61
512.69	46483.04
512.86	46677.30
513.04	46679.64
513.21	47068.17
513.38	46897.31
513.56	47257.76
513.73	47037.75
513.90	47327.97
514.08	47428.62
514.25	47753.95
514.43	47779.70
514.60	47917.79
514.77	48067.58
514.95	48011.41
515.12	47826.51
515.29	47952.90
515.47	48610.59
515.64	48645.69
515.81	48421.00
515.99	48563.78
516.16	48856.34
516.33	48718.25
516.51	48889.11
516.68	49083.37
516.85	48809.53
517.03	49361.90
517.20	49200.40
517.37	49308.07
517.54	49336.15
517.72	49727.02
517.89	49911.92
518.06	49535.10
518.24	49748.09
518.41	49984.48
518.58	50017.25
518.75	49429.77
518.93	50057.04
519.10	49773.83
519.27	50258.32
519.45	50017.25
519.62	50611.74
519.79	50639.83
519.96	50340.24
520.14	50358.97
520.31	50298.11
520.48	51026.02
520.65	50710.05
520.83	50948.78
521.00	51082.19
521.17	50953.46
521.34	51030.70
521.52	51143.05
521.69	50960.48
521.86	51217.94
522.03	51402.85
522.20	51676.69
522.38	51435.61
522.55	51903.72
522.72	51758.61
522.89	51840.53
523.07	51793.71
523.24	51440.29
523.41	52172.88
523.58	51786.69
523.75	52495.88
523.92	52226.71
524.10	52523.96
524.27	52308.63
524.44	52472.47
524.61	52722.91
524.78	52577.79
524.96	52423.32
525.13	52594.18
525.30	52877.38
525.47	53073.99
525.64	52882.06
525.81	53324.43
525.98	53029.52
526.16	53272.93
526.33	53319.74
526.50	53336.13
526.67	53207.40
526.84	53214.42
527.01	53038.88
527.18	53549.12
527.36	53614.65
527.53	53455.50
527.70	53785.51
527.87	53661.46
528.04	53689.55
528.21	53399.32
528.38	53680.19
528.55	53961.05
528.72	53900.20
528.89	53804.24
529.07	53827.64
529.24	53951.69
529.41	53930.62
529.58	54384.69
529.75	54209.15
529.92	54422.14
530.09	54309.79
530.26	54447.88
530.43	54548.53
530.60	54457.24
530.77	54265.32
530.94	54731.09
531.11	54555.55
531.28	54639.81
531.46	54492.35
531.63	54712.36
531.80	54422.14
531.97	54988.55
532.14	54749.81
532.31	54951.10
532.48	55203.88
532.65	54976.84
532.82	54988.55
532.99	55248.35
533.16	55058.76
533.33	55007.27
533.50	55274.09
533.67	54967.48
533.84	55040.04
534.01	55409.84
534.18	55278.77
534.35	55702.41
534.52	55234.30
534.69	55648.58
534.86	55903.70
535.03	55363.03
535.20	55484.74
535.37	55458.99
535.54	55861.57
535.71	55601.77
535.88	55536.23
536.05	55915.40
536.22	56179.88
536.38	55732.84
536.55	55833.48
536.72	56006.68
536.89	55781.99
537.06	55922.42
537.23	56287.54
537.40	55842.84
537.57	56137.75
537.74	56006.68
537.91	56240.73
538.08	56245.41
538.25	56062.85
538.42	56402.23
538.59	56535.64
538.75	56264.14
538.92	56315.63
539.09	56650.33
539.26	56435.00
539.43	56552.02
539.60	56404.57
539.77	56512.23
539.94	56804.80
540.11	56868.00
540.28	56617.56
540.44	56790.76
540.61	56650.33
540.78	56734.59
540.95	56931.19
541.12	56619.90
541.29	56610.54
541.46	56800.12
541.62	56795.44
541.79	56891.40
541.96	56683.09
542.13	56755.65
542.30	57003.75
542.47	57137.16
542.63	57120.77
542.80	57235.46
542.97	57462.49
543.14	57532.71
543.31	57301.00
543.48	57455.47
543.64	57736.34
543.81	57701.23
543.98	57631.01
544.15	57633.35
544.32	57518.67
544.48	57935.28
544.65	57609.95
544.82	57895.49
544.99	57373.55
545.16	57759.74
545.32	57712.93
545.49	57844.00
545.66	57862.72
545.83	58064.01
546.00	58115.50
546.16	57944.64
546.33	57883.79
546.50	57876.77
546.67	58064.01
546.83	57780.81
547.00	58120.18
547.17	58019.54
547.34	58326.15
547.50	58272.32
547.67	58417.43
547.84	58181.04
548.00	58454.88
548.17	58464.24
548.34	58358.92
548.51	58731.06
548.67	58454.88
548.84	58543.82
549.01	58651.48
549.18	58562.54
549.34	58543.82
549.51	58452.54
549.68	58773.19
549.84	58695.95
550.01	58604.67
550.18	58670.21
550.34	58693.61
550.51	58834.05
550.68	58812.98
550.84	58609.35
551.01	59035.33
551.18	58817.66
551.34	58782.55
551.51	58974.48
551.68	58738.08
551.84	59002.56
552.01	58712.34
552.18	59032.99
552.34	59051.72
552.51	58997.88
552.68	58880.86
552.84	58864.47
553.01	59208.53
553.18	58993.20
553.34	59299.81
553.51	58974.48
553.67	59182.79
553.84	59267.05
554.01	59040.01
554.17	59189.81
554.34	59297.47
554.51	59468.33
554.67	59262.36
554.84	59269.39
555.00	59339.60
555.17	59248.32
555.33	59311.52
555.50	59117.25
555.67	59416.84
555.83	59358.33
556.00	59470.67
556.16	59622.81
556.33	59693.02
556.50	59613.44
556.66	59704.73
556.83	59407.48
556.99	59707.07
557.16	59917.71
557.32	59812.39
557.49	59973.89
557.65	59611.10
557.82	59554.93
557.98	59662.60
558.15	59529.19
558.32	59646.21
558.48	59599.40
558.65	59863.88
558.81	59800.69
558.98	59711.75
559.14	59854.52
559.31	59884.95
559.47	59924.74
559.64	59943.46
559.80	59999.63
559.97	59924.74
560.13	60025.38
560.30	59856.86
560.46	59891.97
560.63	60149.43
560.79	60065.17
560.96	60093.25
561.12	59992.61
561.29	60207.94
561.45	60175.17
561.61	59994.95
561.78	60231.35
561.94	60133.04
562.11	60236.03
562.27	60119.00
562.44	60341.35
562.60	60357.74
562.77	60306.24
562.93	59962.18
563.10	60449.02
563.26	60313.26
563.42	60413.91
563.59	60350.71
563.75	60289.86
563.92	60308.58
564.08	60147.09
564.24	60526.25
564.41	60514.55
564.57	60477.10
564.74	60509.87
564.90	60657.32
565.07	60275.82
565.23	60523.91
565.39	60381.14
565.56	60282.84
565.72	60147.09
565.88	60610.51
566.05	60317.95
566.21	60552.00
566.38	60413.91
566.54	60491.15
566.70	60512.21
566.87	60654.98
567.03	60474.76
567.19	60708.82
567.36	60512.21
567.52	60713.50
567.68	60739.24
567.85	60664.35
568.01	60715.84
568.17	60559.02
568.34	60870.31
568.50	60683.07
568.66	60521.57
568.83	60521.57
568.99	60530.93
569.15	60725.20
569.32	60683.07
569.48	60612.85
569.64	60736.90
569.81	60690.09
569.97	60860.95
570.13	60662.00
570.30	60640.94
570.46	60643.28
570.62	60828.18
570.78	61015.43
570.95	60750.94
571.11	60776.69
571.27	60734.56
571.43	60474.76
571.60	60940.53
571.76	60657.32
571.92	60910.10
572.09	60905.42
572.25	60898.40
572.41	60956.91
572.57	60987.34
572.74	61207.35
572.90	60797.76
573.06	60884.36
573.22	60865.63
573.38	60968.61
573.55	60914.78
573.71	61017.77
573.87	60938.19
574.03	60779.03
574.20	60893.72
574.36	60783.71
574.52	60982.66
574.68	61125.43
574.84	61024.79
575.01	60959.25
575.17	61041.17
575.33	61087.98
575.49	60898.40
575.65	61055.21
575.82	61085.64
575.98	60889.04
576.14	61352.46
576.30	61038.83
576.46	61001.38
576.62	60933.51
576.79	61057.56
576.95	61146.50
577.11	61038.83
577.27	61017.77
577.43	61080.96
577.59	61001.38
577.75	61064.58
577.92	60985.00
578.08	61127.77
578.24	61116.07
578.40	61116.07
578.56	61188.63
578.72	61183.94
578.88	61366.51
579.04	61462.47
579.21	61017.77
579.37	61249.48
579.53	61202.67
579.69	61043.51
579.85	61296.29
580.01	61186.28
580.17	61169.90
580.33	61216.71
580.49	61298.63
580.65	61193.31
580.82	61104.37
580.98	61024.79
581.14	61080.96
581.30	61286.93
581.46	61013.08
581.62	61427.36
581.78	61113.73
581.94	61092.66
582.10	61132.45
582.26	61127.77
582.42	61165.22
582.58	61235.44
582.74	61272.88
582.90	61169.90
583.06	61186.28
583.22	60931.17
583.38	61275.22
583.54	61403.95
583.70	61183.94
583.86	61343.10
584.02	61120.75
584.18	61144.16
584.34	61212.03
584.50	61207.35
584.66	61057.56
584.82	61165.22
584.98	61338.42
585.14	61207.35
585.30	61043.51
585.46	61193.31
585.62	61312.67
585.78	61389.91
585.94	61158.20
586.10	61186.28
586.26	61240.12
586.42	61298.63
586.58	61366.51
586.74	61284.59
586.90	61174.58
587.06	61174.58
587.22	61490.55
587.38	61172.24
587.54	61457.79
587.70	61443.74
587.86	61312.67
588.02	61434.38
588.18	61607.58
588.34	61371.19
