SpectraSuite Data File
++++++++++++++++++++++++++++++++++++
Date: Fri Oct 25 11:25:26 EDT 2013
User: price-jones
Dark Spectrum Present: No
Reference Spectrum Present: No
Number of Sampled Component Spectra: 1
Spectrometers: USB2+H05261
Integration Time (usec): 100000 (USB2+H05261)
Spectra Averaged: 1 (USB2+H05261)
Boxcar Smoothing: 0 (USB2+H05261)
Correct for Electrical Dark: No (USB2+H05261)
Strobe/Lamp Enabled: No (USB2+H05261)
Correct for Detector Non-linearity: No (USB2+H05261)
Correct for Stray Light: No (USB2+H05261)
Number of Pixels in Processed Spectrum: 2048
>>>>>Begin Processed Spectral Data<<<<<
365.73	142.77
365.92	142.77
366.12	142.77
366.32	147.45
366.52	154.48
366.72	154.48
366.91	117.03
367.11	173.20
367.31	25.75
367.51	140.43
367.70	147.45
367.90	140.43
368.10	112.35
368.30	126.39
368.49	105.32
368.69	163.84
368.89	234.05
369.09	124.05
369.28	152.13
369.48	154.48
369.68	189.58
369.87	168.52
370.07	208.31
370.27	245.76
370.47	341.72
370.66	592.16
370.86	613.22
371.06	641.31
371.25	657.69
371.45	655.35
371.65	634.29
371.84	704.50
372.04	664.71
372.24	774.72
372.44	657.69
372.63	772.38
372.83	704.50
373.03	648.33
373.22	753.65
373.42	638.97
373.62	786.42
373.81	805.14
374.01	812.17
374.21	784.08
374.40	791.10
374.60	880.04
374.79	816.85
374.99	753.65
375.19	798.12
375.38	891.74
375.58	781.74
375.78	784.08
375.97	830.89
376.17	884.72
376.37	805.14
376.56	868.34
376.76	912.81
376.95	873.02
377.15	866.00
377.35	877.70
377.54	809.83
377.74	849.61
377.93	919.83
378.13	933.87
378.33	875.36
378.52	884.72
378.72	985.37
378.91	1015.79
379.11	884.72
379.31	983.02
379.50	849.61
379.70	1081.33
379.89	959.62
380.09	856.64
380.28	1039.20
380.48	1046.22
380.68	1015.79
380.87	987.71
381.07	994.73
381.26	1020.47
381.46	987.71
381.65	1041.54
381.85	990.05
382.04	933.87
382.24	1036.86
382.43	1027.50
382.63	1011.11
382.83	1050.90
383.02	1041.54
383.22	1062.60
383.41	1006.43
383.61	1097.71
383.80	1149.20
384.00	1135.16
384.19	1153.88
384.39	1095.37
384.58	1083.67
384.78	1041.54
384.97	1083.67
385.17	1146.86
385.36	1207.72
385.56	1224.10
385.75	1102.39
385.95	1090.69
386.14	1142.18
386.34	1219.42
386.53	1249.85
386.72	1205.38
386.92	1219.42
387.11	1303.68
387.31	1210.06
387.50	1254.53
387.70	1231.12
387.89	1217.08
388.09	1181.97
388.28	1315.38
388.48	1299.00
388.67	1329.42
388.86	1221.76
389.06	1284.95
389.25	1294.32
389.45	1411.34
389.64	1378.58
389.84	1310.70
390.03	1343.47
390.22	1345.81
390.42	1299.00
390.61	1397.30
390.81	1423.05
391.00	1390.28
391.19	1444.11
391.39	1366.87
391.58	1364.53
391.78	1474.54
391.97	1455.81
392.16	1462.83
392.36	1570.50
392.55	1584.54
392.75	1533.05
392.94	1530.71
393.13	1497.94
393.33	1460.49
393.52	1474.54
393.71	1514.33
393.91	1591.56
394.10	1500.28
394.29	1614.97
394.49	1572.84
394.68	1591.56
394.88	1682.85
395.07	1579.86
395.26	1678.16
395.46	1636.03
395.65	1706.25
395.84	1732.00
396.04	1799.87
396.23	1774.13
396.42	1668.80
396.62	1643.06
396.81	1846.68
397.00	1760.08
397.19	1900.52
397.39	1706.25
397.58	1755.40
397.77	1827.96
397.97	1816.26
398.16	1771.79
398.35	1858.39
398.55	1764.76
398.74	1877.11
398.93	1940.30
399.12	1886.47
399.32	1928.60
399.51	2069.03
399.70	1980.09
399.90	1891.15
400.09	2047.97
400.28	1989.46
400.47	2047.97
400.67	1977.75
400.86	2094.78
401.05	2094.78
401.24	2108.82
401.44	2155.63
401.63	2099.46
401.82	2101.80
402.01	2237.55
402.21	2125.21
402.40	2165.00
402.59	2193.08
402.78	2064.35
402.97	2148.61
403.17	2134.57
403.36	2207.13
403.55	2296.07
403.74	2349.90
403.93	2291.38
404.13	2310.11
404.32	2324.15
404.51	2338.20
404.70	2345.22
404.89	2333.51
405.09	2469.27
405.28	2422.45
405.47	2516.08
405.66	2431.82
405.85	2504.37
406.05	2532.46
406.24	2448.20
406.43	2490.33
406.62	2530.12
406.81	2686.94
407.00	2483.31
407.20	2541.82
407.39	2670.55
407.58	2717.36
407.77	2612.04
407.96	2733.75
408.15	2726.72
408.34	2747.79
408.54	2679.91
408.73	2726.72
408.92	2796.94
409.11	2813.32
409.30	2916.31
409.49	2904.60
409.68	2869.50
409.87	2923.33
410.07	2904.60
410.26	2864.82
410.45	2918.65
410.64	3028.65
410.83	2981.84
411.02	2944.39
411.21	3180.79
411.40	3145.68
411.59	3124.62
411.78	3232.28
411.98	3126.96
412.17	3265.05
412.36	3255.69
412.55	3398.46
412.74	3445.27
412.93	3288.45
413.12	3304.84
413.31	3548.25
413.50	3487.40
413.69	3435.91
413.88	3571.66
414.07	3538.89
414.26	3534.21
414.45	3639.53
414.64	3665.28
414.83	3693.37
415.02	3805.71
415.22	3885.29
415.41	3831.46
415.60	3826.78
415.79	3915.72
415.98	4009.34
416.17	3957.85
416.36	3925.08
416.55	4018.70
416.74	4067.85
416.93	3988.27
417.12	4114.66
417.31	4184.88
417.50	4231.69
417.69	4287.86
417.88	4248.07
418.07	4219.99
418.26	4325.31
418.45	4283.18
418.64	4383.82
418.83	4505.53
419.02	4360.42
419.21	4386.16
419.39	4440.00
419.58	4397.87
419.77	4472.76
419.96	4550.00
420.15	4540.64
420.34	4531.28
420.53	4617.88
420.72	4561.70
420.91	4580.43
421.10	4755.97
421.29	4744.27
421.48	4734.90
421.67	4753.63
421.86	4615.54
422.05	4734.90
422.24	4681.07
422.43	4645.96
422.61	4952.57
422.80	4812.14
422.99	4877.68
423.18	4709.16
423.37	4973.64
423.56	4905.76
423.75	4950.23
423.94	4770.01
424.13	4505.53
424.32	4751.29
424.50	4891.72
424.69	4987.68
424.88	4933.85
425.07	4943.21
425.26	4875.34
425.45	4868.31
425.64	4987.68
425.83	4990.02
426.01	5090.67
426.20	5004.07
426.39	5022.79
426.58	4753.63
426.77	5013.43
426.96	5067.26
427.15	4997.04
427.33	5188.97
427.52	5118.75
427.71	5193.65
427.90	5270.89
428.09	5231.10
428.28	5153.86
428.46	5406.64
428.65	5277.91
428.84	5315.36
429.03	5355.15
429.22	5224.08
429.40	5235.78
429.59	5511.96
429.78	5369.19
429.97	5383.23
430.16	5362.17
430.34	5614.95
430.53	5518.98
430.72	5490.90
430.91	5451.11
431.10	5547.07
431.28	5776.44
431.47	5605.58
431.66	5640.69
431.85	5764.74
432.03	5884.11
432.22	5959.00
432.41	5830.27
432.60	5905.17
432.79	5975.39
432.97	5844.32
433.16	5989.43
433.35	5987.09
433.54	6078.37
433.72	5839.64
433.91	6097.10
434.10	6005.81
434.28	6073.69
434.47	5902.83
434.66	6143.91
434.85	6228.17
435.03	6069.01
435.22	6232.85
435.41	6321.79
435.59	6457.54
435.78	6340.51
435.97	6349.87
436.16	6174.33
436.34	6422.43
436.53	6424.77
436.72	6595.63
436.90	6331.15
437.09	6574.56
437.28	6586.27
437.46	6459.88
437.65	6558.18
437.84	6532.44
438.02	6525.41
438.21	6750.10
438.40	6502.01
438.58	6930.33
438.77	7005.22
438.96	6991.18
439.14	6967.77
439.33	7033.31
439.52	7084.80
439.70	7143.32
439.89	7155.02
440.08	7136.29
440.26	7321.20
440.45	7302.47
440.63	7321.20
440.82	7683.98
441.01	7407.80
441.19	7431.20
441.38	7630.15
441.57	7492.05
441.75	7892.29
441.94	7801.01
442.12	7648.87
442.31	7847.82
442.50	7801.01
442.68	7941.44
442.87	7880.58
443.05	7899.31
443.24	8149.75
443.43	7903.99
443.61	8098.25
443.80	8313.58
443.98	7882.92
444.17	7822.07
444.35	7995.27
444.54	8149.75
444.73	8320.60
444.91	8297.20
445.10	8369.76
445.28	8222.30
445.47	8311.24
445.65	8341.67
445.84	8241.03
446.02	8547.64
446.21	8133.36
446.39	8257.41
446.58	8442.31
446.77	8496.14
446.95	8112.30
447.14	8320.60
447.32	8393.16
447.51	8383.80
447.69	8461.04
447.88	8456.36
448.06	8411.89
448.25	8409.54
448.43	8442.31
448.62	8456.36
448.80	8458.70
448.99	8599.13
449.17	8535.93
449.36	8720.84
449.54	8641.26
449.73	8702.11
449.91	8931.48
450.10	8917.44
450.28	8840.20
450.46	9006.38
450.65	9067.24
450.83	9238.09
451.02	8980.64
451.20	9090.64
451.39	9064.89
451.57	9109.36
451.76	8844.88
451.94	9160.86
452.13	9247.46
452.31	9240.44
452.49	9212.35
452.68	9186.60
452.86	9455.76
453.05	9228.73
453.23	9397.25
453.42	9170.22
453.60	9207.67
453.78	9551.73
453.97	9224.05
454.15	9474.49
454.34	9427.68
454.52	9624.28
454.70	9511.94
454.89	9666.41
455.07	9738.97
455.26	9809.19
455.44	9973.02
455.62	9743.65
455.81	9671.09
455.99	9778.76
456.17	10118.14
456.36	9848.97
456.54	9980.04
456.73	9968.34
456.91	10438.79
457.09	10450.49
457.28	10300.70
457.46	10202.40
457.64	10452.83
457.83	10455.17
458.01	10218.78
458.19	10520.71
458.38	10537.09
458.56	10782.85
458.74	10609.65
458.93	10567.52
459.11	10658.80
459.29	10520.71
459.48	10595.61
459.66	10607.31
459.84	10714.97
460.03	10904.56
460.21	10855.40
460.39	10796.89
460.57	10981.79
460.76	10918.60
460.94	10958.39
461.12	11056.69
461.31	10939.66
461.49	10986.47
461.67	10949.03
461.85	11005.20
462.04	11044.99
462.22	11758.85
462.40	11342.24
462.59	11192.44
462.77	11269.68
462.95	11566.93
463.13	11405.43
463.32	11611.40
463.50	11768.21
463.68	11552.88
463.86	11665.23
464.05	11463.94
464.23	11531.82
464.41	11470.97
464.59	11653.53
464.78	12081.85
464.96	11913.33
465.14	11592.67
465.32	11768.21
465.50	11690.98
465.69	12290.15
465.87	12198.87
466.05	12105.25
466.23	12198.87
466.41	12203.55
466.60	12238.66
466.78	11981.20
466.96	11964.82
467.14	12159.08
467.32	12304.20
467.51	12491.44
467.69	12219.94
467.87	12210.57
468.05	12571.02
468.23	12416.54
468.41	12383.77
468.60	12446.97
468.78	12688.04
468.96	12545.27
469.14	12858.90
469.32	12915.08
469.50	12535.91
469.69	12725.49
469.87	12987.63
470.05	12844.86
470.23	13053.17
470.41	12762.94
470.59	13376.16
470.77	13221.69
470.95	13249.77
471.14	13123.38
471.32	12917.42
471.50	13598.51
471.68	13432.33
471.86	13537.66
472.04	13621.92
472.22	13771.71
472.40	13497.87
472.58	13778.73
472.77	13760.01
472.95	13715.54
473.13	14326.42
473.31	13947.25
473.49	14190.67
473.67	13961.30
473.85	14406.00
474.03	14300.67
474.21	14523.02
474.39	14516.00
474.57	14441.11
474.75	14736.01
474.93	14956.02
475.12	14698.56
475.30	14860.06
475.48	14941.98
475.66	15082.41
475.84	14824.95
476.02	15035.60
476.20	15524.77
476.38	15658.18
476.56	15840.75
476.74	15985.86
476.92	15861.81
477.10	15489.67
477.28	16009.26
477.46	15995.22
477.64	16280.77
477.82	16121.61
478.00	16650.57
478.18	16629.51
478.36	16788.66
478.54	16893.99
478.72	17008.67
478.90	17221.66
479.08	17036.76
479.26	17331.67
479.44	17486.14
479.62	17537.63
479.80	17937.87
479.98	18047.87
480.16	18235.11
480.34	17923.82
480.52	18167.24
480.70	18562.79
480.88	17989.36
481.06	18380.23
481.24	18724.29
481.41	19044.94
481.59	19143.24
481.77	19103.45
481.95	19257.93
482.13	19665.18
482.31	19288.35
482.49	20238.61
482.67	19634.75
482.85	20072.43
483.03	20531.18
483.21	20634.16
483.39	20704.38
483.57	20475.01
483.74	20683.31
483.92	21053.12
484.10	21284.83
484.28	21490.80
484.46	21755.28
484.64	21802.09
484.82	21858.26
485.00	21937.84
485.18	22099.34
485.35	22471.48
485.53	22487.87
485.71	22490.21
485.89	23257.90
486.07	23332.80
486.25	22803.84
486.43	23283.65
486.61	23307.05
486.78	23756.44
486.96	23777.50
487.14	24128.58
487.32	24673.93
487.50	24812.02
487.68	24453.92
487.85	24985.22
488.03	25570.35
488.21	25575.03
488.39	25481.41
488.57	26038.46
488.75	25788.02
488.92	26228.04
489.10	26225.70
489.28	26326.35
489.46	26785.09
489.64	26733.60
489.81	27124.47
489.99	27623.00
490.17	27082.34
490.35	27833.65
490.53	27903.87
490.70	28259.63
490.88	28212.82
491.06	28519.43
491.24	28699.65
491.41	28947.75
491.59	28954.77
491.77	28952.43
491.95	29181.80
492.13	29291.80
492.30	29326.91
492.48	29687.36
492.66	30127.38
492.84	30195.25
493.01	30288.87
493.19	30017.37
493.37	30707.83
493.54	30899.75
493.72	31204.02
493.90	31037.84
494.08	31426.37
494.25	31770.43
494.43	31597.23
494.61	31985.76
494.79	31878.10
494.96	31885.12
495.14	32634.09
495.32	32559.19
495.49	32790.91
495.67	32526.42
495.85	33041.34
496.02	33170.07
496.20	33694.35
496.38	33415.83
496.55	33923.72
496.73	34740.57
496.91	34129.69
497.09	34480.77
497.26	34656.31
497.44	34522.90
497.62	34536.94
497.79	35126.76
497.97	35241.45
498.14	35702.53
498.32	35730.62
498.50	35459.12
498.67	36018.50
498.85	36708.96
499.03	36442.14
499.20	35903.82
499.38	36402.35
499.56	36187.02
499.73	36758.11
499.91	36868.12
500.08	37390.06
500.26	36346.18
500.44	37230.90
500.61	37464.96
500.79	37748.16
500.97	37530.49
501.14	38038.39
501.32	38124.99
501.49	37799.65
501.67	38625.86
501.84	38604.80
502.02	38656.29
502.20	39007.37
502.37	38707.78
502.55	39007.37
502.72	39021.41
502.90	38883.32
503.07	39346.75
503.25	39402.92
503.43	39138.44
503.60	39693.15
503.78	39606.55
503.95	39636.97
504.13	40346.15
504.30	40062.95
504.48	40121.46
504.65	40507.65
504.83	40629.36
505.01	41001.50
505.18	40945.33
505.36	41270.67
505.53	40882.14
505.71	40652.76
505.88	41277.69
506.06	41191.09
506.23	41755.16
506.41	41598.34
506.58	41387.69
506.76	41954.10
506.93	41867.50
507.11	41715.37
507.28	42628.18
507.46	42176.45
507.63	42532.22
507.81	42752.23
507.98	42504.13
508.16	42454.98
508.33	42885.64
508.50	43377.15
508.68	42705.41
508.85	43587.80
509.03	42967.55
509.20	43648.65
509.38	43793.76
509.55	43800.79
509.73	44236.12
509.90	43906.11
510.08	44540.39
510.25	44257.19
510.42	44720.62
510.60	44690.19
510.77	44648.06
510.95	44762.75
511.12	44893.82
511.30	44964.03
511.47	45436.82
511.64	44900.84
511.82	45497.67
511.99	45125.53
512.17	45139.57
512.34	45364.26
512.51	45785.56
512.69	46410.48
512.86	45713.00
513.04	46153.02
513.21	46323.88
513.38	46101.53
513.56	46415.16
513.73	45977.48
513.90	46501.76
514.08	46555.60
514.25	46820.08
514.43	46967.53
514.60	46841.14
514.77	47093.92
514.95	47522.24
515.12	46782.63
515.29	47426.28
515.47	47562.03
515.64	47531.60
515.81	47695.44
515.99	48009.07
516.16	48083.97
516.33	47791.40
516.51	48025.45
516.68	47859.27
516.85	47983.32
517.03	48090.99
517.20	48432.71
517.37	48243.12
517.54	48584.84
517.72	48779.10
517.89	49102.10
518.06	48779.10
518.24	48727.61
518.41	48940.60
518.58	49181.68
518.75	48725.27
518.93	49319.77
519.10	48959.33
519.27	49137.21
519.45	49324.45
519.62	49380.62
519.79	49413.39
519.96	49612.34
520.14	49752.77
520.31	49773.83
520.48	49675.53
520.65	50021.93
520.83	50040.65
521.00	50155.34
521.17	50246.62
521.34	50457.27
521.52	50080.44
521.69	50347.26
521.86	50129.59
522.03	51220.28
522.20	51033.04
522.38	50894.95
522.55	50916.01
522.72	51309.22
522.89	51168.79
523.07	51533.92
523.24	51208.58
523.41	51243.69
523.58	50955.80
523.75	51639.24
523.92	51585.41
524.10	51725.84
524.27	51662.64
524.44	51601.79
524.61	51791.37
524.78	51735.20
524.96	51700.09
525.13	51695.41
525.30	52006.70
525.47	52154.16
525.64	51803.08
525.81	52210.33
525.98	52626.95
526.16	51973.94
526.33	52559.07
526.50	52720.57
526.67	52222.03
526.84	52392.89
527.01	52645.67
527.18	52406.94
527.36	52643.33
527.53	52451.41
527.70	52886.74
527.87	52844.62
528.04	52872.70
528.21	53029.52
528.38	53191.01
528.55	53200.38
528.72	52971.00
528.89	53034.20
529.07	53109.10
529.24	53010.79
529.41	53183.99
529.58	53296.34
529.75	53602.95
529.92	53558.48
530.09	53846.36
530.26	54038.29
530.43	53771.47
530.60	53504.65
530.77	53537.41
530.94	53778.49
531.11	53556.14
531.28	53925.94
531.46	53909.56
531.63	54033.61
531.80	54190.42
531.97	54262.98
532.14	54143.61
532.31	54073.40
532.48	54265.32
532.65	54258.30
532.82	54387.03
532.99	54351.92
533.16	54148.29
533.33	54468.95
533.50	54656.19
533.67	54436.18
533.84	54246.60
534.01	54733.43
534.18	54550.87
534.35	54960.46
534.52	54953.44
534.69	54997.91
534.86	54855.14
535.03	54569.59
535.20	54911.31
535.37	55070.46
535.54	54871.52
535.71	54871.52
535.88	55126.64
536.05	55112.59
536.22	55271.75
536.38	55447.29
536.55	55234.30
536.72	55136.00
536.89	54944.08
537.06	55187.49
537.23	55360.69
537.40	55203.88
537.57	55456.65
537.74	55426.23
537.91	55557.30
538.08	55466.02
538.25	55257.71
538.42	55590.06
538.59	55840.50
538.75	55456.65
538.92	55798.37
539.09	56086.26
539.26	55650.92
539.43	55810.07
539.60	55889.65
539.77	55943.48
539.94	56016.04
540.11	56186.90
540.28	56100.30
540.44	56121.37
540.61	56301.59
540.78	55973.91
540.95	56102.64
541.12	56170.52
541.29	56163.50
541.46	56182.22
541.62	56200.94
541.79	56324.99
541.96	56165.84
542.13	56357.76
542.30	56128.39
542.47	56568.41
542.63	56781.40
542.80	56568.41
542.97	56961.62
543.14	56903.10
543.31	57029.49
543.48	56900.76
543.64	57092.69
543.81	57202.69
543.98	56893.74
544.15	56980.34
544.32	57064.60
544.48	57385.25
544.65	57158.22
544.82	57308.02
544.99	57113.75
545.16	57310.36
545.32	57326.74
545.49	57570.16
545.66	57443.77
545.83	57265.89
546.00	57593.56
546.16	57490.58
546.33	57188.65
546.50	57282.27
546.67	57481.22
546.83	57202.69
547.00	57464.83
547.17	57504.62
547.34	57303.34
547.50	57602.92
547.67	57743.36
547.84	57623.99
548.00	57539.73
548.17	58028.90
548.34	57689.52
548.51	57851.02
548.67	57958.69
548.84	57904.85
549.01	57872.09
549.18	57998.48
549.34	57902.51
549.51	58005.50
549.68	58064.01
549.84	58291.04
550.01	58253.59
550.18	57989.11
550.34	58080.39
550.51	58031.24
550.68	58129.54
550.84	58171.67
551.01	58230.19
551.18	58197.42
551.34	58260.62
551.51	58277.00
551.68	58206.78
551.84	58351.90
552.01	58253.59
552.18	58356.58
552.34	58211.46
552.51	58511.05
552.68	58206.78
552.84	58300.40
553.01	58927.67
553.18	58625.74
553.34	58728.72
553.51	58438.50
553.67	58546.16
553.84	58735.74
554.01	58726.38
554.17	58808.30
554.34	58635.10
554.51	58719.36
554.67	58646.80
554.84	58632.76
555.00	58848.09
555.17	59023.63
555.33	58841.07
555.50	58691.27
555.67	58604.67
555.83	58763.83
556.00	58922.99
556.16	59166.40
556.33	58969.80
556.50	58822.34
556.66	59089.16
556.83	58525.10
556.99	59171.08
557.16	59260.02
557.32	59292.79
557.49	59199.17
557.65	59007.25
557.82	59269.39
557.98	59004.91
558.15	59290.45
558.32	59346.62
558.48	59016.61
558.65	59379.39
558.81	59107.89
558.98	59206.19
559.14	59255.34
559.31	59515.14
559.47	59480.03
559.64	59405.14
559.80	59334.92
559.97	59550.25
560.13	59313.86
560.30	59454.29
560.46	59468.33
560.63	59571.32
560.79	59533.87
560.96	59709.41
561.12	59379.39
561.29	59461.31
561.45	59468.33
561.61	59683.66
561.78	59735.15
561.94	59531.53
562.11	59718.77
562.27	59718.77
562.44	59629.83
562.60	59702.38
562.77	59618.13
562.93	59325.56
563.10	59906.01
563.26	59515.14
563.42	59957.50
563.59	59894.31
563.75	59505.78
563.92	59840.48
564.08	59711.75
564.24	59735.15
564.41	59742.17
564.57	59866.22
564.74	60037.08
564.90	60044.10
565.07	59877.93
565.23	59929.42
565.39	59980.91
565.56	59819.41
565.72	59915.37
565.88	59774.94
566.05	59966.87
566.21	59870.90
566.38	59924.74
566.54	59966.87
566.70	60090.91
566.87	60149.43
567.03	59882.61
567.19	60100.28
567.36	60121.34
567.52	60034.74
567.68	60212.62
567.85	60058.15
568.01	60374.12
568.17	59997.29
568.34	60107.30
568.50	60111.98
568.66	60102.62
568.83	60067.51
568.99	60088.57
569.15	60086.23
569.32	60116.66
569.48	60027.72
569.64	60306.24
569.81	60360.08
569.97	60048.78
570.13	60357.74
570.30	60037.08
570.46	60418.59
570.62	60385.82
570.78	60285.18
570.95	60303.90
571.11	60474.76
571.27	60186.88
571.43	60413.91
571.60	60484.12
571.76	60317.95
571.92	60540.30
572.09	60214.96
572.25	60350.71
572.41	60245.39
572.57	60425.61
572.74	60530.93
572.90	60289.86
573.06	60376.46
573.22	60390.50
573.38	60313.26
573.55	60388.16
573.71	60615.19
573.87	60495.83
574.03	60278.16
574.20	60559.02
574.36	60444.33
574.52	60360.08
574.68	60446.68
574.84	60629.24
575.01	60423.27
575.17	60664.35
575.33	60371.78
575.49	60261.77
575.65	60374.12
575.82	60467.74
575.98	60463.06
576.14	60704.13
576.30	60612.85
576.46	60673.71
576.62	60573.06
576.79	60535.62
576.95	60537.96
577.11	60465.40
577.27	60659.66
577.43	60477.10
577.59	60507.53
577.75	60341.35
577.92	60491.15
578.08	60423.27
578.24	60594.13
578.40	60774.35
578.56	60669.03
578.72	60477.10
578.88	60889.04
579.04	60870.31
579.21	60622.22
579.37	60804.78
579.53	60652.64
579.69	60446.68
579.85	60437.31
580.01	60547.32
580.17	60568.38
580.33	60563.70
580.49	60786.05
580.65	60772.01
580.82	60739.24
580.98	60420.93
581.14	60594.13
581.30	60872.65
581.46	60720.52
581.62	60638.60
581.78	60533.28
581.94	60699.45
582.10	60720.52
582.26	60582.43
582.42	60638.60
582.58	60753.29
582.74	60692.43
582.90	60575.40
583.06	60903.08
583.22	60608.17
583.38	60743.92
583.54	60570.72
583.70	60849.25
583.86	60736.90
584.02	60638.60
584.18	60781.37
584.34	60860.95
584.50	60624.56
584.66	60774.35
584.82	60308.58
584.98	60949.89
585.14	60736.90
585.30	60729.88
585.46	60828.18
585.62	60961.59
585.78	60985.00
585.94	60582.43
586.10	60825.84
586.26	60774.35
586.42	60860.95
586.58	60809.46
586.74	60732.22
586.90	60734.56
587.06	60935.85
587.22	61038.83
587.38	60694.77
587.54	60858.61
587.70	61003.72
587.86	60748.60
588.02	60776.69
588.18	61027.13
588.34	60750.94
588.49	60821.16
