SpectraSuite Data File
++++++++++++++++++++++++++++++++++++
Date: Fri Oct 25 10:47:27 EDT 2013
User: price-jones
Dark Spectrum Present: No
Reference Spectrum Present: No
Number of Sampled Component Spectra: 1
Spectrometers: USB2+H05261
Integration Time (usec): 100000 (USB2+H05261)
Spectra Averaged: 1 (USB2+H05261)
Boxcar Smoothing: 0 (USB2+H05261)
Correct for Electrical Dark: No (USB2+H05261)
Strobe/Lamp Enabled: No (USB2+H05261)
Correct for Detector Non-linearity: No (USB2+H05261)
Correct for Stray Light: No (USB2+H05261)
Number of Pixels in Processed Spectrum: 2048
>>>>>Begin Processed Spectral Data<<<<<
365.73	168.52
365.92	168.52
366.12	168.52
366.32	39.79
366.52	46.81
366.72	91.28
366.91	86.60
367.11	0.00
367.31	65.54
367.51	65.54
367.70	0.00
367.90	86.60
368.10	58.51
368.30	60.85
368.49	86.60
368.69	44.47
368.89	25.75
369.09	25.75
369.28	91.28
369.48	37.45
369.68	110.01
369.87	49.15
370.07	145.11
370.27	168.52
370.47	241.08
370.66	374.49
370.86	423.64
371.06	475.13
371.25	535.98
371.45	456.40
371.65	496.19
371.84	381.51
372.04	456.40
372.24	491.51
372.44	444.70
372.63	477.47
372.83	505.56
373.03	521.94
373.22	416.62
373.42	538.32
373.62	543.00
373.81	566.41
374.01	519.60
374.21	475.13
374.40	498.53
374.60	526.62
374.79	521.94
374.99	458.74
375.19	575.77
375.38	517.26
375.58	554.71
375.78	594.50
375.97	594.50
376.17	599.18
376.37	629.60
376.56	599.18
376.76	550.03
376.95	528.96
377.15	533.64
377.35	580.45
377.54	589.82
377.74	636.63
377.93	528.96
378.13	587.47
378.33	669.39
378.52	603.86
378.72	599.18
378.91	580.45
379.11	564.07
379.31	631.94
379.50	627.26
379.70	688.12
379.89	678.76
380.09	662.37
380.28	622.58
380.48	676.41
380.68	650.67
380.87	547.69
381.07	629.60
381.26	681.10
381.46	547.69
381.65	636.63
381.85	716.20
382.04	648.33
382.24	638.97
382.43	653.01
382.63	589.82
382.83	678.76
383.02	704.50
383.22	709.18
383.41	676.41
383.61	795.78
383.80	805.14
384.00	734.93
384.19	741.95
384.39	765.36
384.58	737.27
384.78	748.97
384.97	763.01
385.17	744.29
385.36	763.01
385.56	718.54
385.75	734.93
385.95	774.72
386.14	819.19
386.34	821.53
386.53	751.31
386.72	765.36
386.92	709.18
387.11	795.78
387.31	812.17
387.50	814.51
387.70	800.46
387.89	842.59
388.09	777.06
388.28	870.68
388.48	858.98
388.67	919.83
388.86	882.38
389.06	788.76
389.25	880.04
389.45	922.17
389.64	915.15
389.84	866.00
390.03	898.77
390.22	959.62
390.42	903.45
390.61	936.21
390.81	870.68
391.00	931.53
391.19	1032.18
391.39	868.34
391.58	880.04
391.78	994.73
391.97	994.73
392.16	910.47
392.36	1015.79
392.55	978.34
392.75	1015.79
392.94	987.71
393.13	882.38
393.33	931.53
393.52	978.34
393.71	1104.73
393.91	1048.56
394.10	1004.09
394.29	1071.97
394.49	1043.88
394.68	1118.78
394.88	1142.18
395.07	1125.80
395.26	1071.97
395.46	1020.47
395.65	1163.25
395.84	1123.46
396.04	1139.84
396.23	1165.59
396.42	1137.50
396.62	1114.10
396.81	1144.52
397.00	1214.74
397.19	1135.16
397.39	1149.20
397.58	1210.06
397.77	1174.95
397.97	1212.40
398.16	1167.93
398.35	1324.74
398.55	1345.81
398.74	1275.59
398.93	1359.85
399.12	1203.04
399.32	1296.66
399.51	1245.16
399.70	1289.64
399.90	1394.96
400.09	1362.19
400.28	1338.79
400.47	1392.62
400.67	1387.94
400.86	1434.75
401.05	1418.36
401.24	1343.47
401.44	1561.14
401.63	1458.15
401.82	1533.05
402.01	1453.47
402.21	1413.68
402.40	1540.07
402.59	1509.65
402.78	1570.50
402.97	1589.22
403.17	1551.78
403.36	1554.12
403.55	1593.90
403.74	1547.09
403.93	1596.25
404.13	1519.01
404.32	1724.97
404.51	1636.03
404.70	1577.52
404.89	1668.80
405.09	1680.50
405.28	1624.33
405.47	1722.63
405.66	1717.95
405.85	1792.85
406.05	1799.87
406.24	1806.89
406.43	1872.43
406.62	1839.66
406.81	1809.23
407.00	1849.02
407.20	1776.47
407.39	1689.87
407.58	1881.79
407.77	1947.33
407.96	1930.94
408.15	1994.14
408.34	1856.04
408.54	1856.04
408.73	2031.58
408.92	1895.83
409.11	1968.39
409.30	2097.12
409.49	2038.61
409.68	2115.84
409.87	2026.90
410.07	2155.63
410.26	2076.06
410.45	2122.87
410.64	2019.88
410.83	2108.82
411.02	2214.15
411.21	2324.15
411.40	2214.15
411.59	2326.49
411.78	2324.15
411.98	2331.17
412.17	2286.70
412.36	2328.83
412.55	2310.11
412.74	2445.86
412.93	2408.41
413.12	2338.20
413.31	2509.05
413.50	2574.59
413.69	2438.84
413.88	2544.16
414.07	2424.80
414.26	2553.52
414.45	2597.99
414.64	2579.27
414.83	2562.89
415.02	2668.21
415.22	2710.34
415.41	2700.98
415.60	2590.97
415.79	2761.83
415.98	2857.79
416.17	2864.82
416.36	2799.28
416.55	2827.37
416.74	2813.32
416.93	2768.85
417.12	2850.77
417.31	2810.98
417.50	3094.19
417.69	2979.50
417.88	3204.19
418.07	3000.57
418.26	3061.42
418.45	3112.91
418.64	3258.03
418.83	3040.36
419.02	3243.98
419.21	3157.38
419.39	3141.00
419.58	3183.13
419.77	3124.62
419.96	3178.45
420.15	3363.35
420.34	3290.79
420.53	3279.09
420.72	3274.41
420.91	3487.40
421.10	3372.71
421.29	3311.86
421.48	3438.25
421.67	3412.50
421.86	3332.92
422.05	3353.99
422.24	3328.24
422.43	3456.97
422.61	3396.12
422.80	3438.25
422.99	3412.50
423.18	3508.46
423.37	3672.30
423.56	3496.76
423.75	3562.30
423.94	3506.12
424.13	3456.97
424.32	3473.36
424.50	3524.85
424.69	3564.64
424.88	3588.04
425.07	3447.61
425.26	3353.99
425.45	3337.60
425.64	3602.08
425.83	3522.51
426.01	3569.32
426.20	3529.53
426.39	3492.08
426.58	3412.50
426.77	3440.59
426.96	3641.87
427.15	3564.64
427.33	3688.68
427.52	3571.66
427.71	3641.87
427.90	3548.25
428.09	3840.82
428.28	3655.92
428.46	3716.77
428.65	3583.36
428.84	3782.31
429.03	3819.75
429.22	3606.77
429.40	3728.47
429.59	3880.61
429.78	3712.09
429.97	3522.51
430.16	3861.88
430.34	3749.54
430.53	3784.65
430.72	3803.37
430.91	3852.52
431.10	3873.59
431.28	4140.41
431.47	4009.34
431.66	4063.17
431.85	4100.62
432.03	4058.49
432.22	4271.48
432.41	4138.07
432.60	4131.05
432.79	4168.49
432.97	4259.78
433.16	4257.43
433.35	4119.34
433.54	4283.18
433.72	4173.18
433.91	4175.52
434.10	4259.78
434.28	4177.86
434.47	4454.04
434.66	4327.65
434.85	4243.39
435.03	4362.76
435.22	4409.57
435.41	4575.75
435.59	4435.32
435.78	4599.15
435.97	4423.61
436.16	4472.76
436.34	4538.30
436.53	4594.47
436.72	4711.50
436.90	4470.42
437.09	4671.71
437.28	4566.39
437.46	4571.07
437.65	4557.02
437.84	4547.66
438.02	4636.60
438.21	4622.56
438.40	4624.90
438.58	4767.67
438.77	4957.25
438.96	4737.24
439.14	4891.72
439.33	4917.47
439.52	4985.34
439.70	5004.07
439.89	5088.32
440.08	5088.32
440.26	5004.07
440.45	5006.41
440.63	5093.01
440.82	5128.11
441.01	5067.26
441.19	5341.10
441.38	5359.83
441.57	5231.10
441.75	5575.16
441.94	5495.58
442.12	5394.93
442.31	5406.64
442.50	5481.53
442.68	5565.79
442.87	5451.11
443.05	5738.99
443.24	5598.56
443.43	5575.16
443.61	5832.62
443.80	5895.81
443.98	5540.05
444.17	5561.11
444.35	5809.21
444.54	5968.37
444.73	5865.38
444.91	5715.59
445.10	5937.94
445.28	5692.18
445.47	5760.06
445.65	5544.73
445.84	5806.87
446.02	5776.44
446.21	5706.23
446.39	5769.42
446.58	5921.56
446.77	5823.25
446.95	5799.85
447.14	5820.91
447.32	5947.30
447.51	5872.40
447.69	5696.86
447.88	5989.43
448.06	5851.34
448.25	5970.71
448.43	6031.56
448.62	5886.45
448.80	6015.18
448.99	6106.46
449.17	6127.52
449.36	5811.55
449.54	6150.93
449.73	6286.68
449.91	6279.66
450.10	6359.24
450.28	6342.85
450.46	6160.29
450.65	6188.38
450.83	6232.85
451.02	6305.40
451.20	6298.38
451.39	6354.55
451.57	6239.87
451.76	6284.34
451.94	6457.54
452.13	6509.03
452.31	6331.15
452.49	6216.46
452.68	6375.62
452.86	6532.44
453.05	6384.98
453.23	6427.11
453.42	6509.03
453.60	6389.66
453.78	6511.37
453.97	6682.23
454.15	6565.20
454.34	6473.92
454.52	6579.25
454.70	6848.41
454.89	6836.70
455.07	6649.46
455.26	6722.02
455.44	6897.56
455.62	6839.05
455.81	6757.13
455.99	6860.11
456.17	7026.29
456.36	6899.90
456.54	6935.01
456.73	7075.44
456.91	7063.74
457.09	7274.38
457.28	7335.24
457.46	6857.77
457.64	7173.74
457.83	7253.32
458.01	7180.76
458.19	7311.83
458.38	7250.98
458.56	7269.70
458.74	7389.07
458.93	7332.90
459.11	7265.02
459.29	7407.80
459.48	7473.33
459.66	7389.07
459.84	7489.71
460.03	7494.40
460.21	7541.21
460.39	7466.31
460.57	7370.35
460.76	7552.91
460.94	7597.38
461.12	7698.02
461.31	7819.73
461.49	7595.04
461.67	7660.57
461.85	7833.77
462.04	7838.45
462.22	8313.58
462.40	7981.23
462.59	8152.09
462.77	8013.99
462.95	7889.95
463.13	7967.18
463.32	8004.63
463.50	8006.97
463.68	7733.13
463.86	7990.59
464.05	7784.62
464.23	7929.74
464.41	8065.49
464.59	7943.78
464.78	8259.75
464.96	8210.60
465.14	8023.36
465.32	8339.33
465.50	8170.81
465.69	8259.75
465.87	8234.00
466.05	8301.88
466.23	8198.90
466.41	8238.69
466.60	8589.77
466.78	8266.77
466.96	8332.31
467.14	8374.44
467.32	8479.76
467.51	8535.93
467.69	8346.35
467.87	8320.60
468.05	8493.80
468.23	8444.65
468.41	8540.61
468.60	8486.78
468.78	8493.80
468.96	8561.68
469.14	8711.47
469.32	8711.47
469.50	8540.61
469.69	8603.81
469.87	8791.05
470.05	8786.37
470.23	8849.57
470.41	8901.06
470.59	9013.40
470.77	8741.90
470.95	8973.61
471.14	9256.82
471.32	8985.32
471.50	9121.07
471.68	9036.81
471.86	9198.31
472.04	9095.32
472.22	9423.00
472.40	9205.33
472.58	9397.25
472.77	9465.13
472.95	9378.53
473.13	9874.72
473.31	9418.32
473.49	9528.32
473.67	9385.55
473.85	9628.96
474.03	9710.88
474.21	9760.03
474.39	10047.92
474.57	9956.64
474.75	9891.10
474.93	9860.68
475.12	10068.98
475.30	9996.43
475.48	10061.96
475.66	10342.83
475.84	10178.99
476.02	10267.93
476.20	10326.44
476.38	10569.86
476.56	10726.68
476.74	10684.55
476.92	10473.90
477.10	10609.65
477.28	10876.47
477.46	10824.98
477.64	10937.32
477.82	11115.20
478.00	11241.59
478.18	10979.45
478.36	11332.87
478.54	11283.72
478.72	11396.07
478.90	11470.97
479.08	11712.04
479.26	11763.53
479.44	11709.70
479.62	12159.08
479.80	11786.94
479.98	12105.25
480.16	12290.15
480.34	12060.78
480.52	12360.37
480.70	12416.54
480.88	12187.17
481.06	12421.22
481.24	12575.70
481.41	12575.70
481.59	12828.48
481.77	13036.78
481.95	12842.52
482.13	13029.76
482.31	13095.30
482.49	13348.08
482.67	13493.19
482.85	13689.79
483.03	13554.04
483.21	13867.67
483.39	13940.23
483.57	13748.31
483.74	13921.51
483.92	14087.68
484.10	14111.09
484.28	14153.22
484.46	14560.47
484.64	14534.73
484.82	14504.30
485.00	14668.14
485.18	14817.93
485.35	14902.19
485.53	14834.32
485.71	15066.03
485.89	15211.14
486.07	15192.42
486.25	15506.05
486.43	15557.54
486.61	15482.64
486.78	15658.18
486.96	15728.40
487.14	16032.67
487.32	16126.29
487.50	16381.41
487.68	16678.66
487.85	16734.83
488.03	16851.86
488.21	16563.97
488.39	16760.58
488.57	17025.06
488.75	16858.88
488.92	17373.80
489.10	17518.91
489.28	17486.14
489.46	17961.27
489.64	17827.86
489.81	18143.83
489.99	18335.76
490.17	18216.39
490.35	18525.34
490.53	18274.90
490.70	18485.55
490.88	18209.37
491.06	18838.97
491.24	18698.54
491.41	19054.30
491.59	19133.88
491.77	18977.06
491.95	19363.25
492.13	19414.74
492.30	19499.00
492.48	19672.20
492.66	19880.51
492.84	20011.58
493.01	20224.57
493.19	20032.65
493.37	19992.86
493.54	20400.11
493.72	20631.82
493.90	20704.38
494.08	20657.57
494.25	20875.24
494.43	20877.58
494.61	21392.50
494.79	21345.69
494.96	21301.22
495.14	21184.19
495.32	21509.52
495.49	21366.75
495.67	21809.11
495.85	21867.63
496.02	21858.26
496.20	22010.40
496.38	22099.34
496.55	22029.12
496.73	22452.76
496.91	22551.06
497.09	22899.80
497.26	22780.43
497.44	22817.88
497.62	22860.01
497.79	23293.01
497.97	23049.60
498.14	23463.87
498.32	23613.66
498.50	23552.81
498.67	23683.88
498.85	23421.74
499.03	23789.20
499.20	23941.34
499.38	24294.76
499.56	24119.22
499.73	24311.14
499.91	24180.07
500.08	24645.84
500.26	24161.35
500.44	24819.04
500.61	24294.76
500.79	24533.50
500.97	24423.49
501.14	24945.43
501.32	24755.85
501.49	24964.15
501.67	25235.66
501.84	25109.27
502.02	24900.96
502.20	25525.88
502.37	25764.62
502.55	25448.64
502.72	25713.13
502.90	25790.36
503.07	25404.17
503.25	25593.76
503.43	25923.77
503.60	25968.24
503.78	26181.23
503.95	25975.27
504.13	25888.67
504.30	26199.96
504.48	26466.78
504.65	26380.18
504.83	26824.88
505.01	26838.92
505.18	26892.76
505.36	26869.35
505.53	26717.22
505.71	26988.72
505.88	27040.21
506.06	27040.21
506.23	27232.13
506.41	27353.84
506.58	27243.84
506.76	27323.41
506.93	27489.59
507.11	27585.55
507.28	27955.36
507.46	27508.32
507.63	27700.24
507.81	27857.06
507.98	27733.01
508.16	28030.26
508.33	28194.09
508.50	28374.31
508.68	28369.63
508.85	28533.47
509.03	28746.46
509.20	28662.20
509.38	28236.22
509.55	28950.09
509.73	29008.60
509.90	29184.14
510.08	28638.80
510.25	28996.90
510.42	29017.96
510.60	29282.44
510.77	29106.90
510.95	29710.76
511.12	29504.79
511.30	29757.57
511.47	29720.12
511.64	29771.61
511.82	29809.06
511.99	29600.76
512.17	30216.32
512.34	29638.20
512.51	30031.41
512.69	30267.81
512.86	29876.94
513.04	30380.15
513.21	30066.52
513.38	30616.55
513.56	30099.29
513.73	30300.58
513.90	30654.00
514.08	30780.39
514.25	30955.93
514.43	30569.74
514.60	30668.04
514.77	30630.59
514.95	30986.35
515.12	31220.41
515.29	31136.15
515.47	31178.28
515.64	31529.36
515.81	31276.58
515.99	31271.90
516.16	31311.69
516.33	31531.70
516.51	31929.59
516.68	31131.47
516.85	31087.00
517.03	31384.24
517.20	31716.60
517.37	31824.26
517.54	32123.85
517.72	32002.14
517.89	31941.29
518.06	31880.44
518.24	32140.24
518.41	32065.34
518.58	32004.49
518.75	31948.31
518.93	32613.02
519.10	32556.85
519.27	32608.34
519.45	32568.55
519.62	32542.81
519.79	33062.41
519.96	32428.12
520.14	32891.55
520.31	32959.42
520.48	32929.00
520.65	33062.41
520.83	33570.30
521.00	33240.29
521.17	33558.60
521.34	33275.40
521.52	33619.46
521.69	33425.19
521.86	33436.89
522.03	33729.46
522.20	33710.74
522.38	33809.04
522.55	34015.01
522.72	33968.19
522.89	34033.73
523.07	34050.11
523.24	34099.26
523.41	34293.53
523.58	34183.52
523.75	34653.97
523.92	34478.43
524.10	34871.64
524.27	34597.80
524.44	34888.03
524.61	34857.60
524.78	35124.42
524.96	35274.21
525.13	35271.87
525.30	35445.07
525.47	35754.02
525.64	35028.46
525.81	34974.63
525.98	35292.94
526.16	34991.01
526.33	35503.59
526.50	35316.34
526.67	34904.41
526.84	35000.37
527.01	35232.08
527.18	35489.54
527.36	35452.09
527.53	35849.99
527.70	35838.28
527.87	35707.21
528.04	35913.18
528.21	35754.02
528.38	36313.41
528.55	36231.49
528.72	36147.23
528.89	36470.23
529.07	36360.22
529.24	36388.31
529.41	36273.62
529.58	36432.78
529.75	36198.73
529.92	36577.89
530.09	36673.85
530.26	36486.61
530.43	36552.15
530.60	36547.47
530.77	37095.15
530.94	36765.14
531.11	36968.76
531.28	36790.88
531.46	37364.31
531.63	37462.61
531.80	36720.66
531.97	37006.21
532.14	37137.28
532.31	36980.46
532.48	37415.80
532.65	37366.65
532.82	37504.74
532.99	37511.77
533.16	37205.16
533.33	37010.89
533.50	37504.74
533.67	37642.84
533.84	37170.05
534.01	37495.38
534.18	37347.93
534.35	38019.66
534.52	37376.01
534.69	38253.72
534.86	38249.03
535.03	38232.65
535.20	38066.47
535.37	38670.33
535.54	38092.22
535.71	37984.55
535.88	37958.81
536.05	38169.46
536.22	38319.25
536.38	38333.29
536.55	38848.21
536.72	38405.85
536.89	37900.29
537.06	38199.88
537.23	38576.71
537.40	38146.05
537.57	38749.91
537.74	38747.57
537.91	39199.29
538.08	38705.44
538.25	38520.54
538.42	38972.26
538.59	38756.93
538.75	38382.45
538.92	39084.61
539.09	39000.35
539.26	39166.52
539.43	38972.26
539.60	39208.65
539.77	39014.39
539.94	39292.91
540.11	38834.17
540.28	38653.95
540.44	39206.31
540.61	39012.05
540.78	39225.04
540.95	39227.38
541.12	38735.87
541.29	39445.05
541.46	39285.89
541.62	39199.29
541.79	39615.91
541.96	39386.54
542.13	39447.39
542.30	39480.16
542.47	39346.75
542.63	39636.97
542.80	39768.04
542.97	40062.95
543.14	40479.57
543.31	40184.66
543.48	40264.24
543.64	40409.35
543.81	40243.17
543.98	40332.11
544.15	40287.64
544.32	40399.99
544.48	40760.43
544.65	40704.26
544.82	40610.64
544.99	39997.41
545.16	40486.59
545.32	40701.92
545.49	40783.83
545.66	41006.19
545.83	41003.85
546.00	40828.30
546.16	40903.20
546.33	40722.98
546.50	40772.13
546.67	41045.97
546.83	40130.83
547.00	40921.93
547.17	40872.78
547.34	41207.47
547.50	41275.35
547.67	41045.97
547.84	40865.75
548.00	41373.65
548.17	41773.88
548.34	41034.27
548.51	41237.90
548.67	41631.11
548.84	41364.29
549.01	41598.34
549.18	41193.43
549.34	41441.53
549.51	41738.77
549.68	41706.01
549.84	41858.14
550.01	42164.75
550.18	41614.72
550.34	41488.34
550.51	41635.79
550.68	41420.46
550.84	41502.38
551.01	41364.29
551.18	41883.89
551.34	41577.28
551.51	41823.03
551.68	41998.57
551.84	41900.27
552.01	41715.37
552.18	41769.20
552.34	42232.63
552.51	42340.29
552.68	41478.97
552.84	42253.69
553.01	42504.13
553.18	41975.17
553.34	42176.45
553.51	41921.34
553.67	42014.96
553.84	42422.21
554.01	42014.96
554.17	42202.20
554.34	42443.27
554.51	42494.77
554.67	42543.92
554.84	42499.45
555.00	42323.91
555.17	42337.95
555.33	42443.27
555.50	42672.65
555.67	42618.81
555.83	42937.13
556.00	42459.66
556.16	43105.65
556.33	42710.10
556.50	42745.20
556.66	42658.60
556.83	42581.37
556.99	43206.29
557.16	43145.44
557.32	42754.57
557.49	43072.88
557.65	42700.73
557.82	42728.82
557.98	42621.16
558.15	42808.40
558.32	43096.28
558.48	43089.26
558.65	42787.33
558.81	42988.62
558.98	42674.99
559.14	43332.68
559.31	42993.30
559.47	43463.75
559.64	43367.79
559.80	43466.09
559.97	43409.92
560.13	43260.12
560.30	43093.94
560.46	42632.86
560.63	43271.82
560.79	43276.51
560.96	43477.79
561.12	43194.59
561.29	43615.88
561.45	43189.91
561.61	43480.13
561.78	43943.56
561.94	43154.80
562.11	43138.41
562.27	43154.80
562.44	43915.47
562.60	43152.46
562.77	43906.11
562.93	43477.79
563.10	43339.70
563.26	43131.39
563.42	43421.62
563.59	43342.04
563.75	43407.58
563.92	43859.30
564.08	43489.49
564.24	43711.84
564.41	43753.97
564.57	43622.90
564.74	44231.44
564.90	43711.84
565.07	43962.28
565.23	43257.78
565.39	43580.78
565.56	43941.22
565.72	43234.38
565.88	43700.14
566.05	43365.45
566.21	43711.84
566.38	43805.47
566.54	43906.11
566.70	44112.08
566.87	44362.51
567.03	43777.38
567.19	44280.60
567.36	43981.01
567.52	44041.86
567.68	44168.25
567.85	43503.54
568.01	43863.98
568.17	43548.01
568.34	44135.48
568.50	43625.25
568.66	43480.13
568.83	44123.78
568.99	43753.97
569.15	43618.22
569.32	44322.72
569.48	44439.75
569.64	44257.19
569.81	44315.70
569.97	43917.81
570.13	44130.80
570.30	43929.51
570.46	43828.87
570.62	43831.21
570.78	43477.79
570.95	43955.26
571.11	44219.74
571.27	43973.98
571.43	44156.55
571.60	44156.55
571.76	44147.18
571.92	43908.45
572.09	43973.98
572.25	44133.14
572.41	43976.33
572.57	44430.39
572.74	44233.78
572.90	44320.38
573.06	44175.27
573.22	44020.80
573.38	44292.30
573.55	43955.26
573.71	44264.21
573.87	44128.46
574.03	44205.70
574.20	44402.30
574.36	43969.30
574.52	44428.05
574.68	44570.82
574.84	44610.61
575.01	44343.79
575.17	44210.38
575.33	44208.04
575.49	44161.23
575.65	44935.95
575.82	44210.38
575.98	44360.17
576.14	44643.38
576.30	44680.83
576.46	44226.76
576.62	44088.67
576.79	44175.27
576.95	44016.11
577.11	44065.27
577.27	44374.22
577.43	44472.52
577.59	44318.04
577.75	44168.25
577.92	44069.95
578.08	44343.79
578.24	43873.34
578.40	43917.81
578.56	44552.10
578.72	43896.75
578.88	44205.70
579.04	44570.82
579.21	44598.91
579.37	44357.83
579.53	44121.44
579.69	44121.44
579.85	44357.83
580.01	44261.87
580.17	44797.85
580.33	44589.55
580.49	44540.39
580.65	44624.65
580.82	44666.78
580.98	44289.96
581.14	44289.96
581.30	44566.14
581.46	44631.68
581.62	44376.56
581.78	44252.51
581.94	45097.44
582.10	44463.16
582.26	44502.95
582.42	44109.74
582.58	44332.09
582.74	44460.82
582.90	44273.57
583.06	44479.54
583.22	44666.78
583.38	44385.92
583.54	44425.71
583.70	44921.90
583.86	44287.62
584.02	43583.12
584.18	44390.60
584.34	44610.61
584.50	44409.32
584.66	44449.11
584.82	44294.64
584.98	44949.99
585.14	44949.99
585.30	44098.03
585.46	44364.85
585.62	44156.55
585.78	44612.95
585.94	44282.94
586.10	44566.14
586.26	44362.51
586.42	44577.84
586.58	44727.64
586.74	44617.63
586.90	44488.90
587.06	44179.95
587.22	44734.66
587.38	44135.48
587.54	44718.28
587.70	44563.80
587.86	44458.48
588.02	44849.35
588.18	45170.00
588.34	44512.31
588.49	44634.02
588.65	44245.49
588.81	44706.57
588.97	44264.21
589.13	44694.87
589.29	44631.68
589.45	44737.00
589.61	44612.95
589.77	45001.48
589.93	44622.31
590.08	44673.81
590.24	44428.05
