SpectraSuite Data File
++++++++++++++++++++++++++++++++++++
Date: Fri Oct 25 11:24:00 EDT 2013
User: price-jones
Dark Spectrum Present: No
Reference Spectrum Present: No
Number of Sampled Component Spectra: 1
Spectrometers: USB2+H05261
Integration Time (usec): 100000 (USB2+H05261)
Spectra Averaged: 1 (USB2+H05261)
Boxcar Smoothing: 0 (USB2+H05261)
Correct for Electrical Dark: No (USB2+H05261)
Strobe/Lamp Enabled: No (USB2+H05261)
Correct for Detector Non-linearity: No (USB2+H05261)
Correct for Stray Light: No (USB2+H05261)
Number of Pixels in Processed Spectrum: 2048
>>>>>Begin Processed Spectral Data<<<<<
365.73	227.03
365.92	227.03
366.12	227.03
366.32	107.66
366.52	102.98
366.72	177.88
366.91	105.32
367.11	140.43
367.31	105.32
367.51	102.98
367.70	107.66
367.90	88.94
368.10	161.50
368.30	131.07
368.49	149.79
368.69	133.41
368.89	119.37
369.09	154.48
369.28	208.31
369.48	163.84
369.68	229.37
369.87	210.65
370.07	205.97
370.27	229.37
370.47	330.02
370.66	620.24
370.86	627.26
371.06	594.50
371.25	704.50
371.45	599.18
371.65	622.58
371.84	622.58
372.04	636.63
372.24	690.46
372.44	662.37
372.63	788.76
372.83	793.44
373.03	704.50
373.22	744.29
373.42	805.14
373.62	746.63
373.81	861.32
374.01	779.40
374.21	844.93
374.40	748.97
374.60	777.06
374.79	788.76
374.99	800.46
375.19	826.21
375.38	863.66
375.58	833.23
375.78	940.90
375.97	856.64
376.17	887.06
376.37	858.98
376.56	866.00
376.76	901.11
376.95	884.72
377.15	805.14
377.35	971.32
377.54	898.77
377.74	929.19
377.93	903.45
378.13	915.15
378.33	990.05
378.52	978.34
378.72	954.94
378.91	968.98
379.11	971.32
379.31	882.38
379.50	912.81
379.70	1064.94
379.89	1100.05
380.09	1001.75
380.28	1001.75
380.48	1006.43
380.68	1029.84
380.87	1020.47
381.07	1057.92
381.26	1022.81
381.46	924.51
381.65	968.98
381.85	971.32
382.04	1060.26
382.24	1069.62
382.43	992.39
382.63	1057.92
382.83	1081.33
383.02	1086.01
383.22	1076.65
383.41	1102.39
383.61	1135.16
383.80	1095.37
384.00	1132.82
384.19	1177.29
384.39	1008.77
384.58	1146.86
384.78	1090.69
384.97	1160.91
385.17	1121.12
385.36	1100.05
385.56	1153.88
385.75	1181.97
385.95	1146.86
386.14	1193.67
386.34	1245.16
386.53	1282.61
386.72	1205.38
386.92	1322.40
387.11	1322.40
387.31	1224.10
387.50	1207.72
387.70	1324.74
387.89	1249.85
388.09	1324.74
388.28	1275.59
388.48	1242.82
388.67	1362.19
388.86	1336.45
389.06	1373.89
389.25	1446.45
389.45	1334.11
389.64	1373.89
389.84	1406.66
390.03	1465.18
390.22	1427.73
390.42	1430.07
390.61	1252.19
390.81	1404.32
391.00	1397.30
391.19	1486.24
391.39	1425.39
391.58	1483.90
391.78	1479.22
391.97	1366.87
392.16	1476.88
392.36	1556.46
392.55	1448.79
392.75	1488.58
392.94	1563.48
393.13	1593.90
393.33	1495.60
393.52	1565.82
393.71	1654.76
393.91	1640.72
394.10	1577.52
394.29	1551.78
394.49	1603.27
394.68	1645.40
394.88	1689.87
395.07	1755.40
395.26	1720.29
395.46	1710.93
395.65	1643.06
395.84	1678.16
396.04	1769.44
396.23	1834.98
396.42	1675.82
396.62	1799.87
396.81	1771.79
397.00	1755.40
397.19	1750.72
397.39	1788.17
397.58	1930.94
397.77	1863.07
397.97	1926.26
398.16	1830.30
398.35	1959.03
398.55	1893.49
398.74	1898.17
398.93	1933.28
399.12	1823.28
399.32	2022.22
399.51	1998.82
399.70	2125.21
399.90	2040.95
400.09	1928.60
400.28	2104.14
400.47	2122.87
400.67	2190.74
400.86	2172.02
401.05	2010.52
401.24	2132.23
401.44	2181.38
401.63	2085.42
401.82	2225.85
402.01	2045.63
402.21	2106.48
402.40	2148.61
402.59	2246.91
402.78	2216.49
402.97	2176.70
403.17	2237.55
403.36	2256.28
403.55	2298.41
403.74	2324.15
403.93	2368.62
404.13	2385.01
404.32	2296.07
404.51	2368.62
404.70	2406.07
404.89	2324.15
405.09	2413.09
405.28	2485.65
405.47	2387.35
405.66	2396.71
405.85	2635.44
406.05	2565.23
406.24	2551.18
406.43	2534.80
406.62	2675.23
406.81	2551.18
407.00	2530.12
407.20	2518.42
407.39	2581.61
407.58	2834.39
407.77	2820.35
407.96	2759.49
408.15	2778.22
408.34	2778.22
408.54	2846.09
408.73	2888.22
408.92	2897.58
409.11	2937.37
409.30	2902.26
409.49	2935.03
409.68	2967.80
409.87	3007.59
410.07	2932.69
410.26	3030.99
410.45	3052.06
410.64	3033.33
410.83	3023.97
411.02	3129.30
411.21	3248.66
411.40	2944.39
411.59	3157.38
411.78	3169.09
411.98	3279.09
412.17	3337.60
412.36	3297.81
412.55	3323.56
412.74	3454.63
412.93	3496.76
413.12	3325.90
413.31	3557.61
413.50	3461.65
413.69	3517.83
413.88	3538.89
414.07	3609.11
414.26	3733.15
414.45	3768.26
414.64	3492.08
414.83	3754.22
415.02	3754.22
415.22	3786.99
415.41	3913.38
415.60	3920.40
415.79	3871.25
415.98	4070.19
416.17	4023.38
416.36	3990.61
416.55	4014.02
416.74	4142.75
416.93	4142.75
417.12	4042.11
417.31	4203.60
417.50	4264.46
417.69	4318.29
417.88	4325.31
418.07	4351.06
418.26	4311.27
418.45	4404.89
418.64	4325.31
418.83	4507.87
419.02	4538.30
419.21	4507.87
419.39	4512.55
419.58	4571.07
419.77	4510.21
419.96	4503.19
420.15	4507.87
420.34	4746.61
420.53	4648.30
420.72	4676.39
420.91	4681.07
421.10	4802.78
421.29	4975.98
421.48	4847.25
421.67	4952.57
421.86	4760.65
422.05	4849.59
422.24	4915.12
422.43	4943.21
422.61	4851.93
422.80	4985.34
422.99	4865.97
423.18	4990.02
423.37	5022.79
423.56	4933.85
423.75	4910.44
423.94	4889.38
424.13	4751.29
424.32	4809.80
424.50	5081.30
424.69	4997.04
424.88	5121.09
425.07	5114.07
425.26	5039.17
425.45	4924.49
425.64	5053.22
425.83	4990.02
426.01	5041.51
426.20	4922.15
426.39	5121.09
426.58	4966.62
426.77	5210.03
426.96	5268.55
427.15	5144.50
427.33	5153.86
427.52	5062.58
427.71	5247.48
427.90	5167.90
428.09	5413.66
428.28	5451.11
428.46	5329.40
428.65	5277.91
428.84	5418.34
429.03	5591.54
429.22	5336.42
429.40	5490.90
429.59	5554.09
429.78	5394.93
429.97	5331.74
430.16	5504.94
430.34	5570.48
430.53	5607.92
430.72	5701.54
430.91	5542.39
431.10	5699.20
431.28	5703.89
431.47	5846.66
431.66	5973.05
431.85	5795.17
432.03	5839.64
432.22	6054.97
432.41	6033.90
432.60	5977.73
432.79	5968.37
432.97	6024.54
433.16	6162.63
433.35	6024.54
433.54	6104.12
433.72	6176.67
433.91	6010.50
434.10	6045.60
434.28	5959.00
434.47	6136.88
434.66	6289.02
434.85	6445.84
435.03	6438.81
435.22	6291.36
435.41	6644.78
435.59	6366.26
435.78	6633.08
435.97	6642.44
436.16	6569.88
436.34	6373.28
436.53	6675.21
436.72	6717.34
436.90	6429.45
437.09	6829.68
437.28	6534.78
437.46	6438.81
437.65	6726.70
437.84	6890.54
438.02	6803.94
438.21	6904.58
438.40	6635.42
438.58	7028.63
438.77	7213.53
438.96	6991.18
439.14	7243.96
439.33	7187.79
439.52	7150.34
439.70	7232.26
439.89	7538.87
440.08	7227.57
440.26	7566.95
440.45	7550.57
440.63	7543.55
440.82	7648.87
441.01	7515.46
441.19	7417.16
441.38	7866.54
441.57	7571.63
441.75	7894.63
441.94	7929.74
442.12	7903.99
442.31	8053.78
442.50	8189.53
442.68	8079.53
442.87	8173.15
443.05	8114.64
443.24	8126.34
443.43	8152.09
443.61	8095.91
443.80	8458.70
443.98	8226.98
444.17	7908.67
444.35	8250.39
444.54	8271.45
444.73	8568.70
444.91	8428.27
445.10	8470.40
445.28	8306.56
445.47	8339.33
445.65	8318.26
445.84	8622.53
446.02	8552.32
446.21	8514.87
446.39	8388.48
446.58	8613.17
446.77	8564.02
446.95	8355.71
447.14	8524.23
447.32	8603.81
447.51	8465.72
447.69	8496.14
447.88	8491.46
448.06	8566.36
448.25	8564.02
448.43	8788.71
448.62	8641.26
448.80	8498.49
448.99	8475.08
449.17	8685.73
449.36	8823.82
449.54	9027.45
449.73	8833.18
449.91	8887.01
450.10	9125.75
450.28	8954.89
450.46	8982.98
450.65	9156.18
450.83	9081.28
451.02	8999.36
451.20	9083.62
451.39	9235.75
451.57	9207.67
451.76	9167.88
451.94	9331.72
452.13	9572.79
452.31	9198.31
452.49	9289.59
452.68	9397.25
452.86	9549.39
453.05	9430.02
453.23	9870.04
453.42	9390.23
453.60	9415.98
453.78	9645.35
453.97	9390.23
454.15	9654.71
454.34	9650.03
454.52	9727.27
454.70	9792.80
454.89	9820.89
455.07	10005.79
455.26	9881.74
455.44	9923.87
455.62	9944.94
455.81	9991.75
455.99	10111.11
456.17	9961.32
456.36	10005.79
456.54	10258.57
456.73	10232.82
456.91	10553.48
457.09	10384.96
457.28	10609.65
457.46	10312.40
457.64	10511.35
457.83	10541.77
458.01	10490.28
458.19	10789.87
458.38	10417.72
458.56	10909.24
458.74	10801.57
458.93	10836.68
459.11	10747.74
459.29	11147.97
459.48	10810.93
459.66	10923.28
459.84	11059.03
460.03	11241.59
460.21	11087.12
460.39	10918.60
460.57	11117.54
460.76	11056.69
460.94	11180.74
461.12	11272.02
461.31	11311.81
461.49	11325.85
461.67	11229.89
461.85	11372.66
462.04	11410.11
462.22	11604.38
462.40	11878.22
462.59	11538.84
462.77	11515.44
462.95	11913.33
463.13	11690.98
463.32	11688.64
463.50	11843.11
463.68	11950.78
463.86	11838.43
464.05	11667.57
464.23	11604.38
464.41	11943.75
464.59	11847.79
464.78	12013.97
464.96	11686.29
465.14	11913.33
465.32	12212.92
465.50	12329.94
465.69	12343.99
465.87	12315.90
466.05	12088.87
466.23	12196.53
466.41	12435.27
466.60	12650.60
466.78	12273.77
466.96	12196.53
467.14	12259.73
467.32	12526.55
467.51	12472.71
467.69	12187.17
467.87	12683.36
468.05	12538.25
468.23	12470.37
468.41	12505.48
468.60	12624.85
468.78	12849.54
468.96	12519.53
469.14	12973.59
469.32	13043.81
469.50	12627.19
469.69	13055.51
469.87	13268.50
470.05	12968.91
470.23	13364.46
470.41	13280.20
470.59	13575.11
470.77	13116.36
470.95	13441.70
471.14	13540.00
471.32	13146.79
471.50	13617.24
471.68	13570.43
471.86	13607.87
472.04	13654.69
472.22	14104.07
472.40	13530.64
472.58	13968.32
472.77	14120.45
472.95	14363.87
473.13	14429.40
473.31	14525.36
473.49	14256.20
473.67	14230.46
473.85	14403.66
474.03	14604.94
474.21	14684.52
474.39	14956.02
474.57	14862.40
474.75	15140.93
474.93	15084.75
475.12	15087.09
475.30	15035.60
475.48	14923.26
475.66	15218.16
475.84	15124.54
476.02	15503.71
476.20	15410.09
476.38	15723.72
476.56	16301.83
476.74	16130.97
476.92	15967.13
477.10	15920.32
477.28	16224.59
477.46	16290.13
477.64	16332.26
477.82	16641.21
478.00	16982.93
478.18	17032.08
478.36	16627.17
478.54	16985.27
478.72	17289.54
478.90	17694.45
479.08	17701.47
479.26	18059.57
479.44	17886.37
479.62	18029.15
479.80	18265.54
479.98	18272.56
480.16	18904.51
480.34	18497.25
480.52	18464.49
480.70	18808.54
480.88	18810.89
481.06	18813.23
481.24	19042.60
481.41	19260.27
481.59	19700.29
481.77	19742.42
481.95	19578.58
482.13	19789.23
482.31	19999.88
482.49	20524.16
482.67	20233.93
482.85	20512.46
483.03	20629.48
483.21	20606.08
483.39	21013.33
483.57	20781.62
483.74	21205.25
483.92	21507.18
484.10	21022.69
484.28	21743.58
484.46	22106.36
484.64	22501.91
484.82	22019.76
485.00	22588.51
485.18	22995.76
485.35	23337.48
485.53	22995.76
485.71	23068.32
485.89	23651.11
486.07	23618.35
486.25	23534.09
486.43	23697.92
486.61	24091.13
486.78	24400.08
486.96	24332.21
487.14	24479.66
487.32	24694.99
487.50	25015.65
487.68	24957.13
487.85	25296.51
488.03	25628.87
488.21	26080.59
488.39	25642.91
488.57	26412.95
488.75	26541.68
488.92	26513.59
489.10	26955.95
489.28	26651.68
489.46	27140.85
489.64	27180.64
489.81	27847.69
489.99	27953.02
490.17	28112.17
490.35	27969.40
490.53	28418.78
490.70	28547.51
490.88	28327.50
491.06	28727.74
491.24	28833.06
491.41	29280.10
491.59	29663.95
491.77	29851.19
491.95	29727.14
492.13	30164.82
492.30	30342.70
492.48	30562.72
492.66	30586.12
492.84	30927.84
493.01	30991.03
493.19	30869.33
493.37	30953.58
493.54	31594.89
493.72	31798.52
493.90	31515.31
494.08	32334.50
494.25	32428.12
494.43	31964.70
494.61	32552.17
494.79	32776.86
494.96	32971.13
495.14	33102.20
495.32	33326.89
495.49	33479.02
495.67	33558.60
495.85	33780.95
496.02	34134.37
496.20	34237.36
496.38	34609.50
496.55	34235.02
496.73	35178.25
496.91	34653.97
497.09	35140.80
497.26	35569.12
497.44	35002.71
497.62	35180.59
497.79	35821.90
497.97	35697.85
498.14	36168.30
498.32	36474.91
498.50	36617.68
498.67	37001.53
498.85	36863.44
499.03	37170.05
499.20	36898.55
499.38	36788.54
499.56	37322.18
499.73	37537.51
499.91	37715.39
500.08	37261.33
500.26	37708.37
500.44	37984.55
500.61	37996.26
500.79	37991.58
500.97	38139.03
501.14	38733.53
501.32	38902.04
501.49	38527.56
501.67	38817.78
501.84	39681.44
502.02	39115.03
502.20	38979.28
502.37	39393.56
502.55	39564.42
502.72	39761.02
502.90	39793.79
503.07	39718.89
503.25	40395.31
503.43	39721.23
503.60	40233.81
503.78	40325.09
503.95	40858.73
504.13	40589.57
504.30	40788.52
504.48	40924.27
504.65	41303.43
504.83	41397.06
505.01	41640.47
505.18	41198.11
505.36	41661.54
505.53	41624.09
505.71	41666.22
505.88	42230.29
506.06	41837.08
506.23	41895.59
506.41	41989.21
506.58	42412.85
506.76	42408.17
506.93	42424.55
507.11	42300.50
507.28	42588.39
507.46	42717.12
507.63	43232.04
507.81	43622.90
507.98	43112.67
508.16	43203.95
508.33	43168.84
508.50	43725.89
508.68	43908.45
508.85	43936.54
509.03	43639.29
509.20	44404.64
509.38	45031.91
509.55	44921.90
509.73	44706.57
509.90	45139.57
510.08	45081.06
510.25	44800.19
510.42	45294.05
510.60	45144.25
510.77	45429.80
510.95	45907.27
511.12	45455.54
511.30	45280.00
511.47	45598.32
511.64	45439.16
511.82	45839.39
511.99	45598.32
512.17	46092.17
512.34	46178.77
512.51	46363.67
512.69	46579.00
512.86	46742.84
513.04	47026.04
513.21	46403.46
513.38	47213.29
513.56	47224.99
513.73	47051.79
513.90	47161.79
514.08	47332.65
514.25	47243.71
514.43	47751.61
514.60	47880.34
514.77	47826.51
514.95	47875.66
515.12	47980.98
515.29	48004.39
515.47	48158.86
515.64	48208.01
515.81	48231.42
515.99	48315.68
516.16	48453.77
516.33	48357.81
516.51	48982.73
516.68	48561.44
516.85	48711.23
517.03	49059.97
517.20	48704.21
517.37	49155.93
517.54	49074.01
517.72	49097.42
517.89	49247.21
518.06	49389.98
518.24	49436.80
518.41	49514.03
518.58	49502.33
518.75	49787.88
518.93	49890.86
519.10	49303.38
519.27	49874.48
519.45	50066.40
519.62	49743.41
519.79	50337.90
519.96	50122.57
520.14	50398.76
520.31	50328.54
520.48	50623.45
520.65	50553.23
520.83	50817.71
521.00	50937.08
521.17	50382.37
521.34	50756.86
521.52	51058.79
521.69	50595.36
521.86	51070.49
522.03	50918.35
522.20	51501.15
522.38	51260.07
522.55	51330.29
522.72	51505.83
522.89	51505.83
523.07	51877.97
523.24	51519.87
523.41	52133.09
523.58	51742.22
523.75	52186.92
523.92	52222.03
524.10	51980.96
524.27	52247.78
524.44	52418.64
524.61	52177.56
524.78	52243.10
524.96	52116.71
525.13	52538.01
525.30	52451.41
525.47	52947.60
525.64	52561.41
525.81	52882.06
525.98	52919.51
526.16	52889.09
526.33	52846.96
526.50	53034.20
526.67	52945.26
526.84	52706.52
527.01	53092.71
527.18	52933.56
527.36	53174.63
527.53	53504.65
527.70	53907.22
527.87	53518.69
528.04	53649.76
528.21	53364.21
528.38	53605.29
528.55	54038.29
528.72	53609.97
528.89	53841.68
529.07	53785.51
529.24	53525.71
529.41	53755.08
529.58	53874.45
529.75	53911.90
529.92	53776.15
530.09	54101.48
530.26	53977.43
530.43	54211.49
530.60	53719.98
530.77	53893.18
530.94	54291.07
531.11	54347.24
531.28	54494.69
531.46	54330.86
531.63	54265.32
531.80	54185.74
531.97	54590.66
532.14	54543.84
532.31	54686.62
532.48	54508.74
532.65	54852.80
532.82	54866.84
532.99	54791.94
533.16	54934.71
533.33	54986.21
533.50	55075.15
533.67	54815.35
533.84	54805.98
534.01	55037.70
534.18	55262.39
534.35	55395.80
534.52	55196.85
534.69	55491.76
534.86	55283.45
535.03	55458.99
535.20	55611.13
535.37	55437.93
535.54	55601.77
535.71	55480.06
535.88	55679.00
536.05	55554.96
536.22	55744.54
536.38	55859.23
536.55	55688.37
536.72	55702.41
536.89	55781.99
537.06	55901.36
537.23	55992.64
537.40	55753.90
537.57	55744.54
537.74	55969.23
537.91	56011.36
538.08	55786.67
538.25	56048.81
538.42	56053.49
538.59	56165.84
538.75	56175.20
538.92	56086.26
539.09	56537.98
539.26	56463.08
539.43	56348.40
539.60	56364.78
539.77	56392.87
539.94	56673.73
540.11	56322.65
540.28	56652.67
540.44	56587.13
540.61	56624.58
540.78	56552.02
540.95	56760.33
541.12	56554.36
541.29	56720.54
541.46	56715.86
541.62	56535.64
541.79	56910.13
541.96	56638.62
542.13	56818.84
542.30	56718.20
542.47	56793.10
542.63	57001.41
542.80	56907.79
542.97	57041.20
543.14	57315.04
543.31	57350.15
543.48	57284.61
543.64	57677.82
543.81	57687.18
543.98	57329.08
544.15	57483.56
544.32	57481.22
544.48	57818.25
544.65	57469.51
544.82	57413.34
544.99	57516.32
545.16	57694.21
545.32	57549.09
545.49	57778.46
545.66	57942.30
545.83	57675.48
546.00	57677.82
546.16	57996.13
546.33	57623.99
546.50	57546.75
546.67	57652.08
546.83	57642.71
547.00	57867.40
547.17	57998.48
547.34	58017.20
547.50	58040.60
547.67	58176.36
547.84	58099.12
548.00	58281.68
548.17	58379.98
548.34	58333.17
548.51	58281.68
548.67	58260.62
548.84	58321.47
549.01	58356.58
549.18	58220.83
549.34	58431.47
549.51	58637.44
549.68	58494.67
549.84	58604.67
550.01	58548.50
550.18	58447.86
550.34	58681.91
550.51	58550.84
550.68	58592.97
550.84	58424.45
551.01	58749.79
551.18	58592.97
551.34	58911.28
551.51	58702.98
551.68	58845.75
551.84	58628.08
552.01	58461.90
552.18	58745.11
552.34	58824.68
552.51	58967.46
552.68	58667.87
552.84	58677.23
553.01	59236.62
553.18	58965.12
553.34	58946.39
553.51	58621.06
553.67	58850.43
553.84	59138.32
554.01	59051.72
554.17	59196.83
554.34	59100.87
554.51	59222.58
554.67	59231.94
554.84	59030.65
555.00	59084.48
555.17	59140.66
555.33	59126.61
555.50	59309.18
555.67	59082.14
555.83	59107.89
556.00	59304.49
556.16	59402.80
556.33	59503.44
556.50	59428.54
556.66	59632.17
556.83	59309.18
556.99	59550.25
557.16	59772.60
557.32	59657.91
557.49	59891.97
557.65	59337.26
557.82	59606.42
557.98	59566.63
558.15	59400.46
558.32	59437.90
558.48	59496.42
558.65	59646.21
558.81	59494.08
558.98	59650.89
559.14	59690.68
559.31	59828.77
559.47	59758.56
559.64	59749.20
559.80	59774.94
559.97	59943.46
560.13	59784.30
560.30	59931.76
560.46	59959.84
560.63	60016.02
560.79	59847.50
560.96	60025.38
561.12	59964.52
561.29	59770.26
561.45	60037.08
561.61	60074.53
561.78	60081.55
561.94	59959.84
562.11	59803.03
562.27	60027.72
562.44	60025.38
562.60	60285.18
562.77	60032.40
562.93	59894.31
563.10	60388.16
563.26	59976.23
563.42	60315.61
563.59	59994.95
563.75	60039.42
563.92	60172.83
564.08	60083.89
564.24	60266.45
564.41	60217.30
564.57	60130.70
564.74	60100.28
564.90	60193.90
565.07	60210.28
565.23	60247.73
565.39	60233.69
565.56	60423.27
565.72	60191.56
565.88	60224.32
566.05	60526.25
566.21	60224.32
566.38	60214.96
566.54	60402.21
566.70	60568.38
566.87	60591.79
567.03	60051.12
567.19	60697.11
567.36	60420.93
567.52	60343.69
567.68	60715.84
567.85	60519.23
568.01	60596.47
568.17	60514.55
568.34	60683.07
568.50	60432.63
568.66	60561.36
568.83	60559.02
568.99	60530.93
569.15	60582.43
569.32	60645.62
569.48	60753.29
569.64	60537.96
569.81	60549.66
569.97	60399.86
570.13	60582.43
570.30	60292.20
570.46	60657.32
570.62	60575.40
570.78	60671.37
570.95	60556.68
571.11	60725.20
571.27	60547.32
571.43	60556.68
571.60	60757.97
571.76	60526.25
571.92	60926.49
572.09	60493.49
572.25	60654.98
572.41	60610.51
572.57	60746.26
572.74	60851.59
572.90	60718.18
573.06	60676.05
573.22	60821.16
573.38	60863.29
573.55	60811.80
573.71	60949.89
573.87	60828.18
574.03	60638.60
574.20	60926.49
574.36	60580.09
574.52	60832.86
574.68	60821.16
574.84	60975.64
575.01	60874.99
575.17	60849.25
575.33	60694.77
575.49	60544.98
575.65	60839.89
575.82	60872.65
575.98	60919.46
576.14	61013.08
576.30	60884.36
576.46	60823.50
576.62	60921.80
576.79	60919.46
576.95	60706.47
577.11	60795.42
577.27	60975.64
577.43	60711.16
577.59	60851.59
577.75	60959.25
577.92	60823.50
578.08	60940.53
578.24	60896.06
578.40	61102.03
578.56	61183.94
578.72	60896.06
578.88	61027.13
579.04	61226.07
579.21	60699.45
579.37	61219.05
579.53	61123.09
579.69	60898.40
579.85	60959.25
580.01	60594.13
580.17	61057.56
580.33	60985.00
580.49	61102.03
580.65	61022.45
580.82	60800.10
580.98	61066.92
581.14	60970.96
581.30	61146.50
581.46	61031.81
581.62	61104.37
581.78	60842.23
581.94	61247.14
582.10	61064.58
582.26	61188.63
582.42	60912.44
582.58	61041.17
582.74	61010.74
582.90	61048.19
583.06	60985.00
583.22	61010.74
583.38	61123.09
583.54	61076.28
583.70	61167.56
583.86	61111.39
584.02	61137.13
584.18	61197.99
584.34	61027.13
584.50	61181.60
584.66	60783.71
584.82	61045.85
584.98	61254.16
585.14	61256.50
585.30	61062.24
585.46	61303.31
585.62	61176.92
585.78	61261.18
585.94	61109.05
586.10	61031.81
586.26	61179.26
586.42	61394.59
586.58	61118.41
586.74	61300.97
586.90	61230.75
587.06	61118.41
587.22	61137.13
587.38	61085.64
587.54	61378.21
587.70	61242.46
587.86	61286.93
588.02	61162.88
588.18	61282.25
588.34	61134.79
