SpectraSuite Data File
++++++++++++++++++++++++++++++++++++
Date: Fri Oct 25 11:23:12 EDT 2013
User: price-jones
Dark Spectrum Present: No
Reference Spectrum Present: No
Number of Sampled Component Spectra: 1
Spectrometers: USB2+H05261
Integration Time (usec): 100000 (USB2+H05261)
Spectra Averaged: 1 (USB2+H05261)
Boxcar Smoothing: 0 (USB2+H05261)
Correct for Electrical Dark: No (USB2+H05261)
Strobe/Lamp Enabled: No (USB2+H05261)
Correct for Detector Non-linearity: No (USB2+H05261)
Correct for Stray Light: No (USB2+H05261)
Number of Pixels in Processed Spectrum: 2048
>>>>>Begin Processed Spectral Data<<<<<
365.73	189.58
365.92	189.58
366.12	189.58
366.32	156.82
366.52	117.03
366.72	142.77
366.91	152.13
367.11	131.07
367.31	112.35
367.51	79.58
367.70	107.66
367.90	84.26
368.10	117.03
368.30	102.98
368.49	220.01
368.69	234.05
368.89	149.79
369.09	126.39
369.28	145.11
369.48	156.82
369.68	196.60
369.87	173.20
370.07	142.77
370.27	229.37
370.47	304.27
370.66	568.75
370.86	669.39
371.06	678.76
371.25	681.10
371.45	678.76
371.65	655.35
371.84	622.58
372.04	676.41
372.24	641.31
372.44	662.37
372.63	746.63
372.83	791.10
373.03	751.31
373.22	777.06
373.42	695.14
373.62	765.36
373.81	720.88
374.01	725.57
374.21	856.64
374.40	819.19
374.60	861.32
374.79	784.08
374.99	788.76
375.19	826.21
375.38	833.23
375.58	887.06
375.78	847.27
375.97	760.67
376.17	884.72
376.37	823.87
376.56	861.32
376.76	887.06
376.95	894.08
377.15	840.25
377.35	910.47
377.54	971.32
377.74	821.53
377.93	849.61
378.13	912.81
378.33	943.24
378.52	915.15
378.72	957.28
378.91	943.24
379.11	985.37
379.31	894.08
379.50	968.98
379.70	999.41
379.89	985.37
380.09	917.49
380.28	994.73
380.48	1022.81
380.68	966.64
380.87	1004.09
381.07	933.87
381.26	1006.43
381.46	992.39
381.65	1020.47
381.85	1041.54
382.04	1062.60
382.24	1013.45
382.43	950.26
382.63	1083.67
382.83	961.96
383.02	1107.07
383.22	1121.12
383.41	1125.80
383.61	1139.84
383.80	1165.59
384.00	1083.67
384.19	1151.54
384.39	1174.95
384.58	1104.73
384.78	1242.82
384.97	1095.37
385.17	1221.76
385.36	1188.99
385.56	1172.61
385.75	1149.20
385.95	1226.44
386.14	1275.59
386.34	1224.10
386.53	1231.12
386.72	1167.93
386.92	1287.29
387.11	1158.57
387.31	1284.95
387.50	1179.63
387.70	1348.15
387.89	1219.42
388.09	1226.44
388.28	1238.14
388.48	1320.06
388.67	1287.29
388.86	1392.62
389.06	1324.74
389.25	1357.51
389.45	1472.20
389.64	1378.58
389.84	1334.11
390.03	1373.89
390.22	1427.73
390.42	1387.94
390.61	1427.73
390.81	1472.20
391.00	1385.60
391.19	1507.30
391.39	1519.01
391.58	1474.54
391.78	1441.77
391.97	1479.22
392.16	1432.41
392.36	1542.41
392.55	1544.75
392.75	1537.73
392.94	1411.34
393.13	1575.18
393.33	1446.45
393.52	1521.35
393.71	1540.07
393.91	1572.84
394.10	1631.35
394.29	1607.95
394.49	1591.56
394.68	1668.80
394.88	1570.50
395.07	1715.61
395.26	1696.89
395.46	1568.16
395.65	1715.61
395.84	1755.40
396.04	1746.04
396.23	1790.51
396.42	1776.47
396.62	1767.10
396.81	1813.92
397.00	1834.98
397.19	1834.98
397.39	1776.47
397.58	1842.00
397.77	1863.07
397.97	1926.26
398.16	1806.89
398.35	1879.45
398.55	1856.04
398.74	1916.90
398.93	1959.03
399.12	1884.13
399.32	1928.60
399.51	1905.20
399.70	2073.71
399.90	1952.01
400.09	1968.39
400.28	2083.08
400.47	1966.05
400.67	2073.71
400.86	2080.74
401.05	2181.38
401.24	2019.88
401.44	2083.08
401.63	2129.89
401.82	2111.16
402.01	2080.74
402.21	2225.85
402.40	2258.62
402.59	2062.01
402.78	2139.25
402.97	2239.89
403.17	2230.53
403.36	2284.36
403.55	2193.08
403.74	2471.61
403.93	2352.24
404.13	2375.64
404.32	2417.77
404.51	2415.43
404.70	2464.58
404.89	2520.76
405.09	2499.69
405.28	2532.46
405.47	2513.74
405.66	2511.39
405.85	2623.74
406.05	2546.50
406.24	2595.65
406.43	2574.59
406.62	2726.72
406.81	2736.09
407.00	2647.15
407.20	2562.89
407.39	2607.36
407.58	2670.55
407.77	2813.32
407.96	2841.41
408.15	2740.77
408.34	2780.56
408.54	2911.63
408.73	2822.69
408.92	2731.41
409.11	2928.01
409.30	2935.03
409.49	2911.63
409.68	2949.08
409.87	2899.92
410.07	3136.32
410.26	3061.42
410.45	2981.84
410.64	3014.61
410.83	3141.00
411.02	3166.74
411.21	3239.30
411.40	3070.78
411.59	3236.96
411.78	3211.22
411.98	3215.90
412.17	3293.13
412.36	3358.67
412.55	3295.47
412.74	3463.99
412.93	3473.36
413.12	3377.39
413.31	3674.64
413.50	3407.82
413.69	3548.25
413.88	3517.83
414.07	3588.04
414.26	3520.17
414.45	3721.45
414.64	3627.83
414.83	3747.20
415.02	3843.16
415.22	3829.12
415.41	4030.40
415.60	3854.86
415.79	3850.18
415.98	4016.36
416.17	3950.82
416.36	4021.04
416.55	4163.81
416.74	4084.23
416.93	4021.04
417.12	4098.28
417.31	4229.35
417.50	4210.62
417.69	4248.07
417.88	4404.89
418.07	4337.01
418.26	4454.04
418.45	4468.08
418.64	4430.63
418.83	4615.54
419.02	4503.19
419.21	4472.76
419.39	4571.07
419.58	4465.74
419.77	4468.08
419.96	4643.62
420.15	4697.46
420.34	4573.41
420.53	4573.41
420.72	4716.18
420.91	4594.47
421.10	4807.46
421.29	4966.62
421.48	4697.46
421.67	4833.21
421.86	4784.06
422.05	4884.70
422.24	4842.57
422.43	4915.12
422.61	5006.41
422.80	4947.89
422.99	4980.66
423.18	4896.40
423.37	5027.47
423.56	4919.81
423.75	5130.45
423.94	4828.53
424.13	4547.66
424.32	4837.89
424.50	4889.38
424.69	5275.57
424.88	5130.45
425.07	5177.26
425.26	4805.12
425.45	4978.32
425.64	4987.68
425.83	5001.72
426.01	5100.03
426.20	5081.30
426.39	5146.84
426.58	5158.54
426.77	5029.81
426.96	5156.20
427.15	5090.67
427.33	5259.18
427.52	5207.69
427.71	5378.55
427.90	5203.01
428.09	5380.89
428.28	5341.10
428.46	5479.19
428.65	5413.66
428.84	5469.83
429.03	5591.54
429.22	5291.95
429.40	5448.77
429.59	5411.32
429.78	5502.60
429.97	5355.15
430.16	5687.50
430.34	5596.22
430.53	5652.39
430.72	5930.92
430.91	5678.14
431.10	5722.61
431.28	5813.89
431.47	5891.13
431.66	5837.30
431.85	5757.72
432.03	6031.56
432.22	5937.94
432.41	5849.00
432.60	5947.30
432.79	5998.79
432.97	5940.28
433.16	6171.99
433.35	5959.00
433.54	6129.86
433.72	6040.92
433.91	6202.42
434.10	6169.65
434.28	5916.87
434.47	6298.38
434.66	6310.08
434.85	6310.08
435.03	6331.15
435.22	6349.87
435.41	6562.86
435.59	6452.86
435.78	6539.46
435.97	6478.60
436.16	6593.29
436.34	6359.24
436.53	6689.25
436.72	6764.15
436.90	6305.40
437.09	6780.53
437.28	6443.49
437.46	6672.87
437.65	6743.08
437.84	6771.17
438.02	6817.98
438.21	6752.45
438.40	6698.61
438.58	7063.74
438.77	7037.99
438.96	7145.66
439.14	7045.01
439.33	7218.21
439.52	7258.00
439.70	7241.62
439.89	7426.52
440.08	7447.58
440.26	7461.63
440.45	7349.28
440.63	7676.96
440.82	7793.98
441.01	7620.78
441.19	7538.87
441.38	7646.53
441.57	7702.70
441.75	7992.93
441.94	8135.70
442.12	7772.92
442.31	8114.64
442.50	8088.89
442.68	7964.84
442.87	8114.64
443.05	8255.07
443.24	8264.43
443.43	8004.63
443.61	8056.12
443.80	8629.56
443.98	8114.64
444.17	7960.16
444.35	8301.88
444.54	8578.06
444.73	8468.06
444.91	8456.36
445.10	8477.42
445.28	8521.89
445.47	8449.33
445.65	8435.29
445.84	8409.54
446.02	8535.93
446.21	8596.79
446.39	8489.12
446.58	8699.77
446.77	8730.20
446.95	8554.66
447.14	8484.44
447.32	8624.87
447.51	8540.61
447.69	8638.92
447.88	8599.13
448.06	8568.70
448.25	8723.18
448.43	8699.77
448.62	8769.99
448.80	8709.13
448.99	8746.58
449.17	8812.12
449.36	8667.00
449.54	9151.49
449.73	9046.17
449.91	9060.21
450.10	9053.19
450.28	9193.62
450.46	9078.94
450.65	9062.55
450.83	9228.73
451.02	9170.22
451.20	9453.42
451.39	9420.66
451.57	9179.58
451.76	9048.51
451.94	9476.83
452.13	9481.51
452.31	9434.70
452.49	9198.31
452.68	9643.01
452.86	9301.29
453.05	9614.92
453.23	9689.82
453.42	9420.66
453.60	9479.17
453.78	9521.30
453.97	9591.52
454.15	9455.76
454.34	9699.18
454.52	9699.18
454.70	9647.69
454.89	9832.59
455.07	9802.16
455.26	10029.20
455.44	9994.09
455.62	9923.87
455.81	10005.79
455.99	10003.45
456.17	10064.30
456.36	10207.08
456.54	10417.72
456.73	10139.20
456.91	10785.19
457.09	10579.22
457.28	10604.97
457.46	10520.71
457.64	10539.43
457.83	10464.54
458.01	10452.83
458.19	10740.72
458.38	10459.85
458.56	10696.25
458.74	10824.98
458.93	10888.17
459.11	10738.38
459.29	10902.22
459.48	11023.92
459.66	10911.58
459.84	10944.34
460.03	11140.95
460.21	11159.67
460.39	10965.41
460.57	11026.26
460.76	11225.21
460.94	11115.20
461.12	11360.96
461.31	11138.61
461.49	11293.08
461.67	11330.53
461.85	11639.48
462.04	11590.33
462.22	11405.43
462.40	11740.13
462.59	11836.09
462.77	11410.11
462.95	11800.98
463.13	11707.36
463.32	11744.81
463.50	11988.22
463.68	11920.35
463.86	11875.88
464.05	11737.79
464.23	11632.46
464.41	12201.21
464.59	11808.00
464.78	12131.00
464.96	12290.15
465.14	11772.89
465.32	11997.59
465.50	12341.64
465.69	12372.07
465.87	12154.40
466.05	12159.08
466.23	12421.22
466.41	12514.84
466.60	12608.47
466.78	12500.80
466.96	12343.99
467.14	12461.01
467.32	12524.21
467.51	12615.49
467.69	12428.24
467.87	12795.71
468.05	12688.04
468.23	12910.40
468.41	12751.24
468.60	12879.97
468.78	12856.56
468.96	12533.57
469.14	12940.82
469.32	13020.40
469.50	12809.75
469.69	13043.81
469.87	13270.84
470.05	13226.37
470.23	13163.17
470.41	13270.84
470.59	13490.85
470.77	13352.76
470.95	13256.79
471.14	13668.73
471.32	13406.59
471.50	13760.01
471.68	13659.37
471.86	13832.57
472.04	13914.48
472.22	14122.79
472.40	13727.24
472.58	13818.52
472.77	13895.76
472.95	14080.66
473.13	14640.05
473.31	14384.93
473.49	13963.64
473.67	14473.87
473.85	14562.81
474.03	14796.87
474.21	14551.11
474.39	14892.83
474.57	14803.89
474.75	15192.42
474.93	15166.67
475.12	15082.41
475.30	15346.89
475.48	15386.68
475.66	15222.84
475.84	15059.01
476.02	15604.35
476.20	15543.50
476.38	16049.05
476.56	16056.08
476.74	16269.06
476.92	16168.42
477.10	15962.45
477.28	16159.06
477.46	16556.95
477.64	16531.20
477.82	16875.26
478.00	17111.66
478.18	17111.66
478.36	17249.75
478.54	17329.33
478.72	17509.55
478.90	17481.46
479.08	17729.56
479.26	17706.15
479.44	17965.95
479.62	18366.18
479.80	18106.38
479.98	18499.59
480.16	18640.03
480.34	18424.70
480.52	18834.29
480.70	18913.87
480.88	18707.90
481.06	18977.06
481.24	19000.47
481.41	19236.86
481.59	19557.52
481.77	19829.02
481.95	19962.43
482.13	20123.93
482.31	20077.12
482.49	20372.02
482.67	20233.93
482.85	20549.90
483.03	20692.68
483.21	20823.75
483.39	21039.08
483.57	21167.80
483.74	21369.09
483.92	21443.99
484.10	21497.82
484.28	22125.08
484.46	22176.58
484.64	22614.26
484.82	22127.42
485.00	22249.13
485.18	23037.89
485.35	23321.10
485.53	23089.38
485.71	23180.67
485.89	23960.06
486.07	23548.13
486.25	23681.54
486.43	23625.37
486.61	23978.79
486.78	24294.76
486.96	24198.80
487.14	24975.86
487.32	24847.13
487.50	25165.44
487.68	25605.46
487.85	25570.35
488.03	25764.62
488.21	26359.11
488.39	26101.65
488.57	26359.11
488.75	26366.13
488.92	26761.69
489.10	26885.73
489.28	27096.38
489.46	27503.64
489.64	27676.83
489.81	27990.47
489.99	27779.82
490.17	27901.53
490.35	28388.36
490.53	28807.31
490.70	28758.16
490.88	29015.62
491.06	29163.08
491.24	28971.15
491.41	29223.93
491.59	29818.42
491.77	29755.23
491.95	29834.81
492.13	30522.93
492.30	30338.02
492.48	30326.32
492.66	30532.29
492.84	30328.66
493.01	31246.15
493.19	30705.49
493.37	31505.95
493.54	31559.78
493.72	31246.15
493.90	31566.81
494.08	32334.50
494.25	31995.12
494.43	32474.93
494.61	32765.16
494.79	32821.33
494.96	33069.43
495.14	33102.20
495.32	33153.69
495.49	33338.59
495.67	33687.33
495.85	33797.34
496.02	34117.99
496.20	34373.11
496.38	34022.03
496.55	34815.47
496.73	34888.03
496.91	34948.88
497.09	35395.92
497.26	35496.56
497.44	35463.80
497.62	35402.94
497.79	36142.55
497.97	35749.34
498.14	36488.95
498.32	36238.51
498.50	36790.88
498.67	36952.38
498.85	36671.51
499.03	37041.32
499.20	36842.37
499.38	37563.26
499.56	37317.50
499.73	37385.38
499.91	37806.67
500.08	38108.60
500.26	37563.26
500.44	38022.00
500.61	38115.62
500.79	38005.62
500.97	38394.15
501.14	38778.00
501.32	38869.28
501.49	39030.77
501.67	39414.62
501.84	39145.46
502.02	39541.01
502.20	39517.60
502.37	39636.97
502.55	39756.34
502.72	39915.50
502.90	39875.71
503.07	39735.27
503.25	40009.12
503.43	40126.14
503.60	40863.41
503.78	40402.33
503.95	40627.02
504.13	40748.73
504.30	41097.47
504.48	40547.44
504.65	40912.56
504.83	41228.54
505.01	41532.81
505.18	41652.17
505.36	41907.29
505.53	41757.50
505.71	41984.53
505.88	41511.74
506.06	41745.80
506.23	42164.75
506.41	42691.37
506.58	42419.87
506.76	42614.13
506.93	42794.36
507.11	42965.21
507.28	42588.39
507.46	43147.78
507.63	43550.35
507.81	43632.27
507.98	43189.91
508.16	43735.25
508.33	43707.16
508.50	44039.52
508.68	44083.99
508.85	44016.11
509.03	44222.08
509.20	44273.57
509.38	44409.32
509.55	45221.49
509.73	44626.99
509.90	45263.62
510.08	44828.28
510.25	45411.07
510.42	45146.59
510.60	45471.93
510.77	45738.75
510.95	45930.67
511.12	45666.19
511.30	45579.59
511.47	45893.22
511.64	45593.64
511.82	46286.43
511.99	45841.73
512.17	46405.80
512.34	46483.04
512.51	46794.33
512.69	46447.93
512.86	46894.97
513.04	47103.28
513.21	46845.82
513.38	47398.19
513.56	47452.02
513.73	46948.81
513.90	47379.46
514.08	47643.94
514.25	47728.20
514.43	47657.99
514.60	47931.83
514.77	47770.33
514.95	48196.31
515.12	48332.06
515.29	48198.65
515.47	48264.19
515.64	48210.35
515.81	48594.20
515.99	48765.06
516.16	48896.13
516.33	48814.21
516.51	49097.42
516.68	48987.41
516.85	48809.53
517.03	49401.69
517.20	49265.94
517.37	49041.24
517.54	49560.84
517.72	49518.71
517.89	49240.19
518.06	49584.25
518.24	49935.33
518.41	49921.29
518.58	49635.74
518.75	49691.91
518.93	50115.55
519.10	49804.26
519.27	50089.80
519.45	50113.21
519.62	50511.10
519.79	50618.77
519.96	50110.87
520.14	49947.03
520.31	50522.80
520.48	50712.39
520.65	50703.03
520.83	50951.12
521.00	51192.20
521.17	51011.98
521.34	50904.31
521.52	51002.61
521.69	50988.57
521.86	51229.65
522.03	51454.34
522.20	51767.97
522.38	51587.75
522.55	51615.83
522.72	51639.24
522.89	51929.47
523.07	51943.51
523.24	51924.78
523.41	51936.49
523.58	51861.59
523.75	51877.97
523.92	51995.00
524.10	52442.04
524.27	52479.49
524.44	52423.32
524.61	52444.38
524.78	52430.34
524.96	52594.18
525.13	52678.44
525.30	52741.63
525.47	52975.69
525.64	52720.57
525.81	52985.05
525.98	52982.71
526.16	52566.09
526.33	52502.90
526.50	53284.64
526.67	53057.60
526.84	53191.01
527.01	53069.31
527.18	53176.97
527.36	53476.56
527.53	53268.25
527.70	53546.78
527.87	53961.05
528.04	53535.07
528.21	53677.85
528.38	53673.16
528.55	53937.65
528.72	53495.28
528.89	53717.64
529.07	53773.81
529.24	53687.21
529.41	54021.90
529.58	53848.71
529.75	53748.06
529.92	54267.66
530.09	54190.42
530.26	54136.59
530.43	54321.49
530.60	53977.43
530.77	54169.36
530.94	54553.21
531.11	54330.86
531.28	54340.22
531.46	54763.85
531.63	54630.44
531.80	54625.76
531.97	54827.05
532.14	54602.36
532.31	54740.45
532.48	54717.04
532.65	55004.93
532.82	54789.60
532.99	54993.23
533.16	55117.28
533.33	55178.13
533.50	54979.18
533.67	54986.21
533.84	55002.59
534.01	55302.18
534.18	55274.09
534.35	55662.62
534.52	55393.46
534.69	55175.79
534.86	55487.08
535.03	55531.55
535.20	55606.45
535.37	55512.83
535.54	55606.45
535.71	55540.91
535.88	55643.90
536.05	55704.75
536.22	55992.64
536.38	55732.84
536.55	55882.63
536.72	55875.61
536.89	56074.55
537.06	55955.19
537.23	56041.79
537.40	55798.37
537.57	55955.19
537.74	56041.79
537.91	56222.01
538.08	55931.78
538.25	56343.72
538.42	56175.20
538.59	56334.35
538.75	56133.07
538.92	56317.97
539.09	56507.55
539.26	56427.98
539.43	56308.61
539.60	56486.49
539.77	56500.53
539.94	56811.82
540.11	56493.51
540.28	56849.27
540.44	56589.47
540.61	56449.04
540.78	56537.98
540.95	56568.41
541.12	56697.14
541.29	56732.25
541.46	56647.99
541.62	56727.56
541.79	56896.08
541.96	56797.78
542.13	56762.67
542.30	57003.75
542.47	57095.03
542.63	57148.86
542.80	57045.88
542.97	57305.68
543.14	57521.01
543.31	57268.23
543.48	57270.57
543.64	57860.38
543.81	57499.94
543.98	57492.92
544.15	57621.65
544.32	57942.30
544.48	57780.81
544.65	57806.55
544.82	57750.38
544.99	57579.52
545.16	57464.83
545.32	57708.25
545.49	57844.00
545.66	57886.13
545.83	57951.66
546.00	58134.23
546.16	58056.99
546.33	57623.99
546.50	57600.58
546.67	58176.36
546.83	57869.75
547.00	57937.62
547.17	57787.83
547.34	58056.99
547.50	58403.39
547.67	58433.81
547.84	58220.83
548.00	58494.67
548.17	58515.73
548.34	58590.63
548.51	58588.29
548.67	58611.70
548.84	58258.27
549.01	58473.60
549.18	58459.56
549.34	58562.54
549.51	58515.73
549.68	58686.59
549.84	58611.70
550.01	58513.39
550.18	58501.69
550.34	58749.79
550.51	58789.58
550.68	58663.19
550.84	58581.27
551.01	59011.93
551.18	58820.00
551.34	58925.33
551.51	58831.71
551.68	58714.68
551.84	58763.83
552.01	58784.90
552.18	58836.39
552.34	58702.98
552.51	59187.47
552.68	58770.85
552.84	58845.75
553.01	59285.77
553.18	59051.72
553.34	58969.80
553.51	58820.00
553.67	59210.87
553.84	59257.68
554.01	59082.14
554.17	59131.29
554.34	59267.05
554.51	59398.12
554.67	59229.60
554.84	59152.36
555.00	59217.89
555.17	58930.01
555.33	59320.88
555.50	59297.47
555.67	59316.20
555.83	59241.30
556.00	59341.94
556.16	59557.27
556.33	59442.59
556.50	59571.32
556.66	59634.51
556.83	59475.35
556.99	59636.85
557.16	59760.90
557.32	59730.47
557.49	59814.73
557.65	59756.22
557.82	59611.10
557.98	59688.34
558.15	59702.38
558.32	59812.39
558.48	59662.60
558.65	59674.30
558.81	59718.77
558.98	59681.32
559.14	59955.16
559.31	59735.15
559.47	59870.90
559.64	60137.72
559.80	59908.35
559.97	60196.24
560.13	59800.69
560.30	59891.97
560.46	60104.96
560.63	59999.63
560.79	60128.36
560.96	60041.76
561.12	60123.68
561.29	60172.83
561.45	60102.62
561.61	59945.80
561.78	60069.85
561.94	60030.06
562.11	60114.32
562.27	59807.71
562.44	60121.34
562.60	60327.31
562.77	60273.48
562.93	59976.23
563.10	60149.43
563.26	60107.30
563.42	60254.75
563.59	60079.21
563.75	60317.95
563.92	60369.44
564.08	60278.16
564.24	60451.36
564.41	60537.96
564.57	60486.46
564.74	60439.65
564.90	60521.57
565.07	60292.20
565.23	60406.89
565.39	60266.45
565.56	60299.22
565.72	60378.80
565.88	60275.82
566.05	60287.52
566.21	60285.18
566.38	60406.89
566.54	60526.25
566.70	60526.25
566.87	60547.32
567.03	60502.85
567.19	60647.96
567.36	60701.79
567.52	60495.83
567.68	60715.84
567.85	60636.26
568.01	60734.56
568.17	60563.70
568.34	60811.80
568.50	60521.57
568.66	60449.02
568.83	60603.49
568.99	60608.17
569.15	60678.39
569.32	60739.24
569.48	60680.73
569.64	60664.35
569.81	60699.45
569.97	60523.91
570.13	60800.10
570.30	60619.88
570.46	60673.71
570.62	60910.10
570.78	60900.74
570.95	60699.45
571.11	60774.35
571.27	60687.75
571.43	60678.39
571.60	60837.54
571.76	60959.25
571.92	60954.57
572.09	60736.90
572.25	60870.31
572.41	60814.14
572.57	60844.57
572.74	60860.95
572.90	60882.02
573.06	60917.12
573.22	60748.60
573.38	60727.54
573.55	60942.87
573.71	60977.98
573.87	60879.67
574.03	60711.16
574.20	61034.15
574.36	60910.10
574.52	60905.42
574.68	60687.75
574.84	61179.26
575.01	60877.33
575.17	60912.44
575.33	60793.07
575.49	60842.23
575.65	61038.83
575.82	61127.77
575.98	61006.06
576.14	61104.37
576.30	61212.03
576.46	61003.72
576.62	60884.36
576.79	60947.55
576.95	61006.06
577.11	61095.00
577.27	61188.63
577.43	61104.37
577.59	60963.93
577.75	60938.19
577.92	60917.12
578.08	61057.56
578.24	61132.45
578.40	61064.58
578.56	61036.49
578.72	61148.84
578.88	61324.38
579.04	61205.01
579.21	61008.40
579.37	61183.94
579.53	61216.71
579.69	60844.57
579.85	61214.37
580.01	60863.29
580.17	61050.53
580.33	61277.57
580.49	61130.11
580.65	61286.93
580.82	61207.35
580.98	61041.17
581.14	61034.15
581.30	61291.61
581.46	61216.71
581.62	61275.22
581.78	61109.05
581.94	61165.22
582.10	61001.38
582.26	61059.90
582.42	61158.20
582.58	61235.44
582.74	61095.00
582.90	61237.78
583.06	61212.03
583.22	61022.45
583.38	61165.22
583.54	61193.31
583.70	61188.63
583.86	61336.08
584.02	60900.74
584.18	61432.04
584.34	61272.88
584.50	61153.52
584.66	61244.80
584.82	61106.71
584.98	61268.20
585.14	61319.70
585.30	61127.77
585.46	61240.12
585.62	61322.04
585.78	61504.60
585.94	61176.92
586.10	61202.67
586.26	61380.55
586.42	61408.64
586.58	61221.39
586.74	61272.88
586.90	61226.07
587.06	61174.58
587.22	61233.10
587.38	61111.39
587.54	61375.87
587.70	61464.81
587.86	61399.27
588.02	61176.92
588.18	61474.17
588.34	61125.43
588.49	61272.88
