SpectraSuite Data File
++++++++++++++++++++++++++++++++++++
Date: Fri Oct 25 11:25:10 EDT 2013
User: price-jones
Dark Spectrum Present: No
Reference Spectrum Present: No
Number of Sampled Component Spectra: 1
Spectrometers: USB2+H05261
Integration Time (usec): 100000 (USB2+H05261)
Spectra Averaged: 1 (USB2+H05261)
Boxcar Smoothing: 0 (USB2+H05261)
Correct for Electrical Dark: No (USB2+H05261)
Strobe/Lamp Enabled: No (USB2+H05261)
Correct for Detector Non-linearity: No (USB2+H05261)
Correct for Stray Light: No (USB2+H05261)
Number of Pixels in Processed Spectrum: 2048
>>>>>Begin Processed Spectral Data<<<<<
365.73	198.95
365.92	198.95
366.12	198.95
366.32	119.37
366.52	86.60
366.72	145.11
366.91	180.22
367.11	44.47
367.31	128.73
367.51	65.54
367.70	117.03
367.90	102.98
368.10	46.81
368.30	128.73
368.49	177.88
368.69	128.73
368.89	161.50
369.09	175.54
369.28	133.41
369.48	95.96
369.68	173.20
369.87	227.03
370.07	149.79
370.27	257.46
370.47	294.91
370.66	589.82
370.86	688.12
371.06	692.80
371.25	585.13
371.45	592.16
371.65	636.63
371.84	660.03
372.04	634.29
372.24	645.99
372.44	690.46
372.63	730.25
372.83	676.41
373.03	739.61
373.22	788.76
373.42	802.80
373.62	805.14
373.81	741.95
374.01	786.42
374.21	784.08
374.40	807.48
374.60	793.44
374.79	814.51
374.99	875.36
375.19	833.23
375.38	786.42
375.58	739.61
375.78	896.43
375.97	866.00
376.17	922.17
376.37	819.19
376.56	873.02
376.76	882.38
376.95	866.00
377.15	910.47
377.35	863.66
377.54	924.51
377.74	910.47
377.93	952.60
378.13	856.64
378.33	999.41
378.52	889.40
378.72	952.60
378.91	964.30
379.11	917.49
379.31	929.19
379.50	1011.11
379.70	978.34
379.89	997.07
380.09	954.94
380.28	915.15
380.48	873.02
380.68	924.51
380.87	929.19
381.07	1004.09
381.26	931.53
381.46	1097.71
381.65	968.98
381.85	1057.92
382.04	985.37
382.24	1111.75
382.43	1032.18
382.63	1071.97
382.83	1125.80
383.02	1100.05
383.22	1135.16
383.41	1039.20
383.61	1100.05
383.80	1114.10
384.00	1053.24
384.19	1095.37
384.39	1172.61
384.58	1139.84
384.78	1158.57
384.97	1153.88
385.17	1078.99
385.36	1102.39
385.56	1205.38
385.75	1179.63
385.95	1156.22
386.14	1172.61
386.34	1191.33
386.53	1280.27
386.72	1163.25
386.92	1266.23
387.11	1270.91
387.31	1256.87
387.50	1240.48
387.70	1214.74
387.89	1247.51
388.09	1284.95
388.28	1294.32
388.48	1181.97
388.67	1357.51
388.86	1378.58
389.06	1352.83
389.25	1270.91
389.45	1327.08
389.64	1413.68
389.84	1327.08
390.03	1320.06
390.22	1341.13
390.42	1294.32
390.61	1371.55
390.81	1336.45
391.00	1343.47
391.19	1420.71
391.39	1437.09
391.58	1465.18
391.78	1453.47
391.97	1444.11
392.16	1488.58
392.36	1376.24
392.55	1537.73
392.75	1430.07
392.94	1453.47
393.13	1500.28
393.33	1500.28
393.52	1535.39
393.71	1600.93
393.91	1570.50
394.10	1497.94
394.29	1589.22
394.49	1521.35
394.68	1638.38
394.88	1647.74
395.07	1710.93
395.26	1647.74
395.46	1664.12
395.65	1717.95
395.84	1647.74
396.04	1713.27
396.23	1874.77
396.42	1776.47
396.62	1830.30
396.81	1767.10
397.00	1788.17
397.19	1746.04
397.39	1760.08
397.58	1753.06
397.77	1699.23
397.97	1823.28
398.16	1739.02
398.35	1891.15
398.55	1755.40
398.74	1935.62
398.93	1933.28
399.12	1877.11
399.32	1902.86
399.51	1930.94
399.70	2036.27
399.90	1944.99
400.09	1975.41
400.28	2033.93
400.47	1961.37
400.67	2047.97
400.86	2076.06
401.05	2101.80
401.24	2071.37
401.44	2277.34
401.63	2125.21
401.82	2134.57
402.01	2150.95
402.21	2111.16
402.40	2090.10
402.59	2284.36
402.78	2204.78
402.97	2300.75
403.17	2286.70
403.36	2176.70
403.55	2282.02
403.74	2267.98
403.93	2300.75
404.13	2321.81
404.32	2368.62
404.51	2338.20
404.70	2235.21
404.89	2258.62
405.09	2443.52
405.28	2513.74
405.47	2565.23
405.66	2476.29
405.85	2485.65
406.05	2605.02
406.24	2469.27
406.43	2600.34
406.62	2595.65
406.81	2621.40
407.00	2534.80
407.20	2600.34
407.39	2712.68
407.58	2696.30
407.77	2726.72
407.96	2761.83
408.15	2806.30
408.34	2612.04
408.54	2750.13
408.73	2825.03
408.92	2775.88
409.11	2860.13
409.30	2960.78
409.49	2810.98
409.68	3021.63
409.87	2888.22
410.07	2918.65
410.26	2960.78
410.45	2930.35
410.64	2986.52
410.83	2939.71
411.02	2986.52
411.21	3033.33
411.40	3220.58
411.59	3119.93
411.78	3131.64
411.98	3159.72
412.17	3258.03
412.36	3255.69
412.55	3311.86
412.74	3274.41
412.93	3435.91
413.12	3342.28
413.31	3574.00
413.50	3391.44
413.69	3386.76
413.88	3515.48
414.07	3599.74
414.26	3648.90
414.45	3569.32
414.64	3538.89
414.83	3627.83
415.02	3772.94
415.22	3819.75
415.41	3829.12
415.60	3868.91
415.79	4030.40
415.98	3985.93
416.17	3988.27
416.36	3983.59
416.55	4086.58
416.74	3831.46
416.93	4025.72
417.12	4159.13
417.31	4081.89
417.50	4128.70
417.69	4217.65
417.88	4311.27
418.07	4264.46
418.26	4229.35
418.45	4292.54
418.64	4451.70
418.83	4449.36
419.02	4489.15
419.21	4484.47
419.39	4552.34
419.58	4484.47
419.77	4425.95
419.96	4475.10
420.15	4678.73
420.34	4542.98
420.53	4573.41
420.72	4575.75
420.91	4571.07
421.10	4470.42
421.29	4922.15
421.48	4660.01
421.67	4758.31
421.86	4711.50
422.05	4765.33
422.24	4840.23
422.43	4730.22
422.61	4901.08
422.80	5013.43
422.99	4940.87
423.18	4947.89
423.37	5018.11
423.56	4971.30
423.75	4823.84
423.94	4674.05
424.13	4610.86
424.32	4596.81
424.50	5008.75
424.69	5205.35
424.88	5004.07
425.07	4910.44
425.26	4894.06
425.45	4966.62
425.64	4910.44
425.83	4931.51
426.01	5050.88
426.20	5032.15
426.39	5064.92
426.58	5048.54
426.77	4952.57
426.96	5107.05
427.15	5013.43
427.33	5352.81
427.52	5144.50
427.71	5310.68
427.90	5018.11
428.09	5252.16
428.28	5352.81
428.46	5273.23
428.65	5313.02
428.84	5493.24
429.03	5474.51
429.22	5315.36
429.40	5465.15
429.59	5277.91
429.78	5217.05
429.97	5308.34
430.16	5401.96
430.34	5717.93
430.53	5736.65
430.72	5628.99
430.91	5500.26
431.10	5551.75
431.28	5769.42
431.47	5783.46
431.66	5898.15
431.85	5593.88
432.03	5762.40
432.22	5771.76
432.41	5975.39
432.60	5916.87
432.79	5734.31
432.97	5935.60
433.16	6005.81
433.35	6118.16
433.54	5940.28
433.72	6157.95
433.91	5998.79
434.10	5998.79
434.28	5989.43
434.47	6064.33
434.66	6314.77
434.85	6319.45
435.03	6141.57
435.22	6179.01
435.41	6464.56
435.59	6246.89
435.78	6338.17
435.97	6307.74
436.16	6274.98
436.34	6359.24
436.53	6469.24
436.72	6628.40
436.90	6438.81
437.09	6675.21
437.28	6244.55
437.46	6473.92
437.65	6473.92
437.84	6679.89
438.02	6621.38
438.21	6754.79
438.40	6661.16
438.58	6829.68
438.77	6902.24
438.96	6707.98
439.14	6909.26
439.33	7218.21
439.52	7075.44
439.70	7101.19
439.89	7084.80
440.08	7300.13
440.26	7265.02
440.45	7335.24
440.63	7630.15
440.82	7620.78
441.01	7527.16
441.19	7496.74
441.38	7588.02
441.57	7595.04
441.75	7742.49
441.94	7749.51
442.12	8112.30
442.31	7889.95
442.50	7913.35
442.68	7801.01
442.87	7714.41
443.05	8081.87
443.24	7976.55
443.43	7887.61
443.61	8208.26
443.80	8376.78
443.98	7983.57
444.17	7772.92
444.35	8198.90
444.54	8294.86
444.73	8016.33
444.91	8208.26
445.10	8259.75
445.28	8372.10
445.47	8180.17
445.65	8159.11
445.84	8156.77
446.02	8510.19
446.21	8329.97
446.39	8280.82
446.58	8451.67
446.77	8463.38
446.95	8116.98
447.14	8400.18
447.32	8507.85
447.51	8327.63
447.69	8472.74
447.88	8498.49
448.06	8451.67
448.25	8524.23
448.43	8552.32
448.62	8482.10
448.80	8339.33
448.99	8432.95
449.17	8568.70
449.36	8524.23
449.54	8702.11
449.73	8606.15
449.91	8908.08
450.10	8938.51
450.28	9013.40
450.46	9027.45
450.65	8816.80
450.83	9128.09
451.02	8952.55
451.20	9193.62
451.39	8858.93
451.57	8931.48
451.76	9107.02
451.94	9097.66
452.13	9270.86
452.31	9043.83
452.49	9083.62
452.68	9537.68
452.86	9256.82
453.05	9277.88
453.23	9439.38
453.42	9343.42
453.60	9399.59
453.78	9455.76
453.97	9289.59
454.15	9490.87
454.34	9357.46
454.52	9671.09
454.70	9710.88
454.89	9745.99
455.07	9678.12
455.26	9589.17
455.44	10031.54
455.62	9692.16
455.81	9673.43
455.99	9729.61
456.17	9881.74
456.36	10071.33
456.54	10050.26
456.73	10242.18
456.91	10377.94
457.09	10333.47
457.28	10420.06
457.46	10281.97
457.64	10319.42
457.83	10445.81
458.01	10401.34
458.19	10595.61
458.38	10530.07
458.56	10544.11
458.74	10485.60
458.93	10466.88
459.11	10544.11
459.29	10656.46
459.48	10787.53
459.66	10675.18
459.84	10899.87
460.03	11030.94
460.21	10703.27
460.39	11019.24
460.57	10906.90
460.76	11211.17
460.94	11286.06
461.12	11052.01
461.31	11061.37
461.49	10984.13
461.67	11005.20
461.85	11382.03
462.04	11363.30
462.22	11515.44
462.40	11452.24
462.59	11164.36
462.77	11534.16
462.95	11520.12
463.13	11461.60
463.32	11590.33
463.50	11758.85
463.68	11800.98
463.86	11791.62
464.05	11463.94
464.23	11555.22
464.41	11847.79
464.59	11637.14
464.78	12170.79
464.96	11798.64
465.14	11777.58
465.32	11758.85
465.50	11903.96
465.69	11903.96
465.87	12077.16
466.05	11974.18
466.23	12250.36
466.41	12046.74
466.60	12519.53
466.78	12138.02
466.96	12121.63
467.14	12114.61
467.32	12397.82
467.51	12365.05
467.69	12032.69
467.87	12322.92
468.05	12676.34
468.23	12414.20
468.41	12425.90
468.60	12559.31
468.78	12596.76
468.96	12280.79
469.14	12788.69
469.32	12634.21
469.50	12575.70
469.69	12720.81
469.87	12950.18
470.05	12954.87
470.23	12933.80
470.41	13188.92
470.59	13249.77
470.77	13055.51
470.95	13259.13
471.14	13153.81
471.32	13053.17
471.50	13460.42
471.68	13563.40
471.86	13322.33
472.04	13465.10
472.22	13888.74
472.40	13767.03
472.58	13699.16
472.77	14008.11
472.95	14239.82
473.13	14476.21
473.31	14008.11
473.49	14054.92
473.67	14253.86
473.85	14340.46
474.03	14494.94
474.21	14558.13
474.39	14623.67
474.57	14588.56
474.75	14389.61
474.93	14806.23
475.12	14630.69
475.30	15026.24
475.48	15103.48
475.66	15040.28
475.84	14881.13
476.02	15459.24
476.20	15370.30
476.38	15489.67
476.56	16027.99
476.74	15829.04
476.92	15805.64
477.10	15817.34
477.28	15887.56
477.46	16009.26
477.64	16273.74
477.82	16578.01
478.00	16971.22
478.18	16755.90
478.36	16889.31
478.54	17041.44
478.72	17212.30
478.90	17469.76
479.08	17205.28
479.26	17511.89
479.44	17572.74
479.62	17804.46
479.80	17806.80
479.98	18031.49
480.16	18642.37
480.34	18401.29
480.52	18637.69
480.70	18621.30
480.88	18237.45
481.06	18546.40
481.24	18387.25
481.41	19012.17
481.59	18878.76
481.77	19435.81
481.95	19047.28
482.13	19627.73
482.31	19653.48
482.49	20175.42
482.67	20149.67
482.85	20355.64
483.03	20484.37
483.21	20627.14
483.39	20680.97
483.57	20577.99
483.74	20952.48
483.92	21516.54
484.10	21287.17
484.28	21401.86
484.46	21802.09
484.64	21853.58
484.82	21884.01
485.00	22221.05
485.18	22616.60
485.35	22651.70
485.53	22530.00
485.71	22312.33
485.89	23321.10
486.07	23033.21
486.25	23112.79
486.43	23538.77
486.61	23470.89
486.78	23726.01
486.96	24119.22
487.14	24327.53
487.32	24374.34
487.50	24924.36
487.68	24720.74
487.85	25034.37
488.03	25425.24
488.21	25818.45
488.39	25661.63
488.57	26239.75
488.75	25841.85
488.92	26235.06
489.10	26389.54
489.28	26277.19
489.46	26895.10
489.64	26937.23
489.81	27321.07
489.99	27325.75
490.17	27468.53
490.35	27990.47
490.53	27934.29
490.70	27920.25
490.88	28287.71
491.06	28631.77
491.24	28844.76
491.41	28917.32
491.59	29287.12
491.77	29385.43
491.95	29088.18
492.13	29411.17
492.30	29752.89
492.48	29783.32
492.66	29839.49
492.84	29951.84
493.01	30401.22
493.19	30569.74
493.37	30686.76
493.54	31075.29
493.72	31147.85
493.90	31206.36
494.08	31428.71
494.25	31641.70
494.43	31885.12
494.61	31866.39
494.79	32212.79
494.96	32400.04
495.14	32467.91
495.32	32870.48
495.49	32835.38
495.67	33048.36
495.85	33017.94
496.02	33598.39
496.20	33844.15
496.38	33516.47
496.55	33680.31
496.73	34628.23
496.91	34265.44
497.09	34567.37
497.26	34223.31
497.44	34436.30
497.62	35028.46
497.79	35548.06
497.97	35110.38
498.14	35796.15
498.32	35353.79
498.50	35931.90
498.67	36170.64
498.85	36243.20
499.03	36292.35
499.20	36526.40
499.38	36339.16
499.56	36507.68
499.73	36943.02
499.91	36456.18
500.08	37612.41
500.26	37083.45
500.44	37289.42
500.61	37713.05
500.79	37649.86
500.97	37614.75
501.14	38057.11
501.32	38288.82
501.49	38375.42
501.67	38607.14
501.84	38625.86
502.02	38621.18
502.20	38958.22
502.37	39112.69
502.55	38918.43
502.72	39068.22
502.90	39257.81
503.07	39452.07
503.25	39613.57
503.43	39342.06
503.60	39845.28
503.78	39606.55
503.95	39974.01
504.13	40226.79
504.30	40353.18
504.48	40196.36
504.65	40446.80
504.83	40828.30
505.01	40980.44
505.18	40891.50
505.36	41621.75
505.53	40947.67
505.71	40985.12
505.88	41301.09
506.06	41418.12
506.23	41792.61
506.41	41682.60
506.58	41954.10
506.76	41823.03
506.93	42256.03
507.11	41886.23
507.28	42412.85
507.46	41979.85
507.63	42607.11
507.81	43009.68
507.98	42249.01
508.16	42557.96
508.33	43407.58
508.50	43037.77
508.68	43372.47
508.85	43391.19
509.03	43508.22
509.20	43779.72
509.38	43861.64
509.55	43931.86
509.73	44360.17
509.90	44439.75
510.08	43793.76
510.25	44254.85
510.42	44669.12
510.60	44648.06
510.77	44727.64
510.95	45195.74
511.12	45495.33
511.30	44821.26
511.47	45055.31
511.64	44966.37
511.82	45497.67
511.99	45242.56
512.17	45764.49
512.34	45364.26
512.51	45909.61
512.69	46337.93
512.86	45949.40
513.04	46246.65
513.21	46113.23
513.38	46639.86
513.56	46576.66
513.73	46202.18
513.90	46679.64
514.08	46342.61
514.25	46602.41
514.43	47192.22
514.60	47278.82
514.77	46934.76
514.95	47576.07
515.12	47437.98
515.29	47140.73
515.47	47414.57
515.64	47697.78
515.81	47590.11
515.99	47901.40
516.16	48065.24
516.33	48191.63
516.51	48165.88
516.68	48025.45
516.85	48350.79
517.03	48657.40
517.20	48760.38
517.37	48409.30
517.54	48722.93
517.72	49076.35
517.89	48877.41
518.06	49389.98
518.24	48924.22
518.41	49097.42
518.58	49045.93
518.75	49125.50
518.93	48893.79
519.10	49179.34
519.27	49595.95
519.45	49544.46
519.62	49736.38
519.79	49638.08
519.96	49736.38
520.14	49888.52
520.31	49799.58
520.48	50195.13
520.65	50038.31
520.83	50600.04
521.00	50298.11
521.17	50052.36
521.34	50089.80
521.52	50375.35
521.69	50731.11
521.86	50628.13
522.03	50780.26
522.20	50658.56
522.38	51557.32
522.55	51327.95
522.72	50918.35
522.89	51145.39
523.07	51152.41
523.24	51587.75
523.41	51576.04
523.58	51606.47
523.75	51866.27
523.92	51356.03
524.10	51653.28
524.27	51840.53
524.44	51700.09
524.61	51641.58
524.78	51938.83
524.96	51639.24
525.13	51962.23
525.30	51973.94
525.47	52032.45
525.64	52179.90
525.81	52481.83
525.98	52479.49
526.16	52376.51
526.33	52619.92
526.50	52605.88
526.67	52507.58
526.84	52758.02
527.01	52549.71
527.18	52631.63
527.36	52664.39
527.53	52776.74
527.70	53233.14
527.87	53095.05
528.04	52687.80
528.21	53104.41
528.38	53141.86
528.55	53275.27
528.72	53212.08
528.89	53153.57
529.07	53111.44
529.24	53071.65
529.41	53373.58
529.58	53474.22
529.75	53324.43
529.92	53563.16
530.09	53722.32
530.26	53778.49
530.43	53865.09
530.60	53394.64
530.77	53450.81
530.94	53965.73
531.11	53977.43
531.28	53701.25
531.46	53752.74
531.63	53986.80
531.80	53724.66
531.97	54176.38
532.14	54096.80
532.31	54064.03
532.48	54335.54
532.65	54377.67
532.82	54298.09
532.99	54541.50
533.16	54410.43
533.33	54490.01
533.50	54834.07
533.67	54515.76
533.84	54335.54
534.01	54646.83
534.18	54649.17
534.35	55042.38
534.52	54660.87
534.69	54920.67
534.86	54768.54
535.03	54695.98
535.20	54918.33
535.37	55082.17
535.54	55100.89
535.71	55178.13
535.88	55208.56
536.05	55461.33
536.22	55152.38
536.38	55473.04
536.55	55117.28
536.72	55447.29
536.89	55489.42
537.06	55473.04
537.23	55660.28
537.40	55236.64
537.57	55587.72
537.74	55576.02
537.91	55807.73
538.08	55735.18
538.25	55594.74
538.42	55430.91
538.59	55915.40
538.75	55646.24
538.92	55927.10
539.09	56095.62
539.26	55901.36
539.43	55739.86
539.60	55863.91
539.77	55833.48
539.94	55999.66
540.11	56095.62
540.28	56336.69
540.44	56224.35
540.61	56458.40
540.78	56271.16
540.95	56268.82
541.12	56151.79
541.29	56296.91
541.46	56310.95
541.62	56346.06
541.79	56493.51
541.96	56456.06
542.13	56339.04
542.30	56245.41
542.47	56750.97
542.63	56526.28
542.80	56973.32
542.97	56793.10
543.14	56683.09
543.31	57111.41
543.48	56830.55
543.64	57539.73
543.81	57190.99
543.98	57221.42
544.15	57167.58
544.32	57176.95
544.48	57371.21
544.65	57015.45
544.82	57340.78
544.99	56992.04
545.16	57272.91
545.32	56987.36
545.49	57462.49
545.66	57539.73
545.83	57460.15
546.00	57464.83
546.16	57542.07
546.33	57361.85
546.50	57347.81
546.67	57579.52
546.83	57237.80
547.00	57544.41
547.17	57605.26
547.34	57474.20
547.50	57584.20
547.67	57818.25
547.84	57762.08
548.00	58040.60
548.17	58171.67
548.34	57778.46
548.51	58106.14
548.67	57757.40
548.84	57853.36
549.01	57989.11
549.18	58033.58
549.34	58082.73
549.51	58066.35
549.68	58038.26
549.84	58162.31
550.01	58230.19
550.18	58000.82
550.34	58190.40
550.51	58349.56
550.68	58251.25
550.84	58117.84
551.01	58401.05
551.18	58464.24
551.34	58195.08
551.51	58319.13
551.68	58497.01
551.84	58436.16
552.01	58351.90
552.18	58714.68
552.34	58326.15
552.51	58747.45
552.68	58429.13
552.84	58684.25
553.01	58700.64
553.18	58705.32
553.34	58653.82
553.51	58546.16
553.67	58555.52
553.84	58621.06
554.01	58663.19
554.17	58829.37
554.34	58803.62
554.51	58607.01
554.67	58623.40
554.84	59000.22
555.00	58997.88
555.17	58782.55
555.33	58925.33
555.50	58810.64
555.67	58906.60
555.83	58773.19
556.00	58993.20
556.16	59147.68
556.33	59126.61
556.50	59007.25
556.66	59119.59
556.83	58925.33
556.99	59288.11
557.16	59229.60
557.32	59292.79
557.49	59379.39
557.65	59047.04
557.82	59208.53
557.98	59138.32
558.15	59269.39
558.32	59276.41
558.48	59299.81
558.65	59227.26
558.81	59311.52
558.98	59178.10
559.14	59323.22
559.31	59547.91
559.47	59388.75
559.64	59629.83
559.80	59355.99
559.97	59583.02
560.13	59531.53
560.30	59454.29
560.46	59484.72
560.63	59784.30
560.79	59538.55
560.96	59693.02
561.12	59667.28
561.29	59753.88
561.45	59664.94
561.61	59465.99
561.78	59669.62
561.94	59477.69
562.11	59711.75
562.27	59671.96
562.44	59751.54
562.60	59751.54
562.77	59721.11
562.93	59620.47
563.10	59910.69
563.26	59723.45
563.42	59849.84
563.59	59805.37
563.75	59856.86
563.92	59934.10
564.08	59779.62
564.24	60013.68
564.41	59936.44
564.57	59985.59
564.74	60074.53
564.90	60083.89
565.07	60020.70
565.23	60121.34
565.39	59994.95
565.56	60196.24
565.72	60109.64
565.88	59824.09
566.05	60058.15
566.21	60060.49
566.38	60191.56
566.54	60111.98
566.70	60154.11
566.87	60158.79
567.03	60104.96
567.19	60093.25
567.36	60107.30
567.52	60046.44
567.68	60378.80
567.85	60327.31
568.01	60207.94
568.17	60147.09
568.34	60135.38
568.50	60170.49
568.66	60123.68
568.83	60172.83
568.99	60135.38
569.15	60100.28
569.32	60331.99
569.48	60264.11
569.64	60334.33
569.81	60287.52
569.97	60214.96
570.13	60133.04
570.30	60020.70
570.46	60456.04
570.62	60250.07
570.78	60257.09
570.95	60252.41
571.11	60603.49
571.27	60285.18
571.43	60395.18
571.60	60416.25
571.76	60331.99
571.92	60182.19
572.09	60339.01
572.25	60329.65
572.41	60322.63
572.57	60275.82
572.74	60544.98
572.90	60353.05
573.06	60488.80
573.22	60437.31
573.38	60280.50
573.55	60322.63
573.71	60610.51
573.87	60636.26
574.03	60453.70
574.20	60608.17
574.36	60456.04
574.52	60509.87
574.68	60456.04
574.84	60563.70
575.01	60582.43
575.17	60505.19
575.33	60643.28
575.49	60449.02
575.65	60495.83
575.82	60533.28
575.98	60741.58
576.14	60818.82
576.30	60570.72
576.46	60413.91
576.62	60552.00
576.79	60456.04
576.95	60203.26
577.11	60858.61
577.27	60823.50
577.43	60589.45
577.59	60568.38
577.75	60591.79
577.92	60388.16
578.08	60643.28
578.24	60633.92
578.40	60741.58
578.56	60872.65
578.72	60853.93
578.88	60800.10
579.04	60863.29
579.21	60736.90
579.37	60903.08
579.53	60863.29
579.69	60589.45
579.85	60509.87
580.01	60552.00
580.17	60755.63
580.33	60650.30
580.49	60807.12
580.65	60769.67
580.82	60530.93
580.98	60563.70
581.14	60694.77
581.30	60662.00
581.46	60750.94
581.62	60863.29
581.78	60605.83
581.94	60879.67
582.10	60598.81
582.26	60816.48
582.42	60732.22
582.58	60734.56
582.74	60647.96
582.90	60633.92
583.06	60650.30
583.22	60732.22
583.38	60589.45
583.54	60903.08
583.70	60882.02
583.86	60910.10
584.02	60669.03
584.18	60870.31
584.34	61116.07
584.50	60800.10
584.66	60910.10
584.82	60706.47
584.98	60940.53
585.14	60755.63
585.30	60729.88
585.46	60844.57
585.62	60694.77
585.78	60779.03
585.94	60650.30
586.10	61097.34
586.26	60896.06
586.42	60879.67
586.58	61036.49
586.74	60910.10
586.90	60788.39
587.06	60921.80
587.22	61069.26
587.38	60893.72
587.54	61104.37
587.70	60970.96
587.86	60921.80
588.02	60985.00
588.18	61055.21
588.34	60954.57
588.49	60931.17
