SpectraSuite Data File
++++++++++++++++++++++++++++++++++++
Date: Fri Oct 25 11:23:30 EDT 2013
User: price-jones
Dark Spectrum Present: No
Reference Spectrum Present: No
Number of Sampled Component Spectra: 1
Spectrometers: USB2+H05261
Integration Time (usec): 100000 (USB2+H05261)
Spectra Averaged: 1 (USB2+H05261)
Boxcar Smoothing: 0 (USB2+H05261)
Correct for Electrical Dark: No (USB2+H05261)
Strobe/Lamp Enabled: No (USB2+H05261)
Correct for Detector Non-linearity: No (USB2+H05261)
Correct for Stray Light: No (USB2+H05261)
Number of Pixels in Processed Spectrum: 2048
>>>>>Begin Processed Spectral Data<<<<<
365.73	208.31
365.92	208.31
366.12	208.31
366.32	128.73
366.52	112.35
366.72	147.45
366.91	117.03
367.11	138.09
367.31	149.79
367.51	105.32
367.70	107.66
367.90	170.86
368.10	126.39
368.30	149.79
368.49	95.96
368.69	107.66
368.89	138.09
369.09	166.18
369.28	191.92
369.48	189.58
369.68	135.75
369.87	177.88
370.07	184.90
370.27	241.08
370.47	318.31
370.66	634.29
370.86	613.22
371.06	734.93
371.25	594.50
371.45	664.71
371.65	741.95
371.84	655.35
372.04	603.86
372.24	678.76
372.44	634.29
372.63	688.12
372.83	746.63
373.03	758.33
373.22	781.74
373.42	709.18
373.62	772.38
373.81	809.83
374.01	814.51
374.21	739.61
374.40	800.46
374.60	908.13
374.79	835.57
374.99	784.08
375.19	844.93
375.38	903.45
375.58	870.68
375.78	840.25
375.97	849.61
376.17	819.19
376.37	828.55
376.56	861.32
376.76	861.32
376.95	800.46
377.15	896.43
377.35	880.04
377.54	894.08
377.74	842.59
377.93	894.08
378.13	910.47
378.33	929.19
378.52	947.92
378.72	901.11
378.91	891.74
379.11	915.15
379.31	877.70
379.50	1015.79
379.70	971.32
379.89	954.94
380.09	898.77
380.28	922.17
380.48	997.07
380.68	971.32
380.87	894.08
381.07	1020.47
381.26	1064.94
381.46	1057.92
381.65	950.26
381.85	1043.88
382.04	1060.26
382.24	1041.54
382.43	1095.37
382.63	1015.79
382.83	1043.88
383.02	1046.22
383.22	1109.41
383.41	1114.10
383.61	1090.69
383.80	1144.52
384.00	1146.86
384.19	1153.88
384.39	1144.52
384.58	1095.37
384.78	1074.31
384.97	1210.06
385.17	1086.01
385.36	1050.90
385.56	1231.12
385.75	1156.22
385.95	1212.40
386.14	1277.93
386.34	1090.69
386.53	1156.22
386.72	1179.63
386.92	1261.55
387.11	1235.80
387.31	1203.04
387.50	1191.33
387.70	1212.40
387.89	1249.85
388.09	1263.89
388.28	1320.06
388.48	1273.25
388.67	1329.42
388.86	1228.78
389.06	1263.89
389.25	1394.96
389.45	1341.13
389.64	1350.49
389.84	1427.73
390.03	1404.32
390.22	1287.29
390.42	1277.93
390.61	1409.00
390.81	1406.66
391.00	1385.60
391.19	1462.83
391.39	1481.56
391.58	1427.73
391.78	1519.01
391.97	1462.83
392.16	1488.58
392.36	1551.78
392.55	1458.15
392.75	1537.73
392.94	1526.03
393.13	1551.78
393.33	1488.58
393.52	1568.16
393.71	1540.07
393.91	1511.99
394.10	1668.80
394.29	1551.78
394.49	1610.29
394.68	1598.59
394.88	1652.42
395.07	1619.65
395.26	1624.33
395.46	1657.10
395.65	1659.44
395.84	1781.15
396.04	1640.72
396.23	1781.15
396.42	1689.87
396.62	1760.08
396.81	1748.38
397.00	1774.13
397.19	1818.60
397.39	1874.77
397.58	1823.28
397.77	1849.02
397.97	1902.86
398.16	1888.81
398.35	1884.13
398.55	1893.49
398.74	1944.99
398.93	1987.11
399.12	1923.92
399.32	1998.82
399.51	1881.79
399.70	1919.24
399.90	1980.09
400.09	1970.73
400.28	2076.06
400.47	1984.77
400.67	2099.46
400.86	1973.07
401.05	2125.21
401.24	2029.24
401.44	2113.50
401.63	2160.31
401.82	2113.50
402.01	2122.87
402.21	2125.21
402.40	2108.82
402.59	2118.18
402.78	2328.83
402.97	2235.21
403.17	2249.25
403.36	2338.20
403.55	2408.41
403.74	2354.58
403.93	2370.96
404.13	2410.75
404.32	2361.60
404.51	2399.05
404.70	2392.03
404.89	2394.37
405.09	2485.65
405.28	2478.63
405.47	2431.82
405.66	2455.22
405.85	2567.57
406.05	2480.97
406.24	2567.57
406.43	2544.16
406.62	2614.38
406.81	2708.00
407.00	2635.44
407.20	2553.52
407.39	2558.21
407.58	2736.09
407.77	2771.19
407.96	2867.16
408.15	2935.03
408.34	2649.49
408.54	2729.06
408.73	2782.90
408.92	2841.41
409.11	2820.35
409.30	2902.26
409.49	2829.71
409.68	2991.20
409.87	2904.60
410.07	2970.14
410.26	3052.06
410.45	3040.36
410.64	3094.19
410.83	3187.81
411.02	3169.09
411.21	3143.34
411.40	3108.23
411.59	3197.17
411.78	3019.29
411.98	3276.75
412.17	3353.99
412.36	3304.84
412.55	3461.65
412.74	3452.29
412.93	3590.38
413.12	3339.94
413.31	3435.91
413.50	3468.67
413.69	3499.10
413.88	3478.04
414.07	3538.89
414.26	3742.52
414.45	3665.28
414.64	3702.73
414.83	3754.22
415.02	3754.22
415.22	3840.82
415.41	3929.76
415.60	3964.87
415.79	3819.75
415.98	3911.04
416.17	4002.32
416.36	3925.08
416.55	4007.00
416.74	4042.11
416.93	4093.60
417.12	4177.86
417.31	4163.81
417.50	4280.84
417.69	4156.79
417.88	4435.32
418.07	4341.69
418.26	4252.75
418.45	4304.25
418.64	4442.34
418.83	4470.42
419.02	4423.61
419.21	4542.98
419.39	4542.98
419.58	4475.10
419.77	4334.67
419.96	4688.09
420.15	4578.09
420.34	4638.94
420.53	4531.28
420.72	4690.43
420.91	4697.46
421.10	4716.18
421.29	4880.02
421.48	4641.28
421.67	4774.69
421.86	4833.21
422.05	4912.78
422.24	4800.44
422.43	4795.76
422.61	4903.42
422.80	4945.55
422.99	5048.54
423.18	5055.56
423.37	4952.57
423.56	4809.80
423.75	4854.27
423.94	4767.67
424.13	4580.43
424.32	4772.35
424.50	4915.12
424.69	5177.26
424.88	5064.92
425.07	4901.08
425.26	4912.78
425.45	4961.94
425.64	5046.20
425.83	4999.38
426.01	5043.85
426.20	5123.43
426.39	5142.16
426.58	5050.88
426.77	5032.15
426.96	5198.33
427.15	5193.65
427.33	5151.52
427.52	5083.64
427.71	5249.82
427.90	5394.93
428.09	5383.23
428.28	5430.04
428.46	5359.83
428.65	5364.51
428.84	5483.88
429.03	5600.90
429.22	5451.11
429.40	5373.87
429.59	5586.86
429.78	5355.15
429.97	5221.74
430.16	5605.58
430.34	5743.67
430.53	5764.74
430.72	5673.46
430.91	5556.43
431.10	5682.82
431.28	5820.91
431.47	5912.19
431.66	5813.89
431.85	5792.83
432.03	6122.84
432.22	5966.03
432.41	6015.18
432.60	5870.06
432.79	5902.83
432.97	6087.73
433.16	5944.96
433.35	6001.13
433.54	6080.71
433.72	6148.59
433.91	6155.61
434.10	5998.79
434.28	6031.56
434.47	6200.08
434.66	6317.11
434.85	6282.00
435.03	6387.32
435.22	6328.81
435.41	6483.28
435.59	6331.15
435.78	6392.00
435.97	6642.44
436.16	6319.45
436.34	6448.18
436.53	6630.74
436.72	6726.70
436.90	6452.86
437.09	6565.20
437.28	6520.73
437.46	6576.91
437.65	6787.55
437.84	6942.03
438.02	6705.63
438.21	6932.67
438.40	6698.61
438.58	6932.67
438.77	6995.86
438.96	6857.77
439.14	7262.68
439.33	7222.89
439.52	7021.61
439.70	7208.85
439.89	7286.09
440.08	7480.35
440.26	7365.67
440.45	7393.75
440.63	7468.65
440.82	7662.91
441.01	7449.93
441.19	7459.29
441.38	7683.98
441.57	7887.61
441.75	7906.33
441.94	8081.87
442.12	7868.88
442.31	7964.84
442.50	8051.44
442.68	8112.30
442.87	8236.35
443.05	8156.77
443.24	8170.81
443.43	8226.98
443.61	8159.11
443.80	8266.77
443.98	8166.13
444.17	7878.24
444.35	8168.47
444.54	8571.04
444.73	8252.73
444.91	8269.11
445.10	8493.80
445.28	8493.80
445.47	8203.58
445.65	8369.76
445.84	8435.29
446.02	8400.18
446.21	8608.49
446.39	8528.91
446.58	8711.47
446.77	8311.24
446.95	8219.96
447.14	8463.38
447.32	8734.88
447.51	8489.12
447.69	8720.84
447.88	8463.38
448.06	8631.90
448.25	8557.00
448.43	8725.52
448.62	8662.32
448.80	8571.04
448.99	8732.54
449.17	8959.57
449.36	8664.66
449.54	8727.86
449.73	8980.64
449.91	9144.47
450.10	8814.46
450.28	8994.68
450.46	9233.41
450.65	9088.30
450.83	9167.88
451.02	8954.89
451.20	9238.09
451.39	9036.81
451.57	9324.69
451.76	9076.60
451.94	8971.27
452.13	9291.93
452.31	9268.52
452.49	9348.10
452.68	9446.40
452.86	9455.76
453.05	9406.61
453.23	9572.79
453.42	9303.63
453.60	9678.12
453.78	9451.08
453.97	9493.21
454.15	9437.04
454.34	9500.23
454.52	9720.24
454.70	9778.76
454.89	9518.96
455.07	9816.21
455.26	9954.30
455.44	9935.57
455.62	9966.00
455.81	9891.10
455.99	9942.60
456.17	9912.17
456.36	10263.25
456.54	10260.91
456.73	10167.29
456.91	10501.98
457.09	10548.79
457.28	10668.16
457.46	10221.12
457.64	10740.72
457.83	10499.64
458.01	10408.36
458.19	10761.78
458.38	10766.46
458.56	10700.93
458.74	10555.82
458.93	10757.10
459.11	10895.19
459.29	10827.32
459.48	10853.06
459.66	10801.57
459.84	10902.22
460.03	10815.62
460.21	11246.27
460.39	10810.93
460.57	11084.78
460.76	11077.76
460.94	11398.41
461.12	11316.49
461.31	11042.65
461.49	11131.59
461.67	11363.30
461.85	11417.13
462.04	11536.50
462.22	11957.80
462.40	11803.32
462.59	11454.58
462.77	11389.05
462.95	11698.00
463.13	11604.38
463.32	11641.82
463.50	11648.85
463.68	11852.47
463.86	11964.82
464.05	11988.22
464.23	11749.49
464.41	11845.45
464.59	11634.80
464.78	12325.26
464.96	11859.49
465.14	12159.08
465.32	12081.85
465.50	12278.45
465.69	12287.81
465.87	12182.49
466.05	12379.09
466.23	12046.74
466.41	12449.31
466.60	12568.68
466.78	12142.70
466.96	12262.07
467.14	12271.43
467.32	12381.43
467.51	12617.83
467.69	12355.69
467.87	12404.84
468.05	12774.64
468.23	12561.66
468.41	12517.18
468.60	12498.46
468.78	12699.75
468.96	12849.54
469.14	12847.20
469.32	13081.25
469.50	12601.44
469.69	13018.06
469.87	13097.64
470.05	13188.92
470.23	13289.56
470.41	13270.84
470.59	13209.98
470.77	13366.80
470.95	13385.52
471.14	13301.26
471.32	13181.90
471.50	13645.32
471.68	13563.40
471.86	13605.53
472.04	13790.44
472.22	14216.41
472.40	13642.98
472.58	13650.00
472.77	13982.36
472.95	13968.32
473.13	14728.99
473.31	14303.01
473.49	14279.61
473.67	14204.71
473.85	14403.66
474.03	14654.09
474.21	14588.56
474.39	14773.46
474.57	14796.87
474.75	14764.10
474.93	15026.24
475.12	15049.64
475.30	15176.03
475.48	15192.42
475.66	14965.39
475.84	14972.41
476.02	15445.20
476.20	15419.45
476.38	15866.49
476.56	15934.37
476.74	15983.52
476.92	15939.05
477.10	15873.51
477.28	16224.59
477.46	16102.89
477.64	16390.77
477.82	16517.16
478.00	16833.13
478.18	16933.78
478.36	16858.88
478.54	17062.51
478.72	17062.51
478.90	17378.48
479.08	17862.97
479.26	17561.04
479.44	17638.28
479.62	18031.49
479.80	17963.61
479.98	18080.64
480.16	18733.65
480.34	18508.96
480.52	18822.59
480.70	18611.94
480.88	18686.84
481.06	18853.02
481.24	18956.00
481.41	19377.30
481.59	19697.95
481.77	19796.25
481.95	19744.76
482.13	19688.59
482.31	19770.51
482.49	20306.49
482.67	20140.31
482.85	20430.54
483.03	20650.55
483.21	20631.82
483.39	20959.50
483.57	20898.64
483.74	21748.26
483.92	21462.71
484.10	21158.44
484.28	21984.65
484.46	22054.87
484.64	22368.50
484.82	22104.02
485.00	22565.10
485.18	22499.57
485.35	22967.68
485.53	22890.44
485.71	23094.07
485.89	23672.18
486.07	23452.17
486.25	23936.66
486.43	23510.68
486.61	23824.31
486.78	24154.33
486.96	24086.45
487.14	24947.77
487.32	24673.93
487.50	24985.22
487.68	25174.80
487.85	25326.94
488.03	25689.72
488.21	25816.11
488.39	25577.37
488.57	26349.75
488.75	26356.77
488.92	26553.38
489.10	26668.06
489.28	27190.00
489.46	27084.68
489.64	27199.37
489.81	27908.55
489.99	28151.96
490.17	27948.34
490.35	28304.10
490.53	28297.08
490.70	28238.56
490.88	28648.16
491.06	29006.26
491.24	29149.03
491.41	29184.14
491.59	29378.40
491.77	29301.17
491.95	29706.08
492.13	29944.81
492.30	29886.30
492.48	29841.83
492.66	30611.87
492.84	30192.91
493.01	31016.78
493.19	30969.97
493.37	31197.00
493.54	30944.22
493.72	31199.34
493.90	31758.73
494.08	32198.75
494.25	32273.65
494.43	32460.89
494.61	32278.33
494.79	32662.18
494.96	32701.96
495.14	32701.96
495.32	33336.25
495.49	33359.66
495.67	33317.53
495.85	34155.44
496.02	34010.32
496.20	33766.91
496.38	34071.18
496.55	34405.88
496.73	34878.66
496.91	34799.08
497.09	34909.09
497.26	35065.91
497.44	34815.47
497.62	35351.45
497.79	36088.72
497.97	35559.76
498.14	36130.85
498.32	36584.91
498.50	36315.75
498.67	36594.28
498.85	36734.71
499.03	36685.56
499.20	36577.89
499.38	36921.95
499.56	37137.28
499.73	37027.28
499.91	37551.56
500.08	37689.65
500.26	37310.48
500.44	37996.26
500.61	38108.60
500.79	38082.86
500.97	38684.37
501.14	38883.32
501.32	38712.46
501.49	38288.82
501.67	38698.42
501.84	39463.77
502.02	39021.41
502.20	39377.17
502.37	39126.74
502.55	39522.29
502.72	39824.22
502.90	39660.38
503.07	39969.33
503.25	40339.13
503.43	40215.08
503.60	39854.64
503.78	40500.63
503.95	40456.16
504.13	40767.45
504.30	40989.80
504.48	40292.32
504.65	41076.40
504.83	40989.80
505.01	41701.32
505.18	41296.41
505.36	41649.83
505.53	41525.78
505.71	41865.16
505.88	41486.00
506.06	41851.12
506.23	42305.18
506.41	42305.18
506.58	42433.91
506.76	42335.61
506.93	42616.47
507.11	42513.49
507.28	42770.95
507.46	42988.62
507.63	43353.74
507.81	43482.47
507.98	42960.53
508.16	43562.05
508.33	43550.35
508.50	43328.00
508.68	43768.02
508.85	44093.35
509.03	43772.70
509.20	43896.75
509.38	44292.30
509.55	44360.17
509.73	44500.61
509.90	44446.77
510.08	44582.52
510.25	44708.91
510.42	45022.54
510.60	45041.27
510.77	45427.46
510.95	45324.47
511.12	45291.71
511.30	45336.18
511.47	45502.35
511.64	45647.47
511.82	46019.61
511.99	45928.33
512.17	45951.74
512.34	45853.44
512.51	46483.04
512.69	46588.36
512.86	46410.48
513.04	46913.70
513.21	46852.84
513.38	46892.63
513.56	46965.19
513.73	46754.54
513.90	47138.39
514.08	46887.95
514.25	47257.76
514.43	47686.07
514.60	47519.90
514.77	47285.84
514.95	47943.53
515.12	47590.11
515.29	47824.17
515.47	48198.65
515.64	48538.03
515.81	48177.59
515.99	48217.38
516.16	48722.93
516.33	48858.68
516.51	49006.14
516.68	48830.60
516.85	48715.91
517.03	48575.48
517.20	49336.15
517.37	48828.26
517.54	49008.48
517.72	49158.27
517.89	48959.33
518.06	49315.09
518.24	49256.57
518.41	49731.70
518.58	49492.97
518.75	49794.90
518.93	49633.40
519.10	49722.34
519.27	50045.33
519.45	49897.88
519.62	50216.19
519.79	50340.24
519.96	49897.88
520.14	50326.20
520.31	50080.44
520.48	50600.04
520.65	50239.60
520.83	50581.32
521.00	50810.69
521.17	50698.34
521.34	50499.40
521.52	51054.11
521.69	50883.25
521.86	51117.30
522.03	51311.56
522.20	51192.20
522.38	51622.86
522.55	51325.61
522.72	51309.22
522.89	51746.90
523.07	51945.85
523.24	51955.21
523.41	52069.90
523.58	51552.64
523.75	52030.11
523.92	51859.25
524.10	52343.74
524.27	52308.63
524.44	52608.22
524.61	52397.57
524.78	52062.88
524.96	52334.38
525.13	52552.05
525.30	52514.60
525.47	52662.05
525.64	52381.19
525.81	52858.66
525.98	52928.87
526.16	52680.78
526.33	52636.31
526.50	52966.32
526.67	52898.45
526.84	52999.09
527.01	53015.47
527.18	53020.16
527.36	53076.33
527.53	53013.13
527.70	53544.44
527.87	53359.53
528.04	53198.04
528.21	53511.67
528.38	53483.58
528.55	53577.20
528.72	53663.80
528.89	53586.57
529.07	53832.32
529.24	53448.47
529.41	53808.92
529.58	53750.40
529.75	53712.95
529.92	53909.56
530.09	54141.27
530.26	54087.44
530.43	54045.31
530.60	53858.07
530.77	54021.90
530.94	54181.06
531.11	54216.17
531.28	53996.16
531.46	54326.17
531.63	54321.49
531.80	54361.28
531.97	54677.25
532.14	54642.15
532.31	54789.60
532.48	54784.92
532.65	54801.30
532.82	54618.74
532.99	54766.20
533.16	54560.23
533.33	54876.20
533.50	55267.07
533.67	55206.22
533.84	54803.64
534.01	54986.21
534.18	55007.27
534.35	55374.73
534.52	55131.32
534.69	55274.09
534.86	55487.08
535.03	55313.88
535.20	55049.40
535.37	55578.36
535.54	55475.38
535.71	55178.13
535.88	55550.27
536.05	55363.03
536.22	55819.44
536.38	55702.41
536.55	55903.70
536.72	55730.50
536.89	55650.92
537.06	55695.39
537.23	55669.64
537.40	55569.00
537.57	55615.81
537.74	55828.80
537.91	56163.50
538.08	55845.18
538.25	56083.92
538.42	55922.42
538.59	56219.67
538.75	56128.39
538.92	56360.10
539.09	56479.47
539.26	56137.75
539.43	56191.58
539.60	56343.72
539.77	56332.01
539.94	56409.25
540.11	56418.61
540.28	56362.44
540.44	56493.51
540.61	56659.69
540.78	56395.21
540.95	56537.98
541.12	56711.18
541.29	56535.64
541.46	56568.41
541.62	56633.94
541.79	56704.16
541.96	56388.19
542.13	56676.07
542.30	56718.20
542.47	57041.20
542.63	57048.22
542.80	56940.55
542.97	57132.48
543.14	57298.65
543.31	57495.26
543.48	57272.91
543.64	57268.23
543.81	57525.69
543.98	57532.71
544.15	57338.44
544.32	57546.75
544.48	57609.95
544.65	57542.07
544.82	57631.01
544.99	57312.70
545.16	57535.05
545.32	57560.79
545.49	57614.63
545.66	57787.83
545.83	57946.98
546.00	57748.04
546.16	57736.34
546.33	57586.54
546.50	57551.43
546.67	57787.83
546.83	57542.07
547.00	57853.36
547.17	57949.32
547.34	57801.87
547.50	58110.82
547.67	58234.87
547.84	58045.29
548.00	58223.17
548.17	58272.32
548.34	58059.33
548.51	58319.13
548.67	58164.65
548.84	58230.19
549.01	58379.98
549.18	58101.46
549.34	58265.30
549.51	58363.60
549.68	58431.47
549.84	58684.25
550.01	58607.01
550.18	58424.45
550.34	58588.29
550.51	58684.25
550.68	58602.33
550.84	58576.59
551.01	58581.27
551.18	58585.95
551.34	58546.16
551.51	58625.74
551.68	58728.72
551.84	58597.65
552.01	58590.63
552.18	58726.38
552.34	58756.81
552.51	58962.78
552.68	58630.42
552.84	58752.13
553.01	59143.00
553.18	58773.19
553.34	58969.80
553.51	58843.41
553.67	58955.75
553.84	59028.31
554.01	59096.19
554.17	59112.57
554.34	59100.87
554.51	59161.72
554.67	59119.59
554.84	59208.53
555.00	59248.32
555.17	59175.76
555.33	59224.92
555.50	59274.07
555.67	59103.21
555.83	58960.44
556.00	59196.83
556.16	59662.60
556.33	59437.90
556.50	59363.01
556.66	59384.07
556.83	59412.16
556.99	59667.28
557.16	59604.08
557.32	59496.42
557.49	59791.33
557.65	59311.52
557.82	59508.12
557.98	59585.36
558.15	59533.87
558.32	59674.30
558.48	59702.38
558.65	59669.62
558.81	59739.83
558.98	59695.36
559.14	59774.94
559.31	59788.98
559.47	59819.41
559.64	59807.71
559.80	59707.07
559.97	59788.98
560.13	59693.02
560.30	59693.02
560.46	59838.14
560.63	59929.42
560.79	59964.52
560.96	60219.64
561.12	59934.10
561.29	59913.03
561.45	59828.77
561.61	59870.90
561.78	59929.42
561.94	59863.88
562.11	59833.46
562.27	59868.56
562.44	60079.21
562.60	60158.79
562.77	60121.34
562.93	59826.43
563.10	60088.57
563.26	60016.02
563.42	60266.45
563.59	59962.18
563.75	60032.40
563.92	60074.53
564.08	60088.57
564.24	60088.57
564.41	60271.14
564.57	60231.35
564.74	60198.58
564.90	60177.51
565.07	60229.01
565.23	60182.19
565.39	60329.65
565.56	60217.30
565.72	60296.88
565.88	60259.43
566.05	60097.94
566.21	60313.26
566.38	60240.71
566.54	60477.10
566.70	60456.04
566.87	60493.49
567.03	60093.25
567.19	60416.25
567.36	60470.08
567.52	60530.93
567.68	60533.28
567.85	60615.19
568.01	60470.08
568.17	60322.63
568.34	60432.63
568.50	60500.51
568.66	60383.48
568.83	60629.24
568.99	60273.48
569.15	60559.02
569.32	60434.97
569.48	60420.93
569.64	60472.42
569.81	60605.83
569.97	60336.67
570.13	60659.66
570.30	60371.78
570.46	60647.96
570.62	60750.94
570.78	60818.82
570.95	60584.77
571.11	60992.02
571.27	60495.83
571.43	60566.04
571.60	60877.33
571.76	60601.15
571.92	60804.78
572.09	60779.03
572.25	60734.56
572.41	60643.28
572.57	60762.65
572.74	60849.25
572.90	60676.05
573.06	60755.63
573.22	60647.96
573.38	60837.54
573.55	60692.43
573.71	60919.46
573.87	60699.45
574.03	60584.77
574.20	60704.13
574.36	60432.63
574.52	60811.80
574.68	60741.58
574.84	61085.64
575.01	60736.90
575.17	60825.84
575.33	60741.58
575.49	60671.37
575.65	60970.96
575.82	61095.00
575.98	60989.68
576.14	61155.86
576.30	60977.98
576.46	61052.87
576.62	61017.77
576.79	60987.34
576.95	60825.84
577.11	60867.97
577.27	61027.13
577.43	60786.05
577.59	60818.82
577.75	60715.84
577.92	60783.71
578.08	60996.70
578.24	61034.15
578.40	61080.96
578.56	61116.07
578.72	60760.31
578.88	61034.15
579.04	61111.39
579.21	60938.19
579.37	60992.02
579.53	61003.72
579.69	60786.05
579.85	61080.96
580.01	60870.31
580.17	60882.02
580.33	60996.70
580.49	61188.63
580.65	61130.11
580.82	61069.26
580.98	60772.01
581.14	60697.11
581.30	61097.34
581.46	60809.46
581.62	60985.00
581.78	61087.98
581.94	61095.00
582.10	61076.28
582.26	60959.25
582.42	61083.30
582.58	61120.75
582.74	60996.70
582.90	60945.21
583.06	61034.15
583.22	60856.27
583.38	60961.59
583.54	61029.47
583.70	61095.00
583.86	61078.62
584.02	60996.70
584.18	61310.33
584.34	61031.81
584.50	60872.65
584.66	60952.23
584.82	60849.25
584.98	61263.52
585.14	61095.00
585.30	61076.28
585.46	61141.81
585.62	61249.48
585.78	61183.94
585.94	61029.47
586.10	61291.61
586.26	61022.45
586.42	61139.47
586.58	61186.28
586.74	61254.16
586.90	61059.90
587.06	61265.86
587.22	61244.80
587.38	61041.17
587.54	61474.17
587.70	61223.73
587.86	61062.24
588.02	61293.95
588.18	61153.52
588.34	61188.63
588.49	60989.68
