SpectraSuite Data File
++++++++++++++++++++++++++++++++++++
Date: Fri Oct 25 11:34:00 EDT 2013
User: price-jones
Dark Spectrum Present: No
Reference Spectrum Present: No
Number of Sampled Component Spectra: 1
Spectrometers: USB2+H05261
Integration Time (usec): 100000 (USB2+H05261)
Spectra Averaged: 1 (USB2+H05261)
Boxcar Smoothing: 0 (USB2+H05261)
Correct for Electrical Dark: No (USB2+H05261)
Strobe/Lamp Enabled: No (USB2+H05261)
Correct for Detector Non-linearity: No (USB2+H05261)
Correct for Stray Light: No (USB2+H05261)
Number of Pixels in Processed Spectrum: 2048
>>>>>Begin Processed Spectral Data<<<<<
365.73	269.16
365.92	269.16
366.12	269.16
366.32	194.26
366.52	138.09
366.72	227.03
366.91	182.56
367.11	191.92
367.31	215.33
367.51	170.86
367.70	119.37
367.90	161.50
368.10	201.29
368.30	229.37
368.49	222.35
368.69	133.41
368.89	168.52
369.09	147.45
369.28	208.31
369.48	255.12
369.68	194.26
369.87	184.90
370.07	238.73
370.27	266.82
370.47	325.33
370.66	489.17
370.86	472.79
371.06	491.51
371.25	510.24
371.45	552.37
371.65	575.77
371.84	496.19
372.04	517.26
372.24	582.79
372.44	557.05
372.63	587.47
372.83	685.78
373.03	615.56
373.22	627.26
373.42	589.82
373.62	554.71
373.81	589.82
374.01	653.01
374.21	671.73
374.40	594.50
374.60	690.46
374.79	664.71
374.99	620.24
375.19	699.82
375.38	748.97
375.58	671.73
375.78	613.22
375.97	648.33
376.17	650.67
376.37	683.44
376.56	645.99
376.76	690.46
376.95	650.67
377.15	786.42
377.35	643.65
377.54	711.52
377.74	566.41
377.93	681.10
378.13	699.82
378.33	774.72
378.52	671.73
378.72	653.01
378.91	755.99
379.11	727.91
379.31	695.14
379.50	669.39
379.70	741.95
379.89	800.46
380.09	664.71
380.28	702.16
380.48	685.78
380.68	798.12
380.87	760.67
381.07	760.67
381.26	786.42
381.46	784.08
381.65	802.80
381.85	755.99
382.04	753.65
382.24	816.85
382.43	844.93
382.63	812.17
382.83	814.51
383.02	784.08
383.22	830.89
383.41	805.14
383.61	772.38
383.80	819.19
384.00	772.38
384.19	753.65
384.39	767.70
384.58	795.78
384.78	777.06
384.97	765.36
385.17	826.21
385.36	814.51
385.56	755.99
385.75	784.08
385.95	863.66
386.14	863.66
386.34	940.90
386.53	858.98
386.72	912.81
386.92	922.17
387.11	849.61
387.31	917.49
387.50	774.72
387.70	910.47
387.89	954.94
388.09	924.51
388.28	910.47
388.48	849.61
388.67	908.13
388.86	809.83
389.06	901.11
389.25	952.60
389.45	915.15
389.64	966.64
389.84	987.71
390.03	943.24
390.22	964.30
390.42	905.79
390.61	905.79
390.81	931.53
391.00	973.66
391.19	1107.07
391.39	1034.52
391.58	908.13
391.78	994.73
391.97	1055.58
392.16	957.28
392.36	1050.90
392.55	1071.97
392.75	1069.62
392.94	1100.05
393.13	997.07
393.33	1107.07
393.52	938.55
393.71	1074.31
393.91	1048.56
394.10	1081.33
394.29	1097.71
394.49	1095.37
394.68	1149.20
394.88	1224.10
395.07	1158.57
395.26	1043.88
395.46	1086.01
395.65	1144.52
395.84	1177.29
396.04	1193.67
396.23	1165.59
396.42	1226.44
396.62	1224.10
396.81	1198.35
397.00	1249.85
397.19	1179.63
397.39	1198.35
397.58	1224.10
397.77	1233.46
397.97	1228.78
398.16	1167.93
398.35	1334.11
398.55	1294.32
398.74	1315.38
398.93	1310.70
399.12	1275.59
399.32	1100.05
399.51	1280.27
399.70	1380.92
399.90	1324.74
400.09	1306.02
400.28	1434.75
400.47	1341.13
400.67	1409.00
400.86	1308.36
401.05	1315.38
401.24	1458.15
401.44	1476.88
401.63	1483.90
401.82	1334.11
402.01	1364.53
402.21	1554.12
402.40	1437.09
402.59	1401.98
402.78	1439.43
402.97	1420.71
403.17	1479.22
403.36	1474.54
403.55	1526.03
403.74	1577.52
403.93	1603.27
404.13	1582.20
404.32	1540.07
404.51	1558.80
404.70	1619.65
404.89	1629.01
405.09	1612.63
405.28	1645.40
405.47	1624.33
405.66	1715.61
405.85	1778.81
406.05	1760.08
406.24	1727.32
406.43	1776.47
406.62	1834.98
406.81	1881.79
407.00	1739.02
407.20	1626.67
407.39	1813.92
407.58	1846.68
407.77	1816.26
407.96	1982.43
408.15	1860.73
408.34	1865.41
408.54	1888.81
408.73	1860.73
408.92	1884.13
409.11	2076.06
409.30	1898.17
409.49	1909.88
409.68	1959.03
409.87	2031.58
410.07	2078.40
410.26	2015.20
410.45	1935.62
410.64	2085.42
410.83	2054.99
411.02	2059.67
411.21	2169.68
411.40	2134.57
411.59	2129.89
411.78	2118.18
411.98	2298.41
412.17	2298.41
412.36	2284.36
412.55	2228.19
412.74	2270.32
412.93	2431.82
413.12	2293.72
413.31	2511.39
413.50	2326.49
413.69	2354.58
413.88	2443.52
414.07	2511.39
414.26	2401.39
414.45	2429.48
414.64	2492.67
414.83	2537.14
415.02	2576.93
415.22	2438.84
415.41	2572.25
415.60	2600.34
415.79	2665.87
415.98	2710.34
416.17	2609.70
416.36	2677.57
416.55	2712.68
416.74	2764.17
416.93	2829.71
417.12	2719.70
417.31	2778.22
417.50	2850.77
417.69	2902.26
417.88	2853.11
418.07	2853.11
418.26	2937.37
418.45	2923.33
418.64	3056.74
418.83	3073.12
419.02	3124.62
419.21	3084.83
419.39	2958.44
419.58	3009.93
419.77	2942.05
419.96	3052.06
420.15	3112.91
420.34	3169.09
420.53	3162.06
420.72	3321.22
420.91	3190.15
421.10	3321.22
421.29	3344.63
421.48	3218.24
421.67	3346.97
421.86	3279.09
422.05	3346.97
422.24	3176.11
422.43	3386.76
422.61	3382.07
422.80	3368.03
422.99	3419.52
423.18	3389.10
423.37	3543.57
423.56	3311.86
423.75	3339.94
423.94	3304.84
424.13	3155.04
424.32	3293.13
424.50	3473.36
424.69	3344.63
424.88	3576.34
425.07	3358.67
425.26	3311.86
425.45	3318.88
425.64	3461.65
425.83	3227.60
426.01	3454.63
426.20	3403.14
426.39	3396.12
426.58	3449.95
426.77	3473.36
426.96	3581.02
427.15	3494.42
427.33	3557.61
427.52	3616.13
427.71	3559.95
427.90	3583.36
428.09	3735.50
428.28	3651.24
428.46	3496.76
428.65	3611.45
428.84	3705.07
429.03	3733.15
429.22	3597.40
429.40	3623.15
429.59	3768.26
429.78	3702.73
429.97	3531.87
430.16	3595.06
430.34	3808.05
430.53	3817.41
430.72	3854.86
430.91	3915.72
431.10	3857.20
431.28	3939.12
431.47	3859.54
431.66	3908.69
431.85	3901.67
432.03	3969.55
432.22	3906.35
432.41	3992.95
432.60	4018.70
432.79	4002.32
432.97	4114.66
433.16	4119.34
433.35	3983.59
433.54	4149.77
433.72	4112.32
433.91	4009.34
434.10	4035.08
434.28	4236.37
434.47	4280.84
434.66	4205.94
434.85	4252.75
435.03	4276.16
435.22	4339.35
435.41	4482.13
435.59	4255.09
435.78	4344.03
435.97	4259.78
436.16	4294.88
436.34	4339.35
436.53	4304.25
436.72	4390.84
436.90	4315.95
437.09	4425.95
437.28	4421.27
437.46	4461.06
437.65	4660.01
437.84	4667.03
438.02	4521.92
438.21	4444.68
438.40	4538.30
438.58	4732.56
438.77	4652.98
438.96	4713.84
439.14	4652.98
439.33	4777.03
439.52	4931.51
439.70	4894.06
439.89	5116.41
440.08	5025.13
440.26	4924.49
440.45	4884.70
440.63	5013.43
440.82	5177.26
441.01	5015.77
441.19	5104.71
441.38	5170.24
441.57	5125.77
441.75	5186.63
441.94	5146.84
442.12	5294.29
442.31	5252.16
442.50	5387.91
442.68	5474.51
442.87	5441.75
443.05	5458.13
443.24	5526.00
443.43	5547.07
443.61	5317.70
443.80	5631.33
443.98	5408.98
444.17	5179.61
444.35	5383.23
444.54	5579.84
444.73	5509.62
444.91	5570.48
445.10	5516.64
445.28	5626.65
445.47	5537.71
445.65	5579.84
445.84	5685.16
446.02	5682.82
446.21	5561.11
446.39	5430.04
446.58	5703.89
446.77	5710.91
446.95	5579.84
447.14	5722.61
447.32	5760.06
447.51	5621.97
447.69	5614.95
447.88	5804.53
448.06	5671.12
448.25	5668.78
448.43	5748.36
448.62	5720.27
448.80	5776.44
448.99	5771.76
449.17	5879.43
449.36	5811.55
449.54	5888.79
449.73	5959.00
449.91	5959.00
450.10	6024.54
450.28	6202.42
450.46	6040.92
450.65	6026.88
450.83	5963.68
451.02	6040.92
451.20	6050.28
451.39	6059.65
451.57	6190.72
451.76	6047.94
451.94	6092.41
452.13	6183.70
452.31	6157.95
452.49	6054.97
452.68	6174.33
452.86	6155.61
453.05	6134.54
453.23	6300.72
453.42	6282.00
453.60	6279.66
453.78	6380.30
453.97	6349.87
454.15	6375.62
454.34	6010.50
454.52	6258.59
454.70	6455.20
454.89	6335.83
455.07	6464.56
455.26	6576.91
455.44	6649.46
455.62	6534.78
455.81	6635.42
455.99	6518.39
456.17	6649.46
456.36	6614.35
456.54	7096.50
456.73	6927.99
456.91	7063.74
457.09	6937.35
457.28	7063.74
457.46	6750.10
457.64	7009.90
457.83	7063.74
458.01	7002.88
458.19	7183.10
458.38	6850.75
458.56	7084.80
458.74	7089.48
458.93	7122.25
459.11	7045.01
459.29	6972.46
459.48	7077.78
459.66	7260.34
459.84	7368.01
460.03	7386.73
460.21	7185.44
460.39	7316.51
460.57	7204.17
460.76	7435.88
460.94	7529.50
461.12	7360.98
461.31	7501.42
461.49	7463.97
461.67	7557.59
461.85	7559.93
462.04	7403.11
462.22	7885.26
462.40	7672.28
462.59	7817.39
462.77	7550.57
462.95	7691.00
463.13	7676.96
463.32	7791.64
463.50	7651.21
463.68	7698.02
463.86	7871.22
464.05	7861.86
464.23	7709.72
464.41	7878.24
464.59	7740.15
464.78	7999.95
464.96	7927.39
465.14	7772.92
465.32	8006.97
465.50	8091.23
465.69	8208.26
465.87	7990.59
466.05	7967.18
466.23	7929.74
466.41	8102.93
466.60	8290.18
466.78	7847.82
466.96	8154.43
467.14	8072.51
467.32	8168.47
467.51	8116.98
467.69	8126.34
467.87	8128.68
468.05	8315.92
468.23	8021.02
468.41	8278.47
468.60	8201.24
468.78	8503.17
468.96	8367.42
469.14	8589.77
469.32	8744.24
469.50	8362.73
469.69	8463.38
469.87	8458.70
470.05	8634.24
470.23	8706.79
470.41	8573.38
470.59	8678.71
470.77	8791.05
470.95	8667.00
471.14	8844.88
471.32	8702.11
471.50	8933.82
471.68	8856.59
471.86	9048.51
472.04	8931.48
472.22	9132.77
472.40	9060.21
472.58	9172.56
472.77	9160.86
472.95	9373.85
473.13	9415.98
473.31	9341.08
473.49	9270.86
473.67	9446.40
473.85	9465.13
474.03	9530.66
474.21	9666.41
474.39	9748.33
474.57	9565.77
474.75	9762.37
474.93	9687.48
475.12	9919.19
475.30	9966.00
475.48	9881.74
475.66	9888.76
475.84	9827.91
476.02	10015.15
476.20	10202.40
476.38	10272.61
476.56	10509.01
476.74	10389.64
476.92	10518.37
477.10	10415.38
477.28	10445.81
477.46	10370.91
477.64	10705.61
477.82	10672.84
478.00	10993.50
478.18	10953.71
478.36	11007.54
478.54	11290.74
478.72	11314.15
478.90	11140.95
479.08	11534.16
479.26	11353.94
479.44	11552.88
479.62	11485.01
479.80	11737.79
479.98	11716.72
480.16	11892.26
480.34	12077.16
480.52	11941.41
480.70	12105.25
480.88	11915.67
481.06	12102.91
481.24	12287.81
481.41	12589.74
481.59	12540.59
481.77	12769.96
481.95	12744.22
482.13	12999.34
482.31	12966.57
482.49	13018.06
482.67	13121.04
482.85	13165.51
483.03	13472.12
483.21	13369.14
483.39	13699.16
483.57	13558.72
483.74	13479.15
483.92	13774.05
484.10	13497.87
484.28	13729.58
484.46	14270.25
484.64	14483.24
484.82	14436.42
485.00	14305.35
485.18	14757.08
485.35	14995.81
485.53	14862.40
485.71	14855.38
485.89	15225.18
486.07	14974.75
486.25	15307.10
486.43	15253.27
486.61	15501.37
486.78	15571.58
486.96	15597.33
487.14	15939.05
487.32	16046.71
487.50	16084.16
487.68	16308.85
487.85	16556.95
488.03	16468.01
488.21	16666.95
488.39	16526.52
488.57	17032.08
488.75	16748.87
488.92	17036.76
489.10	17408.90
489.28	17291.88
489.46	17352.73
489.64	17593.81
489.81	18078.30
489.99	18015.10
490.17	18015.10
490.35	18515.98
490.53	18312.35
490.70	18450.44
490.88	18244.48
491.06	18633.00
491.24	18459.81
491.41	18944.30
491.59	18965.36
491.77	18670.45
491.95	19173.67
492.13	19435.81
492.30	19609.01
492.48	19351.55
492.66	19222.82
492.84	19440.49
493.01	20070.09
493.19	19510.71
493.37	19882.85
493.54	20231.59
493.72	19997.54
493.90	20456.28
494.08	20276.06
494.25	20573.31
494.43	20655.23
494.61	20898.64
494.79	21287.17
494.96	20922.05
495.14	21137.38
495.32	21387.82
495.49	21436.97
495.67	21797.41
495.85	21502.50
496.02	21799.75
496.20	21963.59
496.38	21759.96
496.55	22143.81
496.73	22480.85
496.91	22324.03
497.09	22349.78
497.26	22558.08
497.44	22494.89
497.62	22773.41
497.79	23300.03
497.97	22986.40
498.14	23126.83
498.32	23175.98
498.50	23269.61
498.67	23681.54
498.85	23625.37
499.03	23452.17
499.20	23821.97
499.38	23957.72
499.56	23873.46
499.73	23679.20
499.91	24084.11
500.08	24121.56
500.26	24044.32
500.44	24484.34
500.61	24156.67
500.79	24259.65
500.97	24489.03
501.14	24879.89
501.32	25078.84
501.49	24767.55
501.67	25149.06
501.84	25118.63
502.02	25266.08
502.20	24989.90
502.37	25170.12
502.55	25376.09
502.72	25645.25
502.90	25422.90
503.07	25682.70
503.25	25881.64
503.43	25701.42
503.60	26096.97
503.78	25577.37
503.95	25970.58
504.13	25979.95
504.30	26352.09
504.48	26157.83
504.65	26705.51
504.83	26679.77
505.01	26520.61
505.18	26632.96
505.36	27159.58
505.53	27051.91
505.71	27152.55
505.88	27124.47
506.06	26991.06
506.23	27337.46
506.41	27166.60
506.58	27218.09
506.76	27241.50
506.93	27637.05
507.11	27339.80
507.28	27716.62
507.46	27796.20
507.63	28041.96
507.81	27927.27
507.98	27517.68
508.16	28102.81
508.33	28187.07
508.50	28168.35
508.68	28453.89
508.85	28641.14
509.03	28449.21
509.20	28369.63
509.38	28856.46
509.55	29020.30
509.73	28697.31
509.90	28706.67
510.08	29081.16
510.25	29188.82
510.42	28830.72
510.60	29223.93
510.77	29050.73
510.95	29752.89
511.12	29455.64
511.30	29869.92
511.47	29376.06
511.64	29830.13
511.82	29729.48
511.99	29846.51
512.17	29893.32
512.34	29799.70
512.51	30162.48
512.69	30511.22
512.86	30221.00
513.04	30455.05
513.21	30569.74
513.38	30293.55
513.56	30972.31
513.73	30630.59
513.90	30490.16
514.08	30897.41
514.25	31246.15
514.43	30937.20
514.60	31274.24
514.77	31428.71
514.95	31192.32
515.12	31021.46
515.29	31339.77
515.47	31297.64
515.64	31681.49
515.81	31356.16
515.99	31424.03
516.16	31850.01
516.33	32369.61
516.51	31896.82
516.68	31955.33
516.85	31850.01
517.03	32072.36
517.20	32198.75
517.37	32273.65
517.54	32067.68
517.72	32369.61
517.89	32549.83
518.06	32474.93
518.24	32591.96
518.41	32355.57
518.58	32720.69
518.75	32655.15
518.93	33088.15
519.10	32723.03
519.27	32786.22
519.45	32900.91
519.62	32847.08
519.79	32975.81
519.96	33397.10
520.14	33200.50
520.31	33296.46
520.48	33291.78
520.65	33572.64
520.83	33888.62
521.00	33804.36
521.17	33663.93
521.34	34251.40
521.52	34139.05
521.69	33954.15
521.86	33926.07
522.03	34122.67
522.20	34403.53
522.38	34618.86
522.55	34817.81
522.72	34773.34
522.89	34352.04
523.07	34953.56
523.24	34529.92
523.41	35147.82
523.58	34993.35
523.75	35229.74
523.92	34632.91
524.10	34965.26
524.27	35304.64
524.44	34927.81
524.61	34876.32
524.78	35028.46
524.96	35461.46
525.13	35194.64
525.30	35892.12
525.47	35339.75
525.64	35592.53
525.81	36004.46
525.98	36091.06
526.16	35438.05
526.33	35438.05
526.50	36172.98
526.67	35789.13
526.84	35854.67
527.01	36072.34
527.18	36364.90
527.36	36762.79
527.53	36013.82
527.70	36339.16
527.87	36987.49
528.04	36282.98
528.21	36933.65
528.38	36512.36
528.55	36519.38
528.72	36634.06
528.89	36833.01
529.07	36814.29
529.24	36629.38
529.41	37001.53
529.58	36748.75
529.75	36746.41
529.92	37289.42
530.09	36671.51
530.26	37013.23
530.43	37186.43
530.60	36655.13
530.77	37263.67
530.94	37188.77
531.11	37275.37
531.28	37383.04
531.46	38040.73
531.63	37699.01
531.80	37387.72
531.97	38003.28
532.14	37790.29
532.31	37589.00
532.48	37972.85
532.65	38244.35
532.82	37780.93
532.99	38017.32
533.16	37956.47
533.33	38469.04
533.50	38534.58
533.67	37804.33
533.84	38370.74
534.01	37818.38
534.18	38366.06
534.35	38820.13
534.52	38590.75
534.69	38745.23
534.86	38646.93
535.03	38543.94
535.20	39199.29
535.37	38859.91
535.54	39075.24
535.71	39012.05
535.88	39079.92
536.05	39173.55
536.22	39161.84
536.38	38862.26
536.55	39306.96
536.72	39459.09
536.89	39110.35
537.06	39276.53
537.23	39332.70
537.40	39629.95
537.57	39309.30
537.74	39416.96
537.91	39548.03
538.08	39723.57
538.25	39248.44
538.42	39552.71
538.59	39908.47
538.75	39634.63
538.92	39819.53
539.09	40175.30
539.26	39929.54
539.43	39800.81
539.60	39859.32
539.77	40048.91
539.94	40350.84
540.11	40013.80
540.28	40327.43
540.44	40308.71
540.61	40524.04
540.78	40163.59
540.95	40091.04
541.12	39936.56
541.29	40435.10
541.46	40388.28
541.62	40444.46
541.79	40634.04
541.96	40320.41
542.13	40748.73
542.30	40318.07
542.47	40741.71
542.63	40580.21
542.80	40865.75
542.97	41060.02
543.14	41469.61
543.31	41329.18
543.48	41076.40
543.64	41493.02
543.81	41111.51
543.98	41315.14
544.15	41102.15
544.32	41839.42
544.48	41811.33
544.65	41607.70
544.82	41855.80
544.99	41607.70
545.16	41579.62
545.32	41392.37
545.49	41624.09
545.66	42120.28
545.83	41926.02
546.00	41900.27
546.16	41914.31
546.33	41893.25
546.50	41422.80
546.67	42101.56
546.83	41460.25
547.00	41722.39
547.17	41949.42
547.34	42433.91
547.50	42476.04
547.67	42447.96
547.84	42579.03
548.00	42267.73
548.17	42635.20
548.34	42609.45
548.51	42394.12
548.67	42792.01
548.84	42684.35
549.01	42527.53
549.18	42436.25
549.34	43105.65
549.51	43023.73
549.68	43117.35
549.84	42696.05
550.01	42593.07
550.18	42724.14
550.34	42820.10
550.51	43229.69
550.68	43386.51
550.84	43192.25
551.01	43189.91
551.18	42796.70
551.34	42941.81
551.51	43386.51
551.68	43079.90
551.84	43597.16
552.01	42642.22
552.18	43260.12
552.34	43292.89
552.51	43522.26
552.68	43260.12
552.84	43973.98
553.01	43622.90
553.18	43372.47
553.34	43573.75
553.51	43728.23
553.67	43770.36
553.84	43899.09
554.01	43962.28
554.17	43700.14
554.34	43711.84
554.51	44067.61
554.67	44186.97
554.84	44247.83
555.00	43924.83
555.17	43772.70
555.33	43903.77
555.50	43885.04
555.67	43992.71
555.83	43847.60
556.00	44439.75
556.16	44626.99
556.33	44086.33
556.50	44596.57
556.66	44030.16
556.83	44100.37
556.99	44355.49
557.16	44552.10
557.32	44636.36
557.49	44114.42
557.65	44542.74
557.82	44327.41
557.98	43885.04
558.15	44861.05
558.32	44762.75
558.48	44233.78
558.65	44648.06
558.81	44821.26
558.98	44535.71
559.14	44484.22
559.31	44811.90
559.47	44641.04
559.64	45106.80
559.80	44699.55
559.97	44568.48
560.13	44781.47
560.30	44699.55
560.46	44917.22
560.63	45130.21
560.79	45193.40
560.96	45478.95
561.12	45195.74
561.29	44928.92
561.45	45097.44
561.61	45057.65
561.78	44809.56
561.94	45081.06
562.11	44968.71
562.27	44481.88
562.44	44959.35
562.60	45865.14
562.77	45478.95
562.93	45041.27
563.10	45464.91
563.26	45027.23
563.42	45488.31
563.59	45317.45
563.75	45153.62
563.92	45118.51
564.08	45249.58
564.24	45621.72
564.41	45258.94
564.57	44856.37
564.74	45464.91
564.90	45069.36
565.07	45368.94
565.23	45439.16
565.39	45177.02
565.56	45485.97
565.72	45441.50
565.88	45261.28
566.05	45418.10
566.21	45556.19
566.38	45518.74
566.54	45530.44
566.70	45642.79
566.87	45923.65
567.03	45172.34
567.19	45830.03
567.36	45151.27
567.52	45586.61
567.68	46038.34
567.85	45492.99
568.01	46316.86
568.17	45942.38
568.34	45933.01
568.50	45390.01
568.66	45729.39
568.83	45748.11
568.99	45954.08
569.15	45488.31
569.32	45617.04
569.48	45624.06
569.64	46150.68
569.81	46094.51
569.97	45797.26
570.13	45766.84
570.30	45860.46
570.46	45984.51
570.62	46398.78
570.78	46007.91
570.95	45947.06
571.11	46660.92
571.27	46021.95
571.43	46019.61
571.60	45979.82
571.76	45773.86
571.92	46291.12
572.09	46054.72
572.25	46054.72
572.41	46071.10
572.57	46181.11
572.74	46323.88
572.90	46375.37
573.06	46717.09
573.22	46164.73
573.38	46174.09
573.55	45895.56
573.71	46574.32
573.87	46618.79
574.03	46223.24
574.20	46808.37
574.36	46216.22
574.52	46328.56
574.68	46085.15
574.84	46717.09
575.01	46391.76
575.17	46298.14
575.33	46452.61
575.49	46279.41
575.65	46492.40
575.82	46445.59
575.98	45970.46
576.14	46176.43
576.30	46813.05
576.46	46499.42
576.62	46326.22
576.79	45783.22
576.95	46183.45
577.11	46356.65
577.27	46230.26
577.43	46248.99
577.59	46389.42
577.75	46150.68
577.92	45720.02
578.08	46335.59
578.24	46185.79
578.40	46756.88
578.56	46368.35
578.72	46380.06
578.88	46597.73
579.04	46567.30
579.21	46227.92
579.37	46628.15
579.53	46171.75
579.69	46302.82
579.85	46726.46
580.01	46960.51
580.17	46520.49
580.33	46593.04
580.49	46513.47
580.65	46457.29
580.82	46763.90
580.98	46256.01
581.14	46483.04
581.30	46440.91
581.46	46270.05
581.62	46227.92
581.78	46527.51
581.94	46920.72
582.10	46270.05
582.26	46834.12
582.42	46756.88
582.58	46714.75
582.74	47040.09
582.90	46335.59
583.06	46813.05
583.22	46604.75
583.38	46483.04
583.54	46656.24
583.70	46806.03
583.86	46344.95
584.02	46834.12
584.18	46749.86
584.34	46639.86
584.50	46955.83
584.66	46756.88
584.82	46677.30
584.98	46930.08
585.14	47021.36
585.30	46504.10
585.46	46972.21
585.62	46431.55
585.78	46714.75
585.94	46412.82
586.10	46773.27
586.26	46646.88
586.42	46876.25
586.58	46813.05
586.74	46511.13
586.90	46770.93
587.06	46506.44
587.22	47274.14
587.38	46176.43
587.54	46775.61
587.70	47037.75
587.86	47037.75
588.02	46710.07
588.18	46377.72
588.34	46824.76
588.49	47070.51
588.65	46667.94
588.81	46780.29
588.97	46965.19
589.13	46941.78
589.29	46754.54
589.45	47241.37
589.61	46883.27
589.77	47086.90
589.93	46550.91
590.08	47264.78
