SpectraSuite Data File
++++++++++++++++++++++++++++++++++++
Date: Fri Oct 25 11:22:39 EDT 2013
User: price-jones
Dark Spectrum Present: No
Reference Spectrum Present: No
Number of Sampled Component Spectra: 1
Spectrometers: USB2+H05261
Integration Time (usec): 100000 (USB2+H05261)
Spectra Averaged: 1 (USB2+H05261)
Boxcar Smoothing: 0 (USB2+H05261)
Correct for Electrical Dark: No (USB2+H05261)
Strobe/Lamp Enabled: No (USB2+H05261)
Correct for Detector Non-linearity: No (USB2+H05261)
Correct for Stray Light: No (USB2+H05261)
Number of Pixels in Processed Spectrum: 2048
>>>>>Begin Processed Spectral Data<<<<<
365.73	294.91
365.92	294.91
366.12	294.91
366.32	91.28
366.52	105.32
366.72	121.71
366.91	112.35
367.11	133.41
367.31	44.47
367.51	149.79
367.70	93.62
367.90	117.03
368.10	128.73
368.30	124.05
368.49	140.43
368.69	227.03
368.89	168.52
369.09	95.96
369.28	133.41
369.48	112.35
369.68	149.79
369.87	189.58
370.07	114.69
370.27	210.65
370.47	313.63
370.66	596.84
370.86	608.54
371.06	695.14
371.25	746.63
371.45	631.94
371.65	669.39
371.84	641.31
372.04	688.12
372.24	650.67
372.44	709.18
372.63	744.29
372.83	713.86
373.03	669.39
373.22	779.40
373.42	725.57
373.62	779.40
373.81	784.08
374.01	781.74
374.21	772.38
374.40	784.08
374.60	858.98
374.79	840.25
374.99	758.33
375.19	868.34
375.38	795.78
375.58	819.19
375.78	940.90
375.97	847.27
376.17	875.36
376.37	844.93
376.56	917.49
376.76	940.90
376.95	819.19
377.15	875.36
377.35	952.60
377.54	875.36
377.74	814.51
377.93	873.02
378.13	851.96
378.33	912.81
378.52	950.26
378.72	968.98
378.91	894.08
379.11	861.32
379.31	961.96
379.50	945.58
379.70	1013.45
379.89	1036.86
380.09	971.32
380.28	964.30
380.48	957.28
380.68	947.92
380.87	922.17
381.07	1069.62
381.26	1128.14
381.46	898.77
381.65	1090.69
381.85	1064.94
382.04	1018.13
382.24	1064.94
382.43	1057.92
382.63	1043.88
382.83	1055.58
383.02	1022.81
383.22	1036.86
383.41	1076.65
383.61	1165.59
383.80	1095.37
384.00	1095.37
384.19	1086.01
384.39	1137.50
384.58	1109.41
384.78	1193.67
384.97	1160.91
385.17	1146.86
385.36	1100.05
385.56	1142.18
385.75	1121.12
385.95	1390.28
386.14	1142.18
386.34	1181.97
386.53	1158.57
386.72	1219.42
386.92	1233.46
387.11	1221.76
387.31	1301.34
387.50	1277.93
387.70	1196.01
387.89	1186.65
388.09	1275.59
388.28	1203.04
388.48	1275.59
388.67	1261.55
388.86	1280.27
389.06	1284.95
389.25	1303.68
389.45	1355.17
389.64	1350.49
389.84	1313.04
390.03	1359.85
390.22	1291.98
390.42	1458.15
390.61	1348.15
390.81	1418.36
391.00	1448.79
391.19	1467.52
391.39	1409.00
391.58	1451.13
391.78	1523.69
391.97	1495.60
392.16	1514.33
392.36	1584.54
392.55	1490.92
392.75	1502.62
392.94	1439.43
393.13	1579.86
393.33	1558.80
393.52	1544.75
393.71	1605.61
393.91	1558.80
394.10	1605.61
394.29	1577.52
394.49	1511.99
394.68	1638.38
394.88	1589.22
395.07	1661.78
395.26	1661.78
395.46	1549.43
395.65	1685.19
395.84	1750.72
396.04	1846.68
396.23	1732.00
396.42	1783.49
396.62	1664.12
396.81	1741.36
397.00	1783.49
397.19	1757.74
397.39	1729.66
397.58	1837.32
397.77	1849.02
397.97	1809.23
398.16	1849.02
398.35	1825.62
398.55	1746.04
398.74	1846.68
398.93	1994.14
399.12	1856.04
399.32	1998.82
399.51	2129.89
399.70	2033.93
399.90	1980.09
400.09	2040.95
400.28	2073.71
400.47	1954.35
400.67	2204.78
400.86	2150.95
401.05	2120.53
401.24	2155.63
401.44	2134.57
401.63	2221.17
401.82	2230.53
402.01	2139.25
402.21	2165.00
402.40	2148.61
402.59	2216.49
402.78	2307.77
402.97	2265.64
403.17	2342.88
403.36	2296.07
403.55	2366.28
403.74	2303.09
403.93	2314.79
404.13	2345.22
404.32	2389.69
404.51	2459.90
404.70	2377.98
404.89	2314.79
405.09	2532.46
405.28	2469.27
405.47	2572.25
405.66	2485.65
405.85	2593.31
406.05	2642.46
406.24	2590.97
406.43	2602.68
406.62	2583.95
406.81	2703.32
407.00	2530.12
407.20	2586.29
407.39	2729.06
407.58	2808.64
407.77	2796.94
407.96	2757.15
408.15	2752.47
408.34	2808.64
408.54	2815.66
408.73	2874.18
408.92	2792.26
409.11	2986.52
409.30	2946.73
409.49	2834.39
409.68	2942.05
409.87	3035.67
410.07	2981.84
410.26	3012.27
410.45	2988.86
410.64	2979.50
410.83	3049.72
411.02	3089.51
411.21	3208.87
411.40	3117.59
411.59	3112.91
411.78	3082.49
411.98	3215.90
412.17	3417.18
412.36	3236.96
412.55	3318.88
412.74	3389.10
412.93	3405.48
413.12	3330.58
413.31	3562.30
413.50	3506.12
413.69	3550.59
413.88	3707.41
414.07	3641.87
414.26	3630.17
414.45	3735.50
414.64	3705.07
414.83	3843.16
415.02	3679.32
415.22	3775.28
415.41	3847.84
415.60	3978.91
415.79	3899.33
415.98	3990.61
416.17	3985.93
416.36	3939.12
416.55	3985.93
416.74	4124.02
416.93	3932.10
417.12	4112.32
417.31	4140.41
417.50	4147.43
417.69	4339.35
417.88	4322.97
418.07	4203.60
418.26	4337.01
418.45	4344.03
418.64	4437.66
418.83	4535.96
419.02	4496.17
419.21	4463.40
419.39	4648.30
419.58	4566.39
419.77	4430.63
419.96	4709.16
420.15	4723.20
420.34	4638.94
420.53	4692.77
420.72	4842.57
420.91	4725.54
421.10	4809.80
421.29	4842.57
421.48	4873.00
421.67	4842.57
421.86	4568.73
422.05	4978.32
422.24	4784.06
422.43	4929.17
422.61	5004.07
422.80	5046.20
422.99	5090.67
423.18	5001.72
423.37	4891.72
423.56	4968.96
423.75	4938.53
423.94	4915.12
424.13	4807.46
424.32	4910.44
424.50	5048.54
424.69	5214.71
424.88	5015.77
425.07	5043.85
425.26	5039.17
425.45	5071.94
425.64	5018.11
425.83	4915.12
426.01	5203.01
426.20	5062.58
426.39	5144.50
426.58	5095.35
426.77	5217.05
426.96	5198.33
427.15	5313.02
427.33	5130.45
427.52	5130.45
427.71	5359.83
427.90	5135.14
428.09	5207.69
428.28	5341.10
428.46	5401.96
428.65	5336.42
428.84	5600.90
429.03	5451.11
429.22	5437.06
429.40	5544.73
429.59	5523.66
429.78	5411.32
429.97	5245.14
430.16	5451.11
430.34	5769.42
430.53	5673.46
430.72	5612.60
430.91	5633.67
431.10	5446.43
431.28	5790.49
431.47	5778.78
431.66	5900.49
431.85	5755.38
432.03	5930.92
432.22	6099.44
432.41	6141.57
432.60	6026.88
432.79	6127.52
432.97	6120.50
433.16	5942.62
433.35	5977.73
433.54	6122.84
433.72	6188.38
433.91	6228.17
434.10	6296.04
434.28	5970.71
434.47	6129.86
434.66	6274.98
434.85	6321.79
435.03	6223.48
435.22	6246.89
435.41	6506.69
435.59	6452.86
435.78	6497.33
435.97	6551.16
436.16	6478.60
436.34	6401.37
436.53	6445.84
436.72	6825.00
436.90	6654.14
437.09	6722.02
437.28	6644.78
437.46	6712.66
437.65	6626.06
437.84	6722.02
438.02	6705.63
438.21	6773.51
438.40	6820.32
438.58	7021.61
438.77	7030.97
438.96	6918.62
439.14	7155.02
439.33	7061.40
439.52	7337.58
439.70	7349.28
439.89	7311.83
440.08	7494.40
440.26	7508.44
440.45	7522.48
440.63	7599.72
440.82	7485.03
441.01	7648.87
441.19	7833.77
441.38	7805.69
441.57	7810.37
441.75	7861.86
441.94	7941.44
442.12	7896.97
442.31	8131.02
442.50	8079.53
442.68	8238.69
442.87	8112.30
443.05	8109.96
443.24	8353.37
443.43	8271.45
443.61	8287.84
443.80	8348.69
443.98	8262.09
444.17	7815.05
444.35	8259.75
444.54	8470.40
444.73	8257.41
444.91	8435.29
445.10	8496.14
445.28	8367.42
445.47	8177.83
445.65	8369.76
445.84	8425.93
446.02	8610.83
446.21	8517.21
446.39	8367.42
446.58	8622.53
446.77	8477.42
446.95	8400.18
447.14	8510.19
447.32	8748.92
447.51	8755.94
447.69	8517.21
447.88	8505.51
448.06	8655.30
448.25	8615.51
448.43	8772.33
448.62	8727.86
448.80	8552.32
448.99	8667.00
449.17	8702.11
449.36	8535.93
449.54	8805.10
449.73	8999.36
449.91	8980.64
450.10	8978.30
450.28	9195.96
450.46	9123.41
450.65	9163.20
450.83	9015.74
451.02	9188.94
451.20	9219.37
451.39	9296.61
451.57	9249.80
451.76	9289.59
451.94	9324.69
452.13	9312.99
452.31	9312.99
452.49	9394.91
452.68	9430.02
452.86	9493.21
453.05	9476.83
453.23	9380.87
453.42	9163.20
453.60	9273.20
453.78	9755.35
453.97	9343.42
454.15	9458.10
454.34	9460.45
454.52	9811.53
454.70	9984.73
454.89	9799.82
455.07	9797.48
455.26	9816.21
455.44	10134.52
455.62	9884.08
455.81	9872.38
455.99	10092.39
456.17	10019.83
456.36	10148.56
456.54	10293.68
456.73	10338.15
456.91	10530.07
457.09	10752.42
457.28	10600.29
457.46	10448.15
457.64	10640.08
457.83	10588.58
458.01	10576.88
458.19	10780.51
458.38	10537.09
458.56	10782.85
458.74	10876.47
458.93	10668.16
459.11	10785.19
459.29	10939.66
459.48	10974.77
459.66	10902.22
459.84	10871.79
460.03	11208.83
460.21	10988.82
460.39	10920.94
460.57	11173.72
460.76	10984.13
460.94	11400.75
461.12	11253.30
461.31	11307.13
461.49	11131.59
461.67	11257.98
461.85	11538.84
462.04	11377.34
462.22	11990.56
462.40	11686.29
462.59	11623.10
462.77	11595.01
462.95	11407.77
463.13	11524.80
463.32	11686.29
463.50	11815.02
463.68	11754.17
463.86	11786.94
464.05	11595.01
464.23	11836.09
464.41	11817.36
464.59	11892.26
464.78	12198.87
464.96	12315.90
465.14	12077.16
465.32	12156.74
465.50	12119.29
465.69	12301.86
465.87	12238.66
466.05	12334.62
466.23	12170.79
466.41	12105.25
466.60	12564.00
466.78	12161.42
466.96	12306.54
467.14	12781.67
467.32	12549.95
467.51	12765.28
467.69	12390.80
467.87	12561.66
468.05	12688.04
468.23	12217.60
468.41	12606.13
468.60	12725.49
468.78	12601.44
468.96	12844.86
469.14	13064.87
469.32	13128.06
469.50	12636.55
469.69	13104.66
469.87	13153.81
470.05	13062.53
470.23	13336.37
470.41	13238.07
470.59	13455.74
470.77	13163.17
470.95	13638.30
471.14	13612.56
471.32	13139.77
471.50	13767.03
471.68	13490.85
471.86	13771.71
472.04	13921.51
472.22	14204.71
472.40	13729.58
472.58	14043.21
472.77	14342.80
472.95	14403.66
473.13	14848.36
473.31	14190.67
473.49	14134.50
473.67	14221.10
473.85	14511.32
474.03	14679.84
474.21	14836.66
474.39	14803.89
474.57	14736.01
474.75	15096.46
474.93	15080.07
475.12	14778.14
475.30	15150.29
475.48	15379.66
475.66	15161.99
475.84	15150.29
476.02	15508.39
476.20	15559.88
476.38	15735.42
476.56	16035.01
476.74	15964.79
476.92	15920.32
477.10	16016.29
477.28	16596.74
477.46	16086.50
477.64	16341.62
477.82	16833.13
478.00	16891.65
478.18	17071.87
478.36	16905.69
478.54	17446.35
478.72	17163.15
478.90	17621.89
479.08	17731.90
479.26	17914.46
479.44	17832.54
479.62	17846.58
479.80	18094.68
479.98	18497.25
480.16	18583.85
480.34	18700.88
480.52	18810.89
480.70	18668.11
480.88	18700.88
481.06	18853.02
481.24	18796.84
481.41	19372.61
481.59	19398.36
481.77	19676.88
481.95	19796.25
482.13	19817.32
482.31	19838.38
482.49	20610.76
482.67	20430.54
482.85	20500.75
483.03	20868.22
483.21	21139.72
483.39	21018.01
483.57	20872.90
483.74	21231.00
483.92	21411.22
484.10	21563.36
484.28	22106.36
484.46	22031.46
484.64	22448.08
484.82	22178.92
485.00	22541.70
485.18	22934.91
485.35	23065.98
485.53	23140.88
485.71	23655.79
485.89	23871.12
486.07	23346.84
486.25	23599.62
486.43	24109.86
486.61	24170.71
486.78	24210.50
486.96	24556.90
487.14	24884.58
487.32	25027.35
487.50	25003.94
487.68	25242.68
487.85	25951.86
488.03	25570.35
488.21	26010.37
488.39	26199.96
488.57	26354.43
488.75	26471.46
488.92	26604.87
489.10	26829.56
489.28	27182.98
489.46	27292.99
489.64	27152.55
489.81	27885.14
489.99	27910.89
490.17	27826.63
490.35	28334.53
490.53	28540.49
490.70	28762.84
490.88	28701.99
491.06	28854.12
491.24	29579.69
491.41	29516.50
491.59	29259.04
491.77	29675.65
491.95	30176.53
492.13	30221.00
492.30	30235.04
492.48	30071.20
492.66	30426.96
492.84	30555.69
493.01	31079.97
493.19	30771.02
493.37	31260.20
493.54	31655.75
493.72	31754.05
493.90	31957.67
494.08	32177.68
494.25	32451.53
494.43	32280.67
494.61	32755.80
494.79	32964.10
494.96	32704.31
495.14	33043.68
495.32	33172.41
495.49	33364.34
495.67	33528.17
495.85	33862.87
496.02	34005.64
496.20	34616.52
496.38	34022.03
496.55	34632.91
496.73	34951.22
496.91	34852.92
497.09	35435.71
497.26	35351.45
497.44	35196.98
497.62	34939.52
497.79	36114.47
497.97	36002.12
498.14	36404.69
498.32	36336.82
498.50	36854.08
498.67	36863.44
498.85	36744.07
499.03	37284.73
499.20	37237.92
499.38	36992.17
499.56	37221.54
499.73	37467.30
499.91	37965.83
500.08	38223.29
500.26	37516.45
500.44	38209.25
500.61	37949.45
500.79	38300.53
500.97	38499.47
501.14	38656.29
501.32	38588.41
501.49	38707.78
501.67	38850.55
501.84	38859.91
502.02	39636.97
502.20	39470.79
502.37	39248.44
502.55	39438.03
502.72	39864.00
502.90	39896.77
503.07	40198.70
503.25	40315.73
503.43	39917.84
503.60	40481.91
503.78	40423.39
503.95	40268.92
504.13	40898.52
504.30	40788.52
504.48	40868.09
504.65	41102.15
504.83	41366.63
505.01	41764.52
505.18	41387.69
505.36	42375.40
505.53	41603.02
505.71	42239.65
505.88	42347.31
506.06	41724.73
506.23	41982.19
506.41	42244.33
506.58	42686.69
506.76	42431.57
506.93	42714.78
507.11	42518.17
507.28	43138.41
507.46	42794.36
507.63	43225.01
507.81	43548.01
507.98	43030.75
508.16	43491.83
508.33	43775.04
508.50	43629.93
508.68	43922.49
508.85	44313.36
509.03	44252.51
509.20	44315.70
509.38	44760.40
509.55	44758.06
509.73	44893.82
509.90	45076.38
510.08	44423.37
510.25	44753.38
510.42	44996.80
510.60	45600.66
510.77	45886.20
510.95	45607.68
511.12	45272.98
511.30	45532.78
511.47	45886.20
511.64	45958.76
511.82	46445.59
511.99	45689.60
512.17	46279.41
512.34	46232.60
512.51	46337.93
512.69	46742.84
512.86	46836.46
513.04	47009.66
513.21	46967.53
513.38	47143.07
513.56	46836.46
513.73	47295.21
513.90	47281.16
514.08	47210.95
514.25	47559.69
514.43	47707.14
514.60	47683.73
514.77	47512.88
514.95	47910.77
515.12	48149.50
515.29	47721.18
515.47	48250.14
515.64	48200.99
515.81	48273.55
515.99	48781.45
516.16	48980.39
516.33	48823.58
516.51	49013.16
516.68	48987.41
516.85	48729.95
517.03	49167.63
517.20	49116.14
517.37	49242.53
517.54	49001.46
517.72	49422.75
517.89	49394.67
518.06	49661.49
518.24	49535.10
518.41	49614.68
518.58	49806.60
518.75	49499.99
518.93	49925.97
519.10	49691.91
519.27	50052.36
519.45	49958.73
519.62	50024.27
519.79	50422.16
519.96	50153.00
520.14	50468.97
520.31	50532.17
520.48	50468.97
520.65	51175.81
520.83	51002.61
521.00	51103.26
521.17	50604.72
521.34	51004.95
521.52	51105.60
521.69	51339.65
521.86	50969.85
522.03	51302.20
522.20	51880.31
522.38	51547.96
522.55	51459.02
522.72	51636.90
522.89	51597.11
523.07	51868.61
523.24	51583.07
523.41	51985.64
523.58	51861.59
523.75	52196.29
523.92	52079.26
524.10	52233.74
524.27	52100.32
524.44	52257.14
524.61	52119.05
524.78	52247.78
524.96	52456.09
525.13	52428.00
525.30	52690.14
525.47	53120.80
525.64	52825.89
525.81	52830.57
525.98	53116.12
526.16	52853.98
526.33	52942.92
526.50	53518.69
526.67	53343.15
526.84	53371.24
527.01	53209.74
527.18	52945.26
527.36	53151.23
527.53	53303.36
527.70	53635.72
527.87	53712.95
528.04	53251.87
528.21	53476.56
528.38	53750.40
528.55	53794.87
528.72	53680.19
528.89	53717.64
529.07	53701.25
529.24	53619.33
529.41	54197.44
529.58	54066.38
529.75	53785.51
529.92	53909.56
530.09	54129.57
530.26	53998.50
530.43	54307.45
530.60	54129.57
530.77	54333.20
530.94	54321.49
531.11	54284.04
531.28	54440.86
531.46	54485.33
531.63	54639.81
531.80	54714.70
531.97	54712.36
532.14	54808.32
532.31	54609.38
532.48	54880.88
532.65	54948.76
532.82	54571.93
532.99	54873.86
533.16	54850.45
533.33	54920.67
533.50	55519.85
533.67	55238.98
533.84	54897.27
534.01	55011.95
534.18	55377.08
534.35	55671.98
534.52	55547.93
534.69	55491.76
534.86	55489.42
535.03	55215.58
535.20	55430.91
535.37	55515.17
535.54	55629.85
535.71	55456.65
535.88	55770.28
536.05	55620.49
536.22	55924.76
536.38	55910.72
536.55	55725.81
536.72	55884.97
536.89	55702.41
537.06	55854.54
537.23	55903.70
537.40	55791.35
537.57	56090.94
537.74	55969.23
537.91	56385.85
538.08	56023.06
538.25	56065.19
538.42	55959.87
538.59	56442.02
538.75	56072.21
538.92	56121.37
539.09	56432.66
539.26	56240.73
539.43	56224.35
539.60	56521.60
539.77	56336.69
539.94	56940.55
540.11	56772.03
540.28	56725.22
540.44	56552.02
540.61	56598.83
540.78	56582.45
540.95	56725.22
541.12	56629.26
541.29	56741.61
541.46	56788.42
541.62	56741.61
541.79	56875.02
541.96	56432.66
542.13	56767.35
542.30	56968.64
542.47	56987.36
542.63	56980.34
542.80	57172.27
542.97	57420.36
543.14	57352.49
543.31	57382.91
543.48	57345.47
543.64	57726.97
543.81	57598.24
543.98	57532.71
544.15	57565.48
544.32	57659.10
544.48	57808.89
544.65	57750.38
544.82	57776.12
544.99	57511.64
545.16	57853.36
545.32	57492.92
545.49	58089.76
545.66	57813.57
545.83	58108.48
546.00	58145.93
546.16	57982.09
546.33	57762.08
546.50	57689.52
546.67	58089.76
546.83	57642.71
547.00	57869.75
547.17	58129.54
547.34	58059.33
547.50	58328.49
547.67	58438.50
547.84	58042.95
548.00	58382.32
548.17	58429.13
548.34	58246.57
548.51	58447.86
548.67	58539.14
548.84	58269.98
549.01	58253.59
549.18	58363.60
549.34	58578.93
549.51	58569.57
549.68	58656.17
549.84	58513.39
550.01	58511.05
550.18	58419.77
550.34	58724.04
550.51	58745.11
550.68	58581.27
550.84	58492.33
551.01	58705.32
551.18	58768.51
551.34	58674.89
551.51	58834.05
551.68	58920.65
551.84	58934.69
552.01	58618.72
552.18	58901.92
552.34	58663.19
552.51	58915.96
552.68	58794.26
552.84	58843.41
553.01	59079.80
553.18	58988.52
553.34	58988.52
553.51	58951.07
553.67	59023.63
553.84	59154.70
554.01	59037.67
554.17	58960.44
554.34	58993.20
554.51	59243.64
554.67	59210.87
554.84	59147.68
555.00	59185.13
555.17	59131.29
555.33	59145.34
555.50	59175.76
555.67	59295.13
555.83	59231.94
556.00	59295.13
556.16	59648.55
556.33	59702.38
556.50	59351.30
556.66	59592.38
556.83	59217.89
556.99	59653.23
557.16	59732.81
557.32	59568.97
557.49	59877.93
557.65	59531.53
557.82	59791.33
557.98	59676.64
558.15	59714.09
558.32	59868.56
558.48	59695.36
558.65	59693.02
558.81	59643.87
558.98	59676.64
559.14	59924.74
559.31	59964.52
559.47	59887.29
559.64	60046.44
559.80	59917.71
559.97	60062.83
560.13	59810.05
560.30	60025.38
560.46	59845.16
560.63	60058.15
560.79	59955.16
560.96	60163.47
561.12	60088.57
561.29	60018.36
561.45	60067.51
561.61	60020.70
561.78	60214.96
561.94	60030.06
562.11	59945.80
562.27	60086.23
562.44	60090.91
562.60	60130.70
562.77	60231.35
562.93	59945.80
563.10	60264.11
563.26	60076.87
563.42	60348.37
563.59	60388.16
563.75	60231.35
563.92	60140.07
564.08	60299.22
564.24	60376.46
564.41	60238.37
564.57	60474.76
564.74	60177.51
564.90	60306.24
565.07	60250.07
565.23	60285.18
565.39	60254.75
565.56	60252.41
565.72	60261.77
565.88	60392.84
566.05	60488.80
566.21	60336.67
566.38	60477.10
566.54	60425.61
566.70	60577.75
566.87	60563.70
567.03	60449.02
567.19	60732.22
567.36	60619.88
567.52	60729.88
567.68	60790.73
567.85	60570.72
568.01	60664.35
568.17	60523.91
568.34	60626.90
568.50	60537.96
568.66	60481.78
568.83	60481.78
568.99	60402.21
569.15	60699.45
569.32	60783.71
569.48	60535.62
569.64	60680.73
569.81	60736.90
569.97	60783.71
570.13	60603.49
570.30	60713.50
570.46	60830.52
570.62	60821.16
570.78	60631.58
570.95	60654.98
571.11	60872.65
571.27	60942.87
571.43	60802.44
571.60	60917.12
571.76	60849.25
571.92	60963.93
572.09	60769.67
572.25	60741.58
572.41	60774.35
572.57	60697.11
572.74	60893.72
572.90	60839.89
573.06	60858.61
573.22	60818.82
573.38	60706.47
573.55	60891.38
573.71	60870.31
573.87	60938.19
574.03	60753.29
574.20	60956.91
574.36	60708.82
574.52	60917.12
574.68	60844.57
574.84	61027.13
575.01	61090.32
575.17	60856.27
575.33	60942.87
575.49	60949.89
575.65	60952.23
575.82	61080.96
575.98	61027.13
576.14	61179.26
576.30	61219.05
576.46	60945.21
576.62	60931.17
576.79	60828.18
576.95	60970.96
577.11	61031.81
577.27	60987.34
577.43	60968.61
577.59	60882.02
577.75	61031.81
577.92	61013.08
578.08	60889.04
578.24	60905.42
578.40	61202.67
578.56	61265.86
578.72	61076.28
578.88	61099.68
579.04	61169.90
579.21	61155.86
579.37	61179.26
579.53	61272.88
579.69	60956.91
579.85	60994.36
580.01	61080.96
580.17	61078.62
580.33	61139.47
580.49	61340.76
580.65	61008.40
580.82	61151.18
580.98	61083.30
581.14	60940.53
581.30	61200.33
581.46	61137.13
581.62	61249.48
581.78	61052.87
581.94	61069.26
582.10	61092.66
582.26	61317.35
582.42	60954.57
582.58	61169.90
582.74	61216.71
582.90	61300.97
583.06	61059.90
583.22	61013.08
583.38	61104.37
583.54	61165.22
583.70	61244.80
583.86	61155.86
584.02	61041.17
584.18	61247.14
584.34	61310.33
584.50	61322.04
584.66	60945.21
584.82	60842.23
584.98	61263.52
585.14	61139.47
585.30	61151.18
585.46	61146.50
585.62	61071.60
585.78	61546.73
585.94	61230.75
586.10	61240.12
586.26	61256.50
586.42	61247.14
586.58	61373.53
586.74	61291.61
586.90	61242.46
587.06	61106.71
587.22	61375.87
587.38	61195.65
587.54	61535.02
587.70	61474.17
587.86	61160.54
588.02	61296.29
588.18	61242.46
588.34	61202.67
588.49	61270.54
