SpectraSuite Data File
++++++++++++++++++++++++++++++++++++
Date: Fri Oct 25 11:22:43 EDT 2013
User: price-jones
Dark Spectrum Present: No
Reference Spectrum Present: No
Number of Sampled Component Spectra: 1
Spectrometers: USB2+H05261
Integration Time (usec): 100000 (USB2+H05261)
Spectra Averaged: 1 (USB2+H05261)
Boxcar Smoothing: 0 (USB2+H05261)
Correct for Electrical Dark: No (USB2+H05261)
Strobe/Lamp Enabled: No (USB2+H05261)
Correct for Detector Non-linearity: No (USB2+H05261)
Correct for Stray Light: No (USB2+H05261)
Number of Pixels in Processed Spectrum: 2048
>>>>>Begin Processed Spectral Data<<<<<
365.73	227.03
365.92	227.03
366.12	227.03
366.32	138.09
366.52	142.77
366.72	173.20
366.91	88.94
367.11	88.94
367.31	175.54
367.51	105.32
367.70	98.30
367.90	198.95
368.10	100.64
368.30	124.05
368.49	138.09
368.69	191.92
368.89	180.22
369.09	220.01
369.28	152.13
369.48	140.43
369.68	191.92
369.87	266.82
370.07	194.26
370.27	220.01
370.47	348.74
370.66	566.41
370.86	641.31
371.06	667.05
371.25	697.48
371.45	645.99
371.65	592.16
371.84	638.97
372.04	664.71
372.24	777.06
372.44	732.59
372.63	704.50
372.83	781.74
373.03	763.01
373.22	774.72
373.42	765.36
373.62	753.65
373.81	798.12
374.01	793.44
374.21	774.72
374.40	791.10
374.60	844.93
374.79	784.08
374.99	835.57
375.19	770.04
375.38	770.04
375.58	826.21
375.78	905.79
375.97	880.04
376.17	875.36
376.37	861.32
376.56	840.25
376.76	926.85
376.95	812.17
377.15	922.17
377.35	882.38
377.54	931.53
377.74	770.04
377.93	931.53
378.13	816.85
378.33	880.04
378.52	954.94
378.72	922.17
378.91	936.21
379.11	976.00
379.31	938.55
379.50	880.04
379.70	1053.24
379.89	1001.75
380.09	964.30
380.28	978.34
380.48	994.73
380.68	908.13
380.87	924.51
381.07	1053.24
381.26	1043.88
381.46	983.02
381.65	999.41
381.85	1100.05
382.04	1118.78
382.24	1095.37
382.43	973.66
382.63	1043.88
382.83	1029.84
383.02	1090.69
383.22	1086.01
383.41	1093.03
383.61	1170.27
383.80	1125.80
384.00	1174.95
384.19	1128.14
384.39	1224.10
384.58	1186.65
384.78	1181.97
384.97	1160.91
385.17	1107.07
385.36	1130.48
385.56	1123.46
385.75	1219.42
385.95	1130.48
386.14	1249.85
386.34	1249.85
386.53	1165.59
386.72	1151.54
386.92	1228.78
387.11	1188.99
387.31	1291.98
387.50	1231.12
387.70	1191.33
387.89	1179.63
388.09	1331.76
388.28	1242.82
388.48	1277.93
388.67	1439.43
388.86	1287.29
389.06	1299.00
389.25	1392.62
389.45	1289.64
389.64	1277.93
389.84	1373.89
390.03	1397.30
390.22	1364.53
390.42	1420.71
390.61	1362.19
390.81	1348.15
391.00	1306.02
391.19	1399.64
391.39	1362.19
391.58	1458.15
391.78	1519.01
391.97	1493.26
392.16	1437.09
392.36	1507.30
392.55	1540.07
392.75	1507.30
392.94	1423.05
393.13	1575.18
393.33	1495.60
393.52	1537.73
393.71	1577.52
393.91	1579.86
394.10	1509.65
394.29	1603.27
394.49	1626.67
394.68	1575.18
394.88	1565.82
395.07	1631.35
395.26	1687.53
395.46	1734.34
395.65	1727.32
395.84	1715.61
396.04	1689.87
396.23	1666.46
396.42	1720.29
396.62	1762.42
396.81	1867.75
397.00	1769.44
397.19	1806.89
397.39	1717.95
397.58	1858.39
397.77	1844.34
397.97	1865.41
398.16	1762.42
398.35	1874.77
398.55	1849.02
398.74	1823.28
398.93	1919.24
399.12	1914.56
399.32	1977.75
399.51	1987.11
399.70	1996.48
399.90	2012.86
400.09	2010.52
400.28	2087.76
400.47	2043.29
400.67	2125.21
400.86	2008.18
401.05	2026.90
401.24	2073.71
401.44	2183.72
401.63	2019.88
401.82	2200.10
402.01	2139.25
402.21	2143.93
402.40	2167.34
402.59	2141.59
402.78	2237.55
402.97	2221.17
403.17	2204.78
403.36	2312.45
403.55	2279.68
403.74	2464.58
403.93	2246.91
404.13	2385.01
404.32	2340.54
404.51	2429.48
404.70	2415.43
404.89	2380.32
405.09	2551.18
405.28	2537.14
405.47	2448.20
405.66	2487.99
405.85	2658.85
406.05	2441.18
406.24	2518.42
406.43	2473.95
406.62	2628.42
406.81	2733.75
407.00	2555.86
407.20	2581.61
407.39	2593.31
407.58	2745.45
407.77	2754.81
407.96	2726.72
408.15	2836.73
408.34	2822.69
408.54	2757.15
408.73	2778.22
408.92	2818.00
409.11	2871.84
409.30	2785.24
409.49	2928.01
409.68	2932.69
409.87	2897.58
410.07	3124.62
410.26	3038.02
410.45	2935.03
410.64	3042.70
410.83	3148.02
411.02	3061.42
411.21	3180.79
411.40	2965.46
411.59	3243.98
411.78	3260.37
411.98	3169.09
412.17	3309.52
412.36	3300.16
412.55	3337.60
412.74	3492.08
412.93	3536.55
413.12	3290.79
413.31	3648.90
413.50	3468.67
413.69	3522.51
413.88	3632.51
414.07	3609.11
414.26	3688.68
414.45	3719.11
414.64	3714.43
414.83	3709.75
415.02	3709.75
415.22	3843.16
415.41	3896.99
415.60	3887.63
415.79	3889.97
415.98	3913.38
416.17	3971.89
416.36	3964.87
416.55	3908.69
416.74	4007.00
416.93	4119.34
417.12	3988.27
417.31	4180.20
417.50	4166.15
417.69	4348.72
417.88	4236.37
418.07	4121.68
418.26	4367.44
418.45	4283.18
418.64	4479.79
418.83	4512.55
419.02	4503.19
419.21	4587.45
419.39	4517.23
419.58	4512.55
419.77	4437.66
419.96	4685.75
420.15	4526.60
420.34	4554.68
420.53	4669.37
420.72	4493.83
420.91	4709.16
421.10	4800.44
421.29	4868.31
421.48	4744.27
421.67	4975.98
421.86	4786.40
422.05	4805.12
422.24	4802.78
422.43	4877.68
422.61	4798.10
422.80	4975.98
422.99	4880.02
423.18	4908.10
423.37	4933.85
423.56	4835.55
423.75	4873.00
423.94	4854.27
424.13	4723.20
424.32	4709.16
424.50	4889.38
424.69	5163.22
424.88	5022.79
425.07	5020.45
425.26	4947.89
425.45	4835.55
425.64	4905.76
425.83	4936.19
426.01	5107.05
426.20	4990.02
426.39	5041.51
426.58	5116.41
426.77	5015.77
426.96	5191.31
427.15	5034.49
427.33	5167.90
427.52	5343.44
427.71	5451.11
427.90	5181.95
428.09	5418.34
428.28	5282.59
428.46	5252.16
428.65	5320.04
428.84	5462.81
429.03	5666.44
429.22	5444.09
429.40	5327.06
429.59	5437.06
429.78	5348.12
429.97	5345.78
430.16	5645.37
430.34	5547.07
430.53	5799.85
430.72	5671.12
430.91	5598.56
431.10	5659.42
431.28	5743.67
431.47	5886.45
431.66	5832.62
431.85	5743.67
432.03	5874.74
432.22	5935.60
432.41	5867.72
432.60	6026.88
432.79	6106.46
432.97	5811.55
433.16	6085.39
433.35	5944.96
433.54	5989.43
433.72	6040.92
433.91	6038.58
434.10	6291.36
434.28	6218.80
434.47	6324.13
434.66	6242.21
434.85	6209.44
435.03	6333.49
435.22	6300.72
435.41	6499.67
435.59	6305.40
435.78	6565.20
435.97	6399.02
436.16	6480.94
436.34	6586.27
436.53	6619.04
436.72	6682.23
436.90	6595.63
437.09	6445.84
437.28	6696.27
437.46	6803.94
437.65	6640.10
437.84	6668.19
438.02	6698.61
438.21	6705.63
438.40	6817.98
438.58	6956.07
438.77	7077.78
438.96	6942.03
439.14	7056.72
439.33	7332.90
439.52	7047.35
439.70	7311.83
439.89	7377.37
440.08	7405.46
440.26	7520.14
440.45	7372.69
440.63	7548.23
440.82	7604.40
441.01	7405.46
441.19	7620.78
441.38	7857.18
441.57	7777.60
441.75	7796.32
441.94	7840.79
442.12	7971.86
442.31	7974.21
442.50	8032.72
442.68	7997.61
442.87	8039.74
443.05	8159.11
443.24	8322.94
443.43	8259.75
443.61	8163.79
443.80	8498.49
443.98	8116.98
444.17	7981.23
444.35	8442.31
444.54	8336.99
444.73	8198.90
444.91	8339.33
445.10	8379.12
445.28	8287.84
445.47	8381.46
445.65	8496.14
445.84	8461.04
446.02	8489.12
446.21	8603.81
446.39	8318.26
446.58	8739.56
446.77	8620.19
446.95	8318.26
447.14	8510.19
447.32	8383.80
447.51	8472.74
447.69	8566.36
447.88	8561.68
448.06	8493.80
448.25	8510.19
448.43	8592.11
448.62	8652.96
448.80	8531.25
448.99	8461.04
449.17	8748.92
449.36	8559.34
449.54	8823.82
449.73	8990.00
449.91	9163.20
450.10	9008.72
450.28	9088.30
450.46	9130.43
450.65	9195.96
450.83	9083.62
451.02	9041.49
451.20	9280.22
451.39	9202.99
451.57	9214.69
451.76	9107.02
451.94	9240.44
452.13	9228.73
452.31	9254.48
452.49	9296.61
452.68	9310.65
452.86	9366.82
453.05	9518.96
453.23	9610.24
453.42	9561.09
453.60	9376.19
453.78	9572.79
453.97	9465.13
454.15	9430.02
454.34	9479.17
454.52	9944.94
454.70	9724.93
454.89	9790.46
455.07	9788.12
455.26	9898.13
455.44	9909.83
455.62	9832.59
455.81	9949.62
455.99	10003.45
456.17	10073.67
456.36	10132.18
456.54	10008.13
456.73	10406.02
456.91	10492.62
457.09	10469.22
457.28	10616.67
457.46	10480.92
457.64	10616.67
457.83	10539.43
458.01	10675.18
458.19	10724.33
458.38	10717.31
458.56	10710.29
458.74	10705.61
458.93	10808.59
459.11	10920.94
459.29	10846.04
459.48	10974.77
459.66	10824.98
459.84	10944.34
460.03	10932.64
460.21	10913.92
460.39	10902.22
460.57	11169.04
460.76	11110.52
460.94	11133.93
461.12	11138.61
461.31	11159.67
461.49	11314.15
461.67	11239.25
461.85	11440.54
462.04	11297.77
462.22	12070.14
462.40	11648.85
462.59	11660.55
462.77	11508.41
462.95	11730.76
463.13	11566.93
463.32	11667.57
463.50	12079.50
463.68	11772.89
463.86	11868.86
464.05	11812.68
464.23	11882.90
464.41	11854.81
464.59	11763.53
464.78	12205.89
464.96	12081.85
465.14	11782.26
465.32	11953.12
465.50	12168.45
465.69	12304.20
465.87	12222.28
466.05	12180.15
466.23	12138.02
466.41	12304.20
466.60	12397.82
466.78	12196.53
466.96	12217.60
467.14	12325.26
467.32	12416.54
467.51	12545.27
467.69	12070.14
467.87	12421.22
468.05	12814.43
468.23	12360.37
468.41	12332.28
468.60	12744.22
468.78	12905.71
468.96	12788.69
469.14	12678.68
469.32	13102.32
469.50	12727.83
469.69	13004.02
469.87	13083.59
470.05	13057.85
470.23	13165.51
470.41	13118.70
470.59	13240.41
470.77	13116.36
470.95	13324.67
471.14	13589.15
471.32	13153.81
471.50	13514.25
471.68	13624.26
471.86	13439.36
472.04	13769.37
472.22	14040.87
472.40	13881.72
472.58	13881.72
472.77	14164.92
472.95	14389.61
473.13	14656.43
473.31	14080.66
473.49	14214.07
473.67	14066.62
473.85	14560.47
474.03	14754.74
474.21	14626.01
474.39	14766.44
474.57	14616.65
474.75	14944.32
474.93	14960.70
475.12	15019.22
475.30	15183.06
475.48	14988.79
475.66	15171.35
475.84	15201.78
476.02	15550.52
476.20	15349.23
476.38	15742.44
476.56	16109.91
476.74	16259.70
476.92	16020.97
477.10	15798.62
477.28	15934.37
477.46	16341.62
477.64	16404.81
477.82	16910.37
478.00	16931.44
478.18	17008.67
478.36	17111.66
478.54	17355.07
478.72	17219.32
478.90	17488.48
479.08	17729.56
479.26	17872.33
479.44	17633.60
479.62	17862.97
479.80	18183.62
479.98	18541.72
480.16	18508.96
480.34	18448.10
480.52	18759.39
480.70	18745.35
480.88	18443.42
481.06	18937.27
481.24	19080.05
481.41	19112.81
481.59	19447.51
481.77	19307.08
481.95	20009.24
482.13	19915.62
482.31	19939.02
482.49	20362.66
482.67	20313.51
482.85	20421.17
483.03	20650.55
483.21	20617.78
483.39	21097.59
483.57	20954.82
483.74	21371.43
483.92	21277.81
484.10	21160.78
484.28	21544.63
484.46	22232.75
484.64	22139.13
484.82	22272.54
485.00	22728.94
485.18	22740.64
485.35	23253.22
485.53	23054.28
485.71	23477.91
485.89	23260.24
486.07	23407.70
486.25	23356.21
486.43	23702.61
486.61	23943.68
486.78	24210.50
486.96	24446.90
487.14	24793.29
487.32	24538.18
487.50	24945.43
487.68	25118.63
487.85	25399.49
488.03	25390.13
488.21	25949.52
488.39	25869.94
488.57	26211.66
488.75	26199.96
488.92	26513.59
489.10	26773.39
489.28	26752.32
489.46	27342.14
489.64	26895.10
489.81	27873.44
489.99	27679.18
490.17	27826.63
490.35	28222.18
490.53	28393.04
490.70	28641.14
490.88	28414.10
491.06	29123.29
491.24	28910.30
491.41	29071.79
491.59	29624.16
491.77	29465.00
491.95	29472.03
492.13	29909.71
492.30	30256.11
492.48	30298.23
492.66	30331.00
492.84	30749.96
493.01	31026.14
493.19	30501.86
493.37	31054.23
493.54	31119.76
493.72	31515.31
493.90	32025.55
494.08	31957.67
494.25	32060.66
494.43	32112.15
494.61	32554.51
494.79	32673.88
494.96	32772.18
495.14	32889.21
495.32	33647.54
495.49	33497.75
495.67	33764.57
495.85	33951.81
496.02	34068.84
496.20	33855.85
496.38	33991.60
496.55	34487.79
496.73	35262.51
496.91	34881.00
497.09	35328.05
497.26	34885.68
497.44	35576.14
497.62	35784.45
497.79	35906.16
497.97	35721.26
498.14	36058.29
498.32	36301.71
498.50	36325.11
498.67	36587.25
498.85	36446.82
499.03	37123.24
499.20	36844.71
499.38	36708.96
499.56	37319.84
499.73	37542.19
499.91	37717.73
500.08	37809.01
500.26	37680.28
500.44	38054.77
500.61	38085.20
500.79	37982.21
500.97	38431.60
501.14	38827.15
501.32	38876.30
501.49	38658.63
501.67	38850.55
501.84	39047.16
502.02	39192.27
502.20	39133.76
502.37	39639.31
502.55	39522.29
502.72	39838.26
502.90	39950.60
503.07	39667.40
503.25	40217.43
503.43	39952.94
503.60	39990.39
503.78	41060.02
503.95	40325.09
504.13	40737.02
504.30	40701.92
504.48	40835.33
504.65	40840.01
504.83	41153.64
505.01	41343.22
505.18	41380.67
505.36	41670.90
505.53	40966.40
505.71	41558.55
505.88	41794.95
506.06	41773.88
506.23	42368.38
506.41	41921.34
506.58	42485.40
506.76	42476.04
506.93	43107.99
507.11	42555.62
507.28	42892.66
507.46	42866.91
507.63	43246.08
507.81	43700.14
507.98	43225.01
508.16	43402.89
508.33	43384.17
508.50	43728.23
508.68	44025.48
508.85	44191.65
509.03	43880.36
509.20	43892.07
509.38	44414.01
509.55	44928.92
509.73	44847.00
509.90	44598.91
510.08	44282.94
510.25	44676.15
510.42	45141.91
510.60	45181.70
510.77	45141.91
510.95	45394.69
511.12	45200.43
511.30	45448.52
511.47	45488.31
511.64	45675.55
511.82	46274.73
511.99	45544.48
512.17	46071.10
512.34	45904.93
512.51	46674.96
512.69	46286.43
512.86	46478.36
513.04	47016.68
513.21	46869.23
513.38	46948.81
513.56	47103.28
513.73	46904.34
513.90	47248.39
514.08	46960.51
514.25	47316.27
514.43	47496.49
514.60	47819.49
514.77	47470.75
514.95	47721.18
515.12	47985.66
515.29	47615.86
515.47	47959.92
515.64	48378.87
515.81	47969.28
515.99	48465.47
516.16	48521.65
516.33	48460.79
516.51	48573.14
516.68	48236.10
516.85	48404.62
517.03	48900.81
517.20	48882.09
517.37	48966.35
517.54	49041.24
517.72	49277.64
517.89	49773.83
518.06	49221.47
518.24	49322.11
518.41	49078.69
518.58	49631.06
518.75	49525.74
518.93	50078.10
519.10	49598.29
519.27	50190.45
519.45	49741.06
519.62	50099.17
519.79	50071.08
519.96	49635.74
520.14	50387.05
520.31	50429.18
520.48	50361.31
520.65	50504.08
520.83	50677.28
521.00	50754.52
521.17	50660.90
521.34	50815.37
521.52	51133.68
521.69	50983.89
521.86	51028.36
522.03	51215.60
522.20	51423.91
522.38	51758.61
522.55	51599.45
522.72	51494.13
522.89	51459.02
523.07	52037.13
523.24	51669.67
523.41	51777.33
523.58	51566.68
523.75	52081.60
523.92	51838.18
524.10	52144.80
524.27	52154.16
524.44	52444.38
524.61	52374.17
524.78	52603.54
524.96	52362.46
525.13	52371.83
525.30	52360.12
525.47	52837.59
525.64	52905.47
525.81	52502.90
525.98	52736.95
526.16	52786.10
526.33	52566.09
526.50	53162.93
526.67	52968.66
526.84	53179.31
527.01	52914.83
527.18	53151.23
527.36	53104.41
527.53	53251.87
527.70	53633.38
527.87	53158.25
528.04	53490.60
528.21	53263.57
528.38	53429.75
528.55	53677.85
528.72	53324.43
528.89	53345.49
529.07	53345.49
529.24	53595.93
529.41	54124.89
529.58	53535.07
529.75	53682.53
529.92	53986.80
530.09	54005.52
530.26	54131.91
530.43	53996.16
530.60	53806.58
530.77	53930.62
530.94	54267.66
531.11	54075.74
531.28	54354.26
531.46	54557.89
531.63	54550.87
531.80	54337.88
531.97	54653.85
532.14	54632.78
532.31	54651.51
532.48	54663.21
532.65	54845.77
532.82	54452.56
532.99	54962.80
533.16	54621.08
533.33	54871.52
533.50	55175.79
533.67	54937.05
533.84	54834.07
534.01	55112.59
534.18	55084.51
534.35	55269.41
534.52	55175.79
534.69	55618.15
534.86	55262.39
535.03	55248.35
535.20	55327.92
535.37	55180.47
535.54	55416.86
535.71	55299.84
535.88	55667.30
536.05	55573.68
536.22	55587.72
536.38	55571.34
536.55	55793.69
536.72	55868.59
536.89	55894.33
537.06	55877.95
537.23	56058.17
537.40	55920.08
537.57	55931.78
537.74	55781.99
537.91	55985.61
538.08	55969.23
538.25	55679.00
538.42	55983.27
538.59	56381.16
538.75	56158.81
538.92	56088.60
539.09	56254.78
539.26	56179.88
539.43	56432.66
539.60	56051.15
539.77	56273.50
539.94	56608.20
540.11	56619.90
540.28	56612.88
540.44	56540.32
540.61	56598.83
540.78	56339.04
540.95	56411.59
541.12	56591.81
541.29	56491.17
541.46	56750.97
541.62	56753.31
541.79	56746.29
541.96	56584.79
542.13	56655.01
542.30	56959.28
542.47	56917.15
542.63	57008.43
542.80	57090.35
542.97	57230.78
543.14	57176.95
543.31	57078.64
543.48	57354.83
543.64	57778.46
543.81	57464.83
543.98	57418.02
544.15	57322.06
544.32	57495.26
544.48	57612.29
544.65	57317.38
544.82	57659.10
544.99	57382.91
545.16	57682.50
545.32	57359.51
545.49	57914.22
545.66	57872.09
545.83	57776.12
546.00	57818.25
546.16	57766.76
546.33	57869.75
546.50	57631.01
546.67	57930.60
546.83	57642.71
547.00	57762.08
547.17	58017.20
547.34	57954.00
547.50	58096.78
547.67	58131.89
547.84	58026.56
548.00	58473.60
548.17	58316.79
548.34	58232.53
548.51	58211.46
548.67	58438.50
548.84	58305.09
549.01	57982.09
549.18	58309.77
549.34	58356.58
549.51	58445.52
549.68	58560.20
549.84	58365.94
550.01	58499.35
550.18	58396.37
550.34	58445.52
550.51	58630.42
550.68	58646.80
550.84	58337.85
551.01	58569.57
551.18	58585.95
551.34	58553.18
551.51	58623.40
551.68	58831.71
551.84	58607.01
552.01	58672.55
552.18	58653.82
552.34	58564.88
552.51	58592.97
552.68	58653.82
552.84	58937.03
553.01	59004.91
553.18	58922.99
553.34	59068.10
553.51	58798.94
553.67	58862.13
553.84	59096.19
554.01	59068.10
554.17	59042.35
554.34	58915.96
554.51	59189.81
554.67	59217.89
554.84	59004.91
555.00	59245.98
555.17	59025.97
555.33	59238.96
555.50	59068.10
555.67	58993.20
555.83	59143.00
556.00	59213.21
556.16	59456.63
556.33	59302.15
556.50	59430.88
556.66	59721.11
556.83	59276.41
556.99	59615.79
557.16	59580.68
557.32	59547.91
557.49	59674.30
557.65	59540.89
557.82	59475.35
557.98	59571.32
558.15	59442.59
558.32	59763.24
558.48	59599.40
558.65	59510.46
558.81	59664.94
558.98	59648.55
559.14	59681.32
559.31	59791.33
559.47	59770.26
559.64	60025.38
559.80	59751.54
559.97	59732.81
560.13	59655.57
560.30	59770.26
560.46	59732.81
560.63	59929.42
560.79	59863.88
560.96	59971.55
561.12	60079.21
561.29	59915.37
561.45	59852.18
561.61	59791.33
561.78	59838.14
561.94	59987.93
562.11	60025.38
562.27	59999.63
562.44	60034.74
562.60	60088.57
562.77	60004.31
562.93	59758.56
563.10	60090.91
563.26	60128.36
563.42	60353.05
563.59	59978.57
563.75	60252.41
563.92	60179.85
564.08	60004.31
564.24	60470.08
564.41	60147.09
564.57	60406.89
564.74	60254.75
564.90	60193.90
565.07	60275.82
565.23	60121.34
565.39	60177.51
565.56	60453.70
565.72	60205.60
565.88	60168.15
566.05	60111.98
566.21	60186.88
566.38	60383.48
566.54	60137.72
566.70	60577.75
566.87	60622.22
567.03	60350.71
567.19	60554.34
567.36	60418.59
567.52	60346.03
567.68	60542.64
567.85	60477.10
568.01	60392.84
568.17	60322.63
568.34	60519.23
568.50	60460.72
568.66	60444.33
568.83	60479.44
568.99	60521.57
569.15	60563.70
569.32	60402.21
569.48	60470.08
569.64	60715.84
569.81	60570.72
569.97	60626.90
570.13	60441.99
570.30	60516.89
570.46	60748.60
570.62	60711.16
570.78	60772.01
570.95	60685.41
571.11	60860.95
571.27	60629.24
571.43	60676.05
571.60	60746.26
571.76	60800.10
571.92	60734.56
572.09	60631.58
572.25	60814.14
572.41	60566.04
572.57	60779.03
572.74	60919.46
572.90	60662.00
573.06	60753.29
573.22	60769.67
573.38	60699.45
573.55	60755.63
573.71	60966.27
573.87	60662.00
574.03	60757.97
574.20	60821.16
574.36	60619.88
574.52	60903.08
574.68	60657.32
574.84	60891.38
575.01	60865.63
575.17	60755.63
575.33	60779.03
575.49	60928.83
575.65	60940.53
575.82	61078.62
575.98	60907.76
576.14	61146.50
576.30	60860.95
576.46	60755.63
576.62	60844.57
576.79	60779.03
576.95	60795.42
577.11	60856.27
577.27	61076.28
577.43	60779.03
577.59	60750.94
577.75	60795.42
577.92	61013.08
578.08	61022.45
578.24	60966.27
578.40	60945.21
578.56	61069.26
578.72	60914.78
578.88	61226.07
579.04	61160.54
579.21	60928.83
579.37	61151.18
579.53	61052.87
579.69	60811.80
579.85	60994.36
580.01	60825.84
580.17	60886.70
580.33	61022.45
580.49	60980.32
580.65	60800.10
580.82	60987.34
580.98	60889.04
581.14	60966.27
581.30	61265.86
581.46	60919.46
581.62	61258.84
581.78	61010.74
581.94	61099.68
582.10	60989.68
582.26	61024.79
582.42	61087.98
582.58	61022.45
582.74	61059.90
582.90	61125.43
583.06	61059.90
583.22	60905.42
583.38	61045.85
583.54	61034.15
583.70	61268.20
583.86	61352.46
584.02	60985.00
584.18	61193.31
584.34	61261.18
584.50	61148.84
584.66	61127.77
584.82	60856.27
584.98	61132.45
585.14	61226.07
585.30	60933.51
585.46	61104.37
585.62	61043.51
585.78	61219.05
585.94	61029.47
586.10	60977.98
586.26	61216.71
586.42	61137.13
586.58	61212.03
586.74	61132.45
586.90	61057.56
587.06	60942.87
587.22	61329.06
587.38	61240.12
587.54	61296.29
587.70	61418.00
587.86	61307.99
588.02	61193.31
588.18	61123.09
588.34	61006.06
588.49	61258.84
