SpectraSuite Data File
++++++++++++++++++++++++++++++++++++
Date: Fri Oct 25 11:23:16 EDT 2013
User: price-jones
Dark Spectrum Present: No
Reference Spectrum Present: No
Number of Sampled Component Spectra: 1
Spectrometers: USB2+H05261
Integration Time (usec): 100000 (USB2+H05261)
Spectra Averaged: 1 (USB2+H05261)
Boxcar Smoothing: 0 (USB2+H05261)
Correct for Electrical Dark: No (USB2+H05261)
Strobe/Lamp Enabled: No (USB2+H05261)
Correct for Detector Non-linearity: No (USB2+H05261)
Correct for Stray Light: No (USB2+H05261)
Number of Pixels in Processed Spectrum: 2048
>>>>>Begin Processed Spectral Data<<<<<
365.73	252.78
365.92	252.78
366.12	252.78
366.32	128.73
366.52	166.18
366.72	121.71
366.91	70.22
367.11	149.79
367.31	177.88
367.51	128.73
367.70	67.88
367.90	119.37
368.10	133.41
368.30	131.07
368.49	140.43
368.69	140.43
368.89	121.71
369.09	201.29
369.28	201.29
369.48	210.65
369.68	166.18
369.87	177.88
370.07	222.35
370.27	220.01
370.47	332.36
370.66	622.58
370.86	620.24
371.06	645.99
371.25	702.16
371.45	664.71
371.65	758.33
371.84	723.23
372.04	772.38
372.24	697.48
372.44	655.35
372.63	676.41
372.83	767.70
373.03	746.63
373.22	657.69
373.42	732.59
373.62	763.01
373.81	819.19
374.01	809.83
374.21	854.30
374.40	812.17
374.60	842.59
374.79	784.08
374.99	835.57
375.19	849.61
375.38	772.38
375.58	788.76
375.78	814.51
375.97	884.72
376.17	873.02
376.37	908.13
376.56	849.61
376.76	870.68
376.95	875.36
377.15	901.11
377.35	884.72
377.54	861.32
377.74	858.98
377.93	828.55
378.13	966.64
378.33	964.30
378.52	968.98
378.72	978.34
378.91	910.47
379.11	905.79
379.31	966.64
379.50	940.90
379.70	926.85
379.89	954.94
380.09	954.94
380.28	987.71
380.48	954.94
380.68	910.47
380.87	940.90
381.07	1015.79
381.26	1032.18
381.46	954.94
381.65	1048.56
381.85	1078.99
382.04	1088.35
382.24	1020.47
382.43	1069.62
382.63	1097.71
382.83	1034.52
383.02	1179.63
383.22	1200.69
383.41	1116.44
383.61	1097.71
383.80	1149.20
384.00	1086.01
384.19	1095.37
384.39	1235.80
384.58	1114.10
384.78	1142.18
384.97	1193.67
385.17	1170.27
385.36	1184.31
385.56	1090.69
385.75	1111.75
385.95	1132.82
386.14	1170.27
386.34	1205.38
386.53	1266.23
386.72	1224.10
386.92	1280.27
387.11	1221.76
387.31	1315.38
387.50	1266.23
387.70	1245.16
387.89	1245.16
388.09	1338.79
388.28	1320.06
388.48	1275.59
388.67	1352.83
388.86	1282.61
389.06	1355.17
389.25	1394.96
389.45	1352.83
389.64	1378.58
389.84	1331.76
390.03	1425.39
390.22	1385.60
390.42	1479.22
390.61	1441.77
390.81	1444.11
391.00	1455.81
391.19	1420.71
391.39	1511.99
391.58	1444.11
391.78	1434.75
391.97	1373.89
392.16	1490.92
392.36	1561.14
392.55	1514.33
392.75	1413.68
392.94	1533.05
393.13	1591.56
393.33	1568.16
393.52	1561.14
393.71	1680.50
393.91	1621.99
394.10	1600.93
394.29	1565.82
394.49	1678.16
394.68	1617.31
394.88	1605.61
395.07	1732.00
395.26	1600.93
395.46	1645.40
395.65	1753.06
395.84	1762.42
396.04	1823.28
396.23	1682.85
396.42	1703.91
396.62	1771.79
396.81	1764.76
397.00	1802.21
397.19	1783.49
397.39	1842.00
397.58	1771.79
397.77	1795.19
397.97	1959.03
398.16	1790.51
398.35	1907.54
398.55	1975.41
398.74	1989.46
398.93	2012.86
399.12	1900.52
399.32	1844.34
399.51	1926.26
399.70	1952.01
399.90	2003.50
400.09	1959.03
400.28	2101.80
400.47	2078.40
400.67	2134.57
400.86	2050.31
401.05	2045.63
401.24	2155.63
401.44	2200.10
401.63	2064.35
401.82	2066.69
402.01	2059.67
402.21	2242.23
402.40	2153.29
402.59	2153.29
402.78	2363.94
402.97	2232.87
403.17	2296.07
403.36	2270.32
403.55	2345.22
403.74	2448.20
403.93	2202.44
404.13	2265.64
404.32	2401.39
404.51	2399.05
404.70	2354.58
404.89	2445.86
405.09	2485.65
405.28	2471.61
405.47	2429.48
405.66	2621.40
405.85	2506.71
406.05	2572.25
406.24	2633.10
406.43	2649.49
406.62	2579.27
406.81	2700.98
407.00	2581.61
407.20	2647.15
407.39	2684.59
407.58	2689.28
407.77	2792.26
407.96	2785.24
408.15	2731.41
408.34	2771.19
408.54	2794.60
408.73	2853.11
408.92	2902.26
409.11	2864.82
409.30	2970.14
409.49	2939.71
409.68	3002.91
409.87	2923.33
410.07	3061.42
410.26	3150.36
410.45	2951.42
410.64	2988.86
410.83	3145.68
411.02	3157.38
411.21	3129.30
411.40	3199.51
411.59	3171.43
411.78	3206.53
411.98	3164.40
412.17	3304.84
412.36	3407.82
412.55	3361.01
412.74	3424.20
412.93	3370.37
413.12	3339.94
413.31	3545.91
413.50	3501.44
413.69	3566.98
413.88	3754.22
414.07	3536.55
414.26	3728.47
414.45	3740.18
414.64	3695.71
414.83	3843.16
415.02	3829.12
415.22	3794.01
415.41	3896.99
415.60	3904.01
415.79	3868.91
415.98	3946.14
416.17	3969.55
416.36	4058.49
416.55	3971.89
416.74	3882.95
416.93	4182.54
417.12	4180.20
417.31	4173.18
417.50	4072.53
417.69	4299.56
417.88	4329.99
418.07	4341.69
418.26	4266.80
418.45	4285.52
418.64	4636.60
418.83	4264.46
419.02	4411.91
419.21	4650.64
419.39	4552.34
419.58	4526.60
419.77	4510.21
419.96	4741.93
420.15	4788.74
420.34	4608.51
420.53	4660.01
420.72	4741.93
420.91	4699.80
421.10	4669.37
421.29	4910.44
421.48	4812.14
421.67	4844.91
421.86	4732.56
422.05	4875.34
422.24	4772.35
422.43	4997.04
422.61	5121.09
422.80	5004.07
422.99	4910.44
423.18	4968.96
423.37	5039.17
423.56	5060.24
423.75	4882.36
423.94	4861.29
424.13	4652.98
424.32	4748.95
424.50	5011.09
424.69	5041.51
424.88	5158.54
425.07	4968.96
425.26	5177.26
425.45	4936.19
425.64	5020.45
425.83	5039.17
426.01	5139.82
426.20	4997.04
426.39	5025.13
426.58	4985.34
426.77	5062.58
426.96	5200.67
427.15	5280.25
427.33	5137.48
427.52	5135.14
427.71	5350.46
427.90	5259.18
428.09	5401.96
428.28	5448.77
428.46	5554.09
428.65	5362.17
428.84	5387.91
429.03	5495.58
429.22	5549.41
429.40	5518.98
429.59	5650.05
429.78	5394.93
429.97	5266.21
430.16	5521.32
430.34	5636.01
430.53	5675.80
430.72	5675.80
430.91	5568.13
431.10	5696.86
431.28	5731.97
431.47	5692.18
431.66	5788.14
431.85	5834.96
432.03	5947.30
432.22	5874.74
432.41	6026.88
432.60	6012.84
432.79	6017.52
432.97	6036.24
433.16	6176.67
433.35	5977.73
433.54	6050.28
433.72	6150.93
433.91	6197.74
434.10	6024.54
434.28	6078.37
434.47	6422.43
434.66	6375.62
434.85	6349.87
435.03	6384.98
435.22	6420.09
435.41	6466.90
435.59	6377.96
435.78	6499.67
435.97	6525.41
436.16	6429.45
436.34	6567.54
436.53	6614.35
436.72	6597.97
436.90	6530.09
437.09	6686.91
437.28	6609.67
437.46	6590.95
437.65	6502.01
437.84	6743.08
438.02	6874.15
438.21	6911.60
438.40	6717.34
438.58	7007.56
438.77	7304.81
438.96	6918.62
439.14	7293.11
439.33	7201.83
439.52	7403.11
439.70	7377.37
439.89	7515.46
440.08	7309.49
440.26	7391.41
440.45	7449.93
440.63	7478.01
440.82	7590.36
441.01	7517.80
441.19	7662.91
441.38	7702.70
441.57	7655.89
441.75	7819.73
441.94	7932.08
442.12	7892.29
442.31	8264.43
442.50	8109.96
442.68	7943.78
442.87	8175.49
443.05	8180.17
443.24	8327.63
443.43	8304.22
443.61	8353.37
443.80	8308.90
443.98	8175.49
444.17	7896.97
444.35	8234.00
444.54	8486.78
444.73	8336.99
444.91	8521.89
445.10	8397.84
445.28	8290.18
445.47	8313.58
445.65	8306.56
445.84	8491.46
446.02	8557.00
446.21	8514.87
446.39	8573.38
446.58	8608.49
446.77	8493.80
446.95	8341.67
447.14	8697.43
447.32	8468.06
447.51	8730.20
447.69	8566.36
447.88	8779.35
448.06	8629.56
448.25	8678.71
448.43	8678.71
448.62	8608.49
448.80	8540.61
448.99	8739.56
449.17	8891.70
449.36	8760.63
449.54	8807.44
449.73	9034.47
449.91	9153.84
450.10	8982.98
450.28	9228.73
450.46	9167.88
450.65	9121.07
450.83	9160.86
451.02	8968.93
451.20	9357.46
451.39	9280.22
451.57	9392.57
451.76	9121.07
451.94	9221.71
452.13	9418.32
452.31	9191.28
452.49	9242.78
452.68	9397.25
452.86	9465.13
453.05	9500.23
453.23	9479.17
453.42	9404.27
453.60	9462.79
453.78	9565.77
453.97	9458.10
454.15	9640.67
454.34	9565.77
454.52	9813.87
454.70	9839.61
454.89	9680.46
455.07	9748.33
455.26	9984.73
455.44	9937.91
455.62	10143.88
455.81	9954.30
455.99	10225.80
456.17	10139.20
456.36	10066.64
456.54	10232.82
456.73	10298.36
456.91	10630.71
457.09	10539.43
457.28	10593.26
457.46	10427.09
457.64	10623.69
457.83	10511.35
458.01	10394.32
458.19	10766.46
458.38	10583.90
458.56	10698.59
458.74	10780.51
458.93	10576.88
459.11	10930.30
459.29	10881.15
459.48	10944.34
459.66	11049.67
459.84	10981.79
460.03	11126.91
460.21	11059.03
460.39	10972.43
460.57	11042.65
460.76	10923.28
460.94	11234.57
461.12	11236.91
461.31	11019.24
461.49	11314.15
461.67	11297.77
461.85	11786.94
462.04	11332.87
462.22	11623.10
462.40	11625.44
462.59	11634.80
462.77	11810.34
462.95	11712.04
463.13	11901.62
463.32	11765.87
463.50	11854.81
463.68	11775.24
463.86	11934.39
464.05	11669.91
464.23	11737.79
464.41	11948.43
464.59	11747.15
464.78	12095.89
464.96	12131.00
465.14	11922.69
465.32	12163.76
465.50	12173.13
465.69	12351.01
465.87	12142.70
466.05	12259.73
466.23	12594.42
466.41	12638.89
466.60	12737.20
466.78	12166.10
466.96	12123.98
467.14	12510.16
467.32	12390.80
467.51	12772.30
467.69	12341.64
467.87	12791.03
468.05	12840.18
468.23	12683.36
468.41	12456.33
468.60	12833.16
468.78	12964.23
468.96	12812.09
469.14	13233.39
469.32	13294.24
469.50	12870.61
469.69	12978.27
469.87	13312.97
470.05	13069.55
470.23	13207.64
470.41	13280.20
470.59	13322.33
470.77	13224.03
470.95	13336.37
471.14	13734.26
471.32	13277.86
471.50	13621.92
471.68	13825.54
471.86	13603.19
472.04	13935.55
472.22	14295.99
472.40	13860.65
472.58	13888.74
472.77	14010.45
472.95	14265.57
473.13	14417.70
473.31	14195.35
473.49	14480.89
473.67	14139.18
473.85	14331.10
474.03	14857.72
474.21	14675.16
474.39	14855.38
474.57	14869.42
474.75	15105.82
474.93	14843.68
475.12	14913.89
475.30	15199.44
475.48	15279.02
475.66	15250.93
475.84	15302.42
476.02	15522.43
476.20	15391.36
476.38	15859.47
476.56	16030.33
476.74	16093.52
476.92	16170.76
477.10	15934.37
477.28	16582.70
477.46	16463.33
477.64	16540.57
477.82	16872.92
478.00	17397.20
478.18	16996.97
478.36	17137.40
478.54	17336.35
478.72	17458.06
478.90	17666.36
479.08	17752.96
479.26	17818.50
479.44	17858.29
479.62	18223.41
479.80	18391.93
479.98	18235.11
480.16	18466.83
480.34	18321.71
480.52	18850.67
480.70	18714.92
480.88	18443.42
481.06	19131.54
481.24	19194.73
481.41	19138.56
481.59	19772.85
481.77	19646.46
481.95	19534.11
482.13	19927.32
482.31	19756.46
482.49	20386.07
482.67	20489.05
482.85	20627.14
483.03	20762.89
483.21	21130.36
483.39	21167.80
483.57	20919.71
483.74	21057.80
483.92	21614.85
484.10	21394.84
484.28	22022.10
484.46	21982.31
484.64	22644.68
484.82	22272.54
485.00	22492.55
485.18	22698.52
485.35	23164.28
485.53	22970.02
485.71	23527.06
485.89	23498.98
486.07	23587.92
486.25	23634.73
486.43	23702.61
486.61	24039.64
486.78	24063.05
486.96	24430.51
487.14	25017.99
487.32	25209.91
487.50	24996.92
487.68	25095.22
487.85	25373.75
488.03	25865.26
488.21	26190.59
488.39	25963.56
488.57	26567.42
488.75	26356.77
488.92	27087.02
489.10	27243.84
489.28	27089.36
489.46	27407.67
489.64	27414.69
489.81	28048.98
489.99	27903.87
490.17	28268.99
490.35	28334.53
490.53	28584.96
490.70	28919.66
490.88	28676.24
491.06	29144.35
491.24	29261.38
491.41	29289.46
491.59	29570.33
491.77	29490.75
491.95	29778.64
492.13	30291.21
492.30	30052.48
492.48	30246.74
492.66	30682.08
492.84	30513.56
493.01	31119.76
493.19	30998.06
493.37	31211.04
493.54	31421.69
493.72	31983.42
493.90	31742.35
494.08	32165.98
494.25	32493.66
494.43	32240.88
494.61	32552.17
494.79	32552.17
494.96	32428.12
495.14	33036.66
495.32	33565.62
495.49	33401.79
495.67	33846.49
495.85	33530.51
496.02	33949.47
496.20	34099.26
496.38	34129.69
496.55	34916.11
496.73	34946.54
496.91	35037.82
497.09	35159.53
497.26	35140.80
497.44	35353.79
497.62	35737.64
497.79	35981.06
497.97	36009.14
498.14	36439.80
498.32	36268.94
498.50	36465.55
498.67	36893.86
498.85	36823.65
499.03	37132.60
499.20	36739.39
499.38	37237.92
499.56	37392.40
499.73	37212.18
499.91	37591.34
500.08	37860.51
500.26	37537.51
500.44	38251.38
500.61	38038.39
500.79	38253.72
500.97	38796.72
501.14	38808.42
501.32	38672.67
501.49	39185.25
501.67	39281.21
501.84	39555.05
502.02	39395.90
502.20	39330.36
502.37	39889.75
502.55	39285.89
502.72	39842.94
502.90	39754.00
503.07	39931.88
503.25	40133.17
503.43	40142.53
503.60	40636.38
503.78	40809.58
503.95	40627.02
504.13	40975.76
504.30	40870.43
504.48	40917.25
504.65	41336.20
504.83	41357.27
505.01	41570.25
505.18	41567.91
505.36	42089.85
505.53	41280.03
505.71	41710.69
505.88	42541.58
506.06	41572.60
506.23	42490.09
506.41	42443.27
506.58	42256.03
506.76	42457.32
506.93	43426.30
507.11	42817.76
507.28	42775.63
507.46	43157.14
507.63	43269.48
507.81	43735.25
507.98	43517.58
508.16	43356.08
508.33	43550.35
508.50	43765.68
508.68	44411.67
508.85	44385.92
509.03	44116.76
509.20	44353.15
509.38	44612.95
509.55	45029.57
509.73	44781.47
509.90	44978.07
510.08	44612.95
510.25	45296.39
510.42	45170.00
510.60	45755.13
510.77	45443.84
510.95	45516.40
511.12	45567.89
511.30	45556.19
511.47	45762.15
511.64	45694.28
511.82	45942.38
511.99	46106.21
512.17	46223.24
512.34	46248.99
512.51	46529.85
512.69	46576.66
512.86	46955.83
513.04	46799.01
513.21	47260.10
513.38	47035.41
513.56	47386.49
513.73	46976.89
513.90	47374.78
514.08	47625.22
514.25	47494.15
514.43	47793.74
514.60	47620.54
514.77	47473.09
514.95	48200.99
515.12	47810.12
515.29	48072.26
515.47	48252.48
515.64	48421.00
515.81	48072.26
515.99	48516.96
516.16	48608.25
516.33	48486.54
516.51	48956.99
516.68	49020.18
516.85	49015.50
517.03	49081.03
517.20	49169.97
517.37	49139.55
517.54	49514.03
517.72	49331.47
517.89	49331.47
518.06	49387.64
518.24	49790.22
518.41	49546.80
518.58	49794.90
518.75	49694.25
518.93	49841.71
519.10	49841.71
519.27	50209.17
519.45	49947.03
519.62	50078.10
519.79	50225.56
519.96	50468.97
520.14	50424.50
520.31	50389.39
520.48	50660.90
520.65	50831.75
520.83	50911.33
521.00	50983.89
521.17	50859.84
521.34	51089.21
521.52	50869.20
521.69	50965.17
521.86	51098.58
522.03	51402.85
522.20	51751.59
522.38	51927.13
522.55	51711.80
522.72	51608.81
522.89	51351.35
523.07	52097.98
523.24	51866.27
523.41	52016.07
523.58	51997.34
523.75	52271.18
523.92	52135.43
524.10	52147.14
524.27	52706.52
524.44	52357.78
524.61	52460.77
524.78	52582.48
524.96	52584.82
525.13	52982.71
525.30	52818.87
525.47	52699.50
525.64	52832.91
525.81	53006.11
525.98	53095.05
526.16	52781.42
526.33	53006.11
526.50	53303.36
526.67	52968.66
526.84	53137.18
527.01	53275.27
527.18	53160.59
527.36	53394.64
527.53	53270.59
527.70	53490.60
527.87	53638.06
528.04	53382.94
528.21	53965.73
528.38	53820.62
528.55	53996.16
528.72	53420.39
528.89	54148.29
529.07	53605.29
529.24	53666.14
529.41	53942.33
529.58	53991.48
529.75	54019.56
529.92	54209.15
530.09	54124.89
530.26	54475.97
530.43	54237.23
530.60	54342.56
530.77	53965.73
530.94	54351.92
531.11	54122.55
531.28	54590.66
531.46	54522.78
531.63	54667.89
531.80	54621.08
531.97	54726.41
532.14	54745.13
532.31	54864.50
532.48	54590.66
532.65	54941.74
532.82	54712.36
532.99	54770.88
533.16	54920.67
533.33	55124.30
533.50	55147.70
533.67	55157.06
533.84	54946.42
534.01	54831.73
534.18	55075.15
534.35	55461.33
534.52	55412.18
534.69	55604.11
534.86	55571.34
535.03	55370.05
535.20	55615.81
535.37	55370.05
535.54	55660.28
535.71	55318.56
535.88	55690.71
536.05	55667.30
536.22	55915.40
536.38	55767.94
536.55	55920.08
536.72	56004.34
536.89	55849.86
537.06	55817.10
537.23	56081.58
537.40	55901.36
537.57	55994.98
537.74	56006.68
537.91	56238.39
538.08	56020.72
538.25	55854.54
538.42	56149.45
538.59	56561.39
538.75	56037.11
538.92	56233.71
539.09	56463.08
539.26	56362.44
539.43	56163.50
539.60	56559.05
539.77	56465.42
539.94	56725.22
540.11	56547.34
540.28	56640.96
540.44	56818.84
540.61	56807.14
540.78	56587.13
540.95	56750.97
541.12	56650.33
541.29	56713.52
541.46	56872.68
541.62	56725.22
541.79	56802.46
541.96	56783.74
542.13	56690.12
542.30	56968.64
542.47	57169.93
542.63	57198.01
542.80	57134.82
542.97	57286.95
543.14	57584.20
543.31	57366.53
543.48	57497.60
543.64	57663.78
543.81	57532.71
543.98	57719.95
544.15	57691.86
544.32	57787.83
544.48	57736.34
544.65	57794.85
544.82	57668.46
544.99	57808.89
545.16	57752.72
545.32	57649.74
545.49	57928.26
545.66	58131.89
545.83	57673.14
546.00	58021.88
546.16	57937.62
546.33	57649.74
546.50	57752.72
546.67	58033.58
546.83	57780.81
547.00	57984.43
547.17	57984.43
547.34	58190.40
547.50	58087.42
547.67	58262.96
547.84	58379.98
548.00	58309.77
548.17	58426.79
548.34	58429.13
548.51	58489.99
548.67	58438.50
548.84	58319.13
549.01	58326.15
549.18	58333.17
549.34	58480.63
549.51	58412.75
549.68	58649.14
549.84	58532.12
550.01	58780.21
550.18	58363.60
550.34	58691.27
550.51	58721.70
550.68	58724.04
550.84	58546.16
551.01	58761.49
551.18	58922.99
551.34	58794.26
551.51	58869.15
551.68	58803.62
551.84	58848.09
552.01	58688.93
552.18	58951.07
552.34	58831.71
552.51	59133.63
552.68	58904.26
552.84	58665.53
553.01	59112.57
553.18	59047.04
553.34	59047.04
553.51	59056.40
553.67	59018.95
553.84	59182.79
554.01	59363.01
554.17	59245.98
554.34	59341.94
554.51	59030.65
554.67	59325.56
554.84	59292.79
555.00	59271.73
555.17	59363.01
555.33	59318.54
555.50	59077.46
555.67	59185.13
555.83	59231.94
556.00	59433.22
556.16	59777.28
556.33	59552.59
556.50	59622.81
556.66	59484.72
556.83	59477.69
556.99	59515.14
557.16	59627.49
557.32	59716.43
557.49	59941.12
557.65	59540.89
557.82	59604.08
557.98	59463.65
558.15	59590.04
558.32	59704.73
558.48	59419.18
558.65	59704.73
558.81	59718.77
558.98	59655.57
559.14	59667.28
559.31	59847.50
559.47	60095.60
559.64	60154.11
559.80	59774.94
559.97	59854.52
560.13	59875.58
560.30	60044.10
560.46	60020.70
560.63	59945.80
560.79	59929.42
560.96	60308.58
561.12	60130.70
561.29	59964.52
561.45	60135.38
561.61	59955.16
561.78	59985.59
561.94	60004.31
562.11	60097.94
562.27	60104.96
562.44	59983.25
562.60	60172.83
562.77	60200.92
562.93	60210.28
563.10	60322.63
563.26	60154.11
563.42	60406.89
563.59	60217.30
563.75	60158.79
563.92	60240.71
564.08	60121.34
564.24	60268.79
564.41	60385.82
564.57	60486.46
564.74	60355.39
564.90	60317.95
565.07	60233.69
565.23	60282.84
565.39	60409.23
565.56	60598.81
565.72	60245.39
565.88	60425.61
566.05	60275.82
566.21	60343.69
566.38	60357.74
566.54	60596.47
566.70	60449.02
566.87	60776.69
567.03	60533.28
567.19	60528.59
567.36	60570.72
567.52	60355.39
567.68	60830.52
567.85	60727.54
568.01	60772.01
568.17	60706.47
568.34	60610.51
568.50	60509.87
568.66	60582.43
568.83	60631.58
568.99	60416.25
569.15	60619.88
569.32	60580.09
569.48	60757.97
569.64	60800.10
569.81	60720.52
569.97	60528.59
570.13	60601.15
570.30	60643.28
570.46	60844.57
570.62	60671.37
570.78	60669.03
570.95	60856.27
571.11	60809.46
571.27	60795.42
571.43	60804.78
571.60	60851.59
571.76	60678.39
571.92	60954.57
572.09	60945.21
572.25	60865.63
572.41	60554.34
572.57	60762.65
572.74	61020.11
572.90	60666.69
573.06	60919.46
573.22	60940.53
573.38	60772.01
573.55	60949.89
573.71	60919.46
573.87	60940.53
574.03	60755.63
574.20	60919.46
574.36	60893.72
574.52	60804.78
574.68	61132.45
574.84	61146.50
575.01	61148.84
575.17	61008.40
575.33	60849.25
575.49	60994.36
575.65	61139.47
575.82	61263.52
575.98	61038.83
576.14	61277.57
576.30	61048.19
576.46	60907.76
576.62	60921.80
576.79	60959.25
576.95	61034.15
577.11	61272.88
577.27	60956.91
577.43	61045.85
577.59	60938.19
577.75	61219.05
577.92	60870.31
578.08	60980.32
578.24	61169.90
578.40	61123.09
578.56	61165.22
578.72	61052.87
578.88	61303.31
579.04	61261.18
579.21	60947.55
579.37	61092.66
579.53	61263.52
579.69	61071.60
579.85	61071.60
580.01	61010.74
580.17	61256.50
580.33	61300.97
580.49	61113.73
580.65	61219.05
580.82	61003.72
580.98	60985.00
581.14	61034.15
581.30	61338.42
581.46	61095.00
581.62	61109.05
581.78	61015.43
581.94	61181.60
582.10	61113.73
582.26	61087.98
582.42	61179.26
582.58	61155.86
582.74	61087.98
582.90	61097.34
583.06	61113.73
583.22	61066.92
583.38	61202.67
583.54	61286.93
583.70	61216.71
583.86	61195.65
584.02	60989.68
584.18	61205.01
584.34	61190.97
584.50	61202.67
584.66	60928.83
584.82	60987.34
584.98	61298.63
585.14	61179.26
585.30	61200.33
585.46	61415.66
585.62	61415.66
585.78	61249.48
585.94	60945.21
586.10	61179.26
586.26	61300.97
586.42	61230.75
586.58	61490.55
586.74	61399.27
586.90	61087.98
587.06	61090.32
587.22	61099.68
587.38	61293.95
587.54	61422.68
587.70	61504.60
587.86	61179.26
588.02	61364.17
588.18	61387.57
588.34	61317.35
588.49	61258.84
