SpectraSuite Data File
++++++++++++++++++++++++++++++++++++
Date: Fri Oct 25 10:43:15 EDT 2013
User: price-jones
Dark Spectrum Present: No
Reference Spectrum Present: No
Number of Sampled Component Spectra: 1
Spectrometers: USB2+H05261
Integration Time (usec): 100000 (USB2+H05261)
Spectra Averaged: 1 (USB2+H05261)
Boxcar Smoothing: 0 (USB2+H05261)
Correct for Electrical Dark: No (USB2+H05261)
Strobe/Lamp Enabled: No (USB2+H05261)
Correct for Detector Non-linearity: No (USB2+H05261)
Correct for Stray Light: No (USB2+H05261)
Number of Pixels in Processed Spectrum: 2048
>>>>>Begin Processed Spectral Data<<<<<
365.73	107.66
365.92	107.66
366.12	107.66
366.32	32.77
366.52	35.11
366.72	30.43
366.91	30.43
367.11	70.22
367.31	0.00
367.51	77.24
367.70	65.54
367.90	72.56
368.10	35.11
368.30	42.13
368.49	46.81
368.69	16.38
368.89	58.51
369.09	37.45
369.28	42.13
369.48	39.79
369.68	58.51
369.87	72.56
370.07	107.66
370.27	229.37
370.47	205.97
370.66	379.17
370.86	449.38
371.06	435.34
371.25	528.96
371.45	526.62
371.65	358.10
371.84	461.09
372.04	388.53
372.24	512.58
372.44	543.00
372.63	418.96
372.83	575.77
373.03	470.45
373.22	519.60
373.42	622.58
373.62	491.51
373.81	575.77
374.01	498.53
374.21	573.43
374.40	622.58
374.60	528.96
374.79	493.85
374.99	561.73
375.19	543.00
375.38	669.39
375.58	550.03
375.78	543.00
375.97	613.22
376.17	603.86
376.37	571.09
376.56	692.80
376.76	620.24
376.95	650.67
377.15	554.71
377.35	676.41
377.54	643.65
377.74	634.29
377.93	589.82
378.13	552.37
378.33	683.44
378.52	613.22
378.72	678.76
378.91	720.88
379.11	606.20
379.31	566.41
379.50	547.69
379.70	645.99
379.89	697.48
380.09	676.41
380.28	730.25
380.48	741.95
380.68	674.07
380.87	704.50
381.07	772.38
381.26	678.76
381.46	690.46
381.65	798.12
381.85	772.38
382.04	732.59
382.24	739.61
382.43	678.76
382.63	716.20
382.83	655.35
383.02	779.40
383.22	746.63
383.41	753.65
383.61	753.65
383.80	767.70
384.00	709.18
384.19	770.04
384.39	734.93
384.58	791.10
384.78	760.67
384.97	711.52
385.17	805.14
385.36	758.33
385.56	798.12
385.75	774.72
385.95	816.85
386.14	849.61
386.34	781.74
386.53	741.95
386.72	833.23
386.92	847.27
387.11	961.96
387.31	861.32
387.50	851.96
387.70	830.89
387.89	830.89
388.09	891.74
388.28	891.74
388.48	919.83
388.67	870.68
388.86	861.32
389.06	898.77
389.25	968.98
389.45	957.28
389.64	966.64
389.84	1034.52
390.03	1013.45
390.22	992.39
390.42	961.96
390.61	891.74
390.81	1050.90
391.00	1034.52
391.19	1006.43
391.39	1102.39
391.58	1158.57
391.78	985.37
391.97	1043.88
392.16	999.41
392.36	1011.11
392.55	1008.77
392.75	1053.24
392.94	1034.52
393.13	980.68
393.33	947.92
393.52	1022.81
393.71	1008.77
393.91	976.00
394.10	1172.61
394.29	1050.90
394.49	1160.91
394.68	1188.99
394.88	1245.16
395.07	1249.85
395.26	1284.95
395.46	1203.04
395.65	1226.44
395.84	1179.63
396.04	1282.61
396.23	1200.69
396.42	1179.63
396.62	1228.78
396.81	1294.32
397.00	1242.82
397.19	1277.93
397.39	1301.34
397.58	1320.06
397.77	1425.39
397.97	1427.73
398.16	1453.47
398.35	1418.36
398.55	1437.09
398.74	1465.18
398.93	1493.26
399.12	1526.03
399.32	1514.33
399.51	1469.86
399.70	1624.33
399.90	1561.14
400.09	1458.15
400.28	1696.89
400.47	1591.56
400.67	1685.19
400.86	1689.87
401.05	1650.08
401.24	1701.57
401.44	1673.48
401.63	1675.82
401.82	1612.63
402.01	1872.43
402.21	1802.21
402.40	1797.53
402.59	1713.27
402.78	1783.49
402.97	1804.55
403.17	1874.77
403.36	1769.44
403.55	1842.00
403.74	1856.04
403.93	2010.52
404.13	1856.04
404.32	1809.23
404.51	1900.52
404.70	1933.28
404.89	1820.94
405.09	2008.18
405.28	1949.67
405.47	1998.82
405.66	1914.56
405.85	1916.90
406.05	1895.83
406.24	1926.26
406.43	2019.88
406.62	2094.78
406.81	2078.40
407.00	2078.40
407.20	2050.31
407.39	2029.24
407.58	2148.61
407.77	2176.70
407.96	2267.98
408.15	2169.68
408.34	2286.70
408.54	2347.56
408.73	2298.41
408.92	2296.07
409.11	2249.25
409.30	2312.45
409.49	2307.77
409.68	2424.80
409.87	2305.43
410.07	2438.84
410.26	2359.26
410.45	2298.41
410.64	2431.82
410.83	2485.65
411.02	2450.54
411.21	2607.36
411.40	2448.20
411.59	2656.51
411.78	2607.36
411.98	2612.04
412.17	2654.17
412.36	2565.23
412.55	2593.31
412.74	2710.34
412.93	2803.96
413.12	2717.36
413.31	2878.86
413.50	2806.30
413.69	2867.16
413.88	2860.13
414.07	2841.41
414.26	2827.37
414.45	3075.46
414.64	3119.93
414.83	3007.59
415.02	2972.48
415.22	3129.30
415.41	3110.57
415.60	3126.96
415.79	3180.79
415.98	3304.84
416.17	3286.11
416.36	3192.49
416.55	3169.09
416.74	3190.15
416.93	3190.15
417.12	3211.22
417.31	3384.41
417.50	3353.99
417.69	3489.74
417.88	3417.18
418.07	3489.74
418.26	3466.33
418.45	3454.63
418.64	3758.90
418.83	3527.19
419.02	3545.91
419.21	3435.91
419.39	3548.25
419.58	3445.27
419.77	3461.65
419.96	3831.46
420.15	3761.24
420.34	3742.52
420.53	3761.24
420.72	3873.59
420.91	3751.88
421.10	3904.01
421.29	3859.54
421.48	3782.31
421.67	3918.06
421.86	3794.01
422.05	3847.84
422.24	3791.67
422.43	3765.92
422.61	3770.60
422.80	3880.61
422.99	3904.01
423.18	3983.59
423.37	4037.42
423.56	3889.97
423.75	3995.29
423.94	3840.82
424.13	3702.73
424.32	3796.35
424.50	4121.68
424.69	3904.01
424.88	3941.46
425.07	3826.78
425.26	3833.80
425.45	4004.66
425.64	4112.32
425.83	3892.31
426.01	3960.19
426.20	4074.87
426.39	3976.57
426.58	3934.44
426.77	3854.86
426.96	3999.98
427.15	3953.16
427.33	4037.42
427.52	4184.88
427.71	4105.30
427.90	4056.15
428.09	4100.62
428.28	4091.26
428.46	4198.92
428.65	4322.97
428.84	4407.23
429.03	4301.90
429.22	4009.34
429.40	4154.45
429.59	3908.69
429.78	3915.72
429.97	3941.46
430.16	4056.15
430.34	4067.85
430.53	4175.52
430.72	4196.58
430.91	4135.73
431.10	4395.53
431.28	4451.70
431.47	4690.43
431.66	4702.14
431.85	4510.21
432.03	4517.23
432.22	4709.16
432.41	4601.49
432.60	4791.08
432.79	4723.20
432.97	4784.06
433.16	4720.86
433.35	4652.98
433.54	4631.92
433.72	4746.61
433.91	4681.07
434.10	4770.01
434.28	4837.89
434.47	4868.31
434.66	4931.51
434.85	4950.23
435.03	5088.32
435.22	4901.08
435.41	5121.09
435.59	4943.21
435.78	5144.50
435.97	5055.56
436.16	5074.28
436.34	5160.88
436.53	5130.45
436.72	5191.31
436.90	4980.66
437.09	5071.94
437.28	5163.22
437.46	5156.20
437.65	5268.55
437.84	5245.14
438.02	5085.98
438.21	5177.26
438.40	5228.76
438.58	5233.44
438.77	5490.90
438.96	5500.26
439.14	5636.01
439.33	5675.80
439.52	5720.27
439.70	5589.20
439.89	5659.42
440.08	5504.94
440.26	5706.23
440.45	5724.95
440.63	5767.08
440.82	5818.57
441.01	5928.58
441.19	5966.03
441.38	6003.47
441.57	6010.50
441.75	6090.07
441.94	6307.74
442.12	6251.57
442.31	6307.74
442.50	6148.59
442.68	6356.90
442.87	6274.98
443.05	6366.26
443.24	6483.28
443.43	6424.77
443.61	6555.84
443.80	6555.84
443.98	6335.83
444.17	6218.80
444.35	6604.99
444.54	6490.31
444.73	6593.29
444.91	6452.86
445.10	6506.69
445.28	6539.46
445.47	6317.11
445.65	6518.39
445.84	6614.35
446.02	6644.78
446.21	6644.78
446.39	6602.65
446.58	6448.18
446.77	6604.99
446.95	6541.80
447.14	6626.06
447.32	6722.02
447.51	6553.50
447.69	6506.69
447.88	6707.98
448.06	6862.45
448.25	6726.70
448.43	6558.18
448.62	6773.51
448.80	6675.21
448.99	6778.19
449.17	6906.92
449.36	6853.09
449.54	6918.62
449.73	6787.55
449.91	7138.63
450.10	7199.49
450.28	7272.04
450.46	7239.28
450.65	7117.57
450.83	7148.00
451.02	7274.38
451.20	7342.26
451.39	7375.03
451.57	7152.68
451.76	7288.43
451.94	7267.36
452.13	7272.04
452.31	7353.96
452.49	7037.99
452.68	7407.80
452.86	7199.49
453.05	7286.09
453.23	7344.60
453.42	7250.98
453.60	7218.21
453.78	7468.65
453.97	7330.56
454.15	7428.86
454.34	7342.26
454.52	7564.61
454.70	7524.82
454.89	7721.43
455.07	7452.27
455.26	7733.13
455.44	7873.56
455.62	7737.81
455.81	7712.07
455.99	7761.22
456.17	7850.16
456.36	7714.41
456.54	7971.86
456.73	7819.73
456.91	8102.93
457.09	8004.63
457.28	8184.85
457.46	8189.53
457.64	8311.24
457.83	8056.12
458.01	7983.57
458.19	8215.28
458.38	8093.57
458.56	8173.15
458.74	8149.75
458.93	8210.60
459.11	8196.56
459.29	8257.41
459.48	8217.62
459.66	8442.31
459.84	8458.70
460.03	8545.30
460.21	8580.40
460.39	8538.27
460.57	8617.85
460.76	8676.37
460.94	8334.65
461.12	8461.04
461.31	8655.30
461.49	8713.81
461.67	8470.40
461.85	8638.92
462.04	8833.18
462.22	9350.44
462.40	9004.04
462.59	8837.86
462.77	8933.82
462.95	9071.92
463.13	8849.57
463.32	8889.35
463.50	8847.22
463.68	9100.00
463.86	8926.80
464.05	8798.07
464.23	8940.85
464.41	8933.82
464.59	8702.11
464.78	9298.95
464.96	9083.62
465.14	9233.41
465.32	9242.78
465.50	9467.47
465.69	9151.49
465.87	9217.03
466.05	9210.01
466.23	9198.31
466.41	9165.54
466.60	9312.99
466.78	9376.19
466.96	9397.25
467.14	9254.48
467.32	9373.85
467.51	9483.85
467.69	9090.64
467.87	9341.08
468.05	9647.69
468.23	9420.66
468.41	9408.95
468.60	9645.35
468.78	9743.65
468.96	9469.81
469.14	9638.33
469.32	9722.59
469.50	9439.38
469.69	9671.09
469.87	9757.69
470.05	9865.36
470.23	9685.14
470.41	9809.19
470.59	9783.44
470.77	9841.95
470.95	9923.87
471.14	10363.89
471.32	10104.09
471.50	10340.49
471.68	10272.61
471.86	10410.70
472.04	10136.86
472.22	10490.28
472.40	10232.82
472.58	10209.42
472.77	10600.29
472.95	10483.26
473.13	10836.68
473.31	10410.70
473.49	10696.25
473.67	10469.22
473.85	10621.35
474.03	11073.07
474.21	10899.87
474.39	10918.60
474.57	11087.12
474.75	11115.20
474.93	11005.20
475.12	11176.06
475.30	11257.98
475.48	11070.73
475.66	11367.98
475.84	11318.83
476.02	11620.76
476.20	11426.50
476.38	11719.06
476.56	12002.27
476.74	11679.27
476.92	11698.00
477.10	11782.26
477.28	12126.32
477.46	11971.84
477.64	12205.89
477.82	12381.43
478.00	12568.68
478.18	12365.05
478.36	12800.39
478.54	12805.07
478.72	12585.06
478.90	12830.82
479.08	13102.32
479.26	13172.54
479.44	13085.94
479.62	13226.37
479.80	13219.35
479.98	13411.27
480.16	13624.26
480.34	13460.42
480.52	13762.35
480.70	13968.32
480.88	13591.49
481.06	13987.04
481.24	13907.46
481.41	14106.41
481.59	14480.89
481.77	14270.25
481.95	14462.17
482.13	14251.52
482.31	14546.43
482.49	14827.29
482.67	14888.15
482.85	15131.56
483.03	15279.02
483.21	15236.89
483.39	15232.21
483.57	15349.23
483.74	15520.09
483.92	15421.79
484.10	15400.72
484.28	15889.90
484.46	15929.69
484.64	16444.60
484.82	16135.65
485.00	16320.56
485.18	16156.72
485.35	16624.83
485.53	16271.40
485.71	16224.59
485.89	16470.35
486.07	16182.46
486.25	16751.21
486.43	16823.77
486.61	17008.67
486.78	17050.80
486.96	17348.05
487.14	17851.27
487.32	17647.64
487.50	17954.25
487.68	17900.42
487.85	18611.94
488.03	18281.92
488.21	18462.15
488.39	18462.15
488.57	18616.62
488.75	18597.90
488.92	19133.88
489.10	19447.51
489.28	19410.06
489.46	19674.54
489.64	19360.91
489.81	20184.78
489.99	19864.13
490.17	20215.21
490.35	20133.29
490.53	20570.97
490.70	20556.93
490.88	20353.30
491.06	20830.77
491.24	20648.21
491.41	20851.83
491.59	20786.30
491.77	20676.29
491.95	20833.11
492.13	21010.99
492.30	21516.54
492.48	21532.93
492.66	21502.50
492.84	21900.39
493.01	22087.64
493.19	21689.74
493.37	22616.60
493.54	22129.77
493.72	22506.59
493.90	22895.12
494.08	22838.95
494.25	22850.65
494.43	22984.06
494.61	23398.34
494.79	23433.44
494.96	23601.96
495.14	23241.52
495.32	23503.66
495.49	23508.34
495.67	23697.92
495.85	24348.59
496.02	24442.21
496.20	24439.87
496.38	24297.10
496.55	24694.99
496.73	25027.35
496.91	24783.93
497.09	25238.00
497.26	24851.81
497.44	25120.97
497.62	25537.59
497.79	25270.76
497.97	24863.51
498.14	25207.57
498.32	25837.17
498.50	25680.36
498.67	25741.21
498.85	26036.12
499.03	26307.62
499.20	26080.59
499.38	25977.61
499.56	26375.50
499.73	26546.36
499.91	26356.77
500.08	26820.20
500.26	26544.02
500.44	26625.93
500.61	26696.15
500.79	26508.91
500.97	26874.03
501.14	26962.97
501.32	27309.37
501.49	27110.43
501.67	27087.02
501.84	27442.78
502.02	27513.00
502.20	27105.74
502.37	27793.86
502.55	27690.88
502.72	27690.88
502.90	27700.24
503.07	27946.00
503.25	28339.21
503.43	27744.71
503.60	27864.08
503.78	28343.89
503.95	28034.94
504.13	28360.27
504.30	28173.03
504.48	28266.65
504.65	29003.92
504.83	29195.84
505.01	28877.53
505.18	29139.67
505.36	29422.87
505.53	29462.66
505.71	29621.82
505.88	29958.86
506.06	29357.34
506.23	29729.48
506.41	29343.30
506.58	30010.35
506.76	30178.87
506.93	29923.75
507.11	30118.01
507.28	30022.05
507.46	30099.29
507.63	29919.07
507.81	30082.91
507.98	29591.39
508.16	30340.36
508.33	30141.42
508.50	30808.47
508.68	30452.71
508.85	31019.12
509.03	31098.70
509.20	30953.58
509.38	31131.47
509.55	31309.35
509.73	31281.26
509.90	31342.11
510.08	31409.99
510.25	31269.56
510.42	31665.11
510.60	31470.84
510.77	31707.24
510.95	32240.88
511.12	32081.72
511.30	32217.47
511.47	32161.30
511.64	32474.93
511.82	32287.69
511.99	31978.74
512.17	32240.88
512.34	31962.36
512.51	32306.41
512.69	33104.54
512.86	32362.59
513.04	32854.10
513.21	32840.06
513.38	32840.06
513.56	32463.23
513.73	32694.94
513.90	33137.30
514.08	32818.99
514.25	33191.14
514.43	33287.10
514.60	32961.76
514.77	33092.83
514.95	33621.80
515.12	33202.84
515.29	33436.89
515.47	33888.62
515.64	34239.70
515.81	33921.38
515.99	34171.82
516.16	33766.91
516.33	33577.33
516.51	33579.67
516.68	33289.44
516.85	33453.28
517.03	33518.81
517.20	33855.85
517.37	34347.36
517.54	34572.05
517.72	34047.77
517.89	34029.05
518.06	33816.06
518.24	34075.86
518.41	34403.53
518.58	34223.31
518.75	34235.02
518.93	34953.56
519.10	34738.23
519.27	34946.54
519.45	34881.00
519.62	35482.52
519.79	35173.57
519.96	35321.02
520.14	35178.25
520.31	35098.67
520.48	35225.06
520.65	35442.73
520.83	35674.45
521.00	35887.43
521.17	35618.27
521.34	35908.50
521.52	36020.84
521.69	36095.74
521.86	36348.52
522.03	35920.20
522.20	36311.07
522.38	36297.03
522.55	36105.10
522.72	36135.53
522.89	36364.90
523.07	36631.72
523.24	36570.87
523.41	36795.56
523.58	36503.00
523.75	37038.98
523.92	37436.87
524.10	36914.93
524.27	37453.25
524.44	36973.44
524.61	37572.62
524.78	37537.51
524.96	37153.66
525.13	37130.26
525.30	37464.96
525.47	37624.11
525.64	37462.61
525.81	37394.74
525.98	37549.21
526.16	37579.64
526.33	36931.31
526.50	37481.34
526.67	37289.42
526.84	37322.18
527.01	37598.37
527.18	37537.51
527.36	37956.47
527.53	38033.71
527.70	38557.99
527.87	38227.97
528.04	38120.31
528.21	38319.25
528.38	38101.58
528.55	38457.34
528.72	38864.60
528.89	38885.66
529.07	38178.82
529.24	38836.51
529.41	38307.55
529.58	38799.06
529.75	38717.14
529.92	38785.02
530.09	38824.81
530.26	38902.04
530.43	39253.12
530.60	38904.38
530.77	39189.93
530.94	39484.84
531.11	39154.82
531.28	38998.01
531.46	39356.11
531.63	39145.46
531.80	39555.05
531.97	39548.03
532.14	39704.85
532.31	39330.36
532.48	39732.93
532.65	39480.16
532.82	39632.29
532.99	39533.99
533.16	39562.08
533.33	39643.99
533.50	39653.36
533.67	39702.51
533.84	39772.72
534.01	39868.69
534.18	39915.50
534.35	40055.93
534.52	39871.03
534.69	40444.46
534.86	40294.66
535.03	40509.99
535.20	40477.22
535.37	40835.33
535.54	40676.17
535.71	40315.73
535.88	40741.71
536.05	40811.92
536.22	40711.28
536.38	40734.68
536.55	40350.84
536.72	40493.61
536.89	40390.62
537.06	40437.44
537.23	40722.98
537.40	40655.11
537.57	40776.81
537.74	40671.49
537.91	41488.34
538.08	40942.99
538.25	40795.54
538.42	41127.89
538.59	41467.27
538.75	40706.60
538.92	41752.82
539.09	41153.64
539.26	41450.89
539.43	40783.83
539.60	41560.89
539.77	41146.62
539.94	41258.96
540.11	41401.74
540.28	41415.78
540.44	41195.77
540.61	41778.56
540.78	41490.68
540.95	41588.98
541.12	41523.44
541.29	41546.85
541.46	41661.54
541.62	41720.05
541.79	41830.05
541.96	41895.59
542.13	41715.37
542.30	41598.34
542.47	42043.04
542.63	41911.97
542.80	42263.05
542.97	42307.52
543.14	42202.20
543.31	42164.75
543.48	42370.72
543.64	42555.62
543.81	42995.64
543.98	42698.39
544.15	42459.66
544.32	42696.05
544.48	42904.36
544.65	42731.16
544.82	42663.28
544.99	42518.17
545.16	42719.46
545.32	42759.25
545.49	43140.75
545.66	42962.87
545.83	42864.57
546.00	43185.22
546.16	42906.70
546.33	42614.13
546.50	42850.53
546.67	43250.76
546.83	42899.68
547.00	43014.37
547.17	42909.04
547.34	43131.39
547.50	42906.70
547.67	43672.06
547.84	43363.11
548.00	43400.55
548.17	43555.03
548.34	43952.92
548.51	43681.42
548.67	43658.01
548.84	43489.49
549.01	43606.52
549.18	43332.68
549.34	43634.61
549.51	43557.37
549.68	43835.89
549.84	44079.31
550.01	43950.58
550.18	43475.45
550.34	43742.27
550.51	43510.56
550.68	44072.29
550.84	43082.24
551.01	43885.04
551.18	43810.15
551.34	43997.39
551.51	44044.20
551.68	44100.37
551.84	44421.03
552.01	44332.09
552.18	43552.69
552.34	43620.56
552.51	44671.46
552.68	44343.79
552.84	44210.38
553.01	44875.09
553.18	44205.70
553.34	44177.61
553.51	44364.85
553.67	44474.86
553.84	44718.28
554.01	44903.18
554.17	45106.80
554.34	44725.30
554.51	45024.89
554.67	44701.89
554.84	44299.32
555.00	44369.54
555.17	44268.89
555.33	44861.05
555.50	44971.05
555.67	44350.81
555.83	44238.47
556.00	44795.51
556.16	44823.60
556.33	44643.38
556.50	44830.62
556.66	44928.92
556.83	44580.18
556.99	44472.52
557.16	45118.51
557.32	44980.42
557.49	44802.53
557.65	44437.41
557.82	44800.19
557.98	44547.42
558.15	45191.06
558.32	45034.25
558.48	44865.73
558.65	45291.71
558.81	44746.36
558.98	44769.77
559.14	44540.39
559.31	44662.10
559.47	45069.36
559.64	44968.71
559.80	45350.22
559.97	44954.67
560.13	44816.58
560.30	45209.79
560.46	45404.05
560.63	45104.46
560.79	45411.07
560.96	45099.78
561.12	45567.89
561.29	45102.12
561.45	45408.73
561.61	45202.77
561.78	44718.28
561.94	45387.67
562.11	45202.77
562.27	45200.43
562.44	45170.00
562.60	45757.47
562.77	45457.88
562.93	45813.65
563.10	45558.53
563.26	45179.36
563.42	45577.25
563.59	45270.64
563.75	45603.00
563.92	45151.27
564.08	45305.75
564.24	45294.05
564.41	45354.90
564.57	45303.41
564.74	45282.34
564.90	45350.22
565.07	45202.77
565.23	45532.78
565.39	45401.71
565.56	45530.44
565.72	44978.07
565.88	44720.62
566.05	45177.02
566.21	45401.71
566.38	45364.26
566.54	45263.62
566.70	45507.04
566.87	45895.56
567.03	45457.88
567.19	46234.94
567.36	45696.62
567.52	45490.65
567.68	45846.41
567.85	45336.18
568.01	45918.97
568.17	45801.94
568.34	45937.69
568.50	45450.86
568.66	45752.79
568.83	45724.71
568.99	45453.20
569.15	45631.08
569.32	45851.09
569.48	45331.50
569.64	45691.94
569.81	45605.34
569.97	45717.68
570.13	45591.30
570.30	45249.58
570.46	45310.43
570.62	45244.90
570.78	44961.69
570.95	45153.62
571.11	45237.87
571.27	45570.23
571.43	45872.16
571.60	45518.74
571.76	45553.85
571.92	45771.52
572.09	45989.19
572.25	46272.39
572.41	45876.84
572.57	45797.26
572.74	46124.94
572.90	46045.36
573.06	45933.01
573.22	45574.91
573.38	45684.92
573.55	46190.47
573.71	46110.89
573.87	46040.68
574.03	45478.95
574.20	46117.92
574.36	45549.17
574.52	45911.95
574.68	45600.66
574.84	45710.66
575.01	45832.37
575.17	45907.27
575.33	45413.41
575.49	45567.89
575.65	45956.42
575.82	45507.04
575.98	45808.96
576.14	45516.40
576.30	46047.70
576.46	45677.90
576.62	45610.02
576.79	45752.79
576.95	45397.03
577.11	45766.84
577.27	46059.40
577.43	45504.70
577.59	45785.56
577.75	45902.59
577.92	45251.92
578.08	45361.92
578.24	45909.61
578.40	45780.88
578.56	45806.62
578.72	45343.20
578.88	45963.44
579.04	45720.02
579.21	45345.54
579.37	45607.68
579.53	45659.17
579.69	45577.25
579.85	45565.55
580.01	46085.15
580.17	46057.06
580.33	45954.08
580.49	45930.67
580.65	46302.82
580.82	45867.48
580.98	45923.65
581.14	45666.19
581.30	45600.66
581.46	45954.08
581.62	45790.24
581.78	45808.96
581.94	46230.26
582.10	46167.07
582.26	45937.69
582.42	46138.98
582.58	45460.23
582.74	45989.19
582.90	45673.21
583.06	45979.82
583.22	45911.95
583.38	45879.18
583.54	46178.77
583.70	46419.84
583.86	45958.76
584.02	45720.02
584.18	45925.99
584.34	45640.45
584.50	45830.03
584.66	45993.87
584.82	45996.21
584.98	46424.53
585.14	45799.60
585.30	45261.28
585.46	45790.24
585.62	45759.81
585.78	45614.70
585.94	45806.62
586.10	45909.61
586.26	45682.58
586.42	46059.40
586.58	46167.07
586.74	45801.94
586.90	46059.40
587.06	46328.56
587.22	46038.34
587.38	45687.26
587.54	46071.10
587.70	45865.14
587.86	45635.77
588.02	45710.66
588.18	46075.79
588.34	45488.31
588.49	45162.98
588.65	45233.19
588.81	45680.24
588.97	45577.25
589.13	45705.98
589.29	45574.91
589.45	45457.88
589.61	45492.99
589.77	46014.93
589.93	45886.20
