SpectraSuite Data File
++++++++++++++++++++++++++++++++++++
Date: Fri Oct 25 11:23:56 EDT 2013
User: price-jones
Dark Spectrum Present: No
Reference Spectrum Present: No
Number of Sampled Component Spectra: 1
Spectrometers: USB2+H05261
Integration Time (usec): 100000 (USB2+H05261)
Spectra Averaged: 1 (USB2+H05261)
Boxcar Smoothing: 0 (USB2+H05261)
Correct for Electrical Dark: No (USB2+H05261)
Strobe/Lamp Enabled: No (USB2+H05261)
Correct for Detector Non-linearity: No (USB2+H05261)
Correct for Stray Light: No (USB2+H05261)
Number of Pixels in Processed Spectrum: 2048
>>>>>Begin Processed Spectral Data<<<<<
365.73	205.97
365.92	205.97
366.12	205.97
366.32	154.48
366.52	140.43
366.72	124.05
366.91	81.92
367.11	114.69
367.31	212.99
367.51	131.07
367.70	142.77
367.90	56.17
368.10	86.60
368.30	105.32
368.49	84.26
368.69	166.18
368.89	154.48
369.09	124.05
369.28	154.48
369.48	194.26
369.68	222.35
369.87	182.56
370.07	189.58
370.27	241.08
370.47	259.80
370.66	608.54
370.86	650.67
371.06	671.73
371.25	706.84
371.45	674.07
371.65	748.97
371.84	615.56
372.04	763.01
372.24	699.82
372.44	730.25
372.63	709.18
372.83	788.76
373.03	699.82
373.22	692.80
373.42	854.30
373.62	681.10
373.81	854.30
374.01	683.44
374.21	887.06
374.40	837.91
374.60	805.14
374.79	903.45
374.99	856.64
375.19	821.53
375.38	891.74
375.58	847.27
375.78	875.36
375.97	929.19
376.17	929.19
376.37	882.38
376.56	887.06
376.76	788.76
376.95	786.42
377.15	858.98
377.35	814.51
377.54	896.43
377.74	891.74
377.93	903.45
378.13	912.81
378.33	919.83
378.52	901.11
378.72	905.79
378.91	884.72
379.11	936.21
379.31	997.07
379.50	933.87
379.70	976.00
379.89	1025.15
380.09	943.24
380.28	957.28
380.48	917.49
380.68	917.49
380.87	933.87
381.07	940.90
381.26	1043.88
381.46	1011.11
381.65	1086.01
381.85	1043.88
382.04	1109.41
382.24	1053.24
382.43	1048.56
382.63	1090.69
382.83	1018.13
383.02	1151.54
383.22	1114.10
383.41	1036.86
383.61	1179.63
383.80	1102.39
384.00	1046.22
384.19	1163.25
384.39	1167.93
384.58	1100.05
384.78	1139.84
384.97	1156.22
385.17	1088.35
385.36	1123.46
385.56	1167.93
385.75	1097.71
385.95	1156.22
386.14	1205.38
386.34	1226.44
386.53	1172.61
386.72	1247.51
386.92	1198.35
387.11	1284.95
387.31	1245.16
387.50	1170.27
387.70	1301.34
387.89	1249.85
388.09	1299.00
388.28	1266.23
388.48	1217.08
388.67	1308.36
388.86	1313.04
389.06	1334.11
389.25	1310.70
389.45	1280.27
389.64	1327.08
389.84	1399.64
390.03	1327.08
390.22	1341.13
390.42	1399.64
390.61	1397.30
390.81	1336.45
391.00	1460.49
391.19	1497.94
391.39	1533.05
391.58	1427.73
391.78	1448.79
391.97	1441.77
392.16	1465.18
392.36	1549.43
392.55	1542.41
392.75	1535.39
392.94	1528.37
393.13	1514.33
393.33	1589.22
393.52	1469.86
393.71	1593.90
393.91	1549.43
394.10	1591.56
394.29	1537.73
394.49	1511.99
394.68	1666.46
394.88	1734.34
395.07	1647.74
395.26	1713.27
395.46	1598.59
395.65	1811.57
395.84	1713.27
396.04	1820.94
396.23	1811.57
396.42	1722.63
396.62	1781.15
396.81	1858.39
397.00	1760.08
397.19	1762.42
397.39	1804.55
397.58	1853.70
397.77	1912.22
397.97	1827.96
398.16	1813.92
398.35	1872.43
398.55	1839.66
398.74	1935.62
398.93	1994.14
399.12	1893.49
399.32	1825.62
399.51	2064.35
399.70	1970.73
399.90	1984.77
400.09	1989.46
400.28	2132.23
400.47	2104.14
400.67	2024.56
400.86	2059.67
401.05	2052.65
401.24	2078.40
401.44	2094.78
401.63	2160.31
401.82	2111.16
402.01	2291.38
402.21	2181.38
402.40	2211.81
402.59	2237.55
402.78	2221.17
402.97	2174.36
403.17	2326.49
403.36	2277.34
403.55	2319.47
403.74	2349.90
403.93	2249.25
404.13	2356.92
404.32	2373.30
404.51	2333.51
404.70	2394.37
404.89	2420.11
405.09	2492.67
405.28	2492.67
405.47	2527.78
405.66	2534.80
405.85	2600.34
406.05	2387.35
406.24	2466.92
406.43	2565.23
406.62	2565.23
406.81	2722.04
407.00	2677.57
407.20	2637.78
407.39	2609.70
407.58	2843.75
407.77	2705.66
407.96	2717.36
408.15	2773.53
408.34	2729.06
408.54	2860.13
408.73	2759.49
408.92	2874.18
409.11	2832.05
409.30	2876.52
409.49	2984.18
409.68	2876.52
409.87	2876.52
410.07	3028.65
410.26	3035.67
410.45	2993.55
410.64	3023.97
410.83	2998.23
411.02	3019.29
411.21	3204.19
411.40	3136.32
411.59	3197.17
411.78	3176.11
411.98	3176.11
412.17	3295.47
412.36	3192.49
412.55	3260.37
412.74	3496.76
412.93	3375.05
413.12	3262.71
413.31	3552.93
413.50	3445.27
413.69	3485.06
413.88	3630.17
414.07	3604.42
414.26	3627.83
414.45	3693.37
414.64	3571.66
414.83	3712.09
415.02	3824.44
415.22	3941.46
415.41	3826.78
415.60	3831.46
415.79	3801.03
415.98	3983.59
416.17	3976.57
416.36	4030.40
416.55	3941.46
416.74	4128.70
416.93	4058.49
417.12	3953.16
417.31	4304.25
417.50	4358.08
417.69	4175.52
417.88	4252.75
418.07	4304.25
418.26	4238.71
418.45	4318.29
418.64	4465.74
418.83	4339.35
419.02	4489.15
419.21	4440.00
419.39	4528.94
419.58	4507.87
419.77	4559.36
419.96	4528.94
420.15	4613.20
420.34	4571.07
420.53	4489.15
420.72	4765.33
420.91	4770.01
421.10	4692.77
421.29	4828.53
421.48	4770.01
421.67	4809.80
421.86	4795.76
422.05	4798.10
422.24	4786.40
422.43	4929.17
422.61	4844.91
422.80	5008.75
422.99	4959.60
423.18	4964.28
423.37	5050.88
423.56	4950.23
423.75	5006.41
423.94	4856.61
424.13	4638.94
424.32	4826.18
424.50	5020.45
424.69	5090.67
424.88	5135.14
425.07	4889.38
425.26	4865.97
425.45	5022.79
425.64	4880.02
425.83	4994.70
426.01	5102.37
426.20	4912.78
426.39	4973.64
426.58	4990.02
426.77	5130.45
426.96	5188.97
427.15	5156.20
427.33	5114.07
427.52	5102.37
427.71	5373.87
427.90	5277.91
428.09	5210.03
428.28	5338.76
428.46	5394.93
428.65	5334.08
428.84	5462.81
429.03	5631.33
429.22	5420.68
429.40	5423.02
429.59	5593.88
429.78	5294.29
429.97	5394.93
430.16	5451.11
430.34	5633.67
430.53	5657.07
430.72	5757.72
430.91	5678.14
431.10	5614.95
431.28	5832.62
431.47	5720.27
431.66	5710.91
431.85	5783.46
432.03	5982.41
432.22	5834.96
432.41	6022.20
432.60	5877.09
432.79	5970.71
432.97	6078.37
433.16	5895.81
433.35	5926.24
433.54	6216.46
433.72	5991.77
433.91	6195.40
434.10	6017.52
434.28	6104.12
434.47	6274.98
434.66	6239.87
434.85	6253.91
435.03	6399.02
435.22	6394.34
435.41	6406.05
435.59	6424.77
435.78	6368.60
435.97	6263.27
436.16	6429.45
436.34	6438.81
436.53	6523.07
436.72	6604.99
436.90	6516.05
437.09	6633.08
437.28	6583.93
437.46	6626.06
437.65	6626.06
437.84	6759.47
438.02	6642.44
438.21	6813.30
438.40	6808.62
438.58	6881.18
438.77	7180.76
438.96	6944.37
439.14	6960.75
439.33	7171.40
439.52	7061.40
439.70	7222.89
439.89	7499.08
440.08	7527.16
440.26	7475.67
440.45	7368.01
440.63	7447.58
440.82	7756.54
441.01	7595.04
441.19	7576.31
441.38	7609.08
441.57	7714.41
441.75	7742.49
441.94	7971.86
442.12	7943.78
442.31	8072.51
442.50	8119.32
442.68	7819.73
442.87	8189.53
443.05	8084.21
443.24	8404.86
443.43	8241.03
443.61	8138.04
443.80	8463.38
443.98	7885.26
444.17	7758.88
444.35	8205.92
444.54	8430.61
444.73	8472.74
444.91	8259.75
445.10	8325.29
445.28	8404.86
445.47	8290.18
445.65	8470.40
445.84	8547.64
446.02	8542.96
446.21	8491.46
446.39	8397.84
446.58	8449.33
446.77	8582.74
446.95	8425.93
447.14	8446.99
447.32	8645.94
447.51	8547.64
447.69	8470.40
447.88	8561.68
448.06	8437.63
448.25	8564.02
448.43	8882.33
448.62	8461.04
448.80	8627.21
448.99	8634.24
449.17	8690.41
449.36	8758.28
449.54	8812.12
449.73	9067.24
449.91	8971.27
450.10	9022.77
450.28	9034.47
450.46	9226.39
450.65	9137.45
450.83	9043.83
451.02	8943.19
451.20	9160.86
451.39	9280.22
451.57	9247.46
451.76	9013.40
451.94	9022.77
452.13	9334.06
452.31	9364.48
452.49	9394.91
452.68	9275.54
452.86	9226.39
453.05	9305.97
453.23	9549.39
453.42	9317.67
453.60	9418.32
453.78	9549.39
453.97	9294.27
454.15	9570.45
454.34	9518.96
454.52	9755.35
454.70	9699.18
454.89	9701.52
455.07	9619.60
455.26	9853.66
455.44	10010.47
455.62	10188.35
455.81	9811.53
455.99	10143.88
456.17	9895.78
456.36	10113.45
456.54	10209.42
456.73	10228.14
456.91	10354.53
457.09	10511.35
457.28	10729.02
457.46	10122.82
457.64	10342.83
457.83	10583.90
458.01	10244.52
458.19	10600.29
458.38	10487.94
458.56	10637.73
458.74	10626.03
458.93	10757.10
459.11	10705.61
459.29	10651.78
459.48	10827.32
459.66	10745.40
459.84	10555.82
460.03	11157.33
460.21	10853.06
460.39	10766.46
460.57	11030.94
460.76	10991.16
460.94	11454.58
461.12	11283.72
461.31	11063.71
461.49	10923.28
461.67	11089.46
461.85	11382.03
462.04	11370.32
462.22	11721.40
462.40	11719.06
462.59	11782.26
462.77	11367.98
462.95	11482.67
463.13	11630.12
463.32	11726.08
463.50	11723.74
463.68	11859.49
463.86	11777.58
464.05	11566.93
464.23	11550.54
464.41	11613.74
464.59	11756.51
464.78	12123.98
464.96	12063.12
465.14	11908.65
465.32	12138.02
465.50	12018.65
465.69	12088.87
465.87	12182.49
466.05	12002.27
466.23	12236.32
466.41	12135.68
466.60	12428.24
466.78	12341.64
466.96	12255.04
467.14	12081.85
467.32	12514.84
467.51	12395.48
467.69	12341.64
467.87	12437.61
468.05	12468.03
468.23	12222.28
468.41	12662.30
468.60	12521.87
468.78	12828.48
468.96	12629.53
469.14	12734.85
469.32	13048.49
469.50	12538.25
469.69	12943.16
469.87	13151.47
470.05	13025.08
470.23	13095.30
470.41	13209.98
470.59	13502.55
470.77	13240.41
470.95	13336.37
471.14	13570.43
471.32	13432.33
471.50	13352.76
471.68	13647.66
471.86	13537.66
472.04	13769.37
472.22	13989.38
472.40	13827.88
472.58	13731.92
472.77	13853.63
472.95	14305.35
473.13	14551.11
473.31	13902.78
473.49	14068.96
473.67	14005.77
473.85	14469.19
474.03	14539.41
474.21	14572.18
474.39	14731.33
474.57	14766.44
474.75	14885.81
474.93	15222.84
475.12	14991.13
475.30	15119.86
475.48	15133.90
475.66	15377.32
475.84	15257.95
476.02	15454.56
476.20	15339.87
476.38	15613.71
476.56	15861.81
476.74	16027.99
476.92	15754.15
477.10	16042.03
477.28	16269.06
477.46	16248.00
477.64	16159.06
477.82	16402.47
478.00	16723.13
478.18	16917.39
478.36	16613.12
478.54	17116.34
478.72	17401.88
478.90	17221.66
479.08	17614.87
479.26	17895.74
479.44	17846.58
479.62	17685.09
479.80	18071.28
479.98	18150.85
480.16	18707.90
480.34	18207.03
480.52	18443.42
480.70	18541.72
480.88	18689.18
481.06	18988.77
481.24	18965.36
481.41	19248.57
481.59	19307.08
481.77	19552.84
481.95	19826.68
482.13	19749.44
482.31	19719.01
482.49	20250.32
482.67	20404.79
482.85	20381.38
483.03	20631.82
483.21	20943.11
483.39	20994.61
483.57	21064.82
483.74	21172.49
483.92	21205.25
484.10	21076.52
484.28	21907.41
484.46	22001.04
484.64	22504.25
484.82	21972.95
485.00	22321.69
485.18	22780.43
485.35	22885.76
485.53	22764.05
485.71	22988.74
485.89	23700.26
486.07	23112.79
486.25	23440.47
486.43	23660.48
486.61	23901.55
486.78	24133.26
486.96	23955.38
487.14	24594.35
487.32	24884.58
487.50	24758.19
487.68	25165.44
487.85	25427.58
488.03	25891.01
488.21	25745.89
488.39	25649.93
488.57	26078.25
488.75	26209.32
488.92	26576.78
489.10	26951.27
489.28	27037.87
489.46	27316.39
489.64	27302.35
489.81	27880.46
489.99	27566.83
490.17	27658.11
490.35	28093.45
490.53	28350.91
490.70	28493.68
490.88	28629.43
491.06	28643.48
491.24	28943.06
491.41	29153.71
491.59	29282.44
491.77	29261.38
491.95	29509.47
492.13	29453.30
492.30	30415.26
492.48	30136.74
492.66	29832.47
492.84	30466.75
493.01	30675.06
493.19	30642.29
493.37	31054.23
493.54	31318.71
493.72	31260.20
493.90	31564.46
494.08	31674.47
494.25	31990.44
494.43	31742.35
494.61	32334.50
494.79	32486.64
494.96	32393.01
495.14	32545.15
495.32	33535.20
495.49	33312.84
495.67	33209.86
495.85	33462.64
496.02	33954.15
496.20	34235.02
496.38	34092.24
496.55	34429.28
496.73	34817.81
496.91	34724.19
497.09	34792.06
497.26	34998.03
497.44	34574.39
497.62	35246.13
497.79	35817.22
497.97	35716.58
498.14	36034.89
498.32	36245.54
498.50	36652.79
498.67	36823.65
498.85	36627.04
499.03	36774.50
499.20	36870.46
499.38	37048.34
499.56	37312.82
499.73	37013.23
499.91	37251.97
500.08	37682.62
500.26	37509.43
500.44	37570.28
500.61	37523.47
500.79	37998.60
500.97	38267.76
501.14	38588.41
501.32	39105.67
501.49	38541.60
501.67	38824.81
501.84	39283.55
502.02	39323.34
502.20	39243.76
502.37	38998.01
502.55	39318.66
502.72	39606.55
502.90	39611.23
503.07	39414.62
503.25	40297.00
503.43	39922.52
503.60	40158.91
503.78	40109.76
503.95	40360.20
504.13	40737.02
504.30	40966.40
504.48	40762.77
504.65	40486.59
504.83	41326.84
505.01	41439.18
505.18	41146.62
505.36	41799.63
505.53	41322.16
505.71	41937.72
505.88	41813.67
506.06	41464.93
506.23	41755.16
506.41	41722.39
506.58	42213.90
506.76	42422.21
506.93	42270.08
507.11	42646.90
507.28	42986.28
507.46	42834.14
507.63	42677.33
507.81	43182.88
507.98	43049.47
508.16	43505.88
508.33	43421.62
508.50	43524.60
508.68	43934.20
508.85	44189.31
509.03	43842.92
509.20	44470.18
509.38	44294.64
509.55	44282.94
509.73	44416.35
509.90	45010.84
510.08	44409.32
510.25	44795.51
510.42	44636.36
510.60	44844.66
510.77	45200.43
510.95	45170.00
511.12	45329.16
511.30	45329.16
511.47	45647.47
511.64	45684.92
511.82	45830.03
511.99	45654.49
512.17	46050.04
512.34	45827.69
512.51	46410.48
512.69	46721.77
512.86	46272.39
513.04	46621.13
513.21	46351.97
513.38	47185.20
513.56	46766.24
513.73	46941.78
513.90	46997.96
514.08	47077.54
514.25	47468.40
514.43	47505.85
514.60	47592.45
514.77	47386.49
514.95	47856.93
515.12	47812.46
515.29	47473.09
515.47	47927.15
515.64	48226.74
515.81	47646.29
515.99	48210.35
516.16	48575.48
516.33	48463.13
516.51	49095.08
516.68	48671.44
516.85	48273.55
517.03	48608.25
517.20	49083.37
517.37	48435.05
517.54	49151.25
517.72	49123.16
517.89	48893.79
518.06	49289.34
518.24	49523.40
518.41	49139.55
518.58	49343.17
518.75	49502.33
518.93	49724.68
519.10	49537.44
519.27	49724.68
519.45	49724.68
519.62	49853.41
519.79	50115.55
519.96	50131.93
520.14	50251.30
520.31	50246.62
520.48	50335.56
520.65	50478.33
520.83	50536.85
521.00	50553.23
521.17	50607.06
521.34	50885.59
521.52	51049.42
521.69	50960.48
521.86	51117.30
522.03	51569.02
522.20	51409.87
522.38	51627.54
522.55	51526.89
522.72	51461.36
522.89	51409.87
523.07	51751.59
523.24	51679.03
523.41	51880.31
523.58	51363.06
523.75	51821.80
523.92	51971.60
524.10	52350.76
524.27	51990.32
524.44	52250.12
524.61	51875.63
524.78	52189.27
524.96	51845.21
525.13	52762.70
525.30	52629.29
525.47	52364.81
525.64	52289.91
525.81	52662.05
525.98	52648.01
526.16	52542.69
526.33	52603.54
526.50	53214.42
526.67	52853.98
526.84	53076.33
527.01	52868.02
527.18	52966.32
527.36	52861.00
527.53	52963.98
527.70	53375.92
527.87	53371.24
528.04	53088.03
528.21	53659.12
528.38	53511.67
528.55	53595.93
528.72	53698.91
528.89	53525.71
529.07	53862.75
529.24	53553.80
529.41	53577.20
529.58	53523.37
529.75	53570.18
529.92	54071.06
530.09	53895.52
530.26	53848.71
530.43	53893.18
530.60	53773.81
530.77	53965.73
530.94	54251.28
531.11	54096.80
531.28	54148.29
531.46	54155.32
531.63	54501.71
531.80	54450.22
531.97	54450.22
532.14	54665.55
532.31	54550.87
532.48	54644.49
532.65	54850.45
532.82	54756.83
532.99	54965.14
533.16	54513.42
533.33	54686.62
533.50	54941.74
533.67	54930.03
533.84	54731.09
534.01	55016.63
534.18	54911.31
534.35	55201.53
534.52	54934.71
534.69	55236.64
534.86	55346.65
535.03	55306.86
535.20	55206.22
535.37	55386.44
535.54	55636.87
535.71	55627.51
535.88	55512.83
536.05	55437.93
536.22	55372.39
536.38	55671.98
536.55	55749.22
536.72	55716.45
536.89	55927.10
537.06	55606.45
537.23	55884.97
537.40	55739.86
537.57	55938.80
537.74	55669.64
537.91	56048.81
538.08	55796.03
538.25	55952.85
538.42	55852.20
538.59	56023.06
538.75	56147.11
538.92	56317.97
539.09	56413.93
539.26	56210.31
539.43	56086.26
539.60	56397.55
539.77	56320.31
539.94	56732.25
540.11	56317.97
540.28	56315.63
540.44	56608.20
540.61	56460.74
540.78	56554.36
540.95	56191.58
541.12	56467.76
541.29	56238.39
541.46	56736.93
541.62	56605.86
541.79	56647.99
541.96	56442.02
542.13	56594.15
542.30	56704.16
542.47	56741.61
542.63	56765.01
542.80	57024.81
542.97	56968.64
543.14	57310.36
543.31	57235.46
543.48	57083.33
543.64	57427.38
543.81	57509.30
543.98	57418.02
544.15	57574.84
544.32	57460.15
544.48	57738.68
544.65	57415.68
544.82	57450.79
544.99	57411.00
545.16	57485.90
545.32	57595.90
545.49	57649.74
545.66	57701.23
545.83	57698.89
546.00	57705.91
546.16	57748.04
546.33	57565.48
546.50	57518.67
546.67	57712.93
546.83	57530.37
547.00	57719.95
547.17	57776.12
547.34	57888.47
547.50	57846.34
547.67	58279.34
547.84	58007.84
548.00	58035.92
548.17	58335.51
548.34	58277.00
548.51	58309.77
548.67	58356.58
548.84	58527.44
549.01	58178.70
549.18	58159.97
549.34	58232.53
549.51	58152.95
549.68	58632.76
549.84	58272.32
550.01	58363.60
550.18	58415.09
550.34	58536.80
550.51	58520.41
550.68	58419.77
550.84	58220.83
551.01	58611.70
551.18	58731.06
551.34	58585.95
551.51	58761.49
551.68	58841.07
551.84	58468.92
552.01	58307.43
552.18	58843.41
552.34	58630.42
552.51	58890.22
552.68	58553.18
552.84	58616.38
553.01	58876.18
553.18	58721.70
553.34	58859.79
553.51	58937.03
553.67	58646.80
553.84	59030.65
554.01	59058.74
554.17	59091.51
554.34	59154.70
554.51	59061.08
554.67	59330.24
554.84	59021.29
555.00	58920.65
555.17	58997.88
555.33	59150.02
555.50	58864.47
555.67	59002.56
555.83	59260.02
556.00	59203.85
556.16	59344.28
556.33	59348.96
556.50	59224.92
556.66	59550.25
556.83	59075.12
556.99	59372.37
557.16	59615.79
557.32	59489.40
557.49	59812.39
557.65	59189.81
557.82	59491.74
557.98	59515.14
558.15	59414.50
558.32	59475.35
558.48	59395.77
558.65	59536.21
558.81	59505.78
558.98	59608.76
559.14	59601.74
559.31	59671.96
559.47	59779.62
559.64	59732.81
559.80	59702.38
559.97	59952.82
560.13	59568.97
560.30	59994.95
560.46	60039.42
560.63	59746.86
560.79	59840.48
560.96	59870.90
561.12	59798.35
561.29	59835.80
561.45	59901.33
561.61	59760.90
561.78	59856.86
561.94	59992.61
562.11	59840.48
562.27	59948.14
562.44	60041.76
562.60	60238.37
562.77	59938.78
562.93	59788.98
563.10	60030.06
563.26	59781.96
563.42	60245.39
563.59	60048.78
563.75	60133.04
563.92	59847.50
564.08	60137.72
564.24	60257.09
564.41	60264.11
564.57	60151.77
564.74	60109.64
564.90	60156.45
565.07	60303.90
565.23	60186.88
565.39	60046.44
565.56	60322.63
565.72	60093.25
565.88	60320.29
566.05	60114.32
566.21	60207.94
566.38	60317.95
566.54	60179.85
566.70	60343.69
566.87	60392.84
567.03	60154.11
567.19	60467.74
567.36	60432.63
567.52	60301.56
567.68	60577.75
567.85	60383.48
568.01	60362.42
568.17	60327.31
568.34	60701.79
568.50	60488.80
568.66	60268.79
568.83	60392.84
568.99	60292.20
569.15	60547.32
569.32	60477.10
569.48	60479.44
569.64	60589.45
569.81	60542.64
569.97	60374.12
570.13	60556.68
570.30	60521.57
570.46	60664.35
570.62	60547.32
570.78	60451.36
570.95	60451.36
571.11	60650.30
571.27	60582.43
571.43	60610.51
571.60	60601.15
571.76	60444.33
571.92	60423.27
572.09	60706.47
572.25	60544.98
572.41	60610.51
572.57	60839.89
572.74	60872.65
572.90	60774.35
573.06	60615.19
573.22	60521.57
573.38	60680.73
573.55	60542.64
573.71	60818.82
573.87	60800.10
574.03	60673.71
574.20	60809.46
574.36	60638.60
574.52	60917.12
574.68	60846.91
574.84	60687.75
575.01	60804.78
575.17	60601.15
575.33	60671.37
575.49	60580.09
575.65	60779.03
575.82	60814.14
575.98	61080.96
576.14	60980.32
576.30	60926.49
576.46	60687.75
576.62	60725.20
576.79	60673.71
576.95	60664.35
577.11	60755.63
577.27	60907.76
577.43	61013.08
577.59	60591.79
577.75	60762.65
577.92	60973.30
578.08	60748.60
578.24	60818.82
578.40	60886.70
578.56	60846.91
578.72	60741.58
578.88	61010.74
579.04	61113.73
579.21	61106.71
579.37	61113.73
579.53	61116.07
579.69	60587.11
579.85	60804.78
580.01	60816.48
580.17	60697.11
580.33	60884.36
580.49	60949.89
580.65	60889.04
580.82	60757.97
580.98	60870.31
581.14	60809.46
581.30	60924.14
581.46	61015.43
581.62	61050.53
581.78	60970.96
581.94	61095.00
582.10	60889.04
582.26	61062.24
582.42	60917.12
582.58	61017.77
582.74	61022.45
582.90	60872.65
583.06	60928.83
583.22	60860.95
583.38	60952.23
583.54	60966.27
583.70	61043.51
583.86	61090.32
584.02	60910.10
584.18	61029.47
584.34	61146.50
584.50	60882.02
584.66	60970.96
584.82	61029.47
584.98	61165.22
585.14	60987.34
585.30	60935.85
585.46	61017.77
585.62	61024.79
585.78	61300.97
585.94	60996.70
586.10	61062.24
586.26	61183.94
586.42	60994.36
586.58	61380.55
586.74	61216.71
586.90	60975.64
587.06	60926.49
587.22	61333.74
587.38	61233.10
587.54	61165.22
587.70	61310.33
587.86	61052.87
588.02	61031.81
588.18	61151.18
588.34	60889.04
588.49	60999.04
