SpectraSuite Data File
++++++++++++++++++++++++++++++++++++
Date: Fri Oct 25 11:26:37 EDT 2013
User: price-jones
Dark Spectrum Present: No
Reference Spectrum Present: No
Number of Sampled Component Spectra: 1
Spectrometers: USB2+H05261
Integration Time (usec): 100000 (USB2+H05261)
Spectra Averaged: 1 (USB2+H05261)
Boxcar Smoothing: 0 (USB2+H05261)
Correct for Electrical Dark: No (USB2+H05261)
Strobe/Lamp Enabled: No (USB2+H05261)
Correct for Detector Non-linearity: No (USB2+H05261)
Correct for Stray Light: No (USB2+H05261)
Number of Pixels in Processed Spectrum: 2048
>>>>>Begin Processed Spectral Data<<<<<
365.73	252.78
365.92	252.78
366.12	252.78
366.32	173.20
366.52	107.66
366.72	208.31
366.91	145.11
367.11	189.58
367.31	147.45
367.51	131.07
367.70	117.03
367.90	184.90
368.10	198.95
368.30	126.39
368.49	112.35
368.69	187.24
368.89	152.13
369.09	131.07
369.28	156.82
369.48	264.48
369.68	196.60
369.87	182.56
370.07	177.88
370.27	271.50
370.47	358.10
370.66	538.32
370.86	620.24
371.06	669.39
371.25	772.38
371.45	704.50
371.65	697.48
371.84	730.25
372.04	716.20
372.24	732.59
372.44	753.65
372.63	718.54
372.83	737.27
373.03	720.88
373.22	695.14
373.42	767.70
373.62	727.91
373.81	798.12
374.01	781.74
374.21	835.57
374.40	828.55
374.60	688.12
374.79	830.89
374.99	777.06
375.19	858.98
375.38	802.80
375.58	800.46
375.78	823.87
375.97	770.04
376.17	887.06
376.37	868.34
376.56	856.64
376.76	919.83
376.95	894.08
377.15	940.90
377.35	898.77
377.54	950.26
377.74	999.41
377.93	919.83
378.13	1029.84
378.33	936.21
378.52	973.66
378.72	968.98
378.91	943.24
379.11	926.85
379.31	961.96
379.50	966.64
379.70	1027.50
379.89	940.90
380.09	950.26
380.28	1053.24
380.48	924.51
380.68	959.62
380.87	1057.92
381.07	1046.22
381.26	1011.11
381.46	1057.92
381.65	1114.10
381.85	1043.88
382.04	889.40
382.24	1083.67
382.43	1043.88
382.63	1121.12
382.83	1107.07
383.02	1048.56
383.22	1062.60
383.41	1123.46
383.61	1055.58
383.80	1167.93
384.00	1130.48
384.19	1132.82
384.39	1228.78
384.58	1188.99
384.78	1196.01
384.97	1210.06
385.17	1188.99
385.36	1121.12
385.56	1095.37
385.75	1203.04
385.95	1107.07
386.14	1200.69
386.34	1212.40
386.53	1217.08
386.72	1100.05
386.92	1228.78
387.11	1254.53
387.31	1259.21
387.50	1252.19
387.70	1254.53
387.89	1238.14
388.09	1299.00
388.28	1247.51
388.48	1366.87
388.67	1327.08
388.86	1261.55
389.06	1245.16
389.25	1401.98
389.45	1261.55
389.64	1329.42
389.84	1418.36
390.03	1411.34
390.22	1411.34
390.42	1371.55
390.61	1390.28
390.81	1425.39
391.00	1423.05
391.19	1535.39
391.39	1434.75
391.58	1476.88
391.78	1439.43
391.97	1570.50
392.16	1455.81
392.36	1490.92
392.55	1486.24
392.75	1626.67
392.94	1607.95
393.13	1617.31
393.33	1467.52
393.52	1542.41
393.71	1600.93
393.91	1556.46
394.10	1462.83
394.29	1612.63
394.49	1596.25
394.68	1624.33
394.88	1703.91
395.07	1701.57
395.26	1636.03
395.46	1556.46
395.65	1771.79
395.84	1743.70
396.04	1863.07
396.23	1820.94
396.42	1708.59
396.62	1774.13
396.81	1804.55
397.00	1720.29
397.19	1893.49
397.39	1860.73
397.58	1872.43
397.77	1710.93
397.97	1844.34
398.16	1858.39
398.35	1870.09
398.55	1877.11
398.74	1926.26
398.93	1968.39
399.12	1832.64
399.32	1966.05
399.51	1989.46
399.70	2076.06
399.90	1989.46
400.09	2040.95
400.28	2108.82
400.47	2054.99
400.67	2059.67
400.86	2094.78
401.05	2054.99
401.24	2157.97
401.44	2101.80
401.63	2127.55
401.82	2190.74
402.01	2127.55
402.21	2193.08
402.40	2094.78
402.59	2190.74
402.78	2197.76
402.97	2127.55
403.17	2260.96
403.36	2251.60
403.55	2366.28
403.74	2317.13
403.93	2443.52
404.13	2370.96
404.32	2380.32
404.51	2387.35
404.70	2342.88
404.89	2340.54
405.09	2553.52
405.28	2525.44
405.47	2565.23
405.66	2534.80
405.85	2635.44
406.05	2427.14
406.24	2523.10
406.43	2675.23
406.62	2708.00
406.81	2626.08
407.00	2677.57
407.20	2621.40
407.39	2588.63
407.58	2747.79
407.77	2700.98
407.96	2771.19
408.15	2640.12
408.34	2715.02
408.54	2846.09
408.73	2862.48
408.92	2850.77
409.11	2881.20
409.30	2874.18
409.49	2803.96
409.68	2925.67
409.87	2864.82
410.07	2963.12
410.26	2984.18
410.45	3063.76
410.64	3073.12
410.83	3103.55
411.02	3141.00
411.21	3131.64
411.40	3337.60
411.59	3234.62
411.78	3180.79
411.98	3215.90
412.17	3206.53
412.36	3323.56
412.55	3328.24
412.74	3482.72
412.93	3442.93
413.12	3328.24
413.31	3543.57
413.50	3602.08
413.69	3552.93
413.88	3681.66
414.07	3735.50
414.26	3632.51
414.45	3648.90
414.64	3749.54
414.83	3730.81
415.02	3733.15
415.22	3831.46
415.41	3901.67
415.60	3911.04
415.79	3791.67
415.98	3939.12
416.17	3920.40
416.36	3960.19
416.55	4009.34
416.74	4212.96
416.93	4049.13
417.12	4163.81
417.31	4259.78
417.50	4264.46
417.69	4292.54
417.88	4219.99
418.07	4180.20
418.26	4287.86
418.45	4367.44
418.64	4669.37
418.83	4470.42
419.02	4435.32
419.21	4432.97
419.39	4631.92
419.58	4524.26
419.77	4468.08
419.96	4613.20
420.15	4620.22
420.34	4564.04
420.53	4622.56
420.72	4716.18
420.91	4615.54
421.10	4779.37
421.29	4905.76
421.48	4660.01
421.67	4688.09
421.86	4781.71
422.05	4837.89
422.24	4952.57
422.43	4891.72
422.61	4950.23
422.80	5001.72
422.99	5123.43
423.18	5018.11
423.37	4966.62
423.56	4938.53
423.75	5004.07
423.94	4938.53
424.13	4657.67
424.32	4971.30
424.50	4978.32
424.69	5022.79
424.88	5308.34
425.07	4807.46
425.26	4940.87
425.45	4961.94
425.64	4936.19
425.83	5137.48
426.01	5296.63
426.20	5078.96
426.39	5076.62
426.58	4933.85
426.77	5062.58
426.96	5142.16
427.15	5046.20
427.33	5231.10
427.52	5177.26
427.71	5263.86
427.90	5235.78
428.09	5373.87
428.28	5362.17
428.46	5380.89
428.65	5298.97
428.84	5540.05
429.03	5453.45
429.22	5397.28
429.40	5423.02
429.59	5497.92
429.78	5467.49
429.97	5355.15
430.16	5495.58
430.34	5551.75
430.53	5610.26
430.72	5731.97
430.91	5689.84
431.10	5614.95
431.28	5753.04
431.47	5717.93
431.66	5839.64
431.85	5905.17
432.03	5912.19
432.22	6127.52
432.41	5989.43
432.60	5926.24
432.79	5961.34
432.97	6157.95
433.16	6237.53
433.35	5961.34
433.54	6108.80
433.72	6267.95
433.91	6141.57
434.10	6153.27
434.28	6090.07
434.47	6148.59
434.66	6197.74
434.85	6305.40
435.03	6274.98
435.22	6155.61
435.41	6462.22
435.59	6394.34
435.78	6661.16
435.97	6499.67
436.16	6494.99
436.34	6602.65
436.53	6572.22
436.72	6700.95
436.90	6448.18
437.09	6670.53
437.28	6675.21
437.46	6668.19
437.65	6677.55
437.84	6820.32
438.02	6878.83
438.21	6904.58
438.40	6853.09
438.58	6878.83
438.77	7028.63
438.96	7122.25
439.14	6920.96
439.33	7105.87
439.52	7318.86
439.70	7222.89
439.89	7377.37
440.08	7391.41
440.26	7321.20
440.45	7494.40
440.63	7585.68
440.82	7695.68
441.01	7651.21
441.19	7763.56
441.38	8006.97
441.57	7911.01
441.75	7887.61
441.94	8016.33
442.12	7845.48
442.31	7920.37
442.50	8180.17
442.68	7985.91
442.87	7936.76
443.05	8156.77
443.24	8388.48
443.43	8301.88
443.61	8355.71
443.80	8397.84
443.98	8013.99
444.17	7812.71
444.35	8325.29
444.54	8421.25
444.73	8489.12
444.91	8278.47
445.10	8320.60
445.28	8259.75
445.47	8444.65
445.65	8241.03
445.84	8510.19
446.02	8594.45
446.21	8517.21
446.39	8428.27
446.58	8634.24
446.77	8587.43
446.95	8463.38
447.14	8346.35
447.32	8449.33
447.51	8510.19
447.69	8468.06
447.88	8531.25
448.06	8622.53
448.25	8514.87
448.43	8659.98
448.62	8615.51
448.80	8681.05
448.99	8753.60
449.17	8655.30
449.36	8723.18
449.54	8816.80
449.73	9160.86
449.91	9125.75
450.10	8992.34
450.28	9111.71
450.46	9064.89
450.65	9104.68
450.83	8982.98
451.02	9184.26
451.20	9289.59
451.39	9373.85
451.57	9135.11
451.76	9252.14
451.94	9327.03
452.13	9287.25
452.31	9090.64
452.49	9238.09
452.68	9308.31
452.86	9275.54
453.05	9315.33
453.23	9554.07
453.42	9259.16
453.60	9188.94
453.78	9614.92
453.97	9603.22
454.15	9399.59
454.34	9385.55
454.52	9654.71
454.70	9554.07
454.89	9823.23
455.07	10010.47
455.26	9977.70
455.44	10083.03
455.62	10092.39
455.81	9977.70
455.99	9884.08
456.17	10047.92
456.36	10068.98
456.54	10122.82
456.73	10176.65
456.91	10736.04
457.09	10520.71
457.28	10719.65
457.46	10380.28
457.64	10565.18
457.83	10539.43
458.01	10434.11
458.19	10555.82
458.38	10480.92
458.56	10689.23
458.74	10813.28
458.93	10733.70
459.11	10698.59
459.29	10778.17
459.48	10787.53
459.66	10766.46
459.84	11131.59
460.03	11339.90
460.21	10974.77
460.39	10832.00
460.57	11019.24
460.76	11150.31
460.94	11255.64
461.12	11194.78
461.31	11269.68
461.49	11363.30
461.67	11211.17
461.85	11571.61
462.04	11344.58
462.22	11501.39
462.40	11634.80
462.59	11473.31
462.77	11360.96
462.95	11559.91
463.13	11646.51
463.32	11618.42
463.50	11868.86
463.68	11810.34
463.86	11943.75
464.05	11775.24
464.23	11770.55
464.41	12039.72
464.59	11857.15
464.78	12395.48
464.96	12208.23
465.14	12025.67
465.32	12341.64
465.50	12126.32
465.69	12397.82
465.87	12077.16
466.05	12135.68
466.23	12135.68
466.41	12498.46
466.60	12264.41
466.78	12173.13
466.96	12236.32
467.14	12383.77
467.32	12374.41
467.51	12468.03
467.69	12266.75
467.87	12622.51
468.05	12652.94
468.23	12306.54
468.41	12552.29
468.60	12769.96
468.78	12603.78
468.96	12521.87
469.14	12835.50
469.32	12737.20
469.50	12648.26
469.69	12901.03
469.87	13135.09
470.05	13095.30
470.23	13153.81
470.41	13151.47
470.59	13280.20
470.77	13263.82
470.95	13376.16
471.14	13626.60
471.32	13392.55
471.50	13465.10
471.68	13673.41
471.86	13832.57
472.04	13774.05
472.22	14094.71
472.40	13762.35
472.58	13930.87
472.77	13886.40
472.95	14333.44
473.13	14516.00
473.31	14094.71
473.49	14211.73
473.67	14260.88
473.85	14249.18
474.03	15028.58
474.21	14618.99
474.39	14782.82
474.57	14476.21
474.75	14909.21
474.93	15012.20
475.12	14925.60
475.30	15279.02
475.48	15096.46
475.66	15274.34
475.84	15243.91
476.02	15433.49
476.20	15559.88
476.38	15723.72
476.56	16006.92
476.74	15948.41
476.92	16009.26
477.10	15941.39
477.28	16002.24
477.46	16318.22
477.64	16421.20
477.82	16563.97
478.00	17076.55
478.18	16833.13
478.36	16863.56
478.54	17287.20
478.72	16940.80
478.90	17659.34
479.08	17593.81
479.26	17647.64
479.44	17877.01
479.62	17720.20
479.80	18190.64
479.98	18150.85
480.16	18743.01
480.34	18204.69
480.52	18670.45
480.70	18310.01
480.88	18672.79
481.06	18396.61
481.24	18984.09
481.41	19372.61
481.59	19309.42
481.77	19367.93
481.95	19520.07
482.13	19435.81
482.31	19939.02
482.49	20240.95
482.67	20475.01
482.85	20482.03
483.03	20819.07
483.21	20879.92
483.39	21167.80
483.57	20992.26
483.74	21235.68
483.92	21511.86
484.10	21282.49
484.28	21757.62
484.46	22045.51
484.64	22572.13
484.82	22207.00
485.00	22394.25
485.18	22733.62
485.35	23274.29
485.53	22878.74
485.71	23215.77
485.89	23496.64
486.07	23204.07
486.25	23693.24
486.43	23681.54
486.61	23704.95
486.78	24299.44
486.96	24332.21
487.14	24758.19
487.32	24535.84
487.50	24765.21
487.68	24931.39
487.85	25432.26
488.03	25680.36
488.21	26094.63
488.39	25846.54
488.57	26068.89
488.75	26277.19
488.92	26314.64
489.10	26906.80
489.28	26675.09
489.46	27365.54
489.64	26930.20
489.81	27475.55
489.99	27747.05
490.17	27901.53
490.35	28423.47
490.53	28072.39
490.70	28648.16
490.88	28477.30
491.06	29003.92
491.24	28861.15
491.41	29151.37
491.59	29343.30
491.77	29209.89
491.95	29867.58
492.13	30047.80
492.30	30270.15
492.48	30160.14
492.66	30473.78
492.84	30637.61
493.01	30801.45
493.19	30888.05
493.37	30890.39
493.54	31669.79
493.72	31386.58
493.90	31578.51
494.08	31735.32
494.25	32442.17
494.43	32318.12
494.61	32844.74
494.79	32421.10
494.96	32479.61
495.14	32919.63
495.32	33010.92
495.49	33209.86
495.67	33165.39
495.85	33907.34
496.02	34192.89
496.20	33741.16
496.38	34132.03
496.55	34057.14
496.73	34735.89
496.91	34834.19
497.09	35049.52
497.26	35143.14
497.44	34988.67
497.62	35627.63
497.79	35952.97
497.97	36018.50
498.14	36201.07
498.32	36257.24
498.50	36020.84
498.67	36631.72
498.85	36409.37
499.03	36643.43
499.20	36753.43
499.38	37097.49
499.56	37181.75
499.73	37277.71
499.91	37050.68
500.08	37397.08
500.26	37450.91
500.44	37776.25
500.61	37846.46
500.79	38078.18
500.97	38316.91
501.14	38939.49
501.32	38616.50
501.49	38541.60
501.67	38770.97
501.84	38808.42
502.02	38810.76
502.20	38988.64
502.37	39281.21
502.55	39573.78
502.72	39632.29
502.90	39496.54
503.07	39714.21
503.25	40011.46
503.43	40069.97
503.60	40165.93
503.78	40399.99
503.95	40062.95
504.13	40617.66
504.30	40924.27
504.48	40968.74
504.65	40905.54
504.83	41385.35
505.01	41415.78
505.18	41181.73
505.36	41249.60
505.53	41586.64
505.71	41902.61
505.88	42206.88
506.06	41460.25
506.23	42153.05
506.41	41869.84
506.58	42148.37
506.76	42328.59
506.93	42403.49
507.11	42167.09
507.28	43002.66
507.46	42911.38
507.63	43063.52
507.81	43349.06
507.98	42799.04
508.16	43030.75
508.33	43660.35
508.50	43650.99
508.68	43590.14
508.85	44135.48
509.03	44083.99
509.20	43976.33
509.38	44545.08
509.55	44650.40
509.73	44444.43
509.90	44634.02
510.08	44655.08
510.25	44659.76
510.42	45148.93
510.60	45347.88
510.77	45181.70
510.95	45785.56
511.12	45233.19
511.30	45368.94
511.47	45797.26
511.64	45588.95
511.82	45830.03
511.99	45595.98
512.17	46124.94
512.34	46199.83
512.51	46564.96
512.69	46595.38
512.86	46588.36
513.04	46876.25
513.21	46885.61
513.38	46794.33
513.56	47178.18
513.73	47091.58
513.90	47360.74
514.08	47173.50
514.25	47611.18
514.43	47384.15
514.60	47817.14
514.77	47384.15
514.95	47665.01
515.12	47725.86
515.29	48051.20
515.47	48303.98
515.64	48406.96
515.81	48107.37
515.99	48453.77
516.16	48662.08
516.33	48451.43
516.51	48903.15
516.68	48435.05
516.85	48868.05
517.03	48996.77
517.20	49092.74
517.37	48910.17
517.54	48964.01
517.72	49347.86
517.89	49347.86
518.06	49476.58
518.24	49162.95
518.41	49397.01
518.58	49544.46
518.75	49752.77
518.93	49661.49
519.10	49441.48
519.27	50068.74
519.45	50096.83
519.62	50190.45
519.79	50375.35
519.96	50026.61
520.14	50115.55
520.31	50206.83
520.48	50607.06
520.65	50358.97
520.83	50845.80
521.00	50756.86
521.17	50501.74
521.34	50766.22
521.52	50614.08
521.69	50749.84
521.86	50958.14
522.03	51262.41
522.20	51288.16
522.38	51854.57
522.55	51489.45
522.72	51264.75
522.89	51421.57
523.07	51721.16
523.24	51571.36
523.41	51969.26
523.58	51557.32
523.75	52016.07
523.92	51819.46
524.10	52107.35
524.27	51950.53
524.44	52252.46
524.61	52179.90
524.78	52303.95
524.96	52137.77
525.13	52205.65
525.30	52580.13
525.47	52472.47
525.64	52598.86
525.81	52655.03
525.98	52671.42
526.16	52715.89
526.33	53008.45
526.50	53104.41
526.67	52818.87
526.84	53055.26
527.01	53043.56
527.18	53038.88
527.36	52928.87
527.53	53305.70
527.70	53286.98
527.87	53425.07
528.04	53083.35
528.21	53607.63
528.38	53567.84
528.55	53521.03
528.72	53202.72
528.89	53684.87
529.07	53633.38
529.24	53696.57
529.41	53698.91
529.58	53820.62
529.75	53736.36
529.92	53876.79
530.09	53822.96
530.26	54227.87
530.43	54195.10
530.60	53937.65
530.77	54012.54
530.94	54181.06
531.11	54237.23
531.28	54321.49
531.46	54401.07
531.63	54475.97
531.80	54347.24
531.97	54637.47
532.14	54691.30
532.31	54211.49
532.48	54834.07
532.65	54667.89
532.82	54670.23
532.99	55021.31
533.16	54677.25
533.33	55166.43
533.50	55061.10
533.67	54887.90
533.84	54831.73
534.01	54848.11
534.18	54887.90
534.35	55253.03
534.52	55110.25
534.69	55442.61
534.86	55274.09
535.03	55105.57
535.20	55449.63
535.37	55295.16
535.54	55454.31
535.71	55262.39
535.88	55515.17
536.05	55700.07
536.22	55742.20
536.38	55863.91
536.55	55606.45
536.72	55650.92
536.89	55458.99
537.06	55601.77
537.23	55613.47
537.40	55505.80
537.57	55606.45
537.74	55704.75
537.91	56037.11
538.08	56025.40
538.25	55662.62
538.42	55856.88
538.59	56224.35
538.75	55910.72
538.92	56191.58
539.09	56324.99
539.26	55994.98
539.43	56163.50
539.60	56327.33
539.77	56477.13
539.94	56552.02
540.11	56327.33
540.28	56547.34
540.44	56587.13
540.61	56669.05
540.78	56535.64
540.95	56463.08
541.12	56711.18
541.29	56835.23
541.46	56584.79
541.62	56753.31
541.79	56877.36
541.96	56488.83
542.13	56818.84
542.30	56928.85
542.47	57013.11
542.63	56994.39
542.80	57010.77
542.97	57329.08
543.14	57605.26
543.31	57359.51
543.48	57289.29
543.64	57572.50
543.81	57488.24
543.98	57427.38
544.15	57633.35
544.32	57317.38
544.48	57572.50
544.65	57542.07
544.82	57553.77
544.99	57158.22
545.16	57645.05
545.32	57326.74
545.49	57879.11
545.66	57731.65
545.83	57748.04
546.00	57811.23
546.16	57855.70
546.33	57682.50
546.50	57715.27
546.67	57982.09
546.83	57717.61
547.00	57729.31
547.17	57916.56
547.34	57738.68
547.50	58269.98
547.67	58356.58
547.84	58075.71
548.00	58178.70
548.17	58258.27
548.34	58164.65
548.51	58398.71
548.67	58398.71
548.84	58267.64
549.01	58106.14
549.18	58443.18
549.34	58506.37
549.51	58340.19
549.68	58590.63
549.84	58262.96
550.01	58387.00
550.18	58176.36
550.34	58426.79
550.51	58529.78
550.68	58342.53
550.84	58314.45
551.01	58658.51
551.18	58555.52
551.34	58616.38
551.51	58782.55
551.68	58834.05
551.84	58693.61
552.01	58745.11
552.18	58712.34
552.34	58564.88
552.51	58747.45
552.68	58553.18
552.84	58784.90
553.01	58997.88
553.18	58834.05
553.34	58852.77
553.51	58939.37
553.67	58972.14
553.84	58944.05
554.01	59208.53
554.17	58920.65
554.34	59143.00
554.51	59159.38
554.67	59004.91
554.84	59030.65
555.00	59320.88
555.17	59018.95
555.33	59021.29
555.50	59011.93
555.67	58948.73
555.83	59075.12
556.00	59278.75
556.16	59545.57
556.33	59423.86
556.50	59377.05
556.66	59470.67
556.83	59313.86
556.99	59351.30
557.16	59587.70
557.32	59501.10
557.49	59751.54
557.65	59473.01
557.82	59290.45
557.98	59393.43
558.15	59482.37
558.32	59423.86
558.48	59543.23
558.65	59592.38
558.81	59517.48
558.98	59660.26
559.14	59800.69
559.31	59779.62
559.47	59700.04
559.64	59674.30
559.80	59828.77
559.97	59695.36
560.13	59847.50
560.30	59700.04
560.46	59770.26
560.63	59835.80
560.79	59739.83
560.96	59990.27
561.12	59767.92
561.29	59842.82
561.45	59934.10
561.61	59868.56
561.78	59856.86
561.94	59877.93
562.11	59828.77
562.27	60006.65
562.44	60128.36
562.60	60044.10
562.77	60250.07
562.93	59980.91
563.10	59980.91
563.26	60009.00
563.42	60224.32
563.59	60271.14
563.75	60011.34
563.92	60254.75
564.08	60343.69
564.24	60104.96
564.41	60168.15
564.57	60247.73
564.74	60404.55
564.90	60224.32
565.07	60135.38
565.23	60385.82
565.39	60025.38
565.56	60275.82
565.72	60282.84
565.88	60142.41
566.05	60287.52
566.21	60165.81
566.38	60434.97
566.54	60371.78
566.70	60535.62
566.87	60437.31
567.03	60271.14
567.19	60561.36
567.36	60617.53
567.52	60280.50
567.68	60456.04
567.85	60456.04
568.01	60397.52
568.17	60339.01
568.34	60617.53
568.50	60399.86
568.66	60385.82
568.83	60432.63
568.99	60381.14
569.15	60360.08
569.32	60526.25
569.48	60474.76
569.64	60605.83
569.81	60612.85
569.97	60196.24
570.13	60378.80
570.30	60329.65
570.46	60453.70
570.62	60458.38
570.78	60479.44
570.95	60552.00
571.11	60680.73
571.27	60404.55
571.43	60357.74
571.60	60816.48
571.76	60467.74
571.92	60767.33
572.09	60795.42
572.25	60619.88
572.41	60559.02
572.57	60664.35
572.74	60704.13
572.90	60528.59
573.06	60697.11
573.22	60863.29
573.38	60683.07
573.55	60657.32
573.71	61111.39
573.87	60650.30
574.03	60729.88
574.20	60750.94
574.36	60629.24
574.52	60814.14
574.68	60748.60
574.84	60966.27
575.01	60968.61
575.17	60961.59
575.33	60631.58
575.49	60746.26
575.65	60849.25
575.82	60898.40
575.98	60650.30
576.14	60959.25
576.30	60807.12
576.46	60910.10
576.62	60858.61
576.79	60954.57
576.95	60832.86
577.11	60530.93
577.27	60839.89
577.43	60907.76
577.59	60774.35
577.75	60814.14
577.92	60708.82
578.08	60666.69
578.24	60690.09
578.40	61097.34
578.56	60931.17
578.72	60874.99
578.88	61109.05
579.04	61059.90
579.21	61095.00
579.37	60912.44
579.53	61038.83
579.69	60776.69
579.85	60764.99
580.01	60788.39
580.17	60872.65
580.33	61080.96
580.49	60933.51
580.65	61003.72
580.82	60931.17
580.98	60987.34
581.14	61104.37
581.30	61090.32
581.46	60919.46
581.62	60982.66
581.78	60898.40
581.94	60977.98
582.10	60914.78
582.26	60814.14
582.42	61003.72
582.58	61092.66
582.74	61071.60
582.90	61052.87
583.06	61076.28
583.22	60945.21
583.38	61057.56
583.54	60903.08
583.70	60992.02
583.86	61104.37
584.02	60982.66
584.18	61069.26
584.34	61284.59
584.50	61209.69
584.66	60973.30
584.82	60865.63
584.98	61151.18
585.14	61148.84
585.30	60898.40
585.46	61045.85
585.62	61029.47
585.78	61256.50
585.94	60729.88
586.10	60980.32
586.26	61160.54
586.42	61207.35
586.58	61247.14
586.74	61181.60
586.90	61275.22
587.06	61144.16
587.22	61364.17
587.38	61097.34
587.54	61268.20
587.70	61286.93
587.86	61209.69
588.02	60956.91
588.18	61305.65
588.34	60992.02
