SpectraSuite Data File
++++++++++++++++++++++++++++++++++++
Date: Fri Oct 25 11:34:26 EDT 2013
User: price-jones
Dark Spectrum Present: No
Reference Spectrum Present: No
Number of Sampled Component Spectra: 1
Spectrometers: USB2+H05261
Integration Time (usec): 100000 (USB2+H05261)
Spectra Averaged: 1 (USB2+H05261)
Boxcar Smoothing: 0 (USB2+H05261)
Correct for Electrical Dark: No (USB2+H05261)
Strobe/Lamp Enabled: No (USB2+H05261)
Correct for Detector Non-linearity: No (USB2+H05261)
Correct for Stray Light: No (USB2+H05261)
Number of Pixels in Processed Spectrum: 2048
>>>>>Begin Processed Spectral Data<<<<<
365.73	334.70
365.92	334.70
366.12	334.70
366.32	152.13
366.52	212.99
366.72	196.60
366.91	117.03
367.11	212.99
367.31	147.45
367.51	152.13
367.70	182.56
367.90	220.01
368.10	161.50
368.30	175.54
368.49	210.65
368.69	166.18
368.89	135.75
369.09	152.13
369.28	166.18
369.48	231.71
369.68	217.67
369.87	255.12
370.07	278.52
370.27	297.25
370.47	386.19
370.66	550.03
370.86	540.66
371.06	603.86
371.25	517.26
371.45	458.74
371.65	566.41
371.84	610.88
372.04	510.24
372.24	533.64
372.44	585.13
372.63	461.09
372.83	643.65
373.03	631.94
373.22	528.96
373.42	622.58
373.62	610.88
373.81	521.94
374.01	662.37
374.21	638.97
374.40	610.88
374.60	631.94
374.79	683.44
374.99	650.67
375.19	655.35
375.38	627.26
375.58	606.20
375.78	657.69
375.97	634.29
376.17	688.12
376.37	690.46
376.56	690.46
376.76	657.69
376.95	580.45
377.15	690.46
377.35	636.63
377.54	617.90
377.74	582.79
377.93	610.88
378.13	697.48
378.33	706.84
378.52	781.74
378.72	772.38
378.91	737.27
379.11	685.78
379.31	648.33
379.50	704.50
379.70	667.05
379.89	755.99
380.09	711.52
380.28	688.12
380.48	739.61
380.68	676.41
380.87	807.48
381.07	788.76
381.26	791.10
381.46	819.19
381.65	821.53
381.85	732.59
382.04	727.91
382.24	739.61
382.43	791.10
382.63	760.67
382.83	744.29
383.02	786.42
383.22	837.91
383.41	706.84
383.61	763.01
383.80	847.27
384.00	823.87
384.19	800.46
384.39	770.04
384.58	793.44
384.78	868.34
384.97	774.72
385.17	847.27
385.36	795.78
385.56	828.55
385.75	791.10
385.95	851.96
386.14	837.91
386.34	858.98
386.53	842.59
386.72	851.96
386.92	828.55
387.11	800.46
387.31	828.55
387.50	882.38
387.70	961.96
387.89	866.00
388.09	898.77
388.28	961.96
388.48	908.13
388.67	828.55
388.86	905.79
389.06	922.17
389.25	929.19
389.45	940.90
389.64	943.24
389.84	889.40
390.03	943.24
390.22	945.58
390.42	1004.09
390.61	940.90
390.81	849.61
391.00	933.87
391.19	954.94
391.39	978.34
391.58	978.34
391.78	1081.33
391.97	976.00
392.16	985.37
392.36	1020.47
392.55	1083.67
392.75	1029.84
392.94	1013.45
393.13	990.05
393.33	1046.22
393.52	1109.41
393.71	1121.12
393.91	1027.50
394.10	999.41
394.29	1034.52
394.49	1074.31
394.68	1177.29
394.88	1158.57
395.07	1174.95
395.26	1083.67
395.46	1114.10
395.65	1156.22
395.84	1191.33
396.04	1123.46
396.23	1167.93
396.42	1149.20
396.62	1221.76
396.81	1156.22
397.00	1207.72
397.19	1242.82
397.39	1151.54
397.58	1228.78
397.77	1233.46
397.97	1275.59
398.16	1238.14
398.35	1261.55
398.55	1245.16
398.74	1280.27
398.93	1350.49
399.12	1256.87
399.32	1282.61
399.51	1299.00
399.70	1219.42
399.90	1247.51
400.09	1280.27
400.28	1277.93
400.47	1270.91
400.67	1341.13
400.86	1252.19
401.05	1409.00
401.24	1411.34
401.44	1387.94
401.63	1455.81
401.82	1425.39
402.01	1469.86
402.21	1458.15
402.40	1446.45
402.59	1476.88
402.78	1453.47
402.97	1437.09
403.17	1448.79
403.36	1528.37
403.55	1500.28
403.74	1565.82
403.93	1582.20
404.13	1570.50
404.32	1535.39
404.51	1565.82
404.70	1561.14
404.89	1556.46
405.09	1605.61
405.28	1579.86
405.47	1647.74
405.66	1664.12
405.85	1621.99
406.05	1685.19
406.24	1607.95
406.43	1643.06
406.62	1732.00
406.81	1802.21
407.00	1694.55
407.20	1748.38
407.39	1666.46
407.58	1769.44
407.77	1774.13
407.96	1891.15
408.15	1792.85
408.34	1853.70
408.54	1832.64
408.73	1837.32
408.92	1870.09
409.11	1928.60
409.30	1867.75
409.49	1942.64
409.68	1914.56
409.87	2033.93
410.07	2008.18
410.26	2045.63
410.45	1940.30
410.64	1973.07
410.83	2045.63
411.02	1989.46
411.21	1984.77
411.40	2057.33
411.59	2195.42
411.78	2193.08
411.98	2113.50
412.17	2176.70
412.36	2120.53
412.55	2291.38
412.74	2335.85
412.93	2239.89
413.12	2284.36
413.31	2289.04
413.50	2246.91
413.69	2434.16
413.88	2399.05
414.07	2284.36
414.26	2347.56
414.45	2438.84
414.64	2380.32
414.83	2483.31
415.02	2473.95
415.22	2605.02
415.41	2612.04
415.60	2490.33
415.79	2626.08
415.98	2619.06
416.17	2586.29
416.36	2656.51
416.55	2661.19
416.74	2750.13
416.93	2600.34
417.12	2799.28
417.31	2808.64
417.50	2829.71
417.69	2836.73
417.88	2848.43
418.07	2794.60
418.26	2862.48
418.45	2909.29
418.64	2942.05
418.83	2883.54
419.02	2890.56
419.21	3033.33
419.39	2937.37
419.58	2923.33
419.77	2883.54
419.96	2942.05
420.15	3052.06
420.34	3089.51
420.53	3101.21
420.72	3213.56
420.91	3028.65
421.10	3136.32
421.29	3091.85
421.48	3033.33
421.67	3133.98
421.86	3141.00
422.05	3180.79
422.24	3187.81
422.43	3253.34
422.61	3206.53
422.80	3316.54
422.99	3372.71
423.18	3150.36
423.37	3307.18
423.56	3215.90
423.75	3258.03
423.94	3208.87
424.13	2993.55
424.32	3201.85
424.50	3274.41
424.69	3353.99
424.88	3435.91
425.07	3304.84
425.26	3335.26
425.45	3311.86
425.64	3372.71
425.83	3307.18
426.01	3335.26
426.20	3295.47
426.39	3435.91
426.58	3382.07
426.77	3258.03
426.96	3438.25
427.15	3449.95
427.33	3463.99
427.52	3398.46
427.71	3555.27
427.90	3527.19
428.09	3552.93
428.28	3562.30
428.46	3487.40
428.65	3407.82
428.84	3606.77
429.03	3672.30
429.22	3471.01
429.40	3506.12
429.59	3524.85
429.78	3400.80
429.97	3550.59
430.16	3662.94
430.34	3733.15
430.53	3637.19
430.72	3751.88
430.91	3719.11
431.10	3648.90
431.28	3812.73
431.47	3756.56
431.66	3920.40
431.85	3885.29
432.03	3913.38
432.22	4030.40
432.41	3929.76
432.60	3875.93
432.79	3911.04
432.97	3990.61
433.16	4051.47
433.35	4081.89
433.54	3967.21
433.72	4044.45
433.91	4014.02
434.10	3875.93
434.28	3999.98
434.47	4205.94
434.66	4074.87
434.85	4152.11
435.03	4276.16
435.22	4135.73
435.41	4386.16
435.59	4194.24
435.78	4308.93
435.97	4173.18
436.16	4102.96
436.34	4353.40
436.53	4259.78
436.72	4355.74
436.90	4205.94
437.09	4250.41
437.28	4329.99
437.46	4322.97
437.65	4416.59
437.84	4393.19
438.02	4491.49
438.21	4547.66
438.40	4264.46
438.58	4468.08
438.77	4709.16
438.96	4531.28
439.14	4587.45
439.33	4737.24
439.52	4713.84
439.70	4650.64
439.89	4985.34
440.08	4901.08
440.26	4716.18
440.45	4770.01
440.63	4910.44
440.82	5076.62
441.01	4901.08
441.19	4840.23
441.38	4997.04
441.57	5067.26
441.75	5027.47
441.94	5097.69
442.12	5231.10
442.31	5247.48
442.50	5270.89
442.68	5107.05
442.87	5334.08
443.05	5305.99
443.24	5256.84
443.43	5235.78
443.61	5158.54
443.80	5476.85
443.98	5203.01
444.17	4964.28
444.35	5376.21
444.54	5444.09
444.73	5493.24
444.91	5308.34
445.10	5315.36
445.28	5418.34
445.47	5315.36
445.65	5437.06
445.84	5570.48
446.02	5577.50
446.21	5446.43
446.39	5476.85
446.58	5584.52
446.77	5406.64
446.95	5490.90
447.14	5460.47
447.32	5528.35
447.51	5439.40
447.69	5434.72
447.88	5511.96
448.06	5486.22
448.25	5631.33
448.43	5603.24
448.62	5689.84
448.80	5511.96
448.99	5614.95
449.17	5699.20
449.36	5530.69
449.54	5832.62
449.73	5846.66
449.91	5987.09
450.10	5795.17
450.28	6036.24
450.46	5841.98
450.65	5860.70
450.83	5989.43
451.02	5944.96
451.20	6015.18
451.39	6080.71
451.57	6017.52
451.76	5942.62
451.94	6052.63
452.13	5954.32
452.31	6085.39
452.49	6038.58
452.68	6111.14
452.86	6129.86
453.05	6197.74
453.23	6085.39
453.42	6045.60
453.60	6202.42
453.78	6141.57
453.97	6061.99
454.15	6136.88
454.34	6260.93
454.52	6366.26
454.70	6368.60
454.89	6171.99
455.07	6384.98
455.26	6256.25
455.44	6452.86
455.62	6401.37
455.81	6445.84
455.99	6434.13
456.17	6541.80
456.36	6581.59
456.54	6562.86
456.73	6607.33
456.91	6736.06
457.09	6665.85
457.28	6801.60
457.46	6565.20
457.64	6801.60
457.83	6691.59
458.01	6878.83
458.19	6916.28
458.38	6808.62
458.56	6960.75
458.74	7042.67
458.93	6815.64
459.11	6946.71
459.29	6981.82
459.48	7150.34
459.66	7040.33
459.84	6967.77
460.03	7283.75
460.21	6995.86
460.39	7068.42
460.57	7063.74
460.76	7140.97
460.94	7311.83
461.12	7328.22
461.31	7075.44
461.49	7108.21
461.67	7250.98
461.85	7447.58
462.04	7332.90
462.22	7838.45
462.40	7459.29
462.59	7559.93
462.77	7470.99
462.95	7508.44
463.13	7382.05
463.32	7466.31
463.50	7775.26
463.68	7569.29
463.86	7669.94
464.05	7611.42
464.23	7377.37
464.41	7447.58
464.59	7456.95
464.78	7660.57
464.96	7674.62
465.14	7676.96
465.32	7698.02
465.50	7723.77
465.69	7822.07
465.87	7709.72
466.05	7791.64
466.23	7955.48
466.41	7887.61
466.60	8030.38
466.78	7878.24
466.96	7812.71
467.14	7740.15
467.32	7920.37
467.51	8126.34
467.69	7918.03
467.87	8011.65
468.05	8037.40
468.23	7777.60
468.41	7983.57
468.60	8074.85
468.78	8262.09
468.96	8170.81
469.14	8245.71
469.32	8329.97
469.50	7990.59
469.69	8465.72
469.87	8439.97
470.05	8191.88
470.23	8325.29
470.41	8449.33
470.59	8372.10
470.77	8446.99
470.95	8610.83
471.14	8725.52
471.32	8503.17
471.50	8613.17
471.68	8798.07
471.86	8851.91
472.04	8800.41
472.22	9060.21
472.40	8821.48
472.58	8692.75
472.77	8938.51
472.95	8975.95
473.13	9214.69
473.31	8849.57
473.49	8922.12
473.67	8786.37
473.85	9221.71
474.03	9394.91
474.21	9275.54
474.39	9383.21
474.57	9493.21
474.75	9511.94
474.93	9703.86
475.12	9495.55
475.30	9547.05
475.48	9586.83
475.66	9717.90
475.84	9589.17
476.02	9820.89
476.20	9497.89
476.38	9891.10
476.56	10045.58
476.74	10129.84
476.92	10101.75
477.10	10040.90
477.28	10078.35
477.46	10319.42
477.64	10370.91
477.82	10532.41
478.00	10607.31
478.18	10651.78
478.36	10654.12
478.54	10740.72
478.72	10810.93
478.90	11136.27
479.08	11171.38
479.26	11143.29
479.44	11302.45
479.62	11461.60
479.80	11412.45
479.98	11260.32
480.16	11655.87
480.34	11744.81
480.52	11829.07
480.70	11655.87
480.88	11735.45
481.06	11953.12
481.24	11878.22
481.41	12067.80
481.59	12072.48
481.77	12395.48
481.95	12201.21
482.13	12613.15
482.31	12430.59
482.49	12615.49
482.67	12496.12
482.85	12830.82
483.03	13132.75
483.21	13289.56
483.39	13268.50
483.57	13125.72
483.74	13411.27
483.92	13507.23
484.10	13200.62
484.28	13769.37
484.46	13729.58
484.64	13970.66
484.82	13818.52
485.00	14087.68
485.18	14508.98
485.35	14293.65
485.53	14431.74
485.71	14406.00
485.89	14604.94
486.07	14871.76
486.25	15012.20
486.43	15066.03
486.61	15016.88
486.78	14890.49
486.96	15012.20
487.14	15480.30
487.32	15571.58
487.50	15557.54
487.68	15594.99
487.85	16070.12
488.03	15964.79
488.21	16404.81
488.39	16025.65
488.57	16224.59
488.75	16482.05
488.92	16716.11
489.10	16793.34
489.28	17046.12
489.46	17242.73
489.64	16783.98
489.81	17483.80
489.99	17235.70
490.17	17331.67
490.35	17525.93
490.53	17717.86
490.70	17996.38
490.88	17785.73
491.06	18272.56
491.24	17972.97
491.41	18242.14
491.59	18492.57
491.77	18703.22
491.95	18761.73
492.13	18520.66
492.30	19012.17
492.48	18682.16
492.66	18810.89
492.84	18918.55
493.01	19372.61
493.19	19290.70
493.37	19206.44
493.54	19604.33
493.72	19751.78
493.90	19814.98
494.08	20107.54
494.25	20299.47
494.43	20266.70
494.61	20484.37
494.79	20435.22
494.96	20325.21
495.14	20599.05
495.32	20833.11
495.49	20706.72
495.67	20608.42
495.85	20957.16
496.02	21287.17
496.20	21481.44
496.38	21378.45
496.55	21352.71
496.73	21778.68
496.91	21593.78
497.09	21905.07
497.26	21713.15
497.44	21668.68
497.62	21996.35
497.79	22401.27
497.97	22195.30
498.14	22572.13
498.32	22642.34
498.50	22698.52
498.67	22878.74
498.85	22888.10
499.03	23150.24
499.20	23063.64
499.38	22881.08
499.56	23229.82
499.73	23538.77
499.91	23587.92
500.08	23733.03
500.26	23131.51
500.44	23768.14
500.61	23875.80
500.79	24049.00
500.97	23728.35
501.14	24133.26
501.32	24304.12
501.49	24229.23
501.67	24276.04
501.84	24156.67
502.02	24470.30
502.20	24510.09
502.37	24627.12
502.55	24643.50
502.72	24821.38
502.90	25006.28
503.07	25043.73
503.25	25116.29
503.43	24788.61
503.60	25198.21
503.78	25167.78
503.95	25156.08
504.13	25631.21
504.30	25462.69
504.48	25532.90
504.65	25612.48
504.83	25696.74
505.01	25862.92
505.18	26008.03
505.36	26314.64
505.53	25979.95
505.71	26265.49
505.88	26307.62
506.06	25799.73
506.23	26113.36
506.41	26178.89
506.58	26534.65
506.76	26434.01
506.93	26728.92
507.11	26647.00
507.28	26977.01
507.46	27250.86
507.63	27180.64
507.81	26991.06
507.98	26911.48
508.16	27122.13
508.33	27213.41
508.50	27421.72
508.68	27412.35
508.85	27641.73
509.03	27637.05
509.20	27805.56
509.38	27962.38
509.55	27960.04
509.73	28030.26
509.90	28371.97
510.08	27892.16
510.25	28306.44
510.42	28283.03
510.60	28418.78
510.77	28465.60
510.95	28835.40
511.12	28650.50
511.30	28826.04
511.47	28919.66
511.64	29149.03
511.82	29144.35
511.99	28884.55
512.17	29130.31
512.34	28889.23
512.51	29415.85
512.69	29598.41
512.86	29528.20
513.04	29427.56
513.21	29500.11
513.38	29773.95
513.56	29600.76
513.73	29406.49
513.90	29596.07
514.08	29912.05
514.25	29888.64
514.43	29926.09
514.60	30134.40
514.77	30361.43
514.95	30529.95
515.12	30225.68
515.29	30492.50
515.47	30953.58
515.64	30775.70
515.81	30405.90
515.99	30668.04
516.16	30883.37
516.33	31101.04
516.51	30913.80
516.68	30639.95
516.85	30937.20
517.03	31304.67
517.20	31674.47
517.37	31257.85
517.54	31463.82
517.72	31564.46
517.89	31541.06
518.06	31576.17
518.24	31690.85
518.41	31709.58
518.58	31688.51
518.75	31878.10
518.93	31817.24
519.10	31548.08
519.27	32322.80
519.45	32156.62
519.62	32025.55
519.79	32119.17
519.96	32395.35
520.14	32334.50
520.31	32215.13
520.48	32385.99
520.65	32861.12
520.83	32833.04
521.00	32961.76
521.17	32685.58
521.34	32978.15
521.52	33083.47
521.69	32889.21
521.86	33181.77
522.03	33420.51
522.20	33401.79
522.38	33734.14
522.55	33635.84
522.72	33954.15
522.89	33659.24
523.07	33736.48
523.24	33544.56
523.41	33933.09
523.58	33572.64
523.75	34096.92
523.92	33890.96
524.10	34019.69
524.27	34361.40
524.44	34103.95
524.61	34377.79
524.78	33991.60
524.96	34569.71
525.13	34440.98
525.30	34878.66
525.47	34548.65
525.64	34522.90
525.81	35056.54
525.98	35101.01
526.16	34644.61
526.33	34948.88
526.50	34883.34
526.67	34801.43
526.84	34672.70
527.01	35360.81
527.18	35070.59
527.36	34911.43
527.53	35524.65
527.70	35264.85
527.87	35426.35
528.04	35115.06
528.21	35583.16
528.38	35950.63
528.55	35674.45
528.72	35674.45
528.89	35480.18
529.07	35519.97
529.24	35711.89
529.41	35756.36
529.58	35864.03
529.75	35812.54
529.92	36367.24
530.09	36114.47
530.26	35770.41
530.43	36425.76
530.60	35683.81
530.77	36184.68
530.94	36376.61
531.11	36477.25
531.28	36287.67
531.46	36325.11
531.63	36322.77
531.80	36229.15
531.97	36669.17
532.14	36545.12
532.31	36680.88
532.48	36776.84
532.65	37254.31
532.82	36664.49
532.99	36737.05
533.16	37085.79
533.33	37158.34
533.50	37116.22
533.67	36868.12
533.84	37357.29
534.01	36704.28
534.18	36720.66
534.35	37413.46
534.52	37181.75
534.69	37904.98
534.86	37769.22
535.03	37427.51
535.20	37621.77
535.37	37556.24
535.54	37818.38
535.71	37954.13
535.88	38366.06
536.05	37589.00
536.22	38110.94
536.38	38036.05
536.55	37790.29
536.72	37965.83
536.89	37769.22
537.06	37909.66
537.23	38103.92
537.40	38452.66
537.57	37888.59
537.74	38066.47
537.91	38586.07
538.08	38363.72
538.25	38286.48
538.42	38525.22
538.59	38934.81
538.75	38501.81
538.92	38672.67
539.09	38663.31
539.26	38850.55
539.43	38740.55
539.60	38899.70
539.77	39019.07
539.94	39372.49
540.11	39328.02
540.28	38768.63
540.44	39072.90
540.61	39246.10
540.78	39463.77
540.95	39232.06
541.12	39168.87
541.29	39084.61
541.46	39494.20
541.62	39047.16
541.79	39594.84
541.96	39110.35
542.13	39442.71
542.30	39440.37
542.47	39449.73
542.63	39938.90
542.80	39728.25
542.97	40350.84
543.14	39784.43
543.31	39798.47
543.48	39908.47
543.64	40191.68
543.81	40135.51
543.98	40509.99
544.15	40308.71
544.32	40598.93
544.48	40524.04
544.65	40271.26
544.82	40287.64
544.99	40547.44
545.16	40294.66
545.32	40582.55
545.49	41254.28
545.66	40755.75
545.83	40942.99
546.00	40950.01
546.16	40751.07
546.33	40617.66
546.50	40563.82
546.67	41221.52
546.83	40521.69
547.00	40608.29
547.17	41141.94
547.34	40910.22
547.50	40985.12
547.67	41383.01
547.84	41478.97
548.00	41600.68
548.17	41542.17
548.34	41153.64
548.51	41628.77
548.67	41759.84
548.84	41528.13
549.01	41214.49
549.18	41680.26
549.34	41612.38
549.51	41911.97
549.68	41455.57
549.84	41436.84
550.01	41926.02
550.18	41598.34
550.34	42141.35
550.51	41694.30
550.68	41727.07
550.84	41621.75
551.01	42033.68
551.18	41963.46
551.34	42148.37
551.51	42141.35
551.68	41968.15
551.84	41897.93
552.01	42106.24
552.18	42124.96
552.34	41947.08
552.51	41902.61
552.68	42141.35
552.84	42155.39
553.01	42146.03
553.18	42211.56
553.34	42780.31
553.51	42302.84
553.67	42429.23
553.84	42719.46
554.01	42373.06
554.17	42373.06
554.34	42321.57
554.51	42471.36
554.67	42792.01
554.84	42693.71
555.00	42749.88
555.17	42866.91
555.33	42782.65
555.50	42497.11
555.67	43138.41
555.83	42719.46
556.00	42677.33
556.16	43400.55
556.33	43166.50
556.50	43407.58
556.66	42958.19
556.83	42983.94
556.99	43433.32
557.16	43075.22
557.32	42817.76
557.49	43559.71
557.65	43257.78
557.82	43096.28
557.98	43290.55
558.15	43007.34
558.32	43452.05
558.48	42997.98
558.65	43154.80
558.81	43283.53
558.98	43082.24
559.14	43758.66
559.31	43423.96
559.47	43236.72
559.64	43283.53
559.80	43255.44
559.97	43700.14
560.13	43707.16
560.30	43784.40
560.46	43985.69
560.63	43861.64
560.79	43915.47
560.96	43856.96
561.12	43856.96
561.29	43709.50
561.45	43615.88
561.61	43761.00
561.78	43606.52
561.94	43782.06
562.11	43777.38
562.27	44119.10
562.44	43709.50
562.60	44142.50
562.77	44135.48
562.93	43679.08
563.10	44439.75
563.26	44109.74
563.42	44182.29
563.59	43756.32
563.75	44336.77
563.92	43885.04
564.08	44175.27
564.24	44315.70
564.41	43863.98
564.57	43859.30
564.74	44154.21
564.90	44280.60
565.07	43995.05
565.23	44067.61
565.39	44325.07
565.56	44030.16
565.72	44666.78
565.88	44416.35
566.05	44554.44
566.21	44545.08
566.38	43793.76
566.54	44315.70
566.70	44329.75
566.87	44456.14
567.03	43952.92
567.19	44818.92
567.36	44238.47
567.52	44402.30
567.68	44636.36
567.85	44435.07
568.01	44612.95
568.17	44629.34
568.34	44479.54
568.50	44708.91
568.66	44488.90
568.83	44715.93
568.99	44744.02
569.15	44589.55
569.32	44259.53
569.48	44516.99
569.64	45029.57
569.81	45008.50
569.97	45045.95
570.13	44942.97
570.30	44516.99
570.46	44547.42
570.62	44598.91
570.78	44945.31
570.95	44465.50
571.11	45193.40
571.27	44687.85
571.43	44582.52
571.60	44687.85
571.76	44737.00
571.92	44966.37
572.09	44851.69
572.25	44779.13
572.41	44767.43
572.57	44989.78
572.74	45102.12
572.90	44729.98
573.06	45287.03
573.22	44727.64
573.38	45134.89
573.55	45078.72
573.71	45329.16
573.87	45399.37
574.03	44994.46
574.20	45160.64
574.36	45106.80
574.52	45331.50
574.68	45312.77
574.84	45315.11
575.01	44816.58
575.17	45027.23
575.33	45195.74
575.49	44814.24
575.65	45464.91
575.82	45347.88
575.98	45104.46
576.14	45525.76
576.30	45640.45
576.46	45478.95
576.62	44591.89
576.79	45106.80
576.95	44818.92
577.11	44634.02
577.27	44994.46
577.43	44800.19
577.59	45352.56
577.75	45017.86
577.92	44615.29
578.08	45263.62
578.24	45319.79
578.40	45418.10
578.56	45069.36
578.72	45345.54
578.88	45579.59
579.04	45172.34
579.21	44999.14
579.37	45338.52
579.53	45626.40
579.69	45116.17
579.85	45439.16
580.01	45017.86
580.17	44844.66
580.33	45380.65
580.49	44938.29
580.65	45291.71
580.82	45256.60
580.98	45373.63
581.14	44872.75
581.30	45668.53
581.46	44879.77
581.62	45148.93
581.78	44999.14
581.94	45097.44
582.10	45495.33
582.26	45436.82
582.42	45219.15
582.58	45228.51
582.74	45607.68
582.90	45485.97
583.06	45855.78
583.22	45539.80
583.38	45429.80
583.54	45521.08
583.70	45277.66
583.86	45453.20
584.02	45708.32
584.18	45797.26
584.34	45956.42
584.50	45808.96
584.66	45848.75
584.82	45500.01
584.98	46061.74
585.14	45673.21
585.30	45682.58
585.46	45881.52
585.62	45050.63
585.78	45567.89
585.94	45371.28
586.10	45469.59
586.26	44875.09
586.42	45364.26
586.58	45345.54
586.74	45305.75
586.90	45539.80
587.06	45528.10
587.22	45462.57
587.38	45291.71
587.54	45855.78
587.70	45741.09
587.86	45886.20
588.02	45490.65
588.18	45928.33
588.34	45394.69
588.49	45713.00
588.65	45497.67
588.81	45563.21
588.97	45645.13
589.13	45626.40
589.29	45399.37
589.45	45872.16
589.61	45492.99
589.77	45947.06
589.93	45687.26
590.08	46101.53
