SpectraSuite Data File
++++++++++++++++++++++++++++++++++++
Date: Fri Oct 25 10:47:01 EDT 2013
User: price-jones
Dark Spectrum Present: No
Reference Spectrum Present: No
Number of Sampled Component Spectra: 1
Spectrometers: USB2+H05261
Integration Time (usec): 100000 (USB2+H05261)
Spectra Averaged: 1 (USB2+H05261)
Boxcar Smoothing: 0 (USB2+H05261)
Correct for Electrical Dark: No (USB2+H05261)
Strobe/Lamp Enabled: No (USB2+H05261)
Correct for Detector Non-linearity: No (USB2+H05261)
Correct for Stray Light: No (USB2+H05261)
Number of Pixels in Processed Spectrum: 2048
>>>>>Begin Processed Spectral Data<<<<<
365.73	152.13
365.92	152.13
366.12	152.13
366.32	79.58
366.52	60.85
366.72	81.92
366.91	21.06
367.11	0.00
367.31	23.41
367.51	25.75
367.70	58.51
367.90	65.54
368.10	16.38
368.30	25.75
368.49	86.60
368.69	88.94
368.89	51.49
369.09	39.79
369.28	51.49
369.48	105.32
369.68	30.43
369.87	46.81
370.07	25.75
370.27	152.13
370.47	201.29
370.66	344.06
370.86	409.59
371.06	526.62
371.25	468.11
371.45	449.38
371.65	465.77
371.84	507.90
372.04	468.11
372.24	479.81
372.44	535.98
372.63	493.85
372.83	456.40
373.03	435.34
373.22	456.40
373.42	449.38
373.62	540.66
373.81	606.20
374.01	592.16
374.21	547.69
374.40	498.53
374.60	657.69
374.79	547.69
374.99	596.84
375.19	573.43
375.38	645.99
375.58	540.66
375.78	524.28
375.97	580.45
376.17	667.05
376.37	606.20
376.56	557.05
376.76	596.84
376.95	608.54
377.15	631.94
377.35	592.16
377.54	664.71
377.74	641.31
377.93	667.05
378.13	660.03
378.33	662.37
378.52	692.80
378.72	744.29
378.91	655.35
379.11	711.52
379.31	653.01
379.50	599.18
379.70	650.67
379.89	674.07
380.09	683.44
380.28	676.41
380.48	629.60
380.68	737.27
380.87	615.56
381.07	653.01
381.26	732.59
381.46	737.27
381.65	702.16
381.85	711.52
382.04	741.95
382.24	688.12
382.43	664.71
382.63	688.12
382.83	641.31
383.02	751.31
383.22	720.88
383.41	695.14
383.61	704.50
383.80	816.85
384.00	723.23
384.19	688.12
384.39	765.36
384.58	755.99
384.78	858.98
384.97	767.70
385.17	713.86
385.36	746.63
385.56	844.93
385.75	767.70
385.95	812.17
386.14	858.98
386.34	805.14
386.53	809.83
386.72	915.15
386.92	793.44
387.11	894.08
387.31	793.44
387.50	821.53
387.70	896.43
387.89	858.98
388.09	866.00
388.28	758.33
388.48	905.79
388.67	933.87
388.86	901.11
389.06	905.79
389.25	840.25
389.45	936.21
389.64	931.53
389.84	1022.81
390.03	964.30
390.22	994.73
390.42	896.43
390.61	959.62
390.81	976.00
391.00	999.41
391.19	1027.50
391.39	966.64
391.58	1001.75
391.78	943.24
391.97	976.00
392.16	905.79
392.36	1097.71
392.55	1015.79
392.75	999.41
392.94	1064.94
393.13	1008.77
393.33	1001.75
393.52	957.28
393.71	1062.60
393.91	1048.56
394.10	1008.77
394.29	1069.62
394.49	1062.60
394.68	1060.26
394.88	1022.81
395.07	1193.67
395.26	1221.76
395.46	1198.35
395.65	1235.80
395.84	1212.40
396.04	1170.27
396.23	1146.86
396.42	1102.39
396.62	1109.41
396.81	1233.46
397.00	1207.72
397.19	1263.89
397.39	1184.31
397.58	1266.23
397.77	1310.70
397.97	1399.64
398.16	1289.64
398.35	1378.58
398.55	1294.32
398.74	1437.09
398.93	1369.21
399.12	1394.96
399.32	1376.24
399.51	1359.85
399.70	1500.28
399.90	1357.51
400.09	1455.81
400.28	1390.28
400.47	1446.45
400.67	1530.71
400.86	1507.30
401.05	1434.75
401.24	1584.54
401.44	1458.15
401.63	1589.22
401.82	1516.67
402.01	1500.28
402.21	1542.41
402.40	1493.26
402.59	1591.56
402.78	1678.16
402.97	1526.03
403.17	1610.29
403.36	1659.44
403.55	1678.16
403.74	1664.12
403.93	1715.61
404.13	1736.68
404.32	1671.14
404.51	1701.57
404.70	1827.96
404.89	1795.19
405.09	1844.34
405.28	1792.85
405.47	1685.19
405.66	1823.28
405.85	1860.73
406.05	1825.62
406.24	1877.11
406.43	1905.20
406.62	1949.67
406.81	1961.37
407.00	1853.70
407.20	1853.70
407.39	1937.96
407.58	2057.33
407.77	1940.30
407.96	1930.94
408.15	2026.90
408.34	1970.73
408.54	1994.14
408.73	2073.71
408.92	2146.27
409.11	2106.48
409.30	2092.44
409.49	2122.87
409.68	2094.78
409.87	2083.08
410.07	2251.60
410.26	2223.51
410.45	2253.94
410.64	2221.17
410.83	2246.91
411.02	2366.28
411.21	2413.09
411.40	2293.72
411.59	2413.09
411.78	2452.88
411.98	2340.54
412.17	2422.45
412.36	2464.58
412.55	2513.74
412.74	2518.42
412.93	2537.14
413.12	2469.27
413.31	2602.68
413.50	2448.20
413.69	2635.44
413.88	2729.06
414.07	2773.53
414.26	2679.91
414.45	2663.53
414.64	2785.24
414.83	2799.28
415.02	2832.05
415.22	2841.41
415.41	2911.63
415.60	2902.26
415.79	2899.92
415.98	2970.14
416.17	2932.69
416.36	3035.67
416.55	3002.91
416.74	3045.04
416.93	3007.59
417.12	3145.68
417.31	3211.22
417.50	3063.76
417.69	3201.85
417.88	3211.22
418.07	3133.98
418.26	3077.80
418.45	3222.92
418.64	3382.07
418.83	3246.32
419.02	3218.24
419.21	3393.78
419.39	3368.03
419.58	3337.60
419.77	3293.13
419.96	3293.13
420.15	3339.94
420.34	3461.65
420.53	3538.89
420.72	3590.38
420.91	3412.50
421.10	3494.42
421.29	3679.32
421.48	3485.06
421.67	3576.34
421.86	3604.42
422.05	3574.00
422.24	3658.26
422.43	3520.17
422.61	3592.72
422.80	3681.66
422.99	3637.19
423.18	3655.92
423.37	3831.46
423.56	3611.45
423.75	3595.06
423.94	3482.72
424.13	3548.25
424.32	3489.74
424.50	3637.19
424.69	3768.26
424.88	3590.38
425.07	3548.25
425.26	3604.42
425.45	3688.68
425.64	3749.54
425.83	3817.41
426.01	3791.67
426.20	3761.24
426.39	3740.18
426.58	3660.60
426.77	3866.56
426.96	3632.51
427.15	3740.18
427.33	3861.88
427.52	3768.26
427.71	3918.06
427.90	3988.27
428.09	3920.40
428.28	3918.06
428.46	3960.19
428.65	3978.91
428.84	3953.16
429.03	4018.70
429.22	3756.56
429.40	3927.42
429.59	3946.14
429.78	3810.39
429.97	3691.02
430.16	3789.33
430.34	3918.06
430.53	4077.21
430.72	3946.14
430.91	3920.40
431.10	4175.52
431.28	4241.05
431.47	4266.80
431.66	4407.23
431.85	4388.50
432.03	4266.80
432.22	4325.31
432.41	4327.65
432.60	4308.93
432.79	4320.63
432.97	4355.74
433.16	4402.55
433.35	4425.95
433.54	4280.84
433.72	4397.87
433.91	4365.10
434.10	4447.02
434.28	4463.40
434.47	4482.13
434.66	4669.37
434.85	4648.30
435.03	4648.30
435.22	4655.33
435.41	4732.56
435.59	4723.20
435.78	4723.20
435.97	4828.53
436.16	4772.35
436.34	4739.58
436.53	4732.56
436.72	4997.04
436.90	4791.08
437.09	4823.84
437.28	4704.48
437.46	4800.44
437.65	4891.72
437.84	4901.08
438.02	4919.81
438.21	4734.90
438.40	4823.84
438.58	5181.95
438.77	5233.44
438.96	4919.81
439.14	5207.69
439.33	5170.24
439.52	5280.25
439.70	5238.12
439.89	5305.99
440.08	5371.53
440.26	5305.99
440.45	5207.69
440.63	5577.50
440.82	5540.05
441.01	5441.75
441.19	5469.83
441.38	5624.31
441.57	5701.54
441.75	5603.24
441.94	5734.31
442.12	5731.97
442.31	5940.28
442.50	5856.02
442.68	5708.57
442.87	5856.02
443.05	5863.04
443.24	5944.96
443.43	6010.50
443.61	5963.68
443.80	6176.67
443.98	5825.59
444.17	5827.93
444.35	6094.76
444.54	6164.97
444.73	5898.15
444.91	6087.73
445.10	6136.88
445.28	5947.30
445.47	5771.76
445.65	5886.45
445.84	6108.80
446.02	6083.05
446.21	6258.59
446.39	6076.03
446.58	6153.27
446.77	6293.70
446.95	6174.33
447.14	6352.21
447.32	6230.51
447.51	6216.46
447.69	6186.04
447.88	6069.01
448.06	6162.63
448.25	6310.08
448.43	6342.85
448.62	6328.81
448.80	6181.35
448.99	6506.69
449.17	6361.58
449.36	6422.43
449.54	6487.96
449.73	6420.09
449.91	6602.65
450.10	6637.76
450.28	6750.10
450.46	6794.58
450.65	6633.08
450.83	6593.29
451.02	6731.38
451.20	6834.36
451.39	6916.28
451.57	6850.75
451.76	6635.42
451.94	6600.31
452.13	6806.28
452.31	6604.99
452.49	6588.61
452.68	6803.94
452.86	6808.62
453.05	6743.08
453.23	6998.20
453.42	6815.64
453.60	6752.45
453.78	6958.41
453.97	6766.49
454.15	6956.07
454.34	6885.86
454.52	7056.72
454.70	7096.50
454.89	6960.75
455.07	7014.59
455.26	7201.83
455.44	7133.95
455.62	7098.84
455.81	7201.83
455.99	7286.09
456.17	7363.33
456.36	7569.29
456.54	7456.95
456.73	7379.71
456.91	7517.80
457.09	7541.21
457.28	7793.98
457.46	7501.42
457.64	7705.04
457.83	7550.57
458.01	7438.22
458.19	7644.19
458.38	7609.08
458.56	7714.41
458.74	7611.42
458.93	7751.85
459.11	7730.79
459.29	7590.36
459.48	7845.48
459.66	7775.26
459.84	7964.84
460.03	7985.91
460.21	7852.50
460.39	7889.95
460.57	7981.23
460.76	8021.02
460.94	8154.43
461.12	8140.38
461.31	7971.86
461.49	8032.72
461.67	8051.44
461.85	8194.22
462.04	8107.62
462.22	8868.29
462.40	8507.85
462.59	8507.85
462.77	8156.77
462.95	8229.32
463.13	8226.98
463.32	8245.71
463.50	8292.52
463.68	8596.79
463.86	8486.78
464.05	8332.31
464.23	8416.57
464.41	8451.67
464.59	8397.84
464.78	8645.94
464.96	8559.34
465.14	8468.06
465.32	8746.58
465.50	8659.98
465.69	8702.11
465.87	8706.79
466.05	8519.55
466.23	8622.53
466.41	8674.03
466.60	8856.59
466.78	8767.65
466.96	8627.21
467.14	8454.02
467.32	8908.08
467.51	8748.92
467.69	8655.30
467.87	8919.78
468.05	9060.21
468.23	8884.67
468.41	8748.92
468.60	8837.86
468.78	9090.64
468.96	8734.88
469.14	9083.62
469.32	9085.96
469.50	9041.49
469.69	9081.28
469.87	9186.60
470.05	9263.84
470.23	9432.36
470.41	9277.88
470.59	9483.85
470.77	9446.40
470.95	9371.50
471.14	9628.96
471.32	9528.32
471.50	9647.69
471.68	9661.73
471.86	9659.39
472.04	9710.88
472.22	9937.91
472.40	9813.87
472.58	9989.41
472.77	9926.21
472.95	9881.74
473.13	10050.26
473.31	9813.87
473.49	10045.58
473.67	9827.91
473.85	10012.81
474.03	10403.68
474.21	10380.28
474.39	10408.36
474.57	10380.28
474.75	10511.35
474.93	10633.05
475.12	10621.35
475.30	10663.48
475.48	10523.05
475.66	10876.47
475.84	10626.03
476.02	10834.34
476.20	10754.76
476.38	11157.33
476.56	11194.78
476.74	11042.65
476.92	11391.39
477.10	11049.67
477.28	11412.45
477.46	11396.07
477.64	11714.38
477.82	11639.48
478.00	11861.84
478.18	11541.18
478.36	11920.35
478.54	11927.37
478.72	11988.22
478.90	12159.08
479.08	12402.50
479.26	12489.10
479.44	12318.24
479.62	12531.23
479.80	12334.62
479.98	12540.59
480.16	12992.31
480.34	12961.89
480.52	12877.63
480.70	13053.17
480.88	12744.22
481.06	12999.34
481.24	13268.50
481.41	13252.11
481.59	13415.95
481.77	13619.58
481.95	13589.15
482.13	13687.45
482.31	13654.69
482.49	14085.34
482.67	14125.13
482.85	14106.41
483.03	14544.09
483.21	14558.13
483.39	14707.93
483.57	14420.04
483.74	14700.90
483.92	14651.75
484.10	14679.84
484.28	15358.60
484.46	15398.38
484.64	15417.11
484.82	15183.06
485.00	15304.76
485.18	15484.98
485.35	15894.58
485.53	15393.70
485.71	15454.56
485.89	15531.80
486.07	15728.40
486.25	16058.42
486.43	15838.41
486.61	16411.84
486.78	16465.67
486.96	16404.81
487.14	16819.09
487.32	16664.61
487.50	17158.47
487.68	17135.06
487.85	17238.05
488.03	17591.47
488.21	17600.83
488.39	17752.96
488.57	17664.02
488.75	17935.53
488.92	18087.66
489.10	18129.79
489.28	18647.05
489.46	18607.26
489.64	18370.86
489.81	19063.66
489.99	18867.06
490.17	18923.23
490.35	19447.51
490.53	19286.01
490.70	19740.08
490.88	19489.64
491.06	19721.35
491.24	19391.34
491.41	19749.44
491.59	19700.29
491.77	19850.08
491.95	20236.27
492.13	20219.89
492.30	20531.18
492.48	20498.41
492.66	20765.23
492.84	20849.49
493.01	20765.23
493.19	20973.54
493.37	21305.90
493.54	21315.26
493.72	21631.23
493.90	21231.00
494.08	21284.83
494.25	22052.53
494.43	21862.94
494.61	22097.00
494.79	22270.20
494.96	22167.21
495.14	22204.66
495.32	22459.78
495.49	22717.24
495.67	22768.73
495.85	22960.66
496.02	22988.74
496.20	22733.62
496.38	23211.09
496.55	23297.69
496.73	23686.22
496.91	23601.96
497.09	23592.60
497.26	23866.44
497.44	23473.23
497.62	23950.70
497.79	24063.05
497.97	24423.49
498.14	24154.33
498.32	24243.27
498.50	24559.24
498.67	24734.78
498.85	24711.38
499.03	25261.40
499.20	24882.24
499.38	24996.92
499.56	25149.06
499.73	25228.63
499.91	25392.47
500.08	25373.75
500.26	25167.78
500.44	25067.14
500.61	25696.74
500.79	25177.14
500.97	25750.57
501.14	25982.29
501.32	25928.45
501.49	26181.23
501.67	25799.73
501.84	26251.45
502.02	26197.62
502.20	26218.68
502.37	26665.72
502.55	26448.05
502.72	26434.01
502.90	26941.91
503.07	26944.25
503.25	26621.25
503.43	26672.74
503.60	26927.86
503.78	26974.67
503.95	27103.40
504.13	27101.06
504.30	27470.87
504.48	27056.59
504.65	27569.17
504.83	27377.25
505.01	27922.59
505.18	27653.43
505.36	28009.19
505.53	28121.54
505.71	28606.03
505.88	28297.08
506.06	28039.62
506.23	28259.63
506.41	28486.66
506.58	28741.78
506.76	28533.47
506.93	28521.77
507.11	28706.67
507.28	28531.13
507.46	29034.35
507.63	28547.51
507.81	28968.81
507.98	28907.96
508.16	29120.95
508.33	29326.91
508.50	29174.78
508.68	29642.88
508.85	30127.38
509.03	30202.27
509.20	29378.40
509.38	29909.71
509.55	30066.52
509.73	30118.01
509.90	29970.56
510.08	29951.84
510.25	30483.14
510.42	29923.75
510.60	30373.13
510.77	30485.48
510.95	30984.01
511.12	30331.00
511.30	30637.61
511.47	30600.16
511.64	30749.96
511.82	31302.32
511.99	30719.53
512.17	30916.14
512.34	31012.10
512.51	31281.26
512.69	31466.16
512.86	31267.22
513.04	31779.79
513.21	31480.21
513.38	31632.34
513.56	31529.36
513.73	31402.97
513.90	31662.77
514.08	31702.56
514.25	31543.40
514.43	31943.63
514.60	31857.03
514.77	32037.25
514.95	32463.23
515.12	32655.15
515.29	32187.05
515.47	32606.00
515.64	32364.93
515.81	31850.01
515.99	32449.19
516.16	32500.68
516.33	32645.79
516.51	32484.30
516.68	32247.90
516.85	32666.86
517.03	32432.80
517.20	32830.69
517.37	33207.52
517.54	33134.96
517.72	32774.52
517.89	33057.73
518.06	32989.85
518.24	33172.41
518.41	33326.89
518.58	33111.56
518.75	33266.03
518.93	33923.72
519.10	33621.80
519.27	33916.70
519.45	33738.82
519.62	33897.98
519.79	33837.12
519.96	34061.82
520.14	34209.27
520.31	33780.95
520.48	34590.78
520.65	34162.46
520.83	34859.94
521.00	34457.37
521.17	34782.70
521.34	34857.60
521.52	34885.68
521.69	35049.52
521.86	34911.43
522.03	34656.31
522.20	34382.47
522.38	35232.08
522.55	35089.31
522.72	34944.20
522.89	34658.65
523.07	34937.18
523.24	35196.98
523.41	34981.65
523.58	35639.34
523.75	35880.41
523.92	35737.64
524.10	35814.88
524.27	35772.75
524.44	35749.34
524.61	36245.54
524.78	36184.68
524.96	36325.11
525.13	36233.83
525.30	36514.70
525.47	36746.41
525.64	36409.37
525.81	36161.28
525.98	36353.20
526.16	36521.72
526.33	36311.07
526.50	36355.54
526.67	36301.71
526.84	36863.44
527.01	36278.30
527.18	36591.94
527.36	36554.49
527.53	37067.06
527.70	36999.19
527.87	37055.36
528.04	37195.79
528.21	37078.77
528.38	36940.68
528.55	37572.62
528.72	37102.17
528.89	37404.10
529.07	37514.11
529.24	37249.63
529.41	37394.74
529.58	37525.81
529.75	37415.80
529.92	37738.80
530.09	37827.74
530.26	37666.24
530.43	38309.89
530.60	37787.95
530.77	37677.94
530.94	38291.16
531.11	38148.39
531.28	38780.34
531.46	38148.39
531.63	37926.04
531.80	38057.11
531.97	38527.56
532.14	38213.93
532.31	37757.52
532.48	38452.66
532.65	38703.10
532.82	38450.32
532.99	38293.50
533.16	38431.60
533.33	38904.38
533.50	38754.59
533.67	38986.30
533.84	38572.03
534.01	38859.91
534.18	38895.02
534.35	39077.58
534.52	38944.17
534.69	39342.06
534.86	39337.38
535.03	38871.62
535.20	39222.70
535.37	39421.64
535.54	40100.40
535.71	39388.88
535.88	39601.86
536.05	39189.93
536.22	39974.01
536.38	39152.48
536.55	39761.02
536.72	39423.98
536.89	39290.57
537.06	39480.16
537.23	39248.44
537.40	39475.48
537.57	39639.31
537.74	39725.91
537.91	40388.28
538.08	39868.69
538.25	39875.71
538.42	39569.10
538.59	40088.70
538.75	39945.92
538.92	40275.94
539.09	40371.90
539.26	39557.39
539.43	40584.89
539.60	40257.21
539.77	40055.93
539.94	40486.59
540.11	40465.52
540.28	39990.39
540.44	40098.06
540.61	40425.73
540.78	40140.19
540.95	40886.82
541.12	40385.94
541.29	40341.47
541.46	40706.60
541.62	40350.84
541.79	41219.17
541.96	40718.30
542.13	41228.54
542.30	40975.76
542.47	41118.53
542.63	41020.23
542.80	40786.18
542.97	41518.76
543.14	41703.67
543.31	41579.62
543.48	41354.93
543.64	41731.75
543.81	42024.32
543.98	41544.51
544.15	41509.40
544.32	41954.10
544.48	41965.81
544.65	41827.71
544.82	42230.29
544.99	41493.02
545.16	41792.61
545.32	41792.61
545.49	41846.44
545.66	42227.95
545.83	41757.50
546.00	42178.79
546.16	42052.41
546.33	42234.97
546.50	41617.07
546.67	42038.36
546.83	41776.22
547.00	41923.68
547.17	42260.71
547.34	41933.04
547.50	42583.71
547.67	42625.84
547.84	42232.63
548.00	42593.07
548.17	42183.48
548.34	42541.58
548.51	42880.95
548.67	42527.53
548.84	42454.98
549.01	42911.38
549.18	42728.82
549.34	42735.84
549.51	42738.18
549.68	43002.66
549.84	42918.40
550.01	43086.92
550.18	42630.52
550.34	42831.80
550.51	42983.94
550.68	42515.83
550.84	42405.83
551.01	43175.86
551.18	43203.95
551.34	43030.75
551.51	42887.98
551.68	42911.38
551.84	43203.95
552.01	42850.53
552.18	43222.67
552.34	42986.28
552.51	43346.72
552.68	43313.95
552.84	43440.34
553.01	43339.70
553.18	43496.52
553.34	43491.83
553.51	42607.11
553.67	43611.20
553.84	43407.58
554.01	43524.60
554.17	43672.06
554.34	43519.92
554.51	43894.41
554.67	44013.77
554.84	43751.63
555.00	43756.32
555.17	43613.54
555.33	43845.26
555.50	43810.15
555.67	43945.90
555.83	43618.22
556.00	44062.93
556.16	44381.24
556.33	44217.40
556.50	43885.04
556.66	44161.23
556.83	44067.61
556.99	44114.42
557.16	44320.38
557.32	43856.96
557.49	44360.17
557.65	43573.75
557.82	44341.45
557.98	44030.16
558.15	43817.17
558.32	44261.87
558.48	44076.97
558.65	43889.73
558.81	44704.23
558.98	44350.81
559.14	44027.82
559.31	44259.53
559.47	43959.94
559.64	44519.33
559.80	44453.79
559.97	44142.50
560.13	44128.46
560.30	43782.06
560.46	44477.20
560.63	44301.66
560.79	44903.18
560.96	44783.81
561.12	44753.38
561.29	44383.58
561.45	44594.23
561.61	44285.28
561.78	44486.56
561.94	44182.29
562.11	44406.98
562.27	44474.86
562.44	44659.76
562.60	44360.17
562.77	45008.50
562.93	44470.18
563.10	44676.15
563.26	44460.82
563.42	45205.11
563.59	44598.91
563.75	44418.69
563.92	45059.99
564.08	45031.91
564.24	44999.14
564.41	45099.78
564.57	45158.30
564.74	44385.92
564.90	45020.20
565.07	44638.70
565.23	44917.22
565.39	44610.61
565.56	45038.93
565.72	44643.38
565.88	44823.60
566.05	45010.84
566.21	45067.02
566.38	44858.71
566.54	44687.85
566.70	45219.15
566.87	45404.05
567.03	45221.49
567.19	45345.54
567.36	45427.46
567.52	45050.63
567.68	45151.27
567.85	44708.91
568.01	45221.49
568.17	45024.89
568.34	45244.90
568.50	45041.27
568.66	45177.02
568.83	45198.09
568.99	44935.95
569.15	44872.75
569.32	44949.99
569.48	45193.40
569.64	45558.53
569.81	45170.00
569.97	45043.61
570.13	45457.88
570.30	44460.82
570.46	44502.95
570.62	44957.01
570.78	44844.66
570.95	45008.50
571.11	45287.03
571.27	44767.43
571.43	45420.44
571.60	45251.92
571.76	45123.19
571.92	45102.12
572.09	44598.91
572.25	44957.01
572.41	45240.21
572.57	45453.20
572.74	45713.00
572.90	45567.89
573.06	45193.40
573.22	45312.77
573.38	45123.19
573.55	44767.43
573.71	45455.54
573.87	45390.01
574.03	45256.60
574.20	45219.15
574.36	45518.74
574.52	45717.68
574.68	45329.16
574.84	45195.74
575.01	45277.66
575.17	45275.32
575.33	45020.20
575.49	45104.46
575.65	45488.31
575.82	45600.66
575.98	45155.96
576.14	45715.34
576.30	44914.88
576.46	44957.01
576.62	45186.38
576.79	45254.26
576.95	45251.92
577.11	45254.26
577.27	45347.88
577.43	45343.20
577.59	45294.05
577.75	45382.99
577.92	45237.87
578.08	45027.23
578.24	45195.74
578.40	45132.55
578.56	45165.32
578.72	45677.90
578.88	45492.99
579.04	45698.96
579.21	45558.53
579.37	45324.47
579.53	45181.70
579.69	44989.78
579.85	45298.73
580.01	45202.77
580.17	45579.59
580.33	45317.45
580.49	45993.87
580.65	45595.98
580.82	45675.55
580.98	45422.78
581.14	45457.88
581.30	45544.48
581.46	45640.45
581.62	45411.07
581.78	45560.87
581.94	45888.54
582.10	45516.40
582.26	45727.05
582.42	45401.71
582.58	45551.51
582.74	45474.27
582.90	45532.78
583.06	45605.34
583.22	45392.35
583.38	45762.15
583.54	45633.42
583.70	45720.02
583.86	45804.28
584.02	45301.07
584.18	45574.91
584.34	45551.51
584.50	45879.18
584.66	45827.69
584.82	45329.16
584.98	45872.16
585.14	45628.74
585.30	45748.11
585.46	45624.06
585.62	45624.06
585.78	45455.54
585.94	44914.88
586.10	45502.35
586.26	45429.80
586.42	45308.09
586.58	45600.66
586.74	45579.59
586.90	45394.69
587.06	45401.71
587.22	45811.31
587.38	45287.03
587.54	46064.08
587.70	46138.98
587.86	45710.66
588.02	45759.81
588.18	45689.60
588.34	45621.72
588.49	45188.72
588.65	45118.51
588.81	44959.35
588.97	45228.51
589.13	45404.05
589.29	45455.54
589.45	45492.99
589.61	45736.41
589.77	46033.66
589.93	45521.08
590.08	45998.55
