SpectraSuite Data File
++++++++++++++++++++++++++++++++++++
Date: Fri Oct 25 10:48:23 EDT 2013
User: price-jones
Dark Spectrum Present: No
Reference Spectrum Present: No
Number of Sampled Component Spectra: 1
Spectrometers: USB2+H05261
Integration Time (usec): 100000 (USB2+H05261)
Spectra Averaged: 1 (USB2+H05261)
Boxcar Smoothing: 0 (USB2+H05261)
Correct for Electrical Dark: No (USB2+H05261)
Strobe/Lamp Enabled: No (USB2+H05261)
Correct for Detector Non-linearity: No (USB2+H05261)
Correct for Stray Light: No (USB2+H05261)
Number of Pixels in Processed Spectrum: 2048
>>>>>Begin Processed Spectral Data<<<<<
365.73	166.18
365.92	166.18
366.12	166.18
366.32	114.69
366.52	42.13
366.72	9.36
366.91	35.11
367.11	9.36
367.31	74.90
367.51	21.06
367.70	39.79
367.90	105.32
368.10	0.00
368.30	16.38
368.49	30.43
368.69	0.00
368.89	18.72
369.09	0.00
369.28	117.03
369.48	119.37
369.68	88.94
369.87	117.03
370.07	133.41
370.27	191.92
370.47	156.82
370.66	433.00
370.86	465.77
371.06	489.17
371.25	491.51
371.45	477.47
371.65	430.66
371.84	479.81
372.04	477.47
372.24	519.60
372.44	449.38
372.63	573.43
372.83	493.85
373.03	482.15
373.22	603.86
373.42	538.32
373.62	454.06
373.81	582.79
374.01	599.18
374.21	610.88
374.40	561.73
374.60	493.85
374.79	573.43
374.99	545.34
375.19	580.45
375.38	601.52
375.58	547.69
375.78	678.76
375.97	617.90
376.17	655.35
376.37	603.86
376.56	603.86
376.76	617.90
376.95	557.05
377.15	638.97
377.35	648.33
377.54	650.67
377.74	741.95
377.93	697.48
378.13	697.48
378.33	655.35
378.52	655.35
378.72	676.41
378.91	730.25
379.11	606.20
379.31	734.93
379.50	645.99
379.70	648.33
379.89	723.23
380.09	692.80
380.28	676.41
380.48	732.59
380.68	709.18
380.87	727.91
381.07	770.04
381.26	767.70
381.46	629.60
381.65	669.39
381.85	678.76
382.04	760.67
382.24	688.12
382.43	697.48
382.63	601.52
382.83	732.59
383.02	727.91
383.22	760.67
383.41	730.25
383.61	748.97
383.80	765.36
384.00	805.14
384.19	730.25
384.39	739.61
384.58	823.87
384.78	816.85
384.97	849.61
385.17	788.76
385.36	774.72
385.56	821.53
385.75	819.19
385.95	849.61
386.14	922.17
386.34	765.36
386.53	877.70
386.72	880.04
386.92	882.38
387.11	915.15
387.31	957.28
387.50	856.64
387.70	786.42
387.89	903.45
388.09	983.02
388.28	938.55
388.48	819.19
388.67	945.58
388.86	985.37
389.06	912.81
389.25	1025.15
389.45	987.71
389.64	891.74
389.84	924.51
390.03	992.39
390.22	1020.47
390.42	1027.50
390.61	1053.24
390.81	1004.09
391.00	1034.52
391.19	1078.99
391.39	1001.75
391.58	983.02
391.78	1053.24
391.97	980.68
392.16	1043.88
392.36	980.68
392.55	997.07
392.75	1036.86
392.94	1050.90
393.13	976.00
393.33	1034.52
393.52	1013.45
393.71	1064.94
393.91	1132.82
394.10	1093.03
394.29	1107.07
394.49	1238.14
394.68	1217.08
394.88	1198.35
395.07	1198.35
395.26	1224.10
395.46	1284.95
395.65	1273.25
395.84	1179.63
396.04	1275.59
396.23	1214.74
396.42	1177.29
396.62	1172.61
396.81	1193.67
397.00	1245.16
397.19	1291.98
397.39	1266.23
397.58	1441.77
397.77	1362.19
397.97	1437.09
398.16	1409.00
398.35	1404.32
398.55	1504.96
398.74	1526.03
398.93	1535.39
399.12	1444.11
399.32	1406.66
399.51	1516.67
399.70	1549.43
399.90	1551.78
400.09	1591.56
400.28	1598.59
400.47	1561.14
400.67	1582.20
400.86	1636.03
401.05	1685.19
401.24	1706.25
401.44	1624.33
401.63	1678.16
401.82	1720.29
402.01	1727.32
402.21	1776.47
402.40	1652.42
402.59	1767.10
402.78	1657.10
402.97	1748.38
403.17	1792.85
403.36	1891.15
403.55	1757.74
403.74	1797.53
403.93	1900.52
404.13	1905.20
404.32	1802.21
404.51	1898.17
404.70	1846.68
404.89	1811.57
405.09	1916.90
405.28	1860.73
405.47	1877.11
405.66	1898.17
405.85	1874.77
406.05	1937.96
406.24	1900.52
406.43	2057.33
406.62	2097.12
406.81	2111.16
407.00	2026.90
407.20	2012.86
407.39	2062.01
407.58	2155.63
407.77	2230.53
407.96	2251.60
408.15	2195.42
408.34	2148.61
408.54	2242.23
408.73	2218.83
408.92	2143.93
409.11	2258.62
409.30	2267.98
409.49	2125.21
409.68	2279.68
409.87	2209.47
410.07	2382.67
410.26	2366.28
410.45	2375.64
410.64	2368.62
410.83	2478.63
411.02	2464.58
411.21	2567.57
411.40	2506.71
411.59	2565.23
411.78	2497.35
411.98	2621.40
412.17	2682.25
412.36	2607.36
412.55	2656.51
412.74	2663.53
412.93	2693.96
413.12	2684.59
413.31	2773.53
413.50	2775.88
413.69	2825.03
413.88	2965.46
414.07	2881.20
414.26	2918.65
414.45	2855.45
414.64	2916.31
414.83	3007.59
415.02	2958.44
415.22	3009.93
415.41	3094.19
415.60	3155.04
415.79	3258.03
415.98	3213.56
416.17	3155.04
416.36	3194.83
416.55	3220.58
416.74	3272.07
416.93	3222.92
417.12	3267.39
417.31	3225.26
417.50	3215.90
417.69	3466.33
417.88	3510.80
418.07	3410.16
418.26	3328.24
418.45	3358.67
418.64	3604.42
418.83	3410.16
419.02	3396.12
419.21	3557.61
419.39	3475.70
419.58	3468.67
419.77	3426.54
419.96	3541.23
420.15	3719.11
420.34	3714.43
420.53	3634.85
420.72	3817.41
420.91	3644.21
421.10	3768.26
421.29	3770.60
421.48	3730.81
421.67	3801.03
421.86	3698.05
422.05	3735.50
422.24	3747.20
422.43	3719.11
422.61	3765.92
422.80	3801.03
422.99	3775.28
423.18	3878.27
423.37	3894.65
423.56	3896.99
423.75	3946.14
423.94	3824.44
424.13	3698.05
424.32	3719.11
424.50	3817.41
424.69	3941.46
424.88	3925.08
425.07	3861.88
425.26	3826.78
425.45	3791.67
425.64	3847.84
425.83	3927.42
426.01	3861.88
426.20	3953.16
426.39	3920.40
426.58	3962.53
426.77	3889.97
426.96	3990.61
427.15	3967.21
427.33	4086.58
427.52	4074.87
427.71	4060.83
427.90	4105.30
428.09	4065.51
428.28	4149.77
428.46	4023.38
428.65	4098.28
428.84	4053.81
429.03	4301.90
429.22	4070.19
429.40	4154.45
429.59	4102.96
429.78	4044.45
429.97	3794.01
430.16	3941.46
430.34	4117.00
430.53	4058.49
430.72	4147.43
430.91	4037.42
431.10	4283.18
431.28	4629.58
431.47	4617.88
431.66	4608.51
431.85	4435.32
432.03	4582.77
432.22	4706.82
432.41	4479.79
432.60	4634.26
432.79	4622.56
432.97	4702.14
433.16	4634.26
433.35	4547.66
433.54	4477.44
433.72	4580.43
433.91	4620.22
434.10	4596.81
434.28	4671.71
434.47	4610.86
434.66	4828.53
434.85	4910.44
435.03	4873.00
435.22	4917.47
435.41	4922.15
435.59	4884.70
435.78	4903.42
435.97	5046.20
436.16	5139.82
436.34	4957.25
436.53	5116.41
436.72	5366.85
436.90	5067.26
437.09	5069.60
437.28	5116.41
437.46	5210.03
437.65	5011.09
437.84	5114.07
438.02	5100.03
438.21	5093.01
438.40	5078.96
438.58	5270.89
438.77	5528.35
438.96	5350.46
439.14	5570.48
439.33	5385.57
439.52	5523.66
439.70	5645.37
439.89	5577.50
440.08	5565.79
440.26	5715.59
440.45	5671.12
440.63	5736.65
440.82	5802.19
441.01	5804.53
441.19	5816.23
441.38	6008.16
441.57	6076.03
441.75	6047.94
441.94	6099.44
442.12	6214.12
442.31	6200.08
442.50	6150.93
442.68	6148.59
442.87	6139.23
443.05	6260.93
443.24	6274.98
443.43	6221.14
443.61	6324.13
443.80	6635.42
443.98	6399.02
444.17	6122.84
444.35	6415.41
444.54	6530.09
444.73	6478.60
444.91	6352.21
445.10	6523.07
445.28	6511.37
445.47	6202.42
445.65	6473.92
445.84	6480.94
446.02	6647.12
446.21	6375.62
446.39	6338.17
446.58	6513.71
446.77	6633.08
446.95	6626.06
447.14	6679.89
447.32	6649.46
447.51	6502.01
447.69	6380.30
447.88	6518.39
448.06	6656.48
448.25	6656.48
448.43	6703.29
448.62	6593.29
448.80	6656.48
448.99	6607.33
449.17	6562.86
449.36	6757.13
449.54	6855.43
449.73	6860.11
449.91	7084.80
450.10	7014.59
450.28	7042.67
450.46	7080.12
450.65	7155.02
450.83	7075.44
451.02	7073.10
451.20	7269.70
451.39	7138.63
451.57	7117.57
451.76	7145.66
451.94	7148.00
452.13	7180.76
452.31	7066.08
452.49	7019.27
452.68	7208.85
452.86	7178.42
453.05	7276.73
453.23	7091.82
453.42	7176.08
453.60	7143.32
453.78	7300.13
453.97	7211.19
454.15	7286.09
454.34	7307.15
454.52	7435.88
454.70	7260.34
454.89	7335.24
455.07	7492.05
455.26	7531.84
455.44	7513.12
455.62	7786.96
455.81	7531.84
455.99	7606.74
456.17	7597.38
456.36	7590.36
456.54	7861.86
456.73	7894.63
456.91	7995.27
457.09	7861.86
457.28	8262.09
457.46	7815.05
457.64	8124.00
457.83	8182.51
458.01	7960.16
458.19	8163.79
458.38	8072.51
458.56	8011.65
458.74	8121.66
458.93	8159.11
459.11	8271.45
459.29	8044.42
459.48	8203.58
459.66	8196.56
459.84	8234.00
460.03	8425.93
460.21	8381.46
460.39	8348.69
460.57	8442.31
460.76	8381.46
460.94	8566.36
461.12	8304.22
461.31	8454.02
461.49	8542.96
461.67	8697.43
461.85	8844.88
462.04	8538.27
462.22	9137.45
462.40	8973.61
462.59	8748.92
462.77	8788.71
462.95	8751.26
463.13	8706.79
463.32	8805.10
463.50	8964.25
463.68	8854.25
463.86	9011.06
464.05	8683.39
464.23	8739.56
464.41	9025.11
464.59	8631.90
464.78	9263.84
464.96	8954.89
465.14	8781.69
465.32	9193.62
465.50	9125.75
465.69	9195.96
465.87	9043.83
466.05	9165.54
466.23	9231.07
466.41	9104.68
466.60	9277.88
466.78	9036.81
466.96	9224.05
467.14	9172.56
467.32	9151.49
467.51	9280.22
467.69	9149.15
467.87	9254.48
468.05	9320.01
468.23	9380.87
468.41	9235.75
468.60	9336.40
468.78	9528.32
468.96	9200.65
469.14	9518.96
469.32	9689.82
469.50	9312.99
469.69	9654.71
469.87	9703.86
470.05	9607.90
470.23	9668.75
470.41	9570.45
470.59	9806.84
470.77	9802.16
470.95	9713.22
471.14	10115.80
471.32	9951.96
471.50	10195.37
471.68	10265.59
471.86	10068.98
472.04	10174.31
472.22	10546.45
472.40	10204.74
472.58	10221.12
472.77	10228.14
472.95	10485.60
473.13	10649.44
473.31	10413.04
473.49	10509.01
473.67	10492.62
473.85	10595.61
474.03	10860.09
474.21	10785.19
474.39	10740.72
474.57	10815.62
474.75	10967.75
474.93	11112.86
475.12	11154.99
475.30	11424.15
475.48	11056.69
475.66	11044.99
475.84	11145.63
476.02	11201.80
476.20	11335.21
476.38	11475.65
476.56	11800.98
476.74	11604.38
476.92	11569.27
477.10	11843.11
477.28	11939.07
477.46	11836.09
477.64	12149.72
477.82	11925.03
478.00	12311.22
478.18	12257.39
478.36	12264.41
478.54	12428.24
478.72	12475.06
478.90	12699.75
479.08	12835.50
479.26	13116.36
479.44	13018.06
479.62	13043.81
479.80	13378.50
479.98	13280.20
480.16	13551.70
480.34	13186.58
480.52	13610.22
480.70	13820.86
480.88	13383.18
481.06	13642.98
481.24	13870.01
481.41	14026.83
481.59	13987.04
481.77	14085.34
481.95	14286.63
482.13	14494.94
482.31	14221.10
482.49	14883.47
482.67	14759.42
482.85	14782.82
483.03	14883.47
483.21	15208.80
483.39	15246.25
483.57	15117.52
483.74	15304.76
483.92	15272.00
484.10	15056.67
484.28	15639.46
484.46	15920.32
484.64	16140.33
484.82	15868.83
485.00	16049.05
485.18	16299.49
485.35	16109.91
485.53	16198.85
485.71	16294.81
485.89	16468.01
486.07	16257.36
486.25	16594.40
486.43	16814.41
486.61	16889.31
486.78	17118.68
486.96	17118.68
487.14	17523.59
487.32	17631.26
487.50	17961.27
487.68	17965.95
487.85	18277.24
488.03	18263.20
488.21	18431.72
488.39	18473.85
488.57	18295.97
488.75	18581.51
488.92	18878.76
489.10	19105.79
489.28	19307.08
489.46	19461.55
489.64	19714.33
489.81	20006.90
489.99	19988.18
490.17	19726.04
490.35	20262.02
490.53	20173.08
490.70	20070.09
490.88	20168.40
491.06	20713.74
491.24	20563.95
491.41	20549.90
491.59	20718.42
491.77	20699.70
491.95	20786.30
492.13	21151.42
492.30	21458.03
492.48	21458.03
492.66	21708.47
492.84	21376.11
493.01	21956.57
493.19	21930.82
493.37	21986.99
493.54	22232.75
493.72	22525.32
493.90	22745.33
494.08	22773.41
494.25	23108.11
494.43	23007.47
494.61	23255.56
494.79	23234.50
494.96	23264.92
495.14	23094.07
495.32	23658.14
495.49	23571.54
495.67	23894.53
495.85	23763.46
496.02	23971.77
496.20	24240.93
496.38	24313.48
496.55	24107.52
496.73	24744.14
496.91	24510.09
497.09	24704.35
497.26	24723.08
497.44	25003.94
497.62	25008.62
497.79	25336.30
497.97	24765.21
498.14	25479.07
498.32	25333.96
498.50	25425.24
498.67	25532.90
498.85	25675.68
499.03	26192.94
499.20	25968.24
499.38	26026.76
499.56	26050.16
499.73	26389.54
499.91	26064.21
500.08	26581.46
500.26	26387.20
500.44	26469.12
500.61	26841.26
500.79	26749.98
500.97	26944.25
501.14	27082.34
501.32	27016.80
501.49	27365.54
501.67	27194.68
501.84	27246.18
502.02	27445.12
502.20	27503.64
502.37	28348.57
502.55	27807.90
502.72	28046.64
502.90	27653.43
503.07	28056.00
503.25	28079.41
503.43	27948.34
503.60	28140.26
503.78	28393.04
503.95	28041.96
504.13	28184.73
504.30	28779.23
504.48	28240.90
504.65	28882.21
504.83	29132.65
505.01	29184.14
505.18	29081.16
505.36	29151.37
505.53	29214.57
505.71	29401.81
505.88	29469.69
506.06	29034.35
506.23	29642.88
506.41	29556.28
506.58	29645.23
506.76	29642.88
506.93	29750.55
507.11	29474.37
507.28	29961.20
507.46	29598.41
507.63	29895.66
507.81	29923.75
507.98	29879.28
508.16	30157.80
508.33	30492.50
508.50	30387.18
508.68	30644.63
508.85	31014.44
509.03	30824.86
509.20	30588.46
509.38	31349.14
509.55	30803.79
509.73	31241.47
509.90	31054.23
510.08	30904.43
510.25	31136.15
510.42	31412.33
510.60	31761.07
510.77	31632.34
510.95	31709.58
511.12	31559.78
511.30	32088.74
511.47	32191.73
511.64	31988.10
511.82	32369.61
511.99	31945.97
512.17	31929.59
512.34	32140.24
512.51	32484.30
512.69	32383.65
512.86	32617.71
513.04	32931.34
513.21	32753.46
513.38	32788.56
513.56	32348.54
513.73	32720.69
513.90	32748.78
514.08	32779.20
514.25	32797.93
514.43	32879.85
514.60	33441.57
514.77	33013.26
514.95	33905.00
515.12	33268.37
515.29	33577.33
515.47	33977.56
515.64	33921.38
515.81	33617.11
515.99	33450.94
516.16	33535.20
516.33	33378.38
516.51	33366.68
516.68	33612.43
516.85	33177.09
517.03	33502.43
517.20	34082.88
517.37	33773.93
517.54	34326.30
517.72	34068.84
517.89	34146.08
518.06	34087.56
518.24	34373.11
518.41	33853.51
518.58	34302.89
518.75	34464.39
518.93	34642.27
519.10	34897.39
519.27	35103.35
519.45	35105.70
519.62	35058.88
519.79	35267.19
519.96	35763.39
520.14	35697.85
520.31	35325.71
520.48	35833.60
520.65	35580.82
520.83	35943.61
521.00	35583.16
521.17	35655.72
521.34	35512.95
521.52	36425.76
521.69	35990.42
521.86	36362.56
522.03	35903.82
522.20	36034.89
522.38	36369.58
522.55	36542.78
522.72	36449.16
522.89	36177.66
523.07	36671.51
523.24	36470.23
523.41	36648.11
523.58	36912.59
523.75	37181.75
523.92	37214.52
524.10	36755.77
524.27	37315.16
524.44	36863.44
524.61	37277.71
524.78	37277.71
524.96	37457.93
525.13	37675.60
525.30	37729.44
525.47	38050.09
525.64	37317.50
525.81	37586.66
525.98	37284.73
526.16	37268.35
526.33	37200.47
526.50	37825.40
526.67	37282.39
526.84	37406.44
527.01	37560.92
527.18	37759.86
527.36	37668.58
527.53	38124.99
527.70	38801.40
527.87	38749.91
528.04	38352.02
528.21	38426.92
528.38	38494.79
528.55	38965.24
528.72	39145.46
528.89	39093.97
529.07	38405.85
529.24	38728.84
529.41	38857.57
529.58	38778.00
529.75	38691.40
529.92	38810.76
530.09	39110.35
530.26	39140.78
530.43	39180.57
530.60	38703.10
530.77	39154.82
530.94	39428.66
531.11	39573.78
531.28	39414.62
531.46	39108.01
531.63	39807.83
531.80	39573.78
531.97	39388.88
532.14	39386.54
532.31	39353.77
532.48	39250.78
532.65	39917.84
532.82	39636.97
532.99	39777.40
533.16	39915.50
533.33	39751.66
533.50	39878.05
533.67	40388.28
533.84	40086.36
534.01	40088.70
534.18	40034.86
534.35	40603.61
534.52	40135.51
534.69	40514.67
534.86	40517.01
535.03	40320.41
535.20	40432.75
535.37	40800.22
535.54	40877.46
535.71	40493.61
535.88	40961.72
536.05	40385.94
536.22	40964.06
536.38	40807.24
536.55	41013.21
536.72	40692.55
536.89	40179.98
537.06	40879.80
537.23	40854.05
537.40	40959.38
537.57	41092.79
537.74	41301.09
537.91	41165.34
538.08	41371.31
538.25	41404.08
538.42	40973.42
538.59	41776.22
538.75	40783.83
538.92	41343.22
539.09	41415.78
539.26	41827.71
539.43	41764.52
539.60	41071.72
539.77	41024.91
539.94	41371.31
540.11	41354.93
540.28	41221.52
540.44	41689.62
540.61	41727.07
540.78	41221.52
540.95	41790.27
541.12	41624.09
541.29	41553.87
541.46	41687.28
541.62	42356.67
541.79	41949.42
541.96	41827.71
542.13	41516.42
542.30	42183.48
542.47	42384.76
542.63	42494.77
542.80	42239.65
542.97	42735.84
543.14	42459.66
543.31	42309.86
543.48	42567.32
543.64	43243.74
543.81	42794.36
543.98	43016.71
544.15	42883.30
544.32	42644.56
544.48	43028.41
544.65	43026.07
544.82	43494.18
544.99	42784.99
545.16	43292.89
545.32	43395.87
545.49	43473.11
545.66	43311.61
545.83	43026.07
546.00	43845.26
546.16	43349.06
546.33	42770.95
546.50	42965.21
546.67	43206.29
546.83	42581.37
547.00	43470.77
547.17	43372.47
547.34	43466.09
547.50	43012.02
547.67	43718.87
547.84	43337.36
548.00	43700.14
548.17	43826.53
548.34	43405.23
548.51	43709.50
548.67	44058.24
548.84	44135.48
549.01	43842.92
549.18	43761.00
549.34	44009.09
549.51	43777.38
549.68	44374.22
549.84	43859.30
550.01	43833.55
550.18	43894.41
550.34	44030.16
550.51	44091.01
550.68	44074.63
550.84	43482.47
551.01	44196.34
551.18	44488.90
551.34	44247.83
551.51	44388.26
551.68	44292.30
551.84	44477.20
552.01	44390.60
552.18	44137.82
552.34	44151.87
552.51	44254.85
552.68	44182.29
552.84	44467.84
553.01	44877.43
553.18	44435.07
553.34	44591.89
553.51	44584.86
553.67	44357.83
553.84	44961.69
554.01	45170.00
554.17	44851.69
554.34	44910.20
554.51	44744.02
554.67	45151.27
554.84	44769.77
555.00	44781.47
555.17	44732.32
555.33	45308.09
555.50	44739.34
555.67	45244.90
555.83	44989.78
556.00	44872.75
556.16	45378.31
556.33	44786.15
556.50	44449.11
556.66	44907.86
556.83	44762.75
556.99	45368.94
557.16	45375.97
557.32	45106.80
557.49	45207.45
557.65	44800.19
557.82	44751.04
557.98	45097.44
558.15	45340.86
558.32	45050.63
558.48	45132.55
558.65	45008.50
558.81	45233.19
558.98	44985.10
559.14	45207.45
559.31	45340.86
559.47	45109.14
559.64	45631.08
559.80	45485.97
559.97	45462.57
560.13	45368.94
560.30	45188.72
560.46	45766.84
560.63	45581.93
560.79	45778.54
560.96	45684.92
561.12	45352.56
561.29	45532.78
561.45	45331.50
561.61	45275.32
561.78	45698.96
561.94	45628.74
562.11	45481.29
562.27	45595.98
562.44	45567.89
562.60	46017.27
562.77	45886.20
562.93	46021.95
563.10	45975.14
563.26	44910.20
563.42	45666.19
563.59	45872.16
563.75	45705.98
563.92	46045.36
564.08	45635.77
564.24	46326.22
564.41	46092.17
564.57	46019.61
564.74	45727.05
564.90	45909.61
565.07	45935.35
565.23	46038.34
565.39	45825.35
565.56	45614.70
565.72	45617.04
565.88	45546.82
566.05	45619.38
566.21	45865.14
566.38	45998.55
566.54	45827.69
566.70	46164.73
566.87	46595.38
567.03	46178.77
567.19	46698.37
567.36	46251.33
567.52	45879.18
567.68	46354.31
567.85	46007.91
568.01	46110.89
568.17	45745.77
568.34	46036.00
568.50	46265.37
568.66	46057.06
568.83	46153.02
568.99	45713.00
569.15	46326.22
569.32	46040.68
569.48	45734.07
569.64	46630.49
569.81	46204.52
569.97	46202.18
570.13	46211.54
570.30	45736.41
570.46	45935.35
570.62	45727.05
570.78	46176.43
570.95	46005.57
571.11	46326.22
571.27	46164.73
571.43	46050.04
571.60	46410.48
571.76	46150.68
571.92	45942.38
572.09	45998.55
572.25	46457.29
572.41	46260.69
572.57	45977.48
572.74	46607.09
572.90	46164.73
573.06	46424.53
573.22	46501.76
573.38	46373.03
573.55	45893.22
573.71	46422.19
573.87	45497.67
574.03	45837.05
574.20	46422.19
574.36	46328.56
574.52	46614.11
574.68	46349.63
574.84	46405.80
575.01	46206.86
575.17	46274.73
575.33	45979.82
575.49	46534.53
575.65	46756.88
575.82	46368.35
575.98	46408.14
576.14	46398.78
576.30	46600.07
576.46	46333.24
576.62	46377.72
576.79	45979.82
576.95	45801.94
577.11	46171.75
577.27	46438.57
577.43	46473.68
577.59	46085.15
577.75	46197.49
577.92	46017.27
578.08	45874.50
578.24	46391.76
578.40	46527.51
578.56	46307.50
578.72	46195.15
578.88	46506.44
579.04	46588.36
579.21	45989.19
579.37	46209.20
579.53	46375.37
579.69	46361.33
579.85	46162.39
580.01	46506.44
580.17	46735.82
580.33	46571.98
580.49	46784.97
580.65	46548.57
580.82	46635.17
580.98	46630.49
581.14	46373.03
581.30	46667.94
581.46	46316.86
581.62	46220.90
581.78	46405.80
581.94	46777.95
582.10	46454.95
582.26	46452.61
582.42	46546.23
582.58	46997.96
582.74	46508.79
582.90	46747.52
583.06	46611.77
583.22	46710.07
583.38	46733.48
583.54	46733.48
583.70	46241.96
583.86	46742.84
584.02	46674.96
584.18	46958.17
584.34	46543.89
584.50	46611.77
584.66	46380.06
584.82	46583.68
584.98	46546.23
585.14	46724.11
585.30	46506.44
585.46	46618.79
585.62	46263.03
585.78	46181.11
585.94	46162.39
586.10	46628.15
586.26	46176.43
586.42	46436.23
586.58	46700.71
586.74	46183.45
586.90	46410.48
587.06	46583.68
587.22	46583.68
587.38	46628.15
587.54	46518.15
587.70	46644.54
587.86	46564.96
588.02	46869.23
588.18	46424.53
588.34	46700.71
588.49	46377.72
588.65	46124.94
588.81	46319.20
588.97	46272.39
589.13	46085.15
589.29	46092.17
589.45	46494.74
589.61	46656.24
589.77	46817.74
589.93	46394.10
