SpectraSuite Data File
++++++++++++++++++++++++++++++++++++
Date: Fri Oct 25 11:25:28 EDT 2013
User: price-jones
Dark Spectrum Present: No
Reference Spectrum Present: No
Number of Sampled Component Spectra: 1
Spectrometers: USB2+H05261
Integration Time (usec): 100000 (USB2+H05261)
Spectra Averaged: 1 (USB2+H05261)
Boxcar Smoothing: 0 (USB2+H05261)
Correct for Electrical Dark: No (USB2+H05261)
Strobe/Lamp Enabled: No (USB2+H05261)
Correct for Detector Non-linearity: No (USB2+H05261)
Correct for Stray Light: No (USB2+H05261)
Number of Pixels in Processed Spectrum: 2048
>>>>>Begin Processed Spectral Data<<<<<
365.73	194.26
365.92	194.26
366.12	194.26
366.32	149.79
366.52	100.64
366.72	156.82
366.91	102.98
367.11	147.45
367.31	63.19
367.51	98.30
367.70	117.03
367.90	210.65
368.10	138.09
368.30	119.37
368.49	133.41
368.69	156.82
368.89	163.84
369.09	154.48
369.28	184.90
369.48	210.65
369.68	173.20
369.87	217.67
370.07	245.76
370.27	264.48
370.47	334.70
370.66	538.32
370.86	594.50
371.06	702.16
371.25	678.76
371.45	610.88
371.65	725.57
371.84	657.69
372.04	697.48
372.24	758.33
372.44	751.31
372.63	732.59
372.83	713.86
373.03	697.48
373.22	758.33
373.42	786.42
373.62	793.44
373.81	816.85
374.01	814.51
374.21	819.19
374.40	786.42
374.60	837.91
374.79	849.61
374.99	842.59
375.19	866.00
375.38	765.36
375.58	835.57
375.78	835.57
375.97	795.78
376.17	926.85
376.37	833.23
376.56	884.72
376.76	833.23
376.95	854.30
377.15	926.85
377.35	959.62
377.54	926.85
377.74	823.87
377.93	919.83
378.13	819.19
378.33	924.51
378.52	994.73
378.72	919.83
378.91	971.32
379.11	915.15
379.31	940.90
379.50	896.43
379.70	952.60
379.89	1050.90
380.09	1018.13
380.28	1001.75
380.48	1001.75
380.68	971.32
380.87	983.02
381.07	1032.18
381.26	1069.62
381.46	1078.99
381.65	1041.54
381.85	968.98
382.04	1050.90
382.24	924.51
382.43	1025.15
382.63	983.02
382.83	1025.15
383.02	1055.58
383.22	1060.26
383.41	1043.88
383.61	1027.50
383.80	1090.69
384.00	1078.99
384.19	1109.41
384.39	1114.10
384.58	1158.57
384.78	1179.63
384.97	1097.71
385.17	1200.69
385.36	1153.88
385.56	1158.57
385.75	1149.20
385.95	1125.80
386.14	1270.91
386.34	1226.44
386.53	1217.08
386.72	1238.14
386.92	1146.86
387.11	1296.66
387.31	1296.66
387.50	1245.16
387.70	1238.14
387.89	1282.61
388.09	1334.11
388.28	1238.14
388.48	1254.53
388.67	1308.36
388.86	1270.91
389.06	1282.61
389.25	1357.51
389.45	1212.40
389.64	1320.06
389.84	1308.36
390.03	1350.49
390.22	1362.19
390.42	1432.41
390.61	1387.94
390.81	1399.64
391.00	1432.41
391.19	1444.11
391.39	1411.34
391.58	1509.65
391.78	1406.66
391.97	1497.94
392.16	1448.79
392.36	1544.75
392.55	1584.54
392.75	1603.27
392.94	1596.25
393.13	1462.83
393.33	1610.29
393.52	1476.88
393.71	1509.65
393.91	1582.20
394.10	1593.90
394.29	1614.97
394.49	1614.97
394.68	1610.29
394.88	1624.33
395.07	1710.93
395.26	1645.40
395.46	1614.97
395.65	1750.72
395.84	1811.57
396.04	1802.21
396.23	1626.67
396.42	1757.74
396.62	1806.89
396.81	1732.00
397.00	1739.02
397.19	1795.19
397.39	1741.36
397.58	1825.62
397.77	1741.36
397.97	1907.54
398.16	1813.92
398.35	1797.53
398.55	1813.92
398.74	1898.17
398.93	1952.01
399.12	1994.14
399.32	1905.20
399.51	1942.64
399.70	2010.52
399.90	1982.43
400.09	1898.17
400.28	2097.12
400.47	1959.03
400.67	2057.33
400.86	2111.16
401.05	1987.11
401.24	2047.97
401.44	2132.23
401.63	2054.99
401.82	2125.21
402.01	2038.61
402.21	2094.78
402.40	2136.91
402.59	2202.44
402.78	2211.81
402.97	2284.36
403.17	2321.81
403.36	2272.66
403.55	2256.28
403.74	2326.49
403.93	2328.83
404.13	2356.92
404.32	2380.32
404.51	2296.07
404.70	2352.24
404.89	2422.45
405.09	2513.74
405.28	2403.73
405.47	2523.10
405.66	2499.69
405.85	2602.68
406.05	2630.76
406.24	2483.31
406.43	2457.56
406.62	2579.27
406.81	2588.63
407.00	2555.86
407.20	2595.65
407.39	2616.72
407.58	2637.78
407.77	2710.34
407.96	2726.72
408.15	2832.05
408.34	2647.15
408.54	2656.51
408.73	2892.90
408.92	2796.94
409.11	2848.43
409.30	2855.45
409.49	2813.32
409.68	2932.69
409.87	2986.52
410.07	2939.71
410.26	3045.04
410.45	2998.23
410.64	2970.14
410.83	3089.51
411.02	3157.38
411.21	3253.34
411.40	3110.57
411.59	3213.56
411.78	3258.03
411.98	3213.56
412.17	3211.22
412.36	3197.17
412.55	3269.73
412.74	3290.79
412.93	3361.01
413.12	3295.47
413.31	3431.23
413.50	3461.65
413.69	3606.77
413.88	3609.11
414.07	3548.25
414.26	3620.81
414.45	3726.13
414.64	3632.51
414.83	3744.86
415.02	3691.02
415.22	3672.30
415.41	3815.07
415.60	3999.98
415.79	3880.61
415.98	3929.76
416.17	3953.16
416.36	3850.18
416.55	3822.09
416.74	4002.32
416.93	3992.95
417.12	4271.48
417.31	4215.30
417.50	4149.77
417.69	4329.99
417.88	4252.75
418.07	4180.20
418.26	4301.90
418.45	4198.92
418.64	4320.63
418.83	4257.43
419.02	4208.28
419.21	4493.83
419.39	4472.76
419.58	4489.15
419.77	4409.57
419.96	4432.97
420.15	4624.90
420.34	4638.94
420.53	4379.14
420.72	4648.30
420.91	4678.73
421.10	4648.30
421.29	4833.21
421.48	4606.17
421.67	4748.95
421.86	4652.98
422.05	4739.58
422.24	4793.42
422.43	4896.40
422.61	4840.23
422.80	4938.53
422.99	4940.87
423.18	4774.69
423.37	4922.15
423.56	4933.85
423.75	4870.65
423.94	4882.36
424.13	4475.10
424.32	4608.51
424.50	4940.87
424.69	5085.98
424.88	4835.55
425.07	4985.34
425.26	4842.57
425.45	4978.32
425.64	5025.13
425.83	4908.10
426.01	4877.68
426.20	5095.35
426.39	5160.88
426.58	4947.89
426.77	5130.45
426.96	4990.02
427.15	5172.58
427.33	5100.03
427.52	5076.62
427.71	5156.20
427.90	5135.14
428.09	5219.39
428.28	5355.15
428.46	5357.49
428.65	5210.03
428.84	5289.61
429.03	5460.47
429.22	5502.60
429.40	5467.49
429.59	5392.59
429.78	5359.83
429.97	5322.38
430.16	5383.23
430.34	5774.10
430.53	5607.92
430.72	5593.88
430.91	5605.58
431.10	5788.14
431.28	5806.87
431.47	5771.76
431.66	5834.96
431.85	5767.08
432.03	5860.70
432.22	5963.68
432.41	5853.68
432.60	5893.47
432.79	6019.86
432.97	5884.11
433.16	5944.96
433.35	5818.57
433.54	6017.52
433.72	5984.75
433.91	6033.90
434.10	6174.33
434.28	6083.05
434.47	6176.67
434.66	6167.31
434.85	6359.24
435.03	6239.87
435.22	6139.23
435.41	6389.66
435.59	6282.00
435.78	6392.00
435.97	6457.54
436.16	6328.81
436.34	6424.77
436.53	6497.33
436.72	6567.54
436.90	6532.44
437.09	6654.14
437.28	6452.86
437.46	6471.58
437.65	6523.07
437.84	6761.81
438.02	6719.68
438.21	6768.83
438.40	6644.78
438.58	6967.77
438.77	6986.50
438.96	6782.87
439.14	7037.99
439.33	6960.75
439.52	6995.86
439.70	7236.94
439.89	7400.77
440.08	7162.04
440.26	7279.07
440.45	7218.21
440.63	7431.20
440.82	7478.01
441.01	7452.27
441.19	7379.71
441.38	7716.75
441.57	7693.34
441.75	7857.18
441.94	7901.65
442.12	7838.45
442.31	8023.36
442.50	8091.23
442.68	7822.07
442.87	8013.99
443.05	8074.85
443.24	8128.68
443.43	8107.62
443.61	8182.51
443.80	8318.26
443.98	7974.21
444.17	7709.72
444.35	8088.89
444.54	8252.73
444.73	8407.20
444.91	8105.28
445.10	8205.92
445.28	8049.10
445.47	8177.83
445.65	8219.96
445.84	8376.78
446.02	8454.02
446.21	8381.46
446.39	8257.41
446.58	8344.01
446.77	8301.88
446.95	7981.23
447.14	8397.84
447.32	8512.53
447.51	8624.87
447.69	8231.66
447.88	8390.82
448.06	8451.67
448.25	8542.96
448.43	8641.26
448.62	8339.33
448.80	8461.04
448.99	8678.71
449.17	8711.47
449.36	8800.41
449.54	8734.88
449.73	8847.22
449.91	9074.26
450.10	8767.65
450.28	8823.82
450.46	8973.61
450.65	8973.61
450.83	8959.57
451.02	8877.65
451.20	9123.41
451.39	9078.94
451.57	9142.13
451.76	8887.01
451.94	9018.08
452.13	9284.91
452.31	9034.47
452.49	9275.54
452.68	9397.25
452.86	9383.21
453.05	9451.08
453.23	9378.53
453.42	9343.42
453.60	9305.97
453.78	9565.77
453.97	9371.50
454.15	9186.60
454.34	9427.68
454.52	9474.49
454.70	9699.18
454.89	9603.22
455.07	9825.57
455.26	9659.39
455.44	9973.02
455.62	9860.68
455.81	9884.08
455.99	9825.57
456.17	9928.55
456.36	9942.60
456.54	9968.34
456.73	10195.37
456.91	10452.83
457.09	10228.14
457.28	10427.09
457.46	10150.90
457.64	10490.28
457.83	10356.87
458.01	10230.48
458.19	10614.33
458.38	10576.88
458.56	10644.76
458.74	10677.52
458.93	10211.76
459.11	10675.18
459.29	10579.22
459.48	10705.61
459.66	10658.80
459.84	10623.69
460.03	10965.41
460.21	10958.39
460.39	10939.66
460.57	10745.40
460.76	11056.69
460.94	11197.12
461.12	11227.55
461.31	11164.36
461.49	11054.35
461.67	10970.09
461.85	11297.77
462.04	11108.18
462.22	11866.52
462.40	11627.78
462.59	11433.52
462.77	11396.07
462.95	11583.31
463.13	11377.34
463.32	11412.45
463.50	11651.19
463.68	11592.67
463.86	11939.07
464.05	11672.25
464.23	11667.57
464.41	11705.02
464.59	11314.15
464.78	11974.18
464.96	11908.65
465.14	11707.36
465.32	11815.02
465.50	12037.38
465.69	12013.97
465.87	12011.63
466.05	11967.16
466.23	12063.12
466.41	11969.50
466.60	12549.95
466.78	12161.42
466.96	12077.16
467.14	12133.34
467.32	12325.26
467.51	12257.39
467.69	12020.99
467.87	12369.73
468.05	12505.48
468.23	12505.48
468.41	12212.92
468.60	12697.41
468.78	12608.47
468.96	12353.35
469.14	12695.07
469.32	12940.82
469.50	12596.76
469.69	12992.31
469.87	13001.68
470.05	13277.86
470.23	13270.84
470.41	13027.42
470.59	13282.54
470.77	12936.14
470.95	13039.12
471.14	13399.57
471.32	13067.21
471.50	13642.98
471.68	13434.68
471.86	13776.39
472.04	13659.37
472.22	13965.98
472.40	13881.72
472.58	13762.35
472.77	14029.17
472.95	13996.40
473.13	14214.07
473.31	13912.14
473.49	14139.18
473.67	13998.74
473.85	14136.84
474.03	14462.17
474.21	14274.93
474.39	14583.88
474.57	14618.99
474.75	14609.62
474.93	15026.24
475.12	14635.37
475.30	14998.15
475.48	15061.35
475.66	15087.09
475.84	14960.70
476.02	15339.87
476.20	15082.41
476.38	15424.13
476.56	15871.17
476.74	15683.93
476.92	15922.66
477.10	15772.87
477.28	15728.40
477.46	15955.43
477.64	16182.46
477.82	16290.13
478.00	16872.92
478.18	16844.84
478.36	16973.56
478.54	17165.49
478.72	16816.75
478.90	17247.41
479.08	17399.54
479.26	17378.48
479.44	17568.06
479.62	17731.90
479.80	18113.41
479.98	18010.42
480.16	18321.71
480.34	18305.33
480.52	18780.46
480.70	18480.87
480.88	18270.22
481.06	18527.68
481.24	18738.33
481.41	18988.77
481.59	19185.37
481.77	19524.75
481.95	19538.79
482.13	19501.34
482.31	19253.25
482.49	19892.21
482.67	19922.64
482.85	20526.50
483.03	20460.96
483.21	20278.40
483.39	20746.51
483.57	20802.68
483.74	20950.14
483.92	21331.64
484.10	21081.21
484.28	21497.82
484.46	21830.18
484.64	22132.11
484.82	21504.84
485.00	22167.21
485.18	22595.53
485.35	23005.13
485.53	22513.61
485.71	22654.05
485.89	23290.67
486.07	23033.21
486.25	22871.72
486.43	23433.44
486.61	23704.95
486.78	23941.34
486.96	23814.95
487.14	24372.00
487.32	24170.71
487.50	24858.83
487.68	24732.44
487.85	25247.36
488.03	25549.29
488.21	25385.45
488.39	25422.90
488.57	25673.34
488.75	25759.94
488.92	26314.64
489.10	26316.98
489.28	26553.38
489.46	27077.66
489.64	26771.05
489.81	27421.72
489.99	27344.48
490.17	27550.45
490.35	28051.32
490.53	27908.55
490.70	28144.94
490.88	27934.29
491.06	28608.37
491.24	28336.87
491.41	29102.22
491.59	29076.48
491.77	28545.17
491.95	29277.76
492.13	29343.30
492.30	29734.17
492.48	29577.35
492.66	29809.06
492.84	30197.59
493.01	30361.43
493.19	30813.15
493.37	30773.36
493.54	31246.15
493.72	31548.08
493.90	31049.55
494.08	31894.48
494.25	31697.88
494.43	31747.03
494.61	32170.66
494.79	32290.03
494.96	32355.57
495.14	32641.11
495.32	32893.89
495.49	33010.92
495.67	33298.80
495.85	33205.18
496.02	33303.48
496.20	33844.15
496.38	33633.50
496.55	33787.97
496.73	34785.04
496.91	34125.01
497.09	34387.15
497.26	34995.69
497.44	34490.13
497.62	35033.14
497.79	35751.68
497.97	35122.08
498.14	35625.29
498.32	35952.97
498.50	35662.74
498.67	36503.00
498.85	36156.60
499.03	36250.22
499.20	36205.75
499.38	36378.95
499.56	36631.72
499.73	36804.92
499.91	36959.40
500.08	37291.76
500.26	37097.49
500.44	37474.32
500.61	37574.96
500.79	37553.90
500.97	37565.60
501.14	38246.69
501.32	38590.75
501.49	38169.46
501.67	38447.98
501.84	38326.27
502.02	38663.31
502.20	39012.05
502.37	39033.11
502.55	38859.91
502.72	39555.05
502.90	39122.05
503.07	39328.02
503.25	38990.98
503.43	39407.60
503.60	39943.58
503.78	39763.36
503.95	40107.42
504.13	40184.66
504.30	40074.65
504.48	40121.46
504.65	40486.59
504.83	40898.52
505.01	41067.04
505.18	40975.76
505.36	40947.67
505.53	40957.03
505.71	41467.27
505.88	41340.88
506.06	41078.74
506.23	41532.81
506.41	41371.31
506.58	42113.26
506.76	41762.18
506.93	42377.74
507.11	41823.03
507.28	42607.11
507.46	42412.85
507.63	42801.38
507.81	42394.12
507.98	42934.79
508.16	42824.78
508.33	43117.35
508.50	43049.47
508.68	43225.01
508.85	43817.17
509.03	43702.48
509.20	43959.94
509.38	43849.94
509.55	44360.17
509.73	43868.66
509.90	44451.45
510.08	44296.98
510.25	44285.28
510.42	44425.71
510.60	44395.28
510.77	44664.44
510.95	45062.33
511.12	44975.73
511.30	44942.97
511.47	45567.89
511.64	44856.37
511.82	45258.94
511.99	45024.89
512.17	45509.38
512.34	45361.92
512.51	45773.86
512.69	45895.56
512.86	45741.09
513.04	46403.46
513.21	46059.40
513.38	46443.25
513.56	46478.36
513.73	46618.79
513.90	46850.50
514.08	46574.32
514.25	46981.57
514.43	46866.89
514.60	47334.99
514.77	46724.11
514.95	47730.54
515.12	46911.36
515.29	47065.83
515.47	47547.98
515.64	48240.78
515.81	47159.45
515.99	47955.24
516.16	48311.00
516.33	48100.35
516.51	48325.04
516.68	48130.78
516.85	48418.66
517.03	48432.71
517.20	48231.42
517.37	48521.65
517.54	48193.97
517.72	48367.17
517.89	48854.00
518.06	48968.69
518.24	48842.30
518.41	49272.96
518.58	49184.02
518.75	49088.06
518.93	49439.14
519.10	49081.03
519.27	49642.76
519.45	49284.66
519.62	49930.65
519.79	49694.25
519.96	49294.02
520.14	49935.33
520.31	49682.55
520.48	50209.17
520.65	49942.35
520.83	50522.80
521.00	50515.78
521.17	50518.12
521.34	50501.74
521.52	50323.86
521.69	50761.54
521.86	50960.48
522.03	50726.43
522.20	50906.65
522.38	51253.05
522.55	51349.01
522.72	51292.84
522.89	51372.42
523.07	51519.87
523.24	51079.85
523.41	51274.12
523.58	51185.18
523.75	51358.38
523.92	51351.35
524.10	51973.94
524.27	51934.15
524.44	51742.22
524.61	51690.73
524.78	51629.88
524.96	51955.21
525.13	51978.62
525.30	52088.62
525.47	52076.92
525.64	52320.34
525.81	52554.39
525.98	52554.39
526.16	52025.43
526.33	52250.12
526.50	53031.86
526.67	52432.68
526.84	52484.17
527.01	52648.01
527.18	52547.37
527.36	52739.29
527.53	52708.86
527.70	52959.30
527.87	53207.40
528.04	53038.88
528.21	53282.30
528.38	52921.85
528.55	53256.55
528.72	52975.69
528.89	52940.58
529.07	53364.21
529.24	53406.34
529.41	53602.95
529.58	53544.44
529.75	53389.96
529.92	53425.07
530.09	53776.15
530.26	53492.94
530.43	53682.53
530.60	53649.76
530.77	53502.31
530.94	53996.16
531.11	53780.83
531.28	53897.86
531.46	53918.92
531.63	54099.14
531.80	53909.56
531.97	54092.12
532.14	54270.00
532.31	54143.61
532.48	54349.58
532.65	54845.77
532.82	54440.86
532.99	54511.08
533.16	54328.52
533.33	54644.49
533.50	54564.91
533.67	54511.08
533.84	54513.42
534.01	54546.18
534.18	54747.47
534.35	55068.12
534.52	54972.16
534.69	55004.93
534.86	55152.38
535.03	54574.27
535.20	54791.94
535.37	55117.28
535.54	55166.43
535.71	55061.10
535.88	55082.17
536.05	55346.65
536.22	55091.53
536.38	55255.37
536.55	55407.50
536.72	55238.98
536.89	55058.76
537.06	55538.57
537.23	55524.53
537.40	55473.04
537.57	55487.08
537.74	55538.57
537.91	55927.10
538.08	55803.05
538.25	55421.55
538.42	55714.11
538.59	55959.87
538.75	55683.69
538.92	55934.12
539.09	56184.56
539.26	55955.19
539.43	55985.61
539.60	56130.73
539.77	56044.13
539.94	56233.71
540.11	56018.38
540.28	56142.43
540.44	56065.19
540.61	56399.89
540.78	56289.88
540.95	56210.31
541.12	56296.91
541.29	56226.69
541.46	56329.67
541.62	56521.60
541.79	56439.68
541.96	56062.85
542.13	56488.83
542.30	56624.58
542.47	56680.75
542.63	56762.67
542.80	56725.22
542.97	57080.98
543.14	56947.57
543.31	57069.28
543.48	56865.66
543.64	57406.32
543.81	57181.63
543.98	57078.64
544.15	57146.52
544.32	57235.46
544.48	57492.92
544.65	57139.50
544.82	57205.03
544.99	56933.53
545.16	57298.65
545.32	57331.42
545.49	57504.62
545.66	57565.48
545.83	57408.66
546.00	57602.92
546.16	57560.79
546.33	57354.83
546.50	57310.36
546.67	57518.67
546.83	57495.26
547.00	57565.48
547.17	57546.75
547.34	57663.78
547.50	57696.55
547.67	57968.05
547.84	57895.49
548.00	58141.25
548.17	58019.54
548.34	57851.02
548.51	58293.38
548.67	57799.53
548.84	57904.85
549.01	58059.33
549.18	58007.84
549.34	58049.97
549.51	58553.18
549.68	58131.89
549.84	58307.43
550.01	58183.38
550.18	58284.02
550.34	58326.15
550.51	58227.85
550.68	58494.67
550.84	58080.39
551.01	58412.75
551.18	58335.51
551.34	58379.98
551.51	58335.51
551.68	58482.97
551.84	58361.26
552.01	58284.02
552.18	58354.24
552.34	58454.88
552.51	58548.50
552.68	58300.40
552.84	58504.03
553.01	58887.88
553.18	58487.65
553.34	58569.57
553.51	58394.03
553.67	58702.98
553.84	58637.44
554.01	58791.92
554.17	58735.74
554.34	59018.95
554.51	58852.77
554.67	58862.13
554.84	59028.31
555.00	58798.94
555.17	58728.72
555.33	58822.34
555.50	58761.49
555.67	58827.02
555.83	58726.38
556.00	58927.67
556.16	59150.02
556.33	59105.55
556.50	59016.61
556.66	59157.04
556.83	58918.31
556.99	59330.24
557.16	59040.01
557.32	59393.43
557.49	59405.14
557.65	59035.33
557.82	59135.98
557.98	59215.55
558.15	59311.52
558.32	59269.39
558.48	59140.66
558.65	59201.51
558.81	59337.26
558.98	59330.24
559.14	59334.92
559.31	59519.82
559.47	59405.14
559.64	59484.72
559.80	59625.15
559.97	59440.24
560.13	59423.86
560.30	59611.10
560.46	59313.86
560.63	59728.13
560.79	59313.86
560.96	59732.81
561.12	59468.33
561.29	59634.51
561.45	59526.84
561.61	59760.90
561.78	59510.46
561.94	59711.75
562.11	59700.04
562.27	59657.91
562.44	59721.11
562.60	59826.43
562.77	59632.17
562.93	59641.53
563.10	59880.27
563.26	59725.79
563.42	59985.59
563.59	59980.91
563.75	59906.01
563.92	60081.55
564.08	59880.27
564.24	59992.61
564.41	59983.25
564.57	59868.56
564.74	60016.02
564.90	59763.24
565.07	60041.76
565.23	60044.10
565.39	59835.80
565.56	60081.55
565.72	59929.42
565.88	59952.82
566.05	59896.65
566.21	59835.80
566.38	60088.57
566.54	59957.50
566.70	60034.74
566.87	60198.58
567.03	60020.70
567.19	60381.14
567.36	60046.44
567.52	60156.45
567.68	60399.86
567.85	60196.24
568.01	60341.35
568.17	60226.66
568.34	60116.66
568.50	59952.82
568.66	60221.98
568.83	60224.32
568.99	60074.53
569.15	60156.45
569.32	60261.77
569.48	60205.60
569.64	60378.80
569.81	60301.56
569.97	60037.08
570.13	60268.79
570.30	59943.46
570.46	60505.19
570.62	60367.10
570.78	60280.50
570.95	60261.77
571.11	60423.27
571.27	60360.08
571.43	60250.07
571.60	60399.86
571.76	60186.88
571.92	60488.80
572.09	60439.65
572.25	60458.38
572.41	60177.51
572.57	60369.44
572.74	60638.60
572.90	60441.99
573.06	60573.06
573.22	60390.50
573.38	60479.44
573.55	60310.92
573.71	60528.59
573.87	60505.19
574.03	60402.21
574.20	60598.81
574.36	60310.92
574.52	60650.30
574.68	60622.22
574.84	60755.63
575.01	60472.42
575.17	60516.89
575.33	60432.63
575.49	60556.68
575.65	60331.99
575.82	60617.53
575.98	60757.97
576.14	60818.82
576.30	60589.45
576.46	60556.68
576.62	60505.19
576.79	60708.82
576.95	60479.44
577.11	60484.12
577.27	60802.44
577.43	60523.91
577.59	60491.15
577.75	60573.06
577.92	60467.74
578.08	60872.65
578.24	60743.92
578.40	60811.80
578.56	60626.90
578.72	60662.00
578.88	60816.48
579.04	60961.59
579.21	60650.30
579.37	60797.76
579.53	60769.67
579.69	60189.22
579.85	60573.06
580.01	60645.62
580.17	60554.34
580.33	60802.44
580.49	60818.82
580.65	60629.24
580.82	60694.77
580.98	60699.45
581.14	60486.46
581.30	60999.04
581.46	60519.23
581.62	60694.77
581.78	60889.04
581.94	60793.07
582.10	60549.66
582.26	60647.96
582.42	60687.75
582.58	60664.35
582.74	60828.18
582.90	60704.13
583.06	60713.50
583.22	60645.62
583.38	60708.82
583.54	60708.82
583.70	60706.47
583.86	60919.46
584.02	60793.07
584.18	60956.91
584.34	60720.52
584.50	60821.16
584.66	60662.00
584.82	60662.00
584.98	61109.05
585.14	60706.47
585.30	60867.97
585.46	60956.91
585.62	60671.37
585.78	61085.64
585.94	60643.28
586.10	60690.09
586.26	60809.46
586.42	60795.42
586.58	60952.23
586.74	60879.67
586.90	60692.43
587.06	60690.09
587.22	60968.61
587.38	60781.37
587.54	60985.00
587.70	61024.79
587.86	60919.46
588.02	60839.89
588.18	61141.81
588.34	60963.93
588.49	60961.59
