SpectraSuite Data File
++++++++++++++++++++++++++++++++++++
Date: Fri Oct 25 11:23:41 EDT 2013
User: price-jones
Dark Spectrum Present: No
Reference Spectrum Present: No
Number of Sampled Component Spectra: 1
Spectrometers: USB2+H05261
Integration Time (usec): 100000 (USB2+H05261)
Spectra Averaged: 1 (USB2+H05261)
Boxcar Smoothing: 0 (USB2+H05261)
Correct for Electrical Dark: No (USB2+H05261)
Strobe/Lamp Enabled: No (USB2+H05261)
Correct for Detector Non-linearity: No (USB2+H05261)
Correct for Stray Light: No (USB2+H05261)
Number of Pixels in Processed Spectrum: 2048
>>>>>Begin Processed Spectral Data<<<<<
365.73	220.01
365.92	220.01
366.12	220.01
366.32	152.13
366.52	100.64
366.72	126.39
366.91	128.73
367.11	70.22
367.31	114.69
367.51	135.75
367.70	191.92
367.90	156.82
368.10	149.79
368.30	142.77
368.49	60.85
368.69	245.76
368.89	173.20
369.09	166.18
369.28	175.54
369.48	138.09
369.68	177.88
369.87	170.86
370.07	262.14
370.27	234.05
370.47	301.93
370.66	606.20
370.86	592.16
371.06	636.63
371.25	641.31
371.45	645.99
371.65	664.71
371.84	718.54
372.04	631.94
372.24	793.44
372.44	688.12
372.63	727.91
372.83	699.82
373.03	751.31
373.22	699.82
373.42	781.74
373.62	788.76
373.81	793.44
374.01	784.08
374.21	758.33
374.40	770.04
374.60	905.79
374.79	734.93
374.99	833.23
375.19	793.44
375.38	837.91
375.58	842.59
375.78	884.72
375.97	821.53
376.17	940.90
376.37	837.91
376.56	844.93
376.76	873.02
376.95	823.87
377.15	882.38
377.35	891.74
377.54	950.26
377.74	931.53
377.93	908.13
378.13	849.61
378.33	966.64
378.52	976.00
378.72	980.68
378.91	903.45
379.11	877.70
379.31	877.70
379.50	931.53
379.70	950.26
379.89	959.62
380.09	994.73
380.28	1006.43
380.48	985.37
380.68	1008.77
380.87	1011.11
381.07	1006.43
381.26	1057.92
381.46	945.58
381.65	1142.18
381.85	1118.78
382.04	959.62
382.24	1057.92
382.43	1102.39
382.63	1027.50
382.83	1062.60
383.02	1107.07
383.22	1158.57
383.41	1135.16
383.61	1165.59
383.80	1184.31
384.00	1116.44
384.19	1137.50
384.39	1172.61
384.58	1090.69
384.78	1029.84
384.97	1170.27
385.17	1214.74
385.36	1165.59
385.56	1130.48
385.75	1118.78
385.95	1217.08
386.14	1256.87
386.34	1235.80
386.53	1174.95
386.72	1146.86
386.92	1320.06
387.11	1221.76
387.31	1245.16
387.50	1179.63
387.70	1245.16
387.89	1329.42
388.09	1334.11
388.28	1261.55
388.48	1266.23
388.67	1327.08
388.86	1261.55
389.06	1266.23
389.25	1418.36
389.45	1364.53
389.64	1296.66
389.84	1404.32
390.03	1371.55
390.22	1444.11
390.42	1348.15
390.61	1423.05
390.81	1493.26
391.00	1409.00
391.19	1378.58
391.39	1362.19
391.58	1483.90
391.78	1378.58
391.97	1504.96
392.16	1448.79
392.36	1607.95
392.55	1481.56
392.75	1530.71
392.94	1504.96
393.13	1533.05
393.33	1579.86
393.52	1547.09
393.71	1633.69
393.91	1645.40
394.10	1561.14
394.29	1570.50
394.49	1586.88
394.68	1692.21
394.88	1633.69
395.07	1603.27
395.26	1753.06
395.46	1746.04
395.65	1638.38
395.84	1666.46
396.04	1853.70
396.23	1806.89
396.42	1860.73
396.62	1703.91
396.81	1680.50
397.00	1795.19
397.19	1724.97
397.39	1886.47
397.58	1851.36
397.77	1853.70
397.97	1820.94
398.16	1806.89
398.35	1926.26
398.55	1898.17
398.74	1928.60
398.93	1998.82
399.12	1916.90
399.32	1806.89
399.51	1928.60
399.70	2029.24
399.90	2008.18
400.09	2066.69
400.28	2010.52
400.47	2069.03
400.67	2111.16
400.86	2038.61
401.05	2162.66
401.24	2059.67
401.44	2157.97
401.63	2120.53
401.82	2052.65
402.01	2111.16
402.21	2183.72
402.40	2150.95
402.59	2249.25
402.78	2235.21
402.97	2235.21
403.17	2200.10
403.36	2338.20
403.55	2319.47
403.74	2462.24
403.93	2331.17
404.13	2385.01
404.32	2417.77
404.51	2429.48
404.70	2473.95
404.89	2396.71
405.09	2553.52
405.28	2410.75
405.47	2382.67
405.66	2466.92
405.85	2483.31
406.05	2480.97
406.24	2492.67
406.43	2534.80
406.62	2626.08
406.81	2691.62
407.00	2555.86
407.20	2548.84
407.39	2677.57
407.58	2722.04
407.77	2806.30
407.96	2794.60
408.15	2733.75
408.34	2757.15
408.54	2796.94
408.73	2768.85
408.92	2867.16
409.11	2773.53
409.30	2949.08
409.49	2956.10
409.68	3005.25
409.87	2794.60
410.07	2904.60
410.26	2965.46
410.45	2963.12
410.64	2953.76
410.83	3094.19
411.02	2956.10
411.21	3220.58
411.40	3197.17
411.59	3307.18
411.78	3218.24
411.98	3098.87
412.17	3178.45
412.36	3344.63
412.55	3410.16
412.74	3328.24
412.93	3384.41
413.12	3304.84
413.31	3613.79
413.50	3520.17
413.69	3499.10
413.88	3588.04
414.07	3613.79
414.26	3693.37
414.45	3653.58
414.64	3627.83
414.83	3728.47
415.02	3765.92
415.22	3840.82
415.41	3817.41
415.60	3829.12
415.79	3840.82
415.98	3960.19
416.17	3908.69
416.36	3978.91
416.55	4023.38
416.74	4049.13
416.93	4049.13
417.12	4126.36
417.31	4135.73
417.50	4264.46
417.69	4397.87
417.88	4278.50
418.07	4255.09
418.26	4290.20
418.45	4252.75
418.64	4472.76
418.83	4493.83
419.02	4337.01
419.21	4507.87
419.39	4454.04
419.58	4503.19
419.77	4531.28
419.96	4566.39
420.15	4667.03
420.34	4524.26
420.53	4610.86
420.72	4746.61
420.91	4645.96
421.10	4861.29
421.29	4842.57
421.48	4617.88
421.67	4760.65
421.86	4760.65
422.05	4798.10
422.24	4772.35
422.43	4880.02
422.61	4891.72
422.80	4819.16
422.99	4865.97
423.18	4947.89
423.37	5032.15
423.56	4971.30
423.75	4910.44
423.94	4910.44
424.13	4641.28
424.32	4755.97
424.50	4987.68
424.69	5118.75
424.88	5067.26
425.07	4968.96
425.26	5057.90
425.45	5146.84
425.64	5146.84
425.83	4975.98
426.01	5050.88
426.20	4999.38
426.39	4990.02
426.58	4978.32
426.77	5055.56
426.96	5121.09
427.15	5116.41
427.33	5252.16
427.52	5303.65
427.71	5313.02
427.90	5210.03
428.09	5287.27
428.28	5432.38
428.46	5329.40
428.65	5448.77
428.84	5404.30
429.03	5446.43
429.22	5268.55
429.40	5385.57
429.59	5598.56
429.78	5275.57
429.97	5411.32
430.16	5497.92
430.34	5633.67
430.53	5713.25
430.72	5575.16
430.91	5664.10
431.10	5628.99
431.28	5809.21
431.47	5694.52
431.66	5820.91
431.85	5696.86
432.03	5884.11
432.22	5954.32
432.41	5963.68
432.60	5870.06
432.79	5891.13
432.97	5996.45
433.16	6085.39
433.35	5973.05
433.54	6113.48
433.72	6256.25
433.91	6167.31
434.10	6066.67
434.28	6083.05
434.47	6279.66
434.66	6338.17
434.85	6359.24
435.03	6188.38
435.22	6181.35
435.41	6520.73
435.59	6455.20
435.78	6520.73
435.97	6487.96
436.16	6356.90
436.34	6544.14
436.53	6408.39
436.72	6567.54
436.90	6595.63
437.09	6679.89
437.28	6649.46
437.46	6539.46
437.65	6626.06
437.84	6869.47
438.02	6637.76
438.21	6752.45
438.40	6567.54
438.58	7075.44
438.77	7115.23
438.96	6988.84
439.14	7201.83
439.33	7297.79
439.52	7166.72
439.70	7314.17
439.89	7435.88
440.08	7269.70
440.26	7494.40
440.45	7445.24
440.63	7583.34
440.82	7667.60
441.01	7609.08
441.19	7702.70
441.38	7793.98
441.57	7899.31
441.75	7974.21
441.94	7929.74
442.12	7957.82
442.31	8021.02
442.50	7845.48
442.68	7985.91
442.87	8114.64
443.05	8088.89
443.24	8346.35
443.43	8222.30
443.61	8306.56
443.80	8463.38
443.98	8196.56
444.17	7976.55
444.35	8297.20
444.54	8367.42
444.73	8442.31
444.91	8341.67
445.10	8250.39
445.28	8454.02
445.47	8304.22
445.65	8322.94
445.84	8383.80
446.02	8273.79
446.21	8425.93
446.39	8561.68
446.58	8472.74
446.77	8617.85
446.95	8290.18
447.14	8395.50
447.32	8479.76
447.51	8451.67
447.69	8528.91
447.88	8613.17
448.06	8524.23
448.25	8461.04
448.43	8645.94
448.62	8713.81
448.80	8659.98
448.99	8751.26
449.17	8730.20
449.36	8463.38
449.54	9027.45
449.73	9062.55
449.91	9062.55
450.10	8994.68
450.28	9036.81
450.46	9217.03
450.65	9224.05
450.83	9151.49
451.02	9041.49
451.20	9174.90
451.39	9001.70
451.57	9191.28
451.76	9029.79
451.94	9191.28
452.13	9430.02
452.31	9320.01
452.49	9165.54
452.68	9308.31
452.86	9593.86
453.05	9294.27
453.23	9336.40
453.42	9364.48
453.60	9191.28
453.78	9708.54
453.97	9434.70
454.15	9551.73
454.34	9575.13
454.52	9673.43
454.70	9825.57
454.89	9685.14
455.07	9762.37
455.26	9872.38
455.44	9961.32
455.62	10061.96
455.81	10015.15
455.99	10190.69
456.17	10347.51
456.36	10246.87
456.54	10197.71
456.73	10225.80
456.91	10700.93
457.09	10464.54
457.28	10619.01
457.46	10256.23
457.64	10506.66
457.83	10462.19
458.01	10579.22
458.19	11049.67
458.38	10637.73
458.56	10656.46
458.74	10677.52
458.93	10813.28
459.11	10967.75
459.29	10803.91
459.48	10787.53
459.66	10740.72
459.84	10991.16
460.03	10979.45
460.21	11140.95
460.39	11059.03
460.57	11073.07
460.76	11412.45
460.94	11206.48
461.12	11255.64
461.31	11021.58
461.49	11173.72
461.67	11220.53
461.85	11501.39
462.04	11276.70
462.22	11800.98
462.40	11665.23
462.59	11688.64
462.77	11712.04
462.95	11803.32
463.13	11707.36
463.32	11719.06
463.50	11676.93
463.68	11882.90
463.86	11887.58
464.05	11779.92
464.23	11627.78
464.41	11854.81
464.59	11761.19
464.78	12074.82
464.96	12051.42
465.14	11676.93
465.32	12231.64
465.50	12032.69
465.69	12135.68
465.87	12163.76
466.05	12292.49
466.23	12271.43
466.41	12456.33
466.60	12552.29
466.78	12411.86
466.96	12292.49
467.14	12432.93
467.32	12648.26
467.51	12617.83
467.69	12095.89
467.87	12147.38
468.05	12664.64
468.23	12334.62
468.41	12578.04
468.60	12802.73
468.78	12683.36
468.96	12533.57
469.14	12798.05
469.32	13001.68
469.50	12678.68
469.69	12938.48
469.87	13146.79
470.05	13298.92
470.23	13048.49
470.41	13312.97
470.59	13366.80
470.77	13280.20
470.95	13088.28
471.14	13549.36
471.32	13315.31
471.50	13561.06
471.68	13944.91
471.86	13781.07
472.04	13898.10
472.22	13956.61
472.40	13848.95
472.58	13879.38
472.77	14040.87
472.95	14094.71
473.13	14874.10
473.31	14300.67
473.49	14361.53
473.67	14197.69
473.85	14382.59
474.03	14597.92
474.21	14530.05
474.39	14806.23
474.57	14824.95
474.75	14883.47
474.93	14970.07
475.12	15370.30
475.30	15098.80
475.48	15173.69
475.66	15510.73
475.84	15208.80
476.02	15356.25
476.20	15559.88
476.38	15754.15
476.56	16058.42
476.74	16049.05
476.92	15845.43
477.10	15953.09
477.28	16283.11
477.46	16407.16
477.64	16641.21
477.82	16767.60
478.00	17156.13
478.18	16706.74
478.36	16802.71
478.54	17284.86
478.72	17174.85
478.90	17509.55
479.08	17483.80
479.26	17809.14
479.44	17645.30
479.62	18085.32
479.80	18242.14
479.98	18094.68
480.16	18654.07
480.34	18267.88
480.52	18670.45
480.70	18658.75
480.88	18438.74
481.06	18941.96
481.24	18850.67
481.41	19197.07
481.59	19552.84
481.77	19894.55
481.95	19871.15
482.13	19908.60
482.31	20175.42
482.49	20767.57
482.67	20243.29
482.85	20556.93
483.03	20624.80
483.21	21041.42
483.39	20975.88
483.57	21006.31
483.74	21305.90
483.92	21109.29
484.10	21139.72
484.28	21598.46
484.46	22120.40
484.64	22485.53
484.82	21942.52
485.00	22497.23
485.18	22527.66
485.35	23222.80
485.53	22689.15
485.71	23161.94
485.89	23658.14
486.07	23562.17
486.25	23522.38
486.43	23847.72
486.61	23988.15
486.78	24095.82
486.96	24238.59
487.14	24884.58
487.32	24613.07
487.50	24903.30
487.68	24950.11
487.85	25488.43
488.03	25689.72
488.21	26181.23
488.39	25848.88
488.57	26644.66
488.75	26174.21
488.92	26410.60
489.10	27197.02
489.28	26822.54
489.46	26941.91
489.64	27391.29
489.81	27744.71
489.99	27779.82
490.17	27819.61
490.35	28201.11
490.53	28582.62
490.70	28727.74
490.88	28226.86
491.06	28828.38
491.24	28989.88
491.41	29216.91
491.59	29446.28
491.77	29528.20
491.95	29549.26
492.13	30143.76
492.30	30146.10
492.48	30022.05
492.66	30195.25
492.84	30415.26
493.01	30698.47
493.19	30883.37
493.37	31409.99
493.54	31239.13
493.72	31688.51
493.90	31522.34
494.08	31859.37
494.25	32205.77
494.43	32137.90
494.61	32648.13
494.79	33017.94
494.96	32725.37
495.14	32807.29
495.32	33663.93
495.49	33340.93
495.67	33745.84
495.85	33579.67
496.02	33869.89
496.20	34036.07
496.38	34176.50
496.55	34368.43
496.73	35360.81
496.91	34642.27
497.09	34815.47
497.26	34705.46
497.44	35201.66
497.62	35077.61
497.79	36081.70
497.97	35599.55
498.14	35931.90
498.32	36507.68
498.50	36540.44
498.67	36950.04
498.85	36896.20
499.03	36638.75
499.20	36760.45
499.38	36999.19
499.56	36973.44
499.73	37268.35
499.91	37350.27
500.08	37457.93
500.26	37642.84
500.44	37968.17
500.61	37830.08
500.79	38005.62
500.97	38431.60
501.14	38679.69
501.32	38698.42
501.49	39051.84
501.67	38927.79
501.84	39276.53
502.02	38925.45
502.20	39304.62
502.37	39943.58
502.55	39538.67
502.72	39775.06
502.90	39854.64
503.07	39723.57
503.25	39852.30
503.43	39625.27
503.60	40161.25
503.78	40437.44
503.95	40383.60
504.13	40627.02
504.30	40802.56
504.48	40371.90
504.65	40919.59
504.83	41275.35
505.01	41504.72
505.18	41689.62
505.36	41865.16
505.53	41345.56
505.71	41596.00
505.88	42089.85
506.06	41610.04
506.23	41968.15
506.41	42234.97
506.58	42529.87
506.76	42541.58
506.93	42513.49
507.11	42997.98
507.28	42628.18
507.46	43098.62
507.63	43033.09
507.81	43356.08
507.98	42808.40
508.16	43620.56
508.33	43936.54
508.50	43674.40
508.68	43580.78
508.85	44114.42
509.03	44093.35
509.20	44500.61
509.38	44156.55
509.55	44629.34
509.73	44353.15
509.90	44699.55
510.08	44959.35
510.25	44713.59
510.42	44966.37
510.60	45322.13
510.77	45343.20
510.95	45673.21
511.12	45640.45
511.30	45366.60
511.47	45794.92
511.64	45656.83
511.82	46124.94
511.99	45879.18
512.17	46244.30
512.34	45839.39
512.51	46366.01
512.69	46761.56
512.86	46064.08
513.04	46897.31
513.21	46801.35
513.38	46871.57
513.56	47065.83
513.73	46417.50
513.90	46932.42
514.08	46880.93
514.25	47395.85
514.43	47770.33
514.60	47512.88
514.77	47770.33
514.95	47997.37
515.12	47744.59
515.29	47819.49
515.47	48179.93
515.64	48004.39
515.81	47789.06
515.99	48442.07
516.16	48477.18
516.33	48519.31
516.51	48781.45
516.68	48659.74
516.85	49001.46
517.03	49116.14
517.20	49226.15
517.37	48861.02
517.54	49504.67
517.72	48989.75
517.89	49308.07
518.06	49268.28
518.24	49453.18
518.41	49104.44
518.58	49563.18
518.75	49153.59
518.93	49787.88
519.10	49640.42
519.27	49923.63
519.45	50050.02
519.62	50169.38
519.79	50225.56
519.96	50255.98
520.14	50248.96
520.31	50553.23
520.48	50546.21
520.65	50480.67
520.83	50644.51
521.00	51096.24
521.17	50852.82
521.34	51033.04
521.52	51068.15
521.69	50911.33
521.86	51246.03
522.03	50941.76
522.20	51423.91
522.38	51508.17
522.55	51302.20
522.72	51557.32
522.89	51643.92
523.07	51824.14
523.24	51657.96
523.41	52137.77
523.58	51992.66
523.75	52362.46
523.92	52065.22
524.10	51995.00
524.27	51976.28
524.44	52116.71
524.61	52116.71
524.78	52413.96
524.96	52486.51
525.13	52273.52
525.30	52603.54
525.47	52655.03
525.64	52978.03
525.81	53066.97
525.98	52587.16
526.16	52556.73
526.33	52877.38
526.50	53109.10
526.67	52772.06
526.84	53223.78
527.01	52971.00
527.18	53038.88
527.36	52956.96
527.53	53062.29
527.70	53448.47
527.87	53518.69
528.04	53308.04
528.21	53572.52
528.38	53317.40
528.55	53799.55
528.72	53347.83
528.89	53670.82
529.07	53303.36
529.24	53778.49
529.41	53804.24
529.58	53722.32
529.75	53703.59
529.92	53881.47
530.09	54260.64
530.26	54096.80
530.43	54033.61
530.60	53986.80
530.77	54000.84
530.94	54471.29
531.11	54305.11
531.28	54438.52
531.46	54239.57
531.63	54532.14
531.80	54426.82
531.97	54506.40
532.14	54466.61
532.31	54487.67
532.48	54951.10
532.65	54686.62
532.82	54569.59
532.99	54733.43
533.16	54593.00
533.33	55096.21
533.50	55018.97
533.67	54829.39
533.84	54600.02
534.01	54866.84
534.18	55178.13
534.35	55309.20
534.52	55260.05
534.69	55348.99
534.86	55458.99
535.03	55112.59
535.20	55283.45
535.37	55484.74
535.54	55405.16
535.71	55344.31
535.88	55231.96
536.05	55702.41
536.22	55606.45
536.38	55576.02
536.55	55653.26
536.72	55849.86
536.89	55686.03
537.06	55833.48
537.23	55884.97
537.40	55664.96
537.57	56002.00
537.74	55868.59
537.91	55980.93
538.08	55915.40
538.25	55791.35
538.42	56116.68
538.59	56114.34
538.75	56177.54
538.92	55994.98
539.09	56369.46
539.26	56341.38
539.43	56231.37
539.60	56605.86
539.77	56479.47
539.94	56537.98
540.11	56547.34
540.28	56514.58
540.44	56793.10
540.61	56596.49
540.78	56535.64
540.95	56725.22
541.12	56446.70
541.29	56683.09
541.46	56748.63
541.62	56797.78
541.79	56800.12
541.96	56296.91
542.13	56549.68
542.30	56748.63
542.47	56952.26
542.63	56980.34
542.80	57303.34
542.97	57263.55
543.14	57265.89
543.31	57144.18
543.48	57387.60
543.64	57535.05
543.81	57364.19
543.98	57333.76
544.15	57455.47
544.32	57656.76
544.48	57799.53
544.65	57462.49
544.82	57659.10
544.99	57247.16
545.16	57352.49
545.32	57406.32
545.49	57572.50
545.66	57949.32
545.83	57724.63
546.00	57633.35
546.16	57846.34
546.33	57502.28
546.50	57687.18
546.67	57801.87
546.83	57684.84
547.00	57883.79
547.17	57895.49
547.34	57879.11
547.50	58019.54
547.67	58166.99
547.84	58014.86
548.00	58286.36
548.17	58190.40
548.34	57991.45
548.51	58347.21
548.67	58401.05
548.84	58309.77
549.01	58049.97
549.18	58302.74
549.34	58305.09
549.51	58319.13
549.68	58291.04
549.84	58506.37
550.01	58464.24
550.18	58295.72
550.34	58890.22
550.51	58595.31
550.68	58607.01
550.84	58073.37
551.01	58857.45
551.18	58710.00
551.34	58724.04
551.51	58717.02
551.68	58621.06
551.84	58728.72
552.01	58410.41
552.18	58852.77
552.34	58731.06
552.51	58770.85
552.68	58787.24
552.84	58770.85
553.01	59079.80
553.18	58962.78
553.34	58953.41
553.51	59004.91
553.67	58941.71
553.84	59295.13
554.01	58876.18
554.17	59201.51
554.34	59199.17
554.51	58965.12
554.67	59178.10
554.84	59037.67
555.00	59096.19
555.17	59093.85
555.33	59229.60
555.50	59035.33
555.67	59128.95
555.83	59035.33
556.00	59227.26
556.16	59578.34
556.33	59440.24
556.50	59374.71
556.66	59363.01
556.83	59213.21
556.99	59468.33
557.16	59695.36
557.32	59657.91
557.49	59650.89
557.65	59498.76
557.82	59442.59
557.98	59604.08
558.15	59323.22
558.32	59793.67
558.48	59576.00
558.65	59625.15
558.81	59496.42
558.98	59590.04
559.14	59819.41
559.31	59587.70
559.47	59746.86
559.64	59875.58
559.80	59922.40
559.97	59615.79
560.13	59592.38
560.30	59908.35
560.46	59838.14
560.63	59856.86
560.79	59936.44
560.96	60055.81
561.12	60027.72
561.29	59929.42
561.45	59903.67
561.61	59896.65
561.78	59814.73
561.94	59828.77
562.11	59784.30
562.27	60133.04
562.44	60020.70
562.60	60144.75
562.77	60257.09
562.93	59992.61
563.10	59955.16
563.26	59980.91
563.42	60151.77
563.59	60011.34
563.75	60088.57
563.92	60126.02
564.08	60109.64
564.24	60158.79
564.41	60128.36
564.57	60324.97
564.74	60353.05
564.90	60212.62
565.07	60224.32
565.23	60175.17
565.39	60285.18
565.56	60315.61
565.72	60154.11
565.88	60296.88
566.05	60229.01
566.21	60226.66
566.38	60355.39
566.54	60341.35
566.70	60420.93
566.87	60582.43
567.03	60027.72
567.19	60690.09
567.36	60289.86
567.52	60376.46
567.68	60296.88
567.85	60425.61
568.01	60575.40
568.17	60589.45
568.34	60434.97
568.50	60343.69
568.66	60495.83
568.83	60500.51
568.99	60341.35
569.15	60465.40
569.32	60575.40
569.48	60434.97
569.64	60708.82
569.81	60446.68
569.97	60355.39
570.13	60423.27
570.30	60346.03
570.46	60474.76
570.62	60692.43
570.78	60554.34
570.95	60598.81
571.11	60750.94
571.27	60605.83
571.43	60491.15
571.60	60879.67
571.76	60566.04
571.92	60694.77
572.09	60683.07
572.25	60680.73
572.41	60807.12
572.57	60657.32
572.74	61083.30
572.90	60706.47
573.06	60736.90
573.22	60636.26
573.38	60715.84
573.55	60573.06
573.71	60968.61
573.87	60823.50
574.03	60636.26
574.20	60669.03
574.36	60706.47
574.52	60652.64
574.68	60844.57
574.84	60879.67
575.01	60963.93
575.17	60757.97
575.33	60718.18
575.49	60839.89
575.65	60863.29
575.82	60947.55
575.98	60837.54
576.14	61034.15
576.30	60975.64
576.46	60849.25
576.62	60982.66
576.79	60940.53
576.95	60573.06
577.11	60867.97
577.27	60898.40
577.43	60889.04
577.59	60846.91
577.75	60865.63
577.92	60968.61
578.08	60874.99
578.24	60933.51
578.40	61083.30
578.56	60921.80
578.72	60882.02
578.88	61062.24
579.04	61169.90
579.21	61085.64
579.37	60931.17
579.53	61041.17
579.69	60830.52
579.85	60999.04
580.01	60992.02
580.17	60781.37
580.33	60891.38
580.49	61022.45
580.65	61097.34
580.82	60966.27
580.98	60961.59
581.14	60926.49
581.30	61127.77
581.46	60975.64
581.62	60926.49
581.78	60851.59
581.94	61022.45
582.10	60800.10
582.26	60924.14
582.42	61055.21
582.58	61036.49
582.74	60853.93
582.90	61015.43
583.06	61059.90
583.22	60907.76
583.38	61104.37
583.54	61179.26
583.70	61134.79
583.86	61116.07
584.02	61146.50
584.18	61212.03
584.34	60999.04
584.50	61043.51
584.66	60996.70
584.82	60713.50
584.98	61141.81
585.14	61277.57
585.30	61008.40
585.46	60956.91
585.62	61179.26
585.78	61291.61
585.94	60961.59
586.10	60975.64
586.26	61214.37
586.42	61116.07
586.58	61312.67
586.74	61104.37
586.90	60783.71
587.06	61132.45
587.22	61045.85
587.38	61270.54
587.54	61268.20
587.70	61279.91
587.86	61020.11
588.02	61207.35
588.18	61209.69
588.34	61244.80
588.49	61071.60
