SpectraSuite Data File
++++++++++++++++++++++++++++++++++++
Date: Fri Oct 25 10:47:00 EDT 2013
User: price-jones
Dark Spectrum Present: No
Reference Spectrum Present: No
Number of Sampled Component Spectra: 1
Spectrometers: USB2+H05261
Integration Time (usec): 100000 (USB2+H05261)
Spectra Averaged: 1 (USB2+H05261)
Boxcar Smoothing: 0 (USB2+H05261)
Correct for Electrical Dark: No (USB2+H05261)
Strobe/Lamp Enabled: No (USB2+H05261)
Correct for Detector Non-linearity: No (USB2+H05261)
Correct for Stray Light: No (USB2+H05261)
Number of Pixels in Processed Spectrum: 2048
>>>>>Begin Processed Spectral Data<<<<<
365.73	107.66
365.92	107.66
366.12	107.66
366.32	53.83
366.52	30.43
366.72	77.24
366.91	0.00
367.11	11.70
367.31	37.45
367.51	74.90
367.70	25.75
367.90	70.22
368.10	28.09
368.30	0.00
368.49	63.19
368.69	98.30
368.89	44.47
369.09	58.51
369.28	53.83
369.48	105.32
369.68	56.17
369.87	105.32
370.07	56.17
370.27	175.54
370.47	222.35
370.66	411.93
370.86	360.44
371.06	470.45
371.25	374.49
371.45	388.53
371.65	442.36
371.84	449.38
372.04	437.68
372.24	564.07
372.44	500.87
372.63	440.02
372.83	444.70
373.03	528.96
373.22	528.96
373.42	428.32
373.62	512.58
373.81	547.69
374.01	564.07
374.21	641.31
374.40	599.18
374.60	543.00
374.79	498.53
374.99	571.09
375.19	512.58
375.38	559.39
375.58	676.41
375.78	585.13
375.97	477.47
376.17	627.26
376.37	608.54
376.56	650.67
376.76	575.77
376.95	620.24
377.15	636.63
377.35	641.31
377.54	636.63
377.74	603.86
377.93	608.54
378.13	582.79
378.33	645.99
378.52	571.09
378.72	653.01
378.91	688.12
379.11	669.39
379.31	660.03
379.50	657.69
379.70	681.10
379.89	631.94
380.09	657.69
380.28	615.56
380.48	685.78
380.68	664.71
380.87	690.46
381.07	662.37
381.26	685.78
381.46	664.71
381.65	674.07
381.85	674.07
382.04	723.23
382.24	795.78
382.43	671.73
382.63	723.23
382.83	669.39
383.02	709.18
383.22	758.33
383.41	770.04
383.61	816.85
383.80	753.65
384.00	837.91
384.19	777.06
384.39	844.93
384.58	751.31
384.78	784.08
384.97	767.70
385.17	816.85
385.36	812.17
385.56	770.04
385.75	854.30
385.95	814.51
386.14	784.08
386.34	774.72
386.53	819.19
386.72	851.96
386.92	819.19
387.11	861.32
387.31	851.96
387.50	812.17
387.70	802.80
387.89	751.31
388.09	847.27
388.28	877.70
388.48	938.55
388.67	870.68
388.86	854.30
389.06	940.90
389.25	961.96
389.45	983.02
389.64	917.49
389.84	936.21
390.03	943.24
390.22	924.51
390.42	1015.79
390.61	882.38
390.81	952.60
391.00	1022.81
391.19	898.77
391.39	985.37
391.58	961.96
391.78	1013.45
391.97	1008.77
392.16	976.00
392.36	999.41
392.55	1004.09
392.75	980.68
392.94	968.98
393.13	931.53
393.33	908.13
393.52	990.05
393.71	1160.91
393.91	1109.41
394.10	1029.84
394.29	1069.62
394.49	1048.56
394.68	1165.59
394.88	1132.82
395.07	1167.93
395.26	1167.93
395.46	1142.18
395.65	1153.88
395.84	1090.69
396.04	1261.55
396.23	1200.69
396.42	1191.33
396.62	1123.46
396.81	1196.01
397.00	1104.73
397.19	1226.44
397.39	1254.53
397.58	1327.08
397.77	1252.19
397.97	1348.15
398.16	1413.68
398.35	1364.53
398.55	1294.32
398.74	1329.42
398.93	1385.60
399.12	1345.81
399.32	1383.26
399.51	1378.58
399.70	1406.66
399.90	1387.94
400.09	1451.13
400.28	1561.14
400.47	1565.82
400.67	1535.39
400.86	1448.79
401.05	1500.28
401.24	1483.90
401.44	1549.43
401.63	1596.25
401.82	1638.38
402.01	1614.97
402.21	1582.20
402.40	1694.55
402.59	1643.06
402.78	1657.10
402.97	1591.56
403.17	1661.78
403.36	1600.93
403.55	1675.82
403.74	1771.79
403.93	1680.50
404.13	1757.74
404.32	1736.68
404.51	1724.97
404.70	1837.32
404.89	1717.95
405.09	1750.72
405.28	1776.47
405.47	1776.47
405.66	1853.70
405.85	1909.88
406.05	1795.19
406.24	1900.52
406.43	1888.81
406.62	1907.54
406.81	1926.26
407.00	1893.49
407.20	1949.67
407.39	1942.64
407.58	1991.80
407.77	2008.18
407.96	2029.24
408.15	2118.18
408.34	2106.48
408.54	2085.42
408.73	2111.16
408.92	2153.29
409.11	2139.25
409.30	2094.78
409.49	2066.69
409.68	2141.59
409.87	2132.23
410.07	2162.66
410.26	2317.13
410.45	2204.78
410.64	2300.75
410.83	2375.64
411.02	2345.22
411.21	2492.67
411.40	2347.56
411.59	2403.73
411.78	2342.88
411.98	2520.76
412.17	2509.05
412.36	2586.29
412.55	2506.71
412.74	2696.30
412.93	2471.61
413.12	2455.22
413.31	2679.91
413.50	2626.08
413.69	2724.38
413.88	2724.38
414.07	2766.51
414.26	2731.41
414.45	2656.51
414.64	2715.02
414.83	2846.09
415.02	2815.66
415.22	2801.62
415.41	2899.92
415.60	2925.67
415.79	2998.23
415.98	3030.99
416.17	3016.95
416.36	3028.65
416.55	2963.12
416.74	3052.06
416.93	3091.85
417.12	3098.87
417.31	3108.23
417.50	3131.64
417.69	3220.58
417.88	3274.41
418.07	3279.09
418.26	3098.87
418.45	3300.16
418.64	3454.63
418.83	3255.69
419.02	3309.52
419.21	3325.90
419.39	3309.52
419.58	3361.01
419.77	3206.53
419.96	3391.44
420.15	3487.40
420.34	3400.80
420.53	3681.66
420.72	3590.38
420.91	3414.84
421.10	3478.04
421.29	3552.93
421.48	3534.21
421.67	3616.13
421.86	3578.68
422.05	3524.85
422.24	3581.02
422.43	3524.85
422.61	3630.17
422.80	3730.81
422.99	3749.54
423.18	3707.41
423.37	3775.28
423.56	3733.15
423.75	3775.28
423.94	3536.55
424.13	3503.78
424.32	3461.65
424.50	3749.54
424.69	3691.02
424.88	3777.62
425.07	3658.26
425.26	3625.49
425.45	3693.37
425.64	3658.26
425.83	3552.93
426.01	3761.24
426.20	3721.45
426.39	3794.01
426.58	3744.86
426.77	3637.19
426.96	3808.05
427.15	3770.60
427.33	3864.22
427.52	3808.05
427.71	3873.59
427.90	3939.12
428.09	3819.75
428.28	3859.54
428.46	3829.12
428.65	3992.95
428.84	4131.05
429.03	4065.51
429.22	3833.80
429.40	3927.42
429.59	4145.09
429.78	3810.39
429.97	3782.31
430.16	3873.59
430.34	3915.72
430.53	4004.66
430.72	4058.49
430.91	4072.53
431.10	4156.79
431.28	4292.54
431.47	4390.84
431.66	4465.74
431.85	4287.86
432.03	4348.72
432.22	4351.06
432.41	4444.68
432.60	4381.48
432.79	4454.04
432.97	4503.19
433.16	4491.49
433.35	4365.10
433.54	4477.44
433.72	4512.55
433.91	4407.23
434.10	4482.13
434.28	4458.72
434.47	4692.77
434.66	4552.34
434.85	4652.98
435.03	4599.15
435.22	4617.88
435.41	4940.87
435.59	4809.80
435.78	4791.08
435.97	4711.50
436.16	4910.44
436.34	4791.08
436.53	4826.18
436.72	4959.60
436.90	4784.06
437.09	4798.10
437.28	4882.36
437.46	4994.70
437.65	4938.53
437.84	4894.06
438.02	4823.84
438.21	5004.07
438.40	4788.74
438.58	4992.36
438.77	5116.41
438.96	5004.07
439.14	5160.88
439.33	5249.82
439.52	5233.44
439.70	5191.31
439.89	5425.36
440.08	5345.78
440.26	5362.17
440.45	5366.85
440.63	5451.11
440.82	5577.50
441.01	5418.34
441.19	5685.16
441.38	5483.88
441.57	5500.26
441.75	5680.48
441.94	5771.76
442.12	6008.16
442.31	5954.32
442.50	6026.88
442.68	5860.70
442.87	5973.05
443.05	6015.18
443.24	6179.01
443.43	5942.62
443.61	5907.51
443.80	6183.70
443.98	6033.90
444.17	5788.14
444.35	6015.18
444.54	6115.82
444.73	6284.34
444.91	6080.71
445.10	6071.35
445.28	5980.07
445.47	6052.63
445.65	5921.56
445.84	6160.29
446.02	6258.59
446.21	6092.41
446.39	6186.04
446.58	6242.21
446.77	6246.89
446.95	6085.39
447.14	6375.62
447.32	6359.24
447.51	6228.17
447.69	6164.97
447.88	6363.92
448.06	6312.42
448.25	6230.51
448.43	6195.40
448.62	6314.77
448.80	6251.57
448.99	6282.00
449.17	6291.36
449.36	6478.60
449.54	6588.61
449.73	6654.14
449.91	6619.04
450.10	6731.38
450.28	6541.80
450.46	6635.42
450.65	6651.80
450.83	6785.21
451.02	6764.15
451.20	6773.51
451.39	6801.60
451.57	6621.38
451.76	6808.62
451.94	6766.49
452.13	6747.76
452.31	6771.17
452.49	6829.68
452.68	6747.76
452.86	6836.70
453.05	6853.09
453.23	6834.36
453.42	6904.58
453.60	6944.37
453.78	7028.63
453.97	6902.24
454.15	6827.34
454.34	6759.47
454.52	7098.84
454.70	7255.66
454.89	7096.50
455.07	7166.72
455.26	7124.59
455.44	7342.26
455.62	7183.10
455.81	7234.60
455.99	7201.83
456.17	7452.27
456.36	7552.91
456.54	7412.48
456.73	7377.37
456.91	7510.78
457.09	7630.15
457.28	7667.60
457.46	7585.68
457.64	7630.15
457.83	7693.34
458.01	7641.85
458.19	7709.72
458.38	7728.45
458.56	7728.45
458.74	7637.17
458.93	7758.88
459.11	7857.18
459.29	7843.14
459.48	7777.60
459.66	7751.85
459.84	7967.18
460.03	7981.23
460.21	8002.29
460.39	8049.10
460.57	8028.04
460.76	8067.83
460.94	7901.65
461.12	8238.69
461.31	8159.11
461.49	8159.11
461.67	8011.65
461.85	8112.30
462.04	8156.77
462.22	8769.99
462.40	8425.93
462.59	8517.21
462.77	8407.20
462.95	8489.12
463.13	8477.42
463.32	8325.29
463.50	8526.57
463.68	8540.61
463.86	8638.92
464.05	8414.23
464.23	8336.99
464.41	8645.94
464.59	8222.30
464.78	8772.33
464.96	8795.73
465.14	8549.98
465.32	8720.84
465.50	8648.28
465.69	8975.95
465.87	8828.50
466.05	8702.11
466.23	8765.31
466.41	8444.65
466.60	8816.80
466.78	8444.65
466.96	8765.31
467.14	8669.34
467.32	8727.86
467.51	8858.93
467.69	8697.43
467.87	8891.70
468.05	9151.49
468.23	8870.63
468.41	8777.01
468.60	8863.61
468.78	8947.87
468.96	9053.19
469.14	9074.26
469.32	9273.20
469.50	9050.85
469.69	9179.58
469.87	9221.71
470.05	9488.53
470.23	9373.85
470.41	9291.93
470.59	9355.12
470.77	9238.09
470.95	9357.46
471.14	9341.08
471.32	9242.78
471.50	9579.81
471.68	9687.48
471.86	9612.58
472.04	9951.96
472.22	9994.09
472.40	9671.09
472.58	9900.47
472.77	9830.25
472.95	9947.28
473.13	10277.29
473.31	9914.51
473.49	10186.01
473.67	9958.98
473.85	10029.20
474.03	10293.68
474.21	10354.53
474.39	10471.56
474.57	10616.67
474.75	10391.98
474.93	10588.58
475.12	10516.03
475.30	10789.87
475.48	10626.03
475.66	10609.65
475.84	10619.01
476.02	10806.25
476.20	10738.38
476.38	11030.94
476.56	11218.19
476.74	11180.74
476.92	11166.70
477.10	11241.59
477.28	11534.16
477.46	11639.48
477.64	11712.04
477.82	11655.87
478.00	11815.02
478.18	11894.60
478.36	11903.96
478.54	12051.42
478.72	12175.47
478.90	12376.75
479.08	12283.13
479.26	12507.82
479.44	12486.76
479.62	12587.40
479.80	12477.40
479.98	12608.47
480.16	12905.71
480.34	12905.71
480.52	12903.37
480.70	13097.64
480.88	12989.97
481.06	13118.70
481.24	13128.06
481.41	13460.42
481.59	13336.37
481.77	13806.82
481.95	13483.83
482.13	13537.66
482.31	13668.73
482.49	14001.08
482.67	13919.17
482.85	14185.99
483.03	14242.16
483.21	14527.71
483.39	14621.33
483.57	14513.66
483.74	14644.73
483.92	14661.12
484.10	14684.52
484.28	15023.90
484.46	14981.77
484.64	15286.04
484.82	14927.94
485.00	15590.31
485.18	15534.14
485.35	15583.29
485.53	15751.81
485.71	15477.96
485.89	15873.51
486.07	15726.06
486.25	15859.47
486.43	16325.24
486.61	16198.85
486.78	16416.52
486.96	16573.33
487.14	16821.43
487.32	16870.58
487.50	16863.56
487.68	17392.52
487.85	17401.88
488.03	17547.00
488.21	17481.46
488.39	17511.89
488.57	17743.60
488.75	17996.38
488.92	18192.98
489.10	18380.23
489.28	18602.58
489.46	18597.90
489.64	18686.84
489.81	19012.17
489.99	18881.10
490.17	19229.84
490.35	19543.47
490.53	19370.27
490.70	19468.58
490.88	19592.62
491.06	19878.17
491.24	19754.12
491.41	19777.53
491.59	20053.71
491.77	19709.65
491.95	20208.19
492.13	20512.46
492.30	20577.99
492.48	20332.23
492.66	20638.84
492.84	20573.31
493.01	21074.18
493.19	20952.48
493.37	21231.00
493.54	21195.89
493.72	21406.54
493.90	21687.40
494.08	21776.34
494.25	22024.44
494.43	22197.64
494.61	22525.32
494.79	22106.36
494.96	22225.73
495.14	22651.70
495.32	22405.95
495.49	22864.69
495.67	22649.36
495.85	22843.63
496.02	23140.88
496.20	23073.00
496.38	23510.68
496.55	23136.20
496.73	23875.80
496.91	23555.15
497.09	23850.06
497.26	24056.03
497.44	23803.25
497.62	24079.43
497.79	24177.73
497.97	24226.89
498.14	24720.74
498.32	24346.25
498.50	24451.58
498.67	24570.94
498.85	24531.15
499.03	25111.61
499.20	24868.19
499.38	24989.90
499.56	25022.67
499.73	25041.39
499.91	24868.19
500.08	25270.76
500.26	25219.27
500.44	25378.43
500.61	25734.19
500.79	25631.21
500.97	25429.92
501.14	26005.69
501.32	26103.99
501.49	26071.23
501.67	26277.19
501.84	25947.18
502.02	26139.10
502.20	26359.11
502.37	26742.96
502.55	26656.36
502.72	26689.13
502.90	26658.70
503.07	26714.87
503.25	27009.78
503.43	26780.41
503.60	26700.83
503.78	27115.11
503.95	27026.17
504.13	27700.24
504.30	27655.77
504.48	27080.00
504.65	27681.52
504.83	28318.14
505.01	28060.68
505.18	27744.71
505.36	27866.42
505.53	27894.50
505.71	28276.01
505.88	28570.92
506.06	28002.17
506.23	28212.82
506.41	28266.65
506.58	28512.41
506.76	28645.82
506.93	29029.66
507.11	28790.93
507.28	28858.81
507.46	28907.96
507.63	29223.93
507.81	29125.63
507.98	29032.00
508.16	28809.65
508.33	29369.04
508.50	29495.43
508.68	29626.50
508.85	29944.81
509.03	29916.73
509.20	29900.34
509.38	29883.96
509.55	30162.48
509.73	29820.77
509.90	30284.19
510.08	29975.24
510.25	30075.88
510.42	30441.01
510.60	30455.05
510.77	30654.00
510.95	30682.08
511.12	30567.40
511.30	30813.15
511.47	31058.91
511.64	30988.69
511.82	31014.44
511.99	31002.74
512.17	31260.20
512.34	30593.14
512.51	31285.94
512.69	31365.52
512.86	31557.44
513.04	31379.56
513.21	31557.44
513.38	31606.59
513.56	31791.50
513.73	31424.03
513.90	31653.40
514.08	31622.98
514.25	32102.79
514.43	31882.78
514.60	32013.85
514.77	31824.26
514.95	32577.92
515.12	32196.41
515.29	32720.69
515.47	32730.05
515.64	32664.52
515.81	32732.39
515.99	32851.76
516.16	32634.09
516.33	32463.23
516.51	32765.16
516.68	32329.82
516.85	31910.86
517.03	32760.48
517.20	32980.49
517.37	33001.55
517.54	33226.24
517.72	32694.94
517.89	32524.08
518.06	33092.83
518.24	33085.81
518.41	33216.88
518.58	33284.76
518.75	33230.93
518.93	33720.10
519.10	33827.76
519.27	33743.50
519.45	33659.24
519.62	33544.56
519.79	34347.36
519.96	34106.29
520.14	34150.76
520.31	34572.05
520.48	34660.99
520.65	34117.99
520.83	34462.05
521.00	34459.71
521.17	34698.44
521.34	34644.61
521.52	34581.42
521.69	35016.75
521.86	35433.37
522.03	34878.66
522.20	34951.22
522.38	35077.61
522.55	35814.88
522.72	34775.68
522.89	35154.85
523.07	35541.03
523.24	35229.74
523.41	35274.21
523.58	35573.80
523.75	35487.20
523.92	36116.81
524.10	36346.18
524.27	36421.08
524.44	35922.54
524.61	36084.04
524.78	35838.28
524.96	36371.92
525.13	36605.98
525.30	36992.17
525.47	36603.64
525.64	36240.86
525.81	36273.62
525.98	36168.30
526.16	35857.01
526.33	35718.92
526.50	36510.02
526.67	36320.43
526.84	36322.77
527.01	36266.60
527.18	36861.10
527.36	36851.73
527.53	37130.26
527.70	37336.23
527.87	37317.50
528.04	37132.60
528.21	36989.83
528.38	37303.46
528.55	37652.20
528.72	37638.15
528.89	37591.34
529.07	37572.62
529.24	37125.58
529.41	37694.33
529.58	37397.08
529.75	37120.90
529.92	37684.97
530.09	37352.61
530.26	37757.52
530.43	37982.21
530.60	38139.03
530.77	37958.81
530.94	38455.00
531.11	38054.77
531.28	38110.94
531.46	38183.50
531.63	38302.87
531.80	38134.35
531.97	37883.91
532.14	38314.57
532.31	38466.70
532.48	38050.09
532.65	38478.41
532.82	38270.10
532.99	38541.60
533.16	38534.58
533.33	38642.24
533.50	38569.69
533.67	38260.74
533.84	38827.15
534.01	38712.46
534.18	38607.14
534.35	39260.15
534.52	39292.91
534.69	39033.11
534.86	39079.92
535.03	39384.19
535.20	39056.52
535.37	39688.46
535.54	39667.40
535.71	39456.75
535.88	39559.73
536.05	39473.13
536.22	39665.06
536.38	39494.20
536.55	39051.84
536.72	39803.15
536.89	39728.25
537.06	39447.39
537.23	39964.65
537.40	39342.06
537.57	39770.38
537.74	39742.30
537.91	40224.45
538.08	40130.83
538.25	39672.08
538.42	39950.60
538.59	40488.93
538.75	40158.91
538.92	40388.28
539.09	40163.59
539.26	40683.19
539.43	40105.08
539.60	40224.45
539.77	40006.78
539.94	40149.55
540.11	39959.97
540.28	40477.22
540.44	40446.80
540.61	40671.49
540.78	40531.06
540.95	40381.26
541.12	40425.73
541.29	40528.72
541.46	40683.19
541.62	40807.24
541.79	40868.09
541.96	40526.38
542.13	40914.90
542.30	41078.74
542.47	40910.22
542.63	41104.49
542.80	41401.74
542.97	41383.01
543.14	41680.26
543.31	41368.97
543.48	41441.53
543.64	42120.28
543.81	41876.86
543.98	41677.92
544.15	41804.31
544.32	41347.90
544.48	42260.71
544.65	41682.60
544.82	41993.89
544.99	41860.48
545.16	41993.89
545.32	41799.63
545.49	42115.60
545.66	41654.51
545.83	42150.71
546.00	42431.57
546.16	42197.52
546.33	41972.83
546.50	41474.29
546.67	42277.10
546.83	42134.32
547.00	42066.45
547.17	42272.42
547.34	42246.67
547.50	42391.78
547.67	42326.25
547.84	42131.98
548.00	42691.37
548.17	42569.66
548.34	42223.26
548.51	42969.90
548.67	42518.17
548.84	42869.25
549.01	42618.81
549.18	42464.34
549.34	42466.68
549.51	43201.61
549.68	42899.68
549.84	43056.50
550.01	42562.64
550.18	42522.85
550.34	42801.38
550.51	42829.46
550.68	42731.16
550.84	42527.53
551.01	42689.03
551.18	42768.61
551.34	42880.95
551.51	43192.25
551.68	43000.32
551.84	43295.23
552.01	43356.08
552.18	43012.02
552.34	42623.50
552.51	43412.26
552.68	43007.34
552.84	43379.49
553.01	43555.03
553.18	43646.31
553.34	43489.49
553.51	43358.42
553.67	43569.07
553.84	43676.74
554.01	43674.40
554.17	43863.98
554.34	43985.69
554.51	43875.68
554.67	44142.50
554.84	43831.21
555.00	43892.07
555.17	43489.49
555.33	43859.30
555.50	43590.14
555.67	44058.24
555.83	44072.29
556.00	43533.96
556.16	44432.73
556.33	44062.93
556.50	43634.61
556.66	44151.87
556.83	43819.51
556.99	43945.90
557.16	44025.48
557.32	44009.09
557.49	44406.98
557.65	43653.33
557.82	43812.49
557.98	44231.44
558.15	44439.75
558.32	44360.17
558.48	44367.20
558.65	44598.91
558.81	43927.17
558.98	43931.86
559.14	44617.63
559.31	44208.04
559.47	43894.41
559.64	44423.37
559.80	44446.77
559.97	44201.02
560.13	44175.27
560.30	44306.34
560.46	44626.99
560.63	44301.66
560.79	44968.71
560.96	45230.85
561.12	44856.37
561.29	44781.47
561.45	44392.94
561.61	44837.64
561.78	44378.90
561.94	44357.83
562.11	44254.85
562.27	45067.02
562.44	45015.52
562.60	44577.84
562.77	45111.49
562.93	44758.06
563.10	45216.81
563.26	44325.07
563.42	45331.50
563.59	44608.27
563.75	44886.79
563.92	44818.92
564.08	45191.06
564.24	44748.70
564.41	45092.76
564.57	44980.42
564.74	44914.88
564.90	45244.90
565.07	44598.91
565.23	44645.72
565.39	44744.02
565.56	44989.78
565.72	44781.47
565.88	45141.91
566.05	44751.04
566.21	44823.60
566.38	44858.71
566.54	44556.78
566.70	45076.38
566.87	45303.41
567.03	44928.92
567.19	45277.66
567.36	45413.41
567.52	45212.13
567.68	44999.14
567.85	45488.31
568.01	44940.63
568.17	44786.15
568.34	45570.23
568.50	45069.36
568.66	44919.56
568.83	44732.32
568.99	44690.19
569.15	44847.00
569.32	45130.21
569.48	44825.94
569.64	45521.08
569.81	45223.83
569.97	45067.02
570.13	45436.82
570.30	45008.50
570.46	44645.72
570.62	44870.41
570.78	45272.98
570.95	45020.20
571.11	45443.84
571.27	45029.57
571.43	45198.09
571.60	45607.68
571.76	44877.43
571.92	45434.48
572.09	45034.25
572.25	45198.09
572.41	45177.02
572.57	45305.75
572.74	45315.11
572.90	45226.17
573.06	45294.05
573.22	45329.16
573.38	45120.85
573.55	45287.03
573.71	45710.66
573.87	45048.29
574.03	44910.20
574.20	45308.09
574.36	45659.17
574.52	45570.23
574.68	45172.34
574.84	45205.11
575.01	45064.67
575.17	45399.37
575.33	45088.08
575.49	45228.51
575.65	45652.15
575.82	45495.33
575.98	45198.09
576.14	45340.86
576.30	45570.23
576.46	45521.08
576.62	45212.13
576.79	45013.18
576.95	44844.66
577.11	45240.21
577.27	44905.52
577.43	45560.87
577.59	45390.01
577.75	45443.84
577.92	45357.24
578.08	45312.77
578.24	45467.25
578.40	45015.52
578.56	45331.50
578.72	44992.12
578.88	45694.28
579.04	45460.23
579.21	45359.58
579.37	45570.23
579.53	45301.07
579.69	45471.93
579.85	45387.67
580.01	45532.78
580.17	45626.40
580.33	45909.61
580.49	45361.92
580.65	45230.85
580.82	45588.95
580.98	45647.47
581.14	45064.67
581.30	45411.07
581.46	45481.29
581.62	45694.28
581.78	45595.98
581.94	45890.88
582.10	45691.94
582.26	45635.77
582.42	45282.34
582.58	45624.06
582.74	45043.61
582.90	45462.57
583.06	45876.84
583.22	45336.18
583.38	45773.86
583.54	45715.34
583.70	45455.54
583.86	45783.22
584.02	45649.81
584.18	45481.29
584.34	45603.00
584.50	45757.47
584.66	45638.11
584.82	45125.53
584.98	45546.82
585.14	45591.30
585.30	45291.71
585.46	45785.56
585.62	45254.26
585.78	45319.79
585.94	45132.55
586.10	45588.95
586.26	45319.79
586.42	45579.59
586.58	45406.39
586.74	45579.59
586.90	45291.71
587.06	45256.60
587.22	45682.58
587.38	44959.35
587.54	45308.09
587.70	45478.95
587.86	45673.21
588.02	45535.12
588.18	45839.39
588.34	45001.48
588.49	45591.30
588.65	45284.68
588.81	45457.88
588.97	45296.39
589.13	45476.61
589.29	45397.03
589.45	45647.47
589.61	45270.64
589.77	45771.52
589.93	45750.45
590.08	45907.27
590.24	45745.77
