SpectraSuite Data File
++++++++++++++++++++++++++++++++++++
Date: Fri Oct 25 11:23:24 EDT 2013
User: price-jones
Dark Spectrum Present: No
Reference Spectrum Present: No
Number of Sampled Component Spectra: 1
Spectrometers: USB2+H05261
Integration Time (usec): 100000 (USB2+H05261)
Spectra Averaged: 1 (USB2+H05261)
Boxcar Smoothing: 0 (USB2+H05261)
Correct for Electrical Dark: No (USB2+H05261)
Strobe/Lamp Enabled: No (USB2+H05261)
Correct for Detector Non-linearity: No (USB2+H05261)
Correct for Stray Light: No (USB2+H05261)
Number of Pixels in Processed Spectrum: 2048
>>>>>Begin Processed Spectral Data<<<<<
365.73	227.03
365.92	227.03
366.12	227.03
366.32	149.79
366.52	145.11
366.72	163.84
366.91	100.64
367.11	131.07
367.31	149.79
367.51	107.66
367.70	112.35
367.90	77.24
368.10	180.22
368.30	131.07
368.49	140.43
368.69	102.98
368.89	180.22
369.09	117.03
369.28	154.48
369.48	222.35
369.68	121.71
369.87	208.31
370.07	177.88
370.27	245.76
370.47	198.95
370.66	608.54
370.86	636.63
371.06	730.25
371.25	669.39
371.45	734.93
371.65	697.48
371.84	667.05
372.04	636.63
372.24	718.54
372.44	657.69
372.63	741.95
372.83	755.99
373.03	767.70
373.22	779.40
373.42	765.36
373.62	772.38
373.81	777.06
374.01	784.08
374.21	814.51
374.40	823.87
374.60	760.67
374.79	807.48
374.99	812.17
375.19	802.80
375.38	793.44
375.58	765.36
375.78	851.96
375.97	903.45
376.17	898.77
376.37	842.59
376.56	889.40
376.76	875.36
376.95	861.32
377.15	903.45
377.35	887.06
377.54	842.59
377.74	793.44
377.93	854.30
378.13	908.13
378.33	983.02
378.52	931.53
378.72	873.02
378.91	898.77
379.11	947.92
379.31	952.60
379.50	973.66
379.70	1022.81
379.89	999.41
380.09	1001.75
380.28	1022.81
380.48	978.34
380.68	954.94
380.87	1011.11
381.07	952.60
381.26	1121.12
381.46	1057.92
381.65	980.68
381.85	1097.71
382.04	1020.47
382.24	1097.71
382.43	1081.33
382.63	1034.52
382.83	1083.67
383.02	1062.60
383.22	1196.01
383.41	1158.57
383.61	1071.97
383.80	1104.73
384.00	1074.31
384.19	1093.03
384.39	1076.65
384.58	1081.33
384.78	1123.46
384.97	997.07
385.17	1149.20
385.36	1118.78
385.56	1163.25
385.75	1191.33
385.95	1191.33
386.14	1191.33
386.34	1167.93
386.53	1226.44
386.72	1118.78
386.92	1247.51
387.11	1245.16
387.31	1224.10
387.50	1158.57
387.70	1284.95
387.89	1188.99
388.09	1263.89
388.28	1324.74
388.48	1240.48
388.67	1350.49
388.86	1205.38
389.06	1212.40
389.25	1399.64
389.45	1350.49
389.64	1334.11
389.84	1341.13
390.03	1366.87
390.22	1364.53
390.42	1439.43
390.61	1369.21
390.81	1266.23
391.00	1343.47
391.19	1439.43
391.39	1432.41
391.58	1465.18
391.78	1416.02
391.97	1441.77
392.16	1455.81
392.36	1556.46
392.55	1516.67
392.75	1490.92
392.94	1507.30
393.13	1507.30
393.33	1554.12
393.52	1584.54
393.71	1699.23
393.91	1675.82
394.10	1664.12
394.29	1500.28
394.49	1558.80
394.68	1612.63
394.88	1570.50
395.07	1629.01
395.26	1647.74
395.46	1678.16
395.65	1743.70
395.84	1736.68
396.04	1769.44
396.23	1778.81
396.42	1783.49
396.62	1865.41
396.81	1750.72
397.00	1757.74
397.19	1870.09
397.39	1785.83
397.58	1811.57
397.77	1760.08
397.97	1898.17
398.16	2026.90
398.35	1935.62
398.55	1795.19
398.74	1919.24
398.93	1900.52
399.12	1874.77
399.32	1893.49
399.51	1970.73
399.70	2022.22
399.90	1928.60
400.09	2094.78
400.28	2083.08
400.47	1940.30
400.67	2052.65
400.86	2157.97
401.05	2120.53
401.24	2275.00
401.44	2176.70
401.63	2127.55
401.82	2223.51
402.01	2076.06
402.21	2160.31
402.40	2188.40
402.59	2197.76
402.78	2150.95
402.97	2246.91
403.17	2326.49
403.36	2275.00
403.55	2284.36
403.74	2317.13
403.93	2312.45
404.13	2389.69
404.32	2267.98
404.51	2270.32
404.70	2401.39
404.89	2326.49
405.09	2555.86
405.28	2438.84
405.47	2445.86
405.66	2429.48
405.85	2487.99
406.05	2583.95
406.24	2459.90
406.43	2607.36
406.62	2586.29
406.81	2696.30
407.00	2586.29
407.20	2562.89
407.39	2644.81
407.58	2656.51
407.77	2757.15
407.96	2705.66
408.15	2595.65
408.34	2764.17
408.54	2761.83
408.73	2771.19
408.92	2904.60
409.11	2846.09
409.30	2881.20
409.49	2913.97
409.68	2895.24
409.87	2949.08
410.07	2953.76
410.26	3047.38
410.45	3040.36
410.64	2981.84
410.83	3033.33
411.02	3054.40
411.21	3183.13
411.40	3162.06
411.59	3178.45
411.78	3272.07
411.98	3129.30
412.17	3258.03
412.36	3311.86
412.55	3318.88
412.74	3478.04
412.93	3384.41
413.12	3358.67
413.31	3702.73
413.50	3478.04
413.69	3515.48
413.88	3660.60
414.07	3597.40
414.26	3538.89
414.45	3735.50
414.64	3737.84
414.83	3674.64
415.02	3742.52
415.22	3786.99
415.41	3758.90
415.60	3864.22
415.79	4004.66
415.98	3990.61
416.17	4051.47
416.36	4018.70
416.55	4194.24
416.74	3962.53
416.93	4016.36
417.12	4124.02
417.31	4238.71
417.50	4187.22
417.69	4435.32
417.88	4379.14
418.07	4189.56
418.26	4248.07
418.45	4334.67
418.64	4531.28
418.83	4329.99
419.02	4407.23
419.21	4449.36
419.39	4592.13
419.58	4552.34
419.77	4351.06
419.96	4566.39
420.15	4657.67
420.34	4561.70
420.53	4746.61
420.72	4865.97
420.91	4671.71
421.10	4730.22
421.29	4791.08
421.48	4631.92
421.67	4755.97
421.86	4791.08
422.05	4807.46
422.24	4781.71
422.43	4898.74
422.61	4821.50
422.80	5174.92
422.99	4992.36
423.18	4992.36
423.37	5032.15
423.56	4861.29
423.75	4933.85
423.94	4990.02
424.13	4702.14
424.32	4894.06
424.50	5022.79
424.69	5032.15
424.88	5107.05
425.07	4992.36
425.26	4940.87
425.45	4964.28
425.64	4983.00
425.83	4971.30
426.01	5205.35
426.20	5130.45
426.39	5043.85
426.58	5032.15
426.77	5085.98
426.96	5015.77
427.15	5174.92
427.33	5490.90
427.52	5240.46
427.71	5088.32
427.90	5280.25
428.09	5263.86
428.28	5247.48
428.46	5320.04
428.65	5401.96
428.84	5626.65
429.03	5404.30
429.22	5348.12
429.40	5495.58
429.59	5490.90
429.78	5371.53
429.97	5301.31
430.16	5455.79
430.34	5652.39
430.53	5715.59
430.72	5687.50
430.91	5633.67
431.10	5542.39
431.28	5856.02
431.47	5715.59
431.66	5891.13
431.85	5849.00
432.03	5951.98
432.22	6052.63
432.41	5954.32
432.60	5914.53
432.79	5921.56
432.97	5933.26
433.16	6176.67
433.35	6069.01
433.54	6052.63
433.72	6162.63
433.91	6157.95
434.10	6029.22
434.28	6054.97
434.47	6420.09
434.66	6242.21
434.85	6326.47
435.03	6464.56
435.22	6340.51
435.41	6473.92
435.59	6361.58
435.78	6539.46
435.97	6436.47
436.16	6431.79
436.34	6305.40
436.53	6628.40
436.72	6693.93
436.90	6445.84
437.09	6677.55
437.28	6494.99
437.46	6642.44
437.65	6801.60
437.84	6853.09
438.02	6719.68
438.21	6806.28
438.40	6729.04
438.58	7040.33
438.77	7009.90
438.96	6977.14
439.14	7052.03
439.33	7073.10
439.52	6981.82
439.70	7234.60
439.89	7356.30
440.08	7384.39
440.26	7302.47
440.45	7166.72
440.63	7454.61
440.82	7620.78
441.01	7536.52
441.19	7803.35
441.38	7433.54
441.57	7691.00
441.75	7859.52
441.94	7985.91
442.12	7992.93
442.31	8025.70
442.50	8046.76
442.68	7929.74
442.87	8124.00
443.05	8124.00
443.24	8351.03
443.43	8285.50
443.61	8049.10
443.80	8271.45
443.98	7999.95
444.17	7896.97
444.35	8266.77
444.54	8397.84
444.73	8086.55
444.91	8355.71
445.10	8414.23
445.28	8493.80
445.47	8446.99
445.65	8383.80
445.84	8367.42
446.02	8500.83
446.21	8486.78
446.39	8402.52
446.58	8664.66
446.77	8641.26
446.95	8266.77
447.14	8526.57
447.32	8559.34
447.51	8542.96
447.69	8379.12
447.88	8634.24
448.06	8582.74
448.25	8388.48
448.43	8582.74
448.62	8451.67
448.80	8603.81
448.99	8629.56
449.17	8442.31
449.36	8699.77
449.54	8739.56
449.73	9074.26
449.91	9048.51
450.10	8926.80
450.28	9135.11
450.46	8938.51
450.65	8980.64
450.83	9191.28
451.02	9142.13
451.20	9277.88
451.39	9355.12
451.57	9179.58
451.76	9280.22
451.94	9432.36
452.13	9266.18
452.31	9123.41
452.49	9266.18
452.68	9284.91
452.86	9385.55
453.05	9165.54
453.23	9465.13
453.42	9284.91
453.60	9465.13
453.78	9750.67
453.97	9479.17
454.15	9542.36
454.34	9582.15
454.52	9760.03
454.70	9694.50
454.89	9727.27
455.07	9785.78
455.26	9839.61
455.44	9954.30
455.62	9914.51
455.81	9848.97
455.99	9940.26
456.17	10076.01
456.36	10293.68
456.54	10136.86
456.73	10272.61
456.91	10406.02
457.09	10602.63
457.28	10523.05
457.46	10490.28
457.64	10562.84
457.83	10520.71
458.01	10389.64
458.19	10593.26
458.38	10780.51
458.56	10626.03
458.74	10670.50
458.93	10600.29
459.11	10881.15
459.29	10602.63
459.48	10836.68
459.66	10909.24
459.84	10878.81
460.03	11019.24
460.21	11180.74
460.39	10848.38
460.57	11250.96
460.76	11122.23
460.94	11243.93
461.12	11197.12
461.31	11300.11
461.49	10977.11
461.67	11339.90
461.85	11489.69
462.04	11515.44
462.22	11632.46
462.40	11573.95
462.59	11489.69
462.77	11531.82
462.95	11653.53
463.13	11611.40
463.32	11487.35
463.50	11627.78
463.68	11618.42
463.86	11920.35
464.05	11716.72
464.23	11658.21
464.41	11796.30
464.59	11831.41
464.78	12201.21
464.96	11922.69
465.14	11892.26
465.32	12306.54
465.50	12222.28
465.69	12315.90
465.87	12194.19
466.05	12105.25
466.23	12032.69
466.41	12224.62
466.60	12606.13
466.78	12081.85
466.96	12313.56
467.14	12620.17
467.32	12372.07
467.51	12561.66
467.69	12231.64
467.87	12482.08
468.05	12547.61
468.23	12496.12
468.41	12491.44
468.60	12575.70
468.78	12720.81
468.96	12655.28
469.14	12795.71
469.32	13036.78
469.50	12798.05
469.69	12992.31
469.87	13235.73
470.05	13111.68
470.23	13184.24
470.41	13097.64
470.59	13329.35
470.77	13135.09
470.95	13317.65
471.14	13497.87
471.32	13312.97
471.50	13799.80
471.68	13507.23
471.86	13858.31
472.04	13701.50
472.22	14249.18
472.40	13589.15
472.58	13862.99
472.77	14122.79
472.95	14174.28
473.13	14661.12
473.31	13961.30
473.49	14298.33
473.67	14111.09
473.85	14319.40
474.03	14920.92
474.21	14534.73
474.39	14904.53
474.57	14534.73
474.75	14949.00
474.93	15061.35
475.12	15091.77
475.30	14890.49
475.48	15183.06
475.66	15723.72
475.84	15161.99
476.02	15463.92
476.20	15517.75
476.38	15637.12
476.56	16023.31
476.74	16196.51
476.92	16077.14
477.10	15929.69
477.28	16128.63
477.46	16336.94
477.64	16379.07
477.82	16716.11
478.00	17034.42
478.18	16912.71
478.36	16840.15
478.54	17245.07
478.72	17362.09
478.90	17394.86
479.08	17708.49
479.26	17710.83
479.44	17839.56
479.62	17668.70
479.80	17916.80
479.98	18272.56
480.16	18607.26
480.34	18520.66
480.52	18834.29
480.70	18719.60
480.88	18415.34
481.06	18677.48
481.24	18822.59
481.41	19084.73
481.59	19466.24
481.77	19344.53
481.95	19278.99
482.13	19662.84
482.31	19669.86
482.49	20042.01
482.67	20243.29
482.85	20500.75
483.03	20601.40
483.21	20664.59
483.39	21163.12
483.57	20835.45
483.74	21097.59
483.92	21514.20
484.10	21186.53
484.28	21774.00
484.46	22129.77
484.64	22742.99
484.82	21809.11
485.00	22305.31
485.18	22649.36
485.35	22808.52
485.53	22731.28
485.71	22881.08
485.89	23367.91
486.07	23618.35
486.25	23695.58
486.43	23672.18
486.61	23697.92
486.78	24081.77
486.96	24205.82
487.14	24851.81
487.32	24582.65
487.50	24716.06
487.68	25146.72
487.85	25144.38
488.03	25558.65
488.21	25975.27
488.39	26141.44
488.57	26216.34
488.75	26499.55
488.92	26499.55
489.10	26574.44
489.28	26684.45
489.46	27204.05
489.64	27255.54
489.81	27917.91
489.99	27967.06
490.17	27908.55
490.35	28095.79
490.53	28142.60
490.70	28381.34
490.88	28533.47
491.06	28903.28
491.24	28954.77
491.41	29053.07
491.59	29284.78
491.77	29560.97
491.95	29930.77
492.13	29823.11
492.30	30080.56
492.48	30113.33
492.66	30176.53
492.84	30181.21
493.01	30993.37
493.19	30991.03
493.37	31278.92
493.54	31185.30
493.72	31517.65
493.90	31718.94
494.08	31749.37
494.25	32088.74
494.43	32088.74
494.61	32334.50
494.79	32500.68
494.96	32254.92
495.14	32905.59
495.32	33427.53
495.49	33039.00
495.67	32973.47
495.85	33893.30
496.02	33823.08
496.20	33846.49
496.38	33991.60
496.55	34302.89
496.73	35192.30
496.91	34476.09
497.09	34771.00
497.26	35072.93
497.44	34719.51
497.62	35400.60
497.79	35985.74
497.97	35494.22
498.14	35679.13
498.32	36201.07
498.50	36109.78
498.67	36561.51
498.85	36229.15
499.03	36664.49
499.20	36797.90
499.38	37160.69
499.56	37062.38
499.73	37420.48
499.91	37638.15
500.08	38328.61
500.26	37095.15
500.44	37876.89
500.61	38038.39
500.79	38148.39
500.97	38157.75
501.14	38796.72
501.32	38485.43
501.49	38572.03
501.67	38560.33
501.84	39409.94
502.02	38665.65
502.20	39126.74
502.37	39709.53
502.55	39646.33
502.72	39580.80
502.90	39906.13
503.07	39482.50
503.25	39569.10
503.43	39990.39
503.60	39859.32
503.78	40271.26
503.95	40399.99
504.13	40652.76
504.30	40533.40
504.48	40332.11
504.65	41076.40
504.83	41160.66
505.01	41277.69
505.18	41024.91
505.36	42029.00
505.53	41195.77
505.71	41619.41
505.88	41748.14
506.06	41507.06
506.23	42157.73
506.41	41762.18
506.58	42316.89
506.76	42351.99
506.93	42597.75
507.11	42443.27
507.28	42834.14
507.46	42649.24
507.63	42721.80
507.81	43583.12
507.98	43239.06
508.16	43196.93
508.33	43529.28
508.50	43805.47
508.68	43592.48
508.85	44257.19
509.03	44055.90
509.20	44406.98
509.38	44406.98
509.55	44601.25
509.73	44582.52
509.90	44741.68
510.08	44322.72
510.25	44500.61
510.42	45193.40
510.60	45193.40
510.77	45294.05
510.95	45495.33
511.12	45134.89
511.30	44949.99
511.47	45624.06
511.64	45684.92
511.82	46000.89
511.99	45797.26
512.17	46176.43
512.34	45827.69
512.51	46873.91
512.69	46469.00
512.86	46267.71
513.04	46581.34
513.21	46892.63
513.38	47002.64
513.56	47072.85
513.73	46976.89
513.90	47133.71
514.08	46967.53
514.25	47349.04
514.43	48102.69
514.60	47641.60
514.77	47393.51
514.95	47854.59
515.12	47435.64
515.29	47693.10
515.47	48107.37
515.64	48264.19
515.81	47938.85
515.99	48596.54
516.16	48282.91
516.33	48439.73
516.51	48884.43
516.68	48645.69
516.85	48655.06
517.03	49066.99
517.20	49200.40
517.37	49001.46
517.54	48945.28
517.72	49205.08
517.89	49172.31
518.06	49439.14
518.24	49404.03
518.41	49336.15
518.58	49361.90
518.75	49385.30
518.93	49607.65
519.10	49319.77
519.27	50115.55
519.45	49830.01
519.62	50188.11
519.79	50050.02
519.96	50150.66
520.14	50003.20
520.31	50246.62
520.48	50578.98
520.65	50452.59
520.83	50445.57
521.00	50834.10
521.17	50628.13
521.34	50988.57
521.52	50691.32
521.69	50721.75
521.86	51180.49
522.03	50742.81
522.20	51274.12
522.38	51594.77
522.55	51189.86
522.72	51470.72
522.89	51278.80
523.07	51955.21
523.24	51409.87
523.41	51695.41
523.58	51236.67
523.75	52191.61
523.92	51859.25
524.10	52399.91
524.27	52212.67
524.44	52102.67
524.61	52257.14
524.78	52315.65
524.96	52491.19
525.13	52418.64
525.30	52835.25
525.47	52622.26
525.64	52547.37
525.81	52657.37
525.98	53123.14
526.16	52734.61
526.33	52648.01
526.50	52966.32
526.67	53141.86
526.84	52975.69
527.01	53160.59
527.18	52870.36
527.36	53130.16
527.53	53008.45
527.70	53315.06
527.87	53567.84
528.04	53359.53
528.21	53734.02
528.38	53359.53
528.55	53691.89
528.72	53279.96
528.89	53511.67
529.07	53572.52
529.24	53757.42
529.41	53567.84
529.58	53785.51
529.75	53776.15
529.92	53825.30
530.09	53989.14
530.26	54141.27
530.43	54279.36
530.60	53890.83
530.77	53977.43
530.94	54206.81
531.11	54319.15
531.28	54115.53
531.46	54501.71
531.63	54314.47
531.80	54071.06
531.97	54408.09
532.14	54555.55
532.31	54607.04
532.48	54513.42
532.65	54927.69
532.82	54494.69
532.99	54717.04
533.16	54808.32
533.33	54777.90
533.50	55051.74
533.67	54817.69
533.84	54958.12
534.01	54855.14
534.18	54887.90
534.35	55210.90
534.52	55089.19
534.69	55496.44
534.86	55702.41
535.03	55379.42
535.20	55231.96
535.37	55538.57
535.54	55288.13
535.71	55313.88
535.88	55657.94
536.05	55634.53
536.22	55735.18
536.38	55615.81
536.55	55454.31
536.72	55414.52
536.89	55655.60
537.06	55976.25
537.23	56081.58
537.40	55784.33
537.57	55737.52
537.74	55863.91
537.91	56175.20
538.08	56203.28
538.25	55833.48
538.42	56041.79
538.59	56252.44
538.75	56107.32
538.92	56135.41
539.09	56301.59
539.26	56093.28
539.43	56102.64
539.60	56266.48
539.77	56203.28
539.94	56697.14
540.11	56334.35
540.28	56662.03
540.44	56626.92
540.61	56594.15
540.78	56264.14
540.95	56718.20
541.12	56666.71
541.29	56610.54
541.46	56655.01
541.62	56659.69
541.79	56720.54
541.96	56271.16
542.13	56575.43
542.30	56793.10
542.47	56973.32
542.63	56907.79
542.80	56980.34
542.97	57162.90
543.14	57111.41
543.31	57137.16
543.48	57478.88
543.64	57513.98
543.81	57286.95
543.98	57127.80
544.15	57333.76
544.32	57701.23
544.48	57476.54
544.65	57305.68
544.82	57406.32
544.99	57216.74
545.16	57539.73
545.32	57476.54
545.49	57923.58
545.66	57759.74
545.83	57666.12
546.00	57652.08
546.16	57797.19
546.33	57722.29
546.50	57546.75
546.67	57909.53
546.83	57485.90
547.00	57684.84
547.17	57726.97
547.34	57675.48
547.50	57958.69
547.67	58218.49
547.84	58206.78
548.00	58295.72
548.17	58410.41
548.34	58291.04
548.51	58323.81
548.67	58075.71
548.84	58115.50
549.01	58056.99
549.18	58487.65
549.34	58183.38
549.51	58195.08
549.68	58401.05
549.84	58459.56
550.01	58585.95
550.18	58361.26
550.34	58553.18
550.51	58492.33
550.68	58539.14
550.84	58307.43
551.01	58848.09
551.18	58447.86
551.34	58724.04
551.51	58536.80
551.68	58562.54
551.84	58529.78
552.01	58588.29
552.18	58604.67
552.34	58705.32
552.51	58930.01
552.68	58623.40
552.84	58714.68
553.01	58735.74
553.18	58922.99
553.34	59147.68
553.51	58878.52
553.67	58766.17
553.84	59037.67
554.01	59187.47
554.17	58995.54
554.34	59068.10
554.51	59260.02
554.67	59147.68
554.84	59107.89
555.00	59072.78
555.17	59110.23
555.33	59056.40
555.50	59107.89
555.67	59056.40
555.83	59014.27
556.00	59276.41
556.16	59564.29
556.33	59412.16
556.50	59220.23
556.66	59316.20
556.83	59185.13
556.99	59494.08
557.16	59505.78
557.32	59585.36
557.49	59828.77
557.65	59313.86
557.82	59407.48
557.98	59494.08
558.15	59470.67
558.32	59716.43
558.48	59482.37
558.65	59718.77
558.81	59688.34
558.98	59723.45
559.14	59576.00
559.31	59753.88
559.47	59709.41
559.64	59697.70
559.80	59655.57
559.97	59716.43
560.13	59700.04
560.30	59810.05
560.46	59686.00
560.63	59831.11
560.79	59810.05
560.96	59983.25
561.12	60065.17
561.29	59625.15
561.45	59962.18
561.61	59901.33
561.78	59908.35
561.94	59784.30
562.11	59718.77
562.27	59934.10
562.44	60037.08
562.60	60093.25
562.77	60088.57
562.93	59821.75
563.10	60254.75
563.26	60055.81
563.42	60245.39
563.59	60217.30
563.75	60177.51
563.92	60025.38
564.08	60149.43
564.24	60301.56
564.41	60289.86
564.57	60275.82
564.74	60126.02
564.90	60310.92
565.07	60353.05
565.23	60247.73
565.39	60137.72
565.56	60430.29
565.72	60348.37
565.88	60500.51
566.05	60189.22
566.21	60193.90
566.38	60282.84
566.54	60371.78
566.70	60509.87
566.87	60404.55
567.03	60210.28
567.19	60488.80
567.36	60526.25
567.52	60278.16
567.68	60741.58
567.85	60617.53
568.01	60530.93
568.17	60229.01
568.34	60526.25
568.50	60559.02
568.66	60327.31
568.83	60507.53
568.99	60530.93
569.15	60317.95
569.32	60662.00
569.48	60413.91
569.64	60516.89
569.81	60439.65
569.97	60374.12
570.13	60631.58
570.30	60301.56
570.46	60680.73
570.62	60832.86
570.78	60722.86
570.95	60313.26
571.11	60619.88
571.27	60657.32
571.43	60671.37
571.60	60540.30
571.76	60636.26
571.92	60676.05
572.09	60821.16
572.25	60540.30
572.41	60718.18
572.57	60645.62
572.74	60931.17
572.90	60554.34
573.06	60828.18
573.22	60568.38
573.38	60643.28
573.55	60645.62
573.71	60996.70
573.87	60706.47
574.03	60605.83
574.20	60699.45
574.36	60685.41
574.52	60982.66
574.68	60727.54
574.84	61031.81
575.01	60889.04
575.17	60933.51
575.33	60800.10
575.49	60804.78
575.65	60807.12
575.82	60769.67
575.98	60851.59
576.14	60942.87
576.30	61064.58
576.46	60764.99
576.62	60807.12
576.79	60846.91
576.95	60580.09
577.11	61041.17
577.27	60942.87
577.43	60720.52
577.59	60807.12
577.75	60865.63
577.92	60755.63
578.08	60816.48
578.24	60807.12
578.40	61083.30
578.56	61104.37
578.72	61057.56
578.88	61048.19
579.04	61076.28
579.21	61106.71
579.37	61029.47
579.53	61160.54
579.69	60772.01
579.85	60692.43
580.01	60898.40
580.17	60917.12
580.33	61036.49
580.49	61003.72
580.65	60987.34
580.82	60926.49
580.98	60809.46
581.14	60947.55
581.30	61038.83
581.46	61080.96
581.62	60874.99
581.78	60966.27
581.94	61109.05
582.10	61064.58
582.26	61104.37
582.42	61020.11
582.58	60973.30
582.74	60863.29
582.90	61024.79
583.06	60999.04
583.22	60900.74
583.38	61205.01
583.54	61106.71
583.70	61237.78
583.86	60980.32
584.02	61167.56
584.18	61293.95
584.34	60996.70
584.50	61221.39
584.66	61055.21
584.82	60921.80
584.98	61298.63
585.14	61155.86
585.30	61144.16
585.46	61155.86
585.62	61062.24
585.78	61240.12
585.94	60985.00
586.10	60982.66
586.26	61087.98
586.42	61095.00
586.58	60994.36
586.74	61092.66
586.90	60921.80
587.06	61020.11
587.22	61066.92
587.38	61003.72
587.54	61347.78
587.70	61240.12
587.86	61144.16
588.02	61193.31
588.18	61207.35
588.34	61183.94
588.49	61146.50
