SpectraSuite Data File
++++++++++++++++++++++++++++++++++++
Date: Fri Oct 25 11:26:35 EDT 2013
User: price-jones
Dark Spectrum Present: No
Reference Spectrum Present: No
Number of Sampled Component Spectra: 1
Spectrometers: USB2+H05261
Integration Time (usec): 100000 (USB2+H05261)
Spectra Averaged: 1 (USB2+H05261)
Boxcar Smoothing: 0 (USB2+H05261)
Correct for Electrical Dark: No (USB2+H05261)
Strobe/Lamp Enabled: No (USB2+H05261)
Correct for Detector Non-linearity: No (USB2+H05261)
Correct for Stray Light: No (USB2+H05261)
Number of Pixels in Processed Spectrum: 2048
>>>>>Begin Processed Spectral Data<<<<<
365.73	304.27
365.92	304.27
366.12	304.27
366.32	95.96
366.52	102.98
366.72	110.01
366.91	128.73
367.11	173.20
367.31	65.54
367.51	166.18
367.70	159.16
367.90	161.50
368.10	133.41
368.30	166.18
368.49	81.92
368.69	126.39
368.89	147.45
369.09	191.92
369.28	107.66
369.48	112.35
369.68	142.77
369.87	238.73
370.07	138.09
370.27	248.10
370.47	315.97
370.66	664.71
370.86	709.18
371.06	692.80
371.25	655.35
371.45	727.91
371.65	704.50
371.84	685.78
372.04	657.69
372.24	732.59
372.44	711.52
372.63	667.05
372.83	765.36
373.03	788.76
373.22	795.78
373.42	812.17
373.62	746.63
373.81	755.99
374.01	835.57
374.21	770.04
374.40	844.93
374.60	819.19
374.79	851.96
374.99	837.91
375.19	826.21
375.38	875.36
375.58	919.83
375.78	905.79
375.97	882.38
376.17	894.08
376.37	856.64
376.56	933.87
376.76	877.70
376.95	861.32
377.15	835.57
377.35	912.81
377.54	924.51
377.74	954.94
377.93	926.85
378.13	868.34
378.33	933.87
378.52	919.83
378.72	901.11
378.91	912.81
379.11	908.13
379.31	945.58
379.50	978.34
379.70	945.58
379.89	1029.84
380.09	1020.47
380.28	940.90
380.48	1006.43
380.68	1053.24
380.87	1025.15
381.07	1043.88
381.26	1060.26
381.46	1064.94
381.65	966.64
381.85	1020.47
382.04	1093.03
382.24	1100.05
382.43	1114.10
382.63	1018.13
382.83	1027.50
383.02	1132.82
383.22	1142.18
383.41	1032.18
383.61	1104.73
383.80	1097.71
384.00	1109.41
384.19	1109.41
384.39	1153.88
384.58	1156.22
384.78	1139.84
384.97	1203.04
385.17	1207.72
385.36	1191.33
385.56	1167.93
385.75	1224.10
385.95	1196.01
386.14	1214.74
386.34	1177.29
386.53	1238.14
386.72	1200.69
386.92	1247.51
387.11	1233.46
387.31	1259.21
387.50	1282.61
387.70	1193.67
387.89	1320.06
388.09	1231.12
388.28	1289.64
388.48	1352.83
388.67	1338.79
388.86	1324.74
389.06	1345.81
389.25	1348.15
389.45	1357.51
389.64	1303.68
389.84	1296.66
390.03	1493.26
390.22	1390.28
390.42	1383.26
390.61	1376.24
390.81	1299.00
391.00	1364.53
391.19	1504.96
391.39	1378.58
391.58	1476.88
391.78	1467.52
391.97	1497.94
392.16	1467.52
392.36	1474.54
392.55	1467.52
392.75	1526.03
392.94	1502.62
393.13	1465.18
393.33	1530.71
393.52	1511.99
393.71	1507.30
393.91	1621.99
394.10	1540.07
394.29	1643.06
394.49	1621.99
394.68	1675.82
394.88	1678.16
395.07	1591.56
395.26	1701.57
395.46	1640.72
395.65	1774.13
395.84	1743.70
396.04	1853.70
396.23	1734.34
396.42	1708.59
396.62	1722.63
396.81	1715.61
397.00	1846.68
397.19	1891.15
397.39	1832.64
397.58	1839.66
397.77	1753.06
397.97	1846.68
398.16	1923.92
398.35	1900.52
398.55	1762.42
398.74	1940.30
398.93	1975.41
399.12	1944.99
399.32	1930.94
399.51	2012.86
399.70	1982.43
399.90	1935.62
400.09	2015.20
400.28	2010.52
400.47	2008.18
400.67	2120.53
400.86	2113.50
401.05	2087.76
401.24	2080.74
401.44	2176.70
401.63	2153.29
401.82	2232.87
402.01	2169.68
402.21	2153.29
402.40	2230.53
402.59	2221.17
402.78	2244.57
402.97	2242.23
403.17	2319.47
403.36	2370.96
403.55	2382.67
403.74	2314.79
403.93	2429.48
404.13	2424.80
404.32	2396.71
404.51	2497.35
404.70	2487.99
404.89	2429.48
405.09	2532.46
405.28	2452.88
405.47	2523.10
405.66	2558.21
405.85	2504.37
406.05	2546.50
406.24	2607.36
406.43	2614.38
406.62	2609.70
406.81	2700.98
407.00	2544.16
407.20	2567.57
407.39	2689.28
407.58	2698.64
407.77	2628.42
407.96	2743.11
408.15	2820.35
408.34	2787.58
408.54	2855.45
408.73	2881.20
408.92	2796.94
409.11	2946.73
409.30	2892.90
409.49	2888.22
409.68	2988.86
409.87	2953.76
410.07	3049.72
410.26	3098.87
410.45	2951.42
410.64	2956.10
410.83	3096.53
411.02	3091.85
411.21	3164.40
411.40	3150.36
411.59	3304.84
411.78	3148.02
411.98	3026.31
412.17	3290.79
412.36	3267.39
412.55	3417.18
412.74	3426.54
412.93	3461.65
413.12	3363.35
413.31	3569.32
413.50	3517.83
413.69	3616.13
413.88	3679.32
414.07	3765.92
414.26	3618.47
414.45	3625.49
414.64	3756.56
414.83	3686.34
415.02	3843.16
415.22	3892.31
415.41	3894.65
415.60	3838.48
415.79	3918.06
415.98	4037.42
416.17	3908.69
416.36	3934.44
416.55	4074.87
416.74	4058.49
416.93	4037.42
417.12	4093.60
417.31	3950.82
417.50	4131.05
417.69	4325.31
417.88	4280.84
418.07	4334.67
418.26	4430.63
418.45	4402.55
418.64	4540.64
418.83	4383.82
419.02	4383.82
419.21	4482.13
419.39	4510.21
419.58	4463.40
419.77	4566.39
419.96	4662.35
420.15	4552.34
420.34	4498.51
420.53	4568.73
420.72	4753.63
420.91	4585.11
421.10	4643.62
421.29	4844.91
421.48	4840.23
421.67	4770.01
421.86	4823.84
422.05	4837.89
422.24	4765.33
422.43	4952.57
422.61	4978.32
422.80	5004.07
422.99	4842.57
423.18	4880.02
423.37	4959.60
423.56	5006.41
423.75	4917.47
423.94	5008.75
424.13	4585.11
424.32	4854.27
424.50	4849.59
424.69	5020.45
424.88	5160.88
425.07	5032.15
425.26	4973.64
425.45	5109.39
425.64	4919.81
425.83	5067.26
426.01	5128.11
426.20	4999.38
426.39	4997.04
426.58	5062.58
426.77	5198.33
426.96	5191.31
427.15	5100.03
427.33	5217.05
427.52	5186.63
427.71	5338.76
427.90	5303.65
428.09	5301.31
428.28	5252.16
428.46	5366.85
428.65	5434.72
428.84	5397.28
429.03	5511.96
429.22	5282.59
429.40	5434.72
429.59	5493.24
429.78	5434.72
429.97	5425.36
430.16	5542.39
430.34	5661.76
430.53	5689.84
430.72	5664.10
430.91	5666.44
431.10	5544.73
431.28	5802.19
431.47	5853.68
431.66	5771.76
431.85	5741.33
432.03	5928.58
432.22	6033.90
432.41	5947.30
432.60	5919.21
432.79	6136.88
432.97	6069.01
433.16	6057.31
433.35	5982.41
433.54	6155.61
433.72	6193.06
433.91	6174.33
434.10	6202.42
434.28	6143.91
434.47	6200.08
434.66	6258.59
434.85	6300.72
435.03	6354.55
435.22	6251.57
435.41	6588.61
435.59	6499.67
435.78	6473.92
435.97	6333.49
436.16	6483.28
436.34	6415.41
436.53	6363.92
436.72	6586.27
436.90	6544.14
437.09	6588.61
437.28	6417.75
437.46	6700.95
437.65	6759.47
437.84	6794.58
438.02	6867.13
438.21	6920.96
438.40	6759.47
438.58	6993.52
438.77	7112.89
438.96	7098.84
439.14	7152.68
439.33	7199.49
439.52	7152.68
439.70	7211.19
439.89	7330.56
440.08	7297.79
440.26	7492.05
440.45	7342.26
440.63	7573.97
440.82	7709.72
441.01	7562.27
441.19	7672.28
441.38	7791.64
441.57	7840.79
441.75	7801.01
441.94	8168.47
442.12	7929.74
442.31	8042.08
442.50	8224.64
442.68	8063.15
442.87	8116.98
443.05	8098.25
443.24	8180.17
443.43	7932.08
443.61	8362.73
443.80	8564.02
443.98	8009.31
444.17	7925.05
444.35	8255.07
444.54	8449.33
444.73	8575.72
444.91	8271.45
445.10	8280.82
445.28	8503.17
445.47	8444.65
445.65	8311.24
445.84	8461.04
446.02	8449.33
446.21	8358.05
446.39	8395.50
446.58	8587.43
446.77	8353.37
446.95	8409.54
447.14	8535.93
447.32	8622.53
447.51	8372.10
447.69	8549.98
447.88	8491.46
448.06	8613.17
448.25	8376.78
448.43	8542.96
448.62	8587.43
448.80	8428.27
448.99	8613.17
449.17	8863.61
449.36	8638.92
449.54	8922.12
449.73	8676.37
449.91	9020.42
450.10	9114.05
450.28	9060.21
450.46	9013.40
450.65	9001.70
450.83	9114.05
451.02	9076.60
451.20	9177.24
451.39	9233.41
451.57	9226.39
451.76	9296.61
451.94	9200.65
452.13	9504.92
452.31	9238.09
452.49	9270.86
452.68	9439.38
452.86	9371.50
453.05	9687.48
453.23	9511.94
453.42	9202.99
453.60	9385.55
453.78	9640.67
453.97	9549.39
454.15	9621.94
454.34	9586.83
454.52	9692.16
454.70	9823.23
454.89	9893.44
455.07	9781.10
455.26	9975.36
455.44	10066.64
455.62	9877.06
455.81	9804.50
455.99	10031.54
456.17	10197.71
456.36	10281.97
456.54	10221.12
456.73	10097.07
456.91	10588.58
457.09	10619.01
457.28	10590.92
457.46	10455.17
457.64	10469.22
457.83	10640.08
458.01	10312.40
458.19	10740.72
458.38	10649.44
458.56	10693.91
458.74	10658.80
458.93	10888.17
459.11	10857.75
459.29	10731.36
459.48	10785.19
459.66	10909.24
459.84	10923.28
460.03	11150.31
460.21	11171.38
460.39	11272.02
460.57	10916.26
460.76	11183.08
460.94	11454.58
461.12	11367.98
461.31	11253.30
461.49	11215.85
461.67	11000.52
461.85	11543.52
462.04	11466.28
462.22	11585.65
462.40	11761.19
462.59	11461.60
462.77	11417.13
462.95	11843.11
463.13	11548.20
463.32	11784.60
463.50	11833.75
463.68	11779.92
463.86	11899.28
464.05	11847.79
464.23	11655.87
464.41	11903.96
464.59	11751.83
464.78	12077.16
464.96	12098.23
465.14	11798.64
465.32	12028.01
465.50	12042.06
465.69	12154.40
465.87	12032.69
466.05	12119.29
466.23	12025.67
466.41	12273.77
466.60	12685.70
466.78	12163.76
466.96	12451.65
467.14	12219.94
467.32	12397.82
467.51	12327.60
467.69	12304.20
467.87	12517.18
468.05	12898.69
468.23	12512.50
468.41	12475.06
468.60	12861.24
468.78	12732.51
468.96	12681.02
469.14	12802.73
469.32	13121.04
469.50	12587.40
469.69	12936.14
469.87	13095.30
470.05	13303.60
470.23	13308.29
470.41	13076.57
470.59	13366.80
470.77	13130.41
470.95	13252.11
471.14	13654.69
471.32	13107.00
471.50	13535.32
471.68	13540.00
471.86	13575.11
472.04	13736.60
472.22	13958.96
472.40	13757.67
472.58	13940.23
472.77	13998.74
472.95	14513.66
473.13	14422.38
473.31	13865.33
473.49	14413.02
473.67	14164.92
473.85	14394.29
474.03	14761.76
474.21	14530.05
474.39	14787.50
474.57	14677.50
474.75	14988.79
474.93	15272.00
475.12	14979.43
475.30	15103.48
475.48	15133.90
475.66	15332.85
475.84	15178.37
476.02	15576.27
476.20	15412.43
476.38	15709.68
476.56	15936.71
476.74	16123.95
476.92	15695.63
477.10	15812.66
477.28	16421.20
477.46	16114.59
477.64	16360.34
477.82	16718.45
478.00	16816.75
478.18	16903.35
478.36	17174.85
478.54	16992.29
478.72	17137.40
478.90	17537.63
479.08	17497.84
479.26	17561.04
479.44	17994.04
479.62	17804.46
479.80	18228.09
479.98	18181.28
480.16	18759.39
480.34	18258.52
480.52	18658.75
480.70	18824.93
480.88	18658.75
481.06	18670.45
481.24	19012.17
481.41	19115.16
481.59	19393.68
481.77	19524.75
481.95	19489.64
482.13	19866.47
482.31	19758.80
482.49	20341.60
482.67	20187.12
482.85	20418.83
483.03	20755.87
483.21	20900.98
483.39	20971.20
483.57	20966.52
483.74	21193.55
483.92	21298.88
484.10	21287.17
484.28	22143.81
484.46	22085.30
484.64	22333.39
484.82	22183.60
485.00	22277.22
485.18	22906.82
485.35	23164.28
485.53	22792.14
485.71	22937.25
485.89	24100.50
486.07	23178.33
486.25	23517.70
486.43	23711.97
486.61	24016.24
486.78	24030.28
486.96	24018.58
487.14	24709.04
487.32	24786.27
487.50	24931.39
487.68	24971.18
487.85	25617.16
488.03	25881.64
488.21	25813.77
488.39	26171.87
488.57	26080.59
488.75	26068.89
488.92	26363.79
489.10	26742.96
489.28	26859.99
489.46	27314.05
489.64	27393.63
489.81	27784.50
489.99	27903.87
490.17	28011.53
490.35	28238.56
490.53	28135.58
490.70	28350.91
490.88	28453.89
491.06	29172.44
491.24	28893.91
491.41	29216.91
491.59	29319.89
491.77	29551.60
491.95	29626.50
492.13	30085.25
492.30	30307.60
492.48	30199.93
492.66	30288.87
492.84	30380.15
493.01	31161.89
493.19	30756.98
493.37	31503.61
493.54	31002.74
493.72	31784.48
493.90	32060.66
494.08	31936.61
494.25	32283.01
494.43	31957.67
494.61	32364.93
494.79	32278.33
494.96	32458.55
495.14	32547.49
495.32	33212.20
495.49	33027.30
495.67	33553.92
495.85	33809.04
496.02	33792.65
496.20	34242.04
496.38	34003.30
496.55	34497.16
496.73	35108.04
496.91	34771.00
497.09	34780.36
497.26	34873.98
497.44	35140.80
497.62	35140.80
497.79	35704.87
497.97	35611.25
498.14	36100.42
498.32	36304.05
498.50	35971.69
498.67	36697.26
498.85	36182.34
499.03	36474.91
499.20	37038.98
499.38	37191.11
499.56	37170.05
499.73	37270.69
499.91	37420.48
500.08	37619.43
500.26	37738.80
500.44	37848.80
500.61	38403.51
500.79	37979.87
500.97	38319.25
501.14	38862.26
501.32	38864.60
501.49	38710.12
501.67	39047.16
501.84	39189.93
502.02	39206.31
502.20	39147.80
502.37	39482.50
502.55	39454.41
502.72	39440.37
502.90	39716.55
503.07	39793.79
503.25	39943.58
503.43	39276.53
503.60	40177.64
503.78	40102.74
503.95	39997.41
504.13	40594.25
504.30	41373.65
504.48	40870.43
504.65	40840.01
504.83	41200.45
505.01	41792.61
505.18	41216.83
505.36	41326.84
505.53	41516.42
505.71	41942.40
505.88	42440.93
506.06	41684.94
506.23	41923.68
506.41	42176.45
506.58	42234.97
506.76	42197.52
506.93	42515.83
507.11	42277.10
507.28	42328.59
507.46	42897.34
507.63	42988.62
507.81	43262.46
507.98	43068.20
508.16	43379.49
508.33	43522.26
508.50	43594.82
508.68	43899.09
508.85	44168.25
509.03	44114.42
509.20	44037.18
509.38	44399.96
509.55	44458.48
509.73	44390.60
509.90	44905.52
510.08	45041.27
510.25	44673.81
510.42	44893.82
510.60	45457.88
510.77	45366.60
510.95	45593.64
511.12	45434.48
511.30	45411.07
511.47	45621.72
511.64	45418.10
511.82	45813.65
511.99	46031.32
512.17	46209.20
512.34	46199.83
512.51	46410.48
512.69	46642.20
512.86	46920.72
513.04	47012.00
513.21	46782.63
513.38	46937.10
513.56	47056.47
513.73	46618.79
513.90	47257.76
514.08	46995.62
514.25	47327.97
514.43	47662.67
514.60	47547.98
514.77	47739.91
514.95	47753.95
515.12	47852.25
515.29	47327.97
515.47	47915.45
515.64	48339.08
515.81	48603.56
515.99	48594.20
516.16	48170.57
516.33	48563.78
516.51	48502.92
516.68	48645.69
516.85	48715.91
517.03	49083.37
517.20	49139.55
517.37	48940.60
517.54	48830.60
517.72	48996.77
517.89	49249.55
518.06	48999.12
518.24	49022.52
518.41	49277.64
518.58	49137.21
518.75	49354.88
518.93	49837.03
519.10	49495.31
519.27	49851.07
519.45	49780.85
519.62	50204.49
519.79	49947.03
519.96	50162.36
520.14	50478.33
520.31	50195.13
520.48	50787.28
520.65	50506.42
520.83	50974.53
521.00	50866.86
521.17	51026.02
521.34	51021.34
521.52	51033.04
521.69	51117.30
521.86	50869.20
522.03	51030.70
522.20	51470.72
522.38	51936.49
522.55	51320.93
522.72	51316.25
522.89	51732.86
523.07	51634.56
523.24	51437.95
523.41	51873.29
523.58	51597.11
523.75	51805.42
523.92	51789.03
524.10	51997.34
524.27	52308.63
524.44	52020.75
524.61	52095.64
524.78	52224.37
524.96	52280.55
525.13	52376.51
525.30	52402.25
525.47	52802.49
525.64	52507.58
525.81	52900.79
525.98	52549.71
526.16	52638.65
526.33	52811.85
526.50	53183.99
526.67	53090.37
526.84	53123.14
527.01	53059.94
527.18	52863.34
527.36	53085.69
527.53	53186.33
527.70	53551.46
527.87	53689.55
528.04	53294.00
528.21	53537.41
528.38	53607.63
528.55	53375.92
528.72	53488.26
528.89	53656.78
529.07	53525.71
529.24	53535.07
529.41	53731.68
529.58	53907.22
529.75	53684.87
529.92	53736.36
530.09	53872.11
530.26	54085.10
530.43	53942.33
530.60	53949.35
530.77	54129.57
530.94	54234.89
531.11	54162.34
531.28	54260.64
531.46	54581.29
531.63	54539.16
531.80	54274.68
531.97	54335.54
532.14	54784.92
532.31	54277.02
532.48	54417.46
532.65	54845.77
532.82	54770.88
532.99	54850.45
533.16	54632.78
533.33	54904.29
533.50	55182.81
533.67	54962.80
533.84	54775.56
534.01	55063.44
534.18	55000.25
534.35	55496.44
534.52	55124.30
534.69	55309.20
534.86	55325.58
535.03	55215.58
535.20	55278.77
535.37	55468.36
535.54	55407.50
535.71	55423.89
535.88	55730.50
536.05	55554.96
536.22	55625.17
536.38	55622.83
536.55	55526.87
536.72	55777.31
536.89	55634.53
537.06	55667.30
537.23	55845.18
537.40	55660.28
537.57	55835.82
537.74	55838.16
537.91	55821.78
538.08	56371.80
538.25	55824.12
538.42	56095.62
538.59	56004.34
538.75	55866.25
538.92	56044.13
539.09	56306.27
539.26	56395.21
539.43	56074.55
539.60	56296.91
539.77	56376.48
539.94	56530.96
540.11	56360.10
540.28	56643.30
540.44	56687.78
540.61	56385.85
540.78	56442.02
540.95	56402.23
541.12	56594.15
541.29	56500.53
541.46	56528.62
541.62	56868.00
541.79	56940.55
541.96	56692.46
542.13	56690.12
542.30	56783.74
542.47	56996.73
542.63	57041.20
542.80	57111.41
542.97	57221.42
543.14	57474.20
543.31	57254.18
543.48	57340.78
543.64	57359.51
543.81	57399.30
543.98	57293.97
544.15	57415.68
544.32	57481.22
544.48	57776.12
544.65	57380.57
544.82	57490.58
544.99	57420.36
545.16	57696.55
545.32	57532.71
545.49	57902.51
545.66	57951.66
545.83	57776.12
546.00	57895.49
546.16	57710.59
546.33	57497.60
546.50	57528.03
546.67	57766.76
546.83	57291.63
547.00	57820.59
547.17	57825.28
547.34	58007.84
547.50	58108.48
547.67	57991.45
547.84	58094.44
548.00	58202.10
548.17	58349.56
548.34	58183.38
548.51	58312.11
548.67	58267.64
548.84	58298.06
549.01	58042.95
549.18	58277.00
549.34	58368.28
549.51	58377.64
549.68	58489.99
549.84	58588.29
550.01	58370.62
550.18	58398.71
550.34	58473.60
550.51	58607.01
550.68	58602.33
550.84	58227.85
551.01	58721.70
551.18	58513.39
551.34	58550.84
551.51	58480.63
551.68	58789.58
551.84	58497.01
552.01	58489.99
552.18	58644.46
552.34	58541.48
552.51	58707.66
552.68	58639.78
552.84	58766.17
553.01	58997.88
553.18	58871.49
553.34	58934.69
553.51	58983.84
553.67	59121.93
553.84	59028.31
554.01	58922.99
554.17	59248.32
554.34	58946.39
554.51	58932.35
554.67	59168.74
554.84	59255.34
555.00	59121.93
555.17	59072.78
555.33	58944.05
555.50	58904.26
555.67	58946.39
555.83	59285.77
556.00	59175.76
556.16	59449.61
556.33	59264.70
556.50	59274.07
556.66	59480.03
556.83	59360.67
556.99	59475.35
557.16	59517.48
557.32	59372.37
557.49	59721.11
557.65	59346.62
557.82	59351.30
557.98	59433.22
558.15	59508.12
558.32	59725.79
558.48	59428.54
558.65	59615.79
558.81	59608.76
558.98	59662.60
559.14	59709.41
559.31	59599.40
559.47	59835.80
559.64	59779.62
559.80	59803.03
559.97	59847.50
560.13	59863.88
560.30	59840.48
560.46	59779.62
560.63	59763.24
560.79	59870.90
560.96	59913.03
561.12	59983.25
561.29	60001.97
561.45	59999.63
561.61	59786.64
561.78	59924.74
561.94	60069.85
562.11	59929.42
562.27	59917.71
562.44	60179.85
562.60	60172.83
562.77	59870.90
562.93	59990.27
563.10	60168.15
563.26	59987.93
563.42	60315.61
563.59	60203.26
563.75	59999.63
563.92	60250.07
564.08	60060.49
564.24	60205.60
564.41	59973.89
564.57	60374.12
564.74	60126.02
564.90	60301.56
565.07	60193.90
565.23	60140.07
565.39	60168.15
565.56	60353.05
565.72	60069.85
565.88	60327.31
566.05	60191.56
566.21	60238.37
566.38	60308.58
566.54	60158.79
566.70	60320.29
566.87	60308.58
567.03	60254.75
567.19	60472.42
567.36	60399.86
567.52	60514.55
567.68	60715.84
567.85	60561.36
568.01	60622.22
568.17	60245.39
568.34	60484.12
568.50	60491.15
568.66	60339.01
568.83	60559.02
568.99	60488.80
569.15	60507.53
569.32	60463.06
569.48	60603.49
569.64	60542.64
569.81	60552.00
569.97	60388.16
570.13	60626.90
570.30	60498.17
570.46	60654.98
570.62	60664.35
570.78	60568.38
570.95	60472.42
571.11	60472.42
571.27	60640.94
571.43	60626.90
571.60	60591.79
571.76	60678.39
571.92	60605.83
572.09	60519.23
572.25	60750.94
572.41	60526.25
572.57	60519.23
572.74	61020.11
572.90	60687.75
573.06	60725.20
573.22	60797.76
573.38	60720.52
573.55	60552.00
573.71	61006.06
573.87	60711.16
574.03	60643.28
574.20	60699.45
574.36	60687.75
574.52	60825.84
574.68	60624.56
574.84	60846.91
575.01	60879.67
575.17	60760.31
575.33	60776.69
575.49	60537.96
575.65	60591.79
575.82	60793.07
575.98	60818.82
576.14	61022.45
576.30	60982.66
576.46	60903.08
576.62	60783.71
576.79	60886.70
576.95	60584.77
577.11	60917.12
577.27	60853.93
577.43	60863.29
577.59	60821.16
577.75	60622.22
577.92	60968.61
578.08	60903.08
578.24	60781.37
578.40	60996.70
578.56	61059.90
578.72	60835.20
578.88	61041.17
579.04	61090.32
579.21	60992.02
579.37	60903.08
579.53	61134.79
579.69	60842.23
579.85	60769.67
580.01	60676.05
580.17	60835.20
580.33	61087.98
580.49	61151.18
580.65	60996.70
580.82	61176.92
580.98	60853.93
581.14	61062.24
581.30	61188.63
581.46	61097.34
581.62	60821.16
581.78	60898.40
581.94	61071.60
582.10	61085.64
582.26	60966.27
582.42	60898.40
582.58	61109.05
582.74	60917.12
582.90	61015.43
583.06	60839.89
583.22	60851.59
583.38	61031.81
583.54	61036.49
583.70	61048.19
583.86	61102.03
584.02	60889.04
584.18	61144.16
584.34	60977.98
584.50	61078.62
584.66	60889.04
584.82	61010.74
584.98	61375.87
585.14	61247.14
585.30	61010.74
585.46	61125.43
585.62	60999.04
585.78	61268.20
585.94	61036.49
586.10	61069.26
586.26	61148.84
586.42	61106.71
586.58	61322.04
586.74	61319.70
586.90	61013.08
587.06	61141.81
587.22	61188.63
587.38	60999.04
587.54	61307.99
587.70	61408.64
587.86	61132.45
588.02	61165.22
588.18	61322.04
588.34	61284.59
