SpectraSuite Data File
++++++++++++++++++++++++++++++++++++
Date: Fri Oct 25 11:22:49 EDT 2013
User: price-jones
Dark Spectrum Present: No
Reference Spectrum Present: No
Number of Sampled Component Spectra: 1
Spectrometers: USB2+H05261
Integration Time (usec): 100000 (USB2+H05261)
Spectra Averaged: 1 (USB2+H05261)
Boxcar Smoothing: 0 (USB2+H05261)
Correct for Electrical Dark: No (USB2+H05261)
Strobe/Lamp Enabled: No (USB2+H05261)
Correct for Detector Non-linearity: No (USB2+H05261)
Correct for Stray Light: No (USB2+H05261)
Number of Pixels in Processed Spectrum: 2048
>>>>>Begin Processed Spectral Data<<<<<
365.73	180.22
365.92	180.22
366.12	180.22
366.32	114.69
366.52	222.35
366.72	177.88
366.91	114.69
367.11	114.69
367.31	110.01
367.51	173.20
367.70	128.73
367.90	95.96
368.10	170.86
368.30	145.11
368.49	159.16
368.69	220.01
368.89	135.75
369.09	161.50
369.28	220.01
369.48	184.90
369.68	79.58
369.87	175.54
370.07	93.62
370.27	273.84
370.47	341.72
370.66	580.45
370.86	585.13
371.06	711.52
371.25	706.84
371.45	624.92
371.65	692.80
371.84	706.84
372.04	695.14
372.24	718.54
372.44	711.52
372.63	704.50
372.83	727.91
373.03	636.63
373.22	821.53
373.42	709.18
373.62	688.12
373.81	814.51
374.01	854.30
374.21	802.80
374.40	795.78
374.60	805.14
374.79	798.12
374.99	889.40
375.19	823.87
375.38	856.64
375.58	830.89
375.78	884.72
375.97	856.64
376.17	973.66
376.37	898.77
376.56	978.34
376.76	875.36
376.95	919.83
377.15	917.49
377.35	1013.45
377.54	847.27
377.74	835.57
377.93	896.43
378.13	912.81
378.33	966.64
378.52	912.81
378.72	1055.58
378.91	945.58
379.11	964.30
379.31	950.26
379.50	973.66
379.70	971.32
379.89	919.83
380.09	940.90
380.28	931.53
380.48	954.94
380.68	887.06
380.87	912.81
381.07	1011.11
381.26	994.73
381.46	926.85
381.65	987.71
381.85	1048.56
382.04	1078.99
382.24	1139.84
382.43	1053.24
382.63	1039.20
382.83	1062.60
383.02	1074.31
383.22	1107.07
383.41	1088.35
383.61	1053.24
383.80	1071.97
384.00	1097.71
384.19	1193.67
384.39	1193.67
384.58	1179.63
384.78	1149.20
384.97	1123.46
385.17	1123.46
385.36	1207.72
385.56	1174.95
385.75	1160.91
385.95	1242.82
386.14	1196.01
386.34	1177.29
386.53	1184.31
386.72	1240.48
386.92	1228.78
387.11	1270.91
387.31	1249.85
387.50	1219.42
387.70	1226.44
387.89	1247.51
388.09	1308.36
388.28	1277.93
388.48	1240.48
388.67	1284.95
388.86	1338.79
389.06	1198.35
389.25	1472.20
389.45	1294.32
389.64	1327.08
389.84	1378.58
390.03	1411.34
390.22	1373.89
390.42	1355.17
390.61	1397.30
390.81	1306.02
391.00	1476.88
391.19	1366.87
391.39	1451.13
391.58	1462.83
391.78	1455.81
391.97	1472.20
392.16	1570.50
392.36	1629.01
392.55	1444.11
392.75	1511.99
392.94	1586.88
393.13	1497.94
393.33	1540.07
393.52	1549.43
393.71	1640.72
393.91	1549.43
394.10	1537.73
394.29	1605.61
394.49	1657.10
394.68	1661.78
394.88	1654.76
395.07	1682.85
395.26	1638.38
395.46	1654.76
395.65	1645.40
395.84	1734.34
396.04	1872.43
396.23	1699.23
396.42	1696.89
396.62	1813.92
396.81	1748.38
397.00	1827.96
397.19	1842.00
397.39	1851.36
397.58	1799.87
397.77	1802.21
397.97	1842.00
398.16	1811.57
398.35	1926.26
398.55	1935.62
398.74	1853.70
398.93	1966.05
399.12	1842.00
399.32	1888.81
399.51	1923.92
399.70	2022.22
399.90	1902.86
400.09	1987.11
400.28	2001.16
400.47	1987.11
400.67	2059.67
400.86	2139.25
401.05	2179.04
401.24	2186.06
401.44	2179.04
401.63	2045.63
401.82	2141.59
402.01	2165.00
402.21	2275.00
402.40	2256.28
402.59	2186.06
402.78	2160.31
402.97	2286.70
403.17	2230.53
403.36	2242.23
403.55	2246.91
403.74	2385.01
403.93	2382.67
404.13	2490.33
404.32	2363.94
404.51	2406.07
404.70	2576.93
404.89	2429.48
405.09	2513.74
405.28	2450.54
405.47	2464.58
405.66	2518.42
405.85	2569.91
406.05	2511.39
406.24	2700.98
406.43	2539.48
406.62	2600.34
406.81	2719.70
407.00	2628.42
407.20	2616.72
407.39	2686.94
407.58	2754.81
407.77	2710.34
407.96	2761.83
408.15	2803.96
408.34	2616.72
408.54	2871.84
408.73	2857.79
408.92	2747.79
409.11	2918.65
409.30	2881.20
409.49	2892.90
409.68	3014.61
409.87	2946.73
410.07	3066.10
410.26	2977.16
410.45	3063.76
410.64	3016.95
410.83	3190.15
411.02	3105.89
411.21	3164.40
411.40	3164.40
411.59	3265.05
411.78	3225.26
411.98	3173.77
412.17	3187.81
412.36	3314.20
412.55	3262.71
412.74	3456.97
412.93	3297.81
413.12	3346.97
413.31	3531.87
413.50	3576.34
413.69	3545.91
413.88	3730.81
414.07	3566.98
414.26	3609.11
414.45	3602.08
414.64	3730.81
414.83	3878.27
415.02	3737.84
415.22	3896.99
415.41	3843.16
415.60	3925.08
415.79	3918.06
415.98	3990.61
416.17	3964.87
416.36	4032.74
416.55	3962.53
416.74	4128.70
416.93	4058.49
417.12	4159.13
417.31	4177.86
417.50	4154.45
417.69	4229.35
417.88	4259.78
418.07	4194.24
418.26	4264.46
418.45	4292.54
418.64	4531.28
418.83	4514.89
419.02	4458.72
419.21	4496.17
419.39	4533.62
419.58	4372.12
419.77	4479.79
419.96	4512.55
420.15	4582.77
420.34	4716.18
420.53	4533.62
420.72	4751.29
420.91	4582.77
421.10	4929.17
421.29	4957.25
421.48	4732.56
421.67	4882.36
421.86	4610.86
422.05	4999.38
422.24	4868.31
422.43	4933.85
422.61	4908.10
422.80	5015.77
422.99	4964.28
423.18	5109.39
423.37	5018.11
423.56	4957.25
423.75	4957.25
423.94	4777.03
424.13	4592.13
424.32	4816.82
424.50	5055.56
424.69	5102.37
424.88	5137.48
425.07	5085.98
425.26	5076.62
425.45	4983.00
425.64	4978.32
425.83	5121.09
426.01	5200.67
426.20	5078.96
426.39	4971.30
426.58	5291.95
426.77	5078.96
426.96	5240.46
427.15	5078.96
427.33	5102.37
427.52	5128.11
427.71	5364.51
427.90	5252.16
428.09	5390.25
428.28	5479.19
428.46	5465.15
428.65	5425.36
428.84	5465.15
429.03	5572.82
429.22	5331.74
429.40	5563.45
429.59	5643.03
429.78	5308.34
429.97	5296.63
430.16	5423.02
430.34	5521.32
430.53	5701.54
430.72	5547.07
430.91	5530.69
431.10	5708.57
431.28	5727.29
431.47	5870.06
431.66	5886.45
431.85	5926.24
432.03	5891.13
432.22	5961.34
432.41	5994.11
432.60	5959.00
432.79	5825.59
432.97	6024.54
433.16	6106.46
433.35	5959.00
433.54	6071.35
433.72	6054.97
433.91	6171.99
434.10	6146.25
434.28	6146.25
434.47	6218.80
434.66	6380.30
434.85	6445.84
435.03	6340.51
435.22	6181.35
435.41	6588.61
435.59	6441.15
435.78	6562.86
435.97	6422.43
436.16	6497.33
436.34	6237.53
436.53	6560.52
436.72	6635.42
436.90	6572.22
437.09	6707.98
437.28	6628.40
437.46	6523.07
437.65	6595.63
437.84	6841.39
438.02	6717.34
438.21	6782.87
438.40	6733.72
438.58	6986.50
438.77	7023.95
438.96	7030.97
439.14	7145.66
439.33	7098.84
439.52	7258.00
439.70	7225.23
439.89	7396.09
440.08	7302.47
440.26	7480.35
440.45	7393.75
440.63	7559.93
440.82	7728.45
441.01	7702.70
441.19	7581.00
441.38	7644.19
441.57	7997.61
441.75	7988.25
441.94	7976.55
442.12	8124.00
442.31	7997.61
442.50	8124.00
442.68	7988.25
442.87	7976.55
443.05	8430.61
443.24	8245.71
443.43	8035.06
443.61	8189.53
443.80	8475.08
443.98	7990.59
444.17	7962.50
444.35	8243.37
444.54	8388.48
444.73	8283.16
444.91	8383.80
445.10	8423.59
445.28	8278.47
445.47	8348.69
445.65	8348.69
445.84	8465.72
446.02	8428.27
446.21	8552.32
446.39	8372.10
446.58	8557.00
446.77	8669.34
446.95	8294.86
447.14	8538.27
447.32	8451.67
447.51	8533.59
447.69	8512.53
447.88	8568.70
448.06	8587.43
448.25	8564.02
448.43	8608.49
448.62	8533.59
448.80	8613.17
448.99	8727.86
449.17	8657.64
449.36	8837.86
449.54	8889.35
449.73	8945.53
449.91	9085.96
450.10	9039.15
450.28	9163.20
450.46	8959.57
450.65	9011.06
450.83	9242.78
451.02	8982.98
451.20	9287.25
451.39	9214.69
451.57	9287.25
451.76	9191.28
451.94	9516.62
452.13	9369.16
452.31	9444.06
452.49	9397.25
452.68	9547.05
452.86	9327.03
453.05	9565.77
453.23	9628.96
453.42	9474.49
453.60	9528.32
453.78	9696.84
453.97	9465.13
454.15	9572.79
454.34	9657.05
454.52	9722.59
454.70	9603.22
454.89	9989.41
455.07	9919.19
455.26	9863.02
455.44	9961.32
455.62	9893.44
455.81	10085.37
455.99	10005.79
456.17	10071.33
456.36	10153.24
456.54	10265.59
456.73	10207.08
456.91	10434.11
457.09	10434.11
457.28	10768.80
457.46	10452.83
457.64	10597.95
457.83	10567.52
458.01	10359.21
458.19	10778.17
458.38	10640.08
458.56	10981.79
458.74	10888.17
458.93	10663.48
459.11	10703.27
459.29	10670.50
459.48	10787.53
459.66	10963.07
459.84	10906.90
460.03	11108.18
460.21	10970.09
460.39	11059.03
460.57	11089.46
460.76	11234.57
460.94	11124.57
461.12	11180.74
461.31	11283.72
461.49	11187.76
461.67	11281.38
461.85	11758.85
462.04	11627.78
462.22	11943.75
462.40	11667.57
462.59	11442.88
462.77	11637.14
462.95	11845.45
463.13	11672.25
463.32	11604.38
463.50	11702.68
463.68	12175.47
463.86	11913.33
464.05	11740.13
464.23	11793.96
464.41	11971.84
464.59	11625.44
464.78	12037.38
464.96	12077.16
465.14	11868.86
465.32	12093.55
465.50	12131.00
465.69	12404.84
465.87	12276.11
466.05	12404.84
466.23	12439.95
466.41	12147.38
466.60	12512.50
466.78	12187.17
466.96	12264.41
467.14	12198.87
467.32	12606.13
467.51	12578.04
467.69	12341.64
467.87	12573.36
468.05	12737.20
468.23	12559.31
468.41	12631.87
468.60	12774.64
468.78	12774.64
468.96	12699.75
469.14	12713.79
469.32	13092.96
469.50	12517.18
469.69	13121.04
469.87	13074.23
470.05	13261.48
470.23	13277.86
470.41	13254.45
470.59	13528.30
470.77	13364.46
470.95	13270.84
471.14	13755.33
471.32	13287.22
471.50	13706.18
471.68	13600.85
471.86	13877.04
472.04	13905.12
472.22	13998.74
472.40	13710.86
472.58	14003.43
472.77	14085.34
472.95	14031.51
473.13	14551.11
473.31	14415.36
473.49	14209.39
473.67	14223.44
473.85	14359.19
474.03	14789.85
474.21	14747.72
474.39	14668.14
474.57	15108.16
474.75	15206.46
474.93	15061.35
475.12	15243.91
475.30	15138.58
475.48	15222.84
475.66	15421.79
475.84	15159.65
476.02	15302.42
476.20	15339.87
476.38	15758.83
476.56	16088.84
476.74	16304.17
476.92	15955.43
477.10	15723.72
477.28	16348.64
477.46	16315.87
477.64	16575.67
477.82	16634.19
478.00	16933.78
478.18	16910.37
478.36	17099.95
478.54	17277.83
478.72	17277.83
478.90	17589.13
479.08	17888.71
479.26	17893.40
479.44	17818.50
479.62	18249.16
479.80	18148.51
479.98	18267.88
480.16	18520.66
480.34	18471.51
480.52	18593.22
480.70	18714.92
480.88	18300.65
481.06	18647.05
481.24	18909.19
481.41	19250.91
481.59	19288.35
481.77	19342.19
481.95	19721.35
482.13	19709.65
482.31	19859.45
482.49	20240.95
482.67	20526.50
482.85	20404.79
483.03	20603.74
483.21	20886.94
483.39	21088.23
483.57	21046.10
483.74	21142.06
483.92	21511.86
484.10	21404.20
484.28	21783.37
484.46	21774.00
484.64	22487.87
484.82	22104.02
485.00	22363.82
485.18	22785.12
485.35	23084.70
485.53	23131.51
485.71	23218.11
485.89	23730.69
486.07	22979.38
486.25	23786.86
486.43	23826.65
486.61	24100.50
486.78	24353.27
486.96	24589.67
487.14	24636.48
487.32	24987.56
487.50	25020.33
487.68	25352.68
487.85	25614.82
488.03	25280.13
488.21	26073.57
488.39	25797.38
488.57	26562.74
488.75	26504.23
488.92	26366.13
489.10	26759.34
489.28	27159.58
489.46	27133.83
489.64	27220.43
489.81	27864.08
489.99	28196.43
490.17	27999.83
490.35	28430.49
490.53	28339.21
490.70	28339.21
490.88	28411.76
491.06	29153.71
491.24	29142.01
491.41	28849.44
491.59	29296.49
491.77	29628.84
491.95	29848.85
492.13	29965.88
492.30	30089.93
492.48	30192.91
492.66	30466.75
492.84	30298.23
493.01	30923.16
493.19	30448.03
493.37	31302.32
493.54	31545.74
493.72	31632.34
493.90	31955.33
494.08	31714.26
494.25	32128.53
494.43	32430.46
494.61	32421.10
494.79	32636.43
494.96	32737.07
495.14	33036.66
495.32	33266.03
495.49	33427.53
495.67	33331.57
495.85	33467.32
496.02	34288.85
496.20	34225.65
496.38	34003.30
496.55	34630.57
496.73	34595.46
496.91	34976.97
497.09	35269.53
497.26	35112.72
497.44	35093.99
497.62	35306.98
497.79	36407.03
497.97	35306.98
498.14	36322.77
498.32	36708.96
498.50	36664.49
498.67	36514.70
498.85	36800.24
499.03	37303.46
499.20	36964.08
499.38	37060.04
499.56	37041.32
499.73	37457.93
499.91	37614.75
500.08	37694.33
500.26	37596.03
500.44	38073.49
500.61	38115.62
500.79	37958.81
500.97	38604.80
501.14	38951.20
501.32	38766.29
501.49	38822.47
501.67	39306.96
501.84	39374.83
502.02	39129.08
502.20	39255.46
502.37	39688.46
502.55	39716.55
502.72	39992.73
502.90	39828.90
503.07	39924.86
503.25	40170.61
503.43	40339.13
503.60	40758.09
503.78	40437.44
503.95	40236.15
504.13	40800.22
504.30	40734.68
504.48	40835.33
504.65	40849.37
504.83	41336.20
505.01	41553.87
505.18	41495.36
505.36	41708.35
505.53	41448.55
505.71	41869.84
505.88	41834.74
506.06	41886.23
506.23	42031.34
506.41	41804.31
506.58	42445.62
506.76	42164.75
506.93	42993.30
507.11	42731.16
507.28	42892.66
507.46	43138.41
507.63	43145.44
507.81	43332.68
507.98	43367.79
508.16	43505.88
508.33	43433.32
508.50	44245.49
508.68	43981.01
508.85	44252.51
509.03	43681.42
509.20	43906.11
509.38	44516.99
509.55	44472.52
509.73	44821.26
509.90	44715.93
510.08	44921.90
510.25	45151.27
510.42	45010.84
510.60	45509.38
510.77	45116.17
510.95	45970.46
511.12	45167.66
511.30	45397.03
511.47	45874.50
511.64	45916.63
511.82	45902.59
511.99	46012.59
512.17	46054.72
512.34	46288.77
512.51	46506.44
512.69	46485.38
512.86	46681.98
513.04	46843.48
513.21	46878.59
513.38	47262.44
513.56	46801.35
513.73	47072.85
513.90	47793.74
514.08	47356.06
514.25	47501.17
514.43	47695.44
514.60	47887.36
514.77	47852.25
514.95	47920.13
515.12	47604.16
515.29	47913.11
515.47	48229.08
515.64	48486.54
515.81	48196.31
515.99	48509.94
516.16	48828.26
516.33	48732.29
516.51	49228.49
516.68	48704.21
516.85	48568.46
517.03	49228.49
517.20	49413.39
517.37	48956.99
517.54	49357.22
517.72	49148.91
517.89	49305.73
518.06	49420.41
518.24	49326.79
518.41	49525.74
518.58	49593.61
518.75	49689.57
518.93	49860.43
519.10	49972.78
519.27	49855.75
519.45	49862.77
519.62	50307.47
519.79	50258.32
519.96	50335.56
520.14	50567.27
520.31	50258.32
520.48	50672.60
520.65	50855.16
520.83	50667.92
521.00	50761.54
521.17	50979.21
521.34	50871.54
521.52	50932.40
521.69	50918.35
521.86	51126.66
522.03	51243.69
522.20	51627.54
522.38	51646.26
522.55	51622.86
522.72	51634.56
522.89	51604.13
523.07	52140.11
523.24	52083.94
523.41	52013.73
523.58	51613.49
523.75	52011.38
523.92	52079.26
524.10	52135.43
524.27	52577.79
524.44	52088.62
524.61	52282.89
524.78	52465.45
524.96	52317.99
525.13	52566.09
525.30	52720.57
525.47	52648.01
525.64	52701.84
525.81	52683.12
525.98	52535.66
526.16	52914.83
526.33	52807.17
526.50	53310.38
526.67	53071.65
526.84	53191.01
527.01	53038.88
527.18	53020.16
527.36	52938.24
527.53	53326.77
527.70	53502.31
527.87	53448.47
528.04	53183.99
528.21	53624.01
528.38	53483.58
528.55	53661.46
528.72	53708.27
528.89	53741.04
529.07	53504.65
529.24	53638.06
529.41	53916.58
529.58	53736.36
529.75	53766.79
529.92	53961.05
530.09	54061.69
530.26	54017.22
530.43	54218.51
530.60	53759.76
530.77	53846.36
530.94	54171.70
531.11	54248.94
531.28	54681.94
531.46	54358.94
531.63	54382.35
531.80	54497.03
531.97	54775.56
532.14	54897.27
532.31	54770.88
532.48	54775.56
532.65	55037.70
532.82	54494.69
532.99	54782.58
533.16	54672.57
533.33	55147.70
533.50	55384.10
533.67	55203.88
533.84	55058.76
534.01	55285.79
534.18	55140.68
534.35	55290.48
534.52	54939.39
534.69	55585.38
534.86	55388.78
535.03	55554.96
535.20	55194.51
535.37	55554.96
535.54	55423.89
535.71	55435.59
535.88	55629.85
536.05	55744.54
536.22	55704.75
536.38	55899.01
536.55	55686.03
536.72	55756.24
536.89	55655.60
537.06	55880.29
537.23	55758.58
537.40	55863.91
537.57	55950.51
537.74	56055.83
537.91	55915.40
538.08	56275.84
538.25	55873.27
538.42	56224.35
538.59	56081.58
538.75	55924.76
538.92	56334.35
539.09	56376.48
539.26	56472.45
539.43	56383.51
539.60	56582.45
539.77	56596.49
539.94	56601.18
540.11	56521.60
540.28	56601.18
540.44	56633.94
540.61	56559.05
540.78	56624.58
540.95	56559.05
541.12	56678.41
541.29	56559.05
541.46	56673.73
541.62	56769.69
541.79	56767.35
541.96	56662.03
542.13	56886.72
542.30	56938.21
542.47	57024.81
542.63	57233.12
542.80	57272.91
542.97	57373.55
543.14	57303.34
543.31	57272.91
543.48	57396.96
543.64	57378.23
543.81	57677.82
543.98	57425.04
544.15	57394.62
544.32	57635.69
544.48	57813.57
544.65	57462.49
544.82	57502.28
544.99	57701.23
545.16	57598.24
545.32	57471.85
545.49	57715.27
545.66	57951.66
545.83	57839.32
546.00	57961.03
546.16	57808.89
546.33	57612.29
546.50	57853.36
546.67	57855.70
546.83	57600.58
547.00	57867.40
547.17	58028.90
547.34	57977.41
547.50	58202.10
547.67	58145.93
547.84	58241.89
548.00	58220.83
548.17	58431.47
548.34	58190.40
548.51	58370.62
548.67	58443.18
548.84	58333.17
549.01	58199.76
549.18	58518.07
549.34	58588.29
549.51	58422.11
549.68	58667.87
549.84	58482.97
550.01	58539.14
550.18	58562.54
550.34	58660.85
550.51	58630.42
550.68	58588.29
550.84	58614.04
551.01	58892.56
551.18	58761.49
551.34	58672.55
551.51	58777.87
551.68	58714.68
551.84	58838.73
552.01	58805.96
552.18	58918.31
552.34	58915.96
552.51	58883.20
552.68	58922.99
552.84	59037.67
553.01	59278.75
553.18	59068.10
553.34	59159.38
553.51	58894.90
553.67	59007.25
553.84	59306.83
554.01	59084.48
554.17	59206.19
554.34	59150.02
554.51	59121.93
554.67	59306.83
554.84	59257.68
555.00	59206.19
555.17	59150.02
555.33	59288.11
555.50	59072.78
555.67	59150.02
555.83	59236.62
556.00	59199.17
556.16	59498.76
556.33	59332.58
556.50	59437.90
556.66	59482.37
556.83	59164.06
556.99	59498.76
557.16	59821.75
557.32	59636.85
557.49	59653.23
557.65	59550.25
557.82	59531.53
557.98	59655.57
558.15	59601.74
558.32	59557.27
558.48	59470.67
558.65	59501.10
558.81	59721.11
558.98	59760.90
559.14	59812.39
559.31	59669.62
559.47	59910.69
559.64	59838.14
559.80	59910.69
559.97	59980.91
560.13	59875.58
560.30	60034.74
560.46	59887.29
560.63	59901.33
560.79	59966.87
560.96	59891.97
561.12	60041.76
561.29	60079.21
561.45	59887.29
561.61	59957.50
561.78	59957.50
561.94	59992.61
562.11	60023.04
562.27	60090.91
562.44	60245.39
562.60	60250.07
562.77	60259.43
562.93	59826.43
563.10	60107.30
563.26	60086.23
563.42	60477.10
563.59	60198.58
563.75	60186.88
563.92	60133.04
564.08	60083.89
564.24	60233.69
564.41	60193.90
564.57	60273.48
564.74	60430.29
564.90	60296.88
565.07	60346.03
565.23	60320.29
565.39	60191.56
565.56	60533.28
565.72	60170.49
565.88	60456.04
566.05	60334.33
566.21	60369.44
566.38	60409.23
566.54	60566.04
566.70	60519.23
566.87	60383.48
567.03	60568.38
567.19	60580.09
567.36	60657.32
567.52	60488.80
567.68	60755.63
567.85	60449.02
568.01	60385.82
568.17	60533.28
568.34	60432.63
568.50	60596.47
568.66	60463.06
568.83	60500.51
568.99	60418.59
569.15	60757.97
569.32	60465.40
569.48	60664.35
569.64	60839.89
569.81	60603.49
569.97	60416.25
570.13	60715.84
570.30	60552.00
570.46	60388.16
570.62	60694.77
570.78	60741.58
570.95	60685.41
571.11	60701.79
571.27	60530.93
571.43	60657.32
571.60	60818.82
571.76	60654.98
571.92	60652.64
572.09	60743.92
572.25	60718.18
572.41	60783.71
572.57	60711.16
572.74	60933.51
572.90	60860.95
573.06	61071.60
573.22	60680.73
573.38	60790.73
573.55	60846.91
573.71	61130.11
573.87	60907.76
574.03	60879.67
574.20	60809.46
574.36	60741.58
574.52	61085.64
574.68	61013.08
574.84	61102.03
575.01	60985.00
575.17	60863.29
575.33	60671.37
575.49	60870.31
575.65	61029.47
575.82	60947.55
575.98	60729.88
576.14	61176.92
576.30	61043.51
576.46	60853.93
576.62	60650.30
576.79	60797.76
576.95	60886.70
577.11	61022.45
577.27	60938.19
577.43	60821.16
577.59	60837.54
577.75	60830.52
577.92	60851.59
578.08	60856.27
578.24	60963.93
578.40	61183.94
578.56	60975.64
578.72	60968.61
578.88	61116.07
579.04	61165.22
579.21	61031.81
579.37	61296.29
579.53	61146.50
579.69	60760.31
579.85	60980.32
580.01	61034.15
580.17	61059.90
580.33	61162.88
580.49	61169.90
580.65	61099.68
580.82	61064.58
580.98	60704.13
581.14	60886.70
581.30	61324.38
581.46	61144.16
581.62	61212.03
581.78	60987.34
581.94	61188.63
582.10	61190.97
582.26	61048.19
582.42	61179.26
582.58	61003.72
582.74	61209.69
582.90	61244.80
583.06	61137.13
583.22	61097.34
583.38	61228.41
583.54	61256.50
583.70	61024.79
583.86	61134.79
584.02	61076.28
584.18	61069.26
584.34	61137.13
584.50	61176.92
584.66	61036.49
584.82	61041.17
584.98	61408.64
585.14	61256.50
585.30	60975.64
585.46	61139.47
585.62	61155.86
585.78	61254.16
585.94	61080.96
586.10	61235.44
586.26	61158.20
586.42	61303.31
586.58	61092.66
586.74	61193.31
586.90	61263.52
587.06	61020.11
587.22	61392.25
587.38	61277.57
587.54	61399.27
587.70	61462.47
587.86	61190.97
588.02	61307.99
588.18	61373.53
588.34	61097.34
588.49	61097.34
