SpectraSuite Data File
++++++++++++++++++++++++++++++++++++
Date: Fri Oct 25 10:47:03 EDT 2013
User: price-jones
Dark Spectrum Present: No
Reference Spectrum Present: No
Number of Sampled Component Spectra: 1
Spectrometers: USB2+H05261
Integration Time (usec): 100000 (USB2+H05261)
Spectra Averaged: 1 (USB2+H05261)
Boxcar Smoothing: 0 (USB2+H05261)
Correct for Electrical Dark: No (USB2+H05261)
Strobe/Lamp Enabled: No (USB2+H05261)
Correct for Detector Non-linearity: No (USB2+H05261)
Correct for Stray Light: No (USB2+H05261)
Number of Pixels in Processed Spectrum: 2048
>>>>>Begin Processed Spectral Data<<<<<
365.73	95.96
365.92	95.96
366.12	95.96
366.32	30.43
366.52	39.79
366.72	88.94
366.91	53.83
367.11	102.98
367.31	60.85
367.51	58.51
367.70	49.15
367.90	65.54
368.10	4.68
368.30	65.54
368.49	42.13
368.69	58.51
368.89	37.45
369.09	0.00
369.28	42.13
369.48	0.00
369.68	72.56
369.87	102.98
370.07	32.77
370.27	105.32
370.47	124.05
370.66	390.87
370.86	322.99
371.06	472.79
371.25	479.81
371.45	400.23
371.65	470.45
371.84	458.74
372.04	355.76
372.24	442.36
372.44	528.96
372.63	437.68
372.83	559.39
373.03	470.45
373.22	514.92
373.42	507.90
373.62	496.19
373.81	517.26
374.01	561.73
374.21	512.58
374.40	517.26
374.60	475.13
374.79	554.71
374.99	496.19
375.19	571.09
375.38	636.63
375.58	599.18
375.78	524.28
375.97	503.22
376.17	601.52
376.37	486.83
376.56	580.45
376.76	608.54
376.95	603.86
377.15	683.44
377.35	575.77
377.54	711.52
377.74	589.82
377.93	669.39
378.13	662.37
378.33	624.92
378.52	582.79
378.72	622.58
378.91	643.65
379.11	627.26
379.31	653.01
379.50	690.46
379.70	627.26
379.89	655.35
380.09	720.88
380.28	685.78
380.48	653.01
380.68	704.50
380.87	709.18
381.07	627.26
381.26	709.18
381.46	713.86
381.65	681.10
381.85	711.52
382.04	711.52
382.24	622.58
382.43	753.65
382.63	582.79
382.83	683.44
383.02	734.93
383.22	716.20
383.41	727.91
383.61	706.84
383.80	795.78
384.00	779.40
384.19	765.36
384.39	809.83
384.58	734.93
384.78	781.74
384.97	784.08
385.17	767.70
385.36	741.95
385.56	814.51
385.75	755.99
385.95	844.93
386.14	774.72
386.34	765.36
386.53	763.01
386.72	812.17
386.92	894.08
387.11	779.40
387.31	819.19
387.50	889.40
387.70	777.06
387.89	863.66
388.09	854.30
388.28	828.55
388.48	854.30
388.67	807.48
388.86	873.02
389.06	901.11
389.25	863.66
389.45	908.13
389.64	875.36
389.84	945.58
390.03	938.55
390.22	929.19
390.42	954.94
390.61	938.55
390.81	983.02
391.00	933.87
391.19	945.58
391.39	983.02
391.58	945.58
391.78	931.53
391.97	964.30
392.16	929.19
392.36	1062.60
392.55	954.94
392.75	968.98
392.94	957.28
393.13	992.39
393.33	1015.79
393.52	1018.13
393.71	1060.26
393.91	1006.43
394.10	1102.39
394.29	1020.47
394.49	1076.65
394.68	1069.62
394.88	1043.88
395.07	1165.59
395.26	1128.14
395.46	1074.31
395.65	1224.10
395.84	1111.75
396.04	1165.59
396.23	1081.33
396.42	1107.07
396.62	1137.50
396.81	1252.19
397.00	1118.78
397.19	1245.16
397.39	1158.57
397.58	1228.78
397.77	1235.80
397.97	1320.06
398.16	1320.06
398.35	1364.53
398.55	1254.53
398.74	1401.98
398.93	1409.00
399.12	1338.79
399.32	1376.24
399.51	1411.34
399.70	1427.73
399.90	1357.51
400.09	1423.05
400.28	1523.69
400.47	1519.01
400.67	1497.94
400.86	1430.07
401.05	1502.62
401.24	1497.94
401.44	1519.01
401.63	1556.46
401.82	1540.07
402.01	1453.47
402.21	1500.28
402.40	1617.31
402.59	1584.54
402.78	1671.14
402.97	1572.84
403.17	1633.69
403.36	1614.97
403.55	1668.80
403.74	1668.80
403.93	1694.55
404.13	1764.76
404.32	1668.80
404.51	1804.55
404.70	1715.61
404.89	1696.89
405.09	1743.70
405.28	1792.85
405.47	1743.70
405.66	1774.13
405.85	1816.26
406.05	1722.63
406.24	1781.15
406.43	1874.77
406.62	1968.39
406.81	1935.62
407.00	1860.73
407.20	1872.43
407.39	1947.33
407.58	1984.77
407.77	1970.73
407.96	1975.41
408.15	2069.03
408.34	2005.84
408.54	2092.44
408.73	2052.65
408.92	2113.50
409.11	2157.97
409.30	2136.91
409.49	2118.18
409.68	2125.21
409.87	2083.08
410.07	2193.08
410.26	2207.13
410.45	2181.38
410.64	2298.41
410.83	2363.94
411.02	2289.04
411.21	2242.23
411.40	2310.11
411.59	2347.56
411.78	2347.56
411.98	2319.47
412.17	2403.73
412.36	2441.18
412.55	2483.31
412.74	2471.61
412.93	2483.31
413.12	2551.18
413.31	2548.84
413.50	2621.40
413.69	2502.03
413.88	2768.85
414.07	2647.15
414.26	2712.68
414.45	2527.78
414.64	2719.70
414.83	2733.75
415.02	2684.59
415.22	2731.41
415.41	2869.50
415.60	2897.58
415.79	2911.63
415.98	3012.27
416.17	2974.82
416.36	2946.73
416.55	2906.95
416.74	2913.97
416.93	3026.31
417.12	2890.56
417.31	3105.89
417.50	3019.29
417.69	3166.74
417.88	3255.69
418.07	3077.80
418.26	3133.98
418.45	3115.25
418.64	3475.70
418.83	3173.77
419.02	3290.79
419.21	3365.69
419.39	3267.39
419.58	3251.00
419.77	3241.64
419.96	3335.26
420.15	3398.46
420.34	3424.20
420.53	3386.76
420.72	3576.34
420.91	3578.68
421.10	3513.14
421.29	3466.33
421.48	3620.81
421.67	3513.14
421.86	3489.74
422.05	3494.42
422.24	3419.52
422.43	3557.61
422.61	3552.93
422.80	3538.89
422.99	3592.72
423.18	3597.40
423.37	3721.45
423.56	3660.60
423.75	3676.98
423.94	3494.42
424.13	3517.83
424.32	3585.70
424.50	3611.45
424.69	3801.03
424.88	3627.83
425.07	3658.26
425.26	3496.76
425.45	3576.34
425.64	3566.98
425.83	3543.57
426.01	3702.73
426.20	3761.24
426.39	3693.37
426.58	3646.55
426.77	3719.11
426.96	3536.55
427.15	3662.94
427.33	3709.75
427.52	3812.73
427.71	3808.05
427.90	3875.93
428.09	3852.52
428.28	3878.27
428.46	3885.29
428.65	3775.28
428.84	4102.96
429.03	4011.68
429.22	3906.35
429.40	3761.24
429.59	3934.44
429.78	3754.22
429.97	3824.44
430.16	3751.88
430.34	3892.31
430.53	3971.89
430.72	3946.14
430.91	4058.49
431.10	4102.96
431.28	4355.74
431.47	4201.26
431.66	4292.54
431.85	4210.62
432.03	4243.39
432.22	4322.97
432.41	4215.30
432.60	4381.48
432.79	4292.54
432.97	4315.95
433.16	4358.08
433.35	4348.72
433.54	4290.20
433.72	4383.82
433.91	4306.59
434.10	4454.04
434.28	4390.84
434.47	4416.59
434.66	4603.83
434.85	4568.73
435.03	4393.19
435.22	4491.49
435.41	4655.33
435.59	4706.82
435.78	4610.86
435.97	4671.71
436.16	4730.22
436.34	4739.58
436.53	4636.60
436.72	4957.25
436.90	4748.95
437.09	4734.90
437.28	4821.50
437.46	4894.06
437.65	4772.35
437.84	4830.87
438.02	4873.00
438.21	4674.05
438.40	4737.24
438.58	4786.40
438.77	4940.87
438.96	4980.66
439.14	5107.05
439.33	5018.11
439.52	5097.69
439.70	5057.90
439.89	5359.83
440.08	5348.12
440.26	5242.80
440.45	5174.92
440.63	5343.44
440.82	5518.98
441.01	5441.75
441.19	5628.99
441.38	5544.73
441.57	5427.70
441.75	5664.10
441.94	5816.23
442.12	5650.05
442.31	5870.06
442.50	5825.59
442.68	5741.33
442.87	5640.69
443.05	5935.60
443.24	5977.73
443.43	6050.28
443.61	6054.97
443.80	6026.88
443.98	5799.85
444.17	5856.02
444.35	5937.94
444.54	6008.16
444.73	5961.34
444.91	5916.87
445.10	5954.32
445.28	6012.84
445.47	5886.45
445.65	5888.79
445.84	5996.45
446.02	6043.26
446.21	5940.28
446.39	6097.10
446.58	6120.50
446.77	6113.48
446.95	5900.49
447.14	6085.39
447.32	6155.61
447.51	5860.70
447.69	5996.45
447.88	6279.66
448.06	6209.44
448.25	6197.74
448.43	6235.19
448.62	6134.54
448.80	6087.73
448.99	6279.66
449.17	6251.57
449.36	6340.51
449.54	6424.77
449.73	6476.26
449.91	6413.07
450.10	6377.96
450.28	6712.66
450.46	6567.54
450.65	6717.34
450.83	6593.29
451.02	6466.90
451.20	6705.63
451.39	6628.40
451.57	6546.48
451.76	6579.25
451.94	6637.76
452.13	6588.61
452.31	6661.16
452.49	6602.65
452.68	6707.98
452.86	6602.65
453.05	6801.60
453.23	6761.81
453.42	6609.67
453.60	6715.00
453.78	6707.98
453.97	6752.45
454.15	6813.30
454.34	6778.19
454.52	6808.62
454.70	6998.20
454.89	7016.93
455.07	6927.99
455.26	7105.87
455.44	7096.50
455.62	7070.76
455.81	7140.97
455.99	7360.98
456.17	7227.57
456.36	7075.44
456.54	7239.28
456.73	7391.41
456.91	7454.61
457.09	7358.64
457.28	7571.63
457.46	7435.88
457.64	7604.40
457.83	7482.69
458.01	7281.41
458.19	7618.44
458.38	7674.62
458.56	7669.94
458.74	7356.30
458.93	7506.10
459.11	7545.89
459.29	7639.51
459.48	7964.84
459.66	7786.96
459.84	7810.37
460.03	7887.61
460.21	7901.65
460.39	7674.62
460.57	7786.96
460.76	7868.88
460.94	7974.21
461.12	7686.32
461.31	7999.95
461.49	7854.84
461.67	8070.17
461.85	8191.88
462.04	8046.76
462.22	8521.89
462.40	8191.88
462.59	8100.59
462.77	8205.92
462.95	8346.35
463.13	8159.11
463.32	8194.22
463.50	8245.71
463.68	8292.52
463.86	8299.54
464.05	8184.85
464.23	8280.82
464.41	8285.50
464.59	8149.75
464.78	8491.46
464.96	8264.43
465.14	8226.98
465.32	8498.49
465.50	8741.90
465.69	8805.10
465.87	8627.21
466.05	8493.80
466.23	8514.87
466.41	8659.98
466.60	8594.45
466.78	8423.59
466.96	8702.11
467.14	8634.24
467.32	8655.30
467.51	8961.91
467.69	8456.36
467.87	8526.57
468.05	9071.92
468.23	8601.47
468.41	8688.07
468.60	8823.82
468.78	8990.00
468.96	9013.40
469.14	9137.45
469.32	9085.96
469.50	8798.07
469.69	9177.24
469.87	8961.91
470.05	9235.75
470.23	9121.07
470.41	9102.34
470.59	9247.46
470.77	9118.73
470.95	9362.14
471.14	9329.38
471.32	9245.12
471.50	9371.50
471.68	9483.85
471.86	9724.93
472.04	9612.58
472.22	9783.44
472.40	9472.15
472.58	9577.47
472.77	9685.14
472.95	9628.96
473.13	10038.56
473.31	9820.89
473.49	9659.39
473.67	9872.38
473.85	9888.76
474.03	10043.24
474.21	10211.76
474.39	9996.43
474.57	10122.82
474.75	10286.65
474.93	10434.11
475.12	10415.38
475.30	10422.41
475.48	10413.04
475.66	10429.43
475.84	10183.67
476.02	10597.95
476.20	10740.72
476.38	10761.78
476.56	10843.70
476.74	10965.41
476.92	11007.54
477.10	11012.22
477.28	11241.59
477.46	11108.18
477.64	11531.82
477.82	11492.03
478.00	11735.45
478.18	11412.45
478.36	11602.04
478.54	11648.85
478.72	11786.94
478.90	12138.02
479.08	12292.49
479.26	12091.21
479.44	12233.98
479.62	12093.55
479.80	12339.30
479.98	12444.63
480.16	12858.90
480.34	12669.32
480.52	12772.30
480.70	12674.00
480.88	12704.43
481.06	12819.11
481.24	12938.48
481.41	12964.23
481.59	13455.74
481.77	13231.05
481.95	13429.99
482.13	13568.09
482.31	13380.84
482.49	14038.53
482.67	13706.18
482.85	14242.16
483.03	14101.73
483.21	14354.51
483.39	14349.82
483.57	14394.29
483.74	14270.25
483.92	14651.75
484.10	14497.28
484.28	14927.94
484.46	14991.13
484.64	15190.08
484.82	15000.49
485.00	15307.10
485.18	15295.40
485.35	15606.69
485.53	15262.63
485.71	15225.18
485.89	15674.57
486.07	15679.25
486.25	15707.34
486.43	16198.85
486.61	16226.93
486.78	16240.98
486.96	16552.27
487.14	16545.25
487.32	16692.70
487.50	16655.25
487.68	16875.26
487.85	16814.41
488.03	17390.18
488.21	17530.61
488.39	17479.12
488.57	17462.74
488.75	17401.88
488.92	17893.40
489.10	18342.78
489.28	18141.49
489.46	18394.27
489.64	18483.21
489.81	18813.23
489.99	18775.78
490.17	18754.71
490.35	19108.13
490.53	18808.54
490.70	19257.93
490.88	19232.18
491.06	19711.99
491.24	19295.38
491.41	19119.84
491.59	19494.32
491.77	19686.25
491.95	19768.16
492.13	20091.16
492.30	20514.80
492.48	20290.10
492.66	20367.34
492.84	20561.61
493.01	20833.11
493.19	20744.17
493.37	21013.33
493.54	20985.24
493.72	21095.25
493.90	21181.85
494.08	21254.40
494.25	21635.91
494.43	21809.11
494.61	22022.10
494.79	21888.69
494.96	22019.76
495.14	21722.51
495.32	22277.22
495.49	22148.49
495.67	22307.65
495.85	22530.00
496.02	22927.89
496.20	22644.68
496.38	22995.76
496.55	22974.70
496.73	23424.08
496.91	23332.80
497.09	23527.06
497.26	23538.77
497.44	23606.64
497.62	23597.28
497.79	23807.93
497.97	23740.05
498.14	23910.91
498.32	24198.80
498.50	24308.80
498.67	24161.35
498.85	23868.78
499.03	24652.86
499.20	24629.46
499.38	24699.67
499.56	24702.01
499.73	24847.13
499.91	24781.59
500.08	25139.69
500.26	24694.99
500.44	25104.59
500.61	25027.35
500.79	25001.60
500.97	25160.76
501.14	25778.66
501.32	25668.66
501.49	25804.41
501.67	26146.12
501.84	26143.78
502.02	25996.33
502.20	26162.51
502.37	26473.80
502.55	26202.30
502.72	26686.79
502.90	26394.22
503.07	26473.80
503.25	26801.47
503.43	26197.62
503.60	26684.45
503.78	26799.13
503.95	26845.94
504.13	27145.53
504.30	27321.07
504.48	26979.36
504.65	27484.91
504.83	27377.25
505.01	27604.28
505.18	27522.36
505.36	27721.30
505.53	27461.51
505.71	27964.72
505.88	28004.51
506.06	27826.63
506.23	27992.81
506.41	27779.82
506.58	28173.03
506.76	28276.01
506.93	28346.23
507.11	28474.96
507.28	28554.54
507.46	28187.07
507.63	28484.32
507.81	28706.67
507.98	28563.90
508.16	28673.90
508.33	28781.57
508.50	28929.02
508.68	29319.89
508.85	29460.32
509.03	29481.39
509.20	29457.98
509.38	29291.80
509.55	29525.86
509.73	29406.49
509.90	29816.08
510.08	29713.10
510.25	29668.63
510.42	29816.08
510.60	29972.90
510.77	29883.96
510.95	30246.74
511.12	30389.52
511.30	30473.78
511.47	30511.22
511.64	30387.18
511.82	30642.29
511.99	30419.94
512.17	30665.70
512.34	30331.00
512.51	30756.98
512.69	31250.83
512.86	30806.13
513.04	31201.68
513.21	31056.57
513.38	31498.93
513.56	31674.47
513.73	30937.20
513.90	31002.74
514.08	31140.83
514.25	31477.86
514.43	31807.88
514.60	31590.21
514.77	31438.08
514.95	31704.90
515.12	31480.21
515.29	31955.33
515.47	32144.92
515.64	32479.61
515.81	31927.25
515.99	32226.84
516.16	32196.41
516.33	32189.39
516.51	31903.84
516.68	32149.60
516.85	32025.55
517.03	32292.37
517.20	32425.78
517.37	32395.35
517.54	32879.85
517.72	32568.55
517.89	32615.37
518.06	32912.61
518.24	32554.51
518.41	32655.15
518.58	32959.42
518.75	32835.38
518.93	33273.06
519.10	32872.82
519.27	33373.70
519.45	33172.41
519.62	33816.06
519.79	34050.11
519.96	33930.75
520.14	33989.26
520.31	33415.83
520.48	33783.29
520.65	33912.02
520.83	34305.23
521.00	34153.10
521.17	34450.35
521.34	34443.32
521.52	34485.45
521.69	34483.11
521.86	34305.23
522.03	34567.37
522.20	34775.68
522.38	34918.45
522.55	35063.57
522.72	34740.57
522.89	34499.50
523.07	34983.99
523.24	35122.08
523.41	34857.60
523.58	35173.57
523.75	35393.58
523.92	35714.23
524.10	35498.91
524.27	35447.41
524.44	35632.32
524.61	36034.89
524.78	35775.09
524.96	35878.07
525.13	36011.48
525.30	36584.91
525.47	36304.05
525.64	35974.03
525.81	35964.67
525.98	35735.30
526.16	35723.60
526.33	35936.59
526.50	36074.68
526.67	35730.62
526.84	36041.91
527.01	36037.23
527.18	36582.57
527.36	36374.27
527.53	36783.86
527.70	37542.19
527.87	36748.75
528.04	36821.31
528.21	36732.37
528.38	36512.36
528.55	37038.98
528.72	37207.50
528.89	37174.73
529.07	37418.14
529.24	36811.95
529.41	37434.53
529.58	36821.31
529.75	36638.75
529.92	37628.79
530.09	37336.23
530.26	37460.27
530.43	37581.98
530.60	37336.23
530.77	38066.47
530.94	37638.15
531.11	37645.18
531.28	37801.99
531.46	38033.71
531.63	37993.92
531.80	38099.24
531.97	37570.28
532.14	37668.58
532.31	37645.18
532.48	37741.14
532.65	37801.99
532.82	37893.27
532.99	38139.03
533.16	38031.36
533.33	38213.93
533.50	38831.83
533.67	38305.21
533.84	38515.86
534.01	38359.04
534.18	38555.64
534.35	38714.80
534.52	38672.67
534.69	39105.67
534.86	38801.40
535.03	38455.00
535.20	39384.19
535.37	39166.52
535.54	39529.31
535.71	38913.75
535.88	39047.16
536.05	38895.02
536.22	38876.30
536.38	39009.71
536.55	39344.41
536.72	39079.92
536.89	39115.03
537.06	39161.84
537.23	38998.01
537.40	38878.64
537.57	39346.75
537.74	39538.67
537.91	39552.71
538.08	39468.45
538.25	39313.98
538.42	39522.29
538.59	39948.26
538.75	39526.97
538.92	39997.41
539.09	39969.33
539.26	39896.77
539.43	39878.05
539.60	39566.76
539.77	39906.13
539.94	40002.10
540.11	39629.95
540.28	39662.72
540.44	40158.91
540.61	39730.59
540.78	40011.46
540.95	40259.55
541.12	40266.58
541.29	39686.12
541.46	40240.83
541.62	40343.81
541.79	40484.25
541.96	40243.17
542.13	40294.66
542.30	40725.32
542.47	40748.73
542.63	40453.82
542.80	40678.51
542.97	41195.77
543.14	40938.31
543.31	40877.46
543.48	41088.10
543.64	41214.49
543.81	41579.62
543.98	41371.31
544.15	41280.03
544.32	41900.27
544.48	41502.38
544.65	41443.87
544.82	41549.19
544.99	41411.10
545.16	41675.58
545.32	41434.50
545.49	41694.30
545.66	41675.58
545.83	41853.46
546.00	42007.94
546.16	41745.80
546.33	41277.69
546.50	41436.84
546.67	41638.13
546.83	41408.76
547.00	41572.60
547.17	41654.51
547.34	41851.12
547.50	41549.19
547.67	42136.66
547.84	42029.00
548.00	42188.16
548.17	42007.94
548.34	42202.20
548.51	42405.83
548.67	42419.87
548.84	42309.86
549.01	42639.88
549.18	42143.69
549.34	42106.24
549.51	42253.69
549.68	42499.45
549.84	42377.74
550.01	42557.96
550.18	42253.69
550.34	42335.61
550.51	42295.82
550.68	42340.29
550.84	42143.69
551.01	42267.73
551.18	42576.69
551.34	42621.16
551.51	42836.48
551.68	42382.42
551.84	42471.36
552.01	42478.38
552.18	42902.02
552.34	42541.58
552.51	42909.04
552.68	42815.42
552.84	43117.35
553.01	43210.97
553.18	42813.08
553.34	42955.85
553.51	42497.11
553.67	43110.33
553.84	43089.26
554.01	42862.23
554.17	43096.28
554.34	43250.76
554.51	43316.29
554.67	43590.14
554.84	43496.52
555.00	43346.72
555.17	43402.89
555.33	43665.03
555.50	43335.02
555.67	43049.47
555.83	43550.35
556.00	43548.01
556.16	43927.17
556.33	43515.24
556.50	43332.68
556.66	43700.14
556.83	43892.07
556.99	43840.57
557.16	43571.41
557.32	43817.17
557.49	43908.45
557.65	43524.60
557.82	43842.92
557.98	43442.68
558.15	43456.73
558.32	43583.12
558.48	43227.35
558.65	44107.40
558.81	43559.71
558.98	43885.04
559.14	43812.49
559.31	43999.73
559.47	43997.39
559.64	44128.46
559.80	44133.14
559.97	44163.57
560.13	44098.03
560.30	43896.75
560.46	43775.04
560.63	44339.11
560.79	43875.68
560.96	44500.61
561.12	44034.84
561.29	44439.75
561.45	43936.54
561.61	44069.95
561.78	44048.88
561.94	44006.75
562.11	43950.58
562.27	44257.19
562.44	43973.98
562.60	44170.59
562.77	44737.00
562.93	43997.39
563.10	44390.60
563.26	44126.12
563.42	44163.57
563.59	44521.67
563.75	44390.60
563.92	44493.58
564.08	44334.43
564.24	44502.95
564.41	44236.12
564.57	44217.40
564.74	44849.35
564.90	44540.39
565.07	44219.74
565.23	44568.48
565.39	44451.45
565.56	44584.86
565.72	44570.82
565.88	44406.98
566.05	44491.24
566.21	44423.37
566.38	44556.78
566.54	44561.46
566.70	44720.62
566.87	45153.62
567.03	44748.70
567.19	44762.75
567.36	44905.52
567.52	44343.79
567.68	45394.69
567.85	44362.51
568.01	45057.65
568.17	44343.79
568.34	44622.31
568.50	44610.61
568.66	44788.49
568.83	45120.85
568.99	44072.29
569.15	44718.28
569.32	44954.67
569.48	44652.74
569.64	45010.84
569.81	45059.99
569.97	44439.75
570.13	44947.65
570.30	44374.22
570.46	44264.21
570.62	44568.48
570.78	44631.68
570.95	44772.11
571.11	45200.43
571.27	44467.84
571.43	44397.62
571.60	45303.41
571.76	44697.21
571.92	44748.70
572.09	44591.89
572.25	44889.13
572.41	44968.71
572.57	44868.07
572.74	45282.34
572.90	44722.96
573.06	44486.56
573.22	44844.66
573.38	44800.19
573.55	44486.56
573.71	45031.91
573.87	44619.97
574.03	44683.17
574.20	44804.88
574.36	44910.20
574.52	44828.28
574.68	44933.60
574.84	45123.19
575.01	45340.86
575.17	45198.09
575.33	44528.69
575.49	44737.00
575.65	45104.46
575.82	45209.79
575.98	44989.78
576.14	45308.09
576.30	44985.10
576.46	44477.20
576.62	45130.21
576.79	44734.66
576.95	44259.53
577.11	45085.74
577.27	44919.56
577.43	45265.96
577.59	45059.99
577.75	44825.94
577.92	44821.26
578.08	45167.66
578.24	45081.06
578.40	44711.25
578.56	45013.18
578.72	45088.08
578.88	44982.76
579.04	45015.52
579.21	45097.44
579.37	44610.61
579.53	45041.27
579.69	44872.75
579.85	45240.21
580.01	45057.65
580.17	45071.70
580.33	45050.63
580.49	45450.86
580.65	44996.80
580.82	45078.72
580.98	45294.05
581.14	44786.15
581.30	45109.14
581.46	45235.53
581.62	44825.94
581.78	44886.79
581.94	45535.12
582.10	45148.93
582.26	45085.74
582.42	45272.98
582.58	45247.24
582.74	45275.32
582.90	45186.38
583.06	45237.87
583.22	45158.30
583.38	45537.46
583.54	45490.65
583.70	44987.44
583.86	44818.92
584.02	44624.65
584.18	44924.24
584.34	45357.24
584.50	44851.69
584.66	45214.47
584.82	45146.59
584.98	45846.41
585.14	45083.40
585.30	44945.31
585.46	45137.23
585.62	44945.31
585.78	45244.90
585.94	45010.84
586.10	44538.05
586.26	44952.33
586.42	44942.97
586.58	45483.63
586.74	45102.12
586.90	45387.67
587.06	44996.80
587.22	45469.59
587.38	44945.31
587.54	45729.39
587.70	45441.50
587.86	44933.60
588.02	45340.86
588.18	45242.56
588.34	44898.50
588.49	45043.61
588.65	44648.06
588.81	44732.32
588.97	44964.03
589.13	44739.34
589.29	45106.80
589.45	45043.61
589.61	45387.67
589.77	45230.85
589.93	45212.13
590.08	45303.41
590.24	45336.18
