SpectraSuite Data File
++++++++++++++++++++++++++++++++++++
Date: Fri Oct 25 11:22:49 EDT 2013
User: price-jones
Dark Spectrum Present: No
Reference Spectrum Present: No
Number of Sampled Component Spectra: 1
Spectrometers: USB2+H05261
Integration Time (usec): 100000 (USB2+H05261)
Spectra Averaged: 1 (USB2+H05261)
Boxcar Smoothing: 0 (USB2+H05261)
Correct for Electrical Dark: No (USB2+H05261)
Strobe/Lamp Enabled: No (USB2+H05261)
Correct for Detector Non-linearity: No (USB2+H05261)
Correct for Stray Light: No (USB2+H05261)
Number of Pixels in Processed Spectrum: 2048
>>>>>Begin Processed Spectral Data<<<<<
365.73	222.35
365.92	222.35
366.12	222.35
366.32	161.50
366.52	156.82
366.72	124.05
366.91	100.64
367.11	88.94
367.31	177.88
367.51	152.13
367.70	117.03
367.90	124.05
368.10	163.84
368.30	175.54
368.49	149.79
368.69	149.79
368.89	140.43
369.09	205.97
369.28	147.45
369.48	128.73
369.68	161.50
369.87	175.54
370.07	210.65
370.27	243.42
370.47	325.33
370.66	489.17
370.86	599.18
371.06	622.58
371.25	613.22
371.45	662.37
371.65	631.94
371.84	613.22
372.04	615.56
372.24	683.44
372.44	676.41
372.63	718.54
372.83	819.19
373.03	732.59
373.22	734.93
373.42	744.29
373.62	802.80
373.81	692.80
374.01	737.27
374.21	805.14
374.40	746.63
374.60	880.04
374.79	880.04
374.99	753.65
375.19	814.51
375.38	767.70
375.58	777.06
375.78	842.59
375.97	861.32
376.17	851.96
376.37	858.98
376.56	840.25
376.76	880.04
376.95	889.40
377.15	863.66
377.35	976.00
377.54	873.02
377.74	882.38
377.93	812.17
378.13	980.68
378.33	943.24
378.52	847.27
378.72	959.62
378.91	931.53
379.11	889.40
379.31	1006.43
379.50	905.79
379.70	924.51
379.89	997.07
380.09	931.53
380.28	1027.50
380.48	933.87
380.68	912.81
380.87	950.26
381.07	1008.77
381.26	997.07
381.46	1060.26
381.65	1022.81
381.85	1039.20
382.04	1043.88
382.24	999.41
382.43	1020.47
382.63	973.66
382.83	1083.67
383.02	1111.75
383.22	1191.33
383.41	1015.79
383.61	1100.05
383.80	1149.20
384.00	1135.16
384.19	1111.75
384.39	1142.18
384.58	1118.78
384.78	1214.74
384.97	1188.99
385.17	1181.97
385.36	1114.10
385.56	1203.04
385.75	1116.44
385.95	1142.18
386.14	1252.19
386.34	1231.12
386.53	1221.76
386.72	1165.59
386.92	1163.25
387.11	1256.87
387.31	1301.34
387.50	1261.55
387.70	1259.21
387.89	1226.44
388.09	1226.44
388.28	1219.42
388.48	1376.24
388.67	1284.95
388.86	1348.15
389.06	1308.36
389.25	1284.95
389.45	1284.95
389.64	1334.11
389.84	1320.06
390.03	1460.49
390.22	1366.87
390.42	1310.70
390.61	1336.45
390.81	1404.32
391.00	1497.94
391.19	1420.71
391.39	1406.66
391.58	1437.09
391.78	1476.88
391.97	1568.16
392.16	1540.07
392.36	1558.80
392.55	1493.26
392.75	1476.88
392.94	1537.73
393.13	1474.54
393.33	1610.29
393.52	1497.94
393.71	1596.25
393.91	1596.25
394.10	1497.94
394.29	1556.46
394.49	1495.60
394.68	1668.80
394.88	1568.16
395.07	1743.70
395.26	1708.59
395.46	1614.97
395.65	1757.74
395.84	1689.87
396.04	1795.19
396.23	1706.25
396.42	1739.02
396.62	1788.17
396.81	1788.17
397.00	1804.55
397.19	1706.25
397.39	1783.49
397.58	1863.07
397.77	1923.92
397.97	1874.77
398.16	1832.64
398.35	1987.11
398.55	1874.77
398.74	1994.14
398.93	2047.97
399.12	1954.35
399.32	1872.43
399.51	2005.84
399.70	2127.55
399.90	1952.01
400.09	2015.20
400.28	2083.08
400.47	1961.37
400.67	2106.48
400.86	2120.53
401.05	2050.31
401.24	2092.44
401.44	2045.63
401.63	2085.42
401.82	2071.37
402.01	2101.80
402.21	2136.91
402.40	2242.23
402.59	2228.19
402.78	2263.30
402.97	2282.02
403.17	2232.87
403.36	2244.57
403.55	2403.73
403.74	2319.47
403.93	2434.16
404.13	2399.05
404.32	2387.35
404.51	2293.72
404.70	2356.92
404.89	2321.81
405.09	2413.09
405.28	2495.01
405.47	2560.55
405.66	2583.95
405.85	2445.86
406.05	2541.82
406.24	2670.55
406.43	2588.63
406.62	2689.28
406.81	2684.59
407.00	2616.72
407.20	2602.68
407.39	2612.04
407.58	2703.32
407.77	2789.92
407.96	2752.47
408.15	2677.57
408.34	2785.24
408.54	2785.24
408.73	2757.15
408.92	2717.36
409.11	2857.79
409.30	2885.88
409.49	2977.16
409.68	2867.16
409.87	2848.43
410.07	2988.86
410.26	3077.80
410.45	3002.91
410.64	3073.12
410.83	3049.72
411.02	3084.83
411.21	3180.79
411.40	3101.21
411.59	3192.49
411.78	3222.92
411.98	3330.58
412.17	3431.23
412.36	3461.65
412.55	3208.87
412.74	3426.54
412.93	3475.70
413.12	3466.33
413.31	3585.70
413.50	3386.76
413.69	3534.21
413.88	3590.38
414.07	3555.27
414.26	3583.36
414.45	3728.47
414.64	3637.19
414.83	3707.41
415.02	3740.18
415.22	3868.91
415.41	3885.29
415.60	3889.97
415.79	3840.82
415.98	4077.21
416.17	4058.49
416.36	3992.95
416.55	4088.92
416.74	4095.94
416.93	4046.79
417.12	4156.79
417.31	4133.39
417.50	4182.54
417.69	4189.56
417.88	4180.20
418.07	4142.75
418.26	4456.38
418.45	4334.67
418.64	4269.14
418.83	4461.06
419.02	4273.82
419.21	4517.23
419.39	4507.87
419.58	4561.70
419.77	4409.57
419.96	4575.75
420.15	4512.55
420.34	4702.14
420.53	4641.28
420.72	4856.61
420.91	4695.11
421.10	4772.35
421.29	4751.29
421.48	4608.51
421.67	4667.03
421.86	4746.61
422.05	4894.06
422.24	4887.04
422.43	4837.89
422.61	4940.87
422.80	4931.51
422.99	4943.21
423.18	4973.64
423.37	5032.15
423.56	4947.89
423.75	4957.25
423.94	4713.84
424.13	4641.28
424.32	4903.42
424.50	5025.13
424.69	5032.15
424.88	5032.15
425.07	5036.83
425.26	4919.81
425.45	5022.79
425.64	4919.81
425.83	4877.68
426.01	5085.98
426.20	5032.15
426.39	5151.52
426.58	5263.86
426.77	5198.33
426.96	5195.99
427.15	5118.75
427.33	5221.74
427.52	5104.71
427.71	5263.86
427.90	5228.76
428.09	5327.06
428.28	5394.93
428.46	5509.62
428.65	5444.09
428.84	5535.37
429.03	5607.92
429.22	5413.66
429.40	5469.83
429.59	5493.24
429.78	5165.56
429.97	5376.21
430.16	5518.98
430.34	5696.86
430.53	5673.46
430.72	5638.35
430.91	5495.58
431.10	5626.65
431.28	5668.78
431.47	5783.46
431.66	5863.04
431.85	5860.70
432.03	6024.54
432.22	6108.80
432.41	5825.59
432.60	5802.19
432.79	5989.43
432.97	6015.18
433.16	6069.01
433.35	5954.32
433.54	5956.66
433.72	6150.93
433.91	6195.40
434.10	6146.25
434.28	6195.40
434.47	6274.98
434.66	6228.17
434.85	6359.24
435.03	6403.71
435.22	6211.78
435.41	6534.78
435.59	6448.18
435.78	6434.13
435.97	6450.52
436.16	6331.15
436.34	6532.44
436.53	6569.88
436.72	6424.77
436.90	6452.86
437.09	6682.23
437.28	6647.12
437.46	6640.10
437.65	6682.23
437.84	6715.00
438.02	6747.76
438.21	6778.19
438.40	6574.56
438.58	6930.33
438.77	7021.61
438.96	6960.75
439.14	7215.87
439.33	7150.34
439.52	7138.63
439.70	7253.32
439.89	7447.58
440.08	7290.77
440.26	7456.95
440.45	7513.12
440.63	7482.69
440.82	7625.47
441.01	7655.89
441.19	7611.42
441.38	7819.73
441.57	7683.98
441.75	7737.81
441.94	7885.26
442.12	8147.40
442.31	8077.19
442.50	8044.42
442.68	8063.15
442.87	7999.95
443.05	8116.98
443.24	8231.66
443.43	8088.89
443.61	8168.47
443.80	8219.96
443.98	8030.38
444.17	7918.03
444.35	8222.30
444.54	8379.12
444.73	8276.13
444.91	8252.73
445.10	8269.11
445.28	8491.46
445.47	8311.24
445.65	8442.31
445.84	8568.70
446.02	8423.59
446.21	8421.25
446.39	8367.42
446.58	8512.53
446.77	8589.77
446.95	8215.28
447.14	8547.64
447.32	8465.72
447.51	8589.77
447.69	8435.29
447.88	8650.62
448.06	8355.71
448.25	8667.00
448.43	8629.56
448.62	8552.32
448.80	8669.34
448.99	8624.87
449.17	8947.87
449.36	8638.92
449.54	8823.82
449.73	8856.59
449.91	8950.21
450.10	8931.48
450.28	9195.96
450.46	9095.32
450.65	9181.92
450.83	9081.28
451.02	8971.27
451.20	9287.25
451.39	9327.03
451.57	9167.88
451.76	9195.96
451.94	9219.37
452.13	9345.76
452.31	9394.91
452.49	9226.39
452.68	9415.98
452.86	9350.44
453.05	9554.07
453.23	9556.41
453.42	9451.08
453.60	9277.88
453.78	9598.54
453.97	9437.04
454.15	9643.01
454.34	9455.76
454.52	9689.82
454.70	9558.75
454.89	9996.43
455.07	9736.63
455.26	9795.14
455.44	9968.34
455.62	9895.78
455.81	9947.28
455.99	10129.84
456.17	10181.33
456.36	10237.50
456.54	10061.96
456.73	10377.94
456.91	10382.62
457.09	10394.32
457.28	10703.27
457.46	10406.02
457.64	10452.83
457.83	10626.03
458.01	10452.83
458.19	10558.16
458.38	10750.08
458.56	10682.20
458.74	10377.94
458.93	10780.51
459.11	10841.36
459.29	10785.19
459.48	10951.37
459.66	10850.72
459.84	11002.86
460.03	11290.74
460.21	11049.67
460.39	11037.97
460.57	10998.18
460.76	11101.16
460.94	11157.33
461.12	11250.96
461.31	11098.82
461.49	11133.93
461.67	11475.65
461.85	11543.52
462.04	11349.26
462.22	11857.15
462.40	11365.64
462.59	11297.77
462.77	11571.61
462.95	11836.09
463.13	11492.03
463.32	11735.45
463.50	11616.08
463.68	11590.33
463.86	12168.45
464.05	11815.02
464.23	11737.79
464.41	12004.61
464.59	11859.49
464.78	12187.17
464.96	12280.79
465.14	12105.25
465.32	12116.95
465.50	11999.93
465.69	12086.53
465.87	12205.89
466.05	12198.87
466.23	12238.66
466.41	12259.73
466.60	12400.16
466.78	12276.11
466.96	12318.24
467.14	12322.92
467.32	12587.40
467.51	12669.32
467.69	12365.05
467.87	12561.66
468.05	12695.07
468.23	12636.55
468.41	12453.99
468.60	12510.16
468.78	12996.99
468.96	12872.95
469.14	12830.82
469.32	12741.88
469.50	12601.44
469.69	13095.30
469.87	13085.94
470.05	13107.00
470.23	13046.15
470.41	13327.01
470.59	13357.44
470.77	13369.14
470.95	13547.02
471.14	13418.29
471.32	13116.36
471.50	13703.84
471.68	13542.34
471.86	13446.38
472.04	13937.89
472.22	14099.39
472.40	13481.49
472.58	13935.55
472.77	13965.98
472.95	14401.32
473.13	14651.75
473.31	14162.58
473.49	13961.30
473.67	14312.38
473.85	14328.76
474.03	14616.65
474.21	14485.58
474.39	14853.04
474.57	14689.20
474.75	14820.27
474.93	15073.05
475.12	15049.64
475.30	15178.37
475.48	14789.85
475.66	15272.00
475.84	15094.11
476.02	15571.58
476.20	15637.12
476.38	15623.08
476.56	16105.23
476.74	16175.44
476.92	15770.53
477.10	15857.13
477.28	16257.36
477.46	16217.57
477.64	16535.88
477.82	16610.78
478.00	17280.18
478.18	16896.33
478.36	17011.01
478.54	17280.18
478.72	17472.10
478.90	17544.66
479.08	17624.23
479.26	18022.12
479.44	17699.13
479.62	18024.47
479.80	17877.01
479.98	18321.71
480.16	18464.49
480.34	18384.91
480.52	18625.98
480.70	18583.85
480.88	18434.06
481.06	18794.50
481.24	18923.23
481.41	19377.30
481.59	19248.57
481.77	19704.97
481.95	19506.02
482.13	20011.58
482.31	19854.76
482.49	20463.30
482.67	20198.82
482.85	20582.67
483.03	20905.66
483.21	20868.22
483.39	20943.11
483.57	21088.23
483.74	21081.21
483.92	21479.10
484.10	21174.83
484.28	22359.14
484.46	22401.27
484.64	22331.05
484.82	22167.21
485.00	22382.54
485.18	22808.52
485.35	23278.97
485.53	23014.49
485.71	23044.91
485.89	23419.40
486.07	23452.17
486.25	23454.51
486.43	23461.53
486.61	23878.15
486.78	23990.49
486.96	24011.56
487.14	24484.34
487.32	24776.91
487.50	25015.65
487.68	25001.60
487.85	25867.60
488.03	25720.15
488.21	25654.61
488.39	25900.37
488.57	26331.03
488.75	26445.71
488.92	26536.99
489.10	26780.41
489.28	26658.70
489.46	26850.63
489.64	26855.31
489.81	27929.61
489.99	27828.97
490.17	27751.73
490.35	28276.01
490.53	28203.46
490.70	28554.54
490.88	28243.24
491.06	28971.15
491.24	28891.57
491.41	29118.60
491.59	29322.23
491.77	29839.49
491.95	29909.71
492.13	29912.05
492.30	29741.19
492.48	30103.97
492.66	30057.16
492.84	30782.73
493.01	30749.96
493.19	30827.20
493.37	31248.49
493.54	31197.00
493.72	31730.64
493.90	31632.34
494.08	31971.72
494.25	32058.32
494.43	31917.89
494.61	32582.60
494.79	32940.70
494.96	32697.28
495.14	32917.29
495.32	33071.77
495.49	32940.70
495.67	33263.69
495.85	33736.48
496.02	33783.29
496.20	34316.93
496.38	34117.99
496.55	34518.22
496.73	34866.96
496.91	34628.23
497.09	35122.08
497.26	35157.19
497.44	35000.37
497.62	35468.48
497.79	35861.69
497.97	35751.68
498.14	35943.61
498.32	36261.92
498.50	36243.20
498.67	36591.94
498.85	36470.23
499.03	36744.07
499.20	36706.62
499.38	36985.15
499.56	36690.24
499.73	37198.13
499.91	37832.42
500.08	38061.79
500.26	37713.05
500.44	37912.00
500.61	38012.64
500.79	38185.84
500.97	38014.98
501.14	38410.53
501.32	38775.66
501.49	38927.79
501.67	38607.14
501.84	39215.68
502.02	38726.50
502.20	39065.88
502.37	39421.64
502.55	39386.54
502.72	39489.52
502.90	39292.91
503.07	39779.74
503.25	40271.26
503.43	39761.02
503.60	40245.51
503.78	40641.06
503.95	40292.32
504.13	40884.48
504.30	40900.86
504.48	40673.83
504.65	40884.48
504.83	41141.94
505.01	41460.25
505.18	41551.53
505.36	42167.09
505.53	41340.88
505.71	41734.09
505.88	41738.77
506.06	41890.91
506.23	42160.07
506.41	41834.74
506.58	42181.13
506.76	42639.88
506.93	42707.76
507.11	42766.27
507.28	42763.93
507.46	42890.32
507.63	43377.15
507.81	43796.10
507.98	42873.93
508.16	43288.21
508.33	43770.36
508.50	43770.36
508.68	43952.92
508.85	44320.38
509.03	44184.63
509.20	44252.51
509.38	44776.79
509.55	44589.55
509.73	44715.93
509.90	44711.25
510.08	44603.59
510.25	44926.58
510.42	45116.17
510.60	45134.89
510.77	45635.77
510.95	45483.63
511.12	45366.60
511.30	45492.99
511.47	45497.67
511.64	45649.81
511.82	46403.46
511.99	45867.48
512.17	46256.01
512.34	45909.61
512.51	46497.08
512.69	46621.13
512.86	46611.77
513.04	47035.41
513.21	46389.42
513.38	46845.82
513.56	47077.54
513.73	46941.78
513.90	47393.51
514.08	47260.10
514.25	47360.74
514.43	47840.55
514.60	47580.75
514.77	47620.54
514.95	47966.94
515.12	47690.76
515.29	48210.35
515.47	48151.84
515.64	48275.89
515.81	48416.32
515.99	48444.41
516.16	48573.14
516.33	48460.79
516.51	48449.09
516.68	48928.90
516.85	48648.03
517.03	49350.20
517.20	49216.78
517.37	49076.35
517.54	48921.88
517.72	49268.28
517.89	49249.55
518.06	49553.82
518.24	49130.19
518.41	49270.62
518.58	49741.06
518.75	49577.23
518.93	49996.18
519.10	49471.90
519.27	50054.70
519.45	49954.05
519.62	50066.40
519.79	50096.83
519.96	50150.66
520.14	50494.72
520.31	50176.40
520.48	50684.30
520.65	50829.41
520.83	50845.80
521.00	50649.19
521.17	50742.81
521.34	50930.06
521.52	50916.01
521.69	51093.89
521.86	50997.93
522.03	51679.03
522.20	51426.25
522.38	51452.00
522.55	51487.10
522.72	51452.00
522.89	51367.74
523.07	51707.12
523.24	51571.36
523.41	51714.14
523.58	51943.51
523.75	51966.91
523.92	51863.93
524.10	52158.84
524.27	52210.33
524.44	52257.14
524.61	52058.20
524.78	52205.65
524.96	52266.50
525.13	52449.06
525.30	52481.83
525.47	52795.46
525.64	52755.68
525.81	52729.93
525.98	52842.27
526.16	53027.18
526.33	52928.87
526.50	53137.18
526.67	52828.23
526.84	52905.47
527.01	52994.41
527.18	53137.18
527.36	53169.95
527.53	53308.04
527.70	53471.88
527.87	53378.26
528.04	53139.52
528.21	53415.71
528.38	53684.87
528.55	53691.89
528.72	53645.08
528.89	53530.39
529.07	53605.29
529.24	53708.27
529.41	53820.62
529.58	54073.40
529.75	54003.18
529.92	53925.94
530.09	53986.80
530.26	54195.10
530.43	54155.32
530.60	54202.13
530.77	54230.21
530.94	54522.78
531.11	54075.74
531.28	54316.81
531.46	54525.12
531.63	54555.55
531.80	54595.34
531.97	54602.36
532.14	54827.05
532.31	54801.30
532.48	54698.32
532.65	54801.30
532.82	54609.38
532.99	54880.88
533.16	54752.15
533.33	55056.42
533.50	55025.99
533.67	55025.99
533.84	54986.21
534.01	54955.78
534.18	54976.84
534.35	55391.12
534.52	55178.13
534.69	55540.91
534.86	55475.38
535.03	55344.31
535.20	55234.30
535.37	55487.08
535.54	55358.35
535.71	55309.20
535.88	55664.96
536.05	55278.77
536.22	55915.40
536.38	55370.05
536.55	55597.09
536.72	55674.32
536.89	55517.51
537.06	55641.56
537.23	55842.84
537.40	55814.76
537.57	55594.74
537.74	55913.06
537.91	55992.64
538.08	55896.67
538.25	55765.60
538.42	56051.15
538.59	56385.85
538.75	56083.92
538.92	56189.24
539.09	56409.25
539.26	56308.61
539.43	56020.72
539.60	56647.99
539.77	56437.34
539.94	56631.60
540.11	56711.18
540.28	56446.70
540.44	56442.02
540.61	56666.71
540.78	56423.29
540.95	56605.86
541.12	56299.25
541.29	56842.25
541.46	56643.30
541.62	56783.74
541.79	56914.81
541.96	56355.42
542.13	56898.42
542.30	56664.37
542.47	56973.32
542.63	57069.28
542.80	57092.69
542.97	57385.25
543.14	57537.39
543.31	56982.68
543.48	57202.69
543.64	57567.82
543.81	57324.40
543.98	57198.01
544.15	57371.21
544.32	57511.64
544.48	57598.24
544.65	57542.07
544.82	57481.22
544.99	57403.98
545.16	57778.46
545.32	57467.17
545.49	57771.44
545.66	57832.30
545.83	57876.77
546.00	58047.63
546.16	57928.26
546.33	57640.37
546.50	57766.76
546.67	57860.38
546.83	57516.32
547.00	57954.00
547.17	57839.32
547.34	57895.49
547.50	58164.65
547.67	58314.45
547.84	58014.86
548.00	58052.31
548.17	58351.90
548.34	58192.74
548.51	58038.26
548.67	58159.97
548.84	58511.05
549.01	58244.23
549.18	58265.30
549.34	58335.51
549.51	58473.60
549.68	58548.50
549.84	58602.33
550.01	58534.46
550.18	58291.04
550.34	58419.77
550.51	58623.40
550.68	58574.25
550.84	58302.74
551.01	58745.11
551.18	58632.76
551.34	58728.72
551.51	58763.83
551.68	58614.04
551.84	58576.59
552.01	58705.32
552.18	58944.05
552.34	58719.36
552.51	58836.39
552.68	58834.05
552.84	58656.17
553.01	59007.25
553.18	58922.99
553.34	58969.80
553.51	58932.35
553.67	59068.10
553.84	59257.68
554.01	59105.55
554.17	59054.06
554.34	59341.94
554.51	58962.78
554.67	59208.53
554.84	59107.89
555.00	59126.61
555.17	59070.44
555.33	59061.08
555.50	58862.13
555.67	59086.82
555.83	59096.19
556.00	59283.43
556.16	59320.88
556.33	59515.14
556.50	59269.39
556.66	59627.49
556.83	59138.32
556.99	59447.27
557.16	59683.66
557.32	59601.74
557.49	59749.20
557.65	59482.37
557.82	59323.22
557.98	59426.20
558.15	59456.63
558.32	59559.61
558.48	59442.59
558.65	59662.60
558.81	59681.32
558.98	59819.41
559.14	59690.68
559.31	59746.86
559.47	59749.20
559.64	60037.08
559.80	59803.03
559.97	59971.55
560.13	59718.77
560.30	59800.69
560.46	59880.27
560.63	59835.80
560.79	59955.16
560.96	59943.46
561.12	60238.37
561.29	60037.08
561.45	60027.72
561.61	59838.14
561.78	59753.88
561.94	59906.01
562.11	59901.33
562.27	60233.69
562.44	60051.12
562.60	60353.05
562.77	59955.16
562.93	59686.00
563.10	60203.26
563.26	60006.65
563.42	60238.37
563.59	60156.45
563.75	60193.90
563.92	60065.17
564.08	60058.15
564.24	60381.14
564.41	60165.81
564.57	60299.22
564.74	60196.24
564.90	60107.30
565.07	60252.41
565.23	60243.05
565.39	60343.69
565.56	60385.82
565.72	60339.01
565.88	60058.15
566.05	60083.89
566.21	60252.41
566.38	60573.06
566.54	60240.71
566.70	60446.68
566.87	60521.57
567.03	60308.58
567.19	60540.30
567.36	60439.65
567.52	60409.23
567.68	60638.60
567.85	60390.50
568.01	60636.26
568.17	60720.52
568.34	60711.16
568.50	60303.90
568.66	60411.57
568.83	60530.93
568.99	60336.67
569.15	60512.21
569.32	60556.68
569.48	60465.40
569.64	60633.92
569.81	60568.38
569.97	60507.53
570.13	60767.33
570.30	60432.63
570.46	60498.17
570.62	60725.20
570.78	60629.24
570.95	60577.75
571.11	60683.07
571.27	60617.53
571.43	60598.81
571.60	60825.84
571.76	60720.52
571.92	60975.64
572.09	60645.62
572.25	60694.77
572.41	60498.17
572.57	60711.16
572.74	60811.80
572.90	60809.46
573.06	60802.44
573.22	60774.35
573.38	60839.89
573.55	60687.75
573.71	60832.86
573.87	60779.03
574.03	60451.36
574.20	60828.18
574.36	60685.41
574.52	60694.77
574.68	61130.11
574.84	60996.70
575.01	61001.38
575.17	60959.25
575.33	60739.24
575.49	60959.25
575.65	60961.59
575.82	60802.44
575.98	60891.38
576.14	61059.90
576.30	60891.38
576.46	60849.25
576.62	60795.42
576.79	60874.99
576.95	60975.64
577.11	60933.51
577.27	61022.45
577.43	61069.26
577.59	60898.40
577.75	60795.42
577.92	60867.97
578.08	60945.21
578.24	61048.19
578.40	61095.00
578.56	60891.38
578.72	61034.15
578.88	61148.84
579.04	61041.17
579.21	61190.97
579.37	60954.57
579.53	61268.20
579.69	60788.39
579.85	60977.98
580.01	61043.51
580.17	60783.71
580.33	61066.92
580.49	61109.05
580.65	61113.73
580.82	60924.14
580.98	60903.08
581.14	60884.36
581.30	61055.21
581.46	60942.87
581.62	61176.92
581.78	60891.38
581.94	61097.34
582.10	61062.24
582.26	60954.57
582.42	61120.75
582.58	61169.90
582.74	60954.57
582.90	61008.40
583.06	61106.71
583.22	60931.17
583.38	60860.95
583.54	61209.69
583.70	61298.63
583.86	61315.01
584.02	61043.51
584.18	61111.39
584.34	61205.01
584.50	61134.79
584.66	60795.42
584.82	60842.23
584.98	61130.11
585.14	61305.65
585.30	60961.59
585.46	61146.50
585.62	61186.28
585.78	61347.78
585.94	60977.98
586.10	61057.56
586.26	61214.37
586.42	61209.69
586.58	61090.32
586.74	61132.45
586.90	61097.34
587.06	61020.11
587.22	61476.51
587.38	61183.94
587.54	61263.52
587.70	61137.13
587.86	61226.07
588.02	61057.56
588.18	61307.99
588.34	61186.28
588.49	61052.87
