SpectraSuite Data File
++++++++++++++++++++++++++++++++++++
Date: Fri Oct 25 11:23:51 EDT 2013
User: price-jones
Dark Spectrum Present: No
Reference Spectrum Present: No
Number of Sampled Component Spectra: 1
Spectrometers: USB2+H05261
Integration Time (usec): 100000 (USB2+H05261)
Spectra Averaged: 1 (USB2+H05261)
Boxcar Smoothing: 0 (USB2+H05261)
Correct for Electrical Dark: No (USB2+H05261)
Strobe/Lamp Enabled: No (USB2+H05261)
Correct for Detector Non-linearity: No (USB2+H05261)
Correct for Stray Light: No (USB2+H05261)
Number of Pixels in Processed Spectrum: 2048
>>>>>Begin Processed Spectral Data<<<<<
365.73	184.90
365.92	184.90
366.12	184.90
366.32	168.52
366.52	170.86
366.72	201.29
366.91	112.35
367.11	86.60
367.31	128.73
367.51	133.41
367.70	145.11
367.90	121.71
368.10	152.13
368.30	112.35
368.49	74.90
368.69	154.48
368.89	166.18
369.09	119.37
369.28	126.39
369.48	124.05
369.68	203.63
369.87	262.14
370.07	259.80
370.27	269.16
370.47	297.25
370.66	608.54
370.86	634.29
371.06	711.52
371.25	657.69
371.45	634.29
371.65	624.92
371.84	683.44
372.04	695.14
372.24	713.86
372.44	692.80
372.63	767.70
372.83	727.91
373.03	798.12
373.22	720.88
373.42	718.54
373.62	812.17
373.81	800.46
374.01	821.53
374.21	767.70
374.40	793.44
374.60	781.74
374.79	861.32
374.99	816.85
375.19	863.66
375.38	809.83
375.58	858.98
375.78	844.93
375.97	858.98
376.17	943.24
376.37	875.36
376.56	898.77
376.76	830.89
376.95	889.40
377.15	875.36
377.35	908.13
377.54	896.43
377.74	922.17
377.93	924.51
378.13	919.83
378.33	926.85
378.52	833.23
378.72	945.58
378.91	952.60
379.11	983.02
379.31	936.21
379.50	835.57
379.70	866.00
379.89	990.05
380.09	976.00
380.28	940.90
380.48	912.81
380.68	908.13
380.87	1041.54
381.07	978.34
381.26	1011.11
381.46	1069.62
381.65	1039.20
381.85	1130.48
382.04	1048.56
382.24	1081.33
382.43	1048.56
382.63	1100.05
382.83	1139.84
383.02	1135.16
383.22	1179.63
383.41	1090.69
383.61	1062.60
383.80	1067.28
384.00	1046.22
384.19	1111.75
384.39	1118.78
384.58	1102.39
384.78	1116.44
384.97	1011.11
385.17	1076.65
385.36	1095.37
385.56	1184.31
385.75	1128.14
385.95	1172.61
386.14	1200.69
386.34	1174.95
386.53	1254.53
386.72	1200.69
386.92	1376.24
387.11	1163.25
387.31	1205.38
387.50	1266.23
387.70	1355.17
387.89	1357.51
388.09	1261.55
388.28	1308.36
388.48	1249.85
388.67	1282.61
388.86	1238.14
389.06	1247.51
389.25	1224.10
389.45	1427.73
389.64	1359.85
389.84	1406.66
390.03	1453.47
390.22	1387.94
390.42	1355.17
390.61	1427.73
390.81	1364.53
391.00	1352.83
391.19	1441.77
391.39	1427.73
391.58	1453.47
391.78	1413.68
391.97	1448.79
392.16	1579.86
392.36	1554.12
392.55	1472.20
392.75	1551.78
392.94	1511.99
393.13	1467.52
393.33	1561.14
393.52	1507.30
393.71	1561.14
393.91	1614.97
394.10	1596.25
394.29	1577.52
394.49	1533.05
394.68	1565.82
394.88	1572.84
395.07	1579.86
395.26	1701.57
395.46	1621.99
395.65	1703.91
395.84	1792.85
396.04	1783.49
396.23	1853.70
396.42	1757.74
396.62	1757.74
396.81	1879.45
397.00	1785.83
397.19	1830.30
397.39	1774.13
397.58	1823.28
397.77	1874.77
397.97	1886.47
398.16	1846.68
398.35	1940.30
398.55	1804.55
398.74	1853.70
398.93	1991.80
399.12	1977.75
399.32	1865.41
399.51	1954.35
399.70	2045.63
399.90	2022.22
400.09	1959.03
400.28	2054.99
400.47	1966.05
400.67	2134.57
400.86	2045.63
401.05	2090.10
401.24	2115.84
401.44	2043.29
401.63	2239.89
401.82	2097.12
402.01	2202.44
402.21	2125.21
402.40	2160.31
402.59	2204.78
402.78	2211.81
402.97	2335.85
403.17	2216.49
403.36	2256.28
403.55	2284.36
403.74	2370.96
403.93	2392.03
404.13	2436.50
404.32	2373.30
404.51	2342.88
404.70	2401.39
404.89	2459.90
405.09	2487.99
405.28	2373.30
405.47	2605.02
405.66	2504.37
405.85	2637.78
406.05	2408.41
406.24	2530.12
406.43	2656.51
406.62	2686.94
406.81	2651.83
407.00	2612.04
407.20	2583.95
407.39	2616.72
407.58	2813.32
407.77	2775.88
407.96	2771.19
408.15	2825.03
408.34	2642.46
408.54	2803.96
408.73	2806.30
408.92	2918.65
409.11	2806.30
409.30	2846.09
409.49	2909.29
409.68	2892.90
409.87	2998.23
410.07	2932.69
410.26	2993.55
410.45	3035.67
410.64	3012.27
410.83	3066.10
411.02	3073.12
411.21	3192.49
411.40	3063.76
411.59	3131.64
411.78	3173.77
411.98	3274.41
412.17	3293.13
412.36	3342.28
412.55	3361.01
412.74	3325.90
412.93	3346.97
413.12	3524.85
413.31	3637.19
413.50	3496.76
413.69	3456.97
413.88	3782.31
414.07	3517.83
414.26	3660.60
414.45	3765.92
414.64	3676.98
414.83	3751.88
415.02	3737.84
415.22	3691.02
415.41	4044.45
415.60	3950.82
415.79	4018.70
415.98	3892.31
416.17	3981.25
416.36	3810.39
416.55	4070.19
416.74	4145.09
416.93	3995.29
417.12	3981.25
417.31	4189.56
417.50	4166.15
417.69	4259.78
417.88	4381.48
418.07	4400.21
418.26	4271.48
418.45	4477.44
418.64	4496.17
418.83	4568.73
419.02	4465.74
419.21	4610.86
419.39	4477.44
419.58	4454.04
419.77	4472.76
419.96	4608.51
420.15	4660.01
420.34	4681.07
420.53	4596.81
420.72	4704.48
420.91	4786.40
421.10	4744.27
421.29	4873.00
421.48	4697.46
421.67	4903.42
421.86	4833.21
422.05	4830.87
422.24	4741.93
422.43	4898.74
422.61	4865.97
422.80	4856.61
422.99	5036.83
423.18	5100.03
423.37	4957.25
423.56	4999.38
423.75	4926.83
423.94	4762.99
424.13	4440.00
424.32	4718.52
424.50	5050.88
424.69	5203.01
424.88	4985.34
425.07	5018.11
425.26	5029.81
425.45	4983.00
425.64	5050.88
425.83	5004.07
426.01	5146.84
426.20	5191.31
426.39	4968.96
426.58	5151.52
426.77	5160.88
426.96	5135.14
427.15	5114.07
427.33	5146.84
427.52	5109.39
427.71	5256.84
427.90	5252.16
428.09	5291.95
428.28	5469.83
428.46	5383.23
428.65	5284.93
428.84	5467.49
429.03	5397.28
429.22	5348.12
429.40	5598.56
429.59	5526.00
429.78	5327.06
429.97	5242.80
430.16	5479.19
430.34	5507.28
430.53	5675.80
430.72	5675.80
430.91	5816.23
431.10	5668.78
431.28	5846.66
431.47	5830.27
431.66	5839.64
431.85	5764.74
432.03	5870.06
432.22	6029.22
432.41	5944.96
432.60	5951.98
432.79	6031.56
432.97	6235.19
433.16	6038.58
433.35	6106.46
433.54	6012.84
433.72	6223.48
433.91	6171.99
434.10	6200.08
434.28	5893.47
434.47	6169.65
434.66	6338.17
434.85	6256.25
435.03	6532.44
435.22	6394.34
435.41	6424.77
435.59	6567.54
435.78	6443.49
435.97	6558.18
436.16	6399.02
436.34	6368.60
436.53	6555.84
436.72	6679.89
436.90	6546.48
437.09	6635.42
437.28	6492.65
437.46	6626.06
437.65	6642.44
437.84	6871.81
438.02	6834.36
438.21	6860.11
438.40	6604.99
438.58	7019.27
438.77	7199.49
438.96	7007.56
439.14	7262.68
439.33	7173.74
439.52	7136.29
439.70	7337.58
439.89	7316.51
440.08	7396.09
440.26	7463.97
440.45	7363.33
440.63	7506.10
440.82	7606.74
441.01	7396.09
441.19	7658.23
441.38	7772.92
441.57	7742.49
441.75	7918.03
441.94	8065.49
442.12	7903.99
442.31	7887.61
442.50	8077.19
442.68	8060.80
442.87	8079.53
443.05	8308.90
443.24	8124.00
443.43	8140.38
443.61	8313.58
443.80	8566.36
443.98	8135.70
444.17	7903.99
444.35	8119.32
444.54	8528.91
444.73	8344.01
444.91	8411.89
445.10	8367.42
445.28	8238.69
445.47	8145.06
445.65	8336.99
445.84	8489.12
446.02	8421.25
446.21	8379.12
446.39	8566.36
446.58	8608.49
446.77	8449.33
446.95	8313.58
447.14	8402.52
447.32	8435.29
447.51	8386.14
447.69	8690.41
447.88	8697.43
448.06	8706.79
448.25	8690.41
448.43	8711.47
448.62	8589.77
448.80	8414.23
448.99	8798.07
449.17	8620.19
449.36	8704.45
449.54	8971.27
449.73	9020.42
449.91	8973.61
450.10	8905.74
450.28	8990.00
450.46	9078.94
450.65	9078.94
450.83	9100.00
451.02	9193.62
451.20	9303.63
451.39	9195.96
451.57	9224.05
451.76	9170.22
451.94	9135.11
452.13	9322.35
452.31	9249.80
452.49	9153.84
452.68	9465.13
452.86	9366.82
453.05	9500.23
453.23	9579.81
453.42	9528.32
453.60	9467.47
453.78	9572.79
453.97	9437.04
454.15	9406.61
454.34	9486.19
454.52	9706.20
454.70	9792.80
454.89	9837.27
455.07	9675.77
455.26	9738.97
455.44	10045.58
455.62	9968.34
455.81	9816.21
455.99	10097.07
456.17	9977.70
456.36	10113.45
456.54	10178.99
456.73	10188.35
456.91	10279.63
457.09	10705.61
457.28	10466.88
457.46	10289.00
457.64	10532.41
457.83	10394.32
458.01	10417.72
458.19	10691.57
458.38	10455.17
458.56	10721.99
458.74	10768.80
458.93	10937.32
459.11	10860.09
459.29	10824.98
459.48	11056.69
459.66	10839.02
459.84	11136.27
460.03	11131.59
460.21	10995.84
460.39	11059.03
460.57	10946.69
460.76	11255.64
460.94	11012.22
461.12	11257.98
461.31	10923.28
461.49	11131.59
461.67	11267.34
461.85	11625.44
462.04	11468.62
462.22	11501.39
462.40	11676.93
462.59	11454.58
462.77	11609.06
462.95	11777.58
463.13	11733.11
463.32	11829.07
463.50	11695.66
463.68	11756.51
463.86	11847.79
464.05	11653.53
464.23	11929.71
464.41	11922.69
464.59	11784.60
464.78	12210.57
464.96	11983.54
465.14	11920.35
465.32	12184.83
465.50	12170.79
465.69	12163.76
465.87	12133.34
466.05	12100.57
466.23	12105.25
466.41	12067.80
466.60	12351.01
466.78	12278.45
466.96	12233.98
467.14	12334.62
467.32	12528.89
467.51	12615.49
467.69	12374.41
467.87	12559.31
468.05	12556.97
468.23	12571.02
468.41	12510.16
468.60	12851.88
468.78	12779.32
468.96	12711.45
469.14	12940.82
469.32	12875.29
469.50	12519.53
469.69	13303.60
469.87	13074.23
470.05	13109.34
470.23	13252.11
470.41	12992.31
470.59	13427.65
470.77	13214.66
470.95	13156.15
471.14	13661.71
471.32	13256.79
471.50	13448.72
471.68	13661.71
471.86	13692.13
472.04	13703.84
472.22	14202.37
472.40	13933.21
472.58	13834.91
472.77	14012.79
472.95	14221.10
473.13	14614.30
473.31	14181.31
473.49	14438.76
473.67	14050.24
473.85	14518.34
474.03	14789.85
474.21	14728.99
474.39	14691.54
474.57	14635.37
474.75	15098.80
474.93	14979.43
475.12	15154.97
475.30	15267.31
475.48	15028.58
475.66	15145.61
475.84	15269.66
476.02	15300.08
476.20	15180.71
476.38	16018.63
476.56	16168.42
476.74	16255.02
476.92	15871.17
477.10	15822.02
477.28	16353.32
477.46	16112.25
477.64	16556.95
477.82	16411.84
478.00	17048.46
478.18	16989.95
478.36	17025.06
478.54	17369.12
478.72	17207.62
478.90	17425.29
479.08	17830.20
479.26	17671.04
479.44	17720.20
479.62	17888.71
479.80	17820.84
479.98	18338.10
480.16	18553.43
480.34	18537.04
480.52	18621.30
480.70	18558.11
480.88	18539.38
481.06	18757.05
481.24	18778.12
481.41	19229.84
481.59	19342.19
481.77	19316.44
481.95	19580.92
482.13	19878.17
482.31	19531.77
482.49	20177.76
482.67	20360.32
482.85	20608.42
483.03	20884.60
483.21	20900.98
483.39	20978.22
483.57	20952.48
483.74	21252.06
483.92	21406.54
484.10	21298.88
484.28	21642.93
484.46	21937.84
484.64	22190.62
484.82	22118.06
485.00	22438.72
485.18	22637.66
485.35	22948.95
485.53	23295.35
485.71	23185.35
485.89	23644.09
486.07	23510.68
486.25	23777.50
486.43	23316.42
486.61	24163.69
486.78	23896.87
486.96	24261.99
487.14	24704.35
487.32	24765.21
487.50	24929.05
487.68	25057.78
487.85	25603.12
488.03	25631.21
488.21	25830.15
488.39	26036.12
488.57	26017.40
488.75	26274.85
488.92	26544.02
489.10	26703.17
489.28	26822.54
489.46	27190.00
489.64	27417.04
489.81	27501.29
489.99	27452.14
490.17	27770.46
490.35	28126.22
490.53	28311.12
490.70	28690.29
490.88	28453.89
491.06	29111.58
491.24	28924.34
491.41	28865.83
491.59	29542.24
491.77	29237.97
491.95	29762.25
492.13	30108.65
492.30	30162.48
492.48	30038.44
492.66	30323.98
492.84	30433.99
493.01	30724.21
493.19	30396.54
493.37	30876.35
493.54	31299.98
493.72	31929.59
493.90	31630.00
494.08	31604.25
494.25	31992.78
494.43	31983.42
494.61	32252.58
494.79	32416.42
494.96	32348.54
495.14	32706.65
495.32	33497.75
495.49	33202.84
495.67	33188.80
495.85	33472.00
496.02	34071.18
496.20	34160.12
496.38	34239.70
496.55	34281.83
496.73	35019.10
496.91	34888.03
497.09	35257.83
497.26	35065.91
497.44	35194.64
497.62	35370.18
497.79	35590.19
497.97	35360.81
498.14	36187.02
498.32	36067.66
498.50	36364.90
498.67	36573.21
498.85	36596.62
499.03	36795.56
499.20	36732.37
499.38	36971.10
499.56	37317.50
499.73	37017.91
499.91	37432.19
500.08	37900.29
500.26	37359.63
500.44	37907.32
500.61	38232.65
500.79	38061.79
500.97	38485.43
501.14	38859.91
501.32	38607.14
501.49	38738.21
501.67	39098.65
501.84	38951.20
502.02	38794.38
502.20	39100.99
502.37	39292.91
502.55	39248.44
502.72	39618.25
502.90	39812.51
503.07	39510.58
503.25	40137.85
503.43	39941.24
503.60	40203.38
503.78	40390.62
503.95	40179.98
504.13	40554.46
504.30	40306.37
504.48	40685.53
504.65	40903.20
504.83	41357.27
505.01	41659.20
505.18	41722.39
505.36	41839.42
505.53	41078.74
505.71	42019.64
505.88	42131.98
506.06	41666.22
506.23	42057.09
506.41	41886.23
506.58	41951.76
506.76	42108.58
506.93	42726.48
507.11	43000.32
507.28	42871.59
507.46	42480.72
507.63	43150.12
507.81	43363.11
507.98	43428.64
508.16	43047.13
508.33	43852.28
508.50	43613.54
508.68	43643.97
508.85	44076.97
509.03	44041.86
509.20	44383.58
509.38	44652.74
509.55	44690.19
509.73	44589.55
509.90	44779.13
510.08	44568.48
510.25	44804.88
510.42	44554.44
510.60	45074.04
510.77	45284.68
510.95	45329.16
511.12	45214.47
511.30	45223.83
511.47	45663.85
511.64	45890.88
511.82	46513.47
511.99	45715.34
512.17	46225.58
512.34	46405.80
512.51	46483.04
512.69	46553.26
512.86	46162.39
513.04	46899.65
513.21	46373.03
513.38	46719.43
513.56	47210.95
513.73	46871.57
513.90	47239.03
514.08	47372.44
514.25	47522.24
514.43	47847.57
514.60	47650.97
514.77	47239.03
514.95	47941.19
515.12	48055.88
515.29	47885.02
515.47	48107.37
515.64	48404.62
515.81	48009.07
515.99	48332.06
516.16	48556.75
516.33	48612.93
516.51	48821.23
516.68	48533.35
516.85	48795.49
517.03	49013.16
517.20	49104.44
517.37	48769.74
517.54	48835.28
517.72	49038.90
517.89	49240.19
518.06	49200.40
518.24	49268.28
518.41	49406.37
518.58	49270.62
518.75	49525.74
518.93	49478.92
519.10	49448.50
519.27	49708.30
519.45	49942.35
519.62	49902.56
519.79	50204.49
519.96	49837.03
520.14	50181.09
520.31	50183.43
520.48	50419.82
520.65	50625.79
520.83	50901.97
521.00	50880.91
521.17	50602.38
521.34	50553.23
521.52	50880.91
521.69	51098.58
521.86	51283.48
522.03	51444.98
522.20	51405.19
522.38	51676.69
522.55	51517.53
522.72	51107.94
522.89	51152.41
523.07	51999.68
523.24	51416.89
523.41	51594.77
523.58	51543.28
523.75	51793.71
523.92	51615.83
524.10	52348.42
524.27	52053.51
524.44	52023.09
524.61	52296.93
524.78	52271.18
524.96	52666.73
525.13	52259.48
525.30	52502.90
525.47	52734.61
525.64	52561.41
525.81	52598.86
525.98	52701.84
526.16	52671.42
526.33	52519.28
526.50	53244.85
526.67	52804.83
526.84	52868.02
527.01	53099.73
527.18	52945.26
527.36	52917.17
527.53	53069.31
527.70	53600.61
527.87	53537.41
528.04	53221.44
528.21	53495.28
528.38	53469.54
528.55	53668.48
528.72	53446.13
528.89	53509.33
529.07	53572.52
529.24	53530.39
529.41	53729.34
529.58	53888.49
529.75	53846.36
529.92	54017.22
530.09	53801.89
530.26	54157.66
530.43	54066.38
530.60	53947.01
530.77	53944.67
530.94	54117.87
531.11	53937.65
531.28	54326.17
531.46	54344.90
531.63	54419.80
531.80	54197.44
531.97	54204.47
532.14	54831.73
532.31	54574.27
532.48	54600.02
532.65	54787.26
532.82	54632.78
532.99	54796.62
533.16	54522.78
533.33	55049.40
533.50	54820.03
533.67	54752.15
533.84	54801.30
534.01	55121.96
534.18	54925.35
534.35	55260.05
534.52	54915.99
534.69	55491.76
534.86	55292.82
535.03	55339.63
535.20	55400.48
535.37	55182.81
535.54	55545.59
535.71	55283.45
535.88	55604.11
536.05	55498.78
536.22	55704.75
536.38	55721.13
536.55	55711.77
536.72	55505.80
536.89	55587.72
537.06	55552.62
537.23	55873.27
537.40	55714.11
537.57	56013.70
537.74	55894.33
537.91	56004.34
538.08	56219.67
538.25	55894.33
538.42	55653.26
538.59	56317.97
538.75	55976.25
538.92	56165.84
539.09	56203.28
539.26	56179.88
539.43	56299.25
539.60	56229.03
539.77	56168.18
539.94	56367.12
540.11	56364.78
540.28	56629.26
540.44	56282.86
540.61	56348.40
540.78	56437.34
540.95	56516.92
541.12	56537.98
541.29	56575.43
541.46	56694.80
541.62	56767.35
541.79	56715.86
541.96	56612.88
542.13	56516.92
542.30	56577.77
542.47	56935.87
542.63	56870.34
542.80	57045.88
542.97	57214.40
543.14	57242.48
543.31	57247.16
543.48	57375.89
543.64	57427.38
543.81	57401.64
543.98	57502.28
544.15	57420.36
544.32	57432.07
544.48	57609.95
544.65	57261.21
544.82	57380.57
544.99	57420.36
545.16	57598.24
545.32	57497.60
545.49	57890.81
545.66	57631.01
545.83	57844.00
546.00	57731.65
546.16	57516.32
546.33	57616.97
546.50	57652.08
546.67	58047.63
546.83	57696.55
547.00	57991.45
547.17	57633.35
547.34	57757.40
547.50	58003.16
547.67	57970.39
547.84	58190.40
548.00	58141.25
548.17	58305.09
548.34	58054.65
548.51	58092.10
548.67	58607.01
548.84	58265.30
549.01	58251.25
549.18	58298.06
549.34	58604.67
549.51	58269.98
549.68	58429.13
549.84	58365.94
550.01	58539.14
550.18	58319.13
550.34	58784.90
550.51	58618.72
550.68	58454.88
550.84	58330.83
551.01	58581.27
551.18	58585.95
551.34	58571.91
551.51	58810.64
551.68	58609.35
551.84	58721.70
552.01	58501.69
552.18	58635.10
552.34	58557.86
552.51	58658.51
552.68	58665.53
552.84	58857.45
553.01	59075.12
553.18	58932.35
553.34	59056.40
553.51	58862.13
553.67	58667.87
553.84	59253.00
554.01	58990.86
554.17	59093.85
554.34	59016.61
554.51	59126.61
554.67	59161.72
554.84	59054.06
555.00	59157.04
555.17	59147.68
555.33	59231.94
555.50	58948.73
555.67	59150.02
555.83	59245.98
556.00	59227.26
556.16	59590.04
556.33	59554.93
556.50	59407.48
556.66	59597.06
556.83	59152.36
556.99	59458.97
557.16	59487.06
557.32	59374.71
557.49	59662.60
557.65	59501.10
557.82	59578.34
557.98	59365.35
558.15	59440.24
558.32	59627.49
558.48	59512.80
558.65	59526.84
558.81	59398.12
558.98	59662.60
559.14	59772.60
559.31	59655.57
559.47	59868.56
559.64	59700.04
559.80	59859.20
559.97	59807.71
560.13	59676.64
560.30	59667.28
560.46	59639.19
560.63	59807.71
560.79	59690.68
560.96	60093.25
561.12	60034.74
561.29	59751.54
561.45	60034.74
561.61	59931.76
561.78	59898.99
561.94	59875.58
562.11	59763.24
562.27	60018.36
562.44	60203.26
562.60	60111.98
562.77	59999.63
562.93	59955.16
563.10	59992.61
563.26	59894.31
563.42	60231.35
563.59	59924.74
563.75	60170.49
563.92	60264.11
564.08	60170.49
564.24	60278.16
564.41	60142.41
564.57	60327.31
564.74	60329.65
564.90	60301.56
565.07	60111.98
565.23	60341.35
565.39	60229.01
565.56	60467.74
565.72	60282.84
565.88	60264.11
566.05	60212.62
566.21	60177.51
566.38	60299.22
566.54	60505.19
566.70	60498.17
566.87	60467.74
567.03	60367.10
567.19	60610.51
567.36	60446.68
567.52	60519.23
567.68	60458.38
567.85	60336.67
568.01	60528.59
568.17	60210.28
568.34	60540.30
568.50	60561.36
568.66	60458.38
568.83	60289.86
568.99	60427.95
569.15	60542.64
569.32	60528.59
569.48	60449.02
569.64	60439.65
569.81	60444.33
569.97	60573.06
570.13	60425.61
570.30	60320.29
570.46	60552.00
570.62	60390.50
570.78	60566.04
570.95	60544.98
571.11	60659.66
571.27	60582.43
571.43	60654.98
571.60	60816.48
571.76	60722.86
571.92	60774.35
572.09	60692.43
572.25	60619.88
572.41	60477.10
572.57	60853.93
572.74	60910.10
572.90	60662.00
573.06	60711.16
573.22	60449.02
573.38	60493.49
573.55	60694.77
573.71	60832.86
573.87	60839.89
574.03	60465.40
574.20	60804.78
574.36	60715.84
574.52	60706.47
574.68	60823.50
574.84	60764.99
575.01	60781.37
575.17	60591.79
575.33	60903.08
575.49	60605.83
575.65	60772.01
575.82	60921.80
575.98	60793.07
576.14	60935.85
576.30	60919.46
576.46	60760.31
576.62	60727.54
576.79	60856.27
576.95	60645.62
577.11	60893.72
577.27	60858.61
577.43	60870.31
577.59	60662.00
577.75	60870.31
577.92	60659.66
578.08	60640.94
578.24	61036.49
578.40	61031.81
578.56	60968.61
578.72	60910.10
578.88	61134.79
579.04	61261.18
579.21	60860.95
579.37	60938.19
579.53	60963.93
579.69	60732.22
579.85	60877.33
580.01	60924.14
580.17	60963.93
580.33	61144.16
580.49	61066.92
580.65	60835.20
580.82	60963.93
580.98	60870.31
581.14	60818.82
581.30	61045.85
581.46	61029.47
581.62	61104.37
581.78	60945.21
581.94	61146.50
582.10	61066.92
582.26	60891.38
582.42	61001.38
582.58	61006.06
582.74	61085.64
582.90	60973.30
583.06	61031.81
583.22	60652.64
583.38	60994.36
583.54	60935.85
583.70	61027.13
583.86	60982.66
584.02	61190.97
584.18	61095.00
584.34	60980.32
584.50	61036.49
584.66	60919.46
584.82	60657.32
584.98	61165.22
585.14	61254.16
585.30	60999.04
585.46	61190.97
585.62	61134.79
585.78	61275.22
585.94	60853.93
586.10	61275.22
586.26	61148.84
586.42	61104.37
586.58	61263.52
586.74	61167.56
586.90	61197.99
587.06	60867.97
587.22	61275.22
587.38	61045.85
587.54	61118.41
587.70	61343.10
587.86	61078.62
588.02	61158.20
588.18	61352.46
588.34	61130.11
588.49	61029.47
