SpectraSuite Data File
++++++++++++++++++++++++++++++++++++
Date: Fri Oct 25 11:26:27 EDT 2013
User: price-jones
Dark Spectrum Present: No
Reference Spectrum Present: No
Number of Sampled Component Spectra: 1
Spectrometers: USB2+H05261
Integration Time (usec): 100000 (USB2+H05261)
Spectra Averaged: 1 (USB2+H05261)
Boxcar Smoothing: 0 (USB2+H05261)
Correct for Electrical Dark: No (USB2+H05261)
Strobe/Lamp Enabled: No (USB2+H05261)
Correct for Detector Non-linearity: No (USB2+H05261)
Correct for Stray Light: No (USB2+H05261)
Number of Pixels in Processed Spectrum: 2048
>>>>>Begin Processed Spectral Data<<<<<
365.73	248.10
365.92	248.10
366.12	248.10
366.32	170.86
366.52	121.71
366.72	170.86
366.91	241.08
367.11	184.90
367.31	117.03
367.51	145.11
367.70	154.48
367.90	187.24
368.10	77.24
368.30	166.18
368.49	154.48
368.69	234.05
368.89	93.62
369.09	84.26
369.28	224.69
369.48	236.39
369.68	154.48
369.87	201.29
370.07	227.03
370.27	252.78
370.47	292.57
370.66	601.52
370.86	631.94
371.06	667.05
371.25	627.26
371.45	711.52
371.65	685.78
371.84	739.61
372.04	732.59
372.24	704.50
372.44	718.54
372.63	709.18
372.83	695.14
373.03	692.80
373.22	716.20
373.42	744.29
373.62	716.20
373.81	772.38
374.01	786.42
374.21	760.67
374.40	823.87
374.60	870.68
374.79	805.14
374.99	828.55
375.19	805.14
375.38	849.61
375.58	837.91
375.78	823.87
375.97	922.17
376.17	919.83
376.37	922.17
376.56	919.83
376.76	866.00
376.95	866.00
377.15	910.47
377.35	882.38
377.54	889.40
377.74	933.87
377.93	917.49
378.13	959.62
378.33	992.39
378.52	898.77
378.72	889.40
378.91	983.02
379.11	957.28
379.31	994.73
379.50	922.17
379.70	884.72
379.89	940.90
380.09	1043.88
380.28	1004.09
380.48	945.58
380.68	1018.13
380.87	1069.62
381.07	1022.81
381.26	1004.09
381.46	1090.69
381.65	1004.09
381.85	987.71
382.04	1001.75
382.24	1064.94
382.43	1090.69
382.63	1018.13
382.83	1020.47
383.02	994.73
383.22	1116.44
383.41	1090.69
383.61	1111.75
383.80	1177.29
384.00	1191.33
384.19	1163.25
384.39	1228.78
384.58	1163.25
384.78	1188.99
384.97	1128.14
385.17	1263.89
385.36	1214.74
385.56	1179.63
385.75	1137.50
385.95	1261.55
386.14	1210.06
386.34	1273.25
386.53	1254.53
386.72	1104.73
386.92	1158.57
387.11	1200.69
387.31	1203.04
387.50	1355.17
387.70	1226.44
387.89	1334.11
388.09	1219.42
388.28	1387.94
388.48	1303.68
388.67	1345.81
388.86	1308.36
389.06	1282.61
389.25	1345.81
389.45	1345.81
389.64	1437.09
389.84	1350.49
390.03	1434.75
390.22	1369.21
390.42	1366.87
390.61	1404.32
390.81	1425.39
391.00	1427.73
391.19	1418.36
391.39	1479.22
391.58	1465.18
391.78	1444.11
391.97	1507.30
392.16	1439.43
392.36	1528.37
392.55	1444.11
392.75	1533.05
392.94	1591.56
393.13	1682.85
393.33	1551.78
393.52	1556.46
393.71	1575.18
393.91	1657.10
394.10	1537.73
394.29	1629.01
394.49	1514.33
394.68	1647.74
394.88	1671.14
395.07	1631.35
395.26	1739.02
395.46	1699.23
395.65	1713.27
395.84	1799.87
396.04	1813.92
396.23	1720.29
396.42	1748.38
396.62	1771.79
396.81	1722.63
397.00	1788.17
397.19	1804.55
397.39	1792.85
397.58	1839.66
397.77	1837.32
397.97	1888.81
398.16	1755.40
398.35	1849.02
398.55	1717.95
398.74	1930.94
398.93	1928.60
399.12	2024.56
399.32	1921.58
399.51	1926.26
399.70	2064.35
399.90	1888.81
400.09	2101.80
400.28	2078.40
400.47	2003.50
400.67	2120.53
400.86	2141.59
401.05	2015.20
401.24	2010.52
401.44	1975.41
401.63	2153.29
401.82	2129.89
402.01	2050.31
402.21	2211.81
402.40	2155.63
402.59	2160.31
402.78	2132.23
402.97	2258.62
403.17	2300.75
403.36	2286.70
403.55	2256.28
403.74	2310.11
403.93	2352.24
404.13	2300.75
404.32	2356.92
404.51	2282.02
404.70	2443.52
404.89	2293.72
405.09	2525.44
405.28	2495.01
405.47	2459.90
405.66	2504.37
405.85	2480.97
406.05	2466.92
406.24	2574.59
406.43	2462.24
406.62	2616.72
406.81	2640.12
407.00	2485.65
407.20	2551.18
407.39	2576.93
407.58	2764.17
407.77	2803.96
407.96	2745.45
408.15	2726.72
408.34	2623.74
408.54	2771.19
408.73	2792.26
408.92	2708.00
409.11	2909.29
409.30	2855.45
409.49	2897.58
409.68	2876.52
409.87	2822.69
410.07	2974.82
410.26	3045.04
410.45	2913.97
410.64	2986.52
410.83	2981.84
411.02	3176.11
411.21	3141.00
411.40	3108.23
411.59	3344.63
411.78	3206.53
411.98	3124.62
412.17	3246.32
412.36	3229.94
412.55	3370.37
412.74	3272.07
412.93	3480.38
413.12	3379.73
413.31	3634.85
413.50	3447.61
413.69	3447.61
413.88	3632.51
414.07	3641.87
414.26	3679.32
414.45	3527.19
414.64	3744.86
414.83	3709.75
415.02	3705.07
415.22	3716.77
415.41	3866.56
415.60	3915.72
415.79	3698.05
415.98	3857.20
416.17	3794.01
416.36	3939.12
416.55	4032.74
416.74	4007.00
416.93	4058.49
417.12	4084.23
417.31	4248.07
417.50	4091.26
417.69	4266.80
417.88	4358.08
418.07	4142.75
418.26	4159.13
418.45	4304.25
418.64	4379.14
418.83	4372.12
419.02	4393.19
419.21	4517.23
419.39	4517.23
419.58	4533.62
419.77	4437.66
419.96	4493.83
420.15	4402.55
420.34	4552.34
420.53	4550.00
420.72	4622.56
420.91	4613.20
421.10	4762.99
421.29	4739.58
421.48	4557.02
421.67	4734.90
421.86	4725.54
422.05	4767.67
422.24	4713.84
422.43	4919.81
422.61	4828.53
422.80	5013.43
422.99	4865.97
423.18	4826.18
423.37	4987.68
423.56	4978.32
423.75	4760.65
423.94	4973.64
424.13	4578.09
424.32	4887.04
424.50	4957.25
424.69	5104.71
424.88	4968.96
425.07	4849.59
425.26	4788.74
425.45	4905.76
425.64	4849.59
425.83	4903.42
426.01	5104.71
426.20	5128.11
426.39	5055.56
426.58	5090.67
426.77	5160.88
426.96	5125.77
427.15	5172.58
427.33	5296.63
427.52	5188.97
427.71	5254.50
427.90	5174.92
428.09	5231.10
428.28	5376.21
428.46	5252.16
428.65	5413.66
428.84	5348.12
429.03	5441.75
429.22	5448.77
429.40	5483.88
429.59	5378.55
429.78	5324.72
429.97	5266.21
430.16	5514.30
430.34	5570.48
430.53	5582.18
430.72	5605.58
430.91	5455.79
431.10	5671.12
431.28	5668.78
431.47	5743.67
431.66	5776.44
431.85	5813.89
432.03	5870.06
432.22	5919.21
432.41	5954.32
432.60	5933.26
432.79	5907.51
432.97	6001.13
433.16	5980.07
433.35	5926.24
433.54	6104.12
433.72	6190.72
433.91	6113.48
434.10	6251.57
434.28	6108.80
434.47	6057.31
434.66	6258.59
434.85	6232.85
435.03	6263.27
435.22	6284.34
435.41	6431.79
435.59	6408.39
435.78	6471.58
435.97	6476.26
436.16	6595.63
436.34	6368.60
436.53	6408.39
436.72	6588.61
436.90	6420.09
437.09	6597.97
437.28	6553.50
437.46	6619.04
437.65	6548.82
437.84	6733.72
438.02	6705.63
438.21	6595.63
438.40	6696.27
438.58	6960.75
438.77	6883.52
438.96	7094.16
439.14	7176.08
439.33	7192.47
439.52	7108.21
439.70	7082.46
439.89	7140.97
440.08	7356.30
440.26	7236.94
440.45	7360.98
440.63	7293.11
440.82	7431.20
441.01	7356.30
441.19	7723.77
441.38	7463.97
441.57	7583.34
441.75	7735.47
441.94	8074.85
442.12	7782.28
442.31	8135.70
442.50	7859.52
442.68	8060.80
442.87	7859.52
443.05	8138.04
443.24	8138.04
443.43	7976.55
443.61	8131.02
443.80	8465.72
443.98	8212.94
444.17	7819.73
444.35	8028.04
444.54	8414.23
444.73	8248.05
444.91	8112.30
445.10	8074.85
445.28	8414.23
445.47	8262.09
445.65	8304.22
445.84	8308.90
446.02	8180.17
446.21	8301.88
446.39	8554.66
446.58	8486.78
446.77	8542.96
446.95	8217.62
447.14	8568.70
447.32	8540.61
447.51	8454.02
447.69	8365.07
447.88	8762.97
448.06	8421.25
448.25	8395.50
448.43	8571.04
448.62	8699.77
448.80	8418.91
448.99	8538.27
449.17	8573.38
449.36	8777.01
449.54	8769.99
449.73	8870.63
449.91	9090.64
450.10	8971.27
450.28	9057.87
450.46	9015.74
450.65	9055.53
450.83	9158.52
451.02	9036.81
451.20	9081.28
451.39	9116.39
451.57	9001.70
451.76	8945.53
451.94	9252.14
452.13	9282.56
452.31	9179.58
452.49	9254.48
452.68	9390.23
452.86	9401.93
453.05	9556.41
453.23	9371.50
453.42	9259.16
453.60	9320.01
453.78	9575.13
453.97	9582.15
454.15	9338.74
454.34	9563.43
454.52	9820.89
454.70	9654.71
454.89	9661.73
455.07	9776.42
455.26	9783.44
455.44	9870.04
455.62	9811.53
455.81	10031.54
455.99	9987.07
456.17	9891.10
456.36	9956.64
456.54	10209.42
456.73	10090.05
456.91	10469.22
457.09	10436.45
457.28	10516.03
457.46	10225.80
457.64	10230.48
457.83	10310.06
458.01	10534.75
458.19	10630.71
458.38	10686.89
458.56	10410.70
458.74	10736.04
458.93	10588.58
459.11	10750.08
459.29	10649.44
459.48	10869.45
459.66	10696.25
459.84	10754.76
460.03	11197.12
460.21	10881.15
460.39	10923.28
460.57	11030.94
460.76	11180.74
460.94	11056.69
461.12	10965.41
461.31	11176.06
461.49	11033.29
461.67	11295.43
461.85	11414.79
462.04	11218.19
462.22	11798.64
462.40	11538.84
462.59	11595.01
462.77	11325.85
462.95	11618.42
463.13	11421.81
463.32	11475.65
463.50	11604.38
463.68	11513.10
463.86	11836.09
464.05	11627.78
464.23	11630.12
464.41	11896.94
464.59	11735.45
464.78	12325.26
464.96	11974.18
465.14	11824.39
465.32	12184.83
465.50	12053.76
465.69	12248.02
465.87	12107.59
466.05	12084.19
466.23	12472.71
466.41	12219.94
466.60	12484.42
466.78	12044.40
466.96	12114.61
467.14	12100.57
467.32	12432.93
467.51	12468.03
467.69	12231.64
467.87	12180.15
468.05	12594.42
468.23	12397.82
468.41	12381.43
468.60	12505.48
468.78	12709.11
468.96	12627.19
469.14	13015.72
469.32	12973.59
469.50	12657.62
469.69	12938.48
469.87	13046.15
470.05	13153.81
470.23	13130.41
470.41	12957.21
470.59	13439.36
470.77	13013.38
470.95	13322.33
471.14	13327.01
471.32	13008.70
471.50	13411.27
471.68	13727.24
471.86	13504.89
472.04	13792.78
472.22	13893.42
472.40	13958.96
472.58	13729.58
472.77	13736.60
472.95	14132.15
473.13	14466.85
473.31	13968.32
473.49	14038.53
473.67	14026.83
473.85	14031.51
474.03	14675.16
474.21	14178.97
474.39	14822.61
474.57	14593.24
474.75	14572.18
474.93	14916.23
475.12	14869.42
475.30	15068.37
475.48	15035.60
475.66	15264.97
475.84	15239.23
476.02	15253.27
476.20	15143.27
476.38	15529.45
476.56	16039.69
476.74	15847.77
476.92	15515.41
477.10	15763.51
477.28	16011.60
477.46	16004.58
477.64	16411.84
477.82	16587.38
478.00	16947.82
478.18	16779.30
478.36	16828.45
478.54	17291.88
478.72	16933.78
478.90	17317.62
479.08	17378.48
479.26	18118.09
479.44	17584.44
479.62	17500.19
479.80	18052.55
479.98	17944.89
480.16	18427.04
480.34	18052.55
480.52	18492.57
480.70	18656.41
480.88	18511.30
481.06	18541.72
481.24	18827.27
481.41	19138.56
481.59	19288.35
481.77	19253.25
481.95	19440.49
482.13	19555.18
482.31	19730.72
482.49	20063.07
482.67	20121.59
482.85	20414.15
483.03	20690.34
483.21	20563.95
483.39	20690.34
483.57	20982.90
483.74	20868.22
483.92	21348.03
484.10	21057.80
484.28	21518.89
484.46	21647.61
484.64	22450.42
484.82	22017.42
485.00	22415.31
485.18	22515.95
485.35	22913.84
485.53	22707.88
485.71	23386.63
485.89	23194.71
486.07	23255.56
486.25	23098.75
486.43	23545.79
486.61	23763.46
486.78	24130.92
486.96	24051.34
487.14	24173.05
487.32	24606.05
487.50	24793.29
487.68	25062.46
487.85	25184.16
488.03	25523.54
488.21	25502.48
488.39	25560.99
488.57	26045.48
488.75	26096.97
488.92	26181.23
489.10	26389.54
489.28	26625.93
489.46	26939.57
489.64	26630.62
489.81	27365.54
489.99	27332.78
490.17	27576.19
490.35	27957.70
490.53	28198.77
490.70	28353.25
490.88	28006.85
491.06	28847.10
491.24	28952.43
491.41	28996.90
491.59	29392.45
491.77	29216.91
491.95	29448.62
492.13	29677.99
492.30	29500.11
492.48	29876.94
492.66	29757.57
492.84	30206.95
493.01	30576.76
493.19	30485.48
493.37	31260.20
493.54	30895.07
493.72	31482.55
493.90	31393.61
494.08	31374.88
494.25	31882.78
494.43	31875.76
494.61	31901.50
494.79	32371.95
494.96	32238.54
495.14	32496.00
495.32	32907.93
495.49	32613.02
495.67	32994.53
495.85	33429.87
496.02	33516.47
496.20	33907.34
496.38	33785.63
496.55	33895.64
496.73	34562.69
496.91	34340.34
497.09	34724.19
497.26	34799.08
497.44	34604.82
497.62	35229.74
497.79	35526.99
497.97	35433.37
498.14	36002.12
498.32	35927.22
498.50	36058.29
498.67	36353.20
498.85	36306.39
499.03	36746.41
499.20	36554.49
499.38	36779.18
499.56	37373.67
499.73	37277.71
499.91	37457.93
500.08	37600.71
500.26	36985.15
500.44	37680.28
500.61	37263.67
500.79	37827.74
500.97	38230.31
501.14	38260.74
501.32	37872.21
501.49	38382.45
501.67	38139.03
501.84	38813.10
502.02	38834.17
502.20	38927.79
502.37	39313.98
502.55	38562.67
502.72	39180.57
502.90	39517.60
503.07	39325.68
503.25	39707.19
503.43	39562.08
503.60	40060.61
503.78	39901.45
503.95	40540.42
504.13	40683.19
504.30	40388.28
504.48	40364.88
504.65	40634.04
504.83	41148.96
505.01	41024.91
505.18	40996.82
505.36	41057.68
505.53	41560.89
505.71	41343.22
505.88	41645.15
506.06	41584.30
506.23	42174.11
506.41	41923.68
506.58	42045.38
506.76	42258.37
506.93	42286.46
507.11	41993.89
507.28	42164.75
507.46	42766.27
507.63	42644.56
507.81	42803.72
507.98	42590.73
508.16	42969.90
508.33	43089.26
508.50	43374.81
508.68	43332.68
508.85	43772.70
509.03	43704.82
509.20	43721.21
509.38	44224.42
509.55	44060.58
509.73	44439.75
509.90	44732.32
510.08	43997.39
510.25	44470.18
510.42	44910.20
510.60	44760.40
510.77	45078.72
510.95	45378.31
511.12	45034.25
511.30	45132.55
511.47	45750.45
511.64	45556.19
511.82	45717.68
511.99	45808.96
512.17	45687.26
512.34	45626.40
512.51	45682.58
512.69	46096.85
512.86	45862.80
513.04	46162.39
513.21	46562.62
513.38	46857.52
513.56	46768.58
513.73	46300.48
513.90	47042.43
514.08	47002.64
514.25	47569.05
514.43	47248.39
514.60	47243.71
514.77	47590.11
514.95	47332.65
515.12	47395.85
515.29	47086.90
515.47	47552.66
515.64	47709.48
515.81	47529.26
515.99	47943.53
516.16	48156.52
516.33	47978.64
516.51	48381.21
516.68	48083.97
516.85	48229.08
517.03	48605.91
517.20	48699.53
517.37	48643.35
517.54	48739.32
517.72	48839.96
517.89	49118.48
518.06	48884.43
518.24	49102.10
518.41	49160.61
518.58	48856.34
518.75	49146.57
518.93	49741.06
519.10	49272.96
519.27	49886.18
519.45	49109.12
519.62	49546.80
519.79	49949.37
519.96	50145.98
520.14	50127.25
520.31	49968.10
520.48	50274.71
520.65	49886.18
520.83	50450.25
521.00	50445.57
521.17	50447.91
521.34	50532.17
521.52	50703.03
521.69	50677.28
521.86	50639.83
522.03	50932.40
522.20	51236.67
522.38	51454.34
522.55	50951.12
522.72	51119.64
522.89	51381.78
523.07	51763.29
523.24	51641.58
523.41	51704.77
523.58	51194.54
523.75	51667.33
523.92	51648.60
524.10	51604.13
524.27	52299.27
524.44	51552.64
524.61	52212.67
524.78	52168.20
524.96	51585.41
525.13	52135.43
525.30	52353.10
525.47	52498.22
525.64	52357.78
525.81	52287.57
525.98	52432.68
526.16	52151.82
526.33	52556.73
526.50	52760.36
526.67	52598.86
526.84	52987.39
527.01	52708.86
527.18	52631.63
527.36	52720.57
527.53	53141.86
527.70	52882.06
527.87	53174.63
528.04	53041.22
528.21	53216.76
528.38	53151.23
528.55	53558.48
528.72	53336.13
528.89	53366.55
529.07	52985.05
529.24	53673.16
529.41	53518.69
529.58	53586.57
529.75	53518.69
529.92	53591.25
530.09	53616.99
530.26	53801.89
530.43	53954.03
530.60	53645.08
530.77	53837.00
530.94	53698.91
531.11	53928.28
531.28	53970.41
531.46	54190.42
531.63	54155.32
531.80	54136.59
531.97	54251.28
532.14	54396.39
532.31	54380.01
532.48	54316.81
532.65	54398.73
532.82	54330.86
532.99	54459.58
533.16	54396.39
533.33	54843.43
533.50	54930.03
533.67	54672.57
533.84	54754.49
534.01	54618.74
534.18	54946.42
534.35	54974.50
534.52	55002.59
534.69	55077.49
534.86	55126.64
535.03	55037.70
535.20	55028.34
535.37	55238.98
535.54	55007.27
535.71	55023.65
535.88	55093.87
536.05	55047.06
536.22	55437.93
536.38	55569.00
536.55	55449.63
536.72	55210.90
536.89	55559.64
537.06	55463.67
537.23	55707.09
537.40	55737.52
537.57	55594.74
537.74	55515.17
537.91	55789.01
538.08	55870.93
538.25	55557.30
538.42	55957.53
538.59	55924.76
538.75	55772.63
538.92	56126.05
539.09	56348.40
539.26	56198.60
539.43	55950.51
539.60	56261.80
539.77	56158.81
539.94	56364.78
540.11	56093.28
540.28	56453.72
540.44	56381.16
540.61	56381.16
540.78	56339.04
540.95	56413.93
541.12	56280.52
541.29	56467.76
541.46	56437.34
541.62	56477.13
541.79	56779.06
541.96	56332.01
542.13	56631.60
542.30	56479.47
542.47	56875.02
542.63	56608.20
542.80	56793.10
542.97	56896.08
543.14	57158.22
543.31	57043.54
543.48	56963.96
543.64	57221.42
543.81	57333.76
543.98	57181.63
544.15	57331.42
544.32	57352.49
544.48	57406.32
544.65	57139.50
544.82	57261.21
544.99	57186.31
545.16	57399.30
545.32	57394.62
545.49	57406.32
545.66	57413.34
545.83	57443.77
546.00	57581.86
546.16	57485.90
546.33	57350.15
546.50	57284.61
546.67	57598.24
546.83	57429.72
547.00	57717.61
547.17	57497.60
547.34	57668.46
547.50	57729.31
547.67	58085.07
547.84	57829.96
548.00	57963.37
548.17	58096.78
548.34	57944.64
548.51	57900.17
548.67	58080.39
548.84	58218.49
549.01	57914.22
549.18	57914.22
549.34	58089.76
549.51	58078.05
549.68	58396.37
549.84	58262.96
550.01	58166.99
550.18	58052.31
550.34	58501.69
550.51	58202.10
550.68	58319.13
550.84	58068.69
551.01	58267.64
551.18	58391.68
551.34	58302.74
551.51	58468.92
551.68	58459.56
551.84	58436.16
552.01	58489.99
552.18	58644.46
552.34	58417.43
552.51	58403.39
552.68	58251.25
552.84	58614.04
553.01	58894.90
553.18	58529.78
553.34	58775.53
553.51	58536.80
553.67	58681.91
553.84	58878.52
554.01	59100.87
554.17	58965.12
554.34	58679.57
554.51	58958.09
554.67	59138.32
554.84	58892.56
555.00	58698.30
555.17	58915.96
555.33	59070.44
555.50	58691.27
555.67	58766.17
555.83	58962.78
556.00	59063.42
556.16	59208.53
556.33	59119.59
556.50	59100.87
556.66	59241.30
556.83	59248.32
556.99	59344.28
557.16	59444.93
557.32	59477.69
557.49	59332.58
557.65	59143.00
557.82	59152.36
557.98	59161.72
558.15	59491.74
558.32	59355.99
558.48	59339.60
558.65	59395.77
558.81	59344.28
558.98	59346.62
559.14	59428.54
559.31	59419.18
559.47	59643.87
559.64	59622.81
559.80	59531.53
559.97	59461.31
560.13	59381.73
560.30	59676.64
560.46	59533.87
560.63	59463.65
560.79	59662.60
560.96	59810.05
561.12	59662.60
561.29	59632.17
561.45	59798.35
561.61	59847.50
561.78	59662.60
561.94	59639.19
562.11	59678.98
562.27	59620.47
562.44	59936.44
562.60	59889.63
562.77	60107.30
562.93	59770.26
563.10	60018.36
563.26	59819.41
563.42	59924.74
563.59	59936.44
563.75	59737.49
563.92	59894.31
564.08	59950.48
564.24	59866.22
564.41	60025.38
564.57	60060.49
564.74	60065.17
564.90	59994.95
565.07	60020.70
565.23	60058.15
565.39	60086.23
565.56	60081.55
565.72	59966.87
565.88	60053.47
566.05	59887.29
566.21	60095.60
566.38	60137.72
566.54	59891.97
566.70	60177.51
566.87	60219.64
567.03	60067.51
567.19	60395.18
567.36	60430.29
567.52	60034.74
567.68	60217.30
567.85	60287.52
568.01	60329.65
568.17	60046.44
568.34	60186.88
568.50	60285.18
568.66	60072.19
568.83	60418.59
568.99	60250.07
569.15	60210.28
569.32	60247.73
569.48	60109.64
569.64	60446.68
569.81	60395.18
569.97	60271.14
570.13	60303.90
570.30	60289.86
570.46	60418.59
570.62	60357.74
570.78	60324.97
570.95	60486.46
571.11	60416.25
571.27	60528.59
571.43	60308.58
571.60	60374.12
571.76	60329.65
571.92	60472.42
572.09	60547.32
572.25	60505.19
572.41	60530.93
572.57	60313.26
572.74	60662.00
572.90	60470.08
573.06	60509.87
573.22	60446.68
573.38	60519.23
573.55	60484.12
573.71	60566.04
573.87	60626.90
574.03	60449.02
574.20	60722.86
574.36	60441.99
574.52	60636.26
574.68	60601.15
574.84	60694.77
575.01	60673.71
575.17	60622.22
575.33	60568.38
575.49	60561.36
575.65	60715.84
575.82	60598.81
575.98	60893.72
576.14	60917.12
576.30	60640.94
576.46	60399.86
576.62	60713.50
576.79	60530.93
576.95	60528.59
577.11	60699.45
577.27	60598.81
577.43	60757.97
577.59	60472.42
577.75	60797.76
577.92	60563.70
578.08	60633.92
578.24	60666.69
578.40	60924.14
578.56	60947.55
578.72	60638.60
578.88	60879.67
579.04	60896.06
579.21	60795.42
579.37	60725.20
579.53	60926.49
579.69	60617.53
579.85	60736.90
580.01	60739.24
580.17	60601.15
580.33	60910.10
580.49	60945.21
580.65	60690.09
580.82	60867.97
580.98	60797.76
581.14	60617.53
581.30	60842.23
581.46	60755.63
581.62	61043.51
581.78	60617.53
581.94	60928.83
582.10	60816.48
582.26	60793.07
582.42	60671.37
582.58	60797.76
582.74	60818.82
582.90	60832.86
583.06	60732.22
583.22	60743.92
583.38	60966.27
583.54	60830.52
583.70	60828.18
583.86	60816.48
584.02	60905.42
584.18	60926.49
584.34	60851.59
584.50	60809.46
584.66	60877.33
584.82	60575.40
584.98	61045.85
585.14	61010.74
585.30	60697.11
585.46	60975.64
585.62	60790.73
585.78	61080.96
585.94	60959.25
586.10	60914.78
586.26	60956.91
586.42	60956.91
586.58	61031.81
586.74	60842.23
586.90	60996.70
587.06	60959.25
587.22	60889.04
587.38	61027.13
587.54	60879.67
587.70	61017.77
587.86	61020.11
588.02	60954.57
588.18	61041.17
588.34	60956.91
588.49	60973.30
