SpectraSuite Data File
++++++++++++++++++++++++++++++++++++
Date: Fri Oct 25 11:33:12 EDT 2013
User: price-jones
Dark Spectrum Present: No
Reference Spectrum Present: No
Number of Sampled Component Spectra: 1
Spectrometers: USB2+H05261
Integration Time (usec): 100000 (USB2+H05261)
Spectra Averaged: 1 (USB2+H05261)
Boxcar Smoothing: 0 (USB2+H05261)
Correct for Electrical Dark: No (USB2+H05261)
Strobe/Lamp Enabled: No (USB2+H05261)
Correct for Detector Non-linearity: No (USB2+H05261)
Correct for Stray Light: No (USB2+H05261)
Number of Pixels in Processed Spectrum: 2048
>>>>>Begin Processed Spectral Data<<<<<
365.73	318.31
365.92	318.31
366.12	318.31
366.32	220.01
366.52	168.52
366.72	217.67
366.91	163.84
367.11	163.84
367.31	154.48
367.51	180.22
367.70	163.84
367.90	243.42
368.10	187.24
368.30	138.09
368.49	187.24
368.69	159.16
368.89	168.52
369.09	170.86
369.28	201.29
369.48	196.60
369.68	250.44
369.87	255.12
370.07	259.80
370.27	318.31
370.47	294.91
370.66	423.64
370.86	514.92
371.06	514.92
371.25	554.71
371.45	585.13
371.65	573.43
371.84	559.39
372.04	510.24
372.24	545.34
372.44	622.58
372.63	601.52
372.83	589.82
373.03	620.24
373.22	601.52
373.42	627.26
373.62	681.10
373.81	627.26
374.01	622.58
374.21	643.65
374.40	594.50
374.60	638.97
374.79	589.82
374.99	636.63
375.19	578.11
375.38	613.22
375.58	711.52
375.78	760.67
375.97	660.03
376.17	772.38
376.37	690.46
376.56	645.99
376.76	636.63
376.95	631.94
377.15	669.39
377.35	697.48
377.54	725.57
377.74	650.67
377.93	690.46
378.13	716.20
378.33	788.76
378.52	676.41
378.72	748.97
378.91	648.33
379.11	657.69
379.31	709.18
379.50	695.14
379.70	786.42
379.89	716.20
380.09	716.20
380.28	772.38
380.48	751.31
380.68	755.99
380.87	767.70
381.07	744.29
381.26	770.04
381.46	788.76
381.65	800.46
381.85	746.63
382.04	702.16
382.24	706.84
382.43	819.19
382.63	725.57
382.83	709.18
383.02	798.12
383.22	763.01
383.41	758.33
383.61	819.19
383.80	856.64
384.00	772.38
384.19	798.12
384.39	905.79
384.58	849.61
384.78	854.30
384.97	840.25
385.17	891.74
385.36	863.66
385.56	793.44
385.75	854.30
385.95	847.27
386.14	870.68
386.34	866.00
386.53	856.64
386.72	858.98
386.92	858.98
387.11	884.72
387.31	856.64
387.50	908.13
387.70	842.59
387.89	924.51
388.09	987.71
388.28	903.45
388.48	950.26
388.67	908.13
388.86	940.90
389.06	936.21
389.25	884.72
389.45	933.87
389.64	917.49
389.84	997.07
390.03	968.98
390.22	968.98
390.42	936.21
390.61	945.58
390.81	910.47
391.00	1025.15
391.19	952.60
391.39	1022.81
391.58	1081.33
391.78	1022.81
391.97	1036.86
392.16	1055.58
392.36	1043.88
392.55	1057.92
392.75	1086.01
392.94	1048.56
393.13	1074.31
393.33	1060.26
393.52	1090.69
393.71	1128.14
393.91	978.34
394.10	1027.50
394.29	1090.69
394.49	1104.73
394.68	1146.86
394.88	1088.35
395.07	1132.82
395.26	1177.29
395.46	1165.59
395.65	1188.99
395.84	1249.85
396.04	1289.64
396.23	1228.78
396.42	1186.65
396.62	1228.78
396.81	1252.19
397.00	1200.69
397.19	1268.57
397.39	1172.61
397.58	1299.00
397.77	1217.08
397.97	1329.42
398.16	1245.16
398.35	1406.66
398.55	1270.91
398.74	1338.79
398.93	1366.87
399.12	1373.89
399.32	1268.57
399.51	1420.71
399.70	1308.36
399.90	1343.47
400.09	1479.22
400.28	1413.68
400.47	1364.53
400.67	1420.71
400.86	1495.60
401.05	1476.88
401.24	1397.30
401.44	1427.73
401.63	1500.28
401.82	1540.07
402.01	1486.24
402.21	1462.83
402.40	1458.15
402.59	1481.56
402.78	1577.52
402.97	1526.03
403.17	1561.14
403.36	1465.18
403.55	1570.50
403.74	1671.14
403.93	1619.65
404.13	1591.56
404.32	1530.71
404.51	1605.61
404.70	1657.10
404.89	1600.93
405.09	1734.34
405.28	1732.00
405.47	1678.16
405.66	1778.81
405.85	1685.19
406.05	1696.89
406.24	1820.94
406.43	1736.68
406.62	1753.06
406.81	1771.79
407.00	1762.42
407.20	1776.47
407.39	1682.85
407.58	1858.39
407.77	1785.83
407.96	1853.70
408.15	1987.11
408.34	1870.09
408.54	1930.94
408.73	1849.02
408.92	1919.24
409.11	1944.99
409.30	2001.16
409.49	2033.93
409.68	1987.11
409.87	2033.93
410.07	2069.03
410.26	2059.67
410.45	2094.78
410.64	2132.23
410.83	2094.78
411.02	2214.15
411.21	2115.84
411.40	2111.16
411.59	2335.85
411.78	2242.23
411.98	2225.85
412.17	2125.21
412.36	2267.98
412.55	2237.55
412.74	2314.79
412.93	2420.11
413.12	2345.22
413.31	2537.14
413.50	2415.43
413.69	2471.61
413.88	2410.75
414.07	2373.30
414.26	2537.14
414.45	2607.36
414.64	2558.21
414.83	2546.50
415.02	2658.85
415.22	2574.59
415.41	2736.09
415.60	2590.97
415.79	2708.00
415.98	2836.73
416.17	2829.71
416.36	2792.26
416.55	2825.03
416.74	2757.15
416.93	2726.72
417.12	2855.45
417.31	2913.97
417.50	2874.18
417.69	2970.14
417.88	2920.99
418.07	2878.86
418.26	3045.04
418.45	3133.98
418.64	3014.61
418.83	3030.99
419.02	3152.70
419.21	3152.70
419.39	3054.40
419.58	3063.76
419.77	2998.23
419.96	3218.24
420.15	3197.17
420.34	3309.52
420.53	3255.69
420.72	3328.24
420.91	3419.52
421.10	3265.05
421.29	3316.54
421.48	3243.98
421.67	3239.30
421.86	3279.09
422.05	3307.18
422.24	3412.50
422.43	3344.63
422.61	3248.66
422.80	3375.05
422.99	3391.44
423.18	3499.10
423.37	3545.91
423.56	3538.89
423.75	3400.80
423.94	3300.16
424.13	3258.03
424.32	3232.28
424.50	3473.36
424.69	3574.00
424.88	3578.68
425.07	3377.39
425.26	3372.71
425.45	3496.76
425.64	3599.74
425.83	3492.08
426.01	3522.51
426.20	3466.33
426.39	3501.44
426.58	3545.91
426.77	3520.17
426.96	3536.55
427.15	3508.46
427.33	3618.47
427.52	3536.55
427.71	3499.10
427.90	3499.10
428.09	3707.41
428.28	3737.84
428.46	3726.13
428.65	3674.64
428.84	3810.39
429.03	3779.97
429.22	3686.34
429.40	3763.58
429.59	3779.97
429.78	3658.26
429.97	3524.85
430.16	3754.22
430.34	3906.35
430.53	4011.68
430.72	3929.76
430.91	3852.52
431.10	3859.54
431.28	3831.46
431.47	4093.60
431.66	3981.25
431.85	3808.05
432.03	4091.26
432.22	4145.09
432.41	4042.11
432.60	4039.76
432.79	4121.68
432.97	4145.09
433.16	4119.34
433.35	4189.56
433.54	4219.99
433.72	4315.95
433.91	4180.20
434.10	4156.79
434.28	4301.90
434.47	4315.95
434.66	4416.59
434.85	4322.97
435.03	4421.27
435.22	4442.34
435.41	4451.70
435.59	4528.94
435.78	4458.72
435.97	4416.59
436.16	4521.92
436.34	4519.57
436.53	4376.80
436.72	4599.15
436.90	4531.28
437.09	4519.57
437.28	4524.26
437.46	4430.63
437.65	4676.39
437.84	4720.86
438.02	4681.07
438.21	4835.55
438.40	4610.86
438.58	4823.84
438.77	4919.81
438.96	4849.59
439.14	5100.03
439.33	5078.96
439.52	4936.19
439.70	5032.15
439.89	4901.08
440.08	5011.09
440.26	5109.39
440.45	5128.11
440.63	5104.71
440.82	5081.30
441.01	5144.50
441.19	5235.78
441.38	5268.55
441.57	5184.29
441.75	5310.68
441.94	5406.64
442.12	5568.13
442.31	5476.85
442.50	5544.73
442.68	5504.94
442.87	5432.38
443.05	5575.16
443.24	5628.99
443.43	5488.56
443.61	5542.39
443.80	5736.65
443.98	5441.75
444.17	5352.81
444.35	5678.14
444.54	5741.33
444.73	5547.07
444.91	5673.46
445.10	5645.37
445.28	5738.99
445.47	5685.16
445.65	5645.37
445.84	5809.21
446.02	5764.74
446.21	5731.97
446.39	5619.63
446.58	5790.49
446.77	5865.38
446.95	5687.50
447.14	5628.99
447.32	5891.13
447.51	5720.27
447.69	5774.10
447.88	5928.58
448.06	5877.09
448.25	5802.19
448.43	5818.57
448.62	5872.40
448.80	5853.68
448.99	5928.58
449.17	5884.11
449.36	5916.87
449.54	6155.61
449.73	5996.45
449.91	6197.74
450.10	6136.88
450.28	6197.74
450.46	6179.01
450.65	6181.35
450.83	6251.57
451.02	6127.52
451.20	6291.36
451.39	6307.74
451.57	6237.53
451.76	6115.82
451.94	6193.06
452.13	6363.92
452.31	6328.81
452.49	6389.66
452.68	6483.28
452.86	6389.66
453.05	6410.73
453.23	6366.26
453.42	6443.49
453.60	6324.13
453.78	6530.09
453.97	6471.58
454.15	6441.15
454.34	6410.73
454.52	6696.27
454.70	6656.48
454.89	6672.87
455.07	6649.46
455.26	6651.80
455.44	6834.36
455.62	6698.61
455.81	6766.49
455.99	6801.60
456.17	6722.02
456.36	6902.24
456.54	6946.71
456.73	7091.82
456.91	7246.30
457.09	7042.67
457.28	7187.79
457.46	7023.95
457.64	7211.19
457.83	6967.77
458.01	7063.74
458.19	7283.75
458.38	7190.13
458.56	7389.07
458.74	7208.85
458.93	7129.27
459.11	7171.40
459.29	7243.96
459.48	7232.26
459.66	7349.28
459.84	7344.60
460.03	7655.89
460.21	7545.89
460.39	7595.04
460.57	7496.74
460.76	7531.84
460.94	7602.06
461.12	7702.70
461.31	7609.08
461.49	7506.10
461.67	7595.04
461.85	7793.98
462.04	7728.45
462.22	8124.00
462.40	7932.08
462.59	7709.72
462.77	7702.70
462.95	7819.73
463.13	7665.25
463.32	7999.95
463.50	7960.16
463.68	7801.01
463.86	7903.99
464.05	7925.05
464.23	7906.33
464.41	8018.68
464.59	8021.02
464.78	8166.13
464.96	8152.09
465.14	8142.72
465.32	8133.36
465.50	8273.79
465.69	8203.58
465.87	8210.60
466.05	8278.47
466.23	8133.36
466.41	8238.69
466.60	8418.91
466.78	8217.62
466.96	8327.63
467.14	8376.78
467.32	8287.84
467.51	8491.46
467.69	8203.58
467.87	8322.94
468.05	8690.41
468.23	8386.14
468.41	8491.46
468.60	8634.24
468.78	8421.25
468.96	8430.61
469.14	8652.96
469.32	8725.52
469.50	8613.17
469.69	8798.07
469.87	8809.78
470.05	8931.48
470.23	8875.31
470.41	8931.48
470.59	9022.77
470.77	8898.72
470.95	8922.12
471.14	9071.92
471.32	8861.27
471.50	9153.84
471.68	8929.14
471.86	9301.29
472.04	9298.95
472.22	9373.85
472.40	9348.10
472.58	9437.04
472.77	9460.45
472.95	9434.70
473.13	9715.56
473.31	9507.26
473.49	9605.56
473.67	9434.70
473.85	9776.42
474.03	9865.36
474.21	9902.81
474.39	9907.49
474.57	9942.60
474.75	10033.88
474.93	10054.94
475.12	9886.42
475.30	10045.58
475.48	10010.47
475.66	10415.38
475.84	10008.13
476.02	10469.22
476.20	10546.45
476.38	10644.76
476.56	10689.23
476.74	10600.29
476.92	10574.54
477.10	10633.05
477.28	10794.55
477.46	10782.85
477.64	10913.92
477.82	10986.47
478.00	11407.77
478.18	11030.94
478.36	11447.56
478.54	11463.94
478.72	11489.69
478.90	11679.27
479.08	11754.17
479.26	11770.55
479.44	11882.90
479.62	11969.50
479.80	12028.01
479.98	12091.21
480.16	12266.75
480.34	12521.87
480.52	12465.69
480.70	12535.91
480.88	12255.04
481.06	12390.80
481.24	12601.44
481.41	12697.41
481.59	12987.63
481.77	13097.64
481.95	13034.44
482.13	13238.07
482.31	13200.62
482.49	13242.75
482.67	13579.79
482.85	13589.15
483.03	13818.52
483.21	13914.48
483.39	13806.82
483.57	13708.52
483.74	13958.96
483.92	14080.66
484.10	13865.33
484.28	14377.91
484.46	14654.09
484.64	14761.76
484.82	14738.35
485.00	14848.36
485.18	15094.11
485.35	15346.89
485.53	15445.20
485.71	15243.91
485.89	15456.90
486.07	15447.54
486.25	15744.78
486.43	15791.59
486.61	15971.82
486.78	16020.97
486.96	15950.75
487.14	16240.98
487.32	16301.83
487.50	16463.33
487.68	16402.47
487.85	16482.05
488.03	17003.99
488.21	17378.48
488.39	17195.92
488.57	17188.89
488.75	17329.33
488.92	17741.26
489.10	17909.78
489.28	17902.76
489.46	17811.48
489.64	17781.05
489.81	18272.56
489.99	18427.04
490.17	18352.14
490.35	18637.69
490.53	18726.63
490.70	18871.74
490.88	18937.27
491.06	19187.71
491.24	19056.64
491.41	19438.15
491.59	19159.63
491.77	19398.36
491.95	19826.68
492.13	19840.72
492.30	19892.21
492.48	19927.32
492.66	20240.95
492.84	19988.18
493.01	19978.81
493.19	20467.98
493.37	20606.08
493.54	20685.65
493.72	20765.23
493.90	20643.52
494.08	21097.59
494.25	21205.25
494.43	21312.92
494.61	21724.85
494.79	21479.10
494.96	21561.02
495.14	21781.03
495.32	22031.46
495.49	22101.68
495.67	22050.19
495.85	22253.81
496.02	22071.25
496.20	22422.33
496.38	22927.89
496.55	22492.55
496.73	23365.57
496.91	22583.83
497.09	22946.61
497.26	22958.31
497.44	22869.37
497.62	23660.48
497.79	23477.91
497.97	23393.65
498.14	23798.57
498.32	23957.72
498.50	24013.90
498.67	23981.13
498.85	23927.30
499.03	24400.08
499.20	24751.17
499.38	24357.96
499.56	24437.53
499.73	24369.66
499.91	24704.35
500.08	24987.56
500.26	24683.29
500.44	25013.31
500.61	25109.27
500.79	25050.75
500.97	25591.42
501.14	25685.04
501.32	25329.28
501.49	25127.99
501.67	25504.82
501.84	25729.51
502.02	25682.70
502.20	25694.40
502.37	25734.19
502.55	26211.66
502.72	26134.42
502.90	26394.22
503.07	25965.90
503.25	26445.71
503.43	26590.83
503.60	27019.14
503.78	26766.37
503.95	26618.91
504.13	26583.80
504.30	26888.07
504.48	27000.42
504.65	27077.66
504.83	27318.73
505.01	27276.60
505.18	27175.96
505.36	27971.74
505.53	27515.34
505.71	27461.51
505.88	27756.41
506.06	27627.68
506.23	28004.51
506.41	27859.40
506.58	27814.93
506.76	28173.03
506.93	28739.44
507.11	28379.00
507.28	28133.24
507.46	28224.52
507.63	28858.81
507.81	28280.69
507.98	28627.09
508.16	28900.94
508.33	28744.12
508.50	29261.38
508.68	28926.68
508.85	29282.44
509.03	29228.61
509.20	29287.12
509.38	29757.57
509.55	29673.31
509.73	29439.26
509.90	29607.78
510.08	29455.64
510.25	29905.02
510.42	29900.34
510.60	30026.73
510.77	30340.36
510.95	30265.47
511.12	30068.86
511.30	29907.37
511.47	30597.82
511.64	30562.72
511.82	30569.74
511.99	30331.00
512.17	30955.93
512.34	30909.11
512.51	31112.74
512.69	31552.76
512.86	31442.76
513.04	31241.47
513.21	31456.80
513.38	31365.52
513.56	31358.50
513.73	31304.67
513.90	32086.40
514.08	31599.57
514.25	31864.05
514.43	31838.31
514.60	31962.36
514.77	32077.04
514.95	32481.95
515.12	32037.25
515.29	31859.37
515.47	32285.35
515.64	32376.63
515.81	32437.48
515.99	32414.08
516.16	32659.84
516.33	32203.43
516.51	32910.27
516.68	32563.87
516.85	32891.55
517.03	33160.71
517.20	33127.94
517.37	32678.56
517.54	33046.02
517.72	33277.74
517.89	33598.39
518.06	33457.96
518.24	33076.45
518.41	33263.69
518.58	33298.80
518.75	33394.76
518.93	34092.24
519.10	33427.53
519.27	33998.62
519.45	33645.20
519.62	33881.60
519.79	34284.17
519.96	33930.75
520.14	33949.47
520.31	34092.24
520.48	34443.32
520.65	34338.00
520.83	34590.78
521.00	34309.91
521.17	34838.87
521.34	34813.13
521.52	35079.95
521.69	34998.03
521.86	35009.73
522.03	35292.94
522.20	35175.91
522.38	35711.89
522.55	35393.58
522.72	35634.66
522.89	35578.48
523.07	35943.61
523.24	35021.44
523.41	35637.00
523.58	35637.00
523.75	35562.10
523.92	35681.47
524.10	36224.47
524.27	36250.22
524.44	36442.14
524.61	35929.56
524.78	35906.16
524.96	36301.71
525.13	36208.09
525.30	36205.75
525.47	36517.04
525.64	36507.68
525.81	36863.44
525.98	36737.05
526.16	36587.25
526.33	36552.15
526.50	36786.20
526.67	36746.41
526.84	37153.66
527.01	37165.37
527.18	37060.04
527.36	37359.63
527.53	36964.08
527.70	37373.67
527.87	37539.85
528.04	37659.22
528.21	37364.31
528.38	37488.36
528.55	37350.27
528.72	37361.97
528.89	37652.20
529.07	37038.98
529.24	37481.34
529.41	38054.77
529.58	38139.03
529.75	38192.86
529.92	37710.71
530.09	38199.88
530.26	38103.92
530.43	37581.98
530.60	37834.76
530.77	38281.80
530.94	38253.72
531.11	38455.00
531.28	38293.50
531.46	38590.75
531.63	38373.08
531.80	38415.21
531.97	39070.56
532.14	38588.41
532.31	38822.47
532.48	39339.72
532.65	38808.42
532.82	38588.41
532.99	39391.22
533.16	39321.00
533.33	38864.60
533.50	39288.23
533.67	39227.38
533.84	39302.28
534.01	39178.23
534.18	39363.13
534.35	39709.53
534.52	39681.44
534.69	40069.97
534.86	39697.83
535.03	39232.06
535.20	39655.70
535.37	39711.87
535.54	39875.71
535.71	39793.79
535.88	40205.72
536.05	39859.32
536.22	40163.59
536.38	39800.81
536.55	39861.66
536.72	39636.97
536.89	39786.77
537.06	40336.79
537.23	40720.64
537.40	40327.43
537.57	40369.56
537.74	39906.13
537.91	40315.73
538.08	40423.39
538.25	40692.55
538.42	40868.09
538.59	40954.69
538.75	40540.42
538.92	41062.36
539.09	40774.47
539.26	40858.73
539.43	40898.52
539.60	41155.98
539.77	41289.39
539.94	41347.90
540.11	41053.00
540.28	41586.64
540.44	40758.09
540.61	40961.72
540.78	41043.63
540.95	41235.56
541.12	41038.95
541.29	41167.68
541.46	41476.63
541.62	41509.40
541.79	41654.51
541.96	41483.66
542.13	41476.63
542.30	41635.79
542.47	41902.61
542.63	41731.75
542.80	41855.80
542.97	41759.84
543.14	42518.17
543.31	42029.00
543.48	42155.39
543.64	42403.49
543.81	42555.62
543.98	42557.96
544.15	42115.60
544.32	42272.42
544.48	42705.41
544.65	42609.45
544.82	42527.53
544.99	42412.85
545.16	42555.62
545.32	43105.65
545.49	43007.34
545.66	42841.17
545.83	43033.09
546.00	43079.90
546.16	43524.60
546.33	42960.53
546.50	42698.39
546.67	43330.34
546.83	42820.10
547.00	43257.78
547.17	42927.77
547.34	43295.23
547.50	43091.60
547.67	43889.73
547.84	43414.60
548.00	43445.02
548.17	43730.57
548.34	43569.07
548.51	43468.43
548.67	43550.35
548.84	43871.00
549.01	43779.72
549.18	43606.52
549.34	43721.21
549.51	44067.61
549.68	44318.04
549.84	43428.64
550.01	43971.64
550.18	43763.34
550.34	43981.01
550.51	44020.80
550.68	44208.04
550.84	43592.48
551.01	44278.25
551.18	43510.56
551.34	43894.41
551.51	44079.31
551.68	43910.79
551.84	44109.74
552.01	44416.35
552.18	44465.50
552.34	44257.19
552.51	44151.87
552.68	44313.36
552.84	44414.01
553.01	44701.89
553.18	44182.29
553.34	44788.49
553.51	44842.32
553.67	44994.46
553.84	44699.55
554.01	44947.65
554.17	44797.85
554.34	44982.76
554.51	45212.13
554.67	44985.10
554.84	44769.77
555.00	45003.82
555.17	44577.84
555.33	45024.89
555.50	45296.39
555.67	45373.63
555.83	45375.97
556.00	45394.69
556.16	45563.21
556.33	45696.62
556.50	45181.70
556.66	45457.88
556.83	45443.84
556.99	45392.35
557.16	45361.92
557.32	45516.40
557.49	45345.54
557.65	45099.78
557.82	45347.88
557.98	45558.53
558.15	45799.60
558.32	45717.68
558.48	45448.52
558.65	45755.13
558.81	45713.00
558.98	45834.71
559.14	45663.85
559.31	45659.17
559.47	45815.99
559.64	45911.95
559.80	45668.53
559.97	45902.59
560.13	45848.75
560.30	46047.70
560.46	46146.00
560.63	46059.40
560.79	46241.96
560.96	46251.33
561.12	46050.04
561.29	46141.32
561.45	46010.25
561.61	46101.53
561.78	45708.32
561.94	46167.07
562.11	45993.87
562.27	46270.05
562.44	46192.81
562.60	46305.16
562.77	46188.13
562.93	46012.59
563.10	46394.10
563.26	46368.35
563.42	46363.67
563.59	46286.43
563.75	46684.33
563.92	46265.37
564.08	46134.30
564.24	46653.90
564.41	46604.75
564.57	46660.92
564.74	46274.73
564.90	46595.38
565.07	46323.88
565.23	46267.71
565.39	46506.44
565.56	46501.76
565.72	46354.31
565.88	46277.07
566.05	46689.01
566.21	46408.14
566.38	46557.94
566.54	46483.04
566.70	46639.86
566.87	46862.21
567.03	46478.36
567.19	46918.38
567.36	46768.58
567.52	46632.83
567.68	46953.49
567.85	47157.11
568.01	46902.00
568.17	46911.36
568.34	46761.56
568.50	47299.89
568.66	46391.76
568.83	47243.71
568.99	47019.02
569.15	47157.11
569.32	46979.23
569.48	46705.39
569.64	47196.90
569.81	46703.05
569.97	47283.50
570.13	47222.65
570.30	47093.92
570.46	46644.54
570.62	46927.74
570.78	47105.62
570.95	47189.88
571.11	47487.13
571.27	47100.94
571.43	46522.83
571.60	46934.76
571.76	47185.20
571.92	46892.63
572.09	46747.52
572.25	46962.85
572.41	46979.23
572.57	47004.98
572.74	47770.33
572.90	47056.47
573.06	47246.05
573.22	47349.04
573.38	47477.77
573.55	47255.42
573.71	47803.10
573.87	47594.79
574.03	47533.94
574.20	47461.38
574.36	47152.43
574.52	47374.78
574.68	47941.19
574.84	47847.57
575.01	48168.22
575.17	47168.82
575.33	47262.44
575.49	47468.40
575.65	47587.77
575.82	47627.56
575.98	47210.95
576.14	47587.77
576.30	47601.82
576.46	47398.19
576.62	47203.92
576.79	47206.26
576.95	47182.86
577.11	46923.06
577.27	47421.59
577.43	47295.21
577.59	47456.70
577.75	47686.07
577.92	47147.75
578.08	47744.59
578.24	47093.92
578.40	47810.12
578.56	47398.19
578.72	47421.59
578.88	47641.60
579.04	47433.30
579.21	47578.41
579.37	47852.25
579.53	47681.39
579.69	47445.00
579.85	47393.51
580.01	47557.35
580.17	47232.01
580.33	47842.89
580.49	47709.48
580.65	47767.99
580.82	47636.92
580.98	47737.57
581.14	47580.75
581.30	47613.52
581.46	46913.70
581.62	47529.26
581.78	47501.17
581.94	47700.12
582.10	47510.53
582.26	48098.01
582.42	47737.57
582.58	48095.67
582.74	47753.95
582.90	47536.28
583.06	47929.49
583.22	47854.59
583.38	47618.20
583.54	47702.46
583.70	48065.24
583.86	47765.65
584.02	47590.11
584.18	48105.03
584.34	47819.49
584.50	48076.94
584.66	47866.30
584.82	47803.10
584.98	48357.81
585.14	48259.51
585.30	47959.92
585.46	47929.49
585.62	47482.45
585.78	48058.22
585.94	47861.61
586.10	47442.66
586.26	47760.97
586.42	47447.34
586.58	48266.53
586.74	47459.04
586.90	47274.14
587.06	47641.60
587.22	47854.59
587.38	47700.12
587.54	47854.59
587.70	48076.94
587.86	47597.13
588.02	47999.71
588.18	47648.63
588.34	47995.03
588.49	47288.18
588.65	47716.50
588.81	48186.95
588.97	48222.06
589.13	48037.16
589.29	47702.46
589.45	48060.56
589.61	47896.72
589.77	48079.28
589.93	48376.53
