SpectraSuite Data File
++++++++++++++++++++++++++++++++++++
Date: Fri Oct 25 11:25:41 EDT 2013
User: price-jones
Dark Spectrum Present: No
Reference Spectrum Present: No
Number of Sampled Component Spectra: 1
Spectrometers: USB2+H05261
Integration Time (usec): 100000 (USB2+H05261)
Spectra Averaged: 1 (USB2+H05261)
Boxcar Smoothing: 0 (USB2+H05261)
Correct for Electrical Dark: No (USB2+H05261)
Strobe/Lamp Enabled: No (USB2+H05261)
Correct for Detector Non-linearity: No (USB2+H05261)
Correct for Stray Light: No (USB2+H05261)
Number of Pixels in Processed Spectrum: 2048
>>>>>Begin Processed Spectral Data<<<<<
365.73	255.12
365.92	255.12
366.12	255.12
366.32	156.82
366.52	121.71
366.72	180.22
366.91	107.66
367.11	100.64
367.31	212.99
367.51	196.60
367.70	79.58
367.90	189.58
368.10	35.11
368.30	110.01
368.49	140.43
368.69	212.99
368.89	154.48
369.09	175.54
369.28	196.60
369.48	117.03
369.68	177.88
369.87	126.39
370.07	166.18
370.27	252.78
370.47	276.18
370.66	524.28
370.86	613.22
371.06	683.44
371.25	741.95
371.45	690.46
371.65	683.44
371.84	660.03
372.04	678.76
372.24	823.87
372.44	751.31
372.63	671.73
372.83	795.78
373.03	706.84
373.22	702.16
373.42	835.57
373.62	751.31
373.81	816.85
374.01	802.80
374.21	830.89
374.40	812.17
374.60	812.17
374.79	777.06
374.99	870.68
375.19	887.06
375.38	847.27
375.58	884.72
375.78	868.34
375.97	849.61
376.17	968.98
376.37	924.51
376.56	812.17
376.76	915.15
376.95	812.17
377.15	844.93
377.35	863.66
377.54	840.25
377.74	851.96
377.93	922.17
378.13	924.51
378.33	915.15
378.52	929.19
378.72	915.15
378.91	999.41
379.11	957.28
379.31	940.90
379.50	936.21
379.70	950.26
379.89	990.05
380.09	966.64
380.28	959.62
380.48	908.13
380.68	952.60
380.87	917.49
381.07	990.05
381.26	1060.26
381.46	971.32
381.65	997.07
381.85	1027.50
382.04	994.73
382.24	1050.90
382.43	1074.31
382.63	1041.54
382.83	1128.14
383.02	1172.61
383.22	1128.14
383.41	1095.37
383.61	1029.84
383.80	1135.16
384.00	964.30
384.19	1111.75
384.39	1039.20
384.58	1151.54
384.78	1144.52
384.97	1139.84
385.17	1086.01
385.36	1142.18
385.56	1214.74
385.75	1156.22
385.95	1196.01
386.14	1205.38
386.34	1177.29
386.53	1086.01
386.72	1228.78
386.92	1191.33
387.11	1259.21
387.31	1186.65
387.50	1207.72
387.70	1181.97
387.89	1256.87
388.09	1266.23
388.28	1352.83
388.48	1399.64
388.67	1338.79
388.86	1355.17
389.06	1329.42
389.25	1380.92
389.45	1277.93
389.64	1322.40
389.84	1362.19
390.03	1327.08
390.22	1327.08
390.42	1338.79
390.61	1401.98
390.81	1481.56
391.00	1327.08
391.19	1446.45
391.39	1423.05
391.58	1535.39
391.78	1502.62
391.97	1385.60
392.16	1455.81
392.36	1533.05
392.55	1497.94
392.75	1472.20
392.94	1561.14
393.13	1556.46
393.33	1497.94
393.52	1519.01
393.71	1549.43
393.91	1551.78
394.10	1570.50
394.29	1645.40
394.49	1563.48
394.68	1568.16
394.88	1638.38
395.07	1671.14
395.26	1558.80
395.46	1626.67
395.65	1790.51
395.84	1680.50
396.04	1736.68
396.23	1783.49
396.42	1778.81
396.62	1680.50
396.81	1734.34
397.00	1722.63
397.19	1820.94
397.39	1839.66
397.58	1944.99
397.77	1795.19
397.97	1842.00
398.16	1797.53
398.35	1909.88
398.55	1952.01
398.74	1902.86
398.93	1900.52
399.12	1842.00
399.32	1909.88
399.51	1834.98
399.70	1961.37
399.90	1954.35
400.09	2008.18
400.28	1968.39
400.47	2054.99
400.67	2001.16
400.86	2054.99
401.05	2097.12
401.24	2026.90
401.44	2052.65
401.63	2076.06
401.82	2141.59
402.01	2113.50
402.21	2167.34
402.40	2172.02
402.59	2221.17
402.78	2099.46
402.97	2188.40
403.17	2263.30
403.36	2188.40
403.55	2352.24
403.74	2324.15
403.93	2352.24
404.13	2394.37
404.32	2354.58
404.51	2356.92
404.70	2366.28
404.89	2410.75
405.09	2464.58
405.28	2562.89
405.47	2420.11
405.66	2410.75
405.85	2553.52
406.05	2534.80
406.24	2600.34
406.43	2600.34
406.62	2642.46
406.81	2616.72
407.00	2544.16
407.20	2581.61
407.39	2473.95
407.58	2715.02
407.77	2738.43
407.96	2670.55
408.15	2775.88
408.34	2722.04
408.54	2759.49
408.73	2780.56
408.92	2801.62
409.11	2810.98
409.30	2766.51
409.49	2944.39
409.68	2815.66
409.87	2906.95
410.07	3045.04
410.26	3005.25
410.45	2928.01
410.64	3007.59
410.83	3082.49
411.02	3047.38
411.21	3094.19
411.40	3164.40
411.59	3173.77
411.78	3185.47
411.98	3033.33
412.17	3314.20
412.36	3368.03
412.55	3281.43
412.74	3323.56
412.93	3461.65
413.12	3260.37
413.31	3499.10
413.50	3473.36
413.69	3459.31
413.88	3520.17
414.07	3510.80
414.26	3634.85
414.45	3529.53
414.64	3599.74
414.83	3723.79
415.02	3735.50
415.22	3674.64
415.41	3850.18
415.60	3698.05
415.79	3880.61
415.98	3922.74
416.17	3985.93
416.36	3819.75
416.55	4053.81
416.74	4018.70
416.93	4035.08
417.12	4140.41
417.31	4145.09
417.50	4028.06
417.69	4329.99
417.88	4243.39
418.07	4315.95
418.26	4362.76
418.45	4273.82
418.64	4444.68
418.83	4322.97
419.02	4437.66
419.21	4498.51
419.39	4421.27
419.58	4465.74
419.77	4348.72
419.96	4390.84
420.15	4596.81
420.34	4519.57
420.53	4440.00
420.72	4704.48
420.91	4683.41
421.10	4702.14
421.29	4676.39
421.48	4610.86
421.67	4753.63
421.86	4655.33
422.05	4847.25
422.24	4760.65
422.43	4847.25
422.61	4807.46
422.80	4943.21
422.99	4873.00
423.18	4795.76
423.37	4919.81
423.56	4936.19
423.75	4985.34
423.94	4975.98
424.13	4514.89
424.32	4784.06
424.50	4919.81
424.69	5055.56
424.88	5093.01
425.07	4865.97
425.26	4816.82
425.45	5018.11
425.64	4814.48
425.83	4994.70
426.01	5093.01
426.20	5039.17
426.39	5041.51
426.58	4908.10
426.77	4933.85
426.96	5277.91
427.15	5069.60
427.33	5193.65
427.52	5195.99
427.71	5200.67
427.90	5287.27
428.09	5296.63
428.28	5334.08
428.46	5254.50
428.65	5357.49
428.84	5462.81
429.03	5511.96
429.22	5256.84
429.40	5570.48
429.59	5305.99
429.78	5366.85
429.97	5095.35
430.16	5287.27
430.34	5486.22
430.53	5638.35
430.72	5598.56
430.91	5701.54
431.10	5547.07
431.28	5638.35
431.47	5701.54
431.66	5825.59
431.85	5790.49
432.03	6029.22
432.22	6005.81
432.41	5895.81
432.60	5982.41
432.79	5895.81
432.97	5940.28
433.16	6174.33
433.35	5933.26
433.54	6031.56
433.72	6174.33
433.91	5940.28
434.10	6043.26
434.28	5989.43
434.47	6160.29
434.66	6181.35
434.85	6118.16
435.03	6188.38
435.22	6160.29
435.41	6434.13
435.59	6352.21
435.78	6375.62
435.97	6469.24
436.16	6345.19
436.34	6459.88
436.53	6513.71
436.72	6644.78
436.90	6310.08
437.09	6494.99
437.28	6469.24
437.46	6593.29
437.65	6651.80
437.84	6726.70
438.02	6700.95
438.21	6752.45
438.40	6703.29
438.58	6892.88
438.77	7014.59
438.96	6932.67
439.14	7115.23
439.33	7162.04
439.52	7143.32
439.70	7236.94
439.89	7049.69
440.08	7248.64
440.26	7386.73
440.45	7337.58
440.63	7267.36
440.82	7623.12
441.01	7503.76
441.19	7583.34
441.38	7676.96
441.57	7765.90
441.75	7899.31
441.94	7906.33
442.12	7768.24
442.31	8037.40
442.50	7915.69
442.68	8107.62
442.87	7934.42
443.05	8084.21
443.24	8142.72
443.43	8093.57
443.61	7971.86
443.80	8252.73
443.98	7920.37
444.17	7777.60
444.35	8107.62
444.54	8362.73
444.73	8222.30
444.91	8327.63
445.10	8224.64
445.28	8411.89
445.47	8116.98
445.65	8287.84
445.84	8386.14
446.02	8243.37
446.21	8486.78
446.39	8505.51
446.58	8454.02
446.77	8395.50
446.95	8271.45
447.14	8383.80
447.32	8580.40
447.51	8393.16
447.69	8472.74
447.88	8449.33
448.06	8386.14
448.25	8552.32
448.43	8353.37
448.62	8388.48
448.80	8362.73
448.99	8610.83
449.17	8662.32
449.36	8606.15
449.54	8741.90
449.73	8863.61
449.91	8922.12
450.10	8772.33
450.28	8966.59
450.46	8964.25
450.65	9151.49
450.83	9048.51
451.02	8891.70
451.20	9130.43
451.39	9160.86
451.57	9156.18
451.76	9034.47
451.94	9233.41
452.13	9308.31
452.31	9327.03
452.49	8959.57
452.68	9305.97
452.86	9240.44
453.05	9460.45
453.23	9291.93
453.42	9179.58
453.60	9404.27
453.78	9509.60
453.97	9312.99
454.15	9554.07
454.34	9408.95
454.52	9659.39
454.70	9521.30
454.89	9750.67
455.07	9870.04
455.26	9750.67
455.44	9944.94
455.62	9891.10
455.81	9816.21
455.99	9806.84
456.17	9818.55
456.36	9909.83
456.54	10200.05
456.73	10043.24
456.91	10370.91
457.09	10164.95
457.28	10436.45
457.46	9989.41
457.64	10429.43
457.83	10178.99
458.01	10431.77
458.19	10600.29
458.38	10396.66
458.56	10799.23
458.74	10619.01
458.93	10672.84
459.11	10560.50
459.29	10698.59
459.48	10651.78
459.66	10621.35
459.84	10799.23
460.03	11021.58
460.21	11000.52
460.39	10888.17
460.57	10855.40
460.76	11187.76
460.94	11239.25
461.12	11321.17
461.31	10993.50
461.49	11012.22
461.67	11066.05
461.85	11152.65
462.04	11349.26
462.22	12023.33
462.40	11382.03
462.59	11360.96
462.77	11370.32
462.95	11595.01
463.13	11477.99
463.32	11625.44
463.50	11522.46
463.68	11515.44
463.86	11782.26
464.05	11613.74
464.23	11660.55
464.41	11775.24
464.59	11585.65
464.78	11971.84
464.96	11765.87
465.14	11770.55
465.32	11934.39
465.50	11988.22
465.69	11997.59
465.87	12100.57
466.05	11934.39
466.23	12358.03
466.41	11946.09
466.60	12608.47
466.78	12114.61
466.96	11978.86
467.14	12285.47
467.32	12343.99
467.51	12486.76
467.69	12191.85
467.87	12322.92
468.05	12479.74
468.23	12280.79
468.41	12414.20
468.60	12519.53
468.78	12746.56
468.96	12606.13
469.14	12776.98
469.32	12898.69
469.50	12500.80
469.69	12908.05
469.87	12884.65
470.05	12938.48
470.23	13130.41
470.41	13327.01
470.59	13263.82
470.77	13041.46
470.95	13287.22
471.14	13448.72
471.32	13027.42
471.50	13563.40
471.68	13348.08
471.86	13532.98
472.04	13474.46
472.22	14026.83
472.40	13556.38
472.58	13666.39
472.77	13900.44
472.95	14043.21
473.13	14705.59
473.31	13970.66
473.49	14153.22
473.67	14115.77
473.85	14190.67
474.03	14527.71
474.21	14506.64
474.39	14668.14
474.57	14677.50
474.75	14712.61
474.93	14911.55
475.12	14726.65
475.30	14850.70
475.48	14909.21
475.66	15283.70
475.84	15030.92
476.02	15346.89
476.20	15414.77
476.38	15405.41
476.56	15789.25
476.74	15754.15
476.92	15747.12
477.10	15857.13
477.28	16175.44
477.46	15946.07
477.64	16381.41
477.82	16325.24
478.00	16947.82
478.18	16765.26
478.36	16931.44
478.54	16837.81
478.72	16840.15
478.90	17277.83
479.08	17502.53
479.26	17561.04
479.44	17537.63
479.62	17860.63
479.80	18326.39
479.98	18195.32
480.16	18317.03
480.34	18223.41
480.52	18363.84
480.70	18527.68
480.88	18342.78
481.06	18654.07
481.24	18515.98
481.41	19023.87
481.59	19351.55
481.77	19356.23
481.95	19531.77
482.13	19337.51
482.31	19569.22
482.49	20418.83
482.67	20259.68
482.85	20561.61
483.03	20381.38
483.21	20563.95
483.39	20711.40
483.57	20903.32
483.74	20800.34
483.92	21142.06
484.10	21214.62
484.28	21624.21
484.46	21909.75
484.64	22089.98
484.82	22157.85
485.00	22104.02
485.18	22553.40
485.35	23145.56
485.53	22609.58
485.71	22927.89
485.89	23520.04
486.07	23145.56
486.25	23089.38
486.43	23541.11
486.61	23625.37
486.78	23826.65
486.96	23906.23
487.14	24465.62
487.32	24362.64
487.50	24882.24
487.68	24404.77
487.85	25280.13
488.03	25549.29
488.21	25909.73
488.39	25565.67
488.57	26015.05
488.75	25989.31
488.92	26223.36
489.10	26476.14
489.28	26609.55
489.46	27166.60
489.64	26831.90
489.81	27868.76
489.99	27426.40
490.17	27665.13
490.35	27864.08
490.53	27800.88
490.70	28388.36
490.88	27749.39
491.06	28823.70
491.24	28601.35
491.41	28816.68
491.59	29212.23
491.77	29277.76
491.95	29769.27
492.13	29467.34
492.30	29869.92
492.48	29802.04
492.66	30108.65
492.84	30019.71
493.01	30419.94
493.19	30558.03
493.37	31079.97
493.54	30789.75
493.72	31463.82
493.90	31482.55
494.08	31821.92
494.25	31665.11
494.43	31646.38
494.61	32254.92
494.79	32395.35
494.96	32505.36
495.14	32088.74
495.32	33043.68
495.49	33083.47
495.67	33261.35
495.85	33053.05
496.02	33350.29
496.20	33780.95
496.38	33481.36
496.55	33596.05
496.73	34742.91
496.91	34508.86
497.09	34286.51
497.26	35199.32
497.44	34710.14
497.62	35196.98
497.79	35409.96
497.97	35075.27
498.14	35761.05
498.32	36245.54
498.50	36088.72
498.67	36563.85
498.85	36334.48
499.03	36449.16
499.20	36760.45
499.38	36128.51
499.56	37085.79
499.73	36882.16
499.91	37163.03
500.08	37495.38
500.26	36793.22
500.44	37546.87
500.61	37448.57
500.79	37361.97
500.97	37851.14
501.14	38143.71
501.32	38148.39
501.49	37942.42
501.67	38204.56
501.84	39023.75
502.02	38298.19
502.20	38916.09
502.37	39243.76
502.55	39215.68
502.72	39093.97
502.90	39192.27
503.07	39136.10
503.25	39601.86
503.43	39372.49
503.60	39508.24
503.78	40037.20
503.95	39812.51
504.13	40538.08
504.30	40559.14
504.48	40109.76
504.65	40528.72
504.83	40919.59
505.01	41083.42
505.18	40840.01
505.36	41123.21
505.53	40825.96
505.71	41689.62
505.88	41766.86
506.06	41361.95
506.23	41258.96
506.41	41708.35
506.58	42075.81
506.76	41816.01
506.93	42157.73
507.11	42302.84
507.28	42431.57
507.46	42487.74
507.63	42277.10
507.81	42979.26
507.98	42864.57
508.16	43049.47
508.33	43353.74
508.50	43395.87
508.68	43082.24
508.85	43290.55
509.03	43718.87
509.20	43746.95
509.38	44203.36
509.55	44240.81
509.73	44285.28
509.90	44655.08
510.08	44076.97
510.25	43973.98
510.42	44961.69
510.60	44545.08
510.77	44982.76
510.95	44706.57
511.12	44961.69
511.30	45059.99
511.47	45067.02
511.64	45167.66
511.82	45516.40
511.99	45518.74
512.17	45745.77
512.34	45773.86
512.51	45937.69
512.69	46239.62
512.86	46136.64
513.04	46679.64
513.21	46316.86
513.38	46557.94
513.56	46742.84
513.73	46611.77
513.90	46461.97
514.08	46588.36
514.25	47093.92
514.43	47196.90
514.60	46810.71
514.77	46946.47
514.95	47559.69
515.12	47257.76
515.29	47625.22
515.47	47433.30
515.64	47767.99
515.81	47990.34
515.99	47782.04
516.16	48142.48
516.33	48013.75
516.51	48451.43
516.68	48109.71
516.85	48339.08
517.03	48601.22
517.20	48608.25
517.37	48418.66
517.54	48446.75
517.72	48231.42
517.89	48692.50
518.06	49071.67
518.24	48938.26
518.41	48961.67
518.58	49329.13
518.75	48985.07
518.93	49148.91
519.10	49284.66
519.27	49336.15
519.45	49476.58
519.62	49741.06
519.79	49485.95
519.96	49350.20
520.14	49801.92
520.31	49729.36
520.48	50082.78
520.65	50185.77
520.83	50436.20
521.00	50600.04
521.17	50230.24
521.34	50436.20
521.52	50759.20
521.69	50665.58
521.86	50621.11
522.03	51224.96
522.20	51119.64
522.38	51313.90
522.55	51260.07
522.72	50932.40
522.89	51234.33
523.07	51416.89
523.24	51351.35
523.41	51454.34
523.58	51407.53
523.75	51538.60
523.92	51423.91
524.10	51669.67
524.27	52060.54
524.44	51524.55
524.61	51880.31
524.78	52069.90
524.96	51828.82
525.13	51868.61
525.30	52168.20
525.47	52247.78
525.64	52156.50
525.81	52275.87
525.98	52523.96
526.16	52303.95
526.33	52554.39
526.50	52851.64
526.67	52559.07
526.84	52570.77
527.01	52830.57
527.18	52750.99
527.36	52863.34
527.53	52861.00
527.70	53062.29
527.87	53200.38
528.04	52903.13
528.21	53284.64
528.38	53059.94
528.55	53448.47
528.72	53198.04
528.89	53132.50
529.07	53202.72
529.24	53364.21
529.41	53446.13
529.58	53588.91
529.75	53268.25
529.92	53624.01
530.09	53715.29
530.26	53727.00
530.43	53703.59
530.60	53661.46
530.77	53773.81
530.94	53666.14
531.11	53979.78
531.28	53860.41
531.46	54101.48
531.63	54021.90
531.80	53963.39
531.97	54239.57
532.14	54255.96
532.31	54497.03
532.48	54485.33
532.65	54511.08
532.82	54232.55
532.99	54562.57
533.16	54206.81
533.33	54550.87
533.50	54754.49
533.67	54773.22
533.84	54564.91
534.01	54644.49
534.18	54759.17
534.35	55124.30
534.52	55016.63
534.69	55126.64
534.86	54962.80
535.03	54803.64
535.20	54897.27
535.37	55112.59
535.54	55173.45
535.71	55370.05
535.88	55058.76
536.05	55117.28
536.22	55393.46
536.38	55557.30
536.55	55594.74
536.72	55576.02
536.89	55178.13
537.06	55407.50
537.23	55767.94
537.40	55358.35
537.57	55559.64
537.74	55538.57
537.91	55737.52
538.08	55767.94
538.25	55585.38
538.42	55803.05
538.59	55948.17
538.75	55791.35
538.92	55810.07
539.09	56030.08
539.26	55985.61
539.43	55941.14
539.60	56060.51
539.77	55861.57
539.94	56329.67
540.11	56168.18
540.28	56573.09
540.44	56280.52
540.61	56390.53
540.78	56381.16
540.95	56371.80
541.12	56130.73
541.29	56409.25
541.46	56552.02
541.62	56437.34
541.79	56435.00
541.96	56130.73
542.13	56392.87
542.30	56545.00
542.47	56671.39
542.63	56638.62
542.80	56617.56
542.97	57305.68
543.14	57045.88
543.31	56996.73
543.48	57069.28
543.64	57305.68
543.81	57233.12
543.98	57202.69
544.15	57034.17
544.32	57382.91
544.48	57425.04
544.65	57073.96
544.82	57263.55
544.99	57212.06
545.16	57396.96
545.32	57013.11
545.49	57565.48
545.66	57389.94
545.83	57546.75
546.00	57710.59
546.16	57425.04
546.33	57413.34
546.50	57223.76
546.67	57544.41
546.83	57382.91
547.00	57614.63
547.17	57724.63
547.34	57378.23
547.50	57595.90
547.67	57982.09
547.84	57907.19
548.00	58122.52
548.17	58232.53
548.34	57750.38
548.51	58230.19
548.67	58181.04
548.84	57977.41
549.01	58164.65
549.18	58068.69
549.34	58183.38
549.51	57897.83
549.68	58113.16
549.84	58136.57
550.01	58241.89
550.18	58143.59
550.34	58232.53
550.51	58354.24
550.68	58365.94
550.84	58026.56
551.01	58585.95
551.18	58230.19
551.34	58262.96
551.51	58527.44
551.68	58464.24
551.84	58459.56
552.01	58302.74
552.18	58354.24
552.34	58286.36
552.51	58663.19
552.68	58595.31
552.84	58562.54
553.01	58731.06
553.18	58599.99
553.34	58712.34
553.51	58602.33
553.67	58639.78
553.84	58702.98
554.01	58824.68
554.17	58768.51
554.34	58934.69
554.51	58824.68
554.67	58862.13
554.84	58887.88
555.00	58812.98
555.17	58756.81
555.33	58742.77
555.50	58695.95
555.67	58810.64
555.83	58763.83
556.00	58894.90
556.16	59199.17
556.33	59072.78
556.50	59105.55
556.66	59063.42
556.83	58763.83
556.99	59150.02
557.16	59227.26
557.32	59444.93
557.49	59292.79
557.65	59089.16
557.82	59430.88
557.98	59248.32
558.15	59292.79
558.32	59341.94
558.48	59290.45
558.65	59346.62
558.81	59423.86
558.98	59386.41
559.14	59381.73
559.31	59632.17
559.47	59444.93
559.64	59615.79
559.80	59533.87
559.97	59580.68
560.13	59480.03
560.30	59524.50
560.46	59496.42
560.63	59510.46
560.79	59753.88
560.96	59770.26
561.12	59629.83
561.29	59671.96
561.45	59526.84
561.61	59891.97
561.78	59756.22
561.94	59763.24
562.11	59742.17
562.27	59751.54
562.44	59828.77
562.60	60097.94
562.77	59763.24
562.93	59634.51
563.10	59964.52
563.26	59831.11
563.42	60123.68
563.59	59714.09
563.75	59702.38
563.92	60032.40
564.08	59948.14
564.24	60076.87
564.41	60088.57
564.57	59990.27
564.74	60109.64
564.90	60051.12
565.07	59767.92
565.23	60027.72
565.39	59941.12
565.56	60097.94
565.72	60074.53
565.88	60140.07
566.05	59990.27
566.21	59971.55
566.38	60102.62
566.54	60212.62
566.70	60147.09
566.87	60278.16
567.03	60013.68
567.19	60388.16
567.36	60051.12
567.52	60217.30
567.68	60294.54
567.85	60362.42
568.01	60294.54
568.17	59917.71
568.34	60184.54
568.50	60292.20
568.66	60102.62
568.83	60238.37
568.99	60175.17
569.15	60271.14
569.32	60336.67
569.48	60259.43
569.64	60233.69
569.81	60367.10
569.97	60133.04
570.13	60336.67
570.30	60147.09
570.46	60409.23
570.62	60334.33
570.78	60505.19
570.95	60294.54
571.11	60477.10
571.27	60416.25
571.43	60364.76
571.60	60409.23
571.76	60425.61
571.92	60392.84
572.09	60427.95
572.25	60596.47
572.41	60474.76
572.57	60341.35
572.74	60741.58
572.90	60540.30
573.06	60594.13
573.22	60535.62
573.38	60591.79
573.55	60308.58
573.71	60643.28
573.87	60509.87
574.03	60371.78
574.20	60643.28
574.36	60453.70
574.52	60654.98
574.68	60680.73
574.84	60790.73
575.01	60493.49
575.17	60554.34
575.33	60552.00
575.49	60456.04
575.65	60573.06
575.82	60874.99
575.98	60608.17
576.14	60626.90
576.30	60699.45
576.46	60584.77
576.62	60441.99
576.79	60491.15
576.95	60392.84
577.11	60701.79
577.27	60750.94
577.43	60725.20
577.59	60666.69
577.75	60491.15
577.92	60535.62
578.08	60767.33
578.24	60821.16
578.40	60800.10
578.56	60697.11
578.72	60589.45
578.88	60858.61
579.04	60924.14
579.21	60842.23
579.37	60818.82
579.53	60804.78
579.69	60615.19
579.85	60535.62
580.01	60786.05
580.17	60523.91
580.33	60921.80
580.49	60889.04
580.65	60699.45
580.82	60882.02
580.98	60755.63
581.14	60666.69
581.30	61048.19
581.46	61097.34
581.62	60622.22
581.78	60516.89
581.94	60835.20
582.10	60779.03
582.26	60851.59
582.42	60783.71
582.58	60755.63
582.74	60886.70
582.90	60849.25
583.06	60760.31
583.22	60755.63
583.38	60704.13
583.54	60727.54
583.70	60949.89
583.86	60968.61
584.02	60748.60
584.18	61029.47
584.34	60837.54
584.50	60851.59
584.66	60860.95
584.82	60811.80
584.98	61118.41
585.14	60910.10
585.30	60867.97
585.46	60924.14
585.62	60975.64
585.78	60954.57
585.94	60685.41
586.10	60832.86
586.26	60989.68
586.42	60699.45
586.58	61125.43
586.74	60825.84
586.90	60999.04
587.06	60825.84
587.22	60924.14
587.38	60877.33
587.54	60858.61
587.70	61139.47
587.86	61024.79
588.02	60893.72
588.18	61123.09
588.34	60783.71
588.49	60884.36
