SpectraSuite Data File
++++++++++++++++++++++++++++++++++++
Date: Fri Oct 25 10:44:51 EDT 2013
User: price-jones
Dark Spectrum Present: No
Reference Spectrum Present: No
Number of Sampled Component Spectra: 1
Spectrometers: USB2+H05261
Integration Time (usec): 100000 (USB2+H05261)
Spectra Averaged: 1 (USB2+H05261)
Boxcar Smoothing: 0 (USB2+H05261)
Correct for Electrical Dark: No (USB2+H05261)
Strobe/Lamp Enabled: No (USB2+H05261)
Correct for Detector Non-linearity: No (USB2+H05261)
Correct for Stray Light: No (USB2+H05261)
Number of Pixels in Processed Spectrum: 2048
>>>>>Begin Processed Spectral Data<<<<<
365.73	170.86
365.92	170.86
366.12	170.86
366.32	4.68
366.52	25.75
366.72	30.43
366.91	25.75
367.11	72.56
367.31	46.81
367.51	0.00
367.70	18.72
367.90	163.84
368.10	63.19
368.30	65.54
368.49	18.72
368.69	63.19
368.89	37.45
369.09	39.79
369.28	39.79
369.48	53.83
369.68	124.05
369.87	135.75
370.07	91.28
370.27	191.92
370.47	266.82
370.66	304.27
370.86	322.99
371.06	374.49
371.25	482.15
371.45	311.29
371.65	369.80
371.84	447.04
372.04	447.04
372.24	470.45
372.44	418.96
372.63	470.45
372.83	458.74
373.03	461.09
373.22	442.36
373.42	489.17
373.62	444.70
373.81	454.06
374.01	503.22
374.21	615.56
374.40	463.43
374.60	510.24
374.79	475.13
374.99	477.47
375.19	521.94
375.38	596.84
375.58	507.90
375.78	599.18
375.97	564.07
376.17	657.69
376.37	624.92
376.56	589.82
376.76	610.88
376.95	550.03
377.15	580.45
377.35	648.33
377.54	507.90
377.74	620.24
377.93	615.56
378.13	643.65
378.33	613.22
378.52	540.66
378.72	564.07
378.91	638.97
379.11	540.66
379.31	660.03
379.50	580.45
379.70	641.31
379.89	704.50
380.09	510.24
380.28	601.52
380.48	592.16
380.68	660.03
380.87	587.47
381.07	716.20
381.26	744.29
381.46	753.65
381.65	571.09
381.85	594.50
382.04	631.94
382.24	594.50
382.43	638.97
382.63	634.29
382.83	774.72
383.02	706.84
383.22	711.52
383.41	669.39
383.61	669.39
383.80	760.67
384.00	730.25
384.19	723.23
384.39	788.76
384.58	716.20
384.78	755.99
384.97	767.70
385.17	870.68
385.36	786.42
385.56	692.80
385.75	716.20
385.95	765.36
386.14	814.51
386.34	732.59
386.53	774.72
386.72	763.01
386.92	763.01
387.11	793.44
387.31	744.29
387.50	807.48
387.70	765.36
387.89	805.14
388.09	774.72
388.28	858.98
388.48	800.46
388.67	854.30
388.86	891.74
389.06	833.23
389.25	926.85
389.45	929.19
389.64	898.77
389.84	870.68
390.03	919.83
390.22	884.72
390.42	903.45
390.61	856.64
390.81	823.87
391.00	947.92
391.19	968.98
391.39	1008.77
391.58	964.30
391.78	884.72
391.97	971.32
392.16	903.45
392.36	968.98
392.55	980.68
392.75	971.32
392.94	861.32
393.13	1055.58
393.33	959.62
393.52	961.96
393.71	1006.43
393.91	1020.47
394.10	1128.14
394.29	1034.52
394.49	1109.41
394.68	1158.57
394.88	1076.65
395.07	1167.93
395.26	1062.60
395.46	1149.20
395.65	1083.67
395.84	1093.03
396.04	1198.35
396.23	1118.78
396.42	1203.04
396.62	1064.94
396.81	1071.97
397.00	1114.10
397.19	1177.29
397.39	1235.80
397.58	1317.72
397.77	1254.53
397.97	1240.48
398.16	1277.93
398.35	1196.01
398.55	1306.02
398.74	1291.98
398.93	1303.68
399.12	1352.83
399.32	1320.06
399.51	1357.51
399.70	1437.09
399.90	1451.13
400.09	1453.47
400.28	1310.70
400.47	1420.71
400.67	1420.71
400.86	1387.94
401.05	1451.13
401.24	1488.58
401.44	1409.00
401.63	1584.54
401.82	1549.43
402.01	1551.78
402.21	1551.78
402.40	1540.07
402.59	1474.54
402.78	1568.16
402.97	1535.39
403.17	1603.27
403.36	1631.35
403.55	1593.90
403.74	1652.42
403.93	1544.75
404.13	1610.29
404.32	1650.08
404.51	1685.19
404.70	1643.06
404.89	1647.74
405.09	1734.34
405.28	1816.26
405.47	1720.29
405.66	1809.23
405.85	1825.62
406.05	1710.93
406.24	1769.44
406.43	1755.40
406.62	1895.83
406.81	1839.66
407.00	1837.32
407.20	1842.00
407.39	1764.76
407.58	1870.09
407.77	1851.36
407.96	1933.28
408.15	2127.55
408.34	1956.69
408.54	1996.48
408.73	2038.61
408.92	2097.12
409.11	2064.35
409.30	2047.97
409.49	2069.03
409.68	2022.22
409.87	1937.96
410.07	2143.93
410.26	2122.87
410.45	2076.06
410.64	2225.85
410.83	2190.74
411.02	2207.13
411.21	2221.17
411.40	2202.44
411.59	2326.49
411.78	2272.66
411.98	2289.04
412.17	2352.24
412.36	2401.39
412.55	2282.02
412.74	2480.97
412.93	2485.65
413.12	2469.27
413.31	2586.29
413.50	2396.71
413.69	2523.10
413.88	2553.52
414.07	2588.63
414.26	2649.49
414.45	2684.59
414.64	2651.83
414.83	2668.21
415.02	2750.13
415.22	2794.60
415.41	2759.49
415.60	2864.82
415.79	2787.58
415.98	2881.20
416.17	2867.16
416.36	2885.88
416.55	2956.10
416.74	2998.23
416.93	3002.91
417.12	2860.13
417.31	2935.03
417.50	2939.71
417.69	3192.49
417.88	3054.40
418.07	3019.29
418.26	3066.10
418.45	3194.83
418.64	3243.98
418.83	3112.91
419.02	3155.04
419.21	3098.87
419.39	3234.62
419.58	3211.22
419.77	3176.11
419.96	3192.49
420.15	3391.44
420.34	3375.05
420.53	3435.91
420.72	3358.67
420.91	3466.33
421.10	3335.26
421.29	3391.44
421.48	3431.23
421.67	3419.52
421.86	3440.59
422.05	3527.19
422.24	3424.20
422.43	3459.31
422.61	3574.00
422.80	3463.99
422.99	3382.07
423.18	3662.94
423.37	3574.00
423.56	3634.85
423.75	3562.30
423.94	3435.91
424.13	3417.18
424.32	3375.05
424.50	3541.23
424.69	3620.81
424.88	3726.13
425.07	3585.70
425.26	3536.55
425.45	3590.38
425.64	3492.08
425.83	3548.25
426.01	3742.52
426.20	3569.32
426.39	3632.51
426.58	3641.87
426.77	3559.95
426.96	3585.70
427.15	3597.40
427.33	3630.17
427.52	3758.90
427.71	3833.80
427.90	3878.27
428.09	3817.41
428.28	3810.39
428.46	3908.69
428.65	3845.50
428.84	3946.14
429.03	3882.95
429.22	3805.71
429.40	3763.58
429.59	3779.97
429.78	3693.37
429.97	3616.13
430.16	3669.96
430.34	3829.12
430.53	3889.97
430.72	3950.82
430.91	3913.38
431.10	3992.95
431.28	4044.45
431.47	4182.54
431.66	4166.15
431.85	4102.96
432.03	4037.42
432.22	4198.92
432.41	4147.43
432.60	4337.01
432.79	4205.94
432.97	4154.45
433.16	4409.57
433.35	4294.88
433.54	4280.84
433.72	4287.86
433.91	4184.88
434.10	4208.28
434.28	4351.06
434.47	4369.78
434.66	4381.48
434.85	4421.27
435.03	4416.59
435.22	4332.33
435.41	4641.28
435.59	4461.06
435.78	4582.77
435.97	4552.34
436.16	4521.92
436.34	4491.49
436.53	4575.75
436.72	4613.20
436.90	4631.92
437.09	4688.09
437.28	4568.73
437.46	4809.80
437.65	4734.90
437.84	4739.58
438.02	4589.79
438.21	4800.44
438.40	4734.90
438.58	4870.65
438.77	4819.16
438.96	4940.87
439.14	4973.64
439.33	5114.07
439.52	5100.03
439.70	5107.05
439.89	5186.63
440.08	5090.67
440.26	5329.40
440.45	5270.89
440.63	5408.98
440.82	5324.72
441.01	5305.99
441.19	5373.87
441.38	5444.09
441.57	5556.43
441.75	5547.07
441.94	5708.57
442.12	5650.05
442.31	5720.27
442.50	5673.46
442.68	5699.20
442.87	5643.03
443.05	5682.82
443.24	5867.72
443.43	5734.31
443.61	5893.47
443.80	5982.41
443.98	5650.05
444.17	5701.54
444.35	5888.79
444.54	6026.88
444.73	5905.17
444.91	5923.90
445.10	5837.30
445.28	5734.31
445.47	5666.44
445.65	5849.00
445.84	5853.68
446.02	5968.37
446.21	6064.33
446.39	6057.31
446.58	6083.05
446.77	5987.09
446.95	6010.50
447.14	6010.50
447.32	6101.78
447.51	6012.84
447.69	5947.30
447.88	5975.39
448.06	6050.28
448.25	6043.26
448.43	6104.12
448.62	6057.31
448.80	5970.71
448.99	6054.97
449.17	6267.95
449.36	6179.01
449.54	6031.56
449.73	6235.19
449.91	6384.98
450.10	6434.13
450.28	6476.26
450.46	6370.94
450.65	6377.96
450.83	6359.24
451.02	6282.00
451.20	6539.46
451.39	6527.75
451.57	6408.39
451.76	6518.39
451.94	6562.86
452.13	6623.72
452.31	6649.46
452.49	6195.40
452.68	6473.92
452.86	6595.63
453.05	6658.82
453.23	6689.25
453.42	6443.49
453.60	6487.96
453.78	6738.40
453.97	6422.43
454.15	6705.63
454.34	6583.93
454.52	6768.83
454.70	6679.89
454.89	6932.67
455.07	6829.68
455.26	6902.24
455.44	7059.06
455.62	6906.92
455.81	6871.81
455.99	7033.31
456.17	6995.86
456.36	7075.44
456.54	7019.27
456.73	7023.95
456.91	7349.28
457.09	7255.66
457.28	7403.11
457.46	7346.94
457.64	7353.96
457.83	7524.82
458.01	7293.11
458.19	7438.22
458.38	7543.55
458.56	7513.12
458.74	7365.67
458.93	7363.33
459.11	7611.42
459.29	7550.57
459.48	7648.87
459.66	7651.21
459.84	7517.80
460.03	7892.29
460.21	7569.29
460.39	7726.11
460.57	7644.19
460.76	7763.56
460.94	7861.86
461.12	7730.79
461.31	7840.79
461.49	7756.54
461.67	7894.63
461.85	8212.94
462.04	8088.89
462.22	8112.30
462.40	8222.30
462.59	7950.80
462.77	7934.42
462.95	8102.93
463.13	8046.76
463.32	7964.84
463.50	8194.22
463.68	8203.58
463.86	8285.50
464.05	8030.38
464.23	8205.92
464.41	8252.73
464.59	8124.00
464.78	8283.16
464.96	8252.73
465.14	8156.77
465.32	8203.58
465.50	8421.25
465.69	8489.12
465.87	8369.76
466.05	8446.99
466.23	8369.76
466.41	8292.52
466.60	8545.30
466.78	8243.37
466.96	8332.31
467.14	8582.74
467.32	8564.02
467.51	8610.83
467.69	8285.50
467.87	8517.21
468.05	8545.30
468.23	8552.32
468.41	8615.51
468.60	8755.94
468.78	8748.92
468.96	8732.54
469.14	8681.05
469.32	8877.65
469.50	8617.85
469.69	8950.21
469.87	9039.15
470.05	8999.36
470.23	9053.19
470.41	8945.53
470.59	9153.84
470.77	8835.52
470.95	9085.96
471.14	9151.49
471.32	8854.25
471.50	9320.01
471.68	9387.89
471.86	9350.44
472.04	9324.69
472.22	9509.60
472.40	9100.00
472.58	9579.81
472.77	9460.45
472.95	9664.07
473.13	10029.20
473.31	9895.78
473.49	9624.28
473.67	9804.50
473.85	9989.41
474.03	9980.04
474.21	10118.14
474.39	10015.15
474.57	10239.84
474.75	10113.45
474.93	10150.90
475.12	10174.31
475.30	10326.44
475.48	10333.47
475.66	10171.97
475.84	10068.98
476.02	10593.26
476.20	10569.86
476.38	10485.60
476.56	10897.53
476.74	10787.53
476.92	10906.90
477.10	10934.98
477.28	11007.54
477.46	11159.67
477.64	10986.47
477.82	11281.38
478.00	11510.75
478.18	11541.18
478.36	11351.60
478.54	11618.42
478.72	11597.35
478.90	11793.96
479.08	11962.48
479.26	11873.54
479.44	12046.74
479.62	12063.12
479.80	12198.87
479.98	12208.23
480.16	12561.66
480.34	12533.57
480.52	12650.60
480.70	12601.44
480.88	12343.99
481.06	12737.20
481.24	12863.58
481.41	12884.65
481.59	12805.07
481.77	12999.34
481.95	13280.20
482.13	13355.10
482.31	13179.56
482.49	13614.90
482.67	13535.32
482.85	13680.43
483.03	14038.53
483.21	14143.86
483.39	14118.11
483.57	14129.81
483.74	14148.54
483.92	14085.34
484.10	14466.85
484.28	14590.90
484.46	14764.10
484.64	14864.74
484.82	14768.78
485.00	15012.20
485.18	15384.34
485.35	15482.64
485.53	15129.22
485.71	15049.64
485.89	15119.86
486.07	15152.63
486.25	15461.58
486.43	15807.98
486.61	15349.23
486.78	16133.31
486.96	15932.03
487.14	16592.06
487.32	16432.90
487.50	16744.19
487.68	16519.50
487.85	16772.28
488.03	17254.43
488.21	17069.53
488.39	16996.97
488.57	17308.26
488.75	17453.37
488.92	17476.78
489.10	17898.08
489.28	18146.17
489.46	18059.57
489.64	17738.92
489.81	18520.66
489.99	18476.19
490.17	18743.01
490.35	18906.85
490.53	18483.21
490.70	18871.74
490.88	18743.01
491.06	19164.31
491.24	18897.49
491.41	19199.41
491.59	19599.65
491.77	19115.16
491.95	19372.61
492.13	19665.18
492.30	19576.24
492.48	19714.33
492.66	20039.67
492.84	20049.03
493.01	20350.96
493.19	20388.41
493.37	20622.46
493.54	20547.56
493.72	20690.34
493.90	20898.64
494.08	21039.08
494.25	21268.45
494.43	21153.76
494.61	21282.49
494.79	21558.67
494.96	21476.76
495.14	21586.76
495.32	21991.67
495.49	21694.43
495.67	22104.02
495.85	22441.06
496.02	22246.79
496.20	22459.78
496.38	22356.80
496.55	22651.70
496.73	22991.08
496.91	22876.40
497.09	23049.60
497.26	23461.53
497.44	22925.55
497.62	22888.10
497.79	23506.00
497.97	23077.68
498.14	23431.10
498.32	23934.32
498.50	23676.86
498.67	23953.04
498.85	24121.56
499.03	24376.68
499.20	24308.80
499.38	23997.51
499.56	24402.43
499.73	24538.18
499.91	24421.15
500.08	24861.17
500.26	24498.39
500.44	24830.74
500.61	24568.60
500.79	24678.61
500.97	25060.12
501.14	25352.68
501.32	25057.78
501.49	25177.14
501.67	25497.80
501.84	25516.52
502.02	25682.70
502.20	26089.95
502.37	25804.41
502.55	26075.91
502.72	26085.27
502.90	26012.71
503.07	25682.70
503.25	26089.95
503.43	26057.18
503.60	26518.27
503.78	26127.40
503.95	26043.14
504.13	26396.56
504.30	26799.13
504.48	26930.20
504.65	27051.91
504.83	27159.58
505.01	26988.72
505.18	26932.54
505.36	27461.51
505.53	27276.60
505.71	27557.47
505.88	27414.69
506.06	27103.40
506.23	27889.82
506.41	27723.65
506.58	27536.40
506.76	27812.59
506.93	27828.97
507.11	27775.14
507.28	28018.55
507.46	27920.25
507.63	27744.71
507.81	27960.04
507.98	28252.61
508.16	28259.63
508.33	28458.57
508.50	28903.28
508.68	28727.74
508.85	29017.96
509.03	28886.89
509.20	28898.59
509.38	29102.22
509.55	29139.67
509.73	29408.83
509.90	29137.33
510.08	29298.83
510.25	29230.95
510.42	29631.18
510.60	29521.18
510.77	29886.30
510.95	29909.71
511.12	29741.19
511.30	29930.77
511.47	30216.32
511.64	30288.87
511.82	30087.59
511.99	29839.49
512.17	30333.34
512.34	30050.14
512.51	30637.61
512.69	30768.68
512.86	30738.26
513.04	30710.17
513.21	30866.98
513.38	30930.18
513.56	30689.10
513.73	30721.87
513.90	31400.63
514.08	31108.06
514.25	31164.23
514.43	30817.83
514.60	31189.98
514.77	30895.07
514.95	31782.13
515.12	30923.16
515.29	31592.55
515.47	31992.78
515.64	32039.59
515.81	31580.85
515.99	31653.40
516.16	31852.35
516.33	31732.98
516.51	31927.25
516.68	31400.63
516.85	31627.66
517.03	32020.87
517.20	32444.51
517.37	32037.25
517.54	32629.41
517.72	31828.95
517.89	32364.93
518.06	31835.97
518.24	32147.26
518.41	32496.00
518.58	32467.91
518.75	32980.49
518.93	33041.34
519.10	32481.95
519.27	33429.87
519.45	33083.47
519.62	32994.53
519.79	32847.08
519.96	33359.66
520.14	33523.49
520.31	33198.16
520.48	33642.86
520.65	33343.27
520.83	33769.25
521.00	34160.12
521.17	33649.88
521.34	34031.39
521.52	33965.85
521.69	33750.52
521.86	33958.83
522.03	34277.15
522.20	33766.91
522.38	34492.47
522.55	33972.88
522.72	34342.68
522.89	34426.94
523.07	34417.58
523.24	34249.06
523.41	35070.59
523.58	34703.12
523.75	35435.71
523.92	34869.30
524.10	34972.28
524.27	35021.44
524.44	35070.59
524.61	35117.40
524.78	35400.60
524.96	35646.36
525.13	35416.99
525.30	35629.98
525.47	35732.96
525.64	35618.27
525.81	35550.40
525.98	35866.37
526.16	35306.98
526.33	35592.53
526.50	35618.27
526.67	35239.11
526.84	35791.47
527.01	35747.00
527.18	35943.61
527.36	35803.17
527.53	36575.55
527.70	36332.14
527.87	35990.42
528.04	36105.10
528.21	36102.76
528.38	36107.44
528.55	36507.68
528.72	36425.76
528.89	36678.54
529.07	36643.43
529.24	36645.77
529.41	36933.65
529.58	36442.14
529.75	36643.43
529.92	37031.96
530.09	36765.14
530.26	36947.70
530.43	37165.37
530.60	36779.18
530.77	37048.34
530.94	37607.73
531.11	36889.18
531.28	37338.57
531.46	37502.40
531.63	37177.07
531.80	37577.30
531.97	37298.78
532.14	37677.94
532.31	37001.53
532.48	37170.05
532.65	37507.08
532.82	37471.98
532.99	37675.60
533.16	37441.55
533.33	37574.96
533.50	37951.79
533.67	38211.59
533.84	38071.15
534.01	37972.85
534.18	37610.07
534.35	37982.21
534.52	38368.40
534.69	38691.40
534.86	38719.48
535.03	38272.44
535.20	38778.00
535.37	38843.53
535.54	38747.57
535.71	38267.76
535.88	38429.26
536.05	38464.36
536.22	38740.55
536.38	38742.89
536.55	39040.14
536.72	38728.84
536.89	38600.12
537.06	38370.74
537.23	38960.56
537.40	38817.78
537.57	39044.82
537.74	39189.93
537.91	39353.77
538.08	38939.49
538.25	38569.69
538.42	39016.73
538.59	39187.59
538.75	38742.89
538.92	38946.51
539.09	39007.37
539.26	39215.68
539.43	39321.00
539.60	39262.49
539.77	39070.56
539.94	39494.20
540.11	39325.68
540.28	39548.03
540.44	39550.37
540.61	39019.07
540.78	39805.49
540.95	39789.11
541.12	39302.28
541.29	39735.27
541.46	39557.39
541.62	39651.02
541.79	39812.51
541.96	39847.62
542.13	39428.66
542.30	39782.09
542.47	39969.33
542.63	40004.44
542.80	39683.78
542.97	40538.08
543.14	40837.67
543.31	40797.88
543.48	40528.72
543.64	41003.85
543.81	40643.40
543.98	40793.20
544.15	40629.36
544.32	40919.59
544.48	40992.14
544.65	41120.87
544.82	40758.09
544.99	40797.88
545.16	40715.96
545.32	40713.62
545.49	41507.06
545.66	41013.21
545.83	41064.70
546.00	41666.22
546.16	41205.13
546.33	41031.93
546.50	40898.52
546.67	41160.66
546.83	40933.63
547.00	41151.30
547.17	41350.24
547.34	41247.26
547.50	41560.89
547.67	41497.70
547.84	41691.96
548.00	41581.96
548.17	41951.76
548.34	41415.78
548.51	41743.45
548.67	41813.67
548.84	41745.80
549.01	41687.28
549.18	41703.67
549.34	41724.73
549.51	41991.55
549.68	41698.98
549.84	41914.31
550.01	42108.58
550.18	41539.83
550.34	42232.63
550.51	42029.00
550.68	42281.78
550.84	41605.36
551.01	42373.06
551.18	42021.98
551.34	42127.30
551.51	42176.45
551.68	42225.60
551.84	42387.10
552.01	42085.17
552.18	42244.33
552.34	41720.05
552.51	42134.32
552.68	42059.43
552.84	42789.67
553.01	42885.64
553.18	42651.58
553.34	42344.97
553.51	42377.74
553.67	42361.36
553.84	42363.70
554.01	42693.71
554.17	43021.39
554.34	43072.88
554.51	42960.53
554.67	43061.18
554.84	42515.83
555.00	42670.31
555.17	42721.80
555.33	43182.88
555.50	42733.50
555.67	42705.41
555.83	42871.59
556.00	42595.41
556.16	43620.56
556.33	42749.88
556.50	42775.63
556.66	43040.11
556.83	42590.73
556.99	43548.01
557.16	43501.20
557.32	43115.01
557.49	43285.87
557.65	42862.23
557.82	43391.19
557.98	43510.56
558.15	43091.60
558.32	43622.90
558.48	43154.80
558.65	43569.07
558.81	43246.08
558.98	43161.82
559.14	43615.88
559.31	43093.94
559.47	43400.55
559.64	43487.15
559.80	43461.41
559.97	43515.24
560.13	43330.34
560.30	43367.79
560.46	43384.17
560.63	43423.96
560.79	43540.99
560.96	43798.44
561.12	43131.39
561.29	43459.07
561.45	43419.28
561.61	44009.09
561.78	43299.91
561.94	43606.52
562.11	43739.93
562.27	43583.12
562.44	43414.60
562.60	44013.77
562.77	43983.35
562.93	43599.50
563.10	44224.42
563.26	43510.56
563.42	43798.44
563.59	43779.72
563.75	43810.15
563.92	44381.24
564.08	43908.45
564.24	44299.32
564.41	44172.93
564.57	43714.19
564.74	43732.91
564.90	43777.38
565.07	43805.47
565.23	43929.51
565.39	43763.34
565.56	43838.23
565.72	43737.59
565.88	43990.37
566.05	43835.89
566.21	44179.95
566.38	43629.93
566.54	44107.40
566.70	44020.80
566.87	44535.71
567.03	44114.42
567.19	44687.85
567.36	44322.72
567.52	44435.07
567.68	44233.78
567.85	44053.56
568.01	44278.25
568.17	43948.24
568.34	44023.14
568.50	44025.48
568.66	43753.97
568.83	44177.61
568.99	43924.83
569.15	44243.15
569.32	44142.50
569.48	44168.25
569.64	44240.81
569.81	44437.41
569.97	44212.72
570.13	44245.49
570.30	44013.77
570.46	43882.70
570.62	43847.60
570.78	44095.69
570.95	44275.91
571.11	44388.26
571.27	44048.88
571.43	43889.73
571.60	44318.04
571.76	44044.20
571.92	44378.90
572.09	44189.31
572.25	44053.56
572.41	44404.64
572.57	44217.40
572.74	44465.50
572.90	44477.20
573.06	43945.90
573.22	44172.93
573.38	44374.22
573.55	44095.69
573.71	44446.77
573.87	44617.63
574.03	44130.80
574.20	44467.84
574.36	44348.47
574.52	44582.52
574.68	44725.30
574.84	44278.25
575.01	44528.69
575.17	44832.96
575.33	44341.45
575.49	44421.03
575.65	44865.73
575.82	44418.69
575.98	44102.71
576.14	44341.45
576.30	45106.80
576.46	44346.13
576.62	44509.97
576.79	44582.52
576.95	44154.21
577.11	44229.10
577.27	44360.17
577.43	44645.72
577.59	44493.58
577.75	44411.67
577.92	44381.24
578.08	44669.12
578.24	44041.86
578.40	43943.56
578.56	44233.78
578.72	44238.47
578.88	44926.58
579.04	44687.85
579.21	44837.64
579.37	44802.53
579.53	44587.21
579.69	44329.75
579.85	44559.12
580.01	44381.24
580.17	44334.43
580.33	44839.98
580.49	44732.32
580.65	44582.52
580.82	44535.71
580.98	44533.37
581.14	44715.93
581.30	44839.98
581.46	44439.75
581.62	44741.68
581.78	44673.81
581.94	44980.42
582.10	44240.81
582.26	44570.82
582.42	44474.86
582.58	44549.76
582.74	44428.05
582.90	44554.44
583.06	44863.39
583.22	44987.44
583.38	44626.99
583.54	44744.02
583.70	44498.26
583.86	44488.90
584.02	44563.80
584.18	44942.97
584.34	44739.34
584.50	44694.87
584.66	44364.85
584.82	44453.79
584.98	44776.79
585.14	44753.38
585.30	44629.34
585.46	44509.97
585.62	44254.85
585.78	44362.51
585.94	44744.02
586.10	44575.50
586.26	44694.87
586.42	44788.49
586.58	44942.97
586.74	44535.71
586.90	44460.82
587.06	44711.25
587.22	44893.82
587.38	44147.18
587.54	44435.07
587.70	44619.97
587.86	45069.36
588.02	44559.12
588.18	45186.38
588.34	44685.51
588.49	44428.05
588.65	44210.38
588.81	44320.38
588.97	44566.14
589.13	44423.37
589.29	44332.09
589.45	44573.16
589.61	44814.24
589.77	44889.13
589.93	44914.88
590.08	44797.85
590.24	44699.55
