SpectraSuite Data File
++++++++++++++++++++++++++++++++++++
Date: Fri Oct 25 11:24:05 EDT 2013
User: price-jones
Dark Spectrum Present: No
Reference Spectrum Present: No
Number of Sampled Component Spectra: 1
Spectrometers: USB2+H05261
Integration Time (usec): 100000 (USB2+H05261)
Spectra Averaged: 1 (USB2+H05261)
Boxcar Smoothing: 0 (USB2+H05261)
Correct for Electrical Dark: No (USB2+H05261)
Strobe/Lamp Enabled: No (USB2+H05261)
Correct for Detector Non-linearity: No (USB2+H05261)
Correct for Stray Light: No (USB2+H05261)
Number of Pixels in Processed Spectrum: 2048
>>>>>Begin Processed Spectral Data<<<<<
365.73	273.84
365.92	273.84
366.12	273.84
366.32	138.09
366.52	135.75
366.72	135.75
366.91	126.39
367.11	88.94
367.31	156.82
367.51	16.38
367.70	131.07
367.90	124.05
368.10	70.22
368.30	173.20
368.49	131.07
368.69	114.69
368.89	131.07
369.09	133.41
369.28	210.65
369.48	117.03
369.68	145.11
369.87	173.20
370.07	161.50
370.27	212.99
370.47	353.42
370.66	660.03
370.86	641.31
371.06	709.18
371.25	634.29
371.45	711.52
371.65	711.52
371.84	711.52
372.04	641.31
372.24	713.86
372.44	739.61
372.63	667.05
372.83	713.86
373.03	777.06
373.22	751.31
373.42	734.93
373.62	718.54
373.81	730.25
374.01	791.10
374.21	737.27
374.40	791.10
374.60	875.36
374.79	774.72
374.99	805.14
375.19	744.29
375.38	798.12
375.58	936.21
375.78	840.25
375.97	854.30
376.17	915.15
376.37	854.30
376.56	912.81
376.76	901.11
376.95	882.38
377.15	884.72
377.35	873.02
377.54	912.81
377.74	912.81
377.93	844.93
378.13	912.81
378.33	936.21
378.52	905.79
378.72	908.13
378.91	1057.92
379.11	889.40
379.31	964.30
379.50	915.15
379.70	1006.43
379.89	1015.79
380.09	924.51
380.28	938.55
380.48	1015.79
380.68	936.21
380.87	936.21
381.07	1020.47
381.26	1008.77
381.46	1067.28
381.65	1074.31
381.85	929.19
382.04	1083.67
382.24	1078.99
382.43	994.73
382.63	1032.18
382.83	1041.54
383.02	1088.35
383.22	1142.18
383.41	1039.20
383.61	1109.41
383.80	1151.54
384.00	1104.73
384.19	1153.88
384.39	1116.44
384.58	1193.67
384.78	1160.91
384.97	1203.04
385.17	1029.84
385.36	1160.91
385.56	1123.46
385.75	1153.88
385.95	1247.51
386.14	1156.22
386.34	1233.46
386.53	1280.27
386.72	1247.51
386.92	1259.21
387.11	1294.32
387.31	1362.19
387.50	1277.93
387.70	1174.95
387.89	1270.91
388.09	1348.15
388.28	1233.46
388.48	1280.27
388.67	1327.08
388.86	1310.70
389.06	1362.19
389.25	1352.83
389.45	1366.87
389.64	1275.59
389.84	1390.28
390.03	1430.07
390.22	1369.21
390.42	1369.21
390.61	1390.28
390.81	1413.68
391.00	1448.79
391.19	1432.41
391.39	1444.11
391.58	1462.83
391.78	1483.90
391.97	1453.47
392.16	1441.77
392.36	1495.60
392.55	1519.01
392.75	1537.73
392.94	1497.94
393.13	1516.67
393.33	1511.99
393.52	1584.54
393.71	1675.82
393.91	1579.86
394.10	1636.03
394.29	1617.31
394.49	1554.12
394.68	1612.63
394.88	1713.27
395.07	1652.42
395.26	1724.97
395.46	1682.85
395.65	1654.76
395.84	1722.63
396.04	1717.95
396.23	1701.57
396.42	1732.00
396.62	1823.28
396.81	1739.02
397.00	1769.44
397.19	1846.68
397.39	1825.62
397.58	1837.32
397.77	1792.85
397.97	1902.86
398.16	1895.83
398.35	1893.49
398.55	1830.30
398.74	1963.71
398.93	1952.01
399.12	1870.09
399.32	1886.47
399.51	1961.37
399.70	1909.88
399.90	1984.77
400.09	2026.90
400.28	2054.99
400.47	2026.90
400.67	2073.71
400.86	1970.73
401.05	2059.67
401.24	2015.20
401.44	2125.21
401.63	2087.76
401.82	2132.23
402.01	2195.42
402.21	2216.49
402.40	2214.15
402.59	2204.78
402.78	2193.08
402.97	2282.02
403.17	2209.47
403.36	2181.38
403.55	2289.04
403.74	2436.50
403.93	2293.72
404.13	2319.47
404.32	2307.77
404.51	2373.30
404.70	2495.01
404.89	2354.58
405.09	2473.95
405.28	2534.80
405.47	2450.54
405.66	2509.05
405.85	2562.89
406.05	2553.52
406.24	2569.91
406.43	2562.89
406.62	2654.17
406.81	2719.70
407.00	2569.91
407.20	2677.57
407.39	2771.19
407.58	2740.77
407.77	2747.79
407.96	2754.81
408.15	2850.77
408.34	2782.90
408.54	2743.11
408.73	2810.98
408.92	2724.38
409.11	2853.11
409.30	2832.05
409.49	2956.10
409.68	2956.10
409.87	2967.80
410.07	3075.46
410.26	3023.97
410.45	2970.14
410.64	3080.14
410.83	3061.42
411.02	3101.21
411.21	3141.00
411.40	3206.53
411.59	3213.56
411.78	3314.20
411.98	3201.85
412.17	3260.37
412.36	3314.20
412.55	3332.92
412.74	3389.10
412.93	3382.07
413.12	3361.01
413.31	3646.55
413.50	3372.71
413.69	3581.02
413.88	3559.95
414.07	3665.28
414.26	3524.85
414.45	3700.39
414.64	3728.47
414.83	3651.24
415.02	3838.48
415.22	3770.60
415.41	3906.35
415.60	3878.27
415.79	3904.01
415.98	3896.99
416.17	3934.44
416.36	4032.74
416.55	4126.36
416.74	4198.92
416.93	3985.93
417.12	4121.68
417.31	4205.94
417.50	4072.53
417.69	4409.57
417.88	4489.15
418.07	4395.53
418.26	4297.22
418.45	4505.53
418.64	4540.64
418.83	4575.75
419.02	4379.14
419.21	4376.80
419.39	4479.79
419.58	4489.15
419.77	4432.97
419.96	4470.42
420.15	4535.96
420.34	4631.92
420.53	4671.71
420.72	4718.52
420.91	4741.93
421.10	4791.08
421.29	4849.59
421.48	4699.80
421.67	4823.84
421.86	4830.87
422.05	4870.65
422.24	4922.15
422.43	4884.70
422.61	4997.04
422.80	5015.77
422.99	4980.66
423.18	4978.32
423.37	5057.90
423.56	4847.25
423.75	4690.43
423.94	4823.84
424.13	4472.76
424.32	4772.35
424.50	5109.39
424.69	5186.63
424.88	5008.75
425.07	4926.83
425.26	4865.97
425.45	4919.81
425.64	4837.89
425.83	4971.30
426.01	5081.30
426.20	5151.52
426.39	4987.68
426.58	4992.36
426.77	4968.96
426.96	5116.41
427.15	5114.07
427.33	5245.14
427.52	5156.20
427.71	5294.29
427.90	5200.67
428.09	5191.31
428.28	5301.31
428.46	5341.10
428.65	5371.53
428.84	5589.20
429.03	5486.22
429.22	5284.93
429.40	5413.66
429.59	5430.04
429.78	5200.67
429.97	5252.16
430.16	5504.94
430.34	5589.20
430.53	5612.60
430.72	5694.52
430.91	5736.65
431.10	5710.91
431.28	5790.49
431.47	5792.83
431.66	5837.30
431.85	5757.72
432.03	5881.77
432.22	5877.09
432.41	5963.68
432.60	6045.60
432.79	5942.62
432.97	6078.37
433.16	6108.80
433.35	6005.81
433.54	6071.35
433.72	6139.23
433.91	6164.97
434.10	6069.01
434.28	6071.35
434.47	6349.87
434.66	6197.74
434.85	6200.08
435.03	6415.41
435.22	6314.77
435.41	6567.54
435.59	6443.49
435.78	6525.41
435.97	6553.50
436.16	6424.77
436.34	6504.35
436.53	6506.69
436.72	6764.15
436.90	6525.41
437.09	6595.63
437.28	6574.56
437.46	6658.82
437.65	6815.64
437.84	6649.46
438.02	6782.87
438.21	6864.79
438.40	6768.83
438.58	7115.23
438.77	7194.81
438.96	6855.43
439.14	7232.26
439.33	7229.91
439.52	7220.55
439.70	7398.43
439.89	7396.09
440.08	7269.70
440.26	7529.50
440.45	7365.67
440.63	7403.11
440.82	7524.82
441.01	7588.02
441.19	7599.72
441.38	7559.93
441.57	7777.60
441.75	7843.14
441.94	7950.80
442.12	7939.10
442.31	8060.80
442.50	8194.22
442.68	8030.38
442.87	8037.40
443.05	8217.62
443.24	8250.39
443.43	8269.11
443.61	8327.63
443.80	8587.43
443.98	8149.75
444.17	7896.97
444.35	7985.91
444.54	8306.56
444.73	8428.27
444.91	8336.99
445.10	8269.11
445.28	8400.18
445.47	8402.52
445.65	8332.31
445.84	8400.18
446.02	8589.77
446.21	8479.76
446.39	8489.12
446.58	8564.02
446.77	8774.67
446.95	8376.78
447.14	8521.89
447.32	8664.66
447.51	8430.61
447.69	8564.02
447.88	8575.72
448.06	8484.44
448.25	8561.68
448.43	8807.44
448.62	8762.97
448.80	8580.40
448.99	8568.70
449.17	9107.02
449.36	8870.63
449.54	8908.08
449.73	9069.58
449.91	8961.91
450.10	9163.20
450.28	9151.49
450.46	9116.39
450.65	9062.55
450.83	9062.55
451.02	9165.54
451.20	9151.49
451.39	9107.02
451.57	9018.08
451.76	9053.19
451.94	9291.93
452.13	9270.86
452.31	9444.06
452.49	9231.07
452.68	9387.89
452.86	9465.13
453.05	9504.92
453.23	9708.54
453.42	9465.13
453.60	9437.04
453.78	9633.64
453.97	9446.40
454.15	9577.47
454.34	9394.91
454.52	9769.40
454.70	9729.61
454.89	9776.42
455.07	10001.11
455.26	10047.92
455.44	10022.17
455.62	9853.66
455.81	10073.67
455.99	9994.09
456.17	10134.52
456.36	10176.65
456.54	10349.85
456.73	10391.98
456.91	10668.16
457.09	10518.37
457.28	10752.42
457.46	10471.56
457.64	10815.62
457.83	10363.89
458.01	10408.36
458.19	10792.21
458.38	10569.86
458.56	10754.76
458.74	10848.38
458.93	10979.45
459.11	10726.68
459.29	10747.74
459.48	10874.13
459.66	10764.12
459.84	10885.83
460.03	11023.92
460.21	10946.69
460.39	11089.46
460.57	11059.03
460.76	11140.95
460.94	11262.66
461.12	11236.91
461.31	11318.83
461.49	11332.87
461.67	11332.87
461.85	11295.43
462.04	11470.97
462.22	11648.85
462.40	11651.19
462.59	11634.80
462.77	11461.60
462.95	11705.02
463.13	11522.46
463.32	11960.14
463.50	11651.19
463.68	11892.26
463.86	11824.39
464.05	11733.11
464.23	11737.79
464.41	11840.77
464.59	11726.08
464.78	12292.49
464.96	12093.55
465.14	11889.92
465.32	12147.38
465.50	12154.40
465.69	12388.46
465.87	12365.05
466.05	12170.79
466.23	12142.70
466.41	12346.33
466.60	12512.50
466.78	12418.88
466.96	12320.58
467.14	12208.23
467.32	12332.28
467.51	12493.78
467.69	12219.94
467.87	12601.44
468.05	12779.32
468.23	12592.08
468.41	12615.49
468.60	12613.15
468.78	12879.97
468.96	12793.37
469.14	12664.64
469.32	13259.13
469.50	12608.47
469.69	13004.02
469.87	13305.95
470.05	13254.45
470.23	13125.72
470.41	13359.78
470.59	13233.39
470.77	12903.37
470.95	13399.57
471.14	13696.82
471.32	13352.76
471.50	13547.02
471.68	13619.58
471.86	13708.52
472.04	13762.35
472.22	14118.11
472.40	13598.51
472.58	13893.42
472.77	14164.92
472.95	14207.05
473.13	14677.50
473.31	14251.52
473.49	14401.32
473.67	14143.86
473.85	14448.13
474.03	14569.83
474.21	14672.82
474.39	14803.89
474.57	14771.12
474.75	15005.17
474.93	14951.34
475.12	15253.27
475.30	15112.84
475.48	15229.87
475.66	15403.07
475.84	15183.06
476.02	15522.43
476.20	15660.52
476.38	15714.36
476.56	15857.13
476.74	15967.13
476.92	16044.37
477.10	15829.04
477.28	16322.90
477.46	16339.28
477.64	16491.41
477.82	16638.87
478.00	17209.96
478.18	17130.38
478.36	16879.94
478.54	17177.19
478.72	17558.70
478.90	17528.27
479.08	17535.29
479.26	17851.27
479.44	17891.06
479.62	17989.36
479.80	17972.97
479.98	18136.81
480.16	18623.64
480.34	18462.15
480.52	18483.21
480.70	18487.89
480.88	18523.00
481.06	18787.48
481.24	19005.15
481.41	19286.01
481.59	19456.87
481.77	19541.13
481.95	19632.41
482.13	19845.40
482.31	20098.18
482.49	20381.38
482.67	20098.18
482.85	20561.61
483.03	20727.78
483.21	20706.72
483.39	21142.06
483.57	20940.77
483.74	21006.31
483.92	21638.25
484.10	21404.20
484.28	22022.10
484.46	22382.54
484.64	22834.27
484.82	22265.52
485.00	22483.19
485.18	22878.74
485.35	23344.50
485.53	22501.91
485.71	23171.30
485.89	23522.38
486.07	23475.57
486.25	23704.95
486.43	24133.26
486.61	23854.74
486.78	24140.29
486.96	24451.58
487.14	24641.16
487.32	24641.16
487.50	24802.66
487.68	25153.74
487.85	25296.51
488.03	25586.74
488.21	26061.87
488.39	26036.12
488.57	26352.09
488.75	26714.87
488.92	26670.40
489.10	26604.87
489.28	26766.37
489.46	27000.42
489.64	27222.77
489.81	27960.04
489.99	27941.32
490.17	27941.32
490.35	28166.01
490.53	28168.35
490.70	28879.87
490.88	28308.78
491.06	28971.15
491.24	28819.02
491.41	29177.12
491.59	29549.26
491.77	29605.44
491.95	29778.64
492.13	30033.75
492.30	30089.93
492.48	30469.09
492.66	30527.61
492.84	30567.40
493.01	30897.41
493.19	30520.59
493.37	31129.12
493.54	31157.21
493.72	32116.83
493.90	31573.83
494.08	32240.88
494.25	32041.93
494.43	31927.25
494.61	32556.85
494.79	32947.72
494.96	32680.90
495.14	33256.67
495.32	33280.08
495.49	33324.55
495.67	33766.91
495.85	33514.13
496.02	34218.63
496.20	34157.78
496.38	34249.06
496.55	34258.42
496.73	34735.89
496.91	34794.40
497.09	35164.21
497.26	35234.42
497.44	34782.70
497.62	35601.89
497.79	36215.11
497.97	35779.77
498.14	36261.92
498.32	36119.15
498.50	36294.69
498.67	36734.71
498.85	36804.92
499.03	36636.41
499.20	36891.52
499.38	37060.04
499.56	37413.46
499.73	37565.60
499.91	37539.85
500.08	37670.92
500.26	37778.59
500.44	37954.13
500.61	37970.51
500.79	38239.67
500.97	38429.26
501.14	38447.98
501.32	38536.92
501.49	39239.08
501.67	38628.20
501.84	39545.69
502.02	39002.69
502.20	39068.22
502.37	39955.29
502.55	39541.01
502.72	40046.57
502.90	39566.76
503.07	39959.97
503.25	40151.89
503.43	40065.29
503.60	40608.29
503.78	40563.82
503.95	40498.29
504.13	40664.47
504.30	40758.09
504.48	40596.59
504.65	41179.39
504.83	41476.63
505.01	41460.25
505.18	41324.50
505.36	41656.85
505.53	41626.43
505.71	41523.44
505.88	41928.36
506.06	41663.88
506.23	42249.01
506.41	41970.49
506.58	42136.66
506.76	42314.55
506.93	42820.10
507.11	42562.64
507.28	42897.34
507.46	42857.55
507.63	42937.13
507.81	43072.88
507.98	43119.69
508.16	43552.69
508.33	43931.86
508.50	43641.63
508.68	43777.38
508.85	44041.86
509.03	44273.57
509.20	44233.78
509.38	44144.84
509.55	44786.15
509.73	44666.78
509.90	44563.80
510.08	45081.06
510.25	44825.94
510.42	45055.31
510.60	45277.66
510.77	45462.57
510.95	45467.25
511.12	45289.37
511.30	45312.77
511.47	45256.60
511.64	45347.88
511.82	45958.76
511.99	45755.13
512.17	46216.22
512.34	46171.75
512.51	47096.26
512.69	46323.88
512.86	46827.10
513.04	46576.66
513.21	46731.14
513.38	46887.95
513.56	47019.02
513.73	46962.85
513.90	47515.22
514.08	47140.73
514.25	47164.14
514.43	47524.58
514.60	47697.78
514.77	47608.84
514.95	48002.05
515.12	47964.60
515.29	48048.86
515.47	48179.93
515.64	48582.50
515.81	48332.06
515.99	48463.13
516.16	48889.11
516.33	48619.95
516.51	49048.27
516.68	48509.94
516.85	48657.40
517.03	49415.73
517.20	49153.59
517.37	48872.73
517.54	49027.20
517.72	49141.89
517.89	49357.22
518.06	49469.56
518.24	49301.04
518.41	49624.04
518.58	49815.96
518.75	49588.93
518.93	50131.93
519.10	50162.36
519.27	49815.96
519.45	49696.59
519.62	50108.53
519.79	50396.42
519.96	49888.52
520.14	50344.92
520.31	50042.99
520.48	50747.50
520.65	50429.18
520.83	50642.17
521.00	50876.22
521.17	50974.53
521.34	51189.86
521.52	50988.57
521.69	50972.19
521.86	51477.74
522.03	51086.87
522.20	51772.65
522.38	51877.97
522.55	51758.61
522.72	51566.68
522.89	51667.33
523.07	51817.12
523.24	51447.32
523.41	51980.96
523.58	51723.50
523.75	52128.41
523.92	51824.14
524.10	52011.38
524.27	52130.75
524.44	52285.23
524.61	52151.82
524.78	52409.28
524.96	52559.07
525.13	52589.50
525.30	52512.26
525.47	52804.83
525.64	52570.77
525.81	52722.91
525.98	53272.93
526.16	52390.55
526.33	52580.13
526.50	53158.25
526.67	52935.90
526.84	53059.94
527.01	53059.94
527.18	53446.13
527.36	53530.39
527.53	53359.53
527.70	53574.86
527.87	53703.59
528.04	53207.40
528.21	53359.53
528.38	53626.35
528.55	54000.84
528.72	53532.73
528.89	53745.72
529.07	53368.90
529.24	53949.35
529.41	53918.92
529.58	53911.90
529.75	53588.91
529.92	54061.69
530.09	53932.96
530.26	54419.80
530.43	53958.71
530.60	53757.42
530.77	53916.58
530.94	54127.23
531.11	54169.36
531.28	54368.30
531.46	54440.86
531.63	54656.19
531.80	54447.88
531.97	54707.68
532.14	54621.08
532.31	54766.20
532.48	54745.13
532.65	54738.11
532.82	54677.25
532.99	54836.41
533.16	54822.37
533.33	54820.03
533.50	54953.44
533.67	55082.17
533.84	55112.59
534.01	54948.76
534.18	55227.28
534.35	55440.27
534.52	55185.15
534.69	55194.51
534.86	55444.95
535.03	55264.73
535.20	55215.58
535.37	55547.93
535.54	55679.00
535.71	55510.49
535.88	55716.45
536.05	55540.91
536.22	55695.39
536.38	55711.77
536.55	55838.16
536.72	55772.63
536.89	55770.28
537.06	55435.59
537.23	55969.23
537.40	55807.73
537.57	55835.82
537.74	56093.28
537.91	56219.67
538.08	56090.94
538.25	55693.05
538.42	56177.54
538.59	56362.44
538.75	56065.19
538.92	56100.30
539.09	56430.32
539.26	56205.62
539.43	56493.51
539.60	56254.78
539.77	56252.44
539.94	56495.85
540.11	56662.03
540.28	56797.78
540.44	56472.45
540.61	56472.45
540.78	56673.73
540.95	56533.30
541.12	56673.73
541.29	56687.78
541.46	56741.61
541.62	56753.31
541.79	56889.06
541.96	56463.08
542.13	56575.43
542.30	56760.33
542.47	56844.59
542.63	56882.04
542.80	57036.51
542.97	57256.53
543.14	57312.70
543.31	57305.68
543.48	57441.43
543.64	57481.22
543.81	57469.51
543.98	57490.58
544.15	57460.15
544.32	57708.25
544.48	57822.93
544.65	57593.56
544.82	57794.85
544.99	57420.36
545.16	57605.26
545.32	57467.17
545.49	57719.95
545.66	57771.44
545.83	57733.99
546.00	57794.85
546.16	57731.65
546.33	57680.16
546.50	57701.23
546.67	57932.94
546.83	57481.22
547.00	58010.18
547.17	57893.15
547.34	57925.92
547.50	58141.25
547.67	58361.26
547.84	58272.32
548.00	58344.87
548.17	58248.91
548.34	58188.06
548.51	58410.41
548.67	58401.05
548.84	58316.79
549.01	58401.05
549.18	58176.36
549.34	58305.09
549.51	58426.79
549.68	58667.87
549.84	58497.01
550.01	58508.71
550.18	58305.09
550.34	58691.27
550.51	58714.68
550.68	58555.52
550.84	58265.30
551.01	58731.06
551.18	58656.17
551.34	58660.85
551.51	58768.51
551.68	58855.11
551.84	58726.38
552.01	58595.31
552.18	58876.18
552.34	58557.86
552.51	58873.84
552.68	58557.86
552.84	58707.66
553.01	59203.85
553.18	58838.73
553.34	58820.00
553.51	58698.30
553.67	58628.08
553.84	59196.83
554.01	58955.75
554.17	59021.29
554.34	59227.26
554.51	59000.22
554.67	59213.21
554.84	58913.62
555.00	59072.78
555.17	59243.64
555.33	59302.15
555.50	59171.08
555.67	59271.73
555.83	59084.48
556.00	58934.69
556.16	59573.66
556.33	59405.14
556.50	59278.75
556.66	59510.46
556.83	59484.72
556.99	59561.95
557.16	59597.06
557.32	59763.24
557.49	59599.40
557.65	59381.73
557.82	59503.44
557.98	59674.30
558.15	59465.99
558.32	59686.00
558.48	59496.42
558.65	59793.67
558.81	59615.79
558.98	59737.49
559.14	59686.00
559.31	59987.93
559.47	59877.93
559.64	59941.12
559.80	59845.16
559.97	60069.85
560.13	59805.37
560.30	59803.03
560.46	59770.26
560.63	60072.19
560.79	59779.62
560.96	60231.35
561.12	60107.30
561.29	59826.43
561.45	59994.95
561.61	59943.46
561.78	60001.97
561.94	59980.91
562.11	59985.59
562.27	60053.47
562.44	60172.83
562.60	60111.98
562.77	60236.03
562.93	60144.75
563.10	60170.49
563.26	60041.76
563.42	60126.02
563.59	60149.43
563.75	60135.38
563.92	60273.48
564.08	60378.80
564.24	60282.84
564.41	60140.07
564.57	60205.60
564.74	60205.60
564.90	60250.07
565.07	60362.42
565.23	60378.80
565.39	60219.64
565.56	60322.63
565.72	60144.75
565.88	60357.74
566.05	60266.45
566.21	60322.63
566.38	60331.99
566.54	60179.85
566.70	60299.22
566.87	60610.51
567.03	60231.35
567.19	60575.40
567.36	60577.75
567.52	60413.91
567.68	60470.08
567.85	60432.63
568.01	60659.66
568.17	60500.51
568.34	60608.17
568.50	60619.88
568.66	60339.01
568.83	60528.59
568.99	60432.63
569.15	60547.32
569.32	60507.53
569.48	60608.17
569.64	60559.02
569.81	60362.42
569.97	60495.83
570.13	60622.22
570.30	60376.46
570.46	60465.40
570.62	60633.92
570.78	60610.51
570.95	60764.99
571.11	60802.44
571.27	60647.96
571.43	60622.22
571.60	60884.36
571.76	60797.76
571.92	60774.35
572.09	60816.48
572.25	60816.48
572.41	60844.57
572.57	60678.39
572.74	60910.10
572.90	60755.63
573.06	60781.37
573.22	60711.16
573.38	60631.58
573.55	60872.65
573.71	61006.06
573.87	60938.19
574.03	60636.26
574.20	60938.19
574.36	60654.98
574.52	60748.60
574.68	60781.37
574.84	61127.77
575.01	60945.21
575.17	61076.28
575.33	60907.76
575.49	60910.10
575.65	60987.34
575.82	61022.45
575.98	60699.45
576.14	61113.73
576.30	61137.13
576.46	60956.91
576.62	60844.57
576.79	61123.09
576.95	60645.62
577.11	60928.83
577.27	60996.70
577.43	61106.71
577.59	60844.57
577.75	60989.68
577.92	60746.26
578.08	60921.80
578.24	60919.46
578.40	61022.45
578.56	61162.88
578.72	61214.37
578.88	61024.79
579.04	61179.26
579.21	60996.70
579.37	61139.47
579.53	61151.18
579.69	60779.03
579.85	60825.84
580.01	61099.68
580.17	60952.23
580.33	61038.83
580.49	61139.47
580.65	60952.23
580.82	60977.98
580.98	60938.19
581.14	60996.70
581.30	61120.75
581.46	60886.70
581.62	61104.37
581.78	61052.87
581.94	61216.71
582.10	61003.72
582.26	60931.17
582.42	61041.17
582.58	61120.75
582.74	61038.83
582.90	61153.52
583.06	61003.72
583.22	60858.61
583.38	61041.17
583.54	61048.19
583.70	61116.07
583.86	61130.11
584.02	60968.61
584.18	61249.48
584.34	61167.56
584.50	60942.87
584.66	60987.34
584.82	60970.96
584.98	61488.21
585.14	61169.90
585.30	61043.51
585.46	61193.31
585.62	61076.28
585.78	61258.84
585.94	61029.47
586.10	61282.25
586.26	61190.97
586.42	61242.46
586.58	61205.01
586.74	61155.86
586.90	61013.08
587.06	61036.49
587.22	61368.85
587.38	61167.56
587.54	61322.04
587.70	61242.46
587.86	61272.88
588.02	61247.14
588.18	61333.74
588.34	61197.99
