SpectraSuite Data File
++++++++++++++++++++++++++++++++++++
Date: Fri Oct 25 11:26:15 EDT 2013
User: price-jones
Dark Spectrum Present: No
Reference Spectrum Present: No
Number of Sampled Component Spectra: 1
Spectrometers: USB2+H05261
Integration Time (usec): 100000 (USB2+H05261)
Spectra Averaged: 1 (USB2+H05261)
Boxcar Smoothing: 0 (USB2+H05261)
Correct for Electrical Dark: No (USB2+H05261)
Strobe/Lamp Enabled: No (USB2+H05261)
Correct for Detector Non-linearity: No (USB2+H05261)
Correct for Stray Light: No (USB2+H05261)
Number of Pixels in Processed Spectrum: 2048
>>>>>Begin Processed Spectral Data<<<<<
365.73	203.63
365.92	203.63
366.12	203.63
366.32	152.13
366.52	126.39
366.72	175.54
366.91	142.77
367.11	145.11
367.31	88.94
367.51	170.86
367.70	166.18
367.90	98.30
368.10	166.18
368.30	182.56
368.49	131.07
368.69	203.63
368.89	210.65
369.09	107.66
369.28	182.56
369.48	198.95
369.68	208.31
369.87	205.97
370.07	236.39
370.27	262.14
370.47	381.51
370.66	582.79
370.86	554.71
371.06	681.10
371.25	655.35
371.45	610.88
371.65	702.16
371.84	655.35
372.04	706.84
372.24	791.10
372.44	767.70
372.63	746.63
372.83	772.38
373.03	650.67
373.22	669.39
373.42	751.31
373.62	805.14
373.81	823.87
374.01	758.33
374.21	863.66
374.40	725.57
374.60	875.36
374.79	791.10
374.99	854.30
375.19	746.63
375.38	912.81
375.58	858.98
375.78	929.19
375.97	858.98
376.17	926.85
376.37	919.83
376.56	868.34
376.76	887.06
376.95	894.08
377.15	835.57
377.35	908.13
377.54	887.06
377.74	889.40
377.93	947.92
378.13	891.74
378.33	997.07
378.52	901.11
378.72	983.02
378.91	887.06
379.11	849.61
379.31	1041.54
379.50	1001.75
379.70	952.60
379.89	1029.84
380.09	938.55
380.28	926.85
380.48	1011.11
380.68	1043.88
380.87	1006.43
381.07	1064.94
381.26	1090.69
381.46	1006.43
381.65	1174.95
381.85	1109.41
382.04	1071.97
382.24	1114.10
382.43	1048.56
382.63	1160.91
382.83	1149.20
383.02	1020.47
383.22	1132.82
383.41	1001.75
383.61	1123.46
383.80	1034.52
384.00	1071.97
384.19	1130.48
384.39	1153.88
384.58	1071.97
384.78	1160.91
384.97	1078.99
385.17	1160.91
385.36	1167.93
385.56	1254.53
385.75	1219.42
385.95	1146.86
386.14	1198.35
386.34	1217.08
386.53	1165.59
386.72	1156.22
386.92	1247.51
387.11	1165.59
387.31	1210.06
387.50	1193.67
387.70	1324.74
387.89	1322.40
388.09	1259.21
388.28	1240.48
388.48	1338.79
388.67	1275.59
388.86	1294.32
389.06	1268.57
389.25	1317.72
389.45	1387.94
389.64	1352.83
389.84	1411.34
390.03	1366.87
390.22	1334.11
390.42	1453.47
390.61	1418.36
390.81	1359.85
391.00	1427.73
391.19	1483.90
391.39	1444.11
391.58	1465.18
391.78	1423.05
391.97	1465.18
392.16	1540.07
392.36	1554.12
392.55	1540.07
392.75	1591.56
392.94	1504.96
393.13	1511.99
393.33	1483.90
393.52	1533.05
393.71	1645.40
393.91	1526.03
394.10	1593.90
394.29	1586.88
394.49	1596.25
394.68	1643.06
394.88	1680.50
395.07	1741.36
395.26	1666.46
395.46	1582.20
395.65	1692.21
395.84	1631.35
396.04	1792.85
396.23	1764.76
396.42	1675.82
396.62	1811.57
396.81	1788.17
397.00	1741.36
397.19	1748.38
397.39	1743.70
397.58	1863.07
397.77	1827.96
397.97	1844.34
398.16	1863.07
398.35	1783.49
398.55	1919.24
398.74	1905.20
398.93	1914.56
399.12	1870.09
399.32	1926.26
399.51	1977.75
399.70	1952.01
399.90	1998.82
400.09	2022.22
400.28	2038.61
400.47	2001.16
400.67	2111.16
400.86	2073.71
401.05	2097.12
401.24	2017.54
401.44	2099.46
401.63	2097.12
401.82	2165.00
402.01	2111.16
402.21	2104.14
402.40	2141.59
402.59	2125.21
402.78	2057.33
402.97	2050.31
403.17	2265.64
403.36	2258.62
403.55	2214.15
403.74	2335.85
403.93	2420.11
404.13	2457.56
404.32	2345.22
404.51	2373.30
404.70	2345.22
404.89	2385.01
405.09	2434.16
405.28	2492.67
405.47	2506.71
405.66	2473.95
405.85	2420.11
406.05	2471.61
406.24	2710.34
406.43	2525.44
406.62	2642.46
406.81	2649.49
407.00	2532.46
407.20	2637.78
407.39	2544.16
407.58	2647.15
407.77	2752.47
407.96	2782.90
408.15	2789.92
408.34	2780.56
408.54	2864.82
408.73	2768.85
408.92	2904.60
409.11	2731.41
409.30	2885.88
409.49	2956.10
409.68	2970.14
409.87	2977.16
410.07	3094.19
410.26	3089.51
410.45	2942.05
410.64	2937.37
410.83	3098.87
411.02	3126.96
411.21	3260.37
411.40	3045.04
411.59	3262.71
411.78	3335.26
411.98	3215.90
412.17	3316.54
412.36	3314.20
412.55	3323.56
412.74	3353.99
412.93	3426.54
413.12	3262.71
413.31	3569.32
413.50	3440.59
413.69	3438.25
413.88	3576.34
414.07	3684.00
414.26	3534.21
414.45	3662.94
414.64	3604.42
414.83	3660.60
415.02	3836.14
415.22	3714.43
415.41	3840.82
415.60	3798.69
415.79	3941.46
415.98	3929.76
416.17	3974.23
416.36	3946.14
416.55	4025.72
416.74	4058.49
416.93	4091.26
417.12	4037.42
417.31	4236.37
417.50	4095.94
417.69	4416.59
417.88	4322.97
418.07	4273.82
418.26	4292.54
418.45	4210.62
418.64	4470.42
418.83	4524.26
419.02	4367.44
419.21	4421.27
419.39	4400.21
419.58	4486.81
419.77	4491.49
419.96	4568.73
420.15	4526.60
420.34	4606.17
420.53	4606.17
420.72	4634.26
420.91	4535.96
421.10	4720.86
421.29	4636.60
421.48	4798.10
421.67	4716.18
421.86	4809.80
422.05	4924.49
422.24	4781.71
422.43	4777.03
422.61	4711.50
422.80	4952.57
422.99	4851.93
423.18	4908.10
423.37	4985.34
423.56	4980.66
423.75	4901.08
423.94	4952.57
424.13	4538.30
424.32	4713.84
424.50	4844.91
424.69	5022.79
424.88	5064.92
425.07	5050.88
425.26	4844.91
425.45	4877.68
425.64	5046.20
425.83	4994.70
426.01	4997.04
426.20	5032.15
426.39	5069.60
426.58	4980.66
426.77	5074.28
426.96	5160.88
427.15	4961.94
427.33	5240.46
427.52	5083.64
427.71	5179.61
427.90	5247.48
428.09	5277.91
428.28	5357.49
428.46	5259.18
428.65	5315.36
428.84	5472.17
429.03	5439.40
429.22	5331.74
429.40	5577.50
429.59	5289.61
429.78	5284.93
429.97	5109.39
430.16	5362.17
430.34	5593.88
430.53	5659.42
430.72	5631.33
430.91	5610.26
431.10	5617.29
431.28	5643.03
431.47	5776.44
431.66	5776.44
431.85	5795.17
432.03	6026.88
432.22	5977.73
432.41	6019.86
432.60	5851.34
432.79	6052.63
432.97	6022.20
433.16	6031.56
433.35	6005.81
433.54	5933.26
433.72	6169.65
433.91	6001.13
434.10	6097.10
434.28	5987.09
434.47	6148.59
434.66	6214.12
434.85	6207.10
435.03	6317.11
435.22	6272.64
435.41	6553.50
435.59	6305.40
435.78	6260.93
435.97	6406.05
436.16	6511.37
436.34	6345.19
436.53	6485.62
436.72	6607.33
436.90	6462.22
437.09	6565.20
437.28	6499.67
437.46	6548.82
437.65	6520.73
437.84	6691.59
438.02	6761.81
438.21	6766.49
438.40	6693.93
438.58	6960.75
438.77	7033.31
438.96	6796.92
439.14	7110.55
439.33	7227.57
439.52	7311.83
439.70	7150.34
439.89	7211.19
440.08	7332.90
440.26	7318.86
440.45	7339.92
440.63	7424.18
440.82	7368.01
441.01	7604.40
441.19	7609.08
441.38	7606.74
441.57	7681.64
441.75	7803.35
441.94	7826.75
442.12	7840.79
442.31	8119.32
442.50	8049.10
442.68	7906.33
442.87	7999.95
443.05	8006.97
443.24	8152.09
443.43	8035.06
443.61	8191.88
443.80	8404.86
443.98	7962.50
444.17	7840.79
444.35	7985.91
444.54	8217.62
444.73	8411.89
444.91	8355.71
445.10	8355.71
445.28	8404.86
445.47	8290.18
445.65	8107.62
445.84	8596.79
446.02	8358.05
446.21	8360.39
446.39	8402.52
446.58	8379.12
446.77	8425.93
446.95	8189.53
447.14	8400.18
447.32	8353.37
447.51	8411.89
447.69	8475.08
447.88	8645.94
448.06	8486.78
448.25	8510.19
448.43	8561.68
448.62	8325.29
448.80	8540.61
448.99	8489.12
449.17	8552.32
449.36	8439.97
449.54	8959.57
449.73	8814.46
449.91	9029.79
450.10	8732.54
450.28	9011.06
450.46	9109.36
450.65	8887.01
450.83	9081.28
451.02	8908.08
451.20	9111.71
451.39	9144.47
451.57	9195.96
451.76	9032.13
451.94	8896.38
452.13	9165.54
452.31	9259.16
452.49	9179.58
452.68	9312.99
452.86	9210.01
453.05	9338.74
453.23	9277.88
453.42	9247.46
453.60	9369.16
453.78	9535.34
453.97	9205.33
454.15	9224.05
454.34	9432.36
454.52	9528.32
454.70	9631.30
454.89	9523.64
455.07	9694.50
455.26	9769.40
455.44	10066.64
455.62	9839.61
455.81	10015.15
455.99	9902.81
456.17	9923.87
456.36	9937.91
456.54	10160.27
456.73	10045.58
456.91	10356.87
457.09	10263.25
457.28	10504.32
457.46	10237.50
457.64	10539.43
457.83	10420.06
458.01	10628.37
458.19	10658.80
458.38	10487.94
458.56	10569.86
458.74	10551.14
458.93	10541.77
459.11	10747.74
459.29	10724.33
459.48	10789.87
459.66	10726.68
459.84	11042.65
460.03	11047.33
460.21	11019.24
460.39	10857.75
460.57	10883.49
460.76	11108.18
460.94	10995.84
461.12	11117.54
461.31	11005.20
461.49	11222.87
461.67	11042.65
461.85	11536.50
462.04	11246.27
462.22	11747.15
462.40	11625.44
462.59	11492.03
462.77	11564.59
462.95	11632.46
463.13	11559.91
463.32	11447.56
463.50	11934.39
463.68	11808.00
463.86	11716.72
464.05	11611.40
464.23	11765.87
464.41	11861.84
464.59	11524.80
464.78	11995.25
464.96	11920.35
465.14	11847.79
465.32	11887.58
465.50	12102.91
465.69	12156.74
465.87	11990.56
466.05	12163.76
466.23	12100.57
466.41	12262.07
466.60	12428.24
466.78	12215.26
466.96	12252.70
467.14	12058.44
467.32	12360.37
467.51	12437.61
467.69	12226.96
467.87	12395.48
468.05	12241.00
468.23	12283.13
468.41	12339.30
468.60	12308.88
468.78	12688.04
468.96	12339.30
469.14	12847.20
469.32	12919.76
469.50	12542.93
469.69	12940.82
469.87	12856.56
470.05	13186.58
470.23	13200.62
470.41	13060.19
470.59	12947.84
470.77	13256.79
470.95	13399.57
471.14	13355.10
471.32	13142.11
471.50	13497.87
471.68	13724.90
471.86	13549.36
472.04	13598.51
472.22	14108.75
472.40	13645.32
472.58	13839.59
472.77	13790.44
472.95	14317.06
473.13	14602.60
473.31	13977.68
473.49	14139.18
473.67	14045.55
473.85	14303.01
474.03	14567.49
474.21	14562.81
474.39	14551.11
474.57	14696.22
474.75	15021.56
474.93	14869.42
475.12	14920.92
475.30	15131.56
475.48	14941.98
475.66	15012.20
475.84	15122.20
476.02	15564.56
476.20	15234.55
476.38	15552.86
476.56	15772.87
476.74	16294.81
476.92	15910.96
477.10	15894.58
477.28	16248.00
477.46	16208.21
477.64	16240.98
477.82	16730.15
478.00	16442.26
478.18	16535.88
478.36	16982.93
478.54	16989.95
478.72	17273.15
478.90	17493.16
479.08	17647.64
479.26	17687.43
479.44	17605.51
479.62	18129.79
479.80	17860.63
479.98	18272.56
480.16	18799.18
480.34	18258.52
480.52	18675.13
480.70	18527.68
480.88	18005.74
481.06	18534.70
481.24	18988.77
481.41	18904.51
481.59	19307.08
481.77	19339.85
481.95	19627.73
482.13	19510.71
482.31	19363.25
482.49	20496.07
482.67	19988.18
482.85	20355.64
483.03	20613.10
483.21	20561.61
483.39	20807.36
483.57	20781.62
483.74	21460.37
483.92	20900.98
484.10	21076.52
484.28	22010.40
484.46	21916.78
484.64	22370.84
484.82	21839.54
485.00	22092.32
485.18	22345.09
485.35	22885.76
485.53	22785.12
485.71	22799.16
485.89	23311.74
486.07	23388.97
486.25	23576.22
486.43	23454.51
486.61	23939.00
486.78	23894.53
486.96	24418.81
487.14	24292.42
487.32	24524.13
487.50	24907.98
487.68	24739.46
487.85	25167.78
488.03	25343.32
488.21	25671.00
488.39	25663.97
488.57	26022.08
488.75	26043.14
488.92	26462.10
489.10	26401.24
489.28	26455.08
489.46	26635.30
489.64	26838.92
489.81	27447.46
489.99	27527.04
490.17	27267.24
490.35	28252.61
490.53	28058.34
490.70	28287.71
490.88	28648.16
491.06	28294.74
491.24	28521.77
491.41	28643.48
491.59	29088.18
491.77	28872.85
491.95	29493.09
492.13	29692.04
492.30	29605.44
492.48	29750.55
492.66	29874.60
492.84	30071.20
493.01	30618.89
493.19	30527.61
493.37	30792.09
493.54	30951.24
493.72	31232.11
493.90	31468.50
494.08	31908.52
494.25	32252.58
494.43	31763.41
494.61	32486.64
494.79	32449.19
494.96	32362.59
495.14	32570.90
495.32	32818.99
495.49	33071.77
495.67	32950.06
495.85	33357.32
496.02	33640.52
496.20	33834.78
496.38	33872.23
496.55	33902.66
496.73	34941.86
496.91	34321.62
497.09	34513.54
497.26	34469.07
497.44	35133.78
497.62	34782.70
497.79	35522.31
497.97	35405.28
498.14	35744.66
498.32	36409.37
498.50	36172.98
498.67	36252.56
498.85	36231.49
499.03	36573.21
499.20	36528.74
499.38	36233.83
499.56	36659.81
499.73	37184.09
499.91	37099.83
500.08	37406.44
500.26	37139.62
500.44	37598.37
500.61	37560.92
500.79	37497.72
500.97	37958.81
501.14	38272.44
501.32	38763.95
501.49	38251.38
501.67	38347.34
501.84	38581.39
502.02	38497.13
502.20	38948.85
502.37	39007.37
502.55	39384.19
502.72	39344.41
502.90	39065.88
503.07	38866.94
503.25	39604.20
503.43	39473.13
503.60	39604.20
503.78	39962.31
503.95	40238.49
504.13	40353.18
504.30	40690.21
504.48	40194.02
504.65	40598.93
504.83	40903.20
505.01	41237.90
505.18	40811.92
505.36	41265.99
505.53	41263.64
505.71	41462.59
505.88	41270.67
506.06	41354.93
506.23	41600.68
506.41	41319.82
506.58	41869.84
506.76	42061.77
506.93	42110.92
507.11	41996.23
507.28	42873.93
507.46	42632.86
507.63	42609.45
507.81	43203.95
507.98	42892.66
508.16	42773.29
508.33	42859.89
508.50	43068.20
508.68	43491.83
508.85	43388.85
509.03	43885.04
509.20	43529.28
509.38	44257.19
509.55	44245.49
509.73	44397.62
509.90	44079.31
510.08	44404.64
510.25	44133.14
510.42	44254.85
510.60	45031.91
510.77	44690.19
510.95	44947.65
511.12	45116.17
511.30	44552.10
511.47	45502.35
511.64	45242.56
511.82	45649.81
511.99	45375.97
512.17	45808.96
512.34	45565.55
512.51	46342.61
512.69	46305.16
512.86	46199.83
513.04	46300.48
513.21	46597.73
513.38	46557.94
513.56	47026.04
513.73	46726.46
513.90	46988.60
514.08	46679.64
514.25	46768.58
514.43	47473.09
514.60	47414.57
514.77	47187.54
514.95	47220.31
515.12	47222.65
515.29	47323.29
515.47	47908.43
515.64	47995.03
515.81	47501.17
515.99	47995.03
516.16	48296.95
516.33	48081.63
516.51	48308.66
516.68	48259.51
516.85	48411.64
517.03	48479.52
517.20	48676.12
517.37	48781.45
517.54	48659.74
517.72	48788.47
517.89	48718.25
518.06	48919.54
518.24	49265.94
518.41	49303.38
518.58	49123.16
518.75	49158.27
518.93	49104.44
519.10	49146.57
519.27	49570.21
519.45	49448.50
519.62	49815.96
519.79	49820.64
519.96	50298.11
520.14	50103.85
520.31	49954.05
520.48	50089.80
520.65	50040.65
520.83	50567.27
521.00	50426.84
521.17	50185.77
521.34	50401.10
521.52	51133.68
521.69	50705.37
521.86	50822.39
522.03	50686.64
522.20	51133.68
522.38	51093.89
522.55	50944.10
522.72	51220.28
522.89	50972.19
523.07	51477.74
523.24	51236.67
523.41	51454.34
523.58	51522.21
523.75	51730.52
523.92	51475.40
524.10	51877.97
524.27	51969.26
524.44	51746.90
524.61	51835.84
524.78	51667.33
524.96	52076.92
525.13	52449.06
525.30	52198.63
525.47	52144.80
525.64	52343.74
525.81	52404.59
525.98	52313.31
526.16	52453.75
526.33	52332.04
526.50	52849.30
526.67	52491.19
526.84	52605.88
527.01	52889.09
527.18	52774.40
527.36	52947.60
527.53	52914.83
527.70	53254.21
527.87	53315.06
528.04	52912.49
528.21	53272.93
528.38	53059.94
528.55	53375.92
528.72	53123.14
528.89	53237.83
529.07	53464.86
529.24	53216.76
529.41	53387.62
529.58	53415.71
529.75	53883.81
529.92	53609.97
530.09	53228.46
530.26	53820.62
530.43	53621.67
530.60	53565.50
530.77	53799.55
530.94	53874.45
531.11	53989.14
531.28	54049.99
531.46	54169.36
531.63	54028.93
531.80	53984.46
531.97	54277.02
532.14	54204.47
532.31	53984.46
532.48	54492.35
532.65	54585.97
532.82	54365.96
532.99	54178.72
533.16	54415.11
533.33	54578.95
533.50	54775.56
533.67	54578.95
533.84	54480.65
534.01	54665.55
534.18	54927.69
534.35	54981.52
534.52	54864.50
534.69	54937.05
534.86	55086.85
535.03	54813.01
535.20	54873.86
535.37	55145.36
535.54	55054.08
535.71	55091.53
535.88	55456.65
536.05	55388.78
536.22	55442.61
536.38	55597.09
536.55	55327.92
536.72	55262.39
536.89	55313.88
537.06	55299.84
537.23	55538.57
537.40	55449.63
537.57	55444.95
537.74	55503.46
537.91	55814.76
538.08	55744.54
538.25	55578.36
538.42	55744.54
538.59	56222.01
538.75	55702.41
538.92	55950.51
539.09	55936.46
539.26	56051.15
539.43	56023.06
539.60	55814.76
539.77	55969.23
539.94	56324.99
540.11	56273.50
540.28	56179.88
540.44	56259.46
540.61	56289.88
540.78	56303.93
540.95	56296.91
541.12	56282.86
541.29	56334.35
541.46	56104.98
541.62	56533.30
541.79	56481.81
541.96	56397.55
542.13	56736.93
542.30	56442.02
542.47	56516.92
542.63	56868.00
542.80	56640.96
542.97	57116.09
543.14	57151.20
543.31	57207.37
543.48	57207.37
543.64	57308.02
543.81	57254.18
543.98	57291.63
544.15	57062.26
544.32	57134.82
544.48	57467.17
544.65	57015.45
544.82	57429.72
544.99	57139.50
545.16	57579.52
545.32	57340.78
545.49	57546.75
545.66	57640.37
545.83	57450.79
546.00	57607.61
546.16	57361.85
546.33	57453.13
546.50	57453.13
546.67	57661.44
546.83	57289.29
547.00	57616.97
547.17	57396.96
547.34	57570.16
547.50	57827.62
547.67	58103.80
547.84	57918.90
548.00	58129.54
548.17	58000.82
548.34	57820.59
548.51	58253.59
548.67	58080.39
548.84	57944.64
549.01	57975.07
549.18	57970.39
549.34	57954.00
549.51	58087.42
549.68	58110.82
549.84	58019.54
550.01	58026.56
550.18	58155.29
550.34	58258.27
550.51	58326.15
550.68	58288.70
550.84	58031.24
551.01	58459.56
551.18	58471.26
551.34	58241.89
551.51	58312.11
551.68	58548.50
551.84	58312.11
552.01	58246.57
552.18	58541.48
552.34	58295.72
552.51	58504.03
552.68	58424.45
552.84	58717.02
553.01	58674.89
553.18	58614.04
553.34	58838.73
553.51	58686.59
553.67	58747.45
553.84	58745.11
554.01	58855.11
554.17	58770.85
554.34	58993.20
554.51	58901.92
554.67	58759.15
554.84	58890.22
555.00	59084.48
555.17	58930.01
555.33	59004.91
555.50	58817.66
555.67	58990.86
555.83	58798.94
556.00	59175.76
556.16	59161.72
556.33	59119.59
556.50	58777.87
556.66	59213.21
556.83	58969.80
556.99	59281.09
557.16	59281.09
557.32	59140.66
557.49	59379.39
557.65	59133.63
557.82	59245.98
557.98	58965.12
558.15	59330.24
558.32	59327.90
558.48	59100.87
558.65	59496.42
558.81	59402.80
558.98	59297.47
559.14	59676.64
559.31	59243.64
559.47	59625.15
559.64	59517.48
559.80	59447.27
559.97	59473.01
560.13	59363.01
560.30	59648.55
560.46	59489.40
560.63	59718.77
560.79	59566.63
560.96	59557.27
561.12	59765.58
561.29	59838.14
561.45	59737.49
561.61	59669.62
561.78	59625.15
561.94	59739.83
562.11	59753.88
562.27	59744.51
562.44	59959.84
562.60	59849.84
562.77	59718.77
562.93	59674.30
563.10	59983.25
563.26	59597.06
563.42	60074.53
563.59	59784.30
563.75	59934.10
563.92	59889.63
564.08	59807.71
564.24	59973.89
564.41	60018.36
564.57	60011.34
564.74	59950.48
564.90	59966.87
565.07	60198.58
565.23	60058.15
565.39	59952.82
565.56	60072.19
565.72	59966.87
565.88	59880.27
566.05	60144.75
566.21	60233.69
566.38	60011.34
566.54	60128.36
566.70	60362.42
566.87	60280.50
567.03	59959.84
567.19	60135.38
567.36	60168.15
567.52	59992.61
567.68	60460.72
567.85	60385.82
568.01	60271.14
568.17	60303.90
568.34	60299.22
568.50	60238.37
568.66	60233.69
568.83	60341.35
568.99	60102.62
569.15	60399.86
569.32	60259.43
569.48	60271.14
569.64	60507.53
569.81	60163.47
569.97	60280.50
570.13	60430.29
570.30	60081.55
570.46	60556.68
570.62	60367.10
570.78	60432.63
570.95	60339.01
571.11	60470.08
571.27	60324.97
571.43	60441.99
571.60	60392.84
571.76	60552.00
571.92	60636.26
572.09	60378.80
572.25	60449.02
572.41	60617.53
572.57	60399.86
572.74	60584.77
572.90	60392.84
573.06	60367.10
573.22	60535.62
573.38	60654.98
573.55	60547.32
573.71	60720.52
573.87	60596.47
574.03	60638.60
574.20	60746.26
574.36	60479.44
574.52	60563.70
574.68	60514.55
574.84	60676.05
575.01	60676.05
575.17	60601.15
575.33	60720.52
575.49	60500.51
575.65	60713.50
575.82	60692.43
575.98	60790.73
576.14	60601.15
576.30	60851.59
576.46	60364.76
576.62	60823.50
576.79	60587.11
576.95	60441.99
577.11	60652.64
577.27	60570.72
577.43	60893.72
577.59	60552.00
577.75	60795.42
577.92	60636.26
578.08	60615.19
578.24	60818.82
578.40	60760.31
578.56	60884.36
578.72	60622.22
578.88	60947.55
579.04	60816.48
579.21	60704.13
579.37	60828.18
579.53	60935.85
579.69	60598.81
579.85	60715.84
580.01	60809.46
580.17	60825.84
580.33	60884.36
580.49	60846.91
580.65	60622.22
580.82	60849.25
580.98	60725.20
581.14	60692.43
581.30	60928.83
581.46	60748.60
581.62	60818.82
581.78	60615.19
581.94	60889.04
582.10	60727.54
582.26	60673.71
582.42	60575.40
582.58	60867.97
582.74	60638.60
582.90	60874.99
583.06	60949.89
583.22	60764.99
583.38	60774.35
583.54	60779.03
583.70	60790.73
583.86	60823.50
584.02	60638.60
584.18	60882.02
584.34	60952.23
584.50	60816.48
584.66	60701.79
584.82	60673.71
584.98	60954.57
585.14	60851.59
585.30	60715.84
585.46	61212.03
585.62	60870.31
585.78	61022.45
585.94	60676.05
586.10	60996.70
586.26	61092.66
586.42	60977.98
586.58	61038.83
586.74	60891.38
586.90	60893.72
587.06	60772.01
587.22	60999.04
587.38	60952.23
587.54	61109.05
587.70	61041.17
587.86	60970.96
588.02	60985.00
588.18	61057.56
588.34	60924.14
