SpectraSuite Data File
++++++++++++++++++++++++++++++++++++
Date: Fri Oct 25 11:22:33 EDT 2013
User: price-jones
Dark Spectrum Present: No
Reference Spectrum Present: No
Number of Sampled Component Spectra: 1
Spectrometers: USB2+H05261
Integration Time (usec): 100000 (USB2+H05261)
Spectra Averaged: 1 (USB2+H05261)
Boxcar Smoothing: 0 (USB2+H05261)
Correct for Electrical Dark: No (USB2+H05261)
Strobe/Lamp Enabled: No (USB2+H05261)
Correct for Detector Non-linearity: No (USB2+H05261)
Correct for Stray Light: No (USB2+H05261)
Number of Pixels in Processed Spectrum: 2048
>>>>>Begin Processed Spectral Data<<<<<
365.73	210.65
365.92	210.65
366.12	210.65
366.32	147.45
366.52	140.43
366.72	135.75
366.91	63.19
367.11	128.73
367.31	107.66
367.51	95.96
367.70	138.09
367.90	126.39
368.10	142.77
368.30	152.13
368.49	175.54
368.69	124.05
368.89	241.08
369.09	95.96
369.28	152.13
369.48	229.37
369.68	156.82
369.87	201.29
370.07	189.58
370.27	182.56
370.47	337.04
370.66	552.37
370.86	606.20
371.06	629.60
371.25	732.59
371.45	671.73
371.65	676.41
371.84	697.48
372.04	667.05
372.24	744.29
372.44	748.97
372.63	678.76
372.83	788.76
373.03	660.03
373.22	784.08
373.42	767.70
373.62	730.25
373.81	800.46
374.01	779.40
374.21	819.19
374.40	755.99
374.60	858.98
374.79	734.93
374.99	816.85
375.19	805.14
375.38	821.53
375.58	795.78
375.78	798.12
375.97	819.19
376.17	868.34
376.37	795.78
376.56	858.98
376.76	898.77
376.95	842.59
377.15	868.34
377.35	847.27
377.54	912.81
377.74	903.45
377.93	922.17
378.13	875.36
378.33	938.55
378.52	889.40
378.72	1006.43
378.91	908.13
379.11	926.85
379.31	1018.13
379.50	936.21
379.70	898.77
379.89	957.28
380.09	992.39
380.28	971.32
380.48	961.96
380.68	973.66
380.87	947.92
381.07	1013.45
381.26	999.41
381.46	1067.28
381.65	1062.60
381.85	912.81
382.04	1020.47
382.24	1132.82
382.43	1074.31
382.63	992.39
382.83	1107.07
383.02	1123.46
383.22	1078.99
383.41	1050.90
383.61	1069.62
383.80	1221.76
384.00	1111.75
384.19	1149.20
384.39	1083.67
384.58	1151.54
384.78	1174.95
384.97	1174.95
385.17	1123.46
385.36	1121.12
385.56	1177.29
385.75	1146.86
385.95	1156.22
386.14	1184.31
386.34	1196.01
386.53	1207.72
386.72	1203.04
386.92	1160.91
387.11	1245.16
387.31	1231.12
387.50	1303.68
387.70	1277.93
387.89	1252.19
388.09	1221.76
388.28	1320.06
388.48	1350.49
388.67	1397.30
388.86	1380.92
389.06	1350.49
389.25	1357.51
389.45	1397.30
389.64	1355.17
389.84	1373.89
390.03	1451.13
390.22	1455.81
390.42	1369.21
390.61	1362.19
390.81	1364.53
391.00	1446.45
391.19	1423.05
391.39	1439.43
391.58	1582.20
391.78	1479.22
391.97	1519.01
392.16	1521.35
392.36	1521.35
392.55	1500.28
392.75	1558.80
392.94	1514.33
393.13	1427.73
393.33	1558.80
393.52	1542.41
393.71	1563.48
393.91	1530.71
394.10	1549.43
394.29	1575.18
394.49	1629.01
394.68	1638.38
394.88	1558.80
395.07	1640.72
395.26	1736.68
395.46	1584.54
395.65	1680.50
395.84	1762.42
396.04	1762.42
396.23	1736.68
396.42	1844.34
396.62	1687.53
396.81	1739.02
397.00	1769.44
397.19	1933.28
397.39	1832.64
397.58	1818.60
397.77	1886.47
397.97	1947.33
398.16	1795.19
398.35	1991.80
398.55	1909.88
398.74	1907.54
398.93	1961.37
399.12	1856.04
399.32	1944.99
399.51	1933.28
399.70	1977.75
399.90	1947.33
400.09	1968.39
400.28	2043.29
400.47	2108.82
400.67	2139.25
400.86	2071.37
401.05	2113.50
401.24	2139.25
401.44	2221.17
401.63	2150.95
401.82	2246.91
402.01	2195.42
402.21	2188.40
402.40	2200.10
402.59	2260.96
402.78	2162.66
402.97	2162.66
403.17	2340.54
403.36	2267.98
403.55	2275.00
403.74	2347.56
403.93	2410.75
404.13	2382.67
404.32	2312.45
404.51	2422.45
404.70	2403.73
404.89	2385.01
405.09	2373.30
405.28	2483.31
405.47	2546.50
405.66	2574.59
405.85	2633.10
406.05	2626.08
406.24	2590.97
406.43	2579.27
406.62	2729.06
406.81	2719.70
407.00	2572.25
407.20	2579.27
407.39	2576.93
407.58	2675.23
407.77	2768.85
407.96	2717.36
408.15	2757.15
408.34	2867.16
408.54	2923.33
408.73	2792.26
408.92	2853.11
409.11	2972.48
409.30	2970.14
409.49	2857.79
409.68	3016.95
409.87	3077.80
410.07	3049.72
410.26	3026.31
410.45	2923.33
410.64	3148.02
410.83	3162.06
411.02	3239.30
411.21	3201.85
411.40	3115.25
411.59	3246.32
411.78	3180.79
411.98	3218.24
412.17	3318.88
412.36	3260.37
412.55	3452.29
412.74	3538.89
412.93	3384.41
413.12	3323.56
413.31	3632.51
413.50	3559.95
413.69	3522.51
413.88	3536.55
414.07	3609.11
414.26	3817.41
414.45	3695.71
414.64	3824.44
414.83	3784.65
415.02	3742.52
415.22	3763.58
415.41	4002.32
415.60	3948.48
415.79	3946.14
415.98	4065.51
416.17	3983.59
416.36	3857.20
416.55	3992.95
416.74	4182.54
416.93	4056.15
417.12	4124.02
417.31	4156.79
417.50	4198.92
417.69	4418.93
417.88	4376.80
418.07	4358.08
418.26	4299.56
418.45	4196.58
418.64	4524.26
418.83	4432.97
419.02	4353.40
419.21	4503.19
419.39	4582.77
419.58	4662.35
419.77	4491.49
419.96	4578.09
420.15	4657.67
420.34	4629.58
420.53	4727.88
420.72	4711.50
420.91	4723.20
421.10	4870.65
421.29	4779.37
421.48	4681.07
421.67	4671.71
421.86	4945.55
422.05	4840.23
422.24	4933.85
422.43	4802.78
422.61	4861.29
422.80	4980.66
422.99	5013.43
423.18	5039.17
423.37	5060.24
423.56	4922.15
423.75	5008.75
423.94	4884.70
424.13	4723.20
424.32	4863.63
424.50	5029.81
424.69	5160.88
424.88	5144.50
425.07	5015.77
425.26	4999.38
425.45	5060.24
425.64	5179.61
425.83	4992.36
426.01	5074.28
426.20	4999.38
426.39	5137.48
426.58	5144.50
426.77	5020.45
426.96	5221.74
427.15	5165.56
427.33	5205.35
427.52	5121.09
427.71	5350.46
427.90	5338.76
428.09	5352.81
428.28	5296.63
428.46	5378.55
428.65	5345.78
428.84	5467.49
429.03	5507.28
429.22	5504.94
429.40	5507.28
429.59	5540.05
429.78	5483.88
429.97	5317.70
430.16	5537.71
430.34	5720.27
430.53	5783.46
430.72	5701.54
430.91	5579.84
431.10	5713.25
431.28	5776.44
431.47	5851.34
431.66	5809.21
431.85	5820.91
432.03	6122.84
432.22	6003.47
432.41	5790.49
432.60	6038.58
432.79	6057.31
432.97	6134.54
433.16	6113.48
433.35	6111.14
433.54	6157.95
433.72	6272.64
433.91	6085.39
434.10	6115.82
434.28	6108.80
434.47	6443.49
434.66	6377.96
434.85	6431.79
435.03	6375.62
435.22	6485.62
435.41	6441.15
435.59	6534.78
435.78	6743.08
435.97	6649.46
436.16	6520.73
436.34	6476.26
436.53	6560.52
436.72	6703.29
436.90	6497.33
437.09	6752.45
437.28	6539.46
437.46	6705.63
437.65	6609.67
437.84	6829.68
438.02	6867.13
438.21	6942.03
438.40	6902.24
438.58	7183.10
438.77	7157.36
438.96	6946.71
439.14	7045.01
439.33	7286.09
439.52	7281.41
439.70	7236.94
439.89	7438.22
440.08	7475.67
440.26	7480.35
440.45	7396.09
440.63	7578.65
440.82	7691.00
441.01	7716.75
441.19	7768.24
441.38	7756.54
441.57	7613.76
441.75	7772.92
441.94	8079.53
442.12	8049.10
442.31	8084.21
442.50	8166.13
442.68	8018.68
442.87	8318.26
443.05	8222.30
443.24	8336.99
443.43	8177.83
443.61	8489.12
443.80	8425.93
443.98	8264.43
444.17	7969.52
444.35	8287.84
444.54	8264.43
444.73	8334.65
444.91	8285.50
445.10	8395.50
445.28	8367.42
445.47	8486.78
445.65	8493.80
445.84	8451.67
446.02	8594.45
446.21	8442.31
446.39	8549.98
446.58	8484.44
446.77	8479.76
446.95	8318.26
447.14	8528.91
447.32	8758.28
447.51	8664.66
447.69	8610.83
447.88	8615.51
448.06	8603.81
448.25	8713.81
448.43	8627.21
448.62	8603.81
448.80	8547.64
448.99	8732.54
449.17	8887.01
449.36	8732.54
449.54	8917.44
449.73	8954.89
449.91	9013.40
450.10	9123.41
450.28	9142.13
450.46	9312.99
450.65	9001.70
450.83	9327.03
451.02	9263.84
451.20	9160.86
451.39	9181.92
451.57	9376.19
451.76	9029.79
451.94	9483.85
452.13	9525.98
452.31	9561.09
452.49	9214.69
452.68	9708.54
452.86	9277.88
453.05	9455.76
453.23	9535.34
453.42	9696.84
453.60	9104.68
453.78	9378.53
453.97	9605.56
454.15	9687.48
454.34	9453.42
454.52	9973.02
454.70	9678.12
454.89	9802.16
455.07	9928.55
455.26	9921.53
455.44	10258.57
455.62	9774.08
455.81	10125.16
455.99	10134.52
456.17	10305.38
456.36	10218.78
456.54	10345.17
456.73	10326.44
456.91	10590.92
457.09	10345.17
457.28	10782.85
457.46	10551.14
457.64	10560.50
457.83	10583.90
458.01	10633.05
458.19	10684.55
458.38	10806.25
458.56	10768.80
458.74	10979.45
458.93	10848.38
459.11	10995.84
459.29	10864.77
459.48	10988.82
459.66	10932.64
459.84	11056.69
460.03	11063.71
460.21	11140.95
460.39	11101.16
460.57	11028.60
460.76	11222.87
460.94	11339.90
461.12	11417.13
461.31	11349.26
461.49	11300.11
461.67	11536.50
461.85	11651.19
462.04	11576.29
462.22	12074.82
462.40	11728.42
462.59	11587.99
462.77	11501.39
462.95	11712.04
463.13	11756.51
463.32	11948.43
463.50	11765.87
463.68	12011.63
463.86	11974.18
464.05	11772.89
464.23	11875.88
464.41	12079.50
464.59	11632.46
464.78	12168.45
464.96	12327.60
465.14	11730.76
465.32	12437.61
465.50	12425.90
465.69	12393.14
465.87	12233.98
466.05	12290.15
466.23	12238.66
466.41	12194.19
466.60	12437.61
466.78	12512.50
466.96	12336.96
467.14	12332.28
467.32	12444.63
467.51	12781.67
467.69	12395.48
467.87	12793.37
468.05	12856.56
468.23	12652.94
468.41	12664.64
468.60	12854.22
468.78	12856.56
468.96	12568.68
469.14	13069.55
469.32	13029.76
469.50	12556.97
469.69	13097.64
469.87	13158.49
470.05	13289.56
470.23	13415.95
470.41	13357.44
470.59	13514.25
470.77	13139.77
470.95	13628.94
471.14	13652.34
471.32	13205.30
471.50	13846.61
471.68	13509.57
471.86	13958.96
472.04	13837.25
472.22	13991.72
472.40	13898.10
472.58	14050.24
472.77	14200.03
472.95	14272.59
473.13	14553.45
473.31	14511.32
473.49	14565.15
473.67	14487.92
473.85	14384.93
474.03	14918.57
474.21	14876.44
474.39	14787.50
474.57	14815.59
474.75	15190.08
474.93	15218.16
475.12	15321.15
475.30	15243.91
475.48	15225.18
475.66	15262.63
475.84	15169.01
476.02	15513.07
476.20	15602.01
476.38	15798.62
476.56	16159.06
476.74	16079.48
476.92	16236.30
477.10	15859.47
477.28	16266.72
477.46	16327.58
477.64	16589.72
477.82	16823.77
478.00	17177.19
478.18	16891.65
478.36	17193.58
478.54	17429.97
478.72	17413.59
478.90	17427.63
479.08	17591.47
479.26	17926.16
479.44	18024.47
479.62	18171.92
479.80	18480.87
479.98	18452.78
480.16	18602.58
480.34	18630.66
480.52	19042.60
480.70	18803.86
480.88	18593.22
481.06	19103.45
481.24	19168.99
481.41	19126.86
481.59	19541.13
481.77	19852.42
481.95	19662.84
482.13	20081.80
482.31	19704.97
482.49	20580.33
482.67	20233.93
482.85	20847.15
483.03	20449.26
483.21	20929.07
483.39	21231.00
483.57	21142.06
483.74	21673.36
483.92	21310.58
484.10	21521.23
484.28	22122.74
484.46	22427.01
484.64	22852.99
484.82	22228.07
485.00	22972.36
485.18	22920.87
485.35	23087.04
485.53	23033.21
485.71	23374.93
485.89	23763.46
486.07	23824.31
486.25	23777.50
486.43	23779.84
486.61	23917.93
486.78	24542.86
486.96	24332.21
487.14	24917.34
487.32	24950.11
487.50	25331.62
487.68	25067.14
487.85	25839.51
488.03	25797.38
488.21	26237.41
488.39	26057.18
488.57	26426.99
488.75	26682.11
488.92	27089.36
489.10	27110.43
489.28	26909.14
489.46	27342.14
489.64	27466.19
489.81	27880.46
489.99	28074.73
490.17	28004.51
490.35	28332.18
490.53	28664.54
490.70	28680.92
490.88	28811.99
491.06	29184.14
491.24	29120.95
491.41	29326.91
491.59	29862.90
491.77	29958.86
491.95	29759.91
492.13	30068.86
492.30	30263.13
492.48	30527.61
492.66	30558.03
492.84	30691.44
493.01	31007.42
493.19	31023.80
493.37	31508.29
493.54	31468.50
493.72	32163.64
493.90	31824.26
494.08	32311.10
494.25	32388.33
494.43	32287.69
494.61	32907.93
494.79	32835.38
494.96	32858.78
495.14	32978.15
495.32	33195.82
495.49	33125.60
495.67	33825.42
495.85	33827.76
496.02	34209.27
496.20	34492.47
496.38	34642.27
496.55	34550.99
496.73	35351.45
496.91	34967.60
497.09	35215.70
497.26	34913.77
497.44	35428.69
497.62	35751.68
497.79	36620.02
497.97	35957.65
498.14	36271.28
498.32	36629.38
498.50	36723.01
498.67	37097.49
498.85	36957.06
499.03	37223.88
499.20	37219.20
499.38	37029.62
499.56	37357.29
499.73	37546.87
499.91	37691.99
500.08	38089.88
500.26	37919.02
500.44	38398.83
500.61	38244.35
500.79	38337.98
500.97	38450.32
501.14	38794.38
501.32	39028.43
501.49	39196.95
501.67	39299.94
501.84	39578.46
502.02	39253.12
502.20	39515.26
502.37	39398.24
502.55	39992.73
502.72	39707.19
502.90	40037.20
503.07	39789.11
503.25	40329.77
503.43	40261.90
503.60	40673.83
503.78	40914.90
503.95	40687.87
504.13	41216.83
504.30	40905.54
504.48	40964.06
504.65	41165.34
504.83	41731.75
505.01	41584.30
505.18	41315.14
505.36	42234.97
505.53	41717.71
505.71	42295.82
505.88	42291.14
506.06	41909.63
506.23	42740.52
506.41	42351.99
506.58	43009.68
506.76	42726.48
506.93	43002.66
507.11	42916.06
507.28	43562.05
507.46	43026.07
507.63	43985.69
507.81	43337.36
507.98	43526.94
508.16	43615.88
508.33	43936.54
508.50	43941.22
508.68	44069.95
508.85	44421.03
509.03	44575.50
509.20	44858.71
509.38	44870.41
509.55	44996.80
509.73	45188.72
509.90	44999.14
510.08	45076.38
510.25	45123.19
510.42	45514.06
510.60	45404.05
510.77	45867.48
510.95	45823.01
511.12	45610.02
511.30	45656.83
511.47	45752.79
511.64	46174.09
511.82	46267.71
511.99	46483.04
512.17	46602.41
512.34	46110.89
512.51	46976.89
512.69	46600.07
512.86	46871.57
513.04	47269.46
513.21	47203.92
513.38	47339.68
513.56	47700.12
513.73	47700.12
513.90	47590.11
514.08	47351.38
514.25	47978.64
514.43	47971.62
514.60	47800.76
514.77	47941.19
514.95	48362.49
515.12	48474.84
515.29	48053.54
515.47	48912.52
515.64	48868.05
515.81	48545.05
515.99	48760.38
516.16	49076.35
516.33	48968.69
516.51	49081.03
516.68	49209.76
516.85	48809.53
517.03	49357.22
517.20	49560.84
517.37	49364.24
517.54	49305.73
517.72	49476.58
517.89	49279.98
518.06	49670.85
518.24	49715.32
518.41	49710.64
518.58	49909.58
518.75	49776.17
518.93	50038.31
519.10	50108.53
519.27	50248.96
519.45	49799.58
519.62	50555.57
519.79	50555.57
519.96	50422.16
520.14	50483.01
520.31	50871.54
520.48	50649.19
520.65	50635.15
520.83	51297.52
521.00	51334.97
521.17	51072.83
521.34	51262.41
521.52	50887.93
521.69	51164.11
521.86	51550.30
522.03	51288.16
522.20	51854.57
522.38	52076.92
522.55	51845.21
522.72	51723.50
522.89	51889.68
523.07	52205.65
523.24	52229.05
523.41	52128.41
523.58	51973.94
523.75	52416.30
523.92	51892.02
524.10	52439.70
524.27	52690.14
524.44	52547.37
524.61	52814.19
524.78	52582.48
524.96	52460.77
525.13	52938.24
525.30	52851.64
525.47	52800.15
525.64	52907.81
525.81	53181.65
525.98	53141.86
526.16	52865.68
526.33	52956.96
526.50	53661.46
526.67	53029.52
526.84	53214.42
527.01	53240.17
527.18	53179.31
527.36	53361.87
527.53	53399.32
527.70	53958.71
527.87	53785.51
528.04	53406.34
528.21	53792.53
528.38	53628.69
528.55	53832.32
528.72	53635.72
528.89	53982.12
529.07	53684.87
529.24	53607.63
529.41	54024.25
529.58	54047.65
529.75	54277.02
529.92	54307.45
530.09	54164.68
530.26	54265.32
530.43	54422.14
530.60	53944.67
530.77	54316.81
530.94	54550.87
531.11	54382.35
531.28	54644.49
531.46	54707.68
531.63	54443.20
531.80	54588.31
531.97	55065.78
532.14	54768.54
532.31	54829.39
532.48	55033.02
532.65	54827.05
532.82	54883.22
532.99	55061.10
533.16	54925.35
533.33	55159.41
533.50	55283.45
533.67	55138.34
533.84	55271.75
534.01	55377.08
534.18	55161.75
534.35	55840.50
534.52	55510.49
534.69	55503.46
534.86	55704.75
535.03	55437.93
535.20	55482.40
535.37	55728.16
535.54	55688.37
535.71	55426.23
535.88	55835.82
536.05	55873.27
536.22	56041.79
536.38	56119.02
536.55	55917.74
536.72	55906.04
536.89	55929.44
537.06	55990.30
537.23	56233.71
537.40	55920.08
537.57	56069.87
537.74	56051.15
537.91	56224.35
538.08	56479.47
538.25	56219.67
538.42	56301.59
538.59	56622.24
538.75	56219.67
538.92	56299.25
539.09	56467.76
539.26	56341.38
539.43	56399.89
539.60	56706.50
539.77	56432.66
539.94	56729.90
540.11	56772.03
540.28	57008.43
540.44	57052.90
540.61	56795.44
540.78	56828.21
540.95	56917.15
541.12	56673.73
541.29	57034.17
541.46	57008.43
541.62	56793.10
541.79	56987.36
541.96	56545.00
542.13	56732.25
542.30	57249.50
542.47	57109.07
542.63	57233.12
542.80	57132.48
542.97	57403.98
543.14	57483.56
543.31	57567.82
543.48	57537.39
543.64	57963.37
543.81	57310.36
543.98	57574.84
544.15	57584.20
544.32	57827.62
544.48	58171.67
544.65	57691.86
544.82	57879.11
544.99	57790.17
545.16	58003.16
545.32	57928.26
545.49	57914.22
545.66	57867.40
545.83	58124.86
546.00	58190.40
546.16	58005.50
546.33	57925.92
546.50	57860.38
546.67	57984.43
546.83	57708.25
547.00	58012.52
547.17	58110.82
547.34	58071.03
547.50	58199.76
547.67	58379.98
547.84	58272.32
548.00	58269.98
548.17	58525.10
548.34	58473.60
548.51	58578.93
548.67	58588.29
548.84	58389.34
549.01	58192.74
549.18	58443.18
549.34	58658.51
549.51	58539.14
549.68	58766.17
549.84	58791.92
550.01	58805.96
550.18	58408.07
550.34	58808.30
550.51	58733.40
550.68	58852.77
550.84	58674.89
551.01	58922.99
551.18	58885.54
551.34	58777.87
551.51	59082.14
551.68	59009.59
551.84	59065.76
552.01	58871.49
552.18	58883.20
552.34	58925.33
552.51	59159.38
552.68	58965.12
552.84	59157.04
553.01	59189.81
553.18	59077.46
553.34	59224.92
553.51	58915.96
553.67	59049.38
553.84	59175.76
554.01	59290.45
554.17	59182.79
554.34	59372.37
554.51	59107.89
554.67	59257.68
554.84	59166.40
555.00	59262.36
555.17	59227.26
555.33	59391.09
555.50	59491.74
555.67	59358.33
555.83	59536.21
556.00	59508.12
556.16	59653.23
556.33	59697.70
556.50	59669.62
556.66	59454.29
556.83	59517.48
556.99	59653.23
557.16	59693.02
557.32	59842.82
557.49	59913.03
557.65	59620.47
557.82	59709.41
557.98	59573.66
558.15	59648.55
558.32	59814.73
558.48	59847.50
558.65	59854.52
558.81	59910.69
558.98	59817.07
559.14	59863.88
559.31	59999.63
559.47	60076.87
559.64	60102.62
559.80	60076.87
559.97	60095.60
560.13	60046.44
560.30	60119.00
560.46	60221.98
560.63	60149.43
560.79	60041.76
560.96	60186.88
561.12	60252.41
561.29	60207.94
561.45	60229.01
561.61	60221.98
561.78	59983.25
561.94	60238.37
562.11	60016.02
562.27	60411.57
562.44	60250.07
562.60	60432.63
562.77	60315.61
562.93	60149.43
563.10	60561.36
563.26	60217.30
563.42	60575.40
563.59	60210.28
563.75	60151.77
563.92	60463.06
564.08	60376.46
564.24	60439.65
564.41	60500.51
564.57	60425.61
564.74	60385.82
564.90	60416.25
565.07	60381.14
565.23	60559.02
565.39	60427.95
565.56	60636.26
565.72	60301.56
565.88	60441.99
566.05	60484.12
566.21	60645.62
566.38	60580.09
566.54	60694.77
566.70	60556.68
566.87	60769.67
567.03	60615.19
567.19	60919.46
567.36	60629.24
567.52	60507.53
567.68	60797.76
567.85	60589.45
568.01	60645.62
568.17	60636.26
568.34	60760.31
568.50	60568.38
568.66	60633.92
568.83	60704.13
568.99	60458.38
569.15	60760.31
569.32	60594.13
569.48	60669.03
569.64	60671.37
569.81	60582.43
569.97	60732.22
570.13	60743.92
570.30	60743.92
570.46	60816.48
570.62	60767.33
570.78	60921.80
570.95	60762.65
571.11	60844.57
571.27	60746.26
571.43	60814.14
571.60	60926.49
571.76	60727.54
571.92	60910.10
572.09	60879.67
572.25	60828.18
572.41	60821.16
572.57	60900.74
572.74	61020.11
572.90	61013.08
573.06	60877.33
573.22	60999.04
573.38	61020.11
573.55	60828.18
573.71	61158.20
573.87	60870.31
574.03	60928.83
574.20	60980.32
574.36	61034.15
574.52	61031.81
574.68	60959.25
574.84	61125.43
575.01	60970.96
575.17	61120.75
575.33	61020.11
575.49	60940.53
575.65	61097.34
575.82	61162.88
575.98	60952.23
576.14	61261.18
576.30	61181.60
576.46	60970.96
576.62	61038.83
576.79	61160.54
576.95	60860.95
577.11	61169.90
577.27	61153.52
577.43	61113.73
577.59	60903.08
577.75	61132.45
577.92	60996.70
578.08	60956.91
578.24	61296.29
578.40	61146.50
578.56	61244.80
578.72	61109.05
578.88	61298.63
579.04	61448.42
579.21	61219.05
579.37	61078.62
579.53	61219.05
579.69	61066.92
579.85	61350.12
580.01	61134.79
580.17	61066.92
580.33	61155.86
580.49	61272.88
580.65	61080.96
580.82	61179.26
580.98	61172.24
581.14	61216.71
581.30	61441.40
581.46	61312.67
581.62	61223.73
581.78	61125.43
581.94	61317.35
582.10	61296.29
582.26	61172.24
582.42	61216.71
582.58	61270.54
582.74	61031.81
582.90	61387.57
583.06	61422.68
583.22	61169.90
583.38	61205.01
583.54	61317.35
583.70	61340.76
583.86	61249.48
584.02	61207.35
584.18	61368.85
584.34	60975.64
584.50	61263.52
584.66	61048.19
584.82	60907.76
584.98	61324.38
585.14	61387.57
585.30	61298.63
585.46	61139.47
585.62	61300.97
585.78	61586.52
585.94	61293.95
586.10	61565.45
586.26	61207.35
586.42	61436.72
586.58	61317.35
586.74	61359.48
586.90	61420.34
587.06	61326.72
587.22	61408.64
587.38	61340.76
587.54	61535.02
587.70	61511.62
587.86	61354.80
588.02	61492.89
588.18	61666.09
588.34	61270.54
588.49	61265.86
