SpectraSuite Data File
++++++++++++++++++++++++++++++++++++
Date: Fri Oct 25 10:47:08 EDT 2013
User: price-jones
Dark Spectrum Present: No
Reference Spectrum Present: No
Number of Sampled Component Spectra: 1
Spectrometers: USB2+H05261
Integration Time (usec): 100000 (USB2+H05261)
Spectra Averaged: 1 (USB2+H05261)
Boxcar Smoothing: 0 (USB2+H05261)
Correct for Electrical Dark: No (USB2+H05261)
Strobe/Lamp Enabled: No (USB2+H05261)
Correct for Detector Non-linearity: No (USB2+H05261)
Correct for Stray Light: No (USB2+H05261)
Number of Pixels in Processed Spectrum: 2048
>>>>>Begin Processed Spectral Data<<<<<
365.73	119.37
365.92	119.37
366.12	119.37
366.32	49.15
366.52	21.06
366.72	72.56
366.91	39.79
367.11	60.85
367.31	0.00
367.51	0.00
367.70	0.00
367.90	46.81
368.10	28.09
368.30	32.77
368.49	0.00
368.69	63.19
368.89	42.13
369.09	86.60
369.28	46.81
369.48	105.32
369.68	133.41
369.87	67.88
370.07	114.69
370.27	121.71
370.47	201.29
370.66	390.87
370.86	454.06
371.06	383.85
371.25	416.62
371.45	433.00
371.65	435.34
371.84	461.09
372.04	386.19
372.24	430.66
372.44	496.19
372.63	442.36
372.83	505.56
373.03	507.90
373.22	557.05
373.42	456.40
373.62	465.77
373.81	550.03
374.01	589.82
374.21	486.83
374.40	589.82
374.60	622.58
374.79	517.26
374.99	514.92
375.19	573.43
375.38	496.19
375.58	547.69
375.78	564.07
375.97	545.34
376.17	601.52
376.37	463.43
376.56	601.52
376.76	622.58
376.95	594.50
377.15	559.39
377.35	587.47
377.54	624.92
377.74	608.54
377.93	641.31
378.13	650.67
378.33	650.67
378.52	599.18
378.72	603.86
378.91	645.99
379.11	589.82
379.31	585.13
379.50	587.47
379.70	655.35
379.89	643.65
380.09	697.48
380.28	638.97
380.48	610.88
380.68	613.22
380.87	660.03
381.07	645.99
381.26	662.37
381.46	620.24
381.65	688.12
381.85	676.41
382.04	692.80
382.24	725.57
382.43	678.76
382.63	660.03
382.83	655.35
383.02	772.38
383.22	751.31
383.41	674.07
383.61	805.14
383.80	704.50
384.00	697.48
384.19	751.31
384.39	777.06
384.58	709.18
384.78	725.57
384.97	793.44
385.17	727.91
385.36	802.80
385.56	674.07
385.75	727.91
385.95	791.10
386.14	760.67
386.34	833.23
386.53	858.98
386.72	758.33
386.92	791.10
387.11	772.38
387.31	791.10
387.50	837.91
387.70	706.84
387.89	779.40
388.09	788.76
388.28	781.74
388.48	947.92
388.67	882.38
388.86	856.64
389.06	889.40
389.25	851.96
389.45	779.40
389.64	868.34
389.84	840.25
390.03	973.66
390.22	830.89
390.42	924.51
390.61	987.71
390.81	950.26
391.00	985.37
391.19	1008.77
391.39	926.85
391.58	938.55
391.78	915.15
391.97	959.62
392.16	840.25
392.36	994.73
392.55	898.77
392.75	959.62
392.94	980.68
393.13	926.85
393.33	936.21
393.52	1008.77
393.71	1039.20
393.91	950.26
394.10	1032.18
394.29	964.30
394.49	957.28
394.68	1109.41
394.88	1053.24
395.07	1088.35
395.26	1095.37
395.46	1078.99
395.65	1238.14
395.84	1144.52
396.04	1146.86
396.23	1048.56
396.42	1125.80
396.62	1069.62
396.81	1191.33
397.00	1095.37
397.19	1111.75
397.39	1118.78
397.58	1224.10
397.77	1118.78
397.97	1235.80
398.16	1284.95
398.35	1299.00
398.55	1203.04
398.74	1252.19
398.93	1376.24
399.12	1350.49
399.32	1322.40
399.51	1322.40
399.70	1392.62
399.90	1359.85
400.09	1345.81
400.28	1329.42
400.47	1287.29
400.67	1493.26
400.86	1455.81
401.05	1479.22
401.24	1371.55
401.44	1509.65
401.63	1441.77
401.82	1495.60
402.01	1394.96
402.21	1514.33
402.40	1549.43
402.59	1605.61
402.78	1514.33
402.97	1589.22
403.17	1563.48
403.36	1591.56
403.55	1626.67
403.74	1572.84
403.93	1526.03
404.13	1633.69
404.32	1610.29
404.51	1706.25
404.70	1717.95
404.89	1554.12
405.09	1664.12
405.28	1603.27
405.47	1746.04
405.66	1767.10
405.85	1739.02
406.05	1694.55
406.24	1783.49
406.43	1776.47
406.62	1837.32
406.81	1806.89
407.00	1743.70
407.20	1785.83
407.39	1881.79
407.58	1748.38
407.77	1975.41
407.96	1956.69
408.15	1877.11
408.34	1977.75
408.54	1844.34
408.73	1902.86
408.92	2022.22
409.11	1975.41
409.30	2059.67
409.49	2017.54
409.68	2019.88
409.87	2015.20
410.07	1998.82
410.26	1982.43
410.45	2225.85
410.64	2148.61
410.83	2195.42
411.02	2200.10
411.21	2165.00
411.40	2083.08
411.59	2225.85
411.78	2230.53
411.98	2317.13
412.17	2349.90
412.36	2314.79
412.55	2289.04
412.74	2345.22
412.93	2368.62
413.12	2277.34
413.31	2532.46
413.50	2443.52
413.69	2459.90
413.88	2450.54
414.07	2637.78
414.26	2415.43
414.45	2607.36
414.64	2478.63
414.83	2661.19
415.02	2619.06
415.22	2787.58
415.41	2668.21
415.60	2724.38
415.79	2684.59
415.98	2750.13
416.17	2890.56
416.36	2883.54
416.55	2708.00
416.74	2949.08
416.93	2801.62
417.12	2850.77
417.31	2869.50
417.50	2960.78
417.69	3047.38
417.88	3042.70
418.07	3009.93
418.26	2944.39
418.45	3059.08
418.64	3222.92
418.83	3045.04
419.02	3103.55
419.21	3290.79
419.39	3171.43
419.58	3141.00
419.77	3096.53
419.96	3246.32
420.15	3206.53
420.34	3304.84
420.53	3204.19
420.72	3295.47
420.91	3267.39
421.10	3112.91
421.29	3426.54
421.48	3302.50
421.67	3353.99
421.86	3300.16
422.05	3269.73
422.24	3290.79
422.43	3389.10
422.61	3382.07
422.80	3468.67
422.99	3386.76
423.18	3492.08
423.37	3529.53
423.56	3372.71
423.75	3496.76
423.94	3520.17
424.13	3122.27
424.32	3222.92
424.50	3426.54
424.69	3541.23
424.88	3499.10
425.07	3485.06
425.26	3407.82
425.45	3548.25
425.64	3456.97
425.83	3552.93
426.01	3606.77
426.20	3503.78
426.39	3506.12
426.58	3632.51
426.77	3569.32
426.96	3524.85
427.15	3599.74
427.33	3632.51
427.52	3555.27
427.71	3674.64
427.90	3808.05
428.09	3672.30
428.28	3761.24
428.46	3779.97
428.65	3609.11
428.84	3861.88
429.03	3950.82
429.22	3688.68
429.40	3749.54
429.59	3850.18
429.78	3604.42
429.97	3698.05
430.16	3709.75
430.34	3676.98
430.53	3761.24
430.72	3927.42
430.91	3763.58
431.10	3836.14
431.28	3981.25
431.47	4173.18
431.66	4030.40
431.85	3976.57
432.03	4124.02
432.22	4236.37
432.41	4074.87
432.60	4093.60
432.79	4067.85
432.97	4297.22
433.16	4325.31
433.35	4117.00
433.54	4166.15
433.72	4208.28
433.91	4159.13
434.10	4278.50
434.28	4283.18
434.47	4266.80
434.66	4355.74
434.85	4358.08
435.03	4299.56
435.22	4348.72
435.41	4561.70
435.59	4477.44
435.78	4631.92
435.97	4550.00
436.16	4568.73
436.34	4664.69
436.53	4547.66
436.72	4587.45
436.90	4564.04
437.09	4781.71
437.28	4613.20
437.46	4547.66
437.65	4594.47
437.84	4650.64
438.02	4627.24
438.21	4641.28
438.40	4695.11
438.58	4713.84
438.77	4856.61
438.96	4772.35
439.14	4971.30
439.33	4957.25
439.52	5081.30
439.70	5036.83
439.89	5032.15
440.08	5207.69
440.26	5198.33
440.45	5048.54
440.63	5210.03
440.82	5195.99
441.01	5228.76
441.19	5221.74
441.38	5371.53
441.57	5137.48
441.75	5537.71
441.94	5488.56
442.12	5380.89
442.31	5769.42
442.50	5540.05
442.68	5603.24
442.87	5329.40
443.05	5640.69
443.24	5673.46
443.43	5643.03
443.61	5767.08
443.80	5860.70
443.98	5540.05
444.17	5448.77
444.35	5586.86
444.54	5746.02
444.73	5661.76
444.91	5673.46
445.10	5643.03
445.28	5785.80
445.47	5605.58
445.65	5776.44
445.84	5762.40
446.02	5696.86
446.21	5668.78
446.39	5825.59
446.58	5902.83
446.77	5905.17
446.95	5764.74
447.14	5909.85
447.32	5774.10
447.51	5865.38
447.69	5743.67
447.88	5895.81
448.06	5947.30
448.25	6057.31
448.43	5902.83
448.62	5816.23
448.80	5818.57
448.99	5991.77
449.17	5813.89
449.36	5975.39
449.54	6092.41
449.73	6160.29
449.91	6176.67
450.10	6296.04
450.28	6291.36
450.46	6164.97
450.65	6291.36
450.83	6256.25
451.02	6403.71
451.20	6387.32
451.39	6494.99
451.57	6242.21
451.76	6396.68
451.94	6340.51
452.13	6558.18
452.31	6420.09
452.49	6370.94
452.68	6464.56
452.86	6401.37
453.05	6387.32
453.23	6399.02
453.42	6422.43
453.60	6562.86
453.78	6656.48
453.97	6455.20
454.15	6457.54
454.34	6490.31
454.52	6583.93
454.70	6614.35
454.89	6895.22
455.07	6527.75
455.26	6700.95
455.44	6827.34
455.62	6864.79
455.81	6829.68
455.99	6796.92
456.17	6906.92
456.36	6855.43
456.54	7068.42
456.73	6871.81
456.91	7194.81
457.09	7119.91
457.28	7335.24
457.46	7040.33
457.64	7204.17
457.83	7185.44
458.01	7096.50
458.19	7396.09
458.38	7140.97
458.56	7330.56
458.74	7199.49
458.93	7323.54
459.11	7197.15
459.29	7330.56
459.48	7454.61
459.66	7295.45
459.84	7599.72
460.03	7515.46
460.21	7435.88
460.39	7557.59
460.57	7620.78
460.76	7665.25
460.94	7578.65
461.12	7709.72
461.31	7660.57
461.49	7707.38
461.67	7775.26
461.85	7733.13
462.04	7714.41
462.22	8236.35
462.40	7653.55
462.59	7552.91
462.77	7899.31
462.95	7953.14
463.13	7822.07
463.32	8028.04
463.50	8023.36
463.68	7962.50
463.86	7957.82
464.05	7784.62
464.23	7894.63
464.41	8102.93
464.59	8021.02
464.78	8159.11
464.96	7955.48
465.14	8119.32
465.32	8182.51
465.50	8341.67
465.69	8114.64
465.87	8231.66
466.05	8329.97
466.23	8208.26
466.41	8187.19
466.60	8507.85
466.78	8065.49
466.96	8243.37
467.14	8306.56
467.32	8404.86
467.51	8713.81
467.69	7955.48
467.87	8444.65
468.05	8407.20
468.23	8376.78
468.41	8348.69
468.60	8414.23
468.78	8667.00
468.96	8472.74
469.14	8772.33
469.32	8762.97
469.50	8416.57
469.69	8655.30
469.87	8730.20
470.05	8805.10
470.23	9053.19
470.41	8718.50
470.59	9011.06
470.77	8870.63
470.95	8908.08
471.14	9085.96
471.32	8933.82
471.50	9186.60
471.68	9186.60
471.86	9202.99
472.04	9053.19
472.22	9357.46
472.40	9240.44
472.58	9202.99
472.77	9083.62
472.95	9394.91
473.13	9713.22
473.31	9408.95
473.49	9565.77
473.67	9533.00
473.85	9355.12
474.03	9802.16
474.21	9511.94
474.39	9589.17
474.57	9799.82
474.75	10031.54
474.93	10078.35
475.12	9923.87
475.30	10134.52
475.48	10066.64
475.66	10263.25
475.84	10073.67
476.02	10211.76
476.20	10197.71
476.38	10347.51
476.56	10501.98
476.74	10576.88
476.92	10534.75
477.10	10534.75
477.28	10778.17
477.46	10710.29
477.64	11026.26
477.82	10970.09
478.00	11073.07
478.18	11021.58
478.36	11433.52
478.54	11384.37
478.72	11513.10
478.90	11288.40
479.08	11595.01
479.26	11754.17
479.44	11843.11
479.62	11906.31
479.80	11910.99
479.98	11868.86
480.16	12042.06
480.34	12051.42
480.52	12304.20
480.70	12425.90
480.88	12006.95
481.06	12425.90
481.24	12566.34
481.41	12622.51
481.59	12901.03
481.77	12849.54
481.95	13022.74
482.13	13118.70
482.31	13132.75
482.49	13357.44
482.67	13385.52
482.85	13275.52
483.03	13504.89
483.21	13687.45
483.39	13937.89
483.57	13748.31
483.74	13870.01
483.92	13855.97
484.10	14104.07
484.28	14354.51
484.46	14602.60
484.64	14614.30
484.82	14611.96
485.00	14370.89
485.18	14925.60
485.35	14925.60
485.53	14974.75
485.71	15049.64
485.89	15009.86
486.07	15096.46
486.25	15204.12
486.43	15445.20
486.61	15597.33
486.78	15559.88
486.96	15744.78
487.14	16037.35
487.32	16037.35
487.50	16229.27
487.68	16416.52
487.85	16402.47
488.03	16606.10
488.21	16826.11
488.39	16690.36
488.57	16812.07
488.75	16781.64
488.92	17128.04
489.10	17315.28
489.28	17511.89
489.46	17912.12
489.64	17591.47
489.81	18073.62
489.99	18054.89
490.17	18389.59
490.35	18380.23
490.53	18396.61
490.70	18628.32
490.88	18251.50
491.06	18677.48
491.24	18714.92
491.41	18649.39
491.59	18860.04
491.77	19000.47
491.95	19227.50
492.13	19337.51
492.30	19403.04
492.48	19491.98
492.66	19793.91
492.84	19590.28
493.01	19800.93
493.19	19814.98
493.37	20184.78
493.54	20505.43
493.72	20442.24
493.90	20655.23
494.08	20535.86
494.25	21081.21
494.43	21088.23
494.61	20999.29
494.79	21273.13
494.96	20879.92
495.14	21392.50
495.32	21446.33
495.49	21525.91
495.67	21694.43
495.85	22012.74
496.02	21781.03
496.20	21900.39
496.38	22066.57
496.55	22115.72
496.73	22677.45
496.91	22265.52
497.09	22321.69
497.26	22773.41
497.44	22644.68
497.62	23021.51
497.79	22831.93
497.97	23065.98
498.14	23009.81
498.32	23290.67
498.50	23541.11
498.67	23735.37
498.85	23646.43
499.03	23683.88
499.20	23737.71
499.38	23941.34
499.56	24046.66
499.73	24224.54
499.91	24414.13
500.08	24372.00
500.26	24430.51
500.44	24259.65
500.61	24432.85
500.79	24615.41
500.97	24624.78
501.14	24643.50
501.32	24973.52
501.49	24903.30
501.67	25181.82
501.84	25158.42
502.02	25001.60
502.20	25268.42
502.37	25586.74
502.55	25289.49
502.72	25348.00
502.90	25542.27
503.07	25560.99
503.25	26101.65
503.43	25493.12
503.60	26010.37
503.78	25919.09
503.95	26045.48
504.13	26389.54
504.30	26490.18
504.48	26164.85
504.65	26419.97
504.83	26780.41
505.01	26569.76
505.18	26768.71
505.36	27304.69
505.53	26604.87
505.71	26796.79
505.88	26991.06
506.06	27037.87
506.23	27175.96
506.41	26984.04
506.58	27274.26
506.76	27295.33
506.93	27192.34
507.11	27440.44
507.28	27154.90
507.46	27613.64
507.63	27501.29
507.81	27938.97
507.98	27725.99
508.16	27938.97
508.33	28264.31
508.50	28554.54
508.68	28519.43
508.85	28631.77
509.03	28357.93
509.20	28273.67
509.38	28662.20
509.55	28922.00
509.73	28498.36
509.90	28666.88
510.08	28760.50
510.25	29036.69
510.42	29076.48
510.60	29149.03
510.77	29469.69
510.95	29567.99
511.12	29336.27
511.30	29923.75
511.47	29883.96
511.64	29750.55
511.82	29764.59
511.99	29516.50
512.17	29933.11
512.34	29720.12
512.51	29692.04
512.69	29727.14
512.86	29963.54
513.04	30195.25
513.21	30253.76
513.38	30286.53
513.56	30256.11
513.73	30216.32
513.90	30487.82
514.08	30553.35
514.25	30820.17
514.43	30937.20
514.60	30738.26
514.77	30710.17
514.95	30735.92
515.12	31122.10
515.29	30796.77
515.47	31449.78
515.64	31725.96
515.81	31248.49
515.99	31283.60
516.16	31274.24
516.33	31105.72
516.51	31328.07
516.68	31222.75
516.85	30759.32
517.03	31360.84
517.20	31826.60
517.37	32044.27
517.54	31793.84
517.72	32006.83
517.89	31786.82
518.06	31955.33
518.24	31838.31
518.41	32095.77
518.58	32128.53
518.75	32393.01
518.93	32655.15
519.10	32275.99
519.27	32793.25
519.45	32854.10
519.62	33006.23
519.79	32716.01
519.96	32804.95
520.14	32994.53
520.31	33111.56
520.48	32952.40
520.65	32926.66
520.83	33132.62
521.00	33310.50
521.17	33537.54
521.34	33429.87
521.52	33425.19
521.69	33954.15
521.86	33446.26
522.03	33553.92
522.20	33507.11
522.38	33989.26
522.55	34087.56
522.72	34036.07
522.89	33741.16
523.07	34087.56
523.24	33986.92
523.41	34370.77
523.58	34485.45
523.75	34714.83
523.92	34747.59
524.10	34141.39
524.27	34771.00
524.44	34354.38
524.61	34883.34
524.78	34925.47
524.96	34747.59
525.13	34803.77
525.30	34916.11
525.47	35442.73
525.64	35367.84
525.81	34735.89
525.98	35072.93
526.16	35007.39
526.33	35145.48
526.50	35332.73
526.67	34974.63
526.84	35000.37
527.01	35124.42
527.18	35236.77
527.36	35744.66
527.53	35728.28
527.70	35597.21
527.87	35786.79
528.04	35861.69
528.21	35901.48
528.38	35988.08
528.55	35924.88
528.72	35821.90
528.89	35943.61
529.07	35959.99
529.24	36011.48
529.41	36196.38
529.58	35938.93
529.75	35997.44
529.92	36175.32
530.09	36458.52
530.26	36194.04
530.43	36577.89
530.60	36201.07
530.77	36416.40
530.94	36493.63
531.11	36273.62
531.28	36884.50
531.46	36935.99
531.63	36837.69
531.80	37156.00
531.97	36622.36
532.14	37010.89
532.31	36645.77
532.48	37205.16
532.65	37308.14
532.82	36861.10
532.99	37158.34
533.16	36746.41
533.33	37364.31
533.50	37816.04
533.67	37394.74
533.84	37603.05
534.01	37518.79
534.18	37558.58
534.35	37766.88
534.52	37586.66
534.69	37539.85
534.86	37947.11
535.03	37813.70
535.20	37832.42
535.37	38309.89
535.54	38424.57
535.71	37977.53
535.88	38305.21
536.05	37696.67
536.22	38270.10
536.38	37888.59
536.55	38075.84
536.72	38246.69
536.89	37797.31
537.06	38106.26
537.23	38258.40
537.40	38368.40
537.57	38698.42
537.74	38440.96
537.91	39407.60
538.08	38766.29
538.25	38588.41
538.42	38752.25
538.59	39061.20
538.75	38630.54
538.92	38752.25
539.09	38658.63
539.26	38836.51
539.43	38951.20
539.60	39187.59
539.77	38724.16
539.94	39065.88
540.11	39136.10
540.28	38904.38
540.44	38911.41
540.61	39140.78
540.78	38789.70
540.95	39009.71
541.12	38747.57
541.29	38834.17
541.46	39480.16
541.62	39372.49
541.79	39533.99
541.96	39337.38
542.13	39871.03
542.30	39725.91
542.47	39763.36
542.63	39934.22
542.80	39948.26
542.97	40196.36
543.14	40304.02
543.31	39786.77
543.48	40252.53
543.64	40762.77
543.81	40156.57
543.98	40194.02
544.15	40041.88
544.32	40746.39
544.48	40669.15
544.65	40477.22
544.82	39931.88
544.99	39938.90
545.16	40495.95
545.32	40458.50
545.49	40552.12
545.66	40926.61
545.83	41308.11
546.00	40914.90
546.16	40605.95
546.33	40598.93
546.50	40236.15
546.67	40730.00
546.83	40917.25
547.00	40622.34
547.17	40620.00
547.34	40802.56
547.50	40868.09
547.67	40783.83
547.84	40755.75
548.00	41067.04
548.17	41457.91
548.34	41177.04
548.51	41102.15
548.67	40982.78
548.84	41652.17
549.01	41427.48
549.18	41198.11
549.34	41626.43
549.51	41317.48
549.68	41387.69
549.84	41404.08
550.01	42073.47
550.18	41420.46
550.34	41294.07
550.51	41469.61
550.68	41270.67
550.84	41481.31
551.01	41270.67
551.18	41572.60
551.34	41965.81
551.51	41949.42
551.68	41993.89
551.84	41954.10
552.01	42124.96
552.18	41687.28
552.34	41682.60
552.51	42192.84
552.68	41902.61
552.84	42110.92
553.01	42258.37
553.18	42197.52
553.34	41776.22
553.51	42085.17
553.67	42590.73
553.84	42831.80
554.01	42227.95
554.17	42377.74
554.34	42466.68
554.51	42513.49
554.67	42649.24
554.84	42326.25
555.00	42298.16
555.17	42169.43
555.33	42323.91
555.50	42490.09
555.67	42396.46
555.83	42171.77
556.00	42773.29
556.16	42550.94
556.33	42541.58
556.50	42855.21
556.66	42569.66
556.83	43232.04
556.99	42997.98
557.16	43047.13
557.32	43199.27
557.49	42639.88
557.65	42934.79
557.82	42775.63
557.98	42834.14
558.15	42632.86
558.32	42948.83
558.48	42841.17
558.65	43356.08
558.81	42663.28
558.98	43110.33
559.14	43236.72
559.31	43192.25
559.47	43056.50
559.64	43454.39
559.80	43248.42
559.97	43363.11
560.13	42759.25
560.30	42534.56
560.46	43543.33
560.63	43124.37
560.79	43398.21
560.96	43459.07
561.12	43166.50
561.29	43299.91
561.45	43531.62
561.61	43133.73
561.78	43515.24
561.94	43405.23
562.11	43576.09
562.27	43564.39
562.44	43072.88
562.60	43634.61
562.77	43339.70
562.93	43585.46
563.10	43536.30
563.26	43210.97
563.42	43391.19
563.59	43487.15
563.75	43524.60
563.92	44039.52
564.08	43810.15
564.24	43885.04
564.41	43856.96
564.57	43573.75
564.74	43920.15
564.90	43688.44
565.07	43737.59
565.23	43391.19
565.39	43452.05
565.56	43716.53
565.72	43463.75
565.88	43566.73
566.05	43889.73
566.21	43576.09
566.38	43585.46
566.54	43606.52
566.70	43966.96
566.87	44552.10
567.03	43562.05
567.19	44250.17
567.36	43639.29
567.52	44086.33
567.68	43934.20
567.85	43569.07
568.01	44364.85
568.17	43758.66
568.34	43978.67
568.50	44289.96
568.66	43842.92
568.83	43973.98
568.99	43482.47
569.15	43466.09
569.32	43959.94
569.48	43887.39
569.64	44243.15
569.81	44030.16
569.97	44041.86
570.13	44374.22
570.30	43812.49
570.46	43854.62
570.62	43936.54
570.78	43973.98
570.95	43569.07
571.11	44346.13
571.27	43810.15
571.43	44058.24
571.60	44203.36
571.76	43906.11
571.92	43793.76
572.09	44179.95
572.25	44170.59
572.41	43805.47
572.57	43910.79
572.74	44568.48
572.90	44479.54
573.06	44226.76
573.22	43732.91
573.38	43856.96
573.55	43761.00
573.71	44533.37
573.87	44484.22
574.03	44245.49
574.20	44360.17
574.36	44053.56
574.52	44428.05
574.68	44416.35
574.84	44369.54
575.01	44093.35
575.17	44055.90
575.33	43917.81
575.49	44083.99
575.65	44776.79
575.82	44793.17
575.98	44453.79
576.14	44734.66
576.30	44561.46
576.46	44189.31
576.62	43763.34
576.79	43873.34
576.95	43828.87
577.11	44491.24
577.27	44545.08
577.43	44304.00
577.59	44191.65
577.75	44271.23
577.92	44381.24
578.08	44088.67
578.24	43906.11
578.40	44126.12
578.56	44376.56
578.72	44385.92
578.88	44584.86
579.04	44648.06
579.21	44360.17
579.37	44186.97
579.53	43906.11
579.69	44404.64
579.85	44339.11
580.01	44905.52
580.17	44374.22
580.33	44577.84
580.49	44114.42
580.65	44243.15
580.82	44563.80
580.98	44650.40
581.14	44275.91
581.30	44596.57
581.46	44687.85
581.62	44313.36
581.78	44261.87
581.94	44601.25
582.10	44369.54
582.26	44732.32
582.42	44699.55
582.58	44308.68
582.74	44102.71
582.90	44451.45
583.06	44275.91
583.22	44559.12
583.38	44978.07
583.54	44713.59
583.70	44718.28
583.86	44470.18
584.02	43875.68
584.18	44687.85
584.34	44147.18
584.50	44325.07
584.66	44584.86
584.82	44610.61
584.98	44610.61
585.14	44072.29
585.30	44336.77
585.46	44332.09
585.62	44605.93
585.78	44409.32
585.94	44516.99
586.10	44259.53
586.26	44154.21
586.42	44580.18
586.58	44406.98
586.74	44406.98
586.90	44554.44
587.06	44041.86
587.22	44865.73
587.38	44182.29
587.54	44968.71
587.70	44673.81
587.86	44535.71
588.02	44444.43
588.18	44673.81
588.34	44601.25
588.49	44348.47
588.65	43906.11
588.81	43931.86
588.97	44648.06
589.13	44201.02
589.29	44472.52
589.45	44655.08
589.61	44423.37
589.77	44706.57
589.93	44444.43
590.08	44697.21
590.24	44769.77
590.40	44772.11
