SpectraSuite Data File
++++++++++++++++++++++++++++++++++++
Date: Fri Oct 25 11:25:40 EDT 2013
User: price-jones
Dark Spectrum Present: No
Reference Spectrum Present: No
Number of Sampled Component Spectra: 1
Spectrometers: USB2+H05261
Integration Time (usec): 100000 (USB2+H05261)
Spectra Averaged: 1 (USB2+H05261)
Boxcar Smoothing: 0 (USB2+H05261)
Correct for Electrical Dark: No (USB2+H05261)
Strobe/Lamp Enabled: No (USB2+H05261)
Correct for Detector Non-linearity: No (USB2+H05261)
Correct for Stray Light: No (USB2+H05261)
Number of Pixels in Processed Spectrum: 2048
>>>>>Begin Processed Spectral Data<<<<<
365.73	217.67
365.92	217.67
366.12	217.67
366.32	175.54
366.52	159.16
366.72	250.44
366.91	161.50
367.11	147.45
367.31	124.05
367.51	133.41
367.70	60.85
367.90	208.31
368.10	154.48
368.30	128.73
368.49	133.41
368.69	93.62
368.89	105.32
369.09	124.05
369.28	163.84
369.48	177.88
369.68	140.43
369.87	191.92
370.07	189.58
370.27	313.63
370.47	404.91
370.66	648.33
370.86	564.07
371.06	678.76
371.25	690.46
371.45	624.92
371.65	622.58
371.84	739.61
372.04	664.71
372.24	723.23
372.44	685.78
372.63	741.95
372.83	823.87
373.03	755.99
373.22	798.12
373.42	730.25
373.62	716.20
373.81	777.06
374.01	896.43
374.21	765.36
374.40	786.42
374.60	823.87
374.79	739.61
374.99	849.61
375.19	823.87
375.38	868.34
375.58	856.64
375.78	844.93
375.97	884.72
376.17	954.94
376.37	868.34
376.56	926.85
376.76	844.93
376.95	786.42
377.15	924.51
377.35	903.45
377.54	929.19
377.74	821.53
377.93	851.96
378.13	912.81
378.33	933.87
378.52	915.15
378.72	964.30
378.91	959.62
379.11	861.32
379.31	950.26
379.50	912.81
379.70	997.07
379.89	1032.18
380.09	889.40
380.28	966.64
380.48	997.07
380.68	940.90
380.87	964.30
381.07	1076.65
381.26	983.02
381.46	1013.45
381.65	1062.60
381.85	1039.20
382.04	1013.45
382.24	1076.65
382.43	1025.15
382.63	973.66
382.83	1104.73
383.02	1107.07
383.22	1128.14
383.41	1060.26
383.61	1121.12
383.80	1142.18
384.00	1093.03
384.19	1184.31
384.39	1139.84
384.58	1060.26
384.78	1233.46
384.97	1174.95
385.17	1205.38
385.36	1102.39
385.56	1217.08
385.75	1259.21
385.95	1125.80
386.14	1210.06
386.34	1205.38
386.53	1254.53
386.72	1177.29
386.92	1327.08
387.11	1291.98
387.31	1240.48
387.50	1315.38
387.70	1306.02
387.89	1259.21
388.09	1336.45
388.28	1263.89
388.48	1221.76
388.67	1259.21
388.86	1329.42
389.06	1317.72
389.25	1306.02
389.45	1322.40
389.64	1336.45
389.84	1439.43
390.03	1336.45
390.22	1401.98
390.42	1418.36
390.61	1280.27
390.81	1317.72
391.00	1287.29
391.19	1397.30
391.39	1348.15
391.58	1427.73
391.78	1437.09
391.97	1507.30
392.16	1427.73
392.36	1586.88
392.55	1544.75
392.75	1535.39
392.94	1493.26
393.13	1465.18
393.33	1493.26
393.52	1561.14
393.71	1542.41
393.91	1666.46
394.10	1511.99
394.29	1584.54
394.49	1675.82
394.68	1521.35
394.88	1666.46
395.07	1722.63
395.26	1692.21
395.46	1666.46
395.65	1664.12
395.84	1802.21
396.04	1717.95
396.23	1729.66
396.42	1692.21
396.62	1720.29
396.81	1764.76
397.00	1795.19
397.19	1748.38
397.39	1853.70
397.58	1811.57
397.77	1696.89
397.97	1820.94
398.16	1912.22
398.35	1895.83
398.55	1816.26
398.74	1926.26
398.93	1982.43
399.12	1952.01
399.32	1865.41
399.51	1858.39
399.70	1907.54
399.90	1937.96
400.09	1942.64
400.28	2169.68
400.47	1952.01
400.67	2085.42
400.86	2076.06
401.05	2071.37
401.24	2162.66
401.44	2022.22
401.63	2076.06
401.82	2146.27
402.01	2108.82
402.21	2085.42
402.40	2282.02
402.59	2204.78
402.78	2267.98
402.97	2272.66
403.17	2277.34
403.36	2239.89
403.55	2286.70
403.74	2338.20
403.93	2345.22
404.13	2310.11
404.32	2349.90
404.51	2363.94
404.70	2513.74
404.89	2452.88
405.09	2483.31
405.28	2441.18
405.47	2473.95
405.66	2576.93
405.85	2495.01
406.05	2450.54
406.24	2532.46
406.43	2532.46
406.62	2588.63
406.81	2628.42
407.00	2478.63
407.20	2548.84
407.39	2513.74
407.58	2733.75
407.77	2745.45
407.96	2846.09
408.15	2700.98
408.34	2801.62
408.54	2810.98
408.73	2754.81
408.92	2867.16
409.11	2810.98
409.30	2904.60
409.49	2848.43
409.68	3002.91
409.87	2906.95
410.07	3002.91
410.26	3021.63
410.45	2965.46
410.64	3070.78
410.83	3028.65
411.02	3009.93
411.21	3155.04
411.40	2998.23
411.59	3290.79
411.78	3148.02
411.98	3129.30
412.17	3379.73
412.36	3311.86
412.55	3428.88
412.74	3442.93
412.93	3356.33
413.12	3358.67
413.31	3440.59
413.50	3412.50
413.69	3368.03
413.88	3592.72
414.07	3609.11
414.26	3513.14
414.45	3637.19
414.64	3676.98
414.83	3688.68
415.02	3665.28
415.22	3878.27
415.41	3786.99
415.60	3871.25
415.79	3878.27
415.98	3941.46
416.17	3866.56
416.36	4002.32
416.55	3904.01
416.74	4032.74
416.93	4098.28
417.12	4093.60
417.31	4079.55
417.50	4161.47
417.69	4306.59
417.88	4320.63
418.07	4184.88
418.26	4231.69
418.45	4285.52
418.64	4435.32
418.83	4386.16
419.02	4358.08
419.21	4451.70
419.39	4388.50
419.58	4423.61
419.77	4402.55
419.96	4472.76
420.15	4550.00
420.34	4440.00
420.53	4561.70
420.72	4559.36
420.91	4468.08
421.10	4681.07
421.29	4650.64
421.48	4723.20
421.67	4732.56
421.86	4732.56
422.05	4732.56
422.24	4826.18
422.43	4856.61
422.61	4889.38
422.80	5018.11
422.99	4720.86
423.18	4908.10
423.37	5053.22
423.56	4898.74
423.75	4830.87
423.94	4772.35
424.13	4655.33
424.32	4650.64
424.50	4894.06
424.69	4877.68
424.88	5011.09
425.07	5064.92
425.26	4933.85
425.45	5022.79
425.64	4858.95
425.83	4870.65
426.01	5249.82
426.20	5104.71
426.39	5090.67
426.58	4894.06
426.77	5001.72
426.96	5081.30
427.15	5135.14
427.33	5210.03
427.52	5195.99
427.71	5308.34
427.90	5221.74
428.09	5343.44
428.28	5305.99
428.46	5418.34
428.65	5195.99
428.84	5472.17
429.03	5575.16
429.22	5441.75
429.40	5408.98
429.59	5467.49
429.78	5193.65
429.97	5315.36
430.16	5526.00
430.34	5533.03
430.53	5654.73
430.72	5720.27
430.91	5535.37
431.10	5607.92
431.28	5785.80
431.47	5633.67
431.66	5542.39
431.85	5753.04
432.03	5959.00
432.22	5837.30
432.41	5959.00
432.60	5827.93
432.79	5856.02
432.97	5933.26
433.16	5975.39
433.35	6017.52
433.54	6073.69
433.72	6111.14
433.91	5942.62
434.10	5944.96
434.28	6083.05
434.47	6094.76
434.66	6186.04
434.85	6076.03
435.03	6279.66
435.22	6291.36
435.41	6326.47
435.59	6312.42
435.78	6331.15
435.97	6382.64
436.16	6317.11
436.34	6410.73
436.53	6649.46
436.72	6548.82
436.90	6342.85
437.09	6438.81
437.28	6523.07
437.46	6560.52
437.65	6504.35
437.84	6698.61
438.02	6668.19
438.21	6689.25
438.40	6635.42
438.58	7096.50
438.77	7054.37
438.96	6871.81
439.14	7183.10
439.33	7021.61
439.52	7105.87
439.70	7087.14
439.89	7276.73
440.08	7403.11
440.26	7274.38
440.45	7293.11
440.63	7297.79
440.82	7686.32
441.01	7515.46
441.19	7606.74
441.38	7541.21
441.57	7606.74
441.75	7796.32
441.94	8070.17
442.12	7894.63
442.31	8042.08
442.50	7974.21
442.68	7988.25
442.87	8077.19
443.05	7887.61
443.24	8100.59
443.43	8077.19
443.61	7964.84
443.80	8409.54
443.98	7953.14
444.17	7744.83
444.35	8133.36
444.54	8407.20
444.73	8336.99
444.91	8315.92
445.10	8336.99
445.28	8105.28
445.47	8231.66
445.65	8280.82
445.84	8383.80
446.02	8322.94
446.21	8463.38
446.39	8285.50
446.58	8561.68
446.77	8418.91
446.95	8252.73
447.14	8290.18
447.32	8615.51
447.51	8624.87
447.69	8381.46
447.88	8643.60
448.06	8285.50
448.25	8493.80
448.43	8517.21
448.62	8500.83
448.80	8461.04
448.99	8327.63
449.17	8627.21
449.36	8542.96
449.54	8657.64
449.73	8961.91
449.91	8887.01
450.10	8950.21
450.28	8975.95
450.46	8980.64
450.65	8992.34
450.83	8992.34
451.02	8894.04
451.20	9104.68
451.39	9064.89
451.57	9064.89
451.76	8933.82
451.94	9156.18
452.13	9050.85
452.31	9181.92
452.49	9071.92
452.68	9207.67
452.86	9139.79
453.05	9458.10
453.23	9547.05
453.42	9343.42
453.60	9238.09
453.78	9565.77
453.97	9490.87
454.15	9224.05
454.34	9570.45
454.52	9401.93
454.70	9755.35
454.89	9671.09
455.07	9607.90
455.26	9865.36
455.44	9724.93
455.62	9886.42
455.81	9874.72
455.99	10026.86
456.17	10115.80
456.36	9837.27
456.54	10218.78
456.73	10139.20
456.91	10223.46
457.09	10258.57
457.28	10401.34
457.46	10293.68
457.64	10511.35
457.83	10413.04
458.01	10118.14
458.19	10771.15
458.38	10551.14
458.56	10759.44
458.74	10693.91
458.93	10417.72
459.11	10693.91
459.29	10721.99
459.48	10630.71
459.66	10778.17
459.84	11028.60
460.03	10960.73
460.21	10817.96
460.39	10977.11
460.57	11080.10
460.76	10883.49
460.94	11192.44
461.12	11197.12
461.31	11047.33
461.49	11063.71
461.67	11152.65
461.85	11162.01
462.04	11246.27
462.22	11875.88
462.40	11417.13
462.59	11492.03
462.77	11403.09
462.95	11698.00
463.13	11517.78
463.32	11665.23
463.50	11655.87
463.68	11620.76
463.86	11875.88
464.05	11620.76
464.23	11779.92
464.41	11756.51
464.59	11672.25
464.78	12224.62
464.96	11868.86
465.14	11836.09
465.32	11901.62
465.50	12355.69
465.69	12067.80
465.87	11997.59
466.05	12023.33
466.23	12065.46
466.41	11955.46
466.60	12470.37
466.78	12013.97
466.96	11997.59
467.14	11997.59
467.32	12465.69
467.51	12423.56
467.69	11901.62
467.87	12166.10
468.05	12367.39
468.23	12266.75
468.41	12435.27
468.60	12617.83
468.78	12512.50
468.96	12299.52
469.14	12641.23
469.32	12470.37
469.50	12503.14
469.69	12886.99
469.87	12865.92
470.05	12793.37
470.23	12844.86
470.41	13020.40
470.59	13238.07
470.77	13057.85
470.95	13221.69
471.14	13467.44
471.32	12989.97
471.50	13383.18
471.68	13525.96
471.86	13713.20
472.04	13568.09
472.22	13862.99
472.40	13710.86
472.58	13736.60
472.77	14108.75
472.95	13912.14
473.13	14548.77
473.31	13893.42
473.49	13930.87
473.67	13902.78
473.85	14279.61
474.03	14413.02
474.21	14356.85
474.39	14611.96
474.57	14874.10
474.75	14775.80
474.93	14799.21
475.12	14937.30
475.30	14773.46
475.48	14974.75
475.66	15169.01
475.84	15161.99
476.02	14939.64
476.20	15370.30
476.38	15484.98
476.56	15927.35
476.74	15910.96
476.92	15819.68
477.10	15534.14
477.28	15777.55
477.46	16037.35
477.64	16325.24
477.82	16308.85
478.00	17069.53
478.18	16875.26
478.36	16746.53
478.54	16903.35
478.72	16975.91
478.90	17312.94
479.08	17380.82
479.26	17589.13
479.44	17444.01
479.62	17806.80
479.80	17797.43
479.98	18031.49
480.16	18431.72
480.34	18239.79
480.52	18438.74
480.70	18644.71
480.88	18352.14
481.06	18504.28
481.24	18487.89
481.41	18888.12
481.59	19030.90
481.77	19117.50
481.95	19307.08
482.13	19637.09
482.31	19442.83
482.49	19969.45
482.67	20044.35
482.85	20292.44
483.03	20638.84
483.21	20603.74
483.39	20566.29
483.57	20631.82
483.74	20915.03
483.92	21067.16
484.10	20966.52
484.28	21439.31
484.46	21869.97
484.64	22317.01
484.82	22045.51
485.00	22230.41
485.18	22593.19
485.35	22939.59
485.53	22499.57
485.71	22768.73
485.89	23332.80
486.07	23318.76
486.25	22977.04
486.43	23227.48
486.61	23763.46
486.78	23929.64
486.96	24271.36
487.14	24348.59
487.32	24500.73
487.50	24716.06
487.68	24971.18
487.85	25357.36
488.03	25795.04
488.21	25610.14
488.39	25612.48
488.57	25762.28
488.75	25881.64
488.92	26143.78
489.10	26757.00
489.28	26466.78
489.46	27115.11
489.64	26981.70
489.81	27321.07
489.99	27002.76
490.17	27630.02
490.35	28070.04
490.53	27946.00
490.70	28292.40
490.88	27800.88
491.06	28676.24
491.24	28233.88
491.41	28774.55
491.59	28739.44
491.77	29460.32
491.95	29193.50
492.13	29811.40
492.30	29708.42
492.48	29603.10
492.66	29827.79
492.84	29907.37
493.01	30625.91
493.19	30466.75
493.37	30878.69
493.54	31079.97
493.72	31491.91
493.90	31065.93
494.08	31299.98
494.25	31728.30
494.43	31793.84
494.61	32208.11
494.79	32362.59
494.96	32158.96
495.14	32451.53
495.32	33029.64
495.49	32994.53
495.67	33031.98
495.85	33661.58
496.02	33359.66
496.20	33926.07
496.38	33387.74
496.55	34040.75
496.73	34653.97
496.91	34499.50
497.09	34569.71
497.26	35049.52
497.44	34621.20
497.62	35204.00
497.79	35407.62
497.97	35189.95
498.14	35702.53
498.32	35931.90
498.50	35978.72
498.67	36236.17
498.85	36215.11
499.03	36360.22
499.20	36313.41
499.38	36175.32
499.56	36634.06
499.73	37207.50
499.91	37399.42
500.08	36854.08
500.26	36987.49
500.44	37530.49
500.61	37596.03
500.79	37298.78
500.97	37495.38
501.14	37855.82
501.32	38209.25
501.49	38127.33
501.67	38176.48
501.84	38763.95
502.02	38497.13
502.20	38845.87
502.37	38953.54
502.55	39129.08
502.72	39075.24
502.90	39377.17
503.07	39257.81
503.25	39505.90
503.43	39599.52
503.60	39784.43
503.78	39833.58
503.95	40128.48
504.13	40240.83
504.30	40446.80
504.48	40048.91
504.65	40886.82
504.83	40718.30
505.01	40942.99
505.18	41390.03
505.36	41361.95
505.53	41146.62
505.71	41221.52
505.88	41596.00
506.06	41308.11
506.23	41600.68
506.41	41605.36
506.58	41598.34
506.76	41933.04
506.93	41804.31
507.11	42089.85
507.28	42344.97
507.46	42092.19
507.63	42834.14
507.81	42955.85
507.98	42597.75
508.16	43199.27
508.33	42660.94
508.50	42979.26
508.68	43328.00
508.85	43583.12
509.03	43732.91
509.20	43849.94
509.38	44264.21
509.55	44238.47
509.73	44140.16
509.90	44362.51
510.08	44339.11
510.25	44247.83
510.42	44610.61
510.60	44987.44
510.77	45031.91
510.95	45296.39
511.12	44741.68
511.30	44912.54
511.47	44931.26
511.64	44994.46
511.82	45752.79
511.99	45413.41
512.17	45949.40
512.34	45368.94
512.51	46143.66
512.69	45954.08
512.86	45830.03
513.04	46089.83
513.21	46300.48
513.38	46361.33
513.56	46623.47
513.73	46333.24
513.90	46417.50
514.08	46775.61
514.25	46803.69
514.43	46953.49
514.60	47175.84
514.77	46721.77
514.95	47503.51
515.12	46796.67
515.29	46876.25
515.47	47473.09
515.64	47751.61
515.81	47625.22
515.99	47943.53
516.16	48016.09
516.33	48093.33
516.51	48678.46
516.68	48002.05
516.85	48062.90
517.03	48652.72
517.20	48732.29
517.37	48172.91
517.54	48526.33
517.72	48746.34
517.89	48708.89
518.06	48287.59
518.24	49076.35
518.41	48999.12
518.58	49095.08
518.75	48650.38
518.93	49198.06
519.10	49177.00
519.27	49301.04
519.45	49792.56
519.62	49514.03
519.79	49755.11
519.96	49853.41
520.14	49586.59
520.31	49614.68
520.48	50127.25
520.65	50040.65
520.83	50162.36
521.00	50712.39
521.17	50457.27
521.34	50597.70
521.52	50536.85
521.69	50494.72
521.86	50642.17
522.03	50637.49
522.20	50988.57
522.38	51353.69
522.55	50873.88
522.72	50986.23
522.89	51353.69
523.07	51604.13
523.24	51236.67
523.41	51569.02
523.58	51077.51
523.75	51760.95
523.92	51466.04
524.10	51690.73
524.27	51889.68
524.44	51739.88
524.61	51730.52
524.78	51784.35
524.96	52020.75
525.13	51983.30
525.30	52149.48
525.47	52154.16
525.64	52062.88
525.81	52320.34
525.98	52128.41
526.16	52287.57
526.33	52285.23
526.50	52683.12
526.67	52376.51
526.84	52837.59
527.01	52736.95
527.18	52589.50
527.36	53008.45
527.53	52856.32
527.70	53010.79
527.87	52994.41
528.04	53038.88
528.21	53139.52
528.38	52942.92
528.55	53329.11
528.72	53144.20
528.89	53294.00
529.07	53073.99
529.24	53001.43
529.41	53308.04
529.58	53471.88
529.75	53389.96
529.92	53350.17
530.09	53329.11
530.26	53719.98
530.43	53694.23
530.60	53401.66
530.77	53729.34
530.94	54033.61
531.11	53820.62
531.28	54108.50
531.46	54181.06
531.63	53818.28
531.80	53900.20
531.97	54108.50
532.14	54426.82
532.31	54337.88
532.48	54504.06
532.65	54728.75
532.82	54354.26
532.99	54230.21
533.16	54562.57
533.33	54504.06
533.50	54588.31
533.67	54672.57
533.84	54342.56
534.01	54703.00
534.18	54752.15
534.35	55056.42
534.52	54876.20
534.69	54667.89
534.86	55014.29
535.03	55042.38
535.20	54749.81
535.37	55229.62
535.54	55161.75
535.71	55159.41
535.88	55138.34
536.05	55304.52
536.22	55187.49
536.38	55454.31
536.55	55552.62
536.72	55442.61
536.89	55241.32
537.06	55241.32
537.23	55543.25
537.40	55482.40
537.57	55529.21
537.74	55674.32
537.91	55812.41
538.08	55800.71
538.25	55531.55
538.42	55707.09
538.59	55889.65
538.75	55667.30
538.92	55887.31
539.09	56114.34
539.26	55980.93
539.43	55913.06
539.60	55964.55
539.77	56250.09
539.94	56395.21
540.11	56011.36
540.28	56229.03
540.44	56353.08
540.61	56378.82
540.78	56088.60
540.95	56165.84
541.12	56149.45
541.29	56500.53
541.46	56472.45
541.62	56594.15
541.79	56409.25
541.96	56395.21
542.13	56271.16
542.30	56589.47
542.47	56601.18
542.63	56704.16
542.80	56603.52
542.97	57069.28
543.14	57179.29
543.31	56870.34
543.48	57162.90
543.64	57190.99
543.81	57261.21
543.98	57282.27
544.15	57055.24
544.32	57347.81
544.48	57481.22
544.65	57125.46
544.82	57221.42
544.99	57279.93
545.16	57240.14
545.32	57207.37
545.49	57478.88
545.66	57741.02
545.83	57504.62
546.00	57319.72
546.16	57464.83
546.33	57443.77
546.50	57415.68
546.67	57546.75
546.83	57312.70
547.00	57677.82
547.17	57673.14
547.34	57579.52
547.50	57902.51
547.67	58106.14
547.84	57867.40
548.00	58106.14
548.17	58056.99
548.34	58003.16
548.51	58136.57
548.67	58176.36
548.84	57867.40
549.01	58127.20
549.18	57829.96
549.34	58148.27
549.51	57965.71
549.68	58075.71
549.84	58106.14
550.01	58136.57
550.18	58197.42
550.34	58113.16
550.51	58220.83
550.68	58255.93
550.84	57954.00
551.01	58410.41
551.18	58361.26
551.34	58379.98
551.51	58447.86
551.68	58660.85
551.84	58492.33
552.01	58253.59
552.18	58478.28
552.34	58300.40
552.51	58391.68
552.68	58363.60
552.84	58590.63
553.01	58623.40
553.18	58714.68
553.34	58745.11
553.51	58583.61
553.67	58695.95
553.84	58724.04
554.01	58702.98
554.17	58756.81
554.34	58838.73
554.51	58834.05
554.67	58752.13
554.84	58880.86
555.00	58653.82
555.17	58693.61
555.33	58939.37
555.50	58911.28
555.67	58705.32
555.83	58915.96
556.00	58941.71
556.16	59257.68
556.33	58979.16
556.50	59063.42
556.66	59194.49
556.83	59023.63
556.99	59215.55
557.16	59421.52
557.32	59442.59
557.49	59430.88
557.65	59072.78
557.82	59128.95
557.98	59168.74
558.15	59234.28
558.32	59309.18
558.48	59388.75
558.65	59381.73
558.81	59372.37
558.98	59208.53
559.14	59440.24
559.31	59480.03
559.47	59625.15
559.64	59634.51
559.80	59444.93
559.97	59643.87
560.13	59395.77
560.30	59540.89
560.46	59660.26
560.63	59597.06
560.79	59433.22
560.96	59793.67
561.12	59718.77
561.29	59707.07
561.45	59601.74
561.61	59568.97
561.78	59620.47
561.94	59627.49
562.11	59671.96
562.27	59739.83
562.44	59723.45
562.60	59765.58
562.77	59688.34
562.93	59463.65
563.10	59852.18
563.26	59437.90
563.42	59903.67
563.59	60065.17
563.75	59866.22
563.92	59891.97
564.08	59578.34
564.24	60009.00
564.41	59887.29
564.57	60011.34
564.74	59959.84
564.90	60123.68
565.07	60046.44
565.23	59793.67
565.39	59898.99
565.56	59917.71
565.72	60151.77
565.88	60051.12
566.05	59796.01
566.21	60093.25
566.38	60009.00
566.54	59952.82
566.70	60158.79
566.87	60140.07
567.03	59987.93
567.19	60303.90
567.36	60207.94
567.52	60079.21
567.68	60243.05
567.85	60119.00
568.01	60285.18
568.17	60147.09
568.34	60313.26
568.50	60250.07
568.66	60189.22
568.83	60193.90
568.99	60051.12
569.15	60245.39
569.32	60217.30
569.48	60224.32
569.64	60423.27
569.81	60357.74
569.97	60275.82
570.13	60439.65
570.30	60109.64
570.46	60336.67
570.62	60392.84
570.78	60186.88
570.95	60395.18
571.11	60458.38
571.27	60339.01
571.43	60381.14
571.60	60383.48
571.76	60355.39
571.92	60439.65
572.09	60362.42
572.25	60135.38
572.41	60451.36
572.57	60334.33
572.74	60683.07
572.90	60303.90
573.06	60271.14
573.22	60491.15
573.38	60587.11
573.55	60523.91
573.71	60624.56
573.87	60554.34
574.03	60385.82
574.20	60718.18
574.36	60308.58
574.52	60683.07
574.68	60523.91
574.84	60657.32
575.01	60673.71
575.17	60743.92
575.33	60491.15
575.49	60292.20
575.65	60559.02
575.82	60605.83
575.98	60708.82
576.14	60608.17
576.30	60739.24
576.46	60544.98
576.62	60617.53
576.79	60587.11
576.95	60460.72
577.11	60711.16
577.27	60708.82
577.43	60601.15
577.59	60594.13
577.75	60638.60
577.92	60470.08
578.08	60603.49
578.24	60889.04
578.40	60830.52
578.56	60942.87
578.72	60603.49
578.88	60741.58
579.04	61003.72
579.21	60776.69
579.37	60757.97
579.53	60788.39
579.69	60479.44
579.85	60566.04
580.01	60559.02
580.17	60509.87
580.33	60779.03
580.49	60851.59
580.65	60832.86
580.82	60657.32
580.98	60610.51
581.14	60563.70
581.30	60678.39
581.46	60521.57
581.62	60891.38
581.78	60491.15
581.94	60732.22
582.10	60741.58
582.26	60755.63
582.42	60584.77
582.58	60666.69
582.74	60495.83
582.90	60832.86
583.06	60779.03
583.22	60615.19
583.38	60697.11
583.54	60676.05
583.70	60720.52
583.86	60970.96
584.02	60828.18
584.18	60903.08
584.34	60732.22
584.50	60977.98
584.66	60779.03
584.82	60640.94
584.98	60807.12
585.14	60753.29
585.30	60755.63
585.46	60809.46
585.62	60797.76
585.78	61050.53
585.94	60683.07
586.10	60898.40
586.26	60860.95
586.42	60919.46
586.58	61116.07
586.74	60870.31
586.90	60879.67
587.06	60912.44
587.22	61036.49
587.38	60823.50
587.54	61015.43
587.70	61010.74
587.86	60982.66
588.02	60699.45
588.18	61078.62
588.34	60872.65
588.49	61006.06
