SpectraSuite Data File
++++++++++++++++++++++++++++++++++++
Date: Fri Oct 25 10:47:11 EDT 2013
User: price-jones
Dark Spectrum Present: No
Reference Spectrum Present: No
Number of Sampled Component Spectra: 1
Spectrometers: USB2+H05261
Integration Time (usec): 100000 (USB2+H05261)
Spectra Averaged: 1 (USB2+H05261)
Boxcar Smoothing: 0 (USB2+H05261)
Correct for Electrical Dark: No (USB2+H05261)
Strobe/Lamp Enabled: No (USB2+H05261)
Correct for Detector Non-linearity: No (USB2+H05261)
Correct for Stray Light: No (USB2+H05261)
Number of Pixels in Processed Spectrum: 2048
>>>>>Begin Processed Spectral Data<<<<<
365.73	159.16
365.92	159.16
366.12	159.16
366.32	39.79
366.52	86.60
366.72	28.09
366.91	0.00
367.11	30.43
367.31	16.38
367.51	7.02
367.70	0.00
367.90	53.83
368.10	56.17
368.30	0.00
368.49	9.36
368.69	121.71
368.89	98.30
369.09	35.11
369.28	84.26
369.48	88.94
369.68	67.88
369.87	140.43
370.07	95.96
370.27	142.77
370.47	154.48
370.66	341.72
370.86	315.97
371.06	435.34
371.25	447.04
371.45	409.59
371.65	463.43
371.84	463.43
372.04	437.68
372.24	430.66
372.44	472.79
372.63	454.06
372.83	594.50
373.03	454.06
373.22	479.81
373.42	475.13
373.62	461.09
373.81	526.62
374.01	580.45
374.21	524.28
374.40	514.92
374.60	543.00
374.79	566.41
374.99	620.24
375.19	596.84
375.38	592.16
375.58	545.34
375.78	599.18
375.97	589.82
376.17	589.82
376.37	552.37
376.56	613.22
376.76	528.96
376.95	533.64
377.15	486.83
377.35	585.13
377.54	674.07
377.74	582.79
377.93	622.58
378.13	585.13
378.33	650.67
378.52	650.67
378.72	566.41
378.91	580.45
379.11	613.22
379.31	550.03
379.50	578.11
379.70	573.43
379.89	678.76
380.09	732.59
380.28	578.11
380.48	662.37
380.68	671.73
380.87	552.37
381.07	695.14
381.26	716.20
381.46	681.10
381.65	688.12
381.85	617.90
382.04	699.82
382.24	648.33
382.43	704.50
382.63	713.86
382.83	739.61
383.02	774.72
383.22	711.52
383.41	704.50
383.61	732.59
383.80	688.12
384.00	774.72
384.19	688.12
384.39	692.80
384.58	737.27
384.78	737.27
384.97	784.08
385.17	739.61
385.36	704.50
385.56	781.74
385.75	758.33
385.95	753.65
386.14	849.61
386.34	723.23
386.53	763.01
386.72	725.57
386.92	814.51
387.11	866.00
387.31	788.76
387.50	753.65
387.70	781.74
387.89	807.48
388.09	737.27
388.28	793.44
388.48	903.45
388.67	814.51
388.86	805.14
389.06	800.46
389.25	898.77
389.45	868.34
389.64	901.11
389.84	922.17
390.03	903.45
390.22	983.02
390.42	950.26
390.61	931.53
390.81	903.45
391.00	978.34
391.19	957.28
391.39	866.00
391.58	940.90
391.78	912.81
391.97	971.32
392.16	997.07
392.36	1013.45
392.55	1032.18
392.75	1034.52
392.94	966.64
393.13	987.71
393.33	945.58
393.52	973.66
393.71	1039.20
393.91	1109.41
394.10	987.71
394.29	978.34
394.49	1064.94
394.68	1055.58
394.88	1111.75
395.07	1156.22
395.26	1086.01
395.46	1029.84
395.65	1181.97
395.84	1078.99
396.04	1188.99
396.23	1149.20
396.42	1142.18
396.62	1135.16
396.81	1128.14
397.00	1064.94
397.19	1137.50
397.39	1200.69
397.58	1177.29
397.77	1224.10
397.97	1139.84
398.16	1226.44
398.35	1263.89
398.55	1228.78
398.74	1308.36
398.93	1282.61
399.12	1245.16
399.32	1233.46
399.51	1329.42
399.70	1387.94
399.90	1455.81
400.09	1350.49
400.28	1455.81
400.47	1378.58
400.67	1327.08
400.86	1359.85
401.05	1383.26
401.24	1406.66
401.44	1469.86
401.63	1416.02
401.82	1565.82
402.01	1315.38
402.21	1526.03
402.40	1530.71
402.59	1451.13
402.78	1493.26
402.97	1593.90
403.17	1540.07
403.36	1619.65
403.55	1556.46
403.74	1659.44
403.93	1605.61
404.13	1678.16
404.32	1633.69
404.51	1687.53
404.70	1675.82
404.89	1528.37
405.09	1664.12
405.28	1699.23
405.47	1650.08
405.66	1724.97
405.85	1703.91
406.05	1706.25
406.24	1708.59
406.43	1757.74
406.62	1760.08
406.81	1792.85
407.00	1757.74
407.20	1795.19
407.39	1818.60
407.58	1792.85
407.77	1806.89
407.96	1966.05
408.15	1996.48
408.34	1923.92
408.54	1879.45
408.73	1937.96
408.92	2038.61
409.11	1907.54
409.30	1937.96
409.49	2045.63
409.68	2001.16
409.87	1959.03
410.07	2092.44
410.26	2097.12
410.45	1996.48
410.64	2188.40
410.83	2183.72
411.02	2129.89
411.21	2265.64
411.40	2202.44
411.59	2211.81
411.78	2366.28
411.98	2106.48
412.17	2284.36
412.36	2209.47
412.55	2328.83
412.74	2296.07
412.93	2277.34
413.12	2338.20
413.31	2511.39
413.50	2443.52
413.69	2520.76
413.88	2434.16
414.07	2562.89
414.26	2534.80
414.45	2558.21
414.64	2590.97
414.83	2628.42
415.02	2628.42
415.22	2672.89
415.41	2743.11
415.60	2607.36
415.79	2715.02
415.98	2719.70
416.17	2799.28
416.36	2808.64
416.55	2794.60
416.74	2944.39
416.93	2850.77
417.12	2918.65
417.31	2890.56
417.50	2869.50
417.69	3007.59
417.88	3014.61
418.07	3061.42
418.26	2932.69
418.45	2998.23
418.64	3023.97
418.83	3183.13
419.02	3215.90
419.21	3091.85
419.39	3208.87
419.58	2963.12
419.77	2995.89
419.96	3225.26
420.15	3232.28
420.34	3077.80
420.53	3304.84
420.72	3255.69
420.91	3279.09
421.10	3379.73
421.29	3421.86
421.48	3283.77
421.67	3281.43
421.86	3438.25
422.05	3297.81
422.24	3314.20
422.43	3471.01
422.61	3398.46
422.80	3356.33
422.99	3522.51
423.18	3302.50
423.37	3571.66
423.56	3494.42
423.75	3454.63
423.94	3405.48
424.13	3290.79
424.32	3356.33
424.50	3543.57
424.69	3475.70
424.88	3517.83
425.07	3431.23
425.26	3456.97
425.45	3438.25
425.64	3510.80
425.83	3522.51
426.01	3545.91
426.20	3599.74
426.39	3510.80
426.58	3557.61
426.77	3485.06
426.96	3538.89
427.15	3618.47
427.33	3595.06
427.52	3588.04
427.71	3597.40
427.90	3590.38
428.09	3702.73
428.28	3782.31
428.46	3653.58
428.65	3733.15
428.84	3747.20
429.03	3812.73
429.22	3665.28
429.40	3716.77
429.59	3770.60
429.78	3548.25
429.97	3648.90
430.16	3623.15
430.34	3810.39
430.53	3838.48
430.72	3831.46
430.91	3606.77
431.10	3922.74
431.28	3904.01
431.47	4170.83
431.66	4133.39
431.85	4051.47
432.03	3995.29
432.22	4007.00
432.41	4098.28
432.60	4107.64
432.79	4224.67
432.97	4222.33
433.16	4215.30
433.35	4105.30
433.54	4086.58
433.72	4121.68
433.91	4194.24
434.10	4245.73
434.28	4161.47
434.47	4196.58
434.66	4262.12
434.85	4369.78
435.03	4301.90
435.22	4353.40
435.41	4622.56
435.59	4379.14
435.78	4489.15
435.97	4561.70
436.16	4477.44
436.34	4461.06
436.53	4599.15
436.72	4674.05
436.90	4449.36
437.09	4496.17
437.28	4571.07
437.46	4667.03
437.65	4400.21
437.84	4643.62
438.02	4692.77
438.21	4755.97
438.40	4580.43
438.58	4690.43
438.77	4856.61
438.96	4641.28
439.14	4882.36
439.33	4865.97
439.52	4908.10
439.70	4926.83
439.89	5015.77
440.08	4950.23
440.26	4908.10
440.45	5137.48
440.63	5128.11
440.82	5074.28
441.01	5076.62
441.19	5273.23
441.38	5254.50
441.57	5313.02
441.75	5277.91
441.94	5486.22
442.12	5537.71
442.31	5654.73
442.50	5598.56
442.68	5453.45
442.87	5507.28
443.05	5481.53
443.24	5710.91
443.43	5631.33
443.61	5668.78
443.80	5640.69
443.98	5575.16
444.17	5268.55
444.35	5605.58
444.54	5706.23
444.73	5767.08
444.91	5617.29
445.10	5638.35
445.28	5664.10
445.47	5645.37
445.65	5781.12
445.84	5795.17
446.02	5753.04
446.21	5813.89
446.39	5654.73
446.58	5879.43
446.77	5778.78
446.95	5858.36
447.14	5888.79
447.32	5916.87
447.51	5834.96
447.69	5832.62
447.88	5949.64
448.06	5846.66
448.25	5865.38
448.43	5879.43
448.62	5902.83
448.80	5865.38
448.99	6218.80
449.17	5930.92
449.36	5928.58
449.54	6003.47
449.73	6200.08
449.91	6235.19
450.10	6148.59
450.28	6457.54
450.46	6239.87
450.65	6237.53
450.83	6204.76
451.02	6359.24
451.20	6368.60
451.39	6249.23
451.57	6239.87
451.76	6183.70
451.94	6270.30
452.13	6195.40
452.31	6443.49
452.49	6216.46
452.68	6445.84
452.86	6380.30
453.05	6282.00
453.23	6490.31
453.42	6361.58
453.60	6403.71
453.78	6658.82
453.97	6452.86
454.15	6459.88
454.34	6324.13
454.52	6775.85
454.70	6670.53
454.89	6691.59
455.07	6696.27
455.26	6904.58
455.44	6595.63
455.62	6665.85
455.81	6885.86
455.99	6715.00
456.17	6654.14
456.36	7152.68
456.54	6993.52
456.73	6864.79
456.91	7103.53
457.09	7136.29
457.28	7098.84
457.46	7211.19
457.64	7358.64
457.83	6977.14
458.01	7159.70
458.19	7176.08
458.38	7255.66
458.56	7328.22
458.74	7108.21
458.93	7246.30
459.11	7332.90
459.29	7372.69
459.48	7452.27
459.66	7417.16
459.84	7363.33
460.03	7508.44
460.21	7637.17
460.39	7627.81
460.57	7269.70
460.76	7379.71
460.94	7475.67
461.12	7751.85
461.31	7616.10
461.49	7723.77
461.67	7620.78
461.85	7798.66
462.04	7728.45
462.22	8100.59
462.40	7815.05
462.59	7819.73
462.77	7667.60
462.95	7896.97
463.13	7936.76
463.32	7836.11
463.50	7894.63
463.68	7791.64
463.86	8063.15
464.05	8102.93
464.23	7801.01
464.41	7887.61
464.59	7983.57
464.78	8102.93
464.96	7918.03
465.14	7943.78
465.32	8173.15
465.50	8210.60
465.69	8465.72
465.87	8147.40
466.05	8070.17
466.23	8301.88
466.41	8245.71
466.60	8432.95
466.78	8271.45
466.96	8009.31
467.14	8271.45
467.32	8215.28
467.51	8442.31
467.69	8304.22
467.87	8458.70
468.05	8615.51
468.23	8465.72
468.41	8547.64
468.60	8531.25
468.78	8580.40
468.96	8355.71
469.14	8578.06
469.32	8629.56
469.50	8278.47
469.69	8781.69
469.87	8809.78
470.05	8650.62
470.23	8765.31
470.41	8692.75
470.59	9074.26
470.77	8793.39
470.95	9015.74
471.14	9025.11
471.32	8795.73
471.50	9205.33
471.68	9151.49
471.86	9142.13
472.04	9263.84
472.22	9277.88
472.40	9289.59
472.58	9327.03
472.77	9348.10
472.95	9441.72
473.13	9673.43
473.31	9245.12
473.49	9310.65
473.67	9607.90
473.85	9617.26
474.03	9771.74
474.21	9799.82
474.39	9844.29
474.57	9741.31
474.75	9947.28
474.93	9825.57
475.12	9919.19
475.30	10183.67
475.48	9891.10
475.66	10190.69
475.84	10113.45
476.02	10319.42
476.20	10167.29
476.38	10436.45
476.56	10555.82
476.74	10497.30
476.92	10619.01
477.10	10654.12
477.28	10745.40
477.46	10897.53
477.64	10827.32
477.82	11126.91
478.00	11133.93
478.18	11124.57
478.36	11047.33
478.54	11185.42
478.72	11197.12
478.90	11470.97
479.08	11576.29
479.26	11693.32
479.44	11852.47
479.62	11838.43
479.80	12006.95
479.98	12002.27
480.16	12091.21
480.34	12121.63
480.52	12177.81
480.70	12301.86
480.88	12121.63
481.06	12418.88
481.24	12194.19
481.41	12592.08
481.59	12769.96
481.77	12802.73
481.95	12886.99
482.13	13104.66
482.31	13144.45
482.49	13289.56
482.67	13364.46
482.85	13247.43
483.03	13654.69
483.21	13645.32
483.39	13839.59
483.57	13820.86
483.74	13926.19
483.92	14115.77
484.10	14075.98
484.28	14516.00
484.46	14211.73
484.64	14616.65
484.82	14375.57
485.00	14590.90
485.18	14890.49
485.35	15049.64
485.53	14939.64
485.71	14958.36
485.89	15096.46
486.07	15171.35
486.25	15295.40
486.43	15311.78
486.61	15452.22
486.78	15784.57
486.96	15611.37
487.14	16208.21
487.32	15985.86
487.50	16154.38
487.68	16086.50
487.85	16748.87
488.03	16631.85
488.21	16758.24
488.39	16610.78
488.57	16889.31
488.75	16996.97
488.92	17326.99
489.10	17490.82
489.28	17547.00
489.46	17600.83
489.64	17511.89
489.81	18008.08
489.99	18010.42
490.17	18265.54
490.35	18532.36
490.53	18171.92
490.70	18712.58
490.88	18375.55
491.06	18733.65
491.24	18766.42
491.41	18483.21
491.59	19089.41
491.77	19218.14
491.95	18740.67
492.13	19087.07
492.30	19601.99
492.48	19473.26
492.66	19763.48
492.84	19545.81
493.01	20006.90
493.19	19936.68
493.37	20245.63
493.54	20400.11
493.72	20664.59
493.90	20673.95
494.08	20533.52
494.25	21083.55
494.43	21064.82
494.61	20793.32
494.79	21008.65
494.96	21006.31
495.14	21500.16
495.32	21415.90
495.49	21418.24
495.67	21619.53
495.85	21846.56
496.02	21738.90
496.20	22324.03
496.38	22279.56
496.55	22422.33
496.73	22888.10
496.91	22410.63
497.09	22239.77
497.26	22607.23
497.44	22621.28
497.62	22773.41
497.79	23040.23
497.97	22707.88
498.14	22958.31
498.32	23213.43
498.50	23110.45
498.67	23599.62
498.85	23608.98
499.03	23639.41
499.20	23901.55
499.38	23798.57
499.56	24114.54
499.73	24278.38
499.91	24144.97
500.08	24079.43
500.26	24191.78
500.44	24713.72
500.61	24463.28
500.79	24081.77
500.97	24704.35
501.14	24748.82
501.32	24912.66
501.49	24893.94
501.67	24837.76
501.84	25310.55
502.02	25130.33
502.20	25570.35
502.37	25514.18
502.55	25434.60
502.72	25565.67
502.90	25514.18
503.07	25600.78
503.25	25362.04
503.43	25565.67
503.60	25797.38
503.78	25642.91
503.95	26204.64
504.13	25984.63
504.30	26136.76
504.48	26132.08
504.65	26169.53
504.83	26768.71
505.01	26499.55
505.18	26611.89
505.36	27033.19
505.53	26775.73
505.71	26953.61
505.88	26960.63
506.06	27126.81
506.23	27180.64
506.41	26925.52
506.58	27117.45
506.76	27407.67
506.93	27559.81
507.11	27131.49
507.28	27328.10
507.46	27531.72
507.63	27679.18
507.81	28247.93
507.98	27796.20
508.16	28088.77
508.33	27889.82
508.50	28025.57
508.68	28416.44
508.85	28418.78
509.03	28643.48
509.20	28416.44
509.38	28907.96
509.55	28793.27
509.73	28547.51
509.90	28861.15
510.08	28889.23
510.25	29003.92
510.42	29280.10
510.60	29273.08
510.77	28943.06
510.95	29383.09
511.12	29226.27
511.30	29359.68
511.47	29614.80
511.64	29855.87
511.82	29734.17
511.99	29479.05
512.17	29504.79
512.34	29703.74
512.51	30024.39
512.69	29802.04
512.86	30260.79
513.04	30504.20
513.21	30445.69
513.38	30237.38
513.56	30492.50
513.73	30110.99
513.90	30417.60
514.08	30618.89
514.25	30368.45
514.43	30558.03
514.60	30508.88
514.77	30682.08
514.95	30864.64
515.12	30785.07
515.29	31377.22
515.47	30976.99
515.64	31351.48
515.81	31070.61
515.99	31147.85
516.16	31557.44
516.33	31374.88
516.51	31580.85
516.68	31426.37
516.85	31236.79
517.03	31583.19
517.20	31618.30
517.37	31880.44
517.54	31770.43
517.72	31721.28
517.89	31484.89
518.06	31742.35
518.24	31971.72
518.41	31835.97
518.58	31798.52
518.75	32194.07
518.93	32446.85
519.10	32275.99
519.27	32416.42
519.45	32360.25
519.62	32437.48
519.79	32554.51
519.96	32727.71
520.14	33046.02
520.31	32582.60
520.48	33226.24
520.65	32870.48
520.83	33495.41
521.00	33380.72
521.17	33158.37
521.34	33589.03
521.52	33256.67
521.69	33219.22
521.86	33600.73
522.03	33663.93
522.20	34302.89
522.38	33848.83
522.55	34288.85
522.72	34092.24
522.89	33790.31
523.07	34672.70
523.24	34096.92
523.41	33832.44
523.58	34134.37
523.75	34291.19
523.92	34305.23
524.10	34525.24
524.27	34724.19
524.44	34614.18
524.61	34316.93
524.78	34569.71
524.96	34843.56
525.13	34789.72
525.30	35037.82
525.47	35051.86
525.64	34948.88
525.81	34892.71
525.98	35117.40
526.16	34565.03
526.33	34866.96
526.50	35353.79
526.67	35768.07
526.84	35145.48
527.01	35126.76
527.18	35452.09
527.36	35718.92
527.53	36053.61
527.70	35824.24
527.87	36156.60
528.04	35756.36
528.21	36374.27
528.38	35637.00
528.55	36472.57
528.72	36210.43
528.89	36156.60
529.07	36247.88
529.24	36472.57
529.41	35828.92
529.58	36175.32
529.75	36271.28
529.92	36465.55
530.09	36517.04
530.26	36271.28
530.43	36669.17
530.60	36416.40
530.77	36453.84
530.94	36519.38
531.11	36713.64
531.28	36676.19
531.46	36964.08
531.63	36732.37
531.80	36842.37
531.97	36800.24
532.14	36739.39
532.31	37036.64
532.48	37156.00
532.65	37441.55
532.82	37476.66
532.99	37464.96
533.16	37179.41
533.33	36818.97
533.50	37462.61
533.67	37841.78
533.84	37820.72
534.01	37193.45
534.18	37270.69
534.35	37982.21
534.52	37443.89
534.69	38127.33
534.86	38127.33
535.03	38003.28
535.20	38230.31
535.37	38314.57
535.54	38490.11
535.71	37684.97
535.88	37792.63
536.05	38279.46
536.22	38384.79
536.38	38340.32
536.55	38038.39
536.72	38218.61
536.89	38305.21
537.06	38202.22
537.23	38373.08
537.40	38593.09
537.57	38389.47
537.74	38543.94
537.91	38665.65
538.08	38593.09
538.25	38445.64
538.42	38440.96
538.59	38955.88
538.75	38974.60
538.92	38572.03
539.09	38726.50
539.26	38763.95
539.43	38803.74
539.60	38890.34
539.77	39026.09
539.94	39035.45
540.11	38998.01
540.28	39295.25
540.44	39054.18
540.61	39000.35
540.78	39068.22
540.95	39318.66
541.12	38803.74
541.29	39482.50
541.46	38892.68
541.62	39662.72
541.79	39723.57
541.96	39143.12
542.13	39512.92
542.30	39557.39
542.47	39473.13
542.63	39632.29
542.80	39697.83
542.97	40392.97
543.14	39845.28
543.31	40027.84
543.48	40371.90
543.64	40699.58
543.81	40238.49
543.98	40315.73
544.15	40046.57
544.32	40252.53
544.48	40863.41
544.65	40236.15
544.82	40395.31
544.99	40603.61
545.16	40339.13
545.32	40163.59
545.49	40882.14
545.66	40720.64
545.83	40610.64
546.00	40444.46
546.16	41015.55
546.33	40535.74
546.50	40282.96
546.67	41064.70
546.83	40559.14
547.00	40781.49
547.17	40917.25
547.34	40664.47
547.50	41123.21
547.67	41319.82
547.84	41319.82
548.00	41256.62
548.17	41399.40
548.34	41212.15
548.51	41429.82
548.67	41687.28
548.84	41488.34
549.01	41127.89
549.18	41249.60
549.34	41116.19
549.51	41813.67
549.68	41464.93
549.84	41769.20
550.01	41689.62
550.18	41385.35
550.34	41539.83
550.51	41490.68
550.68	41610.04
550.84	41462.59
551.01	41876.86
551.18	41621.75
551.34	41766.86
551.51	41874.52
551.68	41886.23
551.84	41825.37
552.01	42014.96
552.18	41937.72
552.34	41504.72
552.51	42064.11
552.68	41989.21
552.84	42513.49
553.01	42445.62
553.18	42075.81
553.34	42061.77
553.51	42136.66
553.67	42501.79
553.84	42705.41
554.01	42501.79
554.17	42429.23
554.34	42974.58
554.51	42295.82
554.67	42309.86
554.84	42424.55
555.00	42373.06
555.17	42487.74
555.33	42171.77
555.50	42649.24
555.67	42623.50
555.83	42574.34
556.00	42616.47
556.16	42789.67
556.33	42829.46
556.50	42918.40
556.66	42525.19
556.83	42773.29
556.99	42836.48
557.16	42560.30
557.32	42766.27
557.49	42766.27
557.65	42878.61
557.82	43096.28
557.98	43061.18
558.15	42712.44
558.32	42990.96
558.48	43173.52
558.65	43210.97
558.81	42831.80
558.98	43070.54
559.14	42857.55
559.31	42969.90
559.47	43023.73
559.64	43402.89
559.80	43430.98
559.97	43262.46
560.13	42913.72
560.30	43171.18
560.46	43285.87
560.63	42892.66
560.79	43278.85
560.96	43510.56
561.12	43215.65
561.29	43299.91
561.45	43501.20
561.61	43330.34
561.78	43208.63
561.94	43206.29
562.11	43384.17
562.27	43243.74
562.44	43206.29
562.60	43379.49
562.77	43643.97
562.93	43501.20
563.10	43540.99
563.26	43082.24
563.42	43676.74
563.59	43306.93
563.75	43342.04
563.92	43613.54
564.08	43543.33
564.24	43283.53
564.41	43744.61
564.57	43791.42
564.74	43611.20
564.90	43522.26
565.07	44074.63
565.23	43611.20
565.39	43358.42
565.56	43594.82
565.72	43697.80
565.88	43751.63
566.05	43379.49
566.21	43737.59
566.38	43915.47
566.54	43604.18
566.70	44191.65
566.87	44055.90
567.03	43697.80
567.19	44048.88
567.36	44215.06
567.52	44282.94
567.68	44072.29
567.85	43810.15
568.01	43826.53
568.17	43618.22
568.34	43971.64
568.50	43831.21
568.66	44177.61
568.83	44189.31
568.99	44079.31
569.15	44280.60
569.32	43709.50
569.48	43779.72
569.64	44341.45
569.81	43732.91
569.97	44367.20
570.13	44278.25
570.30	44058.24
570.46	43569.07
570.62	43915.47
570.78	43732.91
570.95	43917.81
571.11	44252.51
571.27	43957.60
571.43	44362.51
571.60	44009.09
571.76	44273.57
571.92	44208.04
572.09	44189.31
572.25	43723.55
572.41	44034.84
572.57	44161.23
572.74	44474.86
572.90	44655.08
573.06	44140.16
573.22	43878.02
573.38	44252.51
573.55	43800.79
573.71	44402.30
573.87	43784.40
574.03	44016.11
574.20	43995.05
574.36	43856.96
574.52	44650.40
574.68	44470.18
574.84	44481.88
575.01	44355.49
575.17	44622.31
575.33	44568.48
575.49	44264.21
575.65	44816.58
575.82	44287.62
575.98	44292.30
576.14	45027.23
576.30	44519.33
576.46	44247.83
576.62	43962.28
576.79	44020.80
576.95	43847.60
577.11	44488.90
577.27	44261.87
577.43	44924.24
577.59	44285.28
577.75	44437.41
577.92	43938.88
578.08	44261.87
578.24	43863.98
578.40	44514.65
578.56	44027.82
578.72	44304.00
578.88	44432.73
579.04	44460.82
579.21	44500.61
579.37	43959.94
579.53	44161.23
579.69	44048.88
579.85	44060.58
580.01	44563.80
580.17	44949.99
580.33	44559.12
580.49	44549.76
580.65	44158.89
580.82	44697.21
580.98	44189.31
581.14	43988.03
581.30	44694.87
581.46	44289.96
581.62	44325.07
581.78	44334.43
581.94	44821.26
582.10	44161.23
582.26	44596.57
582.42	44053.56
582.58	44287.62
582.74	44432.73
582.90	44065.27
583.06	44332.09
583.22	44470.18
583.38	44758.06
583.54	44444.43
583.70	44760.40
583.86	44421.03
584.02	44231.44
584.18	44570.82
584.34	44741.68
584.50	44481.88
584.66	44535.71
584.82	44051.22
584.98	44973.39
585.14	44577.84
585.30	44189.31
585.46	44903.18
585.62	44369.54
585.78	44612.95
585.94	43997.39
586.10	44409.32
586.26	43896.75
586.42	44102.71
586.58	44488.90
586.74	44509.97
586.90	44741.68
587.06	44416.35
587.22	44884.45
587.38	44311.02
587.54	44715.93
587.70	45055.31
587.86	44624.65
588.02	44584.86
588.18	44533.37
588.34	44629.34
588.49	44151.87
588.65	44137.82
588.81	44453.79
588.97	44088.67
589.13	44032.50
589.29	44624.65
589.45	44112.08
589.61	44172.93
589.77	45102.12
589.93	44545.08
590.08	44706.57
590.24	44486.56
590.40	44875.09
