SpectraSuite Data File
++++++++++++++++++++++++++++++++++++
Date: Fri Oct 25 11:34:36 EDT 2013
User: price-jones
Dark Spectrum Present: No
Reference Spectrum Present: No
Number of Sampled Component Spectra: 1
Spectrometers: USB2+H05261
Integration Time (usec): 100000 (USB2+H05261)
Spectra Averaged: 1 (USB2+H05261)
Boxcar Smoothing: 0 (USB2+H05261)
Correct for Electrical Dark: No (USB2+H05261)
Strobe/Lamp Enabled: No (USB2+H05261)
Correct for Detector Non-linearity: No (USB2+H05261)
Correct for Stray Light: No (USB2+H05261)
Number of Pixels in Processed Spectrum: 2048
>>>>>Begin Processed Spectral Data<<<<<
365.73	278.52
365.92	278.52
366.12	278.52
366.32	159.16
366.52	128.73
366.72	234.05
366.91	203.63
367.11	196.60
367.31	163.84
367.51	222.35
367.70	184.90
367.90	283.20
368.10	180.22
368.30	222.35
368.49	154.48
368.69	180.22
368.89	194.26
369.09	173.20
369.28	208.31
369.48	208.31
369.68	201.29
369.87	217.67
370.07	255.12
370.27	330.02
370.47	353.42
370.66	423.64
370.86	503.22
371.06	545.34
371.25	540.66
371.45	568.75
371.65	479.81
371.84	517.26
372.04	510.24
372.24	571.09
372.44	512.58
372.63	589.82
372.83	650.67
373.03	493.85
373.22	559.39
373.42	592.16
373.62	587.47
373.81	592.16
374.01	697.48
374.21	629.60
374.40	568.75
374.60	608.54
374.79	622.58
374.99	620.24
375.19	636.63
375.38	685.78
375.58	760.67
375.78	711.52
375.97	657.69
376.17	819.19
376.37	645.99
376.56	624.92
376.76	709.18
376.95	650.67
377.15	725.57
377.35	657.69
377.54	676.41
377.74	713.86
377.93	697.48
378.13	676.41
378.33	704.50
378.52	713.86
378.72	716.20
378.91	711.52
379.11	629.60
379.31	748.97
379.50	692.80
379.70	786.42
379.89	702.16
380.09	791.10
380.28	744.29
380.48	676.41
380.68	744.29
380.87	711.52
381.07	692.80
381.26	753.65
381.46	716.20
381.65	767.70
381.85	741.95
382.04	732.59
382.24	723.23
382.43	758.33
382.63	755.99
382.83	720.88
383.02	786.42
383.22	765.36
383.41	763.01
383.61	751.31
383.80	763.01
384.00	772.38
384.19	777.06
384.39	866.00
384.58	734.93
384.78	812.17
384.97	777.06
385.17	777.06
385.36	781.74
385.56	833.23
385.75	882.38
385.95	854.30
386.14	812.17
386.34	772.38
386.53	828.55
386.72	842.59
386.92	840.25
387.11	866.00
387.31	849.61
387.50	809.83
387.70	763.01
387.89	894.08
388.09	847.27
388.28	786.42
388.48	842.59
388.67	1015.79
388.86	856.64
389.06	917.49
389.25	917.49
389.45	922.17
389.64	933.87
389.84	919.83
390.03	924.51
390.22	966.64
390.42	915.15
390.61	866.00
390.81	912.81
391.00	922.17
391.19	884.72
391.39	990.05
391.58	985.37
391.78	968.98
391.97	1032.18
392.16	1029.84
392.36	1025.15
392.55	1060.26
392.75	1039.20
392.94	1006.43
393.13	980.68
393.33	992.39
393.52	1027.50
393.71	1032.18
393.91	1001.75
394.10	1032.18
394.29	987.71
394.49	1036.86
394.68	1097.71
394.88	1067.28
395.07	1137.50
395.26	1160.91
395.46	1071.97
395.65	1104.73
395.84	1146.86
396.04	1186.65
396.23	1261.55
396.42	1172.61
396.62	1184.31
396.81	1158.57
397.00	1156.22
397.19	1181.97
397.39	1090.69
397.58	1228.78
397.77	1184.31
397.97	1198.35
398.16	1170.27
398.35	1306.02
398.55	1247.51
398.74	1233.46
398.93	1303.68
399.12	1256.87
399.32	1329.42
399.51	1254.53
399.70	1277.93
399.90	1320.06
400.09	1324.74
400.28	1294.32
400.47	1273.25
400.67	1390.28
400.86	1338.79
401.05	1352.83
401.24	1430.07
401.44	1359.85
401.63	1394.96
401.82	1416.02
402.01	1406.66
402.21	1315.38
402.40	1390.28
402.59	1373.89
402.78	1343.47
402.97	1427.73
403.17	1556.46
403.36	1423.05
403.55	1458.15
403.74	1568.16
403.93	1610.29
404.13	1626.67
404.32	1521.35
404.51	1593.90
404.70	1509.65
404.89	1474.54
405.09	1614.97
405.28	1659.44
405.47	1640.72
405.66	1671.14
405.85	1717.95
406.05	1612.63
406.24	1661.78
406.43	1743.70
406.62	1633.69
406.81	1720.29
407.00	1680.50
407.20	1696.89
407.39	1689.87
407.58	1713.27
407.77	1832.64
407.96	1781.15
408.15	1820.94
408.34	1856.04
408.54	1769.44
408.73	1865.41
408.92	1834.98
409.11	1865.41
409.30	1930.94
409.49	1818.60
409.68	1877.11
409.87	1888.81
410.07	2052.65
410.26	2001.16
410.45	1970.73
410.64	2033.93
410.83	2012.86
411.02	2008.18
411.21	2127.55
411.40	2101.80
411.59	2099.46
411.78	2104.14
411.98	2010.52
412.17	2136.91
412.36	2209.47
412.55	2129.89
412.74	2211.81
412.93	2235.21
413.12	2253.94
413.31	2260.96
413.50	2275.00
413.69	2296.07
413.88	2448.20
414.07	2347.56
414.26	2373.30
414.45	2392.03
414.64	2394.37
414.83	2380.32
415.02	2431.82
415.22	2511.39
415.41	2534.80
415.60	2473.95
415.79	2583.95
415.98	2525.44
416.17	2612.04
416.36	2609.70
416.55	2537.14
416.74	2602.68
416.93	2579.27
417.12	2736.09
417.31	2733.75
417.50	2731.41
417.69	2787.58
417.88	2792.26
418.07	2771.19
418.26	2853.11
418.45	2796.94
418.64	2892.90
418.83	2818.00
419.02	2822.69
419.21	2939.71
419.39	3012.27
419.58	2883.54
419.77	2911.63
419.96	2939.71
420.15	2902.26
420.34	3049.72
420.53	3038.02
420.72	3077.80
420.91	3030.99
421.10	2974.82
421.29	3218.24
421.48	3183.13
421.67	3171.43
421.86	3075.46
422.05	3098.87
422.24	3129.30
422.43	3183.13
422.61	3251.00
422.80	3201.85
422.99	3232.28
423.18	3220.58
423.37	3365.69
423.56	3321.22
423.75	3379.73
423.94	3220.58
424.13	3049.72
424.32	3119.93
424.50	3222.92
424.69	3456.97
424.88	3323.56
425.07	3272.07
425.26	3225.26
425.45	3332.92
425.64	3297.81
425.83	3288.45
426.01	3229.94
426.20	3279.09
426.39	3396.12
426.58	3239.30
426.77	3311.86
426.96	3335.26
427.15	3279.09
427.33	3349.31
427.52	3468.67
427.71	3412.50
427.90	3442.93
428.09	3564.64
428.28	3550.59
428.46	3435.91
428.65	3447.61
428.84	3613.79
429.03	3714.43
429.22	3517.83
429.40	3595.06
429.59	3632.51
429.78	3581.02
429.97	3496.76
430.16	3508.46
430.34	3513.14
430.53	3721.45
430.72	3691.02
430.91	3808.05
431.10	3705.07
431.28	3786.99
431.47	4042.11
431.66	3756.56
431.85	3761.24
432.03	3794.01
432.22	3784.65
432.41	3943.80
432.60	3925.08
432.79	3751.88
432.97	3847.84
433.16	3988.27
433.35	3969.55
433.54	3929.76
433.72	4004.66
433.91	4039.76
434.10	4046.79
434.28	3894.65
434.47	3936.78
434.66	4016.36
434.85	4046.79
435.03	4086.58
435.22	4145.09
435.41	4318.29
435.59	4180.20
435.78	4234.03
435.97	4205.94
436.16	4170.83
436.34	4217.65
436.53	4191.90
436.72	4332.33
436.90	4287.86
437.09	4231.69
437.28	4297.22
437.46	4231.69
437.65	4322.97
437.84	4477.44
438.02	4512.55
438.21	4362.76
438.40	4299.56
438.58	4550.00
438.77	4559.36
438.96	4533.62
439.14	4582.77
439.33	4660.01
439.52	4781.71
439.70	4461.06
439.89	4870.65
440.08	4645.96
440.26	4655.33
440.45	4800.44
440.63	4720.86
440.82	4812.14
441.01	4938.53
441.19	4873.00
441.38	4957.25
441.57	4919.81
441.75	4973.64
441.94	5011.09
442.12	5078.96
442.31	5069.60
442.50	5259.18
442.68	5207.69
442.87	5284.93
443.05	5198.33
443.24	5214.71
443.43	5224.08
443.61	5242.80
443.80	5434.72
443.98	5191.31
444.17	5263.86
444.35	5118.75
444.54	5385.57
444.73	5511.96
444.91	5193.65
445.10	5507.28
445.28	5224.08
445.47	5355.15
445.65	5481.53
445.84	5357.49
446.02	5628.99
446.21	5387.91
446.39	5387.91
446.58	5521.32
446.77	5657.07
446.95	5416.00
447.14	5511.96
447.32	5558.77
447.51	5420.68
447.69	5598.56
447.88	5493.24
448.06	5416.00
448.25	5502.60
448.43	5413.66
448.62	5537.71
448.80	5554.09
448.99	5469.83
449.17	5612.60
449.36	5523.66
449.54	5614.95
449.73	5724.95
449.91	5748.36
450.10	5870.06
450.28	5914.53
450.46	5795.17
450.65	5816.23
450.83	5853.68
451.02	5799.85
451.20	6031.56
451.39	5947.30
451.57	5813.89
451.76	5736.65
451.94	5982.41
452.13	5954.32
452.31	5959.00
452.49	5963.68
452.68	5895.81
452.86	6104.12
453.05	6099.44
453.23	6239.87
453.42	5998.79
453.60	6017.52
453.78	6043.26
453.97	6125.18
454.15	5968.37
454.34	6090.07
454.52	6071.35
454.70	6221.14
454.89	6291.36
455.07	6207.10
455.26	6251.57
455.44	6328.81
455.62	6296.04
455.81	6438.81
455.99	6459.88
456.17	6258.59
456.36	6562.86
456.54	6691.59
456.73	6452.86
456.91	6679.89
457.09	6607.33
457.28	6722.02
457.46	6593.29
457.64	6740.74
457.83	6637.76
458.01	6724.36
458.19	6927.99
458.38	6771.17
458.56	6789.89
458.74	6991.18
458.93	6782.87
459.11	6820.32
459.29	6909.26
459.48	6759.47
459.66	6909.26
459.84	6958.41
460.03	7084.80
460.21	6951.39
460.39	7042.67
460.57	7080.12
460.76	6902.24
460.94	7045.01
461.12	7262.68
461.31	7150.34
461.49	7052.03
461.67	7059.06
461.85	7314.17
462.04	7082.46
462.22	7683.98
462.40	7342.26
462.59	7302.47
462.77	7295.45
462.95	7478.01
463.13	7328.22
463.32	7517.80
463.50	7541.21
463.68	7389.07
463.86	7597.38
464.05	7321.20
464.23	7328.22
464.41	7538.87
464.59	7393.75
464.78	7712.07
464.96	7861.86
465.14	7590.36
465.32	7545.89
465.50	7595.04
465.69	7896.97
465.87	7653.55
466.05	7695.68
466.23	7819.73
466.41	7564.61
466.60	7906.33
466.78	7882.92
466.96	7784.62
467.14	7660.57
467.32	7880.58
467.51	7990.59
467.69	7665.25
467.87	7838.45
468.05	7861.86
468.23	7754.19
468.41	7878.24
468.60	7920.37
468.78	8025.70
468.96	7983.57
469.14	8184.85
469.32	8173.15
469.50	8023.36
469.69	8266.77
469.87	8250.39
470.05	8376.78
470.23	8290.18
470.41	8196.56
470.59	8416.57
470.77	8409.54
470.95	8290.18
471.14	8468.06
471.32	8421.25
471.50	8645.94
471.68	8402.52
471.86	8526.57
472.04	8723.18
472.22	8837.86
472.40	8585.08
472.58	8840.20
472.77	8814.46
472.95	8667.00
473.13	9184.26
473.31	8877.65
473.49	8919.78
473.67	8954.89
473.85	9107.02
474.03	9359.80
474.21	9268.52
474.39	9399.59
474.57	9305.97
474.75	9418.32
474.93	9504.92
475.12	9294.27
475.30	9563.43
475.48	9483.85
475.66	9809.19
475.84	9439.38
476.02	9764.72
476.20	9757.69
476.38	10026.86
476.56	9951.96
476.74	10040.90
476.92	9771.74
477.10	9790.46
477.28	10256.23
477.46	10209.42
477.64	10029.20
477.82	10579.22
478.00	10590.92
478.18	10527.73
478.36	10595.61
478.54	10729.02
478.72	10717.31
478.90	10946.69
479.08	10867.11
479.26	11164.36
479.44	10827.32
479.62	11236.91
479.80	11267.34
479.98	11365.64
480.16	11676.93
480.34	11447.56
480.52	11690.98
480.70	11489.69
480.88	11571.61
481.06	11676.93
481.24	11798.64
481.41	11815.02
481.59	11976.52
481.77	12119.29
481.95	12116.95
482.13	12145.04
482.31	12194.19
482.49	12601.44
482.67	12493.78
482.85	12681.02
483.03	12826.14
483.21	13018.06
483.39	13289.56
483.57	13252.11
483.74	13303.60
483.92	13359.78
484.10	13209.98
484.28	13460.42
484.46	13790.44
484.64	14057.26
484.82	13848.95
485.00	13668.73
485.18	13905.12
485.35	14272.59
485.53	14223.44
485.71	14406.00
485.89	14544.09
486.07	14937.30
486.25	14637.71
486.43	14750.06
486.61	14719.63
486.78	14883.47
486.96	15084.75
487.14	15241.57
487.32	15241.57
487.50	15360.94
487.68	15613.71
487.85	15545.84
488.03	16006.92
488.21	16142.67
488.39	15901.60
488.57	16154.38
488.75	16304.17
488.92	16643.55
489.10	16514.82
489.28	16662.27
489.46	16842.50
489.64	16720.79
489.81	16978.25
489.99	17160.81
490.17	17500.19
490.35	17298.90
490.53	17469.76
490.70	17694.45
490.88	17511.89
491.06	17514.23
491.24	17926.16
491.41	17804.46
491.59	18178.94
491.77	18073.62
491.95	18118.09
492.13	18539.38
492.30	18415.34
492.48	18576.83
492.66	18768.76
492.84	18951.32
493.01	18930.25
493.19	19044.94
493.37	19164.31
493.54	19360.91
493.72	19550.49
493.90	19447.51
494.08	19323.46
494.25	19744.76
494.43	19845.40
494.61	20266.70
494.79	20018.60
494.96	20093.50
495.14	20428.20
495.32	20521.82
495.49	20493.73
495.67	20449.26
495.85	20992.26
496.02	20889.28
496.20	21120.99
496.38	20858.85
496.55	21160.78
496.73	21523.57
496.91	21523.57
497.09	21357.39
497.26	21638.25
497.44	21528.25
497.62	22003.38
497.79	21954.22
497.97	22092.32
498.14	21947.20
498.32	22415.31
498.50	22284.24
498.67	22703.20
498.85	22377.86
499.03	22604.89
499.20	22359.14
499.38	23073.00
499.56	22974.70
499.73	23016.83
499.91	22986.40
500.08	23573.88
500.26	23445.15
500.44	23335.14
500.61	23527.06
500.79	23431.10
500.97	23758.78
501.14	24088.79
501.32	23903.89
501.49	23648.77
501.67	23828.99
501.84	24357.96
502.02	24231.57
502.20	24231.57
502.37	24105.18
502.55	24369.66
502.72	24563.92
502.90	24606.05
503.07	24648.18
503.25	24697.33
503.43	24751.17
503.60	25027.35
503.78	25099.90
503.95	24910.32
504.13	25123.31
504.30	25333.96
504.48	25198.21
504.65	25254.38
504.83	25610.14
505.01	25582.06
505.18	25640.57
505.36	25820.79
505.53	25907.39
505.71	25741.21
505.88	25930.80
506.06	25771.64
506.23	26192.94
506.41	26061.87
506.58	26324.01
506.76	26113.36
506.93	26609.55
507.11	26457.42
507.28	26518.27
507.46	26487.84
507.63	26857.65
507.81	26829.56
507.98	27136.17
508.16	27101.06
508.33	26869.35
508.50	26953.61
508.68	27241.50
508.85	27447.46
509.03	27208.73
509.20	27569.17
509.38	27857.06
509.55	27737.69
509.73	27737.69
509.90	28039.62
510.08	27819.61
510.25	27620.66
510.42	28006.85
510.60	28004.51
510.77	28315.80
510.95	28449.21
511.12	28158.99
511.30	28196.43
511.47	28236.22
511.64	28498.36
511.82	28790.93
511.99	28893.91
512.17	28893.91
512.34	29027.32
512.51	28978.17
512.69	29270.74
512.86	29230.95
513.04	29319.89
513.21	29151.37
513.38	29287.12
513.56	29209.89
513.73	29282.44
513.90	29556.28
514.08	29708.42
514.25	29832.47
514.43	29663.95
514.60	29944.81
514.77	29921.41
514.95	30305.26
515.12	29982.26
515.29	29970.56
515.47	29993.97
515.64	30361.43
515.81	30183.55
515.99	30265.47
516.16	30890.39
516.33	30644.63
516.51	30541.65
516.68	30752.30
516.85	30752.30
517.03	30586.12
517.20	30829.54
517.37	30707.83
517.54	31042.53
517.72	30726.55
517.89	31131.47
518.06	31246.15
518.24	31271.90
518.41	31419.35
518.58	31398.29
518.75	31484.89
518.93	31079.97
519.10	31517.65
519.27	31260.20
519.45	31615.96
519.62	32388.33
519.79	31735.32
519.96	32023.21
520.14	31943.63
520.31	32016.19
520.48	32215.13
520.65	32133.21
520.83	32650.47
521.00	32374.29
521.17	32486.64
521.34	32540.47
521.52	32678.56
521.69	32451.53
521.86	33113.90
522.03	32718.35
522.20	32704.31
522.38	33167.73
522.55	33067.09
522.72	32858.78
522.89	33057.73
523.07	33734.14
523.24	33001.55
523.41	33413.49
523.58	33429.87
523.75	33614.77
523.92	33226.24
524.10	33596.05
524.27	33699.03
524.44	33244.97
524.61	33832.44
524.78	33752.87
524.96	34340.34
525.13	34249.06
525.30	33928.41
525.47	34307.57
525.64	33647.54
525.81	33968.19
525.98	34459.71
526.16	34115.65
526.33	34387.15
526.50	35058.88
526.67	34499.50
526.84	34417.58
527.01	34443.32
527.18	34796.74
527.36	34602.48
527.53	34864.62
527.70	35271.87
527.87	35084.63
528.04	34995.69
528.21	35208.68
528.38	35409.96
528.55	35435.71
528.72	35194.64
528.89	34909.09
529.07	35517.63
529.24	34998.03
529.41	35323.36
529.58	35159.53
529.75	35264.85
529.92	35784.45
530.09	35168.89
530.26	35730.62
530.43	35655.72
530.60	35379.54
530.77	35922.54
530.94	35517.63
531.11	35674.45
531.28	35929.56
531.46	36311.07
531.63	35999.78
531.80	36161.28
531.97	36332.14
532.14	36432.78
532.31	36100.42
532.48	36371.92
532.65	36531.08
532.82	36172.98
532.99	36645.77
533.16	36350.86
533.33	36517.04
533.50	36849.39
533.67	36659.81
533.84	36533.42
534.01	36659.81
534.18	36753.43
534.35	37043.66
534.52	37013.23
534.69	37340.91
534.86	37055.36
535.03	37034.30
535.20	37383.04
535.37	37394.74
535.54	37720.07
535.71	37275.37
535.88	37022.59
536.05	37479.00
536.22	37645.18
536.38	37408.78
536.55	37673.26
536.72	37883.91
536.89	37837.10
537.06	37535.17
537.23	37902.64
537.40	37757.52
537.57	37954.13
537.74	37322.18
537.91	38141.37
538.08	37525.81
538.25	37509.43
538.42	38227.97
538.59	38288.82
538.75	38183.50
538.92	38684.37
539.09	38476.07
539.26	38220.95
539.43	38424.57
539.60	38368.40
539.77	38471.39
539.94	38721.82
540.11	38639.90
540.28	38756.93
540.44	38742.89
540.61	38614.16
540.78	38611.82
540.95	38979.28
541.12	38869.28
541.29	38630.54
541.46	38918.43
541.62	38646.93
541.79	39234.40
541.96	38974.60
542.13	38473.73
542.30	38953.54
542.47	39180.57
542.63	38714.80
542.80	39253.12
542.97	39587.82
543.14	39889.75
543.31	39171.21
543.48	39578.46
543.64	40144.87
543.81	40046.57
543.98	39805.49
544.15	39625.27
544.32	39754.00
544.48	40074.65
544.65	40107.42
544.82	40009.12
544.99	39529.31
545.16	39789.11
545.32	39613.57
545.49	40615.32
545.66	40252.53
545.83	40519.35
546.00	40243.17
546.16	40163.59
546.33	40060.61
546.50	39709.53
546.67	40428.07
546.83	40133.17
547.00	40320.41
547.17	39981.03
547.34	40861.07
547.50	40760.43
547.67	40980.44
547.84	40629.36
548.00	40362.54
548.17	40957.03
548.34	40760.43
548.51	40973.42
548.67	41347.90
548.84	40959.38
549.01	40589.57
549.18	40840.01
549.34	41193.43
549.51	40971.08
549.68	40919.59
549.84	40730.00
550.01	41296.41
550.18	41104.49
550.34	41752.82
550.51	41500.04
550.68	41567.91
550.84	41010.87
551.01	41544.51
551.18	41022.57
551.34	41237.90
551.51	41638.13
551.68	41130.23
551.84	41493.02
552.01	41605.36
552.18	41759.84
552.34	41446.21
552.51	41848.78
552.68	41251.94
552.84	41556.21
553.01	42054.75
553.18	41886.23
553.34	41794.95
553.51	41806.65
553.67	41771.54
553.84	41846.44
554.01	41539.83
554.17	41972.83
554.34	42181.13
554.51	41816.01
554.67	42457.32
554.84	42274.76
555.00	42092.19
555.17	42232.63
555.33	42534.56
555.50	42120.28
555.67	42555.62
555.83	42244.33
556.00	42946.49
556.16	43257.78
556.33	42939.47
556.50	42382.42
556.66	42356.67
556.83	42403.49
556.99	42808.40
557.16	42747.54
557.32	42749.88
557.49	43044.79
557.65	42239.65
557.82	42267.73
557.98	42693.71
558.15	42600.09
558.32	42909.04
558.48	42405.83
558.65	43014.37
558.81	43117.35
558.98	42887.98
559.14	42784.99
559.31	42733.50
559.47	43122.03
559.64	43311.61
559.80	42932.45
559.97	42731.16
560.13	43241.40
560.30	43129.05
560.46	43414.60
560.63	43473.11
560.79	43051.81
560.96	43154.80
561.12	43412.26
561.29	43332.68
561.45	43100.97
561.61	43311.61
561.78	43229.69
561.94	43107.99
562.11	43154.80
562.27	43543.33
562.44	43093.94
562.60	43538.65
562.77	43370.13
562.93	43475.45
563.10	43683.76
563.26	43428.64
563.42	44486.56
563.59	43686.10
563.75	43391.19
563.92	43559.71
564.08	43770.36
564.24	43810.15
564.41	43480.13
564.57	43590.14
564.74	43557.37
564.90	43861.64
565.07	43423.96
565.23	44030.16
565.39	43875.68
565.56	43798.44
565.72	43697.80
565.88	43688.44
566.05	43929.51
566.21	43910.79
566.38	43868.66
566.54	43824.19
566.70	44088.67
566.87	43803.13
567.03	43786.74
567.19	44247.83
567.36	43770.36
567.52	43903.77
567.68	44154.21
567.85	44296.98
568.01	44605.93
568.17	43597.16
568.34	44320.38
568.50	44224.42
568.66	43723.55
568.83	43908.45
568.99	43753.97
569.15	44065.27
569.32	44006.75
569.48	44098.03
569.64	44182.29
569.81	43421.62
569.97	43962.28
570.13	44964.03
570.30	43892.07
570.46	44315.70
570.62	44516.99
570.78	43959.94
570.95	44292.30
571.11	44320.38
571.27	44474.86
571.43	44374.22
571.60	44121.44
571.76	44402.30
571.92	44254.85
572.09	44161.23
572.25	44100.37
572.41	44147.18
572.57	44325.07
572.74	44484.22
572.90	44135.48
573.06	44514.65
573.22	44402.30
573.38	44966.37
573.55	44690.19
573.71	44748.70
573.87	44388.26
574.03	44692.53
574.20	44849.35
574.36	44399.96
574.52	44842.32
574.68	44591.89
574.84	45134.89
575.01	44615.29
575.17	44765.09
575.33	44418.69
575.49	44767.43
575.65	44505.29
575.82	44325.07
575.98	44493.58
576.14	44648.06
576.30	45165.32
576.46	44566.14
576.62	44739.34
576.79	44428.05
576.95	44547.42
577.11	44697.21
577.27	45172.34
577.43	44486.56
577.59	44790.83
577.75	44449.11
577.92	44479.54
578.08	44727.64
578.24	44395.28
578.40	44804.88
578.56	44711.25
578.72	45141.91
578.88	45071.70
579.04	44486.56
579.21	44669.12
579.37	44802.53
579.53	45315.11
579.69	44554.44
579.85	44575.50
580.01	44748.70
580.17	44737.00
580.33	44772.11
580.49	44552.10
580.65	44877.43
580.82	44926.58
580.98	45083.40
581.14	44076.97
581.30	44858.71
581.46	44587.21
581.62	44669.12
581.78	44830.62
581.94	44957.01
582.10	44720.62
582.26	45076.38
582.42	44676.15
582.58	45034.25
582.74	44825.94
582.90	44783.81
583.06	45038.93
583.22	44821.26
583.38	45083.40
583.54	45045.95
583.70	45265.96
583.86	45134.89
584.02	44381.24
584.18	44987.44
584.34	44971.05
584.50	44980.42
584.66	45399.37
584.82	44938.29
584.98	45272.98
585.14	45345.54
585.30	45137.23
585.46	45310.43
585.62	44732.32
585.78	45034.25
585.94	44821.26
586.10	45006.16
586.26	44493.58
586.42	44875.09
586.58	44971.05
586.74	44844.66
586.90	44877.43
587.06	45343.20
587.22	45233.19
587.38	45223.83
587.54	45415.76
587.70	45326.81
587.86	45160.64
588.02	44802.53
588.18	45174.68
588.34	45045.95
588.49	45184.04
588.65	44978.07
588.81	44755.72
588.97	45050.63
589.13	45282.34
589.29	44870.41
589.45	45521.08
589.61	45380.65
589.77	45324.47
589.93	44928.92
590.08	45476.61
