SpectraSuite Data File
++++++++++++++++++++++++++++++++++++
Date: Fri Oct 25 10:47:35 EDT 2013
User: price-jones
Dark Spectrum Present: No
Reference Spectrum Present: No
Number of Sampled Component Spectra: 1
Spectrometers: USB2+H05261
Integration Time (usec): 100000 (USB2+H05261)
Spectra Averaged: 1 (USB2+H05261)
Boxcar Smoothing: 0 (USB2+H05261)
Correct for Electrical Dark: No (USB2+H05261)
Strobe/Lamp Enabled: No (USB2+H05261)
Correct for Detector Non-linearity: No (USB2+H05261)
Correct for Stray Light: No (USB2+H05261)
Number of Pixels in Processed Spectrum: 2048
>>>>>Begin Processed Spectral Data<<<<<
365.73	133.41
365.92	133.41
366.12	133.41
366.32	42.13
366.52	95.96
366.72	58.51
366.91	0.00
367.11	0.00
367.31	46.81
367.51	53.83
367.70	42.13
367.90	91.28
368.10	14.04
368.30	18.72
368.49	126.39
368.69	128.73
368.89	110.01
369.09	39.79
369.28	133.41
369.48	105.32
369.68	145.11
369.87	135.75
370.07	79.58
370.27	168.52
370.47	231.71
370.66	409.59
370.86	463.43
371.06	463.43
371.25	451.72
371.45	404.91
371.65	521.94
371.84	381.51
372.04	440.02
372.24	514.92
372.44	463.43
372.63	458.74
372.83	528.96
373.03	458.74
373.22	458.74
373.42	510.24
373.62	491.51
373.81	535.98
374.01	578.11
374.21	557.05
374.40	449.38
374.60	545.34
374.79	538.32
374.99	636.63
375.19	557.05
375.38	528.96
375.58	645.99
375.78	575.77
375.97	554.71
376.17	575.77
376.37	606.20
376.56	543.00
376.76	594.50
376.95	596.84
377.15	587.47
377.35	599.18
377.54	575.77
377.74	580.45
377.93	620.24
378.13	622.58
378.33	636.63
378.52	594.50
378.72	655.35
378.91	585.13
379.11	622.58
379.31	594.50
379.50	606.20
379.70	681.10
379.89	594.50
380.09	596.84
380.28	653.01
380.48	629.60
380.68	585.13
380.87	678.76
381.07	636.63
381.26	706.84
381.46	627.26
381.65	645.99
381.85	669.39
382.04	690.46
382.24	643.65
382.43	638.97
382.63	704.50
382.83	662.37
383.02	755.99
383.22	674.07
383.41	669.39
383.61	692.80
383.80	725.57
384.00	645.99
384.19	683.44
384.39	718.54
384.58	777.06
384.78	716.20
384.97	772.38
385.17	676.41
385.36	753.65
385.56	753.65
385.75	734.93
385.95	777.06
386.14	847.27
386.34	788.76
386.53	763.01
386.72	793.44
386.92	795.78
387.11	802.80
387.31	758.33
387.50	821.53
387.70	861.32
387.89	816.85
388.09	873.02
388.28	795.78
388.48	858.98
388.67	873.02
388.86	854.30
389.06	823.87
389.25	861.32
389.45	889.40
389.64	894.08
389.84	964.30
390.03	891.74
390.22	919.83
390.42	947.92
390.61	891.74
390.81	926.85
391.00	1048.56
391.19	978.34
391.39	926.85
391.58	985.37
391.78	912.81
391.97	966.64
392.16	945.58
392.36	1029.84
392.55	997.07
392.75	966.64
392.94	929.19
393.13	966.64
393.33	1027.50
393.52	992.39
393.71	973.66
393.91	1027.50
394.10	938.55
394.29	1046.22
394.49	1050.90
394.68	1165.59
394.88	1081.33
395.07	1116.44
395.26	1135.16
395.46	1060.26
395.65	1174.95
395.84	1179.63
396.04	1158.57
396.23	1107.07
396.42	1074.31
396.62	1123.46
396.81	1177.29
397.00	1104.73
397.19	1177.29
397.39	1188.99
397.58	1221.76
397.77	1174.95
397.97	1238.14
398.16	1266.23
398.35	1282.61
398.55	1308.36
398.74	1331.76
398.93	1280.27
399.12	1404.32
399.32	1268.57
399.51	1355.17
399.70	1376.24
399.90	1373.89
400.09	1341.13
400.28	1497.94
400.47	1355.17
400.67	1411.34
400.86	1359.85
401.05	1479.22
401.24	1448.79
401.44	1493.26
401.63	1350.49
401.82	1455.81
402.01	1448.79
402.21	1483.90
402.40	1526.03
402.59	1563.48
402.78	1582.20
402.97	1621.99
403.17	1558.80
403.36	1596.25
403.55	1596.25
403.74	1692.21
403.93	1643.06
404.13	1582.20
404.32	1647.74
404.51	1673.48
404.70	1657.10
404.89	1811.57
405.09	1734.34
405.28	1799.87
405.47	1774.13
405.66	1652.42
405.85	1724.97
406.05	1715.61
406.24	1717.95
406.43	1713.27
406.62	1837.32
406.81	1898.17
407.00	1919.24
407.20	1858.39
407.39	1877.11
407.58	1926.26
407.77	2017.54
407.96	1996.48
408.15	1820.94
408.34	1966.05
408.54	1963.71
408.73	1996.48
408.92	2017.54
409.11	2113.50
409.30	1970.73
409.49	2090.10
409.68	1966.05
409.87	1956.69
410.07	2015.20
410.26	2216.49
410.45	2153.29
410.64	2139.25
410.83	2136.91
411.02	2235.21
411.21	2256.28
411.40	2338.20
411.59	2392.03
411.78	2235.21
411.98	2319.47
412.17	2317.13
412.36	2300.75
412.55	2394.37
412.74	2331.17
412.93	2551.18
413.12	2382.67
413.31	2551.18
413.50	2487.99
413.69	2520.76
413.88	2605.02
414.07	2569.91
414.26	2614.38
414.45	2661.19
414.64	2612.04
414.83	2733.75
415.02	2649.49
415.22	2722.04
415.41	2747.79
415.60	2803.96
415.79	2850.77
415.98	3052.06
416.17	2832.05
416.36	2942.05
416.55	2946.73
416.74	2888.22
416.93	2881.20
417.12	2902.26
417.31	2937.37
417.50	3012.27
417.69	3178.45
417.88	3183.13
418.07	2958.44
418.26	3164.40
418.45	3176.11
418.64	3110.57
418.83	3178.45
419.02	3204.19
419.21	3208.87
419.39	3283.77
419.58	3166.74
419.77	3131.64
419.96	3229.94
420.15	3290.79
420.34	3248.66
420.53	3433.57
420.72	3431.23
420.91	3391.44
421.10	3353.99
421.29	3461.65
421.48	3492.08
421.67	3461.65
421.86	3307.18
422.05	3452.29
422.24	3379.73
422.43	3433.57
422.61	3435.91
422.80	3426.54
422.99	3445.27
423.18	3403.14
423.37	3552.93
423.56	3494.42
423.75	3417.18
423.94	3473.36
424.13	3375.05
424.32	3471.01
424.50	3541.23
424.69	3632.51
424.88	3578.68
425.07	3503.78
425.26	3403.14
425.45	3592.72
425.64	3527.19
425.83	3515.48
426.01	3719.11
426.20	3698.05
426.39	3637.19
426.58	3513.14
426.77	3508.46
426.96	3660.60
427.15	3655.92
427.33	3705.07
427.52	3562.30
427.71	3824.44
427.90	3789.33
428.09	3812.73
428.28	3803.37
428.46	3749.54
428.65	3737.84
428.84	3784.65
429.03	3889.97
429.22	3786.99
429.40	3866.56
429.59	3794.01
429.78	3667.62
429.97	3674.64
430.16	3751.88
430.34	3936.78
430.53	3796.35
430.72	3868.91
430.91	3812.73
431.10	4032.74
431.28	4161.47
431.47	4166.15
431.66	4217.65
431.85	4053.81
432.03	4030.40
432.22	4280.84
432.41	4243.39
432.60	4341.69
432.79	4102.96
432.97	4191.90
433.16	4262.12
433.35	4250.41
433.54	4217.65
433.72	4159.13
433.91	4388.50
434.10	4318.29
434.28	4337.01
434.47	4393.19
434.66	4440.00
434.85	4589.79
435.03	4547.66
435.22	4493.83
435.41	4634.26
435.59	4437.66
435.78	4561.70
435.97	4547.66
436.16	4622.56
436.34	4648.30
436.53	4674.05
436.72	4777.03
436.90	4559.36
437.09	4629.58
437.28	4631.92
437.46	4720.86
437.65	4615.54
437.84	4667.03
438.02	4606.17
438.21	4861.29
438.40	4685.75
438.58	4943.21
438.77	4894.06
438.96	4884.70
439.14	5100.03
439.33	5083.64
439.52	5008.75
439.70	5085.98
439.89	5146.84
440.08	5107.05
440.26	5273.23
440.45	5130.45
440.63	5210.03
440.82	5308.34
441.01	5444.09
441.19	5350.46
441.38	5397.28
441.57	5437.06
441.75	5516.64
441.94	5591.54
442.12	5797.51
442.31	5748.36
442.50	5715.59
442.68	5643.03
442.87	5556.43
443.05	5638.35
443.24	5863.04
443.43	5720.27
443.61	5853.68
443.80	5912.19
443.98	5729.63
444.17	5568.13
444.35	5806.87
444.54	5900.49
444.73	5980.07
444.91	5832.62
445.10	5841.98
445.28	5818.57
445.47	5746.02
445.65	5891.13
445.84	5790.49
446.02	5940.28
446.21	5907.51
446.39	5811.55
446.58	6160.29
446.77	6242.21
446.95	5900.49
447.14	6076.03
447.32	6188.38
447.51	6076.03
447.69	6017.52
447.88	6040.92
448.06	6094.76
448.25	5947.30
448.43	6108.80
448.62	5977.73
448.80	5816.23
448.99	6029.22
449.17	6120.50
449.36	6155.61
449.54	6305.40
449.73	6310.08
449.91	6314.77
450.10	6359.24
450.28	6661.16
450.46	6469.24
450.65	6427.11
450.83	6427.11
451.02	6345.19
451.20	6462.22
451.39	6619.04
451.57	6490.31
451.76	6340.51
451.94	6457.54
452.13	6558.18
452.31	6736.06
452.49	6375.62
452.68	6555.84
452.86	6487.96
453.05	6628.40
453.23	6722.02
453.42	6567.54
453.60	6478.60
453.78	6712.66
453.97	6609.67
454.15	6689.25
454.34	6558.18
454.52	6813.30
454.70	6869.47
454.89	6810.96
455.07	6817.98
455.26	6899.90
455.44	7035.65
455.62	6890.54
455.81	6991.18
455.99	7021.61
456.17	6785.21
456.36	7225.23
456.54	7030.97
456.73	7218.21
456.91	7332.90
457.09	7396.09
457.28	7438.22
457.46	7398.43
457.64	7328.22
457.83	7304.81
458.01	7185.44
458.19	7393.75
458.38	7225.23
458.56	7508.44
458.74	7485.03
458.93	7431.20
459.11	7559.93
459.29	7456.95
459.48	7634.83
459.66	7566.95
459.84	7485.03
460.03	7637.17
460.21	7740.15
460.39	7789.30
460.57	7662.91
460.76	7686.32
460.94	7597.38
461.12	7613.76
461.31	7719.09
461.49	7925.05
461.67	7765.90
461.85	8016.33
462.04	7726.11
462.22	8304.22
462.40	7983.57
462.59	8081.87
462.77	7990.59
462.95	8088.89
463.13	8095.91
463.32	8318.26
463.50	8168.47
463.68	7948.46
463.86	8077.19
464.05	8147.40
464.23	8006.97
464.41	8390.82
464.59	8091.23
464.78	8250.39
464.96	8222.30
465.14	8107.62
465.32	8285.50
465.50	8341.67
465.69	8531.25
465.87	8374.44
466.05	8484.44
466.23	8231.66
466.41	8365.07
466.60	8498.49
466.78	8262.09
466.96	8374.44
467.14	8369.76
467.32	8580.40
467.51	8582.74
467.69	8133.36
467.87	8521.89
468.05	8571.04
468.23	8444.65
468.41	8652.96
468.60	8741.90
468.78	8734.88
468.96	8844.88
469.14	8894.04
469.32	8879.99
469.50	8617.85
469.69	8896.38
469.87	8936.17
470.05	8985.32
470.23	8945.53
470.41	8929.14
470.59	9097.66
470.77	9184.26
470.95	9123.41
471.14	9214.69
471.32	9128.09
471.50	9289.59
471.68	9343.42
471.86	9420.66
472.04	9378.53
472.22	9563.43
472.40	9411.29
472.58	9277.88
472.77	9657.05
472.95	9870.04
473.13	9792.80
473.31	9858.34
473.49	9633.64
473.67	9563.43
473.85	9764.72
474.03	10064.30
474.21	9956.64
474.39	9928.55
474.57	10141.54
474.75	10099.41
474.93	10118.14
475.12	10134.52
475.30	10235.16
475.48	10286.65
475.66	10338.15
475.84	10356.87
476.02	10553.48
476.20	10431.77
476.38	10497.30
476.56	10860.09
476.74	10705.61
476.92	10736.04
477.10	10857.75
477.28	10934.98
477.46	11150.31
477.64	11089.46
477.82	11265.00
478.00	11417.13
478.18	11375.00
478.36	11517.78
478.54	11499.05
478.72	11578.63
478.90	11868.86
479.08	11939.07
479.26	11747.15
479.44	11817.36
479.62	12020.99
479.80	12086.53
479.98	12142.70
480.16	12519.53
480.34	12376.75
480.52	12451.65
480.70	12566.34
480.88	12528.89
481.06	12711.45
481.24	12655.28
481.41	13102.32
481.59	13032.10
481.77	12943.16
481.95	12994.65
482.13	13181.90
482.31	13191.26
482.49	13437.02
482.67	13689.79
482.85	13804.48
483.03	13860.65
483.21	13961.30
483.39	13877.04
483.57	13963.64
483.74	13837.25
483.92	14441.11
484.10	14253.86
484.28	14476.21
484.46	14628.35
484.64	14736.01
484.82	14916.23
485.00	14721.97
485.18	15115.18
485.35	15124.54
485.53	14927.94
485.71	15051.99
485.89	15454.56
486.07	15337.53
486.25	15382.00
486.43	15506.05
486.61	15564.56
486.78	16023.31
486.96	15939.05
487.14	16311.19
487.32	16119.27
487.50	16416.52
487.68	16828.45
487.85	16769.94
488.03	16940.80
488.21	16978.25
488.39	17039.10
488.57	17495.50
488.75	17296.56
488.92	17521.25
489.10	17738.92
489.28	17809.14
489.46	18127.45
489.64	17949.57
489.81	18738.33
489.99	18293.63
490.17	18508.96
490.35	18874.08
490.53	18677.48
490.70	18913.87
490.88	18862.38
491.06	19164.31
491.24	19000.47
491.41	19405.38
491.59	19253.25
491.77	19295.38
491.95	19321.12
492.13	19859.45
492.30	19709.65
492.48	20233.93
492.66	19964.77
492.84	20114.56
493.01	20243.29
493.19	20348.62
493.37	20568.63
493.54	20769.91
493.72	20952.48
493.90	21156.10
494.08	21153.76
494.25	21172.49
494.43	21282.49
494.61	21539.95
494.79	21525.91
494.96	22082.95
495.14	21736.56
495.32	21891.03
495.49	21422.92
495.67	22141.47
495.85	21813.79
496.02	22508.93
496.20	22148.49
496.38	22537.02
496.55	22560.42
496.73	22977.04
496.91	22642.34
497.09	22813.20
497.26	23264.92
497.44	23178.33
497.62	23351.52
497.79	23463.87
497.97	23131.51
498.14	23229.82
498.32	23747.08
498.50	23875.80
498.67	23995.17
498.85	23967.09
499.03	23936.66
499.20	23873.46
499.38	24142.63
499.56	24273.70
499.73	24570.94
499.91	24823.72
500.08	24645.84
500.26	24713.72
500.44	24833.08
500.61	24947.77
500.79	24891.60
500.97	25153.74
501.14	25249.70
501.32	25209.91
501.49	25102.25
501.67	25422.90
501.84	25249.70
502.02	25160.76
502.20	25881.64
502.37	25841.85
502.55	25649.93
502.72	26092.29
502.90	26001.01
503.07	25759.94
503.25	26125.06
503.43	26441.03
503.60	26415.29
503.78	26148.46
503.95	26370.82
504.13	26518.27
504.30	26686.79
504.48	26689.13
504.65	26869.35
504.83	27292.99
505.01	27145.53
505.18	27138.51
505.36	27175.96
505.53	27297.67
505.71	27459.16
505.88	27714.28
506.06	27323.41
506.23	27517.68
506.41	27555.13
506.58	27630.02
506.76	27889.82
506.93	27686.20
507.11	27868.76
507.28	28095.79
507.46	28140.26
507.63	27974.08
507.81	28194.09
507.98	28126.22
508.16	28554.54
508.33	28402.40
508.50	28727.74
508.68	28865.83
508.85	28938.38
509.03	28837.74
509.20	29256.70
509.38	29109.24
509.55	29064.77
509.73	29376.06
509.90	29507.13
510.08	29275.42
510.25	29102.22
510.42	29830.13
510.60	29755.23
510.77	29425.22
510.95	29530.54
511.12	29537.56
511.30	29881.62
511.47	30492.50
511.64	30176.53
511.82	30347.39
511.99	29867.58
512.17	30197.59
512.34	30174.19
512.51	30335.68
512.69	30590.80
512.86	30668.04
513.04	30738.26
513.21	30513.56
513.38	30543.99
513.56	30906.77
513.73	30728.89
513.90	30562.72
514.08	30923.16
514.25	31056.57
514.43	30665.70
514.60	31161.89
514.77	31622.98
514.95	31857.03
515.12	31395.95
515.29	31557.44
515.47	31892.14
515.64	31850.01
515.81	31761.07
515.99	31927.25
516.16	31599.57
516.33	31805.54
516.51	31648.72
516.68	31913.20
516.85	31138.49
517.03	31796.18
517.20	32058.32
517.37	32095.77
517.54	32425.78
517.72	32105.13
517.89	32287.69
518.06	32201.09
518.24	32343.86
518.41	31901.50
518.58	32194.07
518.75	32458.55
518.93	33251.99
519.10	32751.12
519.27	33254.33
519.45	33027.30
519.62	33015.60
519.79	33289.44
519.96	33432.21
520.14	33556.26
520.31	33369.02
520.48	33551.58
520.65	33507.11
520.83	33844.15
521.00	33825.42
521.17	33362.00
521.34	33472.00
521.52	33956.49
521.69	34321.62
521.86	34169.48
522.03	34171.82
522.20	34354.38
522.38	34522.90
522.55	34586.10
522.72	34000.96
522.89	34436.30
523.07	34321.62
523.24	34237.36
523.41	35019.10
523.58	34417.58
523.75	34850.58
523.92	34862.28
524.10	35257.83
524.27	34951.22
524.44	34923.13
524.61	35112.72
524.78	35077.61
524.96	35374.86
525.13	35367.84
525.30	35702.53
525.47	35655.72
525.64	35519.97
525.81	35714.23
525.98	35239.11
526.16	35482.52
526.33	35393.58
526.50	35716.58
526.67	35796.15
526.84	35917.86
527.01	35236.77
527.18	35627.63
527.36	35950.63
527.53	36259.58
527.70	36444.48
527.87	36259.58
528.04	36011.48
528.21	36334.48
528.38	36383.63
528.55	36189.36
528.72	36467.89
528.89	36734.71
529.07	36346.18
529.24	36407.03
529.41	36519.38
529.58	36664.49
529.75	36818.97
529.92	36945.36
530.09	36952.38
530.26	36851.73
530.43	37228.56
530.60	36699.60
530.77	36617.68
530.94	36999.19
531.11	37298.78
531.28	37153.66
531.46	37165.37
531.63	37572.62
531.80	37074.09
531.97	37645.18
532.14	37184.09
532.31	37684.97
532.48	37834.76
532.65	37801.99
532.82	37766.88
532.99	37872.21
533.16	37521.13
533.33	37703.69
533.50	37914.34
533.67	38054.77
533.84	37799.65
534.01	37942.42
534.18	37975.19
534.35	38061.79
534.52	37879.23
534.69	38164.78
534.86	38469.04
535.03	38202.22
535.20	38864.60
535.37	38705.44
535.54	38752.25
535.71	38253.72
535.88	38464.36
536.05	38457.34
536.22	39054.18
536.38	38834.17
536.55	38391.81
536.72	38845.87
536.89	38267.76
537.06	38569.69
537.23	38782.68
537.40	38763.95
537.57	38724.16
537.74	39009.71
537.91	39267.17
538.08	38880.98
538.25	38714.80
538.42	39285.89
538.59	39236.74
538.75	39072.90
538.92	39213.34
539.09	39393.56
539.26	39412.28
539.43	39737.62
539.60	39658.04
539.77	39384.19
539.94	39388.88
540.11	39777.40
540.28	39599.52
540.44	39342.06
540.61	39466.11
540.78	39718.89
540.95	39562.08
541.12	39646.33
541.29	39519.95
541.46	39634.63
541.62	40105.08
541.79	39852.30
541.96	39920.18
542.13	39571.44
542.30	39697.83
542.47	40208.06
542.63	39983.37
542.80	40149.55
542.97	40685.53
543.14	40533.40
543.31	40371.90
543.48	40341.47
543.64	40921.93
543.81	40776.81
543.98	40844.69
544.15	40271.26
544.32	40758.09
544.48	41155.98
544.65	40868.09
544.82	40797.88
544.99	40282.96
545.16	40905.54
545.32	40968.74
545.49	40987.46
545.66	40971.08
545.83	41022.57
546.00	41310.46
546.16	40966.40
546.33	40893.84
546.50	40809.58
546.67	41123.21
546.83	40900.86
547.00	40858.73
547.17	40971.08
547.34	41345.56
547.50	41329.18
547.67	41670.90
547.84	41240.24
548.00	42064.11
548.17	41757.50
548.34	41392.37
548.51	41670.90
548.67	41656.85
548.84	41965.81
549.01	41677.92
549.18	41631.11
549.34	41787.92
549.51	42213.90
549.68	41872.18
549.84	42260.71
550.01	42117.94
550.18	41860.48
550.34	41722.39
550.51	42164.75
550.68	42113.26
550.84	41818.35
551.01	41865.16
551.18	42321.57
551.34	42286.46
551.51	42185.82
551.68	42630.52
551.84	42295.82
552.01	42351.99
552.18	42103.90
552.34	41998.57
552.51	42761.59
552.68	42148.37
552.84	42485.40
553.01	42518.17
553.18	42319.23
553.34	42543.92
553.51	42513.49
553.67	42499.45
553.84	43105.65
554.01	42948.83
554.17	42869.25
554.34	43180.54
554.51	43070.54
554.67	42871.59
554.84	42784.99
555.00	42632.86
555.17	42911.38
555.33	42997.98
555.50	42871.59
555.67	42712.44
555.83	42976.92
556.00	43398.21
556.16	43335.02
556.33	43302.25
556.50	43124.37
556.66	43456.73
556.83	43115.01
556.99	43306.93
557.16	42892.66
557.32	43100.97
557.49	43374.81
557.65	43182.88
557.82	42920.74
557.98	42674.99
558.15	43353.74
558.32	43393.53
558.48	43295.23
558.65	43438.00
558.81	43210.97
558.98	43339.70
559.14	43555.03
559.31	43445.02
559.47	43388.85
559.64	43878.02
559.80	43964.62
559.97	43587.80
560.13	43517.58
560.30	43297.57
560.46	43604.18
560.63	43611.20
560.79	43835.89
560.96	43728.23
561.12	43852.28
561.29	43517.58
561.45	43332.68
561.61	43863.98
561.78	43768.02
561.94	43704.82
562.11	43800.79
562.27	44107.40
562.44	43756.32
562.60	44278.25
562.77	43999.73
562.93	43845.26
563.10	43887.39
563.26	43997.39
563.42	43583.12
563.59	44060.58
563.75	43885.04
563.92	44069.95
564.08	44432.73
564.24	44151.87
564.41	44231.44
564.57	44238.47
564.74	44299.32
564.90	44069.95
565.07	44346.13
565.23	43910.79
565.39	43409.92
565.56	44460.82
565.72	43833.55
565.88	43971.64
566.05	43798.44
566.21	43871.00
566.38	43751.63
566.54	43847.60
566.70	44425.71
566.87	44463.16
567.03	43941.22
567.19	44729.98
567.36	44556.78
567.52	44144.84
567.68	44870.41
567.85	44224.42
568.01	44229.10
568.17	44100.37
568.34	44648.06
568.50	44186.97
568.66	44189.31
568.83	44355.49
568.99	44437.41
569.15	43973.98
569.32	44414.01
569.48	43679.08
569.64	44119.10
569.81	44835.30
569.97	44296.98
570.13	44332.09
570.30	44233.78
570.46	43889.73
570.62	44009.09
570.78	44107.40
570.95	44149.53
571.11	44641.04
571.27	44233.78
571.43	44322.72
571.60	44531.03
571.76	44458.48
571.92	43875.68
572.09	44622.31
572.25	44198.68
572.41	44062.93
572.57	44404.64
572.74	44729.98
572.90	44641.04
573.06	44355.49
573.22	44706.57
573.38	44144.84
573.55	44369.54
573.71	44418.69
573.87	44226.76
574.03	44231.44
574.20	44514.65
574.36	44765.09
574.52	44931.26
574.68	45027.23
574.84	44505.29
575.01	44889.13
575.17	44811.90
575.33	44395.28
575.49	44341.45
575.65	44659.76
575.82	44753.38
575.98	44786.15
576.14	45099.78
576.30	44622.31
576.46	44825.94
576.62	44514.65
576.79	44374.22
576.95	44395.28
577.11	44992.12
577.27	44444.43
577.43	44519.33
577.59	44790.83
577.75	44659.76
577.92	44306.34
578.08	44753.38
578.24	44832.96
578.40	44559.12
578.56	44790.83
578.72	44793.17
578.88	44657.42
579.04	44758.06
579.21	44236.12
579.37	44439.75
579.53	44741.68
579.69	44512.31
579.85	44615.29
580.01	44524.01
580.17	45041.27
580.33	45085.74
580.49	44692.53
580.65	44886.79
580.82	45038.93
580.98	44577.84
581.14	44287.62
581.30	45029.57
581.46	44542.74
581.62	44645.72
581.78	44669.12
581.94	45221.49
582.10	44814.24
582.26	44669.12
582.42	44612.95
582.58	44870.41
582.74	44629.34
582.90	44402.30
583.06	44636.36
583.22	44877.43
583.38	45010.84
583.54	44809.56
583.70	44559.12
583.86	44526.35
584.02	44538.05
584.18	44947.65
584.34	44942.97
584.50	44701.89
584.66	44774.45
584.82	44842.32
584.98	44905.52
585.14	45167.66
585.30	44615.29
585.46	44917.22
585.62	44472.52
585.78	44697.21
585.94	44566.14
586.10	44481.88
586.26	44884.45
586.42	45001.48
586.58	44877.43
586.74	44851.69
586.90	44327.41
587.06	44566.14
587.22	45504.70
587.38	44559.12
587.54	44786.15
587.70	45090.42
587.86	44975.73
588.02	44896.16
588.18	45116.17
588.34	44842.32
588.49	44624.65
588.65	44589.55
588.81	44252.51
588.97	44575.50
589.13	44357.83
589.29	44671.46
589.45	44711.25
589.61	45219.15
589.77	45249.58
589.93	45251.92
590.08	45059.99
590.24	44910.20
