SpectraSuite Data File
++++++++++++++++++++++++++++++++++++
Date: Fri Oct 25 11:33:41 EDT 2013
User: price-jones
Dark Spectrum Present: No
Reference Spectrum Present: No
Number of Sampled Component Spectra: 1
Spectrometers: USB2+H05261
Integration Time (usec): 100000 (USB2+H05261)
Spectra Averaged: 1 (USB2+H05261)
Boxcar Smoothing: 0 (USB2+H05261)
Correct for Electrical Dark: No (USB2+H05261)
Strobe/Lamp Enabled: No (USB2+H05261)
Correct for Detector Non-linearity: No (USB2+H05261)
Correct for Stray Light: No (USB2+H05261)
Number of Pixels in Processed Spectrum: 2048
>>>>>Begin Processed Spectral Data<<<<<
365.73	238.73
365.92	238.73
366.12	238.73
366.32	154.48
366.52	182.56
366.72	173.20
366.91	149.79
367.11	187.24
367.31	175.54
367.51	138.09
367.70	147.45
367.90	126.39
368.10	156.82
368.30	110.01
368.49	159.16
368.69	210.65
368.89	198.95
369.09	299.59
369.28	184.90
369.48	208.31
369.68	212.99
369.87	276.18
370.07	222.35
370.27	290.23
370.47	294.91
370.66	449.38
370.86	411.93
371.06	531.30
371.25	519.60
371.45	538.32
371.65	547.69
371.84	533.64
372.04	615.56
372.24	526.62
372.44	594.50
372.63	627.26
372.83	568.75
373.03	540.66
373.22	622.58
373.42	667.05
373.62	669.39
373.81	622.58
374.01	631.94
374.21	655.35
374.40	676.41
374.60	589.82
374.79	676.41
374.99	641.31
375.19	657.69
375.38	615.56
375.58	648.33
375.78	711.52
375.97	657.69
376.17	676.41
376.37	662.37
376.56	744.29
376.76	657.69
376.95	608.54
377.15	737.27
377.35	713.86
377.54	753.65
377.74	648.33
377.93	653.01
378.13	699.82
378.33	713.86
378.52	730.25
378.72	702.16
378.91	732.59
379.11	746.63
379.31	655.35
379.50	681.10
379.70	784.08
379.89	737.27
380.09	669.39
380.28	734.93
380.48	699.82
380.68	688.12
380.87	692.80
381.07	711.52
381.26	741.95
381.46	793.44
381.65	767.70
381.85	812.17
382.04	779.40
382.24	798.12
382.43	840.25
382.63	765.36
382.83	819.19
383.02	830.89
383.22	807.48
383.41	772.38
383.61	755.99
383.80	828.55
384.00	816.85
384.19	840.25
384.39	854.30
384.58	763.01
384.78	809.83
384.97	746.63
385.17	734.93
385.36	772.38
385.56	835.57
385.75	877.70
385.95	891.74
386.14	868.34
386.34	814.51
386.53	877.70
386.72	847.27
386.92	891.74
387.11	861.32
387.31	851.96
387.50	873.02
387.70	926.85
387.89	889.40
388.09	938.55
388.28	912.81
388.48	940.90
388.67	926.85
388.86	978.34
389.06	910.47
389.25	877.70
389.45	1006.43
389.64	861.32
389.84	945.58
390.03	952.60
390.22	952.60
390.42	926.85
390.61	915.15
390.81	961.96
391.00	964.30
391.19	1071.97
391.39	1055.58
391.58	985.37
391.78	1004.09
391.97	1071.97
392.16	997.07
392.36	1078.99
392.55	1114.10
392.75	1057.92
392.94	1015.79
393.13	1062.60
393.33	1020.47
393.52	1104.73
393.71	1109.41
393.91	1062.60
394.10	1090.69
394.29	1118.78
394.49	1174.95
394.68	1167.93
394.88	1160.91
395.07	1170.27
395.26	1196.01
395.46	1188.99
395.65	1142.18
395.84	1139.84
396.04	1277.93
396.23	1158.57
396.42	1184.31
396.62	1200.69
396.81	1193.67
397.00	1198.35
397.19	1338.79
397.39	1200.69
397.58	1282.61
397.77	1188.99
397.97	1188.99
398.16	1301.34
398.35	1320.06
398.55	1163.25
398.74	1273.25
398.93	1256.87
399.12	1338.79
399.32	1299.00
399.51	1383.26
399.70	1282.61
399.90	1296.66
400.09	1359.85
400.28	1495.60
400.47	1289.64
400.67	1448.79
400.86	1383.26
401.05	1448.79
401.24	1364.53
401.44	1526.03
401.63	1418.36
401.82	1430.07
402.01	1434.75
402.21	1465.18
402.40	1495.60
402.59	1383.26
402.78	1416.02
402.97	1575.18
403.17	1577.52
403.36	1572.84
403.55	1537.73
403.74	1638.38
403.93	1680.50
404.13	1621.99
404.32	1638.38
404.51	1636.03
404.70	1624.33
404.89	1551.78
405.09	1678.16
405.28	1645.40
405.47	1664.12
405.66	1720.29
405.85	1748.38
406.05	1736.68
406.24	1741.36
406.43	1713.27
406.62	1863.07
406.81	1853.70
407.00	1717.95
407.20	1802.21
407.39	1774.13
407.58	1975.41
407.77	1778.81
407.96	1937.96
408.15	1893.49
408.34	1792.85
408.54	1921.58
408.73	1839.66
408.92	1987.11
409.11	1944.99
409.30	2024.56
409.49	1872.43
409.68	1984.77
409.87	1914.56
410.07	2099.46
410.26	2012.86
410.45	2094.78
410.64	2108.82
410.83	2111.16
411.02	2111.16
411.21	2148.61
411.40	2165.00
411.59	2230.53
411.78	2132.23
411.98	2235.21
412.17	2218.83
412.36	2324.15
412.55	2342.88
412.74	2342.88
412.93	2326.49
413.12	2319.47
413.31	2394.37
413.50	2392.03
413.69	2434.16
413.88	2490.33
414.07	2516.08
414.26	2455.22
414.45	2399.05
414.64	2291.38
414.83	2558.21
415.02	2590.97
415.22	2492.67
415.41	2661.19
415.60	2544.16
415.79	2761.83
415.98	2764.17
416.17	2670.55
416.36	2656.51
416.55	2717.36
416.74	2724.38
416.93	2677.57
417.12	2771.19
417.31	2846.09
417.50	2750.13
417.69	2911.63
417.88	2998.23
418.07	2958.44
418.26	2939.71
418.45	2965.46
418.64	3023.97
418.83	3101.21
419.02	2942.05
419.21	3166.74
419.39	3108.23
419.58	3133.98
419.77	2995.89
419.96	3115.25
420.15	3164.40
420.34	3075.46
420.53	3185.47
420.72	3204.19
420.91	3328.24
421.10	3197.17
421.29	3356.33
421.48	3304.84
421.67	3260.37
421.86	3248.66
422.05	3173.77
422.24	3370.37
422.43	3353.99
422.61	3351.65
422.80	3382.07
422.99	3314.20
423.18	3468.67
423.37	3382.07
423.56	3414.84
423.75	3370.37
423.94	3391.44
424.13	3190.15
424.32	3286.11
424.50	3508.46
424.69	3442.93
424.88	3524.85
425.07	3508.46
425.26	3363.35
425.45	3550.59
425.64	3492.08
425.83	3403.14
426.01	3538.89
426.20	3475.70
426.39	3358.67
426.58	3466.33
426.77	3592.72
426.96	3618.47
427.15	3478.04
427.33	3473.36
427.52	3623.15
427.71	3716.77
427.90	3597.40
428.09	3756.56
428.28	3719.11
428.46	3634.85
428.65	3772.94
428.84	3742.52
429.03	3817.41
429.22	3691.02
429.40	3662.94
429.59	3808.05
429.78	3740.18
429.97	3712.09
430.16	3786.99
430.34	3878.27
430.53	3775.28
430.72	3784.65
430.91	3892.31
431.10	3857.20
431.28	3861.88
431.47	4037.42
431.66	4102.96
431.85	3946.14
432.03	3925.08
432.22	4004.66
432.41	3997.64
432.60	3990.61
432.79	4105.30
432.97	4042.11
433.16	4241.05
433.35	3971.89
433.54	4210.62
433.72	4278.50
433.91	4121.68
434.10	4250.41
434.28	4119.34
434.47	4086.58
434.66	4271.48
434.85	4280.84
435.03	4337.01
435.22	4339.35
435.41	4524.26
435.59	4440.00
435.78	4557.02
435.97	4409.57
436.16	4442.34
436.34	4468.08
436.53	4477.44
436.72	4514.89
436.90	4458.72
437.09	4437.66
437.28	4365.10
437.46	4601.49
437.65	4542.98
437.84	4580.43
438.02	4688.09
438.21	4667.03
438.40	4568.73
438.58	4758.31
438.77	4779.37
438.96	4641.28
439.14	4943.21
439.33	4873.00
439.52	5055.56
439.70	4880.02
439.89	5055.56
440.08	5018.11
440.26	4994.70
440.45	4924.49
440.63	5114.07
440.82	5275.57
441.01	5083.64
441.19	5160.88
441.38	5254.50
441.57	5315.36
441.75	5336.42
441.94	5465.15
442.12	5490.90
442.31	5521.32
442.50	5610.26
442.68	5502.60
442.87	5387.91
443.05	5364.51
443.24	5659.42
443.43	5607.92
443.61	5645.37
443.80	5713.25
443.98	5373.87
444.17	5303.65
444.35	5668.78
444.54	5788.14
444.73	5530.69
444.91	5668.78
445.10	5582.18
445.28	5673.46
445.47	5839.64
445.65	5624.31
445.84	5792.83
446.02	5795.17
446.21	5582.18
446.39	5500.26
446.58	5809.21
446.77	5898.15
446.95	5570.48
447.14	5636.01
447.32	5797.51
447.51	5820.91
447.69	5741.33
447.88	5703.89
448.06	5710.91
448.25	5788.14
448.43	5959.00
448.62	5944.96
448.80	5710.91
448.99	5877.09
449.17	5926.24
449.36	5912.19
449.54	5954.32
449.73	5902.83
449.91	6106.46
450.10	5968.37
450.28	6246.89
450.46	6188.38
450.65	6270.30
450.83	6193.06
451.02	6118.16
451.20	6246.89
451.39	6101.78
451.57	6090.07
451.76	6244.55
451.94	6359.24
452.13	6305.40
452.31	6394.34
452.49	6197.74
452.68	6356.90
452.86	6267.95
453.05	6415.41
453.23	6384.98
453.42	6406.05
453.60	6251.57
453.78	6413.07
453.97	6338.17
454.15	6473.92
454.34	6499.67
454.52	6689.25
454.70	6752.45
454.89	6567.54
455.07	6771.17
455.26	6754.79
455.44	6621.38
455.62	6696.27
455.81	6768.83
455.99	6757.13
456.17	6761.81
456.36	6778.19
456.54	6832.02
456.73	7026.29
456.91	7105.87
457.09	7061.40
457.28	7094.16
457.46	6895.22
457.64	7140.97
457.83	7138.63
458.01	7152.68
458.19	7143.32
458.38	7183.10
458.56	7248.64
458.74	7234.60
458.93	7162.04
459.11	7126.93
459.29	7232.26
459.48	7447.58
459.66	7353.96
459.84	7227.57
460.03	7332.90
460.21	7229.91
460.39	7239.28
460.57	7293.11
460.76	7424.18
460.94	7440.56
461.12	7480.35
461.31	7585.68
461.49	7501.42
461.67	7332.90
461.85	7625.47
462.04	7639.51
462.22	8109.96
462.40	7915.69
462.59	7758.88
462.77	7559.93
462.95	7742.49
463.13	7597.38
463.32	7779.94
463.50	8039.74
463.68	7812.71
463.86	7829.09
464.05	7941.44
464.23	7719.09
464.41	7868.88
464.59	7871.22
464.78	8025.70
464.96	7981.23
465.14	7875.90
465.32	8142.72
465.50	8095.91
465.69	8145.06
465.87	8128.68
466.05	8142.72
466.23	8184.85
466.41	8386.14
466.60	8322.94
466.78	8180.17
466.96	8205.92
467.14	8194.22
467.32	8479.76
467.51	8468.06
467.69	8018.68
467.87	8119.32
468.05	8421.25
468.23	8189.53
468.41	8404.86
468.60	8428.27
468.78	8402.52
468.96	8334.65
469.14	8573.38
469.32	8688.07
469.50	8409.54
469.69	8779.35
469.87	8894.04
470.05	8643.60
470.23	8826.16
470.41	8713.81
470.59	8868.29
470.77	8704.45
470.95	8966.59
471.14	9025.11
471.32	8929.14
471.50	9011.06
471.68	9085.96
471.86	9334.06
472.04	9277.88
472.22	9411.29
472.40	8926.80
472.58	9210.01
472.77	9179.58
472.95	9408.95
473.13	9799.82
473.31	9462.79
473.49	9554.07
473.67	9404.27
473.85	9579.81
474.03	9837.27
474.21	9893.44
474.39	9767.06
474.57	9888.76
474.75	10012.81
474.93	10083.03
475.12	9973.02
475.30	10050.26
475.48	10033.88
475.66	10307.72
475.84	10090.05
476.02	10420.06
476.20	10410.70
476.38	10410.70
476.56	10665.82
476.74	10551.14
476.92	10801.57
477.10	10457.51
477.28	10888.17
477.46	10778.17
477.64	10731.36
477.82	11023.92
478.00	11452.24
478.18	11190.10
478.36	10916.26
478.54	11309.47
478.72	11255.64
478.90	11707.36
479.08	11531.82
479.26	11913.33
479.44	11419.47
479.62	11676.93
479.80	11676.93
479.98	11978.86
480.16	12475.06
480.34	11976.52
480.52	12154.40
480.70	12135.68
480.88	12170.79
481.06	12273.77
481.24	12444.63
481.41	12531.23
481.59	12629.53
481.77	12779.32
481.95	13104.66
482.13	13104.66
482.31	13067.21
482.49	13228.71
482.67	13202.96
482.85	13666.39
483.03	13469.78
483.21	13626.60
483.39	14033.85
483.57	13881.72
483.74	13532.98
483.92	13841.93
484.10	13958.96
484.28	14342.80
484.46	14288.97
484.64	14581.54
484.82	14267.91
485.00	14679.84
485.18	14913.89
485.35	15344.55
485.53	14890.49
485.71	15051.99
485.89	15676.91
486.07	15744.78
486.25	15346.89
486.43	15716.70
486.61	15719.04
486.78	16013.95
486.96	15864.15
487.14	16196.51
487.32	16135.65
487.50	16215.23
487.68	16510.14
487.85	16762.92
488.03	16807.39
488.21	17088.25
488.39	16828.45
488.57	17235.70
488.75	17317.62
488.92	17254.43
489.10	17565.72
489.28	17392.52
489.46	17991.70
489.64	17434.65
489.81	18363.84
489.99	18405.97
490.17	18368.52
490.35	18651.73
490.53	18572.15
490.70	18518.32
490.88	18801.52
491.06	18808.54
491.24	18726.63
491.41	19253.25
491.59	19077.71
491.77	19278.99
491.95	19520.07
492.13	19346.87
492.30	19644.12
492.48	19903.92
492.66	20086.48
492.84	19793.91
493.01	20470.33
493.19	20166.06
493.37	20442.24
493.54	20540.54
493.72	20596.71
493.90	20718.42
494.08	21036.74
494.25	21027.37
494.43	21170.15
494.61	21343.35
494.79	21553.99
494.96	21212.28
495.14	21561.02
495.32	21673.36
495.49	21886.35
495.67	21661.66
495.85	21919.12
496.02	22064.23
496.20	22148.49
496.38	22401.27
496.55	22410.63
496.73	22930.23
496.91	22567.45
497.09	23321.10
497.26	23063.64
497.44	22904.48
497.62	23372.59
497.79	23496.64
497.97	23328.12
498.14	23601.96
498.32	23655.79
498.50	23733.03
498.67	24128.58
498.85	24093.47
499.03	24156.67
499.20	23903.89
499.38	24229.23
499.56	24540.52
499.73	24477.32
499.91	24910.32
500.08	25137.35
500.26	24463.28
500.44	24821.38
500.61	24915.00
500.79	24702.01
500.97	25174.80
501.14	25568.01
501.32	25142.03
501.49	25256.72
501.67	25694.40
501.84	25649.93
502.02	25858.24
502.20	25766.96
502.37	25568.01
502.55	25727.17
502.72	26150.81
502.90	25909.73
503.07	26101.65
503.25	26150.81
503.43	25989.31
503.60	26239.75
503.78	26518.27
503.95	26551.04
504.13	26698.49
504.30	26714.87
504.48	27115.11
504.65	27070.64
504.83	26827.22
505.01	27105.74
505.18	27168.94
505.36	27461.51
505.53	27531.72
505.71	27501.29
505.88	27559.81
506.06	27459.16
506.23	27779.82
506.41	27562.15
506.58	27777.48
506.76	27775.14
506.93	28128.56
507.11	28032.60
507.28	27999.83
507.46	28105.15
507.63	28444.53
507.81	28439.85
507.98	28575.60
508.16	28762.84
508.33	28826.04
508.50	28545.17
508.68	28737.10
508.85	28730.08
509.03	28957.11
509.20	28959.45
509.38	29589.05
509.55	29060.09
509.73	29584.37
509.90	29322.23
510.08	29436.92
510.25	29656.93
510.42	29628.84
510.60	29792.68
510.77	29890.98
510.95	30068.86
511.12	30057.16
511.30	30316.96
511.47	29919.07
511.64	29998.65
511.82	30590.80
511.99	30178.87
512.17	30745.28
512.34	30300.58
512.51	31182.96
512.69	31573.83
512.86	30651.66
513.04	31229.77
513.21	30869.33
513.38	31089.34
513.56	31466.16
513.73	31428.71
513.90	31101.04
514.08	31393.61
514.25	31798.52
514.43	31452.12
514.60	31576.17
514.77	31803.20
514.95	31828.95
515.12	31887.46
515.29	31728.30
515.47	32027.89
515.64	32180.03
515.81	32093.43
515.99	32170.66
516.16	32381.31
516.33	32481.95
516.51	32680.90
516.68	32194.07
516.85	32514.72
517.03	32875.16
517.20	32723.03
517.37	32856.44
517.54	32814.31
517.72	33209.86
517.89	33158.37
518.06	33259.01
518.24	33060.07
518.41	32992.19
518.58	33179.43
518.75	32816.65
518.93	33834.78
519.10	33432.21
519.27	33439.23
519.45	33429.87
519.62	33874.57
519.79	33991.60
519.96	33766.91
520.14	33928.41
520.31	33949.47
520.48	34511.20
520.65	34216.29
520.83	34642.27
521.00	34485.45
521.17	34251.40
521.34	34445.66
521.52	34998.03
521.69	34689.08
521.86	34960.58
522.03	34799.08
522.20	34766.32
522.38	35192.30
522.55	34958.24
522.72	35012.07
522.89	35096.33
523.07	35309.32
523.24	35030.80
523.41	35494.22
523.58	35431.03
523.75	35789.13
523.92	35400.60
524.10	35330.39
524.27	35735.30
524.44	35718.92
524.61	36273.62
524.78	35761.05
524.96	36388.31
525.13	35786.79
525.30	36622.36
525.47	36488.95
525.64	36320.43
525.81	36327.45
525.98	36610.66
526.16	36605.98
526.33	36601.30
526.50	36893.86
526.67	36521.72
526.84	36615.34
527.01	36418.74
527.18	37090.47
527.36	37008.55
527.53	36872.80
527.70	37502.40
527.87	37376.01
528.04	37097.49
528.21	36919.61
528.38	37179.41
528.55	37425.17
528.72	37226.22
528.89	37338.57
529.07	37422.83
529.24	37034.30
529.41	37633.47
529.58	37647.52
529.75	38043.07
529.92	37778.59
530.09	38064.13
530.26	37975.19
530.43	37801.99
530.60	37689.65
530.77	37752.84
530.94	37912.00
531.11	38075.84
531.28	37940.08
531.46	38424.57
531.63	38251.38
531.80	38096.90
531.97	38300.53
532.14	38471.39
532.31	38281.80
532.48	38473.73
532.65	38824.81
532.82	38738.21
532.99	38759.27
533.16	38712.46
533.33	39150.14
533.50	39037.80
533.67	38796.72
533.84	38820.13
534.01	38937.15
534.18	38705.44
534.35	39428.66
534.52	39196.95
534.69	39573.78
534.86	39751.66
535.03	39372.49
535.20	39791.45
535.37	39431.01
535.54	39552.71
535.71	39442.71
535.88	39791.45
536.05	39735.27
536.22	39573.78
536.38	39625.27
536.55	39714.21
536.72	39459.09
536.89	40006.78
537.06	39737.62
537.23	40093.38
537.40	40086.36
537.57	39718.89
537.74	40147.21
537.91	40184.66
538.08	39920.18
538.25	39480.16
538.42	40030.18
538.59	40304.02
538.75	40582.55
538.92	40711.28
539.09	40900.86
539.26	40589.57
539.43	41050.66
539.60	40837.67
539.77	40238.49
539.94	40814.26
540.11	40566.16
540.28	40509.99
540.44	40746.39
540.61	40802.56
540.78	40942.99
540.95	40802.56
541.12	40861.07
541.29	41226.20
541.46	41134.92
541.62	41249.60
541.79	41242.58
541.96	41291.73
542.13	40942.99
542.30	41607.70
542.47	41570.25
542.63	41411.10
542.80	41757.50
542.97	41567.91
543.14	42134.32
543.31	41968.15
543.48	42075.81
543.64	42155.39
543.81	42096.88
543.98	41717.71
544.15	41729.41
544.32	42307.52
544.48	42485.40
544.65	42562.64
544.82	42356.67
544.99	42391.78
545.16	42068.79
545.32	42370.72
545.49	43072.88
545.66	43332.68
545.83	42895.00
546.00	42817.76
546.16	42763.93
546.33	42202.20
546.50	42291.14
546.67	42522.85
546.83	42244.33
547.00	42782.65
547.17	42368.38
547.34	42424.55
547.50	43482.47
547.67	43096.28
547.84	43386.51
548.00	42951.17
548.17	43709.50
548.34	43405.23
548.51	43566.73
548.67	43529.28
548.84	43580.78
549.01	43529.28
549.18	43641.63
549.34	43744.61
549.51	43660.35
549.68	43669.72
549.84	43049.47
550.01	43559.71
550.18	43522.26
550.34	43505.88
550.51	43763.34
550.68	43969.30
550.84	43758.66
551.01	44006.75
551.18	43580.78
551.34	44093.35
551.51	44074.63
551.68	43852.28
551.84	44247.83
552.01	43480.13
552.18	44161.23
552.34	43732.91
552.51	44275.91
552.68	43992.71
552.84	43842.92
553.01	44348.47
553.18	44341.45
553.34	44650.40
553.51	44266.55
553.67	44311.02
553.84	44172.93
554.01	44694.87
554.17	44215.06
554.34	44474.86
554.51	44779.13
554.67	44851.69
554.84	44711.25
555.00	44601.25
555.17	44690.19
555.33	44903.18
555.50	45125.53
555.67	44753.38
555.83	44589.55
556.00	45027.23
556.16	45027.23
556.33	45048.29
556.50	44706.57
556.66	45132.55
556.83	44502.95
556.99	45003.82
557.16	45177.02
557.32	45275.32
557.49	44971.05
557.65	44839.98
557.82	45167.66
557.98	45247.24
558.15	44748.70
558.32	45422.78
558.48	45249.58
558.65	45574.91
558.81	45212.13
558.98	45579.59
559.14	45003.82
559.31	45336.18
559.47	45525.76
559.64	45106.80
559.80	45563.21
559.97	45698.96
560.13	45008.50
560.30	45490.65
560.46	45469.59
560.63	45839.39
560.79	46181.11
560.96	45792.58
561.12	46059.40
561.29	45507.04
561.45	45984.51
561.61	45755.13
561.78	45556.19
561.94	45516.40
562.11	45862.80
562.27	46277.07
562.44	45904.93
562.60	45998.55
562.77	45867.48
562.93	45584.27
563.10	46099.19
563.26	46291.12
563.42	46457.29
563.59	46258.35
563.75	45474.27
563.92	46036.00
564.08	45806.62
564.24	46178.77
564.41	46169.41
564.57	45853.44
564.74	46312.18
564.90	46094.51
565.07	46234.94
565.23	45968.12
565.39	46127.28
565.56	46377.72
565.72	46169.41
565.88	46382.40
566.05	46307.50
566.21	46431.55
566.38	46490.06
566.54	46323.88
566.70	46403.46
566.87	46265.37
567.03	46639.86
567.19	46735.82
567.36	46298.14
567.52	46204.52
567.68	46852.84
567.85	46525.17
568.01	46361.33
568.17	46258.35
568.34	46377.72
568.50	46366.01
568.66	46494.74
568.83	46986.25
568.99	46525.17
569.15	46323.88
569.32	46452.61
569.48	46490.06
569.64	46480.70
569.81	46471.34
569.97	47105.62
570.13	46712.41
570.30	46457.29
570.46	46541.55
570.62	46707.73
570.78	46759.22
570.95	46429.21
571.11	46777.95
571.27	46412.82
571.43	46553.26
571.60	46733.48
571.76	46979.23
571.92	46911.36
572.09	46789.65
572.25	46677.30
572.41	46576.66
572.57	46471.34
572.74	47145.41
572.90	46806.03
573.06	46857.52
573.22	47154.77
573.38	46918.38
573.55	46880.93
573.71	47255.42
573.87	47152.43
574.03	47250.74
574.20	47526.92
574.36	46955.83
574.52	47002.64
574.68	47150.09
574.84	47323.29
575.01	47416.91
575.17	47061.15
575.33	46958.17
575.49	47002.64
575.65	47199.24
575.82	47491.81
575.98	47234.35
576.14	47330.31
576.30	47529.26
576.46	47004.98
576.62	47248.39
576.79	47126.69
576.95	46883.27
577.11	46927.74
577.27	46913.70
577.43	46944.12
577.59	47379.46
577.75	46972.21
577.92	46887.95
578.08	46583.68
578.24	47248.39
578.40	46951.15
578.56	46972.21
578.72	47264.78
578.88	47325.63
579.04	47012.00
579.21	47208.61
579.37	47278.82
579.53	47391.17
579.69	47159.45
579.85	47199.24
580.01	47180.52
580.17	47147.75
580.33	47618.20
580.49	47419.25
580.65	47437.98
580.82	47236.69
580.98	47196.90
581.14	47229.67
581.30	47405.21
581.46	47103.28
581.62	47157.11
581.78	47002.64
581.94	47257.76
582.10	47002.64
582.26	47494.15
582.42	47077.54
582.58	47224.99
582.74	47093.92
582.90	47248.39
583.06	47393.51
583.22	47395.85
583.38	47583.09
583.54	47505.85
583.70	47154.77
583.86	47571.39
584.02	47182.86
584.18	47547.98
584.34	47538.62
584.50	47777.36
584.66	47393.51
584.82	47482.45
584.98	47992.68
585.14	47716.50
585.30	47342.02
585.46	47313.93
585.62	47194.56
585.78	47746.93
585.94	47304.57
586.10	47620.54
586.26	47276.48
586.42	47152.43
586.58	47203.92
586.74	47604.16
586.90	47587.77
587.06	47082.22
587.22	47814.80
587.38	47311.59
587.54	47662.67
587.70	47641.60
587.86	47702.46
588.02	47751.61
588.18	47412.23
588.34	47470.75
588.49	47456.70
588.65	47224.99
588.81	47515.22
588.97	47650.97
589.13	47597.13
589.29	47737.57
589.45	47704.80
589.61	47206.26
589.77	47948.21
589.93	47599.47
