SpectraSuite Data File
++++++++++++++++++++++++++++++++++++
Date: Fri Oct 25 11:34:32 EDT 2013
User: price-jones
Dark Spectrum Present: No
Reference Spectrum Present: No
Number of Sampled Component Spectra: 1
Spectrometers: USB2+H05261
Integration Time (usec): 100000 (USB2+H05261)
Spectra Averaged: 1 (USB2+H05261)
Boxcar Smoothing: 0 (USB2+H05261)
Correct for Electrical Dark: No (USB2+H05261)
Strobe/Lamp Enabled: No (USB2+H05261)
Correct for Detector Non-linearity: No (USB2+H05261)
Correct for Stray Light: No (USB2+H05261)
Number of Pixels in Processed Spectrum: 2048
>>>>>Begin Processed Spectral Data<<<<<
365.73	320.65
365.92	320.65
366.12	320.65
366.32	161.50
366.52	149.79
366.72	177.88
366.91	187.24
367.11	196.60
367.31	149.79
367.51	161.50
367.70	147.45
367.90	203.63
368.10	189.58
368.30	212.99
368.49	166.18
368.69	124.05
368.89	156.82
369.09	227.03
369.28	229.37
369.48	205.97
369.68	217.67
369.87	273.84
370.07	224.69
370.27	306.61
370.47	358.10
370.66	395.55
370.86	592.16
371.06	519.60
371.25	531.30
371.45	512.58
371.65	606.20
371.84	545.34
372.04	517.26
372.24	550.03
372.44	538.32
372.63	550.03
372.83	517.26
373.03	535.98
373.22	484.49
373.42	634.29
373.62	592.16
373.81	636.63
374.01	634.29
374.21	683.44
374.40	596.84
374.60	688.12
374.79	564.07
374.99	671.73
375.19	657.69
375.38	631.94
375.58	599.18
375.78	664.71
375.97	695.14
376.17	699.82
376.37	660.03
376.56	683.44
376.76	662.37
376.95	784.08
377.15	610.88
377.35	699.82
377.54	669.39
377.74	706.84
377.93	617.90
378.13	683.44
378.33	760.67
378.52	664.71
378.72	631.94
378.91	711.52
379.11	702.16
379.31	711.52
379.50	685.78
379.70	730.25
379.89	732.59
380.09	734.93
380.28	662.37
380.48	660.03
380.68	751.31
380.87	702.16
381.07	678.76
381.26	758.33
381.46	753.65
381.65	716.20
381.85	770.04
382.04	856.64
382.24	786.42
382.43	744.29
382.63	791.10
382.83	772.38
383.02	746.63
383.22	763.01
383.41	795.78
383.61	819.19
383.80	774.72
384.00	772.38
384.19	823.87
384.39	807.48
384.58	781.74
384.78	856.64
384.97	833.23
385.17	816.85
385.36	777.06
385.56	774.72
385.75	898.77
385.95	856.64
386.14	816.85
386.34	873.02
386.53	851.96
386.72	837.91
386.92	936.21
387.11	856.64
387.31	943.24
387.50	863.66
387.70	802.80
387.89	929.19
388.09	917.49
388.28	938.55
388.48	915.15
388.67	898.77
388.86	980.68
389.06	915.15
389.25	945.58
389.45	950.26
389.64	910.47
389.84	952.60
390.03	894.08
390.22	959.62
390.42	954.94
390.61	887.06
390.81	983.02
391.00	968.98
391.19	997.07
391.39	950.26
391.58	940.90
391.78	940.90
391.97	976.00
392.16	957.28
392.36	1050.90
392.55	987.71
392.75	1039.20
392.94	1062.60
393.13	973.66
393.33	945.58
393.52	1083.67
393.71	1160.91
393.91	1069.62
394.10	1041.54
394.29	1027.50
394.49	1011.11
394.68	1048.56
394.88	1060.26
395.07	1069.62
395.26	1125.80
395.46	1144.52
395.65	1165.59
395.84	1184.31
396.04	1160.91
396.23	1170.27
396.42	1240.48
396.62	1224.10
396.81	1177.29
397.00	1130.48
397.19	1135.16
397.39	1128.14
397.58	1186.65
397.77	1261.55
397.97	1226.44
398.16	1228.78
398.35	1233.46
398.55	1233.46
398.74	1270.91
398.93	1329.42
399.12	1284.95
399.32	1284.95
399.51	1263.89
399.70	1270.91
399.90	1270.91
400.09	1303.68
400.28	1296.66
400.47	1247.51
400.67	1359.85
400.86	1306.02
401.05	1355.17
401.24	1343.47
401.44	1380.92
401.63	1320.06
401.82	1343.47
402.01	1432.41
402.21	1378.58
402.40	1441.77
402.59	1448.79
402.78	1430.07
402.97	1577.52
403.17	1549.43
403.36	1430.07
403.55	1528.37
403.74	1409.00
403.93	1605.61
404.13	1526.03
404.32	1549.43
404.51	1526.03
404.70	1666.46
404.89	1577.52
405.09	1680.50
405.28	1657.10
405.47	1633.69
405.66	1610.29
405.85	1666.46
406.05	1654.76
406.24	1610.29
406.43	1685.19
406.62	1741.36
406.81	1757.74
407.00	1643.06
407.20	1708.59
407.39	1746.04
407.58	1778.81
407.77	1816.26
407.96	1769.44
408.15	1748.38
408.34	1867.75
408.54	1916.90
408.73	1750.72
408.92	1858.39
409.11	1811.57
409.30	1928.60
409.49	1881.79
409.68	1781.15
409.87	1872.43
410.07	1898.17
410.26	1921.58
410.45	1949.67
410.64	2062.01
410.83	2026.90
411.02	2139.25
411.21	2069.03
411.40	2167.34
411.59	2080.74
411.78	2050.31
411.98	1987.11
412.17	2148.61
412.36	2328.83
412.55	2129.89
412.74	2218.83
412.93	2267.98
413.12	2221.17
413.31	2239.89
413.50	2296.07
413.69	2349.90
413.88	2401.39
414.07	2345.22
414.26	2377.98
414.45	2380.32
414.64	2415.43
414.83	2483.31
415.02	2469.27
415.22	2576.93
415.41	2438.84
415.60	2506.71
415.79	2572.25
415.98	2651.83
416.17	2452.88
416.36	2654.17
416.55	2612.04
416.74	2665.87
416.93	2700.98
417.12	2801.62
417.31	2626.08
417.50	2785.24
417.69	2818.00
417.88	2846.09
418.07	2656.51
418.26	2944.39
418.45	2881.20
418.64	2913.97
418.83	2974.82
419.02	2958.44
419.21	2953.76
419.39	3014.61
419.58	2906.95
419.77	2869.50
419.96	2991.20
420.15	3005.25
420.34	3038.02
420.53	3115.25
420.72	3162.06
420.91	3159.72
421.10	3241.64
421.29	3119.93
421.48	3178.45
421.67	3208.87
421.86	3176.11
422.05	3173.77
422.24	3148.02
422.43	3047.38
422.61	3243.98
422.80	3276.75
422.99	3253.34
423.18	3269.73
423.37	3241.64
423.56	3239.30
423.75	3323.56
423.94	3215.90
424.13	3169.09
424.32	3133.98
424.50	3300.16
424.69	3396.12
424.88	3424.20
425.07	3346.97
425.26	3155.04
425.45	3311.86
425.64	3337.60
425.83	3325.90
426.01	3346.97
426.20	3318.88
426.39	3389.10
426.58	3325.90
426.77	3339.94
426.96	3494.42
427.15	3323.56
427.33	3400.80
427.52	3318.88
427.71	3370.37
427.90	3414.84
428.09	3595.06
428.28	3527.19
428.46	3566.98
428.65	3503.78
428.84	3641.87
429.03	3571.66
429.22	3517.83
429.40	3667.62
429.59	3616.13
429.78	3602.08
429.97	3597.40
430.16	3611.45
430.34	3658.26
430.53	3667.62
430.72	3716.77
430.91	3702.73
431.10	3770.60
431.28	3749.54
431.47	3953.16
431.66	3948.48
431.85	3786.99
432.03	3786.99
432.22	3871.25
432.41	3941.46
432.60	3929.76
432.79	4021.04
432.97	3880.61
433.16	3927.42
433.35	4004.66
433.54	3960.19
433.72	4133.39
433.91	3997.64
434.10	3967.21
434.28	4021.04
434.47	4128.70
434.66	4168.49
434.85	4159.13
435.03	4182.54
435.22	4145.09
435.41	4152.11
435.59	4306.59
435.78	4273.82
435.97	4248.07
436.16	4149.77
436.34	4161.47
436.53	4198.92
436.72	4372.12
436.90	4346.37
437.09	4383.82
437.28	4194.24
437.46	4423.61
437.65	4402.55
437.84	4498.51
438.02	4447.02
438.21	4554.68
438.40	4362.76
438.58	4526.60
438.77	4568.73
438.96	4512.55
439.14	4648.30
439.33	4648.30
439.52	4524.26
439.70	4791.08
439.89	4732.56
440.08	4905.76
440.26	4777.03
440.45	4805.12
440.63	4777.03
440.82	4905.76
441.01	4887.04
441.19	4889.38
441.38	5139.82
441.57	5057.90
441.75	5064.92
441.94	5184.29
442.12	5167.90
442.31	5221.74
442.50	5102.37
442.68	5153.86
442.87	5107.05
443.05	5153.86
443.24	5249.82
443.43	5359.83
443.61	5357.49
443.80	5416.00
443.98	5247.48
444.17	5163.22
444.35	5341.10
444.54	5406.64
444.73	5406.64
444.91	5495.58
445.10	5210.03
445.28	5497.92
445.47	5380.89
445.65	5472.17
445.84	5359.83
446.02	5369.19
446.21	5427.70
446.39	5469.83
446.58	5579.84
446.77	5724.95
446.95	5294.29
447.14	5434.72
447.32	5703.89
447.51	5509.62
447.69	5401.96
447.88	5526.00
448.06	5514.30
448.25	5640.69
448.43	5535.37
448.62	5502.60
448.80	5678.14
448.99	5717.93
449.17	5673.46
449.36	5488.56
449.54	5767.08
449.73	5928.58
449.91	5818.57
450.10	5806.87
450.28	5933.26
450.46	5907.51
450.65	5898.15
450.83	5935.60
451.02	5741.33
451.20	6078.37
451.39	5942.62
451.57	5933.26
451.76	5753.04
451.94	5881.77
452.13	6012.84
452.31	6052.63
452.49	5827.93
452.68	6073.69
452.86	6031.56
453.05	6225.82
453.23	6085.39
453.42	5837.30
453.60	6005.81
453.78	6293.70
453.97	6118.16
454.15	6310.08
454.34	6015.18
454.52	6242.21
454.70	6260.93
454.89	6310.08
455.07	6251.57
455.26	6485.62
455.44	6572.22
455.62	6471.58
455.81	6492.65
455.99	6331.15
456.17	6490.31
456.36	6593.29
456.54	6626.06
456.73	6712.66
456.91	6642.44
457.09	6642.44
457.28	6963.09
457.46	6703.29
457.64	6810.96
457.83	6677.55
458.01	6630.74
458.19	6988.84
458.38	6635.42
458.56	6789.89
458.74	6871.81
458.93	6925.65
459.11	6820.32
459.29	6995.86
459.48	7021.61
459.66	6986.50
459.84	6937.35
460.03	7250.98
460.21	7080.12
460.39	7265.02
460.57	7211.19
460.76	7272.04
460.94	6972.46
461.12	7204.17
461.31	7243.96
461.49	7150.34
461.67	7192.47
461.85	7283.75
462.04	7302.47
462.22	7740.15
462.40	7468.65
462.59	7307.15
462.77	7258.00
462.95	7503.76
463.13	7468.65
463.32	7531.84
463.50	7510.78
463.68	7487.37
463.86	7627.81
464.05	7515.46
464.23	7515.46
464.41	7543.55
464.59	7281.41
464.78	7749.51
464.96	7651.21
465.14	7698.02
465.32	7808.03
465.50	7791.64
465.69	7756.54
465.87	7667.60
466.05	7843.14
466.23	7845.48
466.41	7714.41
466.60	7988.25
466.78	7857.18
466.96	7880.58
467.14	7719.09
467.32	7978.89
467.51	7852.50
467.69	7922.71
467.87	7992.93
468.05	8243.37
468.23	7887.61
468.41	8091.23
468.60	8159.11
468.78	8119.32
468.96	7974.21
469.14	8248.05
469.32	8156.77
469.50	8081.87
469.69	8191.88
469.87	8393.16
470.05	8344.01
470.23	8327.63
470.41	8297.20
470.59	8582.74
470.77	8332.31
470.95	8402.52
471.14	8624.87
471.32	8252.73
471.50	8613.17
471.68	8512.53
471.86	8870.63
472.04	8596.79
472.22	8926.80
472.40	8613.17
472.58	8842.54
472.77	9004.04
472.95	8802.75
473.13	9289.59
473.31	8737.22
473.49	9043.83
473.67	8922.12
473.85	9153.84
474.03	9542.36
474.21	9327.03
474.39	9207.67
474.57	9408.95
474.75	9430.02
474.93	9563.43
475.12	9533.00
475.30	9745.99
475.48	9516.62
475.66	9727.27
475.84	9624.28
476.02	9731.95
476.20	9661.73
476.38	9799.82
476.56	10181.33
476.74	10132.18
476.92	10129.84
477.10	9998.77
477.28	10174.31
477.46	10155.58
477.64	10202.40
477.82	10408.36
478.00	10658.80
478.18	10525.39
478.36	10665.82
478.54	10855.40
478.72	10796.89
478.90	10949.03
479.08	11094.14
479.26	11176.06
479.44	10951.37
479.62	11215.85
479.80	11351.60
479.98	11328.19
480.16	11962.48
480.34	11597.35
480.52	11625.44
480.70	11665.23
480.88	11693.32
481.06	11833.75
481.24	11712.04
481.41	12063.12
481.59	12196.53
481.77	12306.54
481.95	12147.38
482.13	12526.55
482.31	12351.01
482.49	12840.18
482.67	12711.45
482.85	12765.28
483.03	12849.54
483.21	13195.94
483.39	13247.43
483.57	13071.89
483.74	13387.86
483.92	13509.57
484.10	13472.12
484.28	13788.10
484.46	13673.41
484.64	13994.06
484.82	13933.21
485.00	14195.35
485.18	14148.54
485.35	14363.87
485.53	14202.37
485.71	14340.46
485.89	14434.08
486.07	14476.21
486.25	14719.63
486.43	14827.29
486.61	14937.30
486.78	15154.97
486.96	15236.89
487.14	15419.45
487.32	15279.02
487.50	15386.68
487.68	15793.94
487.85	15903.94
488.03	16016.29
488.21	16177.78
488.39	16198.85
488.57	16079.48
488.75	16262.04
488.92	16482.05
489.10	16638.87
489.28	16882.28
489.46	16908.03
489.64	16978.25
489.81	17331.67
489.99	17205.28
490.17	17483.80
490.35	17886.37
490.53	17607.85
490.70	17617.21
490.88	17673.39
491.06	17937.87
491.24	18155.54
491.41	18162.56
491.59	18441.08
491.77	18387.25
491.95	18551.09
492.13	18719.60
492.30	18862.38
492.48	18661.09
492.66	18721.95
492.84	18909.19
493.01	19318.78
493.19	19185.37
493.37	19421.77
493.54	19438.15
493.72	19578.58
493.90	19372.61
494.08	19609.01
494.25	20109.88
494.43	20123.93
494.61	20126.27
494.79	20339.26
494.96	20025.62
495.14	20760.55
495.32	20638.84
495.49	20585.01
495.67	20713.74
495.85	20830.77
496.02	21233.34
496.20	21167.80
496.38	21420.58
496.55	21310.58
496.73	21942.52
496.91	21530.59
497.09	21486.12
497.26	22080.61
497.44	21804.43
497.62	22104.02
497.79	22347.44
497.97	22087.64
498.14	22590.85
498.32	22553.40
498.50	22609.58
498.67	23253.22
498.85	22558.08
499.03	22810.86
499.20	23009.81
499.38	23208.75
499.56	23140.88
499.73	23311.74
499.91	23470.89
500.08	23681.54
500.26	23412.38
500.44	23192.37
500.61	23555.15
500.79	23510.68
500.97	23871.12
501.14	24329.87
501.32	24168.37
501.49	24175.39
501.67	24449.24
501.84	24205.82
502.02	24229.23
502.20	24493.71
502.37	24793.29
502.55	24306.46
502.72	24554.56
502.90	24863.51
503.07	24652.86
503.25	24596.69
503.43	24730.10
503.60	25153.74
503.78	25668.66
503.95	25010.96
504.13	25455.67
504.30	25427.58
504.48	25343.32
504.65	25408.86
504.83	25507.16
505.01	25851.22
505.18	25532.90
505.36	26206.98
505.53	25986.97
505.71	25883.98
505.88	26272.51
506.06	26064.21
506.23	26190.59
506.41	26277.19
506.58	26462.10
506.76	26635.30
506.93	26747.64
507.11	26848.29
507.28	27019.14
507.46	27009.78
507.63	26803.82
507.81	26998.08
507.98	27248.52
508.16	27080.00
508.33	27377.25
508.50	27040.21
508.68	27412.35
508.85	27690.88
509.03	27335.12
509.20	27618.32
509.38	28084.09
509.55	27929.61
509.73	27634.71
509.90	28133.24
510.08	28046.64
510.25	28077.07
510.42	28376.66
510.60	28346.23
510.77	28383.68
510.95	29050.73
511.12	28463.25
511.30	28528.79
511.47	28746.46
511.64	28650.50
511.82	29034.35
511.99	28739.44
512.17	28830.72
512.34	29331.59
512.51	29322.23
512.69	29467.34
512.86	29425.22
513.04	29551.60
513.21	29397.13
513.38	29598.41
513.56	30005.67
513.73	29916.73
513.90	29914.39
514.08	29942.47
514.25	29869.92
514.43	29989.28
514.60	30176.53
514.77	30181.21
514.95	30120.35
515.12	30029.07
515.29	30153.12
515.47	30527.61
515.64	30836.56
515.81	30071.20
515.99	30895.07
516.16	30955.93
516.33	30654.00
516.51	31037.84
516.68	30972.31
516.85	31342.11
517.03	31070.61
517.20	31084.65
517.37	31257.85
517.54	31068.27
517.72	30951.24
517.89	31566.81
518.06	31697.88
518.24	31211.04
518.41	31164.23
518.58	31440.42
518.75	31489.57
518.93	31803.20
519.10	31641.70
519.27	32065.34
519.45	31515.31
519.62	31620.64
519.79	32198.75
519.96	32107.47
520.14	32121.51
520.31	32156.62
520.48	32121.51
520.65	32519.40
520.83	32559.19
521.00	32811.97
521.17	32570.90
521.34	32720.69
521.52	33097.52
521.69	32903.25
521.86	33298.80
522.03	32919.63
522.20	33610.09
522.38	33053.05
522.55	33495.41
522.72	33357.32
522.89	33556.26
523.07	33996.28
523.24	33687.33
523.41	33848.83
523.58	33687.33
523.75	33860.53
523.92	33656.90
524.10	34003.30
524.27	34155.44
524.44	33729.46
524.61	34394.17
524.78	33752.87
524.96	33977.56
525.13	34242.04
525.30	34274.80
525.47	34464.39
525.64	34368.43
525.81	34492.47
525.98	34663.33
526.16	34747.59
526.33	34937.18
526.50	35070.59
526.67	34897.39
526.84	35328.05
527.01	34761.64
527.18	34829.51
527.36	34897.39
527.53	35168.89
527.70	35700.19
527.87	35178.25
528.04	35634.66
528.21	35143.14
528.38	35215.70
528.55	35435.71
528.72	35501.25
528.89	35468.48
529.07	35538.69
529.24	35232.08
529.41	35625.29
529.58	35866.37
529.75	35545.72
529.92	35838.28
530.09	35529.33
530.26	36086.38
530.43	36144.89
530.60	35878.07
530.77	35805.52
530.94	36137.87
531.11	35929.56
531.28	36142.55
531.46	35967.01
531.63	36629.38
531.80	36292.35
531.97	36821.31
532.14	36334.48
532.31	36219.79
532.48	36598.96
532.65	37137.28
532.82	36304.05
532.99	37319.84
533.16	36938.33
533.33	37027.28
533.50	37088.13
533.67	37048.34
533.84	36788.54
534.01	36664.49
534.18	37060.04
534.35	37235.58
534.52	37326.86
534.69	37354.95
534.86	37371.33
535.03	37310.48
535.20	37860.51
535.37	37792.63
535.54	37961.15
535.71	37640.50
535.88	37511.77
536.05	37947.11
536.22	37820.72
536.38	38026.68
536.55	37921.36
536.72	37776.25
536.89	37832.42
537.06	38096.90
537.23	38059.45
537.40	37996.26
537.57	38000.94
537.74	38417.55
537.91	38368.40
538.08	38382.45
538.25	37589.00
538.42	38017.32
538.59	39068.22
538.75	38756.93
538.92	38579.05
539.09	38705.44
539.26	38778.00
539.43	38696.08
539.60	38637.56
539.77	38806.08
539.94	39016.73
540.11	38946.51
540.28	39000.35
540.44	38684.37
540.61	39028.43
540.78	38953.54
540.95	38993.32
541.12	38148.39
541.29	38852.89
541.46	39302.28
541.62	39131.42
541.79	39311.64
541.96	38955.88
542.13	39161.84
542.30	39328.02
542.47	39178.23
542.63	39604.20
542.80	39552.71
542.97	40037.20
543.14	39681.44
543.31	39749.32
543.48	39796.13
543.64	40247.85
543.81	39871.03
543.98	40189.34
544.15	40107.42
544.32	40238.49
544.48	40547.44
544.65	40208.06
544.82	40247.85
544.99	40233.81
545.16	40313.39
545.32	40292.32
545.49	40388.28
545.66	40814.26
545.83	40905.54
546.00	40390.62
546.16	40800.22
546.33	40570.85
546.50	40673.83
546.67	40858.73
546.83	40266.58
547.00	40498.29
547.17	41006.19
547.34	40577.87
547.50	40978.10
547.67	41186.41
547.84	40914.90
548.00	41228.54
548.17	41265.99
548.34	41329.18
548.51	41539.83
548.67	41329.18
548.84	40882.14
549.01	41219.17
549.18	41462.59
549.34	41235.56
549.51	41322.16
549.68	41879.21
549.84	41298.75
550.01	41923.68
550.18	41305.77
550.34	42007.94
550.51	41551.53
550.68	41736.43
550.84	41289.39
551.01	41996.23
551.18	41507.06
551.34	41902.61
551.51	42038.36
551.68	41799.63
551.84	41701.32
552.01	41682.60
552.18	41598.34
552.34	42136.66
552.51	41979.85
552.68	41689.62
552.84	42115.60
553.01	41984.53
553.18	41968.15
553.34	42356.67
553.51	42192.84
553.67	42106.24
553.84	42389.44
554.01	42045.38
554.17	42342.63
554.34	42590.73
554.51	42672.65
554.67	42487.74
554.84	42288.80
555.00	42316.89
555.17	42363.70
555.33	42450.30
555.50	42693.71
555.67	42684.35
555.83	42841.17
556.00	42810.74
556.16	42862.23
556.33	43051.81
556.50	42838.83
556.66	43075.22
556.83	42682.01
556.99	43143.09
557.16	43283.53
557.32	43283.53
557.49	43154.80
557.65	42726.48
557.82	43241.40
557.98	43248.42
558.15	42862.23
558.32	43311.61
558.48	42979.26
558.65	43217.99
558.81	43335.02
558.98	43154.80
559.14	43103.31
559.31	43178.20
559.47	43196.93
559.64	43711.84
559.80	43758.66
559.97	43716.53
560.13	43091.60
560.30	43033.09
560.46	43739.93
560.63	43407.58
560.79	43433.32
560.96	43529.28
561.12	43749.29
561.29	43667.37
561.45	44062.93
561.61	43650.99
561.78	43749.29
561.94	43597.16
562.11	43789.08
562.27	43421.62
562.44	43765.68
562.60	44002.07
562.77	44414.01
562.93	43896.75
563.10	44123.78
563.26	43529.28
563.42	43929.51
563.59	43679.08
563.75	43714.19
563.92	43697.80
564.08	43658.01
564.24	44406.98
564.41	44032.50
564.57	43859.30
564.74	44306.34
564.90	44296.98
565.07	43988.03
565.23	44009.09
565.39	44215.06
565.56	44069.95
565.72	44009.09
565.88	44313.36
566.05	43847.60
566.21	44083.99
566.38	43999.73
566.54	44165.91
566.70	44037.18
566.87	44556.78
567.03	44009.09
567.19	44126.12
567.36	44392.94
567.52	44252.51
567.68	44559.12
567.85	44194.00
568.01	44491.24
568.17	43917.81
568.34	44531.03
568.50	44526.35
568.66	44191.65
568.83	44261.87
568.99	44755.72
569.15	44238.47
569.32	44065.27
569.48	44168.25
569.64	44325.07
569.81	44580.18
569.97	44212.72
570.13	45090.42
570.30	44442.09
570.46	44854.03
570.62	44994.46
570.78	44622.31
570.95	44308.68
571.11	44526.35
571.27	44699.55
571.43	44612.95
571.60	44346.13
571.76	44573.16
571.92	44596.57
572.09	44243.15
572.25	44596.57
572.41	44439.75
572.57	44671.46
572.74	45357.24
572.90	44877.43
573.06	44706.57
573.22	44734.66
573.38	44638.70
573.55	44980.42
573.71	45102.12
573.87	44889.13
574.03	45008.50
574.20	45085.74
574.36	44470.18
574.52	45088.08
574.68	44643.38
574.84	44949.99
575.01	45090.42
575.17	45209.79
575.33	44755.72
575.49	44720.62
575.65	44769.77
575.82	44891.48
575.98	44711.25
576.14	45083.40
576.30	45141.91
576.46	45223.83
576.62	44739.34
576.79	44430.39
576.95	44762.75
577.11	44432.73
577.27	44556.78
577.43	45027.23
577.59	45411.07
577.75	44753.38
577.92	44516.99
578.08	44837.64
578.24	44643.38
578.40	45244.90
578.56	45244.90
578.72	44823.60
578.88	45081.06
579.04	45317.45
579.21	45162.98
579.37	45207.45
579.53	44793.17
579.69	45022.54
579.85	45029.57
580.01	45219.15
580.17	44772.11
580.33	45343.20
580.49	45333.84
580.65	44884.45
580.82	45488.31
580.98	44994.46
581.14	44898.50
581.30	45603.00
581.46	44942.97
581.62	44851.69
581.78	44921.90
581.94	45287.03
582.10	45371.28
582.26	45474.27
582.42	45228.51
582.58	45099.78
582.74	45083.40
582.90	45174.68
583.06	45352.56
583.22	44718.28
583.38	45373.63
583.54	45263.62
583.70	45319.79
583.86	45532.78
584.02	45106.80
584.18	45375.97
584.34	45247.24
584.50	45378.31
584.66	45743.43
584.82	44900.84
584.98	45471.93
585.14	45818.33
585.30	45296.39
585.46	44870.41
585.62	45212.13
585.78	45106.80
585.94	44858.71
586.10	45368.94
586.26	45006.16
586.42	45123.19
586.58	45617.04
586.74	45338.52
586.90	45329.16
587.06	44968.71
587.22	45617.04
587.38	45172.34
587.54	45483.63
587.70	45851.09
587.86	45429.80
588.02	45008.50
588.18	45394.69
588.34	45492.99
588.49	45544.48
588.65	45226.17
588.81	45078.72
588.97	45467.25
589.13	45354.90
589.29	45397.03
589.45	45862.80
589.61	45787.90
589.77	45595.98
589.93	45565.55
590.08	45478.95
590.24	45752.79
