SpectraSuite Data File
++++++++++++++++++++++++++++++++++++
Date: Fri Oct 25 10:44:12 EDT 2013
User: price-jones
Dark Spectrum Present: No
Reference Spectrum Present: No
Number of Sampled Component Spectra: 1
Spectrometers: USB2+H05261
Integration Time (usec): 100000 (USB2+H05261)
Spectra Averaged: 1 (USB2+H05261)
Boxcar Smoothing: 0 (USB2+H05261)
Correct for Electrical Dark: No (USB2+H05261)
Strobe/Lamp Enabled: No (USB2+H05261)
Correct for Detector Non-linearity: No (USB2+H05261)
Correct for Stray Light: No (USB2+H05261)
Number of Pixels in Processed Spectrum: 2048
>>>>>Begin Processed Spectral Data<<<<<
365.73	145.11
365.92	145.11
366.12	145.11
366.32	70.22
366.52	51.49
366.72	77.24
366.91	42.13
367.11	49.15
367.31	0.00
367.51	42.13
367.70	58.51
367.90	60.85
368.10	67.88
368.30	0.00
368.49	0.00
368.69	77.24
368.89	16.38
369.09	4.68
369.28	0.00
369.48	58.51
369.68	46.81
369.87	93.62
370.07	110.01
370.27	60.85
370.47	133.41
370.66	292.57
370.86	418.96
371.06	416.62
371.25	486.83
371.45	489.17
371.65	498.53
371.84	416.62
372.04	510.24
372.24	444.70
372.44	477.47
372.63	507.90
372.83	512.58
373.03	538.32
373.22	571.09
373.42	496.19
373.62	554.71
373.81	610.88
374.01	498.53
374.21	613.22
374.40	484.49
374.60	599.18
374.79	610.88
374.99	547.69
375.19	543.00
375.38	559.39
375.58	517.26
375.78	521.94
375.97	617.90
376.17	631.94
376.37	592.16
376.56	571.09
376.76	648.33
376.95	580.45
377.15	674.07
377.35	650.67
377.54	620.24
377.74	641.31
377.93	610.88
378.13	587.47
378.33	655.35
378.52	608.54
378.72	606.20
378.91	734.93
379.11	587.47
379.31	627.26
379.50	620.24
379.70	713.86
379.89	706.84
380.09	711.52
380.28	704.50
380.48	702.16
380.68	655.35
380.87	692.80
381.07	727.91
381.26	706.84
381.46	746.63
381.65	688.12
381.85	603.86
382.04	615.56
382.24	657.69
382.43	669.39
382.63	601.52
382.83	791.10
383.02	758.33
383.22	725.57
383.41	744.29
383.61	713.86
383.80	779.40
384.00	800.46
384.19	732.59
384.39	753.65
384.58	814.51
384.78	868.34
384.97	802.80
385.17	786.42
385.36	770.04
385.56	777.06
385.75	819.19
385.95	755.99
386.14	816.85
386.34	793.44
386.53	931.53
386.72	781.74
386.92	798.12
387.11	870.68
387.31	917.49
387.50	905.79
387.70	851.96
387.89	908.13
388.09	898.77
388.28	1013.45
388.48	875.36
388.67	919.83
388.86	959.62
389.06	945.58
389.25	976.00
389.45	966.64
389.64	1001.75
389.84	957.28
390.03	992.39
390.22	1013.45
390.42	1100.05
390.61	1032.18
390.81	999.41
391.00	961.96
391.19	1067.28
391.39	1064.94
391.58	1034.52
391.78	992.39
391.97	1100.05
392.16	968.98
392.36	1097.71
392.55	987.71
392.75	999.41
392.94	1029.84
393.13	971.32
393.33	968.98
393.52	980.68
393.71	1111.75
393.91	1193.67
394.10	1188.99
394.29	1247.51
394.49	1179.63
394.68	1181.97
394.88	1151.54
395.07	1242.82
395.26	1203.04
395.46	1214.74
395.65	1186.65
395.84	1238.14
396.04	1252.19
396.23	1144.52
396.42	1121.12
396.62	1198.35
396.81	1254.53
397.00	1219.42
397.19	1275.59
397.39	1291.98
397.58	1376.24
397.77	1317.72
397.97	1469.86
398.16	1320.06
398.35	1474.54
398.55	1439.43
398.74	1469.86
398.93	1544.75
399.12	1437.09
399.32	1401.98
399.51	1509.65
399.70	1502.62
399.90	1526.03
400.09	1462.83
400.28	1598.59
400.47	1720.29
400.67	1666.46
400.86	1652.42
401.05	1682.85
401.24	1643.06
401.44	1626.67
401.63	1746.04
401.82	1729.66
402.01	1603.27
402.21	1638.38
402.40	1846.68
402.59	1668.80
402.78	1706.25
402.97	1792.85
403.17	1696.89
403.36	1790.51
403.55	1867.75
403.74	1940.30
403.93	1849.02
404.13	1816.26
404.32	1888.81
404.51	1860.73
404.70	1937.96
404.89	1846.68
405.09	1966.05
405.28	1856.04
405.47	1952.01
405.66	2029.24
405.85	1926.26
406.05	1928.60
406.24	2008.18
406.43	1940.30
406.62	2094.78
406.81	2111.16
407.00	2071.37
407.20	2146.27
407.39	2054.99
407.58	2078.40
407.77	2230.53
407.96	2188.40
408.15	2235.21
408.34	2146.27
408.54	2335.85
408.73	2263.30
408.92	2289.04
409.11	2139.25
409.30	2275.00
409.49	2289.04
409.68	2340.54
409.87	2232.87
410.07	2249.25
410.26	2380.32
410.45	2284.36
410.64	2466.92
410.83	2422.45
411.02	2462.24
411.21	2492.67
411.40	2455.22
411.59	2553.52
411.78	2567.57
411.98	2609.70
412.17	2672.89
412.36	2635.44
412.55	2597.99
412.74	2841.41
412.93	2686.94
413.12	2715.02
413.31	2768.85
413.50	2761.83
413.69	2794.60
413.88	2958.44
414.07	2883.54
414.26	2871.84
414.45	2902.26
414.64	2857.79
414.83	2951.42
415.02	2970.14
415.22	3080.14
415.41	3101.21
415.60	3143.34
415.79	3145.68
415.98	3215.90
416.17	3321.22
416.36	3166.74
416.55	3192.49
416.74	3241.64
416.93	3185.47
417.12	3260.37
417.31	3304.84
417.50	3361.01
417.69	3414.84
417.88	3449.95
418.07	3414.84
418.26	3386.76
418.45	3431.23
418.64	3541.23
418.83	3501.44
419.02	3508.46
419.21	3613.79
419.39	3557.61
419.58	3562.30
419.77	3630.17
419.96	3691.02
420.15	3693.37
420.34	3634.85
420.53	3812.73
420.72	3974.23
420.91	3833.80
421.10	3829.12
421.29	3845.50
421.48	3676.98
421.67	3803.37
421.86	3749.54
422.05	3562.30
422.24	3831.46
422.43	3716.77
422.61	3733.15
422.80	3810.39
422.99	3885.29
423.18	3833.80
423.37	3915.72
423.56	3859.54
423.75	3974.23
423.94	3805.71
424.13	3613.79
424.32	3763.58
424.50	4004.66
424.69	3925.08
424.88	4051.47
425.07	3969.55
425.26	3794.01
425.45	3784.65
425.64	3908.69
425.83	3850.18
426.01	4051.47
426.20	4009.34
426.39	3791.67
426.58	3955.51
426.77	3983.59
426.96	3929.76
427.15	3988.27
427.33	4070.19
427.52	3875.93
427.71	4079.55
427.90	4102.96
428.09	4133.39
428.28	4215.30
428.46	4168.49
428.65	4140.41
428.84	4287.86
429.03	4372.12
429.22	4018.70
429.40	4147.43
429.59	4191.90
429.78	3983.59
429.97	3840.82
430.16	3995.29
430.34	4004.66
430.53	4119.34
430.72	4191.90
430.91	4163.81
431.10	4124.02
431.28	4386.16
431.47	4688.09
431.66	4617.88
431.85	4409.57
432.03	4557.02
432.22	4695.11
432.41	4601.49
432.60	4676.39
432.79	4629.58
432.97	4880.02
433.16	4840.23
433.35	4610.86
433.54	4594.47
433.72	4706.82
433.91	4704.48
434.10	4660.01
434.28	4699.80
434.47	4915.12
434.66	4840.23
434.85	4915.12
435.03	4926.83
435.22	4905.76
435.41	4938.53
435.59	5153.86
435.78	4957.25
435.97	5125.77
436.16	4994.70
436.34	4931.51
436.53	5004.07
436.72	5233.44
436.90	4980.66
437.09	5193.65
437.28	5088.32
437.46	5109.39
437.65	5207.69
437.84	5207.69
438.02	5034.49
438.21	5118.75
438.40	5057.90
438.58	5270.89
438.77	5495.58
438.96	5413.66
439.14	5439.40
439.33	5689.84
439.52	5612.60
439.70	5558.77
439.89	5694.52
440.08	5570.48
440.26	5617.29
440.45	5701.54
440.63	5792.83
440.82	5935.60
441.01	5750.70
441.19	5968.37
441.38	6076.03
441.57	6115.82
441.75	5930.92
441.94	6354.55
442.12	6253.91
442.31	6354.55
442.50	6256.25
442.68	6291.36
442.87	6441.15
443.05	6270.30
443.24	6516.05
443.43	6342.85
443.61	6307.74
443.80	6530.09
443.98	6303.06
444.17	6162.63
444.35	6525.41
444.54	6567.54
444.73	6392.00
444.91	6389.66
445.10	6469.24
445.28	6300.72
445.47	6392.00
445.65	6293.70
445.84	6354.55
446.02	6684.57
446.21	6424.77
446.39	6516.05
446.58	6717.34
446.77	6539.46
446.95	6399.02
447.14	6635.42
447.32	6607.33
447.51	6740.74
447.69	6420.09
447.88	6834.36
448.06	6600.31
448.25	6640.10
448.43	6637.76
448.62	6654.14
448.80	6604.99
448.99	6682.23
449.17	6796.92
449.36	6836.70
449.54	6892.88
449.73	6960.75
449.91	6913.94
450.10	6988.84
450.28	7300.13
450.46	7045.01
450.65	7199.49
450.83	7035.65
451.02	7066.08
451.20	7372.69
451.39	7201.83
451.57	7190.13
451.76	7126.93
451.94	7159.70
452.13	7288.43
452.31	7232.26
452.49	7014.59
452.68	7059.06
452.86	7239.28
453.05	7070.76
453.23	7199.49
453.42	7300.13
453.60	7227.57
453.78	7410.14
453.97	7351.62
454.15	7250.98
454.34	7222.89
454.52	7489.71
454.70	7520.14
454.89	7435.88
455.07	7639.51
455.26	7658.23
455.44	7712.07
455.62	7721.43
455.81	7641.85
455.99	7669.94
456.17	7929.74
456.36	7824.41
456.54	7953.14
456.73	8077.19
456.91	8276.13
457.09	7911.01
457.28	8201.24
457.46	7967.18
457.64	7985.91
457.83	7765.90
458.01	7873.56
458.19	8411.89
458.38	7911.01
458.56	8390.82
458.74	8011.65
458.93	8091.23
459.11	8320.60
459.29	8152.09
459.48	8313.58
459.66	8226.98
459.84	8175.49
460.03	8578.06
460.21	8407.20
460.39	8430.61
460.57	8608.49
460.76	8514.87
460.94	8662.32
461.12	8540.61
461.31	8805.10
461.49	8587.43
461.67	8601.47
461.85	8753.60
462.04	8676.37
462.22	8975.95
462.40	8659.98
462.59	8777.01
462.77	8692.75
462.95	8973.61
463.13	8863.61
463.32	8968.93
463.50	8922.12
463.68	9020.42
463.86	8844.88
464.05	8786.37
464.23	8739.56
464.41	9062.55
464.59	8823.82
464.78	9081.28
464.96	8814.46
465.14	8933.82
465.32	9139.79
465.50	9092.98
465.69	9266.18
465.87	9015.74
466.05	9202.99
466.23	9172.56
466.41	9088.30
466.60	9289.59
466.78	8978.30
466.96	9291.93
467.14	9291.93
467.32	9413.63
467.51	9439.38
467.69	9341.08
467.87	9401.93
468.05	9439.38
468.23	9322.35
468.41	9294.27
468.60	9476.83
468.78	9661.73
468.96	9479.17
469.14	9785.78
469.32	9626.62
469.50	9582.15
469.69	9530.66
469.87	9610.24
470.05	9652.37
470.23	9757.69
470.41	9664.07
470.59	9846.63
470.77	9727.27
470.95	9860.68
471.14	10090.05
471.32	9898.13
471.50	10321.76
471.68	10115.80
471.86	10141.54
472.04	10139.20
472.22	10525.39
472.40	10153.24
472.58	10443.47
472.77	10509.01
472.95	10532.41
473.13	10789.87
473.31	10509.01
473.49	10546.45
473.67	10707.95
473.85	10731.36
474.03	10960.73
474.21	10853.06
474.39	10623.69
474.57	10773.49
474.75	10909.24
474.93	11061.37
475.12	10923.28
475.30	10998.18
475.48	11028.60
475.66	11159.67
475.84	11276.70
476.02	11384.37
476.20	11417.13
476.38	11698.00
476.56	11681.61
476.74	11705.02
476.92	11625.44
477.10	11482.67
477.28	12070.14
477.46	11976.52
477.64	12004.61
477.82	12313.56
478.00	12353.35
478.18	12634.21
478.36	12519.53
478.54	12383.77
478.72	12578.04
478.90	12620.17
479.08	12950.18
479.26	12889.33
479.44	13095.30
479.62	13371.48
479.80	13497.87
479.98	13310.63
480.16	13823.20
480.34	13598.51
480.52	13640.64
480.70	13490.85
480.88	13591.49
481.06	13575.11
481.24	13877.04
481.41	14174.28
481.59	14462.17
481.77	14391.95
481.95	14391.95
482.13	14317.06
482.31	14593.24
482.49	14799.21
482.67	14916.23
482.85	14939.64
483.03	15080.07
483.21	15133.90
483.39	15414.77
483.57	15281.36
483.74	15637.12
483.92	15447.54
484.10	15557.54
484.28	15786.91
484.46	16067.78
484.64	16130.97
484.82	15899.26
485.00	16098.20
485.18	16353.32
485.35	16264.38
485.53	16135.65
485.71	16201.19
485.89	16341.62
486.07	16561.63
486.25	16491.41
486.43	16634.19
486.61	16800.37
486.78	17362.09
486.96	17362.09
487.14	17460.40
487.32	17748.28
487.50	18019.78
487.68	17884.03
487.85	18368.52
488.03	18789.82
488.21	18319.37
488.39	18478.53
488.57	18665.77
488.75	18452.78
488.92	19239.20
489.10	19063.66
489.28	19026.21
489.46	19620.71
489.64	19789.23
489.81	19875.83
489.99	19943.70
490.17	20100.52
490.35	20243.29
490.53	20350.96
490.70	20568.63
490.88	20430.54
491.06	20332.23
491.24	20416.49
491.41	20582.67
491.59	21078.86
491.77	20390.75
491.95	21008.65
492.13	21233.34
492.30	21451.01
492.48	21694.43
492.66	21893.37
492.84	21553.99
493.01	22153.17
493.19	21809.11
493.37	22185.94
493.54	22263.18
493.72	22438.72
493.90	22366.16
494.08	22705.54
494.25	22885.76
494.43	23161.94
494.61	23351.52
494.79	23473.23
494.96	23353.87
495.14	22998.10
495.32	23515.36
495.49	23639.41
495.67	23871.12
495.85	23798.57
496.02	24210.50
496.20	24287.74
496.38	24379.02
496.55	24271.36
496.73	25132.67
496.91	24664.57
497.09	25509.50
497.26	25104.59
497.44	25025.01
497.62	24753.51
497.79	25270.76
497.97	25069.48
498.14	25310.55
498.32	25434.60
498.50	25392.47
498.67	26043.14
498.85	25907.39
499.03	26232.72
499.20	26242.09
499.38	26036.12
499.56	26326.35
499.73	26635.30
499.91	26417.63
500.08	26504.23
500.26	26265.49
500.44	26548.70
500.61	26319.32
500.79	26534.65
500.97	26548.70
501.14	26803.82
501.32	26881.05
501.49	27091.70
501.67	27058.93
501.84	27094.04
502.02	27068.30
502.20	27503.64
502.37	27721.30
502.55	27946.00
502.72	27681.52
502.90	27882.80
503.07	27859.40
503.25	28039.62
503.43	27550.45
503.60	28074.73
503.78	28086.43
503.95	28306.44
504.13	28137.92
504.30	28694.97
504.48	28465.60
504.65	28783.91
504.83	28826.04
505.01	29027.32
505.18	29109.24
505.36	29132.65
505.53	29376.06
505.71	29516.50
505.88	29790.34
506.06	29132.65
506.23	29848.85
506.41	29553.94
506.58	29621.82
506.76	29514.16
506.93	29811.40
507.11	29933.11
507.28	29862.90
507.46	29610.12
507.63	30010.35
507.81	30075.88
507.98	30366.11
508.16	29898.00
508.33	30597.82
508.50	30768.68
508.68	30766.34
508.85	30859.96
509.03	30422.28
509.20	30693.79
509.38	31185.30
509.55	31208.70
509.73	31227.43
509.90	31147.85
510.08	31335.09
510.25	31360.84
510.42	31519.99
510.60	32002.14
510.77	31840.65
510.95	32048.96
511.12	31545.74
511.30	32617.71
511.47	32376.63
511.64	32535.79
511.82	32474.93
511.99	31971.72
512.17	32002.14
512.34	32299.39
512.51	32437.48
512.69	32610.68
512.86	32306.41
513.04	32477.27
513.21	32245.56
513.38	32678.56
513.56	32774.52
513.73	32596.64
513.90	33001.55
514.08	32837.72
514.25	33024.96
514.43	33006.23
514.60	32692.60
514.77	33422.85
514.95	33261.35
515.12	33310.50
515.29	33170.07
515.47	33771.59
515.64	33738.82
515.81	33479.02
515.99	33586.69
516.16	33647.54
516.33	33364.34
516.51	33640.52
516.68	33324.55
516.85	33551.58
517.03	33696.69
517.20	33965.85
517.37	33869.89
517.54	34230.33
517.72	33883.94
517.89	33984.58
518.06	33965.85
518.24	33837.12
518.41	34272.46
518.58	34623.54
518.75	34237.36
518.93	34581.42
519.10	34838.87
519.27	34698.44
519.45	34501.84
519.62	35318.68
519.79	34888.03
519.96	35311.66
520.14	35395.92
520.31	35002.71
520.48	35318.68
520.65	35124.42
520.83	35779.77
521.00	35641.68
521.17	36161.28
521.34	35903.82
521.52	36486.61
521.69	35943.61
521.86	35854.67
522.03	36030.21
522.20	36442.14
522.38	36435.12
522.55	36566.19
522.72	36409.37
522.89	36503.00
523.07	36566.19
523.24	36376.61
523.41	36704.28
523.58	36809.61
523.75	36926.63
523.92	36882.16
524.10	37284.73
524.27	36971.10
524.44	37003.87
524.61	37305.80
524.78	37340.91
524.96	37230.90
525.13	37408.78
525.30	37507.08
525.47	37619.43
525.64	37675.60
525.81	36928.97
525.98	37734.12
526.16	37340.91
526.33	37282.39
526.50	37684.97
526.67	37380.70
526.84	37104.51
527.01	37179.41
527.18	37762.20
527.36	38260.74
527.53	38192.86
527.70	38405.85
527.87	38031.36
528.04	37809.01
528.21	38330.95
528.38	38387.13
528.55	38532.24
528.72	38859.91
528.89	39159.50
529.07	38457.34
529.24	38623.52
529.41	39318.66
529.58	38895.02
529.75	38405.85
529.92	38983.96
530.09	38682.03
530.26	38981.62
530.43	39512.92
530.60	38976.94
530.77	38927.79
530.94	39304.62
531.11	39686.12
531.28	39063.54
531.46	39459.09
531.63	39021.41
531.80	39255.46
531.97	39445.05
532.14	39526.97
532.31	38927.79
532.48	39283.55
532.65	39569.10
532.82	39660.38
532.99	39653.36
533.16	39697.83
533.33	40030.18
533.50	39997.41
533.67	39915.50
533.84	39693.15
534.01	39945.92
534.18	39758.68
534.35	40123.80
534.52	40563.82
534.69	40093.38
534.86	40226.79
535.03	40329.77
535.20	40814.26
535.37	40416.37
535.54	40844.69
535.71	40355.52
535.88	40486.59
536.05	40229.13
536.22	40608.29
536.38	40804.90
536.55	40308.71
536.72	40809.58
536.89	40409.35
537.06	40945.33
537.23	40879.80
537.40	40842.35
537.57	40875.12
537.74	40739.36
537.91	41368.97
538.08	41329.18
538.25	41036.61
538.42	41331.52
538.59	41331.52
538.75	41158.32
538.92	40980.44
539.09	41249.60
539.26	41263.64
539.43	41008.53
539.60	41111.51
539.77	40797.88
539.94	41481.31
540.11	40994.48
540.28	41926.02
540.44	41289.39
540.61	41148.96
540.78	41359.61
540.95	41050.66
541.12	41647.49
541.29	41532.81
541.46	41631.11
541.62	41750.48
541.79	42003.25
541.96	41818.35
542.13	41801.97
542.30	41717.71
542.47	41949.42
542.63	41839.42
542.80	42190.50
542.97	42721.80
543.14	42501.79
543.31	42354.33
543.48	42642.22
543.64	42803.72
543.81	42635.20
543.98	42890.32
544.15	42618.81
544.32	42628.18
544.48	42955.85
544.65	42794.36
544.82	42658.60
544.99	42777.97
545.16	42827.12
545.32	42623.50
545.49	43040.11
545.66	43096.28
545.83	43250.76
546.00	43178.20
546.16	43131.39
546.33	42864.57
546.50	43005.00
546.67	43061.18
546.83	42944.15
547.00	43421.62
547.17	42866.91
547.34	43129.05
547.50	43473.11
547.67	43683.76
547.84	43260.12
548.00	43646.31
548.17	43459.07
548.34	43629.93
548.51	43814.83
548.67	43133.73
548.84	44048.88
549.01	43503.54
549.18	43482.47
549.34	43503.54
549.51	43826.53
549.68	43746.95
549.84	44360.17
550.01	44172.93
550.18	43826.53
550.34	44243.15
550.51	44020.80
550.68	44055.90
550.84	43653.33
551.01	44037.18
551.18	44287.62
551.34	44226.76
551.51	44083.99
551.68	43892.07
551.84	44217.40
552.01	44046.54
552.18	44240.81
552.34	43894.41
552.51	44098.03
552.68	44142.50
552.84	44311.02
553.01	44493.58
553.18	44495.92
553.34	44406.98
553.51	44231.44
553.67	44374.22
553.84	44404.64
554.01	45092.76
554.17	44882.11
554.34	44669.12
554.51	44575.50
554.67	44722.96
554.84	45029.57
555.00	44739.34
555.17	44343.79
555.33	44809.56
555.50	44516.99
555.67	44350.81
555.83	44554.44
556.00	44526.35
556.16	44964.03
556.33	44877.43
556.50	44715.93
556.66	45226.17
556.83	44776.79
556.99	44486.56
557.16	45298.73
557.32	44610.61
557.49	45193.40
557.65	44685.51
557.82	44999.14
557.98	45069.36
558.15	45404.05
558.32	45097.44
558.48	45471.93
558.65	45162.98
558.81	44762.75
558.98	45106.80
559.14	45308.09
559.31	45308.09
559.47	44964.03
559.64	45387.67
559.80	45432.14
559.97	45474.27
560.13	44818.92
560.30	44835.30
560.46	45254.26
560.63	45574.91
560.79	45457.88
560.96	45624.06
561.12	45500.01
561.29	45436.82
561.45	45359.58
561.61	45343.20
561.78	44807.22
561.94	45989.19
562.11	45055.31
562.27	45769.18
562.44	45563.21
562.60	45729.39
562.77	45628.74
562.93	45352.56
563.10	45535.12
563.26	45319.79
563.42	45586.61
563.59	45490.65
563.75	45329.16
563.92	45558.53
564.08	45397.03
564.24	46148.34
564.41	45677.90
564.57	45780.88
564.74	45853.44
564.90	45406.39
565.07	46010.25
565.23	45750.45
565.39	45752.79
565.56	46174.09
565.72	45483.63
565.88	45460.23
566.05	45483.63
566.21	45691.94
566.38	45851.09
566.54	45612.36
566.70	45780.88
566.87	46089.83
567.03	45860.46
567.19	46387.08
567.36	45907.27
567.52	45750.45
567.68	45963.44
567.85	45785.56
568.01	45900.25
568.17	45687.26
568.34	46054.72
568.50	45560.87
568.66	45591.30
568.83	45832.37
568.99	45612.36
569.15	45532.78
569.32	45780.88
569.48	45420.44
569.64	46099.19
569.81	45652.15
569.97	45916.63
570.13	45806.62
570.30	45823.01
570.46	45574.91
570.62	45326.81
570.78	45542.14
570.95	45631.08
571.11	45879.18
571.27	45928.33
571.43	45958.76
571.60	45954.08
571.76	46019.61
571.92	45806.62
572.09	45872.16
572.25	45954.08
572.41	46021.95
572.57	46162.39
572.74	46377.72
572.90	46117.92
573.06	45865.14
573.22	45710.66
573.38	45961.10
573.55	45771.52
573.71	46061.74
573.87	46087.49
574.03	46300.48
574.20	45954.08
574.36	45478.95
574.52	45930.67
574.68	45900.25
574.84	46085.15
575.01	46241.96
575.17	45717.68
575.33	45387.67
575.49	45750.45
575.65	46043.02
575.82	46274.73
575.98	45930.67
576.14	46508.79
576.30	46225.58
576.46	46087.49
576.62	45907.27
576.79	45813.65
576.95	45450.86
577.11	45792.58
577.27	46211.54
577.43	46096.85
577.59	45848.75
577.75	45755.13
577.92	45413.41
578.08	45823.01
578.24	45649.81
578.40	45944.72
578.56	45890.88
578.72	46162.39
578.88	46480.70
579.04	46387.08
579.21	46169.41
579.37	46021.95
579.53	46080.47
579.69	45879.18
579.85	45825.35
580.01	46288.77
580.17	46085.15
580.33	46096.85
580.49	46246.65
580.65	46075.79
580.82	46129.62
580.98	46342.61
581.14	46361.33
581.30	46351.97
581.46	45860.46
581.62	46171.75
581.78	46043.02
581.94	46504.10
582.10	46328.56
582.26	46113.23
582.42	46286.43
582.58	46068.76
582.74	46115.58
582.90	46057.06
583.06	46375.37
583.22	46646.88
583.38	46504.10
583.54	46490.06
583.70	46230.26
583.86	45982.16
584.02	45743.43
584.18	46239.62
584.34	46071.10
584.50	46260.69
584.66	46576.66
584.82	46124.94
584.98	46216.22
585.14	46380.06
585.30	46122.60
585.46	46017.27
585.62	46178.77
585.78	46295.80
585.94	45907.27
586.10	46078.13
586.26	46307.50
586.42	46478.36
586.58	46450.27
586.74	46579.00
586.90	46155.36
587.06	46028.98
587.22	46092.17
587.38	46160.05
587.54	46415.16
587.70	46309.84
587.86	46136.64
588.02	46162.39
588.18	46354.31
588.34	46005.57
588.49	45701.30
588.65	45464.91
588.81	45661.51
588.97	45968.12
589.13	45827.69
589.29	45485.97
589.45	46188.13
589.61	46391.76
589.77	46466.66
589.93	46918.38
590.08	46639.86
