SpectraSuite Data File
++++++++++++++++++++++++++++++++++++
Date: Fri Oct 25 11:25:23 EDT 2013
User: price-jones
Dark Spectrum Present: No
Reference Spectrum Present: No
Number of Sampled Component Spectra: 1
Spectrometers: USB2+H05261
Integration Time (usec): 100000 (USB2+H05261)
Spectra Averaged: 1 (USB2+H05261)
Boxcar Smoothing: 0 (USB2+H05261)
Correct for Electrical Dark: No (USB2+H05261)
Strobe/Lamp Enabled: No (USB2+H05261)
Correct for Detector Non-linearity: No (USB2+H05261)
Correct for Stray Light: No (USB2+H05261)
Number of Pixels in Processed Spectrum: 2048
>>>>>Begin Processed Spectral Data<<<<<
365.73	168.52
365.92	168.52
366.12	168.52
366.32	198.95
366.52	170.86
366.72	245.76
366.91	147.45
367.11	147.45
367.31	58.51
367.51	147.45
367.70	175.54
367.90	154.48
368.10	149.79
368.30	119.37
368.49	133.41
368.69	110.01
368.89	156.82
369.09	110.01
369.28	175.54
369.48	217.67
369.68	177.88
369.87	203.63
370.07	177.88
370.27	248.10
370.47	339.38
370.66	608.54
370.86	589.82
371.06	641.31
371.25	713.86
371.45	664.71
371.65	716.20
371.84	741.95
372.04	739.61
372.24	730.25
372.44	739.61
372.63	720.88
372.83	741.95
373.03	716.20
373.22	716.20
373.42	837.91
373.62	863.66
373.81	746.63
374.01	791.10
374.21	837.91
374.40	823.87
374.60	765.36
374.79	739.61
374.99	814.51
375.19	758.33
375.38	870.68
375.58	887.06
375.78	866.00
375.97	891.74
376.17	847.27
376.37	847.27
376.56	821.53
376.76	800.46
376.95	805.14
377.15	952.60
377.35	922.17
377.54	828.55
377.74	917.49
377.93	842.59
378.13	915.15
378.33	952.60
378.52	931.53
378.72	943.24
378.91	931.53
379.11	971.32
379.31	926.85
379.50	945.58
379.70	901.11
379.89	983.02
380.09	990.05
380.28	926.85
380.48	999.41
380.68	990.05
380.87	957.28
381.07	1069.62
381.26	1001.75
381.46	987.71
381.65	1025.15
381.85	1011.11
382.04	1109.41
382.24	1048.56
382.43	1107.07
382.63	1076.65
382.83	968.98
383.02	1015.79
383.22	1041.54
383.41	1116.44
383.61	1128.14
383.80	1146.86
384.00	1069.62
384.19	1165.59
384.39	1116.44
384.58	1130.48
384.78	1167.93
384.97	1060.26
385.17	1107.07
385.36	1139.84
385.56	1177.29
385.75	1181.97
385.95	1196.01
386.14	1167.93
386.34	1247.51
386.53	1156.22
386.72	1086.01
386.92	1221.76
387.11	1226.44
387.31	1245.16
387.50	1217.08
387.70	1259.21
387.89	1282.61
388.09	1261.55
388.28	1313.04
388.48	1270.91
388.67	1299.00
388.86	1327.08
389.06	1308.36
389.25	1390.28
389.45	1270.91
389.64	1266.23
389.84	1446.45
390.03	1420.71
390.22	1420.71
390.42	1462.83
390.61	1362.19
390.81	1352.83
391.00	1390.28
391.19	1413.68
391.39	1401.98
391.58	1537.73
391.78	1444.11
391.97	1453.47
392.16	1488.58
392.36	1542.41
392.55	1500.28
392.75	1575.18
392.94	1533.05
393.13	1547.09
393.33	1537.73
393.52	1542.41
393.71	1626.67
393.91	1563.48
394.10	1521.35
394.29	1528.37
394.49	1528.37
394.68	1589.22
394.88	1535.39
395.07	1692.21
395.26	1577.52
395.46	1638.38
395.65	1671.14
395.84	1659.44
396.04	1816.26
396.23	1703.91
396.42	1692.21
396.62	1743.70
396.81	1790.51
397.00	1792.85
397.19	1797.53
397.39	1832.64
397.58	1905.20
397.77	1767.10
397.97	1909.88
398.16	1783.49
398.35	1830.30
398.55	1799.87
398.74	1849.02
398.93	1825.62
399.12	1956.69
399.32	1856.04
399.51	1961.37
399.70	1956.69
399.90	1926.26
400.09	2040.95
400.28	1959.03
400.47	1959.03
400.67	1994.14
400.86	2108.82
401.05	2038.61
401.24	2092.44
401.44	2129.89
401.63	2183.72
401.82	2211.81
402.01	2092.44
402.21	2108.82
402.40	2080.74
402.59	2176.70
402.78	2153.29
402.97	2232.87
403.17	2204.78
403.36	2258.62
403.55	2307.77
403.74	2380.32
403.93	2415.43
404.13	2375.64
404.32	2275.00
404.51	2305.43
404.70	2399.05
404.89	2314.79
405.09	2487.99
405.28	2525.44
405.47	2361.60
405.66	2471.61
405.85	2574.59
406.05	2520.76
406.24	2499.69
406.43	2502.03
406.62	2511.39
406.81	2597.99
407.00	2579.27
407.20	2532.46
407.39	2532.46
407.58	2668.21
407.77	2672.89
407.96	2775.88
408.15	2693.96
408.34	2654.17
408.54	2705.66
408.73	2621.40
408.92	2841.41
409.11	2871.84
409.30	2878.86
409.49	2810.98
409.68	2885.88
409.87	2892.90
410.07	2932.69
410.26	2986.52
410.45	3112.91
410.64	3009.93
410.83	3038.02
411.02	3169.09
411.21	3220.58
411.40	3164.40
411.59	3136.32
411.78	3084.83
411.98	3112.91
412.17	3274.41
412.36	3258.03
412.55	3403.14
412.74	3330.58
412.93	3342.28
413.12	3335.26
413.31	3445.27
413.50	3501.44
413.69	3400.80
413.88	3566.98
414.07	3590.38
414.26	3648.90
414.45	3695.71
414.64	3613.79
414.83	3658.26
415.02	3733.15
415.22	3758.90
415.41	3735.50
415.60	3908.69
415.79	3817.41
415.98	3974.23
416.17	3953.16
416.36	3880.61
416.55	3990.61
416.74	4004.66
416.93	3953.16
417.12	4065.51
417.31	4072.53
417.50	4278.50
417.69	4194.24
417.88	4175.52
418.07	4184.88
418.26	4238.71
418.45	4252.75
418.64	4435.32
418.83	4353.40
419.02	4308.93
419.21	4390.84
419.39	4435.32
419.58	4493.83
419.77	4449.36
419.96	4599.15
420.15	4624.90
420.34	4507.87
420.53	4542.98
420.72	4746.61
420.91	4622.56
421.10	4655.33
421.29	4664.69
421.48	4589.79
421.67	4683.41
421.86	4767.67
422.05	4774.69
422.24	4777.03
422.43	4772.35
422.61	4938.53
422.80	4861.29
422.99	4821.50
423.18	4954.91
423.37	4999.38
423.56	4858.95
423.75	4734.90
423.94	4821.50
424.13	4690.43
424.32	4723.20
424.50	5076.62
424.69	5097.69
424.88	5085.98
425.07	5048.54
425.26	4849.59
425.45	5027.47
425.64	4896.40
425.83	4933.85
426.01	5142.16
426.20	4798.10
426.39	5020.45
426.58	4819.16
426.77	4992.36
426.96	5184.29
427.15	5078.96
427.33	5174.92
427.52	5121.09
427.71	5259.18
427.90	5228.76
428.09	5420.68
428.28	5233.44
428.46	5310.68
428.65	5184.29
428.84	5493.24
429.03	5603.24
429.22	5179.61
429.40	5423.02
429.59	5472.17
429.78	5207.69
429.97	5394.93
430.16	5526.00
430.34	5568.13
430.53	5694.52
430.72	5533.03
430.91	5612.60
431.10	5551.75
431.28	5640.69
431.47	5603.24
431.66	5797.51
431.85	5771.76
432.03	5914.53
432.22	5963.68
432.41	5853.68
432.60	5914.53
432.79	5916.87
432.97	5832.62
433.16	6106.46
433.35	6069.01
433.54	6005.81
433.72	6286.68
433.91	5984.75
434.10	6087.73
434.28	6155.61
434.47	6141.57
434.66	6251.57
434.85	6293.70
435.03	6237.53
435.22	6176.67
435.41	6338.17
435.59	6352.21
435.78	6483.28
435.97	6445.84
436.16	6396.68
436.34	6361.58
436.53	6450.52
436.72	6642.44
436.90	6410.73
437.09	6569.88
437.28	6537.12
437.46	6476.26
437.65	6588.61
437.84	6707.98
438.02	6504.35
438.21	6696.27
438.40	6511.37
438.58	6909.26
438.77	6949.05
438.96	6913.94
439.14	7049.69
439.33	7052.03
439.52	7304.81
439.70	7061.40
439.89	7215.87
440.08	7342.26
440.26	7428.86
440.45	7194.81
440.63	7541.21
440.82	7482.69
441.01	7475.67
441.19	7590.36
441.38	7573.97
441.57	7737.81
441.75	7735.47
441.94	7873.56
442.12	7971.86
442.31	8002.29
442.50	7920.37
442.68	8032.72
442.87	7941.44
443.05	8067.83
443.24	8077.19
443.43	8021.02
443.61	8037.40
443.80	8442.31
443.98	7908.67
444.17	7667.60
444.35	7953.14
444.54	8248.05
444.73	8133.36
444.91	8241.03
445.10	8461.04
445.28	8219.96
445.47	8334.65
445.65	8180.17
445.84	8320.60
446.02	8444.65
446.21	8388.48
446.39	8379.12
446.58	8575.72
446.77	8409.54
446.95	8042.08
447.14	8493.80
447.32	8589.77
447.51	8238.69
447.69	8404.86
447.88	8292.52
448.06	8531.25
448.25	8297.20
448.43	8521.89
448.62	8643.60
448.80	8641.26
448.99	8510.19
449.17	8706.79
449.36	8517.21
449.54	8725.52
449.73	8814.46
449.91	8842.54
450.10	8957.23
450.28	9153.84
450.46	8945.53
450.65	8990.00
450.83	9111.71
451.02	9013.40
451.20	9039.15
451.39	9085.96
451.57	8922.12
451.76	8856.59
451.94	9039.15
452.13	9184.26
452.31	9392.57
452.49	9046.17
452.68	9350.44
452.86	9455.76
453.05	9275.54
453.23	9439.38
453.42	9376.19
453.60	9266.18
453.78	9423.00
453.97	9301.29
454.15	9458.10
454.34	9385.55
454.52	9675.77
454.70	9657.05
454.89	9755.35
455.07	9738.97
455.26	9884.08
455.44	9872.38
455.62	9750.67
455.81	9963.66
455.99	9949.62
456.17	9954.30
456.36	10019.83
456.54	10052.60
456.73	10263.25
456.91	10218.78
457.09	10623.69
457.28	10427.09
457.46	10333.47
457.64	10675.18
457.83	10558.16
458.01	10588.58
458.19	10642.42
458.38	10455.17
458.56	10799.23
458.74	10710.29
458.93	10541.77
459.11	10710.29
459.29	10817.96
459.48	10855.40
459.66	10686.89
459.84	10698.59
460.03	11091.80
460.21	11110.52
460.39	10839.02
460.57	11147.97
460.76	10862.43
460.94	11014.56
461.12	11028.60
461.31	11042.65
461.49	10979.45
461.67	11014.56
461.85	11555.22
462.04	11229.89
462.22	11901.62
462.40	11386.71
462.59	11220.53
462.77	11213.51
462.95	11538.84
463.13	11417.13
463.32	11412.45
463.50	11702.68
463.68	11520.12
463.86	11683.95
464.05	11669.91
464.23	11847.79
464.41	11655.87
464.59	11730.76
464.78	11983.54
464.96	11693.32
465.14	11983.54
465.32	11901.62
465.50	11838.43
465.69	12131.00
465.87	12074.82
466.05	12180.15
466.23	12063.12
466.41	12093.55
466.60	12358.03
466.78	12182.49
466.96	12257.39
467.14	12051.42
467.32	12435.27
467.51	12439.95
467.69	12119.29
467.87	12432.93
468.05	12475.06
468.23	12376.75
468.41	12194.19
468.60	12320.58
468.78	12685.70
468.96	12472.71
469.14	12833.16
469.32	13011.04
469.50	12561.66
469.69	12943.16
469.87	13055.51
470.05	13032.10
470.23	13088.28
470.41	12844.86
470.59	13139.77
470.77	13153.81
470.95	13099.98
471.14	13530.64
471.32	12791.03
471.50	13502.55
471.68	13462.76
471.86	13502.55
472.04	13476.80
472.22	14008.11
472.40	13411.27
472.58	13855.97
472.77	13912.14
472.95	14111.09
473.13	14532.39
473.31	13998.74
473.49	14176.62
473.67	13987.04
473.85	14232.80
474.03	14558.13
474.21	14181.31
474.39	14508.98
474.57	14810.91
474.75	14944.32
474.93	14841.34
475.12	14960.70
475.30	15089.43
475.48	14752.40
475.66	14904.53
475.84	14988.79
476.02	15487.32
476.20	15332.85
476.38	15648.82
476.56	16098.20
476.74	15850.11
476.92	15838.41
477.10	15620.74
477.28	16067.78
477.46	16018.63
477.64	15960.11
477.82	16580.36
478.00	16800.37
478.18	16575.67
478.36	16713.77
478.54	16959.52
478.72	17067.19
478.90	17174.85
479.08	17418.27
479.26	17488.48
479.44	17645.30
479.62	17703.81
479.80	18005.74
479.98	18118.09
480.16	18508.96
480.34	18324.05
480.52	18616.62
480.70	18380.23
480.88	18270.22
481.06	18396.61
481.24	18689.18
481.41	19185.37
481.59	19297.72
481.77	19150.26
481.95	19445.17
482.13	19789.23
482.31	19569.22
482.49	20116.90
482.67	20051.37
482.85	20271.38
483.03	20545.22
483.21	20603.74
483.39	20762.89
483.57	20781.62
483.74	21165.46
483.92	21434.63
484.10	21167.80
484.28	21530.59
484.46	21900.39
484.64	21975.29
484.82	22150.83
485.00	22211.68
485.18	22831.93
485.35	22864.69
485.53	22941.93
485.71	22848.31
485.89	23056.62
486.07	23190.03
486.25	23063.64
486.43	23236.84
486.61	23461.53
486.78	23983.47
486.96	24299.44
487.14	24474.98
487.32	24308.80
487.50	24699.67
487.68	24676.27
487.85	25041.39
488.03	25240.34
488.21	25596.10
488.39	25687.38
488.57	25993.99
488.75	26153.15
488.92	26206.98
489.10	26546.36
489.28	26675.09
489.46	26953.61
489.64	26754.66
489.81	27662.79
489.99	27452.14
490.17	27784.50
490.35	27798.54
490.53	27887.48
490.70	28149.62
490.88	27967.06
491.06	28540.49
491.24	28657.52
491.41	28603.69
491.59	29308.19
491.77	29118.60
491.95	29483.73
492.13	29090.52
492.30	29839.49
492.48	30106.31
492.66	30300.58
492.84	30125.04
493.01	30375.47
493.19	30396.54
493.37	30965.29
493.54	30850.60
493.72	31131.47
493.90	31318.71
494.08	31171.25
494.25	31744.69
494.43	31885.12
494.61	31995.12
494.79	32222.16
494.96	31938.95
495.14	32503.02
495.32	32765.16
495.49	32896.23
495.67	33024.96
495.85	33322.21
496.02	33502.43
496.20	33895.64
496.38	33944.79
496.55	33926.07
496.73	34546.31
496.91	34300.55
497.09	34572.05
497.26	34445.66
497.44	34731.21
497.62	35026.12
497.79	35587.85
497.97	35077.61
498.14	35674.45
498.32	35318.68
498.50	35999.78
498.67	36325.11
498.85	36320.43
499.03	36055.95
499.20	36554.49
499.38	36521.72
499.56	36634.06
499.73	36900.89
499.91	37387.72
500.08	37186.43
500.26	37144.30
500.44	37212.18
500.61	37691.99
500.79	37411.12
500.97	37457.93
501.14	38298.19
501.32	38300.53
501.49	38478.41
501.67	38321.59
501.84	38518.20
502.02	38796.72
502.20	38548.62
502.37	39140.78
502.55	39164.18
502.72	39250.78
502.90	39309.30
503.07	39000.35
503.25	39828.90
503.43	39370.15
503.60	39707.19
503.78	39896.77
503.95	40369.56
504.13	40177.64
504.30	40519.35
504.48	40306.37
504.65	40112.10
504.83	40685.53
505.01	41432.16
505.18	41160.66
505.36	41312.80
505.53	40727.66
505.71	40837.67
505.88	41282.37
506.06	41153.64
506.23	42026.66
506.41	41645.15
506.58	41673.24
506.76	41722.39
506.93	42342.63
507.11	42302.84
507.28	42153.05
507.46	42351.99
507.63	42913.72
507.81	42522.85
507.98	42677.33
508.16	42941.81
508.33	43093.94
508.50	43271.82
508.68	43459.07
508.85	43522.26
509.03	43709.50
509.20	43730.57
509.38	44046.54
509.55	44226.76
509.73	44598.91
509.90	44098.03
510.08	44081.65
510.25	44460.82
510.42	44851.69
510.60	44605.93
510.77	45074.04
510.95	45394.69
511.12	44732.32
511.30	45179.36
511.47	45691.94
511.64	45308.09
511.82	45422.78
511.99	45392.35
512.17	45858.12
512.34	45474.27
512.51	45918.97
512.69	45851.09
512.86	46162.39
513.04	46396.44
513.21	46433.89
513.38	46693.69
513.56	46803.69
513.73	46967.53
513.90	46801.35
514.08	46536.87
514.25	46944.12
514.43	46906.68
514.60	47393.51
514.77	46955.83
514.95	47498.83
515.12	47096.26
515.29	47224.99
515.47	47606.50
515.64	47896.72
515.81	47746.93
515.99	47952.90
516.16	48102.69
516.33	48289.93
516.51	48252.48
516.68	47917.79
516.85	48285.25
517.03	48641.01
517.20	48535.69
517.37	48390.58
517.54	48587.18
517.72	48561.44
517.89	48933.58
518.06	48809.53
518.24	49052.95
518.41	48467.81
518.58	49598.29
518.75	49397.01
518.93	49251.89
519.10	49406.37
519.27	49687.23
519.45	49364.24
519.62	49741.06
519.79	49729.36
519.96	49837.03
520.14	49930.65
520.31	49759.79
520.48	50440.89
520.65	50028.95
520.83	50176.40
521.00	50583.66
521.17	50202.15
521.34	50391.73
521.52	50602.38
521.69	50600.04
521.86	50742.81
522.03	50948.78
522.20	51110.28
522.38	51140.71
522.55	50908.99
522.72	51009.64
522.89	51173.47
523.07	51444.98
523.24	51194.54
523.41	51529.23
523.58	51173.47
523.75	51419.23
523.92	51597.11
524.10	51622.86
524.27	51669.67
524.44	51536.26
524.61	51910.74
524.78	51742.22
524.96	52247.78
525.13	52327.36
525.30	52275.87
525.47	51985.64
525.64	52186.92
525.81	52355.44
525.98	52346.08
526.16	52175.22
526.33	52444.38
526.50	52868.02
526.67	52268.84
526.84	52577.79
527.01	52734.61
527.18	52739.29
527.36	52692.48
527.53	52758.02
527.70	53073.99
527.87	53230.80
528.04	53081.01
528.21	53010.79
528.38	53191.01
528.55	53272.93
528.72	53312.72
528.89	53221.44
529.07	52849.30
529.24	53254.21
529.41	53539.75
529.58	53460.18
529.75	53375.92
529.92	53595.93
530.09	53481.24
530.26	53804.24
530.43	53750.40
530.60	53382.94
530.77	53755.08
530.94	53825.30
531.11	53963.39
531.28	53815.94
531.46	54169.36
531.63	54171.70
531.80	53947.01
531.97	54113.19
532.14	54113.19
532.31	54253.62
532.48	54321.49
532.65	54382.35
532.82	54265.32
532.99	54443.20
533.16	54464.27
533.33	54644.49
533.50	54609.38
533.67	54578.95
533.84	54485.33
534.01	54550.87
534.18	54693.64
534.35	55131.32
534.52	54808.32
534.69	54897.27
534.86	54967.48
535.03	54770.88
535.20	54841.09
535.37	55154.72
535.54	55138.34
535.71	55096.21
535.88	55299.84
536.05	55159.41
536.22	55288.13
536.38	55475.38
536.55	55246.00
536.72	55374.73
536.89	55299.84
537.06	55339.63
537.23	55749.22
537.40	55224.94
537.57	55484.74
537.74	55756.24
537.91	55814.76
538.08	55744.54
538.25	55433.25
538.42	55821.78
538.59	56006.68
538.75	55882.63
538.92	55821.78
539.09	56104.98
539.26	56020.72
539.43	55896.67
539.60	56224.35
539.77	56214.99
539.94	56369.46
540.11	56479.47
540.28	56273.50
540.44	56079.24
540.61	56275.84
540.78	56264.14
540.95	56079.24
541.12	56137.75
541.29	56231.37
541.46	56360.10
541.62	56170.52
541.79	56619.90
541.96	56346.06
542.13	56383.51
542.30	56397.55
542.47	56598.83
542.63	56622.24
542.80	56687.78
542.97	56872.68
543.14	56985.02
543.31	56783.74
543.48	57284.61
543.64	57279.93
543.81	57251.84
543.98	57181.63
544.15	57057.58
544.32	57279.93
544.48	57469.51
544.65	57029.49
544.82	57258.87
544.99	57048.22
545.16	57378.23
545.32	57221.42
545.49	57801.87
545.66	57738.68
545.83	57701.23
546.00	57661.44
546.16	57574.84
546.33	57366.53
546.50	57441.43
546.67	57509.30
546.83	57331.42
547.00	57584.20
547.17	57612.29
547.34	57490.58
547.50	57755.06
547.67	57954.00
547.84	58073.37
548.00	57715.27
548.17	57902.51
548.34	57979.75
548.51	58038.26
548.67	58117.84
548.84	57909.53
549.01	57886.13
549.18	58014.86
549.34	58129.54
549.51	58145.93
549.68	58148.27
549.84	58344.87
550.01	58157.63
550.18	58136.57
550.34	58279.34
550.51	58178.70
550.68	58232.53
550.84	58054.65
551.01	58244.23
551.18	58248.91
551.34	58424.45
551.51	58394.03
551.68	58475.94
551.84	58415.09
552.01	58244.23
552.18	58679.57
552.34	58401.05
552.51	58625.74
552.68	58284.02
552.84	58560.20
553.01	58698.30
553.18	58585.95
553.34	58745.11
553.51	58557.86
553.67	58780.21
553.84	58887.88
554.01	58660.85
554.17	58981.50
554.34	58702.98
554.51	58672.55
554.67	59054.06
554.84	58871.49
555.00	58780.21
555.17	58824.68
555.33	58763.83
555.50	58979.16
555.67	58974.48
555.83	58920.65
556.00	58972.14
556.16	59175.76
556.33	58988.52
556.50	58876.18
556.66	59135.98
556.83	58763.83
556.99	59253.00
557.16	59192.15
557.32	59377.05
557.49	59461.31
557.65	59135.98
557.82	59199.17
557.98	58997.88
558.15	59093.85
558.32	59384.07
558.48	59271.73
558.65	59423.86
558.81	59442.59
558.98	59405.14
559.14	59580.68
559.31	59487.06
559.47	59714.09
559.64	59526.84
559.80	59449.61
559.97	59767.92
560.13	59505.78
560.30	59561.95
560.46	59590.04
560.63	59688.34
560.79	59641.53
560.96	59767.92
561.12	59875.58
561.29	59765.58
561.45	59662.60
561.61	59648.55
561.78	59611.10
561.94	59491.74
562.11	59746.86
562.27	59503.44
562.44	59983.25
562.60	60111.98
562.77	59840.48
562.93	59557.27
563.10	60069.85
563.26	59742.17
563.42	59999.63
563.59	59964.52
563.75	59819.41
563.92	59908.35
564.08	59894.31
564.24	60151.77
564.41	60025.38
564.57	59746.86
564.74	60039.42
564.90	60097.94
565.07	59976.23
565.23	60081.55
565.39	59955.16
565.56	60037.08
565.72	60006.65
565.88	60062.83
566.05	59985.59
566.21	59913.03
566.38	60224.32
566.54	60142.41
566.70	60198.58
566.87	60458.38
567.03	59922.40
567.19	60107.30
567.36	60158.79
567.52	60219.64
567.68	60451.36
567.85	60376.46
568.01	60420.93
568.17	59992.61
568.34	60355.39
568.50	60238.37
568.66	60196.24
568.83	60479.44
568.99	60252.41
569.15	60067.51
569.32	60219.64
569.48	60111.98
569.64	60390.50
569.81	60296.88
569.97	60264.11
570.13	60229.01
570.30	60044.10
570.46	60240.71
570.62	60144.75
570.78	60346.03
570.95	60383.48
571.11	60404.55
571.27	60411.57
571.43	60470.08
571.60	60638.60
571.76	60353.05
571.92	60385.82
572.09	60580.09
572.25	60598.81
572.41	60324.97
572.57	60470.08
572.74	60514.55
572.90	60292.20
573.06	60610.51
573.22	60502.85
573.38	60638.60
573.55	60477.10
573.71	60713.50
573.87	60566.04
574.03	60282.84
574.20	60921.80
574.36	60374.12
574.52	60561.36
574.68	60598.81
574.84	60570.72
575.01	60582.43
575.17	60662.00
575.33	60533.28
575.49	60388.16
575.65	60519.23
575.82	60816.48
575.98	60697.11
576.14	60732.22
576.30	60573.06
576.46	60547.32
576.62	60643.28
576.79	60446.68
576.95	60467.74
577.11	60713.50
577.27	60788.39
577.43	60811.80
577.59	60633.92
577.75	60793.07
577.92	60402.21
578.08	60498.17
578.24	60699.45
578.40	60764.99
578.56	60772.01
578.72	60640.94
578.88	60966.27
579.04	60975.64
579.21	60849.25
579.37	60846.91
579.53	60802.44
579.69	60554.34
579.85	60640.94
580.01	60669.03
580.17	60498.17
580.33	60755.63
580.49	60757.97
580.65	60734.56
580.82	60680.73
580.98	60645.62
581.14	60643.28
581.30	60945.21
581.46	60781.37
581.62	60741.58
581.78	60687.75
581.94	60619.88
582.10	60559.02
582.26	60624.56
582.42	60610.51
582.58	60732.22
582.74	60683.07
582.90	60893.72
583.06	60959.25
583.22	60814.14
583.38	60860.95
583.54	60729.88
583.70	60776.69
583.86	60849.25
584.02	60519.23
584.18	60973.30
584.34	60786.05
584.50	60645.62
584.66	60832.86
584.82	60652.64
584.98	60987.34
585.14	60928.83
585.30	60821.16
585.46	60940.53
585.62	60837.54
585.78	61195.65
585.94	60589.45
586.10	60706.47
586.26	61022.45
586.42	60938.19
586.58	61015.43
586.74	60849.25
586.90	60804.78
587.06	60917.12
587.22	60823.50
587.38	60818.82
587.54	61034.15
587.70	61071.60
587.86	60931.17
588.02	61003.72
588.18	60919.46
588.34	60809.46
588.49	61038.83
