SpectraSuite Data File
++++++++++++++++++++++++++++++++++++
Date: Fri Oct 25 11:23:33 EDT 2013
User: price-jones
Dark Spectrum Present: No
Reference Spectrum Present: No
Number of Sampled Component Spectra: 1
Spectrometers: USB2+H05261
Integration Time (usec): 100000 (USB2+H05261)
Spectra Averaged: 1 (USB2+H05261)
Boxcar Smoothing: 0 (USB2+H05261)
Correct for Electrical Dark: No (USB2+H05261)
Strobe/Lamp Enabled: No (USB2+H05261)
Correct for Detector Non-linearity: No (USB2+H05261)
Correct for Stray Light: No (USB2+H05261)
Number of Pixels in Processed Spectrum: 2048
>>>>>Begin Processed Spectral Data<<<<<
365.73	238.73
365.92	238.73
366.12	238.73
366.32	126.39
366.52	145.11
366.72	105.32
366.91	161.50
367.11	154.48
367.31	110.01
367.51	124.05
367.70	77.24
367.90	149.79
368.10	138.09
368.30	156.82
368.49	159.16
368.69	135.75
368.89	100.64
369.09	140.43
369.28	187.24
369.48	180.22
369.68	191.92
369.87	184.90
370.07	203.63
370.27	236.39
370.47	313.63
370.66	599.18
370.86	631.94
371.06	688.12
371.25	765.36
371.45	725.57
371.65	620.24
371.84	641.31
372.04	739.61
372.24	758.33
372.44	697.48
372.63	716.20
372.83	737.27
373.03	713.86
373.22	763.01
373.42	709.18
373.62	821.53
373.81	755.99
374.01	884.72
374.21	798.12
374.40	795.78
374.60	821.53
374.79	751.31
374.99	795.78
375.19	819.19
375.38	863.66
375.58	821.53
375.78	866.00
375.97	840.25
376.17	919.83
376.37	870.68
376.56	912.81
376.76	870.68
376.95	875.36
377.15	866.00
377.35	978.34
377.54	950.26
377.74	931.53
377.93	868.34
378.13	938.55
378.33	882.38
378.52	877.70
378.72	938.55
378.91	976.00
379.11	908.13
379.31	898.77
379.50	933.87
379.70	985.37
379.89	924.51
380.09	936.21
380.28	1022.81
380.48	961.96
380.68	997.07
380.87	1057.92
381.07	945.58
381.26	959.62
381.46	1027.50
381.65	1004.09
381.85	1018.13
382.04	961.96
382.24	1041.54
382.43	1071.97
382.63	1050.90
382.83	1081.33
383.02	1071.97
383.22	1057.92
383.41	1034.52
383.61	1132.82
383.80	1064.94
384.00	1107.07
384.19	1104.73
384.39	1235.80
384.58	1111.75
384.78	1128.14
384.97	1156.22
385.17	1144.52
385.36	1137.50
385.56	1186.65
385.75	1179.63
385.95	1240.48
386.14	1186.65
386.34	1240.48
386.53	1193.67
386.72	1142.18
386.92	1287.29
387.11	1259.21
387.31	1252.19
387.50	1263.89
387.70	1242.82
387.89	1217.08
388.09	1338.79
388.28	1329.42
388.48	1153.88
388.67	1284.95
388.86	1310.70
389.06	1289.64
389.25	1350.49
389.45	1327.08
389.64	1306.02
389.84	1406.66
390.03	1291.98
390.22	1411.34
390.42	1355.17
390.61	1364.53
390.81	1432.41
391.00	1418.36
391.19	1439.43
391.39	1476.88
391.58	1441.77
391.78	1530.71
391.97	1432.41
392.16	1455.81
392.36	1460.49
392.55	1486.24
392.75	1507.30
392.94	1570.50
393.13	1591.56
393.33	1488.58
393.52	1654.76
393.71	1565.82
393.91	1619.65
394.10	1603.27
394.29	1664.12
394.49	1497.94
394.68	1643.06
394.88	1640.72
395.07	1643.06
395.26	1612.63
395.46	1657.10
395.65	1664.12
395.84	1687.53
396.04	1842.00
396.23	1757.74
396.42	1830.30
396.62	1816.26
396.81	1771.79
397.00	1804.55
397.19	1802.21
397.39	1739.02
397.58	1809.23
397.77	1863.07
397.97	1771.79
398.16	1898.17
398.35	1909.88
398.55	1874.77
398.74	1891.15
398.93	1961.37
399.12	1956.69
399.32	1930.94
399.51	1919.24
399.70	2036.27
399.90	1937.96
400.09	1916.90
400.28	2073.71
400.47	1959.03
400.67	2078.40
400.86	2029.24
401.05	2033.93
401.24	2195.42
401.44	2083.08
401.63	2125.21
401.82	2153.29
402.01	2076.06
402.21	2200.10
402.40	2190.74
402.59	2167.34
402.78	2221.17
402.97	2221.17
403.17	2209.47
403.36	2239.89
403.55	2277.34
403.74	2260.96
403.93	2511.39
404.13	2394.37
404.32	2382.67
404.51	2373.30
404.70	2497.35
404.89	2457.56
405.09	2572.25
405.28	2410.75
405.47	2518.42
405.66	2509.05
405.85	2513.74
406.05	2490.33
406.24	2487.99
406.43	2530.12
406.62	2572.25
406.81	2698.64
407.00	2628.42
407.20	2569.91
407.39	2619.06
407.58	2729.06
407.77	2616.72
407.96	2789.92
408.15	2710.34
408.34	2729.06
408.54	2789.92
408.73	2808.64
408.92	2757.15
409.11	2909.29
409.30	2829.71
409.49	2951.42
409.68	2883.54
409.87	2888.22
410.07	3047.38
410.26	3080.14
410.45	2963.12
410.64	2988.86
410.83	3143.34
411.02	3087.17
411.21	3157.38
411.40	3166.74
411.59	3192.49
411.78	3232.28
411.98	3169.09
412.17	3272.07
412.36	3377.39
412.55	3386.76
412.74	3307.18
412.93	3438.25
413.12	3321.22
413.31	3534.21
413.50	3513.14
413.69	3419.52
413.88	3595.06
414.07	3513.14
414.26	3705.07
414.45	3698.05
414.64	3754.22
414.83	3676.98
415.02	3824.44
415.22	3836.14
415.41	3871.25
415.60	3829.12
415.79	3941.46
415.98	3988.27
416.17	3920.40
416.36	3864.22
416.55	3974.23
416.74	4114.66
416.93	3850.18
417.12	3983.59
417.31	4320.63
417.50	4142.75
417.69	4252.75
417.88	4203.60
418.07	4346.37
418.26	4369.78
418.45	4358.08
418.64	4334.67
418.83	4358.08
419.02	4313.61
419.21	4465.74
419.39	4585.11
419.58	4514.89
419.77	4578.09
419.96	4695.11
420.15	4627.24
420.34	4671.71
420.53	4587.45
420.72	4620.22
420.91	4688.09
421.10	4922.15
421.29	4933.85
421.48	4631.92
421.67	4716.18
421.86	4660.01
422.05	4777.03
422.24	4814.48
422.43	4865.97
422.61	4947.89
422.80	5018.11
422.99	4947.89
423.18	5018.11
423.37	4950.23
423.56	5060.24
423.75	4959.60
423.94	4870.65
424.13	4526.60
424.32	4903.42
424.50	4896.40
424.69	5111.73
424.88	5137.48
425.07	5050.88
425.26	4870.65
425.45	4915.12
425.64	4954.91
425.83	4954.91
426.01	5193.65
426.20	5139.82
426.39	4964.28
426.58	4994.70
426.77	4947.89
426.96	5029.81
427.15	5219.39
427.33	5341.10
427.52	5270.89
427.71	5240.46
427.90	5256.84
428.09	5465.15
428.28	5462.81
428.46	5310.68
428.65	5198.33
428.84	5596.22
429.03	5584.52
429.22	5303.65
429.40	5565.79
429.59	5617.29
429.78	5497.92
429.97	5214.71
430.16	5533.03
430.34	5624.31
430.53	5788.14
430.72	5640.69
430.91	5636.01
431.10	5568.13
431.28	5675.80
431.47	5734.31
431.66	5951.98
431.85	5853.68
432.03	5874.74
432.22	5860.70
432.41	5961.34
432.60	5928.58
432.79	5961.34
432.97	5930.92
433.16	5921.56
433.35	6118.16
433.54	6031.56
433.72	6160.29
433.91	6211.78
434.10	6125.18
434.28	6209.44
434.47	6392.00
434.66	6193.06
434.85	6326.47
435.03	6284.34
435.22	6310.08
435.41	6635.42
435.59	6389.66
435.78	6565.20
435.97	6387.32
436.16	6476.26
436.34	6506.69
436.53	6520.73
436.72	6689.25
436.90	6518.39
437.09	6675.21
437.28	6565.20
437.46	6607.33
437.65	6691.59
437.84	6867.13
438.02	6829.68
438.21	6794.58
438.40	6665.85
438.58	7052.03
438.77	7140.97
438.96	6963.09
439.14	7101.19
439.33	7325.88
439.52	7368.01
439.70	7330.56
439.89	7290.77
440.08	7414.82
440.26	7386.73
440.45	7297.79
440.63	7250.98
440.82	7564.61
441.01	7489.71
441.19	7578.65
441.38	7695.68
441.57	7812.71
441.75	7786.96
441.94	8065.49
442.12	7948.46
442.31	8028.04
442.50	7899.31
442.68	7793.98
442.87	8201.24
443.05	8079.53
443.24	8201.24
443.43	8269.11
443.61	8210.60
443.80	8280.82
443.98	8131.02
444.17	7894.63
444.35	8257.41
444.54	8454.02
444.73	8311.24
444.91	8224.64
445.10	8325.29
445.28	8517.21
445.47	8257.41
445.65	8383.80
445.84	8418.91
446.02	8573.38
446.21	8503.17
446.39	8435.29
446.58	8407.20
446.77	8491.46
446.95	8159.11
447.14	8503.17
447.32	8641.26
447.51	8432.95
447.69	8608.49
447.88	8718.50
448.06	8638.92
448.25	8517.21
448.43	8643.60
448.62	8751.26
448.80	8531.25
448.99	8774.67
449.17	8875.31
449.36	8720.84
449.54	8765.31
449.73	8929.14
449.91	9036.81
450.10	8975.95
450.28	9280.22
450.46	9062.55
450.65	9121.07
450.83	9228.73
451.02	9128.09
451.20	9149.15
451.39	9408.95
451.57	9139.79
451.76	9088.30
451.94	9261.50
452.13	9233.41
452.31	9284.91
452.49	9291.93
452.68	9366.82
452.86	9336.40
453.05	9565.77
453.23	9446.40
453.42	9467.47
453.60	9235.75
453.78	9605.56
453.97	9610.24
454.15	9593.86
454.34	9500.23
454.52	9839.61
454.70	9767.06
454.89	9643.01
455.07	9689.82
455.26	9748.33
455.44	10015.15
455.62	9963.66
455.81	9891.10
455.99	10120.48
456.17	10101.75
456.36	10001.11
456.54	10197.71
456.73	10211.76
456.91	10562.84
457.09	10513.69
457.28	10513.69
457.46	10380.28
457.64	10471.56
457.83	10384.96
458.01	10359.21
458.19	10892.85
458.38	10616.67
458.56	10733.70
458.74	10630.71
458.93	10813.28
459.11	10780.51
459.29	10806.25
459.48	10832.00
459.66	10890.51
459.84	10785.19
460.03	11227.55
460.21	10857.75
460.39	11220.53
460.57	10977.11
460.76	11129.25
460.94	11145.63
461.12	11246.27
461.31	11190.10
461.49	11173.72
461.67	11150.31
461.85	11494.37
462.04	11321.17
462.22	11705.02
462.40	11719.06
462.59	11529.48
462.77	11515.44
462.95	11616.08
463.13	11442.88
463.32	11583.31
463.50	11875.88
463.68	11800.98
463.86	11810.34
464.05	11782.26
464.23	11676.93
464.41	11777.58
464.59	11611.40
464.78	12280.79
464.96	11932.05
465.14	11899.28
465.32	11990.56
465.50	12283.13
465.69	12067.80
465.87	12067.80
466.05	12105.25
466.23	12098.23
466.41	12133.34
466.60	12425.90
466.78	12138.02
466.96	12381.43
467.14	12269.09
467.32	12486.76
467.51	12514.84
467.69	12140.36
467.87	12587.40
468.05	12688.04
468.23	12283.13
468.41	12507.82
468.60	12610.81
468.78	12718.47
468.96	12688.04
469.14	12652.94
469.32	13107.00
469.50	12657.62
469.69	12940.82
469.87	13263.82
470.05	13144.45
470.23	13062.53
470.41	13092.96
470.59	13221.69
470.77	13270.84
470.95	13483.83
471.14	13579.79
471.32	13165.51
471.50	13626.60
471.68	13720.22
471.86	13940.23
472.04	13778.73
472.22	13973.00
472.40	13685.11
472.58	13980.02
472.77	14043.21
472.95	14281.95
473.13	14745.38
473.31	14029.17
473.49	14338.12
473.67	14256.20
473.85	14305.35
474.03	14799.21
474.21	14750.06
474.39	14761.76
474.57	14803.89
474.75	14743.03
474.93	15059.01
475.12	15049.64
475.30	15171.35
475.48	14925.60
475.66	15419.45
475.84	15269.66
476.02	15424.13
476.20	15449.88
476.38	15648.82
476.56	16292.47
476.74	16084.16
476.92	15953.09
477.10	15786.91
477.28	16257.36
477.46	16231.62
477.64	16390.77
477.82	16493.76
478.00	17029.74
478.18	16683.34
478.36	16854.20
478.54	17228.68
478.72	17245.07
478.90	17338.69
479.08	17738.92
479.26	17898.08
479.44	17848.93
479.62	17776.37
479.80	17961.27
479.98	18251.50
480.16	18705.56
480.34	18202.35
480.52	18696.20
480.70	18600.24
480.88	18717.26
481.06	18883.44
481.24	18897.49
481.41	19140.90
481.59	19353.89
481.77	19592.62
481.95	19491.98
482.13	19627.73
482.31	19749.44
482.49	20159.03
482.67	20053.71
482.85	20634.16
483.03	20711.40
483.21	21221.64
483.39	21118.65
483.57	20982.90
483.74	21083.55
483.92	21610.17
484.10	21254.40
484.28	21837.20
484.46	22188.28
484.64	22363.82
484.82	22459.78
485.00	22366.16
485.18	22604.89
485.35	22963.00
485.53	22632.98
485.71	23131.51
485.89	23733.03
486.07	23711.97
486.25	23578.56
486.43	23714.31
486.61	23702.61
486.78	24287.74
486.96	24226.89
487.14	24540.52
487.32	24706.70
487.50	25064.80
487.68	25006.28
487.85	25521.20
488.03	25649.93
488.21	25766.96
488.39	26132.08
488.57	26195.28
488.75	26391.88
488.92	26480.82
489.10	26742.96
489.28	26731.26
489.46	27171.28
489.64	27047.23
489.81	27852.38
489.99	27784.50
490.17	28013.87
490.35	28032.60
490.53	28109.83
490.70	28467.94
490.88	27885.14
491.06	28819.02
491.24	28999.24
491.41	29336.27
491.59	29453.30
491.77	29191.16
491.95	29448.62
492.13	29853.53
492.30	30132.06
492.48	30197.59
492.66	30185.89
492.84	30192.91
493.01	30642.29
493.19	30848.26
493.37	31213.38
493.54	31152.53
493.72	31512.97
493.90	31381.90
494.08	31510.63
494.25	32325.14
494.43	32009.17
494.61	32493.66
494.79	33141.99
494.96	32608.34
495.14	32938.36
495.32	33415.83
495.49	32744.09
495.67	33446.26
495.85	33862.87
496.02	33720.10
496.20	34305.23
496.38	34326.30
496.55	33883.94
496.73	34993.35
496.91	34899.73
497.09	35037.82
497.26	34911.43
497.44	35337.41
497.62	35487.20
497.79	35920.20
497.97	35578.48
498.14	36009.14
498.32	36297.03
498.50	36425.76
498.67	36627.04
498.85	36561.51
499.03	37284.73
499.20	36734.71
499.38	37083.45
499.56	37474.32
499.73	37235.58
499.91	37331.54
500.08	37507.08
500.26	37322.18
500.44	37556.24
500.61	37977.53
500.79	37947.11
500.97	38162.43
501.14	38455.00
501.32	38401.17
501.49	38799.06
501.67	38660.97
501.84	39646.33
502.02	39122.05
502.20	39171.21
502.37	39201.63
502.55	39218.02
502.72	39519.95
502.90	39807.83
503.07	39723.57
503.25	39693.15
503.43	39662.72
503.60	40194.02
503.78	40294.66
503.95	40648.08
504.13	40538.08
504.30	40905.54
504.48	40509.99
504.65	40772.13
504.83	41141.94
505.01	41483.66
505.18	41787.92
505.36	41701.32
505.53	41514.08
505.71	41483.66
505.88	41958.78
506.06	41626.43
506.23	42073.47
506.41	41556.21
506.58	42316.89
506.76	42244.33
506.93	42841.17
507.11	42326.25
507.28	42433.91
507.46	42419.87
507.63	43164.16
507.81	43552.69
507.98	43461.41
508.16	43243.74
508.33	43739.93
508.50	43636.95
508.68	44048.88
508.85	43796.10
509.03	43878.02
509.20	44023.14
509.38	44617.63
509.55	44329.75
509.73	44641.04
509.90	44844.66
510.08	44350.81
510.25	44900.84
510.42	45116.17
510.60	44910.20
510.77	45184.04
510.95	46054.72
511.12	45071.70
511.30	45359.58
511.47	45530.44
511.64	46068.76
511.82	46274.73
511.99	46164.73
512.17	45893.22
512.34	45914.29
512.51	46052.38
512.69	46834.12
512.86	46522.83
513.04	46782.63
513.21	46735.82
513.38	46834.12
513.56	46693.69
513.73	46941.78
513.90	47669.69
514.08	46866.89
514.25	47543.30
514.43	47597.13
514.60	47372.44
514.77	47585.43
514.95	47648.63
515.12	47725.86
515.29	47934.17
515.47	47929.49
515.64	48348.45
515.81	48229.08
515.99	48442.07
516.16	48612.93
516.33	48421.00
516.51	48931.24
516.68	48629.31
516.85	48648.03
517.03	48772.08
517.20	49055.29
517.37	48896.13
517.54	48886.77
517.72	49305.73
517.89	49125.50
518.06	49436.80
518.24	49104.44
518.41	49703.62
518.58	49429.77
518.75	49553.82
518.93	49574.89
519.10	49610.00
519.27	49698.94
519.45	50188.11
519.62	49865.11
519.79	50019.59
519.96	50176.40
520.14	50258.32
520.31	50424.50
520.48	50787.28
520.65	50387.05
520.83	50756.86
521.00	50897.29
521.17	50288.75
521.34	50700.68
521.52	50972.19
521.69	50951.12
521.86	51189.86
522.03	51351.35
522.20	51339.65
522.38	51606.47
522.55	51473.06
522.72	51327.95
522.89	51552.64
523.07	51796.06
523.24	51672.01
523.41	51929.47
523.58	51566.68
523.75	51995.00
523.92	52339.06
524.10	51990.32
524.27	52268.84
524.44	51995.00
524.61	51927.13
524.78	52404.59
524.96	52343.74
525.13	52580.13
525.30	52729.93
525.47	52500.56
525.64	52865.68
525.81	52706.52
525.98	52851.64
526.16	52762.70
526.33	52856.32
526.50	53158.25
526.67	52722.91
526.84	52982.71
527.01	52713.55
527.18	52994.41
527.36	52978.03
527.53	53401.66
527.70	53200.38
527.87	53478.90
528.04	53113.78
528.21	53406.34
528.38	53389.96
528.55	53460.18
528.72	53191.01
528.89	53521.03
529.07	53588.91
529.24	53497.62
529.41	53684.87
529.58	53591.25
529.75	53652.10
529.92	53602.95
530.09	54108.50
530.26	54148.29
530.43	54244.26
530.60	53989.14
530.77	53968.07
530.94	53996.16
531.11	54092.12
531.28	54213.83
531.46	54232.55
531.63	54703.00
531.80	54450.22
531.97	54546.18
532.14	54288.73
532.31	54459.58
532.48	54363.62
532.65	54749.81
532.82	54588.31
532.99	54848.11
533.16	54501.71
533.33	54920.67
533.50	55227.28
533.67	54969.82
533.84	54927.69
534.01	54805.98
534.18	54791.94
534.35	55229.62
534.52	54939.39
534.69	55313.88
534.86	55199.19
535.03	55103.23
535.20	55295.16
535.37	55571.34
535.54	55274.09
535.71	55320.90
535.88	55454.31
536.05	55550.27
536.22	55545.59
536.38	55664.96
536.55	55751.56
536.72	55636.87
536.89	55770.28
537.06	55662.62
537.23	55987.95
537.40	55587.72
537.57	55819.44
537.74	55950.51
537.91	55924.76
538.08	56030.08
538.25	55861.57
538.42	56016.04
538.59	56016.04
538.75	56081.58
538.92	56205.62
539.09	56339.04
539.26	56306.27
539.43	56140.09
539.60	56484.15
539.77	56336.69
539.94	56395.21
540.11	56519.26
540.28	56715.86
540.44	56397.55
540.61	56224.35
540.78	56708.84
540.95	56568.41
541.12	56427.98
541.29	56533.30
541.46	56669.05
541.62	56664.37
541.79	56725.22
541.96	56470.11
542.13	56357.76
542.30	56917.15
542.47	56762.67
542.63	57013.11
542.80	56985.02
542.97	57153.54
543.14	57092.69
543.31	56947.57
543.48	57289.29
543.64	57677.82
543.81	57258.87
543.98	57565.48
544.15	57469.51
544.32	57607.61
544.48	57602.92
544.65	57506.96
544.82	57511.64
544.99	57286.95
545.16	57509.30
545.32	57670.80
545.49	57698.89
545.66	57783.15
545.83	57605.26
546.00	57836.98
546.16	57771.44
546.33	57834.64
546.50	57439.09
546.67	57642.71
546.83	57736.34
547.00	57783.15
547.17	57911.88
547.34	57813.57
547.50	57977.41
547.67	58157.63
547.84	57956.35
548.00	58166.99
548.17	58298.06
548.34	58176.36
548.51	58274.66
548.67	58356.58
548.84	58356.58
549.01	58253.59
549.18	58300.40
549.34	58340.19
549.51	58464.24
549.68	58459.56
549.84	58389.34
550.01	58541.48
550.18	58543.82
550.34	58621.06
550.51	58564.88
550.68	58564.88
550.84	58356.58
551.01	58522.76
551.18	58621.06
551.34	58529.78
551.51	58401.05
551.68	58782.55
551.84	58520.41
552.01	58459.56
552.18	58791.92
552.34	58815.32
552.51	58728.72
552.68	58735.74
552.84	58756.81
553.01	59103.21
553.18	58850.43
553.34	58913.62
553.51	58787.24
553.67	58955.75
553.84	59091.51
554.01	58899.58
554.17	58995.54
554.34	59077.46
554.51	59107.89
554.67	59274.07
554.84	59058.74
555.00	59124.27
555.17	59096.19
555.33	59269.39
555.50	59290.45
555.67	59138.32
555.83	59222.58
556.00	59096.19
556.16	59583.02
556.33	59480.03
556.50	59091.51
556.66	59489.40
556.83	59128.95
556.99	59355.99
557.16	59688.34
557.32	59494.08
557.49	59667.28
557.65	59463.65
557.82	59636.85
557.98	59435.56
558.15	59597.06
558.32	59564.29
558.48	59405.14
558.65	59480.03
558.81	59489.40
558.98	59611.10
559.14	59655.57
559.31	59821.75
559.47	59877.93
559.64	59992.61
559.80	59861.54
559.97	59763.24
560.13	59620.47
560.30	59826.43
560.46	59826.43
560.63	59756.22
560.79	59852.18
560.96	59632.17
561.12	60032.40
561.29	59863.88
561.45	59959.84
561.61	59861.54
561.78	59821.75
561.94	59779.62
562.11	59936.44
562.27	59854.52
562.44	60170.49
562.60	60090.91
562.77	59950.48
562.93	59735.15
563.10	60069.85
563.26	59915.37
563.42	60221.98
563.59	60355.39
563.75	60149.43
563.92	59992.61
564.08	60001.97
564.24	60362.42
564.41	60259.43
564.57	60392.84
564.74	60224.32
564.90	60280.50
565.07	60086.23
565.23	60271.14
565.39	60172.83
565.56	60315.61
565.72	60360.08
565.88	60205.60
566.05	60032.40
566.21	60259.43
566.38	60140.07
566.54	60432.63
566.70	60336.67
566.87	60336.67
567.03	60238.37
567.19	60582.43
567.36	60217.30
567.52	60463.06
567.68	60566.04
567.85	60453.70
568.01	60547.32
568.17	60254.75
568.34	60540.30
568.50	60397.52
568.66	60402.21
568.83	60598.81
568.99	60451.36
569.15	60432.63
569.32	60467.74
569.48	60537.96
569.64	60575.40
569.81	60376.46
569.97	60355.39
570.13	60544.98
570.30	60418.59
570.46	60720.52
570.62	60472.42
570.78	60544.98
570.95	60584.77
571.11	60533.28
571.27	60631.58
571.43	60711.16
571.60	60846.91
571.76	60619.88
571.92	60706.47
572.09	60687.75
572.25	60671.37
572.41	60687.75
572.57	60589.45
572.74	60893.72
572.90	60739.24
573.06	60671.37
573.22	60823.50
573.38	60727.54
573.55	60563.70
573.71	60947.55
573.87	60872.65
574.03	60645.62
574.20	60842.23
574.36	60783.71
574.52	60786.05
574.68	60772.01
574.84	60755.63
575.01	60893.72
575.17	60736.90
575.33	60764.99
575.49	60772.01
575.65	60725.20
575.82	60779.03
575.98	60783.71
576.14	61048.19
576.30	60903.08
576.46	60711.16
576.62	60903.08
576.79	60889.04
576.95	60874.99
577.11	60722.86
577.27	60816.48
577.43	60877.33
577.59	60441.99
577.75	60867.97
577.92	60654.98
578.08	60683.07
578.24	60860.95
578.40	60886.70
578.56	61055.21
578.72	60959.25
578.88	61181.60
579.04	61066.92
579.21	60889.04
579.37	60956.91
579.53	61186.28
579.69	60807.12
579.85	60823.50
580.01	60912.44
580.17	60961.59
580.33	61010.74
580.49	61169.90
580.65	60980.32
580.82	60867.97
580.98	60987.34
581.14	60725.20
581.30	61137.13
581.46	60961.59
581.62	61155.86
581.78	60837.54
581.94	60954.57
582.10	60949.89
582.26	61188.63
582.42	60952.23
582.58	61013.08
582.74	60865.63
582.90	60793.07
583.06	61013.08
583.22	60874.99
583.38	61048.19
583.54	61202.67
583.70	61024.79
583.86	61230.75
584.02	60786.05
584.18	61106.71
584.34	61137.13
584.50	60853.93
584.66	60963.93
584.82	60793.07
584.98	61193.31
585.14	61212.03
585.30	61024.79
585.46	61041.17
585.62	61207.35
585.78	61216.71
585.94	60945.21
586.10	60985.00
586.26	61022.45
586.42	61127.77
586.58	61240.12
586.74	61034.15
586.90	61207.35
587.06	61003.72
587.22	61296.29
587.38	61087.98
587.54	61195.65
587.70	61169.90
587.86	61221.39
588.02	61165.22
588.18	61307.99
588.34	61137.13
588.49	61034.15
