SpectraSuite Data File
++++++++++++++++++++++++++++++++++++
Date: Fri Oct 25 10:47:02 EDT 2013
User: price-jones
Dark Spectrum Present: No
Reference Spectrum Present: No
Number of Sampled Component Spectra: 1
Spectrometers: USB2+H05261
Integration Time (usec): 100000 (USB2+H05261)
Spectra Averaged: 1 (USB2+H05261)
Boxcar Smoothing: 0 (USB2+H05261)
Correct for Electrical Dark: No (USB2+H05261)
Strobe/Lamp Enabled: No (USB2+H05261)
Correct for Detector Non-linearity: No (USB2+H05261)
Correct for Stray Light: No (USB2+H05261)
Number of Pixels in Processed Spectrum: 2048
>>>>>Begin Processed Spectral Data<<<<<
365.73	138.09
365.92	138.09
366.12	138.09
366.32	72.56
366.52	114.69
366.72	44.47
366.91	2.34
367.11	0.00
367.31	65.54
367.51	63.19
367.70	39.79
367.90	32.77
368.10	42.13
368.30	72.56
368.49	0.00
368.69	119.37
368.89	53.83
369.09	0.00
369.28	11.70
369.48	74.90
369.68	117.03
369.87	84.26
370.07	84.26
370.27	110.01
370.47	196.60
370.66	472.79
370.86	454.06
371.06	468.11
371.25	543.00
371.45	449.38
371.65	407.25
371.84	463.43
372.04	416.62
372.24	442.36
372.44	472.79
372.63	456.40
372.83	482.15
373.03	449.38
373.22	475.13
373.42	538.32
373.62	561.73
373.81	528.96
374.01	624.92
374.21	468.11
374.40	531.30
374.60	493.85
374.79	552.37
374.99	627.26
375.19	610.88
375.38	587.47
375.58	585.13
375.78	634.29
375.97	559.39
376.17	582.79
376.37	599.18
376.56	613.22
376.76	610.88
376.95	531.30
377.15	681.10
377.35	571.09
377.54	653.01
377.74	587.47
377.93	681.10
378.13	685.78
378.33	704.50
378.52	645.99
378.72	582.79
378.91	617.90
379.11	620.24
379.31	643.65
379.50	636.63
379.70	653.01
379.89	706.84
380.09	648.33
380.28	624.92
380.48	713.86
380.68	648.33
380.87	697.48
381.07	669.39
381.26	690.46
381.46	662.37
381.65	753.65
381.85	608.54
382.04	692.80
382.24	657.69
382.43	671.73
382.63	723.23
382.83	578.11
383.02	732.59
383.22	702.16
383.41	667.05
383.61	737.27
383.80	676.41
384.00	702.16
384.19	765.36
384.39	727.91
384.58	727.91
384.78	781.74
384.97	725.57
385.17	751.31
385.36	835.57
385.56	835.57
385.75	786.42
385.95	706.84
386.14	863.66
386.34	800.46
386.53	858.98
386.72	861.32
386.92	858.98
387.11	898.77
387.31	805.14
387.50	809.83
387.70	924.51
387.89	854.30
388.09	863.66
388.28	863.66
388.48	849.61
388.67	819.19
388.86	910.47
389.06	919.83
389.25	943.24
389.45	976.00
389.64	973.66
389.84	961.96
390.03	968.98
390.22	873.02
390.42	947.92
390.61	966.64
390.81	882.38
391.00	1025.15
391.19	945.58
391.39	1008.77
391.58	1032.18
391.78	1039.20
391.97	1090.69
392.16	1029.84
392.36	954.94
392.55	992.39
392.75	936.21
392.94	1025.15
393.13	1104.73
393.33	947.92
393.52	1001.75
393.71	1071.97
393.91	1004.09
394.10	1062.60
394.29	1060.26
394.49	1128.14
394.68	1214.74
394.88	1174.95
395.07	1142.18
395.26	1184.31
395.46	1167.93
395.65	1196.01
395.84	1153.88
396.04	1158.57
396.23	1090.69
396.42	1088.35
396.62	1228.78
396.81	1088.35
397.00	1088.35
397.19	1210.06
397.39	1273.25
397.58	1334.11
397.77	1284.95
397.97	1256.87
398.16	1306.02
398.35	1306.02
398.55	1303.68
398.74	1444.11
398.93	1371.55
399.12	1357.51
399.32	1359.85
399.51	1320.06
399.70	1413.68
399.90	1500.28
400.09	1479.22
400.28	1528.37
400.47	1409.00
400.67	1458.15
400.86	1465.18
401.05	1451.13
401.24	1547.09
401.44	1537.73
401.63	1493.26
401.82	1624.33
402.01	1577.52
402.21	1619.65
402.40	1673.48
402.59	1577.52
402.78	1657.10
402.97	1619.65
403.17	1610.29
403.36	1701.57
403.55	1795.19
403.74	1781.15
403.93	1678.16
404.13	1724.97
404.32	1769.44
404.51	1692.21
404.70	1795.19
404.89	1654.76
405.09	1881.79
405.28	1781.15
405.47	1776.47
405.66	1818.60
405.85	1771.79
406.05	1764.76
406.24	1902.86
406.43	1952.01
406.62	1839.66
406.81	2047.97
407.00	1863.07
407.20	1942.64
407.39	1973.07
407.58	2008.18
407.77	2036.27
407.96	2026.90
408.15	1935.62
408.34	2050.31
408.54	2078.40
408.73	2087.76
408.92	2195.42
409.11	2153.29
409.30	2190.74
409.49	2223.51
409.68	2155.63
409.87	2080.74
410.07	2122.87
410.26	2172.02
410.45	2092.44
410.64	2146.27
410.83	2260.96
411.02	2256.28
411.21	2408.41
411.40	2314.79
411.59	2296.07
411.78	2415.43
411.98	2417.77
412.17	2417.77
412.36	2401.39
412.55	2483.31
412.74	2438.84
412.93	2534.80
413.12	2520.76
413.31	2635.44
413.50	2532.46
413.69	2530.12
413.88	2647.15
414.07	2684.59
414.26	2621.40
414.45	2722.04
414.64	2874.18
414.83	2885.88
415.02	2825.03
415.22	2899.92
415.41	2888.22
415.60	2874.18
415.79	2834.39
415.98	3110.57
416.17	2979.50
416.36	3000.57
416.55	3016.95
416.74	2977.16
416.93	2958.44
417.12	3103.55
417.31	3094.19
417.50	3084.83
417.69	3201.85
417.88	3162.06
418.07	3253.34
418.26	3225.26
418.45	3302.50
418.64	3337.60
418.83	3227.60
419.02	3311.86
419.21	3311.86
419.39	3276.75
419.58	3220.58
419.77	3300.16
419.96	3515.48
420.15	3557.61
420.34	3332.92
420.53	3471.01
420.72	3492.08
420.91	3571.66
421.10	3524.85
421.29	3585.70
421.48	3445.27
421.67	3534.21
421.86	3576.34
422.05	3529.53
422.24	3475.70
422.43	3644.21
422.61	3606.77
422.80	3616.13
422.99	3559.95
423.18	3805.71
423.37	3796.35
423.56	3581.02
423.75	3599.74
423.94	3557.61
424.13	3239.30
424.32	3492.08
424.50	3588.04
424.69	3796.35
424.88	3768.26
425.07	3625.49
425.26	3674.64
425.45	3644.21
425.64	3695.71
425.83	3641.87
426.01	3770.60
426.20	3763.58
426.39	3735.50
426.58	3698.05
426.77	3541.23
426.96	3796.35
427.15	3712.09
427.33	3817.41
427.52	3852.52
427.71	3854.86
427.90	3920.40
428.09	3740.18
428.28	3955.51
428.46	3913.38
428.65	3964.87
428.84	3990.61
429.03	4147.43
429.22	3960.19
429.40	3861.88
429.59	3957.85
429.78	3770.60
429.97	3772.94
430.16	3904.01
430.34	3887.63
430.53	4049.13
430.72	4133.39
430.91	3971.89
431.10	4175.52
431.28	4105.30
431.47	4208.28
431.66	4348.72
431.85	4224.67
432.03	4273.82
432.22	4379.14
432.41	4292.54
432.60	4332.33
432.79	4358.08
432.97	4376.80
433.16	4500.85
433.35	4416.59
433.54	4353.40
433.72	4470.42
433.91	4416.59
434.10	4456.38
434.28	4393.19
434.47	4531.28
434.66	4409.57
434.85	4566.39
435.03	4498.51
435.22	4479.79
435.41	4814.48
435.59	4730.22
435.78	4802.78
435.97	4674.05
436.16	4781.71
436.34	4716.18
436.53	4812.14
436.72	4990.02
436.90	4730.22
437.09	4973.64
437.28	4770.01
437.46	4821.50
437.65	4812.14
437.84	4901.08
438.02	4961.94
438.21	4755.97
438.40	4706.82
438.58	4929.17
438.77	5069.60
438.96	5109.39
439.14	5226.42
439.33	5085.98
439.52	5207.69
439.70	5107.05
439.89	5221.74
440.08	5247.48
440.26	5233.44
440.45	5329.40
440.63	5420.68
440.82	5551.75
441.01	5631.33
441.19	5551.75
441.38	5846.66
441.57	5710.91
441.75	5830.27
441.94	5853.68
442.12	5717.93
442.31	5902.83
442.50	5741.33
442.68	5729.63
442.87	5722.61
443.05	5797.51
443.24	6008.16
443.43	5919.21
443.61	5954.32
443.80	6113.48
443.98	5914.53
444.17	5666.44
444.35	6129.86
444.54	6157.95
444.73	6097.10
444.91	6043.26
445.10	6054.97
445.28	5970.71
445.47	5968.37
445.65	5963.68
445.84	6024.54
446.02	6230.51
446.21	6113.48
446.39	6190.72
446.58	6146.25
446.77	6188.38
446.95	6136.88
447.14	6139.23
447.32	6310.08
447.51	6153.27
447.69	6120.50
447.88	6083.05
448.06	6202.42
448.25	6307.74
448.43	6267.95
448.62	6146.25
448.80	6284.34
448.99	6263.27
449.17	6331.15
449.36	6342.85
449.54	6534.78
449.73	6473.92
449.91	6633.08
450.10	6604.99
450.28	6649.46
450.46	6513.71
450.65	6794.58
450.83	6569.88
451.02	6478.60
451.20	6637.76
451.39	6696.27
451.57	6600.31
451.76	6736.06
451.94	6827.34
452.13	6647.12
452.31	6775.85
452.49	6684.57
452.68	6780.53
452.86	6731.38
453.05	6726.70
453.23	6801.60
453.42	6986.50
453.60	6911.60
453.78	6888.20
453.97	6869.47
454.15	6766.49
454.34	6913.94
454.52	6972.46
454.70	7059.06
454.89	7035.65
455.07	7101.19
455.26	7126.93
455.44	7318.86
455.62	7342.26
455.81	7164.38
455.99	7148.00
456.17	7452.27
456.36	7112.89
456.54	7428.86
456.73	7222.89
456.91	7597.38
457.09	7447.58
457.28	7662.91
457.46	7470.99
457.64	7478.01
457.83	7531.84
458.01	7419.50
458.19	7665.25
458.38	7616.10
458.56	7801.01
458.74	7793.98
458.93	7602.06
459.11	7648.87
459.29	7473.33
459.48	7721.43
459.66	7728.45
459.84	7784.62
460.03	8002.29
460.21	7892.29
460.39	7882.92
460.57	7932.08
460.76	8177.83
460.94	7999.95
461.12	8049.10
461.31	7875.90
461.49	7962.50
461.67	8049.10
461.85	8287.84
462.04	8236.35
462.22	8643.60
462.40	8276.13
462.59	8163.79
462.77	8374.44
462.95	8278.47
463.13	8278.47
463.32	8341.67
463.50	8390.82
463.68	8353.37
463.86	8437.63
464.05	8222.30
464.23	8374.44
464.41	8545.30
464.59	8264.43
464.78	8730.20
464.96	8400.18
465.14	8437.63
465.32	8713.81
465.50	8547.64
465.69	8667.00
465.87	8699.77
466.05	8482.10
466.23	8774.67
466.41	8592.11
466.60	8786.37
466.78	8697.43
466.96	8760.63
467.14	8732.54
467.32	8833.18
467.51	8830.84
467.69	8535.93
467.87	9004.04
468.05	8936.17
468.23	8690.41
468.41	8922.12
468.60	9153.84
468.78	9212.35
468.96	9015.74
469.14	9008.72
469.32	9247.46
469.50	8854.25
469.69	9205.33
469.87	9149.15
470.05	9174.90
470.23	9238.09
470.41	9247.46
470.59	9373.85
470.77	9270.86
470.95	9448.74
471.14	9383.21
471.32	9310.65
471.50	9692.16
471.68	9469.81
471.86	9708.54
472.04	9853.66
472.22	9916.85
472.40	9694.50
472.58	9951.96
472.77	9811.53
472.95	9603.22
473.13	9987.07
473.31	9799.82
473.49	9865.36
473.67	9987.07
473.85	9914.51
474.03	10059.62
474.21	10101.75
474.39	10494.96
474.57	10225.80
474.75	10218.78
474.93	10604.97
475.12	10504.32
475.30	10590.92
475.48	10511.35
475.66	10504.32
475.84	10494.96
476.02	10513.69
476.20	10696.25
476.38	10932.64
476.56	10897.53
476.74	11012.22
476.92	11052.01
477.10	11012.22
477.28	11414.79
477.46	11316.49
477.64	11377.34
477.82	11772.89
478.00	11632.46
478.18	11800.98
478.36	11971.84
478.54	11955.46
478.72	11939.07
478.90	11948.43
479.08	12149.72
479.26	12414.20
479.44	12463.35
479.62	12456.33
479.80	12652.94
479.98	12545.27
480.16	12664.64
480.34	12849.54
480.52	13001.68
480.70	12776.98
480.88	12762.94
481.06	12795.71
481.24	12940.82
481.41	13308.29
481.59	13556.38
481.77	13420.63
481.95	13298.92
482.13	13671.07
482.31	13598.51
482.49	14118.11
482.67	14071.30
482.85	14181.31
483.03	14253.86
483.21	14319.40
483.39	14532.39
483.57	14518.34
483.74	14443.45
483.92	14656.43
484.10	14384.93
484.28	14773.46
484.46	15115.18
484.64	15531.80
484.82	15094.11
485.00	15215.82
485.18	15534.14
485.35	15393.70
485.53	15538.82
485.71	15344.55
485.89	15723.72
486.07	15454.56
486.25	15800.96
486.43	15976.50
486.61	16175.44
486.78	16278.43
486.96	16334.60
487.14	16781.64
487.32	17179.53
487.50	17050.80
487.68	17106.98
487.85	17207.62
488.03	17186.55
488.21	17582.10
488.39	17254.43
488.57	17518.91
488.75	17710.83
488.92	18288.95
489.10	18331.08
489.28	18382.57
489.46	18515.98
489.64	18464.49
489.81	18588.53
489.99	18892.80
490.17	18993.45
490.35	19201.76
490.53	19164.31
490.70	19321.12
490.88	19328.14
491.06	19648.80
491.24	19517.73
491.41	19419.42
491.59	19648.80
491.77	19700.29
491.95	19903.92
492.13	20496.07
492.30	20173.08
492.48	20692.68
492.66	20699.70
492.84	20837.79
493.01	21034.39
493.19	20877.58
493.37	21020.35
493.54	20975.88
493.72	21233.34
493.90	21401.86
494.08	21898.05
494.25	21823.16
494.43	21664.00
494.61	22012.74
494.79	22434.03
494.96	22134.45
495.14	22295.94
495.32	22160.19
495.49	22759.37
495.67	22389.56
495.85	22588.51
496.02	23084.70
496.20	23194.71
496.38	22974.70
496.55	23234.50
496.73	23744.73
496.91	23178.33
497.09	23578.56
497.26	23887.51
497.44	23440.47
497.62	23688.56
497.79	23648.77
497.97	24191.78
498.14	24100.50
498.32	24257.31
498.50	24395.40
498.67	24397.74
498.85	24594.35
499.03	24816.70
499.20	24793.29
499.38	24996.92
499.56	25032.03
499.73	25034.37
499.91	25069.48
500.08	25373.75
500.26	25043.73
500.44	25202.89
500.61	25626.53
500.79	25350.34
500.97	25699.08
501.14	25610.14
501.32	25813.77
501.49	26103.99
501.67	26003.35
501.84	26651.68
502.02	25951.86
502.20	26106.34
502.37	26621.25
502.55	26438.69
502.72	26883.39
502.90	26719.56
503.07	26466.78
503.25	26574.44
503.43	26508.91
503.60	26927.86
503.78	26749.98
503.95	26663.38
504.13	27211.07
504.30	27292.99
504.48	27175.96
504.65	27899.19
504.83	27878.12
505.01	27653.43
505.18	27672.15
505.36	27988.13
505.53	27683.86
505.71	27978.76
505.88	28266.65
506.06	28079.41
506.23	28386.02
506.41	27962.38
506.58	28584.96
506.76	28250.27
506.93	28460.91
507.11	28723.05
507.28	28570.92
507.46	28875.19
507.63	28723.05
507.81	28755.82
507.98	28868.17
508.16	28879.87
508.33	29057.75
508.50	29322.23
508.68	29411.17
508.85	29670.97
509.03	29425.22
509.20	29879.28
509.38	29811.40
509.55	29755.23
509.73	29600.76
509.90	29944.81
510.08	29961.20
510.25	29940.13
510.42	30244.40
510.60	30244.40
510.77	30541.65
510.95	30361.43
511.12	30511.22
511.30	30803.79
511.47	30955.93
511.64	31260.20
511.82	30998.06
511.99	30525.27
512.17	30733.57
512.34	30920.82
512.51	31253.17
512.69	31658.09
512.86	31367.86
513.04	31405.31
513.21	31569.15
513.38	31800.86
513.56	31271.90
513.73	31292.96
513.90	31758.73
514.08	31660.43
514.25	31618.30
514.43	32189.39
514.60	31641.70
514.77	32081.72
514.95	32107.47
515.12	32100.45
515.29	32060.66
515.47	32680.90
515.64	32552.17
515.81	32271.31
515.99	32442.17
516.16	32627.07
516.33	32376.63
516.51	32360.25
516.68	31960.02
516.85	32510.04
517.03	32414.08
517.20	32652.81
517.37	32781.54
517.54	33354.97
517.72	33359.66
517.89	32893.89
518.06	33205.18
518.24	33261.35
518.41	32912.61
518.58	33247.31
518.75	32961.76
518.93	33834.78
519.10	33900.32
519.27	33668.61
519.45	33277.74
519.62	33982.24
519.79	33858.19
519.96	34092.24
520.14	34209.27
520.31	34024.37
520.48	34057.14
520.65	34115.65
520.83	34417.58
521.00	34239.70
521.17	34794.40
521.34	34134.37
521.52	34473.75
521.69	34558.01
521.86	34398.85
522.03	34525.24
522.20	34710.14
522.38	35297.62
522.55	34969.94
522.72	34766.32
522.89	35063.57
523.07	35468.48
523.24	34717.17
523.41	35473.16
523.58	35332.73
523.75	36058.29
523.92	35587.85
524.10	35709.55
524.27	36086.38
524.44	36215.11
524.61	35931.90
524.78	35950.63
524.96	35938.93
525.13	36617.68
525.30	36395.33
525.47	36650.45
525.64	36360.22
525.81	36503.00
525.98	36161.28
526.16	36016.16
526.33	36374.27
526.50	36205.75
526.67	36060.63
526.84	36617.68
527.01	35864.03
527.18	36294.69
527.36	36659.81
527.53	37062.38
527.70	37116.22
527.87	37137.28
528.04	36863.44
528.21	37109.19
528.38	37165.37
528.55	37385.38
528.72	37315.16
528.89	37315.16
529.07	37071.75
529.24	37214.52
529.41	37516.45
529.58	37027.28
529.75	37280.05
529.92	37661.56
530.09	37659.22
530.26	37647.52
530.43	37855.82
530.60	37600.71
530.77	37535.17
530.94	37935.40
531.11	37776.25
531.28	37954.13
531.46	38389.47
531.63	38347.34
531.80	37879.23
531.97	38216.27
532.14	38178.82
532.31	37841.78
532.48	38457.34
532.65	38391.81
532.82	38080.52
532.99	38728.84
533.16	37820.72
533.33	38452.66
533.50	38614.16
533.67	38604.80
533.84	38143.71
534.01	38447.98
534.18	38770.97
534.35	38543.94
534.52	38810.76
534.69	39426.32
534.86	38738.21
535.03	39079.92
535.20	39021.41
535.37	39541.01
535.54	39395.90
535.71	39269.51
535.88	39288.23
536.05	39227.38
536.22	39409.94
536.38	39140.78
536.55	39339.72
536.72	39363.13
536.89	39239.08
537.06	39384.19
537.23	39447.39
537.40	39679.10
537.57	39651.02
537.74	39754.00
537.91	39957.63
538.08	40278.28
538.25	39384.19
538.42	39906.13
538.59	39894.43
538.75	39828.90
538.92	39992.73
539.09	40154.23
539.26	40126.14
539.43	39974.01
539.60	40378.92
539.77	40034.86
539.94	40149.55
540.11	39873.37
540.28	40156.57
540.44	40170.61
540.61	40133.17
540.78	40535.74
540.95	40002.10
541.12	40332.11
541.29	40318.07
541.46	40114.44
541.62	40294.66
541.79	40875.12
541.96	40194.02
542.13	40809.58
542.30	41031.93
542.47	40856.39
542.63	40858.73
542.80	41294.07
542.97	40858.73
543.14	41443.87
543.31	41331.52
543.48	41420.46
543.64	41476.63
543.81	41790.27
543.98	41799.63
544.15	41160.66
544.32	41731.75
544.48	42043.04
544.65	41439.18
544.82	41474.29
544.99	41766.86
545.16	41940.06
545.32	41701.32
545.49	42185.82
545.66	42270.08
545.83	41963.46
546.00	42454.98
546.16	41830.05
546.33	42005.59
546.50	41336.20
546.67	42113.26
546.83	41832.39
547.00	41661.54
547.17	42199.86
547.34	41937.72
547.50	42260.71
547.67	42525.19
547.84	42181.13
548.00	42522.85
548.17	42478.38
548.34	42483.06
548.51	42333.27
548.67	42859.89
548.84	42663.28
549.01	42534.56
549.18	42337.95
549.34	42815.42
549.51	43187.56
549.68	42611.79
549.84	42689.03
550.01	43119.69
550.18	42609.45
550.34	42700.73
550.51	42843.51
550.68	42784.99
550.84	42527.53
551.01	43079.90
551.18	42581.37
551.34	43019.05
551.51	42976.92
551.68	42845.85
551.84	43234.38
552.01	43082.24
552.18	42646.90
552.34	43033.09
552.51	43412.26
552.68	43292.89
552.84	43225.01
553.01	43283.53
553.18	43208.63
553.34	43342.04
553.51	43241.40
553.67	43353.74
553.84	43524.60
554.01	43512.90
554.17	43817.17
554.34	43405.23
554.51	43662.69
554.67	43241.40
554.84	43798.44
555.00	43660.35
555.17	43667.37
555.33	43625.25
555.50	43613.54
555.67	43330.34
555.83	43845.26
556.00	43751.63
556.16	43805.47
556.33	43753.97
556.50	43810.15
556.66	43725.89
556.83	43297.57
556.99	43847.60
557.16	44027.82
557.32	43653.33
557.49	43882.70
557.65	43922.49
557.82	43650.99
557.98	43941.22
558.15	43892.07
558.32	44357.83
558.48	43892.07
558.65	44144.84
558.81	43735.25
558.98	44086.33
559.14	43768.02
559.31	43732.91
559.47	44348.47
559.64	44292.30
559.80	44488.90
559.97	44425.71
560.13	43973.98
560.30	44243.15
560.46	44353.15
560.63	44079.31
560.79	44296.98
560.96	44851.69
561.12	44671.46
561.29	44446.77
561.45	44669.12
561.61	44292.30
561.78	44720.62
561.94	44161.23
562.11	44355.49
562.27	44428.05
562.44	44378.90
562.60	44570.82
562.77	45057.65
562.93	44549.76
563.10	44514.65
563.26	44058.24
563.42	44673.81
563.59	44629.34
563.75	44268.89
563.92	44577.84
564.08	45013.18
564.24	44921.90
564.41	44715.93
564.57	44299.32
564.74	44662.10
564.90	44664.44
565.07	44746.36
565.23	44832.96
565.39	44886.79
565.56	44989.78
565.72	44147.18
565.88	44699.55
566.05	44568.48
566.21	44729.98
566.38	44786.15
566.54	44552.10
566.70	45015.52
566.87	45118.51
567.03	44538.05
567.19	45181.70
567.36	45146.59
567.52	44734.66
567.68	45172.34
567.85	45024.89
568.01	45127.87
568.17	44942.97
568.34	44964.03
568.50	45031.91
568.66	44886.79
568.83	45331.50
568.99	44416.35
569.15	44758.06
569.32	44570.82
569.48	44802.53
569.64	45036.59
569.81	44938.29
569.97	45081.06
570.13	45006.16
570.30	44650.40
570.46	45249.58
570.62	44608.27
570.78	44898.50
570.95	44596.57
571.11	45366.60
571.27	45394.69
571.43	45244.90
571.60	44858.71
571.76	44683.17
571.92	45067.02
572.09	44465.50
572.25	45067.02
572.41	45095.10
572.57	45397.03
572.74	45191.06
572.90	45315.11
573.06	44786.15
573.22	45226.17
573.38	45233.19
573.55	44825.94
573.71	45399.37
573.87	45368.94
574.03	44652.74
574.20	45160.64
574.36	44842.32
574.52	45331.50
574.68	44863.39
574.84	45441.50
575.01	44985.10
575.17	44825.94
575.33	44947.65
575.49	45146.59
575.65	45483.63
575.82	45518.74
575.98	45088.08
576.14	45521.08
576.30	45359.58
576.46	45310.43
576.62	45043.61
576.79	45404.05
576.95	45064.67
577.11	45153.62
577.27	45282.34
577.43	45179.36
577.59	45474.27
577.75	45394.69
577.92	44933.60
578.08	45045.95
578.24	44603.59
578.40	45371.28
578.56	45251.92
578.72	44793.17
578.88	45141.91
579.04	45677.90
579.21	45165.32
579.37	44949.99
579.53	44638.70
579.69	44898.50
579.85	45586.61
580.01	45715.34
580.17	45684.92
580.33	45228.51
580.49	45308.09
580.65	45446.18
580.82	45490.65
580.98	45057.65
581.14	44935.95
581.30	45333.84
581.46	45717.68
581.62	45460.23
581.78	45652.15
581.94	45572.57
582.10	45228.51
582.26	45443.84
582.42	45832.37
582.58	45450.86
582.74	45282.34
582.90	45577.25
583.06	45691.94
583.22	45469.59
583.38	45572.57
583.54	45155.96
583.70	45298.73
583.86	45492.99
584.02	45015.52
584.18	45404.05
584.34	45574.91
584.50	45593.64
584.66	45336.18
584.82	44975.73
584.98	45844.07
585.14	45500.01
585.30	45392.35
585.46	45394.69
585.62	45181.70
585.78	45572.57
585.94	45249.58
586.10	45523.42
586.26	45113.83
586.42	45581.93
586.58	45174.68
586.74	45462.57
586.90	45214.47
587.06	45188.72
587.22	45694.28
587.38	44933.60
587.54	45619.38
587.70	45553.85
587.86	45446.18
588.02	45471.93
588.18	45675.55
588.34	45476.61
588.49	45127.87
588.65	45013.18
588.81	45123.19
588.97	44697.21
589.13	45120.85
589.29	44760.40
589.45	45425.12
589.61	45153.62
589.77	45837.05
589.93	45109.14
590.08	45673.21
590.24	45787.90
