SpectraSuite Data File
++++++++++++++++++++++++++++++++++++
Date: Fri Oct 25 11:25:51 EDT 2013
User: price-jones
Dark Spectrum Present: No
Reference Spectrum Present: No
Number of Sampled Component Spectra: 1
Spectrometers: USB2+H05261
Integration Time (usec): 100000 (USB2+H05261)
Spectra Averaged: 1 (USB2+H05261)
Boxcar Smoothing: 0 (USB2+H05261)
Correct for Electrical Dark: No (USB2+H05261)
Strobe/Lamp Enabled: No (USB2+H05261)
Correct for Detector Non-linearity: No (USB2+H05261)
Correct for Stray Light: No (USB2+H05261)
Number of Pixels in Processed Spectrum: 2048
>>>>>Begin Processed Spectral Data<<<<<
365.73	224.69
365.92	224.69
366.12	224.69
366.32	142.77
366.52	184.90
366.72	147.45
366.91	51.49
367.11	156.82
367.31	102.98
367.51	180.22
367.70	154.48
367.90	201.29
368.10	98.30
368.30	121.71
368.49	152.13
368.69	170.86
368.89	182.56
369.09	152.13
369.28	175.54
369.48	217.67
369.68	149.79
369.87	257.46
370.07	241.08
370.27	224.69
370.47	320.65
370.66	599.18
370.86	622.58
371.06	587.47
371.25	734.93
371.45	636.63
371.65	683.44
371.84	653.01
372.04	653.01
372.24	753.65
372.44	741.95
372.63	725.57
372.83	781.74
373.03	784.08
373.22	730.25
373.42	758.33
373.62	709.18
373.81	816.85
374.01	873.02
374.21	821.53
374.40	849.61
374.60	819.19
374.79	807.48
374.99	910.47
375.19	814.51
375.38	844.93
375.58	835.57
375.78	882.38
375.97	823.87
376.17	826.21
376.37	816.85
376.56	861.32
376.76	844.93
376.95	873.02
377.15	973.66
377.35	903.45
377.54	819.19
377.74	926.85
377.93	854.30
378.13	912.81
378.33	973.66
378.52	957.28
378.72	978.34
378.91	1004.09
379.11	952.60
379.31	1001.75
379.50	861.32
379.70	999.41
379.89	1006.43
380.09	999.41
380.28	1039.20
380.48	915.15
380.68	957.28
380.87	868.34
381.07	997.07
381.26	1004.09
381.46	968.98
381.65	1057.92
381.85	940.90
382.04	1069.62
382.24	1034.52
382.43	994.73
382.63	1018.13
382.83	1163.25
383.02	1125.80
383.22	1100.05
383.41	1057.92
383.61	1055.58
383.80	1163.25
384.00	1109.41
384.19	1064.94
384.39	1247.51
384.58	1158.57
384.78	1139.84
384.97	1221.76
385.17	1097.71
385.36	1057.92
385.56	1193.67
385.75	1170.27
385.95	1163.25
386.14	1196.01
386.34	1179.63
386.53	1179.63
386.72	1130.48
386.92	1256.87
387.11	1249.85
387.31	1221.76
387.50	1186.65
387.70	1207.72
387.89	1308.36
388.09	1224.10
388.28	1174.95
388.48	1322.40
388.67	1362.19
388.86	1327.08
389.06	1338.79
389.25	1364.53
389.45	1409.00
389.64	1282.61
389.84	1348.15
390.03	1338.79
390.22	1306.02
390.42	1418.36
390.61	1437.09
390.81	1413.68
391.00	1413.68
391.19	1399.64
391.39	1432.41
391.58	1474.54
391.78	1455.81
391.97	1460.49
392.16	1488.58
392.36	1568.16
392.55	1474.54
392.75	1490.92
392.94	1544.75
393.13	1490.92
393.33	1483.90
393.52	1547.09
393.71	1603.27
393.91	1645.40
394.10	1537.73
394.29	1516.67
394.49	1549.43
394.68	1643.06
394.88	1598.59
395.07	1685.19
395.26	1652.42
395.46	1633.69
395.65	1661.78
395.84	1666.46
396.04	1818.60
396.23	1710.93
396.42	1692.21
396.62	1844.34
396.81	1818.60
397.00	1797.53
397.19	1739.02
397.39	1802.21
397.58	1825.62
397.77	1753.06
397.97	1853.70
398.16	1928.60
398.35	1844.34
398.55	1928.60
398.74	1870.09
398.93	1952.01
399.12	1937.96
399.32	1851.36
399.51	1905.20
399.70	1928.60
399.90	1966.05
400.09	2129.89
400.28	1980.09
400.47	1982.43
400.67	2059.67
400.86	1959.03
401.05	2106.48
401.24	2120.53
401.44	1994.14
401.63	2031.58
401.82	2139.25
402.01	2155.63
402.21	2127.55
402.40	2193.08
402.59	2155.63
402.78	2172.02
402.97	2188.40
403.17	2293.72
403.36	2146.27
403.55	2326.49
403.74	2270.32
403.93	2363.94
404.13	2368.62
404.32	2305.43
404.51	2354.58
404.70	2410.75
404.89	2356.92
405.09	2560.55
405.28	2399.05
405.47	2551.18
405.66	2548.84
405.85	2537.14
406.05	2527.78
406.24	2555.86
406.43	2593.31
406.62	2588.63
406.81	2663.53
407.00	2544.16
407.20	2651.83
407.39	2661.19
407.58	2590.97
407.77	2780.56
407.96	2651.83
408.15	2696.30
408.34	2750.13
408.54	2815.66
408.73	2743.11
408.92	2878.86
409.11	2902.26
409.30	2977.16
409.49	2827.37
409.68	2902.26
409.87	2913.97
410.07	2928.01
410.26	2970.14
410.45	2960.78
410.64	3056.74
410.83	3030.99
411.02	3005.25
411.21	3150.36
411.40	3178.45
411.59	3155.04
411.78	3239.30
411.98	3229.94
412.17	3300.16
412.36	3227.60
412.55	3419.52
412.74	3424.20
412.93	3421.86
413.12	3433.57
413.31	3552.93
413.50	3508.46
413.69	3489.74
413.88	3609.11
414.07	3492.08
414.26	3531.87
414.45	3669.96
414.64	3555.27
414.83	3653.58
415.02	3709.75
415.22	3716.77
415.41	3840.82
415.60	3861.88
415.79	3955.51
415.98	3939.12
416.17	3896.99
416.36	3913.38
416.55	3939.12
416.74	4049.13
416.93	4037.42
417.12	4091.26
417.31	4138.07
417.50	4138.07
417.69	4238.71
417.88	4093.60
418.07	4250.41
418.26	4245.73
418.45	4306.59
418.64	4423.61
418.83	4414.25
419.02	4472.76
419.21	4571.07
419.39	4418.93
419.58	4496.17
419.77	4418.93
419.96	4645.96
420.15	4524.26
420.34	4521.92
420.53	4704.48
420.72	4573.41
420.91	4706.82
421.10	4814.48
421.29	4868.31
421.48	4613.20
421.67	4695.11
421.86	4695.11
422.05	4777.03
422.24	4765.33
422.43	4779.37
422.61	4877.68
422.80	4910.44
422.99	4919.81
423.18	4863.63
423.37	4926.83
423.56	4997.04
423.75	4919.81
423.94	4678.73
424.13	4664.69
424.32	4720.86
424.50	4994.70
424.69	4985.34
424.88	5151.52
425.07	4835.55
425.26	4802.78
425.45	4945.55
425.64	4905.76
425.83	4968.96
426.01	5093.01
426.20	5018.11
426.39	5034.49
426.58	5029.81
426.77	5069.60
426.96	5226.42
427.15	4975.98
427.33	5132.79
427.52	5114.07
427.71	5191.31
427.90	5107.05
428.09	5310.68
428.28	5275.57
428.46	5109.39
428.65	5291.95
428.84	5523.66
429.03	5558.77
429.22	5341.10
429.40	5486.22
429.59	5610.26
429.78	5320.04
429.97	5259.18
430.16	5530.69
430.34	5455.79
430.53	5479.19
430.72	5657.07
430.91	5694.52
431.10	5488.56
431.28	5813.89
431.47	5657.07
431.66	5748.36
431.85	5783.46
432.03	6012.84
432.22	5877.09
432.41	6153.27
432.60	5898.15
432.79	5996.45
432.97	5865.38
433.16	5977.73
433.35	5996.45
433.54	6090.07
433.72	6076.03
433.91	6122.84
434.10	6092.41
434.28	6052.63
434.47	6221.14
434.66	6190.72
434.85	6298.38
435.03	6310.08
435.22	6209.44
435.41	6377.96
435.59	6354.55
435.78	6389.66
435.97	6406.05
436.16	6380.30
436.34	6394.34
436.53	6368.60
436.72	6464.56
436.90	6328.81
437.09	6649.46
437.28	6532.44
437.46	6513.71
437.65	6684.57
437.84	6565.20
438.02	6644.78
438.21	6715.00
438.40	6787.55
438.58	6916.28
438.77	7047.35
438.96	6871.81
439.14	7138.63
439.33	7126.93
439.52	7173.74
439.70	7157.36
439.89	7377.37
440.08	7265.02
440.26	7241.62
440.45	7316.51
440.63	7456.95
440.82	7585.68
441.01	7386.73
441.19	7328.22
441.38	7595.04
441.57	7674.62
441.75	7770.58
441.94	7882.92
442.12	7927.39
442.31	7927.39
442.50	8100.59
442.68	7864.20
442.87	7981.23
443.05	8109.96
443.24	7967.18
443.43	7932.08
443.61	8212.94
443.80	8451.67
443.98	7880.58
444.17	7861.86
444.35	8177.83
444.54	8355.71
444.73	8351.03
444.91	8283.16
445.10	8311.24
445.28	8271.45
445.47	8203.58
445.65	8283.16
445.84	8388.48
446.02	8397.84
446.21	8374.44
446.39	8498.49
446.58	8643.60
446.77	8397.84
446.95	8173.15
447.14	8372.10
447.32	8503.17
447.51	8425.93
447.69	8491.46
447.88	8271.45
448.06	8472.74
448.25	8461.04
448.43	8510.19
448.62	8329.97
448.80	8388.48
448.99	8617.85
449.17	8503.17
449.36	8589.77
449.54	8690.41
449.73	8884.67
449.91	9022.77
450.10	8819.14
450.28	9022.77
450.46	8952.55
450.65	9027.45
450.83	8872.97
451.02	9027.45
451.20	9064.89
451.39	9071.92
451.57	8997.02
451.76	9097.66
451.94	9294.27
452.13	9128.09
452.31	9207.67
452.49	9221.71
452.68	9263.84
452.86	9263.84
453.05	9430.02
453.23	9528.32
453.42	9092.98
453.60	9172.56
453.78	9586.83
453.97	9488.53
454.15	9446.40
454.34	9476.83
454.52	9575.13
454.70	9727.27
454.89	9640.67
455.07	9841.95
455.26	9760.03
455.44	9881.74
455.62	9970.68
455.81	9872.38
455.99	9977.70
456.17	10022.17
456.36	9958.98
456.54	10153.24
456.73	10083.03
456.91	10457.51
457.09	10462.19
457.28	10469.22
457.46	10214.10
457.64	10373.25
457.83	10501.98
458.01	10284.31
458.19	10523.05
458.38	10413.04
458.56	10572.20
458.74	10593.26
458.93	10464.54
459.11	10689.23
459.29	10696.25
459.48	10623.69
459.66	10555.82
459.84	10773.49
460.03	10913.92
460.21	11005.20
460.39	10984.13
460.57	10918.60
460.76	11087.12
460.94	11169.04
461.12	11103.50
461.31	11131.59
461.49	10974.77
461.67	11059.03
461.85	11295.43
462.04	11279.04
462.22	11660.55
462.40	11454.58
462.59	11253.30
462.77	11372.66
462.95	11501.39
463.13	11599.70
463.32	11499.05
463.50	11768.21
463.68	11768.21
463.86	11667.57
464.05	11405.43
464.23	11609.06
464.41	11693.32
464.59	11756.51
464.78	12241.00
464.96	11932.05
465.14	11808.00
465.32	11765.87
465.50	11932.05
465.69	11988.22
465.87	11960.14
466.05	12093.55
466.23	12259.73
466.41	12311.22
466.60	12461.01
466.78	12112.27
466.96	12376.75
467.14	12229.30
467.32	12156.74
467.51	12313.56
467.69	12049.08
467.87	12166.10
468.05	12456.33
468.23	12334.62
468.41	12217.60
468.60	12596.76
468.78	12779.32
468.96	12681.02
469.14	12882.31
469.32	12695.07
469.50	12507.82
469.69	12774.64
469.87	13078.91
470.05	12868.27
470.23	13097.64
470.41	13167.85
470.59	13053.17
470.77	13151.47
470.95	13022.74
471.14	13336.37
471.32	12856.56
471.50	13554.04
471.68	13453.40
471.86	13514.25
472.04	13600.85
472.22	13989.38
472.40	13642.98
472.58	13631.28
472.77	13881.72
472.95	14008.11
473.13	14855.38
473.31	13963.64
473.49	14317.06
473.67	14209.39
473.85	14321.74
474.03	14665.80
474.21	14700.90
474.39	14579.20
474.57	14855.38
474.75	14682.18
474.93	14909.21
475.12	14670.48
475.30	14902.19
475.48	14925.60
475.66	15171.35
475.84	14881.13
476.02	15318.81
476.20	15414.77
476.38	15564.56
476.56	15690.95
476.74	15985.86
476.92	15756.49
477.10	15679.25
477.28	16067.78
477.46	15981.18
477.64	16086.50
477.82	16505.46
478.00	16971.22
478.18	16765.26
478.36	17043.78
478.54	17015.69
478.72	17116.34
478.90	17348.05
479.08	17418.27
479.26	17390.18
479.44	17598.49
479.62	17972.97
479.80	18094.68
479.98	17855.95
480.16	18515.98
480.34	18045.53
480.52	18384.91
480.70	18265.54
480.88	18518.32
481.06	18558.11
481.24	18885.78
481.41	19129.20
481.59	19082.39
481.77	19550.49
481.95	19513.05
482.13	19499.00
482.31	19578.58
482.49	20545.22
482.67	20175.42
482.85	19964.77
483.03	20744.17
483.21	20641.18
483.39	20814.38
483.57	20870.56
483.74	20929.07
483.92	21191.21
484.10	21240.36
484.28	21483.78
484.46	21982.31
484.64	22221.05
484.82	21759.96
485.00	22232.75
485.18	22902.14
485.35	22838.95
485.53	22642.34
485.71	22712.56
485.89	23227.48
486.07	23288.33
486.25	23033.21
486.43	23346.84
486.61	23543.45
486.78	23983.47
486.96	23934.32
487.14	24479.66
487.32	24713.72
487.50	24802.66
487.68	24856.49
487.85	25242.68
488.03	25280.13
488.21	25605.46
488.39	25266.08
488.57	25713.13
488.75	26202.30
488.92	26356.77
489.10	26771.05
489.28	26768.71
489.46	27091.70
489.64	26700.83
489.81	27592.58
489.99	27634.71
490.17	27770.46
490.35	28114.52
490.53	27981.10
490.70	28191.75
490.88	27936.63
491.06	28606.03
491.24	28474.96
491.41	29291.80
491.59	29516.50
491.77	29123.29
491.95	29378.40
492.13	29572.67
492.30	29556.28
492.48	29954.18
492.66	30118.01
492.84	30206.95
493.01	30415.26
493.19	30354.41
493.37	30778.04
493.54	30848.26
493.72	31548.08
493.90	31297.64
494.08	31707.24
494.25	31992.78
494.43	31868.73
494.61	32278.33
494.79	32350.88
494.96	31915.54
495.14	32334.50
495.32	33017.94
495.49	33214.54
495.67	32783.88
495.85	33333.91
496.02	33586.69
496.20	33689.67
496.38	34232.68
496.55	33900.32
496.73	34600.14
496.91	34242.04
497.09	34668.02
497.26	34588.44
497.44	34981.65
497.62	34871.64
497.79	35391.24
497.97	35269.53
498.14	35945.95
498.32	35737.64
498.50	36091.06
498.67	35903.82
498.85	36568.53
499.03	36762.79
499.20	36739.39
499.38	36828.33
499.56	36985.15
499.73	36636.41
499.91	36914.93
500.08	37024.93
500.26	37579.64
500.44	37584.32
500.61	37434.53
500.79	37638.15
500.97	37734.12
501.14	38462.02
501.32	38043.07
501.49	38291.16
501.67	38321.59
501.84	38553.30
502.02	38506.49
502.20	38981.62
502.37	39381.85
502.55	38731.18
502.72	39533.99
502.90	39152.48
503.07	39533.99
503.25	39601.86
503.43	39627.61
503.60	39557.39
503.78	39899.11
503.95	40037.20
504.13	40062.95
504.30	40851.71
504.48	40222.11
504.65	41041.29
504.83	40779.15
505.01	41247.26
505.18	40837.67
505.36	41333.86
505.53	41097.47
505.71	41123.21
505.88	41762.18
506.06	41528.13
506.23	41902.61
506.41	41413.44
506.58	41780.90
506.76	41958.78
506.93	42188.16
507.11	42134.32
507.28	42670.31
507.46	42562.64
507.63	42380.08
507.81	42602.43
507.98	42787.33
508.16	42824.78
508.33	43398.21
508.50	43620.56
508.68	43522.26
508.85	43606.52
509.03	43232.04
509.20	44030.16
509.38	44100.37
509.55	44027.82
509.73	44095.69
509.90	44563.80
510.08	44367.20
510.25	44371.88
510.42	44320.38
510.60	44809.56
510.77	45280.00
510.95	45247.24
511.12	44947.65
511.30	44854.03
511.47	45109.14
511.64	45581.93
511.82	45654.49
511.99	45467.25
512.17	45670.87
512.34	45563.21
512.51	46216.22
512.69	45942.38
512.86	45984.51
513.04	46646.88
513.21	46492.40
513.38	46422.19
513.56	46689.01
513.73	46595.38
513.90	46857.52
514.08	46721.77
514.25	46993.28
514.43	47526.92
514.60	47236.69
514.77	47098.60
514.95	47267.12
515.12	47089.24
515.29	47505.85
515.47	47491.81
515.64	47885.02
515.81	47709.48
515.99	47681.39
516.16	48100.35
516.33	48416.32
516.51	48257.17
516.68	48264.19
516.85	48364.83
517.03	48690.16
517.20	48713.57
517.37	48559.09
517.54	48521.65
517.72	48645.69
517.89	48678.46
518.06	49006.14
518.24	49059.97
518.41	48722.93
518.58	49017.84
518.75	48926.56
518.93	49226.15
519.10	49862.77
519.27	49336.15
519.45	49275.30
519.62	49633.40
519.79	49532.76
519.96	50110.87
520.14	50157.68
520.31	50183.43
520.48	50141.30
520.65	49935.33
520.83	50337.90
521.00	50351.94
521.17	50527.48
521.34	50218.53
521.52	50497.06
521.69	50485.36
521.86	50679.62
522.03	51096.24
522.20	51047.08
522.38	51217.94
522.55	50880.91
522.72	51126.66
522.89	51196.88
523.07	51217.94
523.24	51068.15
523.41	51463.70
523.58	50941.76
523.75	51885.00
523.92	51690.73
524.10	51906.06
524.27	51983.30
524.44	51789.03
524.61	52119.05
524.78	52060.54
524.96	51966.91
525.13	51803.08
525.30	52236.08
525.47	52229.05
525.64	52477.15
525.81	52327.36
525.98	52303.95
526.16	52133.09
526.33	52507.58
526.50	52835.25
526.67	52725.25
526.84	52439.70
527.01	52502.90
527.18	52987.39
527.36	52575.45
527.53	52811.85
527.70	53427.41
527.87	53205.06
528.04	53123.14
528.21	53034.20
528.38	53511.67
528.55	53277.61
528.72	53130.16
528.89	53277.61
529.07	53106.76
529.24	53275.27
529.41	53727.00
529.58	53616.99
529.75	53712.95
529.92	53481.24
530.09	53525.71
530.26	53904.88
530.43	53722.32
530.60	53682.53
530.77	53560.82
530.94	54103.82
531.11	53825.30
531.28	53759.76
531.46	53914.24
531.63	54026.59
531.80	53968.07
531.97	54134.25
532.14	54237.23
532.31	54302.77
532.48	54293.41
532.65	54436.18
532.82	54438.52
532.99	54735.77
533.16	54356.60
533.33	54705.34
533.50	54775.56
533.67	54995.57
533.84	54494.69
534.01	54829.39
534.18	54529.80
534.35	54986.21
534.52	54838.75
534.69	55140.68
534.86	54993.23
535.03	54880.88
535.20	54983.86
535.37	54897.27
535.54	55243.66
535.71	55313.88
535.88	55246.00
536.05	55330.26
536.22	55517.51
536.38	55674.32
536.55	55260.05
536.72	55358.35
536.89	55426.23
537.06	55341.97
537.23	55510.49
537.40	55487.08
537.57	55313.88
537.74	55554.96
537.91	55749.22
538.08	55973.91
538.25	55374.73
538.42	55746.88
538.59	55938.80
538.75	55716.45
538.92	55805.39
539.09	56109.66
539.26	55978.59
539.43	56023.06
539.60	56198.60
539.77	55987.95
539.94	56334.35
540.11	56013.70
540.28	56086.26
540.44	56257.12
540.61	56086.26
540.78	56348.40
540.95	56416.27
541.12	56229.03
541.29	56385.85
541.46	56446.70
541.62	56348.40
541.79	56509.89
541.96	56247.75
542.13	56423.29
542.30	56442.02
542.47	56662.03
542.63	56708.84
542.80	56835.23
542.97	57052.90
543.14	57158.22
543.31	56935.87
543.48	57024.81
543.64	57237.80
543.81	57214.40
543.98	57181.63
544.15	57045.88
544.32	57214.40
544.48	57506.96
544.65	57249.50
544.82	57258.87
544.99	57291.63
545.16	57286.95
545.32	57183.97
545.49	57659.10
545.66	57535.05
545.83	57532.71
546.00	57464.83
546.16	57499.94
546.33	57214.40
546.50	57052.90
546.67	57729.31
546.83	57340.78
547.00	57560.79
547.17	57499.94
547.34	57446.11
547.50	57904.85
547.67	57982.09
547.84	57858.04
548.00	57951.66
548.17	58047.63
548.34	57909.53
548.51	57928.26
548.67	58152.95
548.84	57977.41
549.01	58054.65
549.18	57951.66
549.34	58127.20
549.51	58120.18
549.68	58265.30
549.84	58251.25
550.01	58309.77
550.18	58230.19
550.34	58389.34
550.51	58333.17
550.68	58232.53
550.84	58080.39
551.01	58440.84
551.18	58361.26
551.34	58382.32
551.51	58417.43
551.68	58581.27
551.84	58347.21
552.01	58511.05
552.18	58520.41
552.34	58454.88
552.51	58642.12
552.68	58410.41
552.84	58492.33
553.01	58691.27
553.18	58597.65
553.34	58852.77
553.51	58581.27
553.67	58791.92
553.84	58719.36
554.01	58815.32
554.17	58953.41
554.34	58983.84
554.51	58791.92
554.67	58815.32
554.84	58862.13
555.00	58768.51
555.17	58805.96
555.33	59217.89
555.50	59025.97
555.67	58939.37
555.83	58571.91
556.00	58857.45
556.16	59283.43
556.33	59128.95
556.50	59140.66
556.66	59238.96
556.83	59000.22
556.99	59234.28
557.16	59348.96
557.32	59304.49
557.49	59414.50
557.65	59395.77
557.82	59107.89
557.98	59250.66
558.15	59180.45
558.32	59451.95
558.48	59253.00
558.65	59302.15
558.81	59489.40
558.98	59430.88
559.14	59407.48
559.31	59412.16
559.47	59409.82
559.64	59395.77
559.80	59613.44
559.97	59611.10
560.13	59522.16
560.30	59503.44
560.46	59583.02
560.63	59657.91
560.79	59615.79
560.96	59821.75
561.12	59639.19
561.29	59618.13
561.45	59753.88
561.61	59697.70
561.78	59620.47
561.94	59669.62
562.11	59767.92
562.27	59784.30
562.44	59807.71
562.60	60090.91
562.77	59884.95
562.93	59522.16
563.10	60086.23
563.26	59646.21
563.42	59980.91
563.59	59927.08
563.75	59936.44
563.92	59866.22
564.08	59920.05
564.24	60046.44
564.41	59980.91
564.57	60041.76
564.74	59987.93
564.90	59929.42
565.07	59952.82
565.23	59990.27
565.39	59891.97
565.56	60142.41
565.72	59894.31
565.88	60034.74
566.05	59873.24
566.21	59891.97
566.38	59901.33
566.54	60102.62
566.70	60254.75
566.87	60212.62
567.03	59833.46
567.19	60186.88
567.36	60046.44
567.52	60310.92
567.68	60446.68
567.85	60278.16
568.01	60177.51
568.17	60142.41
568.34	60439.65
568.50	60069.85
568.66	60065.17
568.83	60446.68
568.99	60128.36
569.15	60420.93
569.32	60219.64
569.48	60037.08
569.64	60378.80
569.81	60268.79
569.97	60346.03
570.13	60502.85
570.30	60149.43
570.46	60289.86
570.62	60252.41
570.78	60320.29
570.95	60514.55
571.11	60577.75
571.27	60446.68
571.43	60371.78
571.60	60437.31
571.76	60434.97
571.92	60479.44
572.09	60214.96
572.25	60261.77
572.41	60395.18
572.57	60360.08
572.74	60793.07
572.90	60554.34
573.06	60491.15
573.22	60371.78
573.38	60467.74
573.55	60397.52
573.71	60720.52
573.87	60542.64
574.03	60285.18
574.20	60772.01
574.36	60261.77
574.52	60556.68
574.68	60760.31
574.84	60662.00
575.01	60584.77
575.17	60552.00
575.33	60425.61
575.49	60589.45
575.65	60825.84
575.82	60566.04
575.98	60544.98
576.14	60884.36
576.30	60718.18
576.46	60573.06
576.62	60736.90
576.79	60657.32
576.95	60477.10
577.11	60760.31
577.27	60505.19
577.43	60867.97
577.59	60711.16
577.75	60694.77
577.92	60388.16
578.08	60587.11
578.24	60638.60
578.40	60903.08
578.56	60786.05
578.72	60790.73
578.88	60842.23
579.04	60877.33
579.21	60713.50
579.37	60802.44
579.53	60699.45
579.69	60605.83
579.85	60743.92
580.01	60559.02
580.17	60584.77
580.33	60800.10
580.49	60860.95
580.65	61034.15
580.82	60865.63
580.98	60584.77
581.14	60692.43
581.30	60987.34
581.46	60842.23
581.62	60860.95
581.78	60683.07
581.94	60910.10
582.10	60816.48
582.26	60732.22
582.42	60624.56
582.58	60762.65
582.74	60694.77
582.90	60692.43
583.06	60877.33
583.22	60514.55
583.38	60783.71
583.54	60683.07
583.70	60734.56
583.86	60860.95
584.02	60523.91
584.18	60893.72
584.34	60739.24
584.50	60980.32
584.66	60619.88
584.82	60851.59
584.98	61151.18
585.14	60933.51
585.30	60893.72
585.46	60942.87
585.62	60722.86
585.78	61050.53
585.94	60762.65
586.10	60821.16
586.26	61022.45
586.42	60982.66
586.58	61031.81
586.74	60945.21
586.90	60694.77
587.06	60797.76
587.22	60947.55
587.38	60849.25
587.54	61097.34
587.70	61296.29
587.86	60940.53
588.02	60949.89
588.18	61041.17
588.34	61036.49
588.49	60935.85
