SpectraSuite Data File
++++++++++++++++++++++++++++++++++++
Date: Fri Oct 25 11:26:03 EDT 2013
User: price-jones
Dark Spectrum Present: No
Reference Spectrum Present: No
Number of Sampled Component Spectra: 1
Spectrometers: USB2+H05261
Integration Time (usec): 100000 (USB2+H05261)
Spectra Averaged: 1 (USB2+H05261)
Boxcar Smoothing: 0 (USB2+H05261)
Correct for Electrical Dark: No (USB2+H05261)
Strobe/Lamp Enabled: No (USB2+H05261)
Correct for Detector Non-linearity: No (USB2+H05261)
Correct for Stray Light: No (USB2+H05261)
Number of Pixels in Processed Spectrum: 2048
>>>>>Begin Processed Spectral Data<<<<<
365.73	266.82
365.92	266.82
366.12	266.82
366.32	191.92
366.52	182.56
366.72	112.35
366.91	119.37
367.11	182.56
367.31	88.94
367.51	133.41
367.70	168.52
367.90	189.58
368.10	203.63
368.30	105.32
368.49	86.60
368.69	161.50
368.89	170.86
369.09	145.11
369.28	131.07
369.48	184.90
369.68	112.35
369.87	196.60
370.07	252.78
370.27	177.88
370.47	353.42
370.66	552.37
370.86	648.33
371.06	657.69
371.25	657.69
371.45	704.50
371.65	730.25
371.84	641.31
372.04	620.24
372.24	711.52
372.44	732.59
372.63	812.17
372.83	781.74
373.03	734.93
373.22	692.80
373.42	807.48
373.62	814.51
373.81	837.91
374.01	812.17
374.21	795.78
374.40	880.04
374.60	898.77
374.79	807.48
374.99	847.27
375.19	861.32
375.38	854.30
375.58	809.83
375.78	929.19
375.97	837.91
376.17	936.21
376.37	863.66
376.56	828.55
376.76	856.64
376.95	877.70
377.15	898.77
377.35	905.79
377.54	863.66
377.74	922.17
377.93	882.38
378.13	943.24
378.33	994.73
378.52	980.68
378.72	835.57
378.91	980.68
379.11	990.05
379.31	926.85
379.50	957.28
379.70	990.05
379.89	1036.86
380.09	961.96
380.28	938.55
380.48	987.71
380.68	978.34
380.87	1004.09
381.07	954.94
381.26	994.73
381.46	1020.47
381.65	1015.79
381.85	1088.35
382.04	1067.28
382.24	1062.60
382.43	1069.62
382.63	1100.05
382.83	980.68
383.02	1151.54
383.22	1095.37
383.41	1114.10
383.61	1132.82
383.80	1083.67
384.00	999.41
384.19	1076.65
384.39	1137.50
384.58	1163.25
384.78	1128.14
384.97	1207.72
385.17	1142.18
385.36	1118.78
385.56	1118.78
385.75	1170.27
385.95	1228.78
386.14	1132.82
386.34	1299.00
386.53	1203.04
386.72	1146.86
386.92	1322.40
387.11	1263.89
387.31	1291.98
387.50	1188.99
387.70	1254.53
387.89	1341.13
388.09	1235.80
388.28	1224.10
388.48	1338.79
388.67	1350.49
388.86	1341.13
389.06	1345.81
389.25	1401.98
389.45	1380.92
389.64	1448.79
389.84	1411.34
390.03	1437.09
390.22	1425.39
390.42	1345.81
390.61	1371.55
390.81	1399.64
391.00	1511.99
391.19	1458.15
391.39	1420.71
391.58	1521.35
391.78	1448.79
391.97	1437.09
392.16	1507.30
392.36	1434.75
392.55	1530.71
392.75	1479.22
392.94	1577.52
393.13	1561.14
393.33	1519.01
393.52	1544.75
393.71	1607.95
393.91	1605.61
394.10	1556.46
394.29	1551.78
394.49	1600.93
394.68	1619.65
394.88	1629.01
395.07	1645.40
395.26	1701.57
395.46	1631.35
395.65	1734.34
395.84	1685.19
396.04	1774.13
396.23	1650.08
396.42	1797.53
396.62	1739.02
396.81	1675.82
397.00	1717.95
397.19	1788.17
397.39	1720.29
397.58	1839.66
397.77	1802.21
397.97	1809.23
398.16	1827.96
398.35	1942.64
398.55	1856.04
398.74	1872.43
398.93	1919.24
399.12	1944.99
399.32	1846.68
399.51	1905.20
399.70	2024.56
399.90	1947.33
400.09	2012.86
400.28	2043.29
400.47	2019.88
400.67	2099.46
400.86	2017.54
401.05	2054.99
401.24	2113.50
401.44	2120.53
401.63	2022.22
401.82	2111.16
402.01	2148.61
402.21	2141.59
402.40	2251.60
402.59	2139.25
402.78	2174.36
402.97	2200.10
403.17	2356.92
403.36	2399.05
403.55	2284.36
403.74	2373.30
403.93	2392.03
404.13	2331.17
404.32	2441.18
404.51	2408.41
404.70	2450.54
404.89	2410.75
405.09	2546.50
405.28	2389.69
405.47	2450.54
405.66	2448.20
405.85	2644.81
406.05	2527.78
406.24	2586.29
406.43	2609.70
406.62	2595.65
406.81	2614.38
407.00	2635.44
407.20	2635.44
407.39	2665.87
407.58	2579.27
407.77	2731.41
407.96	2743.11
408.15	2815.66
408.34	2689.28
408.54	2899.92
408.73	2759.49
408.92	2822.69
409.11	2956.10
409.30	2841.41
409.49	2967.80
409.68	2974.82
409.87	2857.79
410.07	3009.93
410.26	2932.69
410.45	2757.15
410.64	3000.57
410.83	3049.72
411.02	3063.76
411.21	3297.81
411.40	3169.09
411.59	3152.70
411.78	3253.34
411.98	3141.00
412.17	3089.51
412.36	3353.99
412.55	3304.84
412.74	3520.17
412.93	3501.44
413.12	3286.11
413.31	3588.04
413.50	3473.36
413.69	3492.08
413.88	3550.59
414.07	3616.13
414.26	3709.75
414.45	3824.44
414.64	3541.23
414.83	3716.77
415.02	3782.31
415.22	3948.48
415.41	3925.08
415.60	3817.41
415.79	3913.38
415.98	3981.25
416.17	3920.40
416.36	3847.84
416.55	3960.19
416.74	4175.52
416.93	4021.04
417.12	4046.79
417.31	4215.30
417.50	4140.41
417.69	4276.16
417.88	4215.30
418.07	4147.43
418.26	4243.39
418.45	4524.26
418.64	4430.63
418.83	4507.87
419.02	4294.88
419.21	4514.89
419.39	4550.00
419.58	4402.55
419.77	4465.74
419.96	4526.60
420.15	4585.11
420.34	4554.68
420.53	4484.47
420.72	4617.88
420.91	4589.79
421.10	4734.90
421.29	4734.90
421.48	4788.74
421.67	4835.55
421.86	4650.64
422.05	4751.29
422.24	4711.50
422.43	4814.48
422.61	4851.93
422.80	5064.92
422.99	4901.08
423.18	5060.24
423.37	4999.38
423.56	4865.97
423.75	4919.81
423.94	4868.31
424.13	4615.54
424.32	4741.93
424.50	4840.23
424.69	4987.68
424.88	5053.22
425.07	5057.90
425.26	4957.25
425.45	4926.83
425.64	4840.23
425.83	4990.02
426.01	5081.30
426.20	5107.05
426.39	5121.09
426.58	4964.28
426.77	5114.07
426.96	4992.36
427.15	5078.96
427.33	5172.58
427.52	5221.74
427.71	5210.03
427.90	5210.03
428.09	5336.42
428.28	5425.36
428.46	5418.34
428.65	5275.57
428.84	5385.57
429.03	5469.83
429.22	5242.80
429.40	5359.83
429.59	5607.92
429.78	5203.01
429.97	5254.50
430.16	5495.58
430.34	5394.93
430.53	5600.90
430.72	5556.43
430.91	5603.24
431.10	5682.82
431.28	5654.73
431.47	5881.77
431.66	5757.72
431.85	5849.00
432.03	5879.43
432.22	6057.31
432.41	5804.53
432.60	6036.24
432.79	5863.04
432.97	6099.44
433.16	5989.43
433.35	5905.17
433.54	6078.37
433.72	5975.39
433.91	6200.08
434.10	6162.63
434.28	5944.96
434.47	6141.57
434.66	6239.87
434.85	6211.78
435.03	6181.35
435.22	6108.80
435.41	6216.46
435.59	6396.68
435.78	6380.30
435.97	6338.17
436.16	6354.55
436.34	6462.22
436.53	6506.69
436.72	6555.84
436.90	6361.58
437.09	6853.09
437.28	6345.19
437.46	6532.44
437.65	6633.08
437.84	6792.23
438.02	6661.16
438.21	6729.04
438.40	6600.31
438.58	6960.75
438.77	7068.42
438.96	6775.85
439.14	7061.40
439.33	6972.46
439.52	7250.98
439.70	7157.36
439.89	7377.37
440.08	7414.82
440.26	7297.79
440.45	7274.38
440.63	7571.63
440.82	7632.49
441.01	7606.74
441.19	7695.68
441.38	7618.44
441.57	7513.12
441.75	7779.94
441.94	7873.56
442.12	7786.96
442.31	8030.38
442.50	7939.10
442.68	7983.57
442.87	7983.57
443.05	8042.08
443.24	8105.28
443.43	8163.79
443.61	8098.25
443.80	8430.61
443.98	8182.51
444.17	7913.35
444.35	8175.49
444.54	8135.70
444.73	8430.61
444.91	8093.57
445.10	8325.29
445.28	8383.80
445.47	8315.92
445.65	8446.99
445.84	8498.49
446.02	8404.86
446.21	8439.97
446.39	8386.14
446.58	8397.84
446.77	8425.93
446.95	8147.40
447.14	8454.02
447.32	8545.30
447.51	8360.39
447.69	8322.94
447.88	8442.31
448.06	8400.18
448.25	8524.23
448.43	8571.04
448.62	8526.57
448.80	8313.58
448.99	8699.77
449.17	8835.52
449.36	8517.21
449.54	8795.73
449.73	8896.38
449.91	9008.72
450.10	8896.38
450.28	9078.94
450.46	9188.94
450.65	9071.92
450.83	9020.42
451.02	8990.00
451.20	9186.60
451.39	9025.11
451.57	9217.03
451.76	8917.44
451.94	9102.34
452.13	9179.58
452.31	9296.61
452.49	8973.61
452.68	9121.07
452.86	9441.72
453.05	9507.26
453.23	9607.90
453.42	9371.50
453.60	9200.65
453.78	9217.03
453.97	9467.47
454.15	9479.17
454.34	9338.74
454.52	9713.22
454.70	9579.81
454.89	9799.82
455.07	9804.50
455.26	9643.01
455.44	10087.71
455.62	9942.60
455.81	9874.72
455.99	9994.09
456.17	9989.41
456.36	9888.76
456.54	10024.51
456.73	10361.55
456.91	10391.98
457.09	10291.34
457.28	10663.48
457.46	10183.67
457.64	10354.53
457.83	10548.79
458.01	10251.55
458.19	10635.39
458.38	10633.05
458.56	10707.95
458.74	10621.35
458.93	10441.13
459.11	10644.76
459.29	10724.33
459.48	10920.94
459.66	10602.63
459.84	10839.02
460.03	10963.07
460.21	10960.73
460.39	11077.76
460.57	11122.23
460.76	11131.59
460.94	11206.48
461.12	11213.51
461.31	11227.55
461.49	11030.94
461.67	11054.35
461.85	11459.26
462.04	11138.61
462.22	11667.57
462.40	11527.14
462.59	11641.82
462.77	11459.26
462.95	11679.27
463.13	11698.00
463.32	11379.68
463.50	11822.05
463.68	11854.81
463.86	11836.09
464.05	11501.39
464.23	11550.54
464.41	11976.52
464.59	11627.78
464.78	12276.11
464.96	11957.80
465.14	11688.64
465.32	12304.20
465.50	12173.13
465.69	11967.16
465.87	12063.12
466.05	11941.41
466.23	12201.21
466.41	12276.11
466.60	12458.67
466.78	11990.56
466.96	12238.66
467.14	12329.94
467.32	12524.21
467.51	12292.49
467.69	12205.89
467.87	12437.61
468.05	12648.26
468.23	12299.52
468.41	12568.68
468.60	12741.88
468.78	12734.85
468.96	12461.01
469.14	12954.87
469.32	13067.21
469.50	12582.72
469.69	12844.86
469.87	12919.76
470.05	13167.85
470.23	13121.04
470.41	13167.85
470.59	13369.14
470.77	13144.45
470.95	13123.38
471.14	13441.70
471.32	12975.93
471.50	13572.77
471.68	13528.30
471.86	13514.25
472.04	13638.30
472.22	14146.20
472.40	13757.67
472.58	13689.79
472.77	14150.88
472.95	14085.34
473.13	14326.42
473.31	13811.50
473.49	14281.95
473.67	14108.75
473.85	14471.53
474.03	14675.16
474.21	14630.69
474.39	14642.39
474.57	14544.09
474.75	14597.92
474.93	15089.43
475.12	14979.43
475.30	15178.37
475.48	14857.72
475.66	15211.14
475.84	15094.11
476.02	15522.43
476.20	15211.14
476.38	15651.16
476.56	15840.75
476.74	15875.85
476.92	15894.58
477.10	15903.94
477.28	16299.49
477.46	16025.65
477.64	16528.86
477.82	16512.48
478.00	17013.35
478.18	16521.84
478.36	17029.74
478.54	17083.57
478.72	17064.85
478.90	17624.23
479.08	17678.07
479.26	17621.89
479.44	17565.72
479.62	18242.14
479.80	17968.29
479.98	17947.23
480.16	18471.51
480.34	18373.21
480.52	18691.52
480.70	18441.08
480.88	18326.39
481.06	18647.05
481.24	18717.26
481.41	19023.87
481.59	19021.53
481.77	19396.02
481.95	19545.81
482.13	19709.65
482.31	19756.46
482.49	19896.89
482.67	20049.03
482.85	20201.16
483.03	20713.74
483.21	20746.51
483.39	20936.09
483.57	21109.29
483.74	21057.80
483.92	21451.01
484.10	21151.42
484.28	21635.91
484.46	21778.68
484.64	22417.65
484.82	21834.86
485.00	22260.84
485.18	22546.38
485.35	23384.29
485.53	22829.59
485.71	23030.87
485.89	23335.14
486.07	23213.43
486.25	23372.59
486.43	23349.18
486.61	23690.90
486.78	23915.59
486.96	24240.93
487.14	23931.98
487.32	24765.21
487.50	24992.24
487.68	25020.33
487.85	25273.10
488.03	25411.20
488.21	25720.15
488.39	25902.71
488.57	25727.17
488.75	25872.28
488.92	26328.69
489.10	26689.13
489.28	26466.78
489.46	27035.53
489.64	26918.50
489.81	27480.23
489.99	27349.16
490.17	27674.49
490.35	28039.62
490.53	28081.75
490.70	28264.31
490.88	28278.35
491.06	28591.98
491.24	28856.46
491.41	28790.93
491.59	28929.02
491.77	29303.51
491.95	29422.87
492.13	29537.56
492.30	29745.87
492.48	29951.84
492.66	29820.77
492.84	30338.02
493.01	30389.52
493.19	30565.06
493.37	30862.30
493.54	30979.33
493.72	31840.65
493.90	31473.18
494.08	31592.55
494.25	32011.51
494.43	31950.65
494.61	32100.45
494.79	31798.52
494.96	32804.95
495.14	32552.17
495.32	33270.72
495.49	33472.00
495.67	32924.32
495.85	33710.74
496.02	33647.54
496.20	33867.55
496.38	34040.75
496.55	34302.89
496.73	35037.82
496.91	34511.20
497.09	34679.72
497.26	34869.30
497.44	34995.69
497.62	35063.57
497.79	35463.80
497.97	35435.71
498.14	35793.81
498.32	36114.47
498.50	35992.76
498.67	36327.45
498.85	36503.00
499.03	37097.49
499.20	37041.32
499.38	36739.39
499.56	36992.17
499.73	37219.20
499.91	37408.78
500.08	37425.17
500.26	37230.90
500.44	37495.38
500.61	37947.11
500.79	37280.05
500.97	37916.68
501.14	38213.93
501.32	38469.04
501.49	38115.62
501.67	38527.56
501.84	38522.88
502.02	38890.34
502.20	38560.33
502.37	38792.04
502.55	39400.58
502.72	39367.81
502.90	39463.77
503.07	39138.44
503.25	39566.76
503.43	39756.34
503.60	39931.88
503.78	40002.10
503.95	40093.38
504.13	40194.02
504.30	40818.94
504.48	40151.89
504.65	40666.81
504.83	41106.83
505.01	40928.95
505.18	41457.91
505.36	41368.97
505.53	41450.89
505.71	41303.43
505.88	41542.17
506.06	41429.82
506.23	41652.17
506.41	41701.32
506.58	41979.85
506.76	42099.22
506.93	42656.26
507.11	42256.03
507.28	42574.34
507.46	42611.79
507.63	42920.74
507.81	43463.75
507.98	42728.82
508.16	43023.73
508.33	43072.88
508.50	42930.11
508.68	44023.14
508.85	44081.65
509.03	43349.06
509.20	43718.87
509.38	44112.08
509.55	44498.26
509.73	44231.44
509.90	44648.06
510.08	44491.24
510.25	44580.18
510.42	44645.72
510.60	45059.99
510.77	44968.71
510.95	45617.04
511.12	45015.52
511.30	44751.04
511.47	44957.01
511.64	45158.30
511.82	45722.37
511.99	45619.38
512.17	45867.48
512.34	45769.18
512.51	46209.20
512.69	46230.26
512.86	46155.36
513.04	46576.66
513.21	46862.21
513.38	46265.37
513.56	46773.27
513.73	46871.57
513.90	47161.79
514.08	47075.19
514.25	46997.96
514.43	47126.69
514.60	47138.39
514.77	46990.94
514.95	47885.02
515.12	47377.12
515.29	47419.25
515.47	47222.65
515.64	48053.54
515.81	48191.63
515.99	48011.41
516.16	48294.61
516.33	48128.44
516.51	48610.59
516.68	47873.32
516.85	48463.13
517.03	48659.74
517.20	48949.96
517.37	48697.19
517.54	48523.99
517.72	48626.97
517.89	48914.86
518.06	49174.66
518.24	49095.08
518.41	49031.88
518.58	49268.28
518.75	49258.91
518.93	49212.10
519.10	49804.26
519.27	49811.28
519.45	49820.64
519.62	49741.06
519.79	49940.01
519.96	50066.40
520.14	49911.92
520.31	49888.52
520.48	50122.57
520.65	50089.80
520.83	50473.65
521.00	50688.98
521.17	50724.09
521.34	50901.97
521.52	50766.22
521.69	50660.90
521.86	50831.75
522.03	51096.24
522.20	51215.60
522.38	51370.08
522.55	51501.15
522.72	51030.70
522.89	50911.33
523.07	51751.59
523.24	51463.70
523.41	51777.33
523.58	51370.08
523.75	51798.40
523.92	51910.74
524.10	52083.94
524.27	51983.30
524.44	51899.04
524.61	52069.90
524.78	51856.91
524.96	52147.14
525.13	52163.52
525.30	52364.81
525.47	52360.12
525.64	52374.17
525.81	52762.70
525.98	52360.12
526.16	52313.31
526.33	52486.51
526.50	53071.65
526.67	52720.57
526.84	52917.17
527.01	52877.38
527.18	52931.22
527.36	52797.80
527.53	52994.41
527.70	53240.17
527.87	53172.29
528.04	53277.61
528.21	53263.57
528.38	53141.86
528.55	53621.67
528.72	53389.96
528.89	53373.58
529.07	53446.13
529.24	53546.78
529.41	53516.35
529.58	53595.93
529.75	53734.02
529.92	53661.46
530.09	53862.75
530.26	53923.60
530.43	54040.63
530.60	53734.02
530.77	53738.70
530.94	54096.80
531.11	53834.66
531.28	53860.41
531.46	54284.04
531.63	54234.89
531.80	54089.78
531.97	54286.39
532.14	54349.58
532.31	54305.11
532.48	54344.90
532.65	54321.49
532.82	54555.55
532.99	54600.02
533.16	54433.84
533.33	54728.75
533.50	54487.67
533.67	54754.49
533.84	54904.29
534.01	54738.11
534.18	54880.88
534.35	55260.05
534.52	54873.86
534.69	55009.61
534.86	55145.36
535.03	55107.91
535.20	54906.63
535.37	55412.18
535.54	55236.64
535.71	55341.97
535.88	55505.80
536.05	55363.03
536.22	55430.91
536.38	55458.99
536.55	55613.47
536.72	55463.67
536.89	55100.89
537.06	55660.28
537.23	55587.72
537.40	55526.87
537.57	55606.45
537.74	55793.69
537.91	55875.61
538.08	55606.45
538.25	55690.71
538.42	55814.76
538.59	56133.07
538.75	55962.21
538.92	55994.98
539.09	56170.52
539.26	56006.68
539.43	56046.47
539.60	56048.81
539.77	55938.80
539.94	56603.52
540.11	56095.62
540.28	56179.88
540.44	56144.77
540.61	56427.98
540.78	56282.86
540.95	56210.31
541.12	56287.54
541.29	56509.89
541.46	56584.79
541.62	56516.92
541.79	56575.43
541.96	56456.06
542.13	56542.66
542.30	56519.26
542.47	56594.15
542.63	56884.38
542.80	56811.82
542.97	56914.81
543.14	57029.49
543.31	57069.28
543.48	57020.13
543.64	57291.63
543.81	57141.84
543.98	57345.47
544.15	57396.96
544.32	57373.55
544.48	57296.31
544.65	57312.70
544.82	57387.60
544.99	57310.36
545.16	57401.64
545.32	57343.12
545.49	57722.29
545.66	57729.31
545.83	57518.67
546.00	57726.97
546.16	57907.19
546.33	57483.56
546.50	57462.49
546.67	57584.20
546.83	57401.64
547.00	57752.72
547.17	57851.02
547.34	57939.96
547.50	57801.87
547.67	57930.60
547.84	58035.92
548.00	57902.51
548.17	58054.65
548.34	57925.92
548.51	58113.16
548.67	58183.38
548.84	57942.30
549.01	58216.14
549.18	58129.54
549.34	58174.02
549.51	58300.40
549.68	58244.23
549.84	58440.84
550.01	58394.03
550.18	58220.83
550.34	58319.13
550.51	58302.74
550.68	58433.81
550.84	58169.33
551.01	58541.48
551.18	58344.87
551.34	58698.30
551.51	58361.26
551.68	58515.73
551.84	58497.01
552.01	58349.56
552.18	58473.60
552.34	58501.69
552.51	58665.53
552.68	58370.62
552.84	58742.77
553.01	58733.40
553.18	58915.96
553.34	58688.93
553.51	58920.65
553.67	58796.60
553.84	59011.93
554.01	59093.85
554.17	58721.70
554.34	59119.59
554.51	58845.75
554.67	58995.54
554.84	58850.43
555.00	58993.20
555.17	58829.37
555.33	59068.10
555.50	58887.88
555.67	58953.41
555.83	58735.74
556.00	59098.53
556.16	59112.57
556.33	59372.37
556.50	59201.51
556.66	59192.15
556.83	58915.96
556.99	59320.88
557.16	59576.00
557.32	59241.30
557.49	59550.25
557.65	59159.38
557.82	59341.94
557.98	59330.24
558.15	59421.52
558.32	59465.99
558.48	59480.03
558.65	59348.96
558.81	59447.27
558.98	59538.55
559.14	59451.95
559.31	59585.36
559.47	59515.14
559.64	59533.87
559.80	59765.58
559.97	59636.85
560.13	59503.44
560.30	59737.49
560.46	59594.72
560.63	59791.33
560.79	59765.58
560.96	59639.19
561.12	59980.91
561.29	59821.75
561.45	59854.52
561.61	59744.51
561.78	59674.30
561.94	59835.80
562.11	59934.10
562.27	59777.28
562.44	60135.38
562.60	59950.48
562.77	59824.09
562.93	59721.11
563.10	60041.76
563.26	59704.73
563.42	60111.98
563.59	59854.52
563.75	59948.14
563.92	60226.66
564.08	59894.31
564.24	59990.27
564.41	60051.12
564.57	60062.83
564.74	60058.15
564.90	59906.01
565.07	59898.99
565.23	59976.23
565.39	60273.48
565.56	60093.25
565.72	60130.70
565.88	60369.44
566.05	60133.04
566.21	60011.34
566.38	60200.92
566.54	60161.13
566.70	60252.41
566.87	60406.89
567.03	59997.29
567.19	60289.86
567.36	60060.49
567.52	60271.14
567.68	60378.80
567.85	60383.48
568.01	60411.57
568.17	60310.92
568.34	60381.14
568.50	60224.32
568.66	60425.61
568.83	60341.35
568.99	60247.73
569.15	60451.36
569.32	60369.44
569.48	60168.15
569.64	60409.23
569.81	60322.63
569.97	60376.46
570.13	60320.29
570.30	60210.28
570.46	60441.99
570.62	60243.05
570.78	60299.22
570.95	60336.67
571.11	60430.29
571.27	60320.29
571.43	60467.74
571.60	60523.91
571.76	60310.92
571.92	60336.67
572.09	60425.61
572.25	60367.10
572.41	60493.49
572.57	60566.04
572.74	60629.24
572.90	60481.78
573.06	60516.89
573.22	60835.20
573.38	60556.68
573.55	60420.93
573.71	60631.58
573.87	60603.49
574.03	60493.49
574.20	60563.70
574.36	60491.15
574.52	60591.79
574.68	60729.88
574.84	60783.71
575.01	60584.77
575.17	60809.46
575.33	60540.30
575.49	60629.24
575.65	60591.79
575.82	60757.97
575.98	60802.44
576.14	60870.31
576.30	60669.03
576.46	60767.33
576.62	60949.89
576.79	60750.94
576.95	60615.19
577.11	60647.96
577.27	60856.27
577.43	60769.67
577.59	60591.79
577.75	60832.86
577.92	60631.58
578.08	60647.96
578.24	60788.39
578.40	60856.27
578.56	60811.80
578.72	60959.25
578.88	60912.44
579.04	60963.93
579.21	60896.06
579.37	60900.74
579.53	61006.06
579.69	60624.56
579.85	60645.62
580.01	60772.01
580.17	60734.56
580.33	60896.06
580.49	60720.52
580.65	61118.41
580.82	61003.72
580.98	60713.50
581.14	60823.50
581.30	60982.66
581.46	60896.06
581.62	60821.16
581.78	60743.92
581.94	60832.86
582.10	60825.84
582.26	60867.97
582.42	60685.41
582.58	60860.95
582.74	60800.10
582.90	60992.02
583.06	60872.65
583.22	60727.54
583.38	60832.86
583.54	60961.59
583.70	61024.79
583.86	60907.76
584.02	60748.60
584.18	61017.77
584.34	60844.57
584.50	60933.51
584.66	60772.01
584.82	60699.45
584.98	61216.71
585.14	61155.86
585.30	60804.78
585.46	61073.94
585.62	60917.12
585.78	61073.94
585.94	60893.72
586.10	60921.80
586.26	60935.85
586.42	61050.53
586.58	61057.56
586.74	61003.72
586.90	61052.87
587.06	60956.91
587.22	61013.08
587.38	61003.72
587.54	61041.17
587.70	61275.22
587.86	61113.73
588.02	60889.04
588.18	61181.60
588.34	61062.24
588.49	60851.59
