SpectraSuite Data File
++++++++++++++++++++++++++++++++++++
Date: Fri Oct 25 11:22:39 EDT 2013
User: price-jones
Dark Spectrum Present: No
Reference Spectrum Present: No
Number of Sampled Component Spectra: 1
Spectrometers: USB2+H05261
Integration Time (usec): 100000 (USB2+H05261)
Spectra Averaged: 1 (USB2+H05261)
Boxcar Smoothing: 0 (USB2+H05261)
Correct for Electrical Dark: No (USB2+H05261)
Strobe/Lamp Enabled: No (USB2+H05261)
Correct for Detector Non-linearity: No (USB2+H05261)
Correct for Stray Light: No (USB2+H05261)
Number of Pixels in Processed Spectrum: 2048
>>>>>Begin Processed Spectral Data<<<<<
365.73	238.73
365.92	238.73
366.12	238.73
366.32	135.75
366.52	100.64
366.72	117.03
366.91	166.18
367.11	154.48
367.31	102.98
367.51	142.77
367.70	98.30
367.90	180.22
368.10	91.28
368.30	28.09
368.49	72.56
368.69	177.88
368.89	173.20
369.09	159.16
369.28	142.77
369.48	145.11
369.68	215.33
369.87	220.01
370.07	205.97
370.27	245.76
370.47	346.40
370.66	573.43
370.86	557.05
371.06	627.26
371.25	671.73
371.45	596.84
371.65	734.93
371.84	713.86
372.04	669.39
372.24	664.71
372.44	660.03
372.63	793.44
372.83	798.12
373.03	772.38
373.22	702.16
373.42	739.61
373.62	692.80
373.81	800.46
374.01	807.48
374.21	753.65
374.40	760.67
374.60	800.46
374.79	791.10
374.99	795.78
375.19	791.10
375.38	926.85
375.58	826.21
375.78	807.48
375.97	847.27
376.17	891.74
376.37	866.00
376.56	880.04
376.76	894.08
376.95	830.89
377.15	861.32
377.35	912.81
377.54	894.08
377.74	905.79
377.93	947.92
378.13	875.36
378.33	875.36
378.52	887.06
378.72	915.15
378.91	1006.43
379.11	894.08
379.31	926.85
379.50	889.40
379.70	952.60
379.89	1006.43
380.09	875.36
380.28	971.32
380.48	964.30
380.68	1025.15
380.87	971.32
381.07	968.98
381.26	1062.60
381.46	936.21
381.65	1069.62
381.85	1093.03
382.04	968.98
382.24	1100.05
382.43	1036.86
382.63	1069.62
382.83	1123.46
383.02	1100.05
383.22	1170.27
383.41	1046.22
383.61	1221.76
383.80	1067.28
384.00	992.39
384.19	1102.39
384.39	1088.35
384.58	1125.80
384.78	1203.04
384.97	1165.59
385.17	1193.67
385.36	1146.86
385.56	1167.93
385.75	1153.88
385.95	1203.04
386.14	1217.08
386.34	1170.27
386.53	1221.76
386.72	1210.06
386.92	1203.04
387.11	1263.89
387.31	1249.85
387.50	1207.72
387.70	1238.14
387.89	1231.12
388.09	1245.16
388.28	1242.82
388.48	1263.89
388.67	1219.42
388.86	1228.78
389.06	1322.40
389.25	1331.76
389.45	1387.94
389.64	1275.59
389.84	1338.79
390.03	1397.30
390.22	1418.36
390.42	1359.85
390.61	1343.47
390.81	1371.55
391.00	1371.55
391.19	1441.77
391.39	1441.77
391.58	1425.39
391.78	1425.39
391.97	1486.24
392.16	1430.07
392.36	1486.24
392.55	1607.95
392.75	1533.05
392.94	1490.92
393.13	1600.93
393.33	1406.66
393.52	1565.82
393.71	1479.22
393.91	1537.73
394.10	1511.99
394.29	1579.86
394.49	1657.10
394.68	1577.52
394.88	1614.97
395.07	1717.95
395.26	1577.52
395.46	1788.17
395.65	1846.68
395.84	1813.92
396.04	1750.72
396.23	1774.13
396.42	1783.49
396.62	1785.83
396.81	1743.70
397.00	1699.23
397.19	1811.57
397.39	1851.36
397.58	1916.90
397.77	1769.44
397.97	1849.02
398.16	1827.96
398.35	1837.32
398.55	1839.66
398.74	1877.11
398.93	1921.58
399.12	1966.05
399.32	1952.01
399.51	2026.90
399.70	2017.54
399.90	2012.86
400.09	1937.96
400.28	2085.42
400.47	2024.56
400.67	2146.27
400.86	2118.18
401.05	2005.84
401.24	2029.24
401.44	2118.18
401.63	2179.04
401.82	2129.89
402.01	2246.91
402.21	2050.31
402.40	2239.89
402.59	2195.42
402.78	2193.08
402.97	2239.89
403.17	2246.91
403.36	2242.23
403.55	2289.04
403.74	2321.81
403.93	2413.09
404.13	2331.17
404.32	2359.26
404.51	2354.58
404.70	2431.82
404.89	2548.84
405.09	2511.39
405.28	2455.22
405.47	2459.90
405.66	2473.95
405.85	2588.63
406.05	2448.20
406.24	2502.03
406.43	2509.05
406.62	2523.10
406.81	2654.17
407.00	2682.25
407.20	2677.57
407.39	2679.91
407.58	2729.06
407.77	2710.34
407.96	2785.24
408.15	2752.47
408.34	2801.62
408.54	2820.35
408.73	2813.32
408.92	2766.51
409.11	2855.45
409.30	2857.79
409.49	2963.12
409.68	2935.03
409.87	2956.10
410.07	2911.63
410.26	3124.62
410.45	2981.84
410.64	3080.14
410.83	3124.62
411.02	3089.51
411.21	3295.47
411.40	3166.74
411.59	3262.71
411.78	3314.20
411.98	3218.24
412.17	3330.58
412.36	3342.28
412.55	3438.25
412.74	3496.76
412.93	3421.86
413.12	3400.80
413.31	3606.77
413.50	3501.44
413.69	3538.89
413.88	3604.42
414.07	3634.85
414.26	3688.68
414.45	3749.54
414.64	3742.52
414.83	3639.53
415.02	3763.58
415.22	3871.25
415.41	3847.84
415.60	3894.65
415.79	4007.00
415.98	4051.47
416.17	4084.23
416.36	3943.80
416.55	4009.34
416.74	4039.76
416.93	4058.49
417.12	4191.90
417.31	4325.31
417.50	4114.66
417.69	4257.43
417.88	4217.65
418.07	4348.72
418.26	4346.37
418.45	4594.47
418.64	4566.39
418.83	4458.72
419.02	4510.21
419.21	4596.81
419.39	4554.68
419.58	4432.97
419.77	4477.44
419.96	4648.30
420.15	4802.78
420.34	4559.36
420.53	4711.50
420.72	4842.57
420.91	4835.55
421.10	4851.93
421.29	4812.14
421.48	4734.90
421.67	4695.11
421.86	4777.03
422.05	4880.02
422.24	4730.22
422.43	4741.93
422.61	5069.60
422.80	5118.75
422.99	4954.91
423.18	4873.00
423.37	5107.05
423.56	4957.25
423.75	4936.19
423.94	4992.36
424.13	4718.52
424.32	4837.89
424.50	4992.36
424.69	5118.75
424.88	5107.05
425.07	5053.22
425.26	4994.70
425.45	5050.88
425.64	5191.31
425.83	4961.94
426.01	4983.00
426.20	5018.11
426.39	5055.56
426.58	5172.58
426.77	5125.77
426.96	5188.97
427.15	5088.32
427.33	5317.70
427.52	5254.50
427.71	5284.93
427.90	5277.91
428.09	5329.40
428.28	5408.98
428.46	5359.83
428.65	5425.36
428.84	5593.88
429.03	5549.41
429.22	5310.68
429.40	5460.47
429.59	5488.56
429.78	5270.89
429.97	5233.44
430.16	5593.88
430.34	5570.48
430.53	5717.93
430.72	5734.31
430.91	5626.65
431.10	5675.80
431.28	5996.45
431.47	5846.66
431.66	5753.04
431.85	5844.32
432.03	5909.85
432.22	6031.56
432.41	5870.06
432.60	5905.17
432.79	5991.77
432.97	6134.54
433.16	6150.93
433.35	6019.86
433.54	6230.51
433.72	6106.46
433.91	6122.84
434.10	6179.01
434.28	6260.93
434.47	6106.46
434.66	6387.32
434.85	6366.26
435.03	6497.33
435.22	6347.53
435.41	6502.01
435.59	6471.58
435.78	6333.49
435.97	6478.60
436.16	6403.71
436.34	6497.33
436.53	6436.47
436.72	6743.08
436.90	6668.19
437.09	6640.10
437.28	6523.07
437.46	6661.16
437.65	6689.25
437.84	6848.41
438.02	6740.74
438.21	6668.19
438.40	6731.38
438.58	7194.81
438.77	7084.80
438.96	7187.79
439.14	7094.16
439.33	7073.10
439.52	7208.85
439.70	7283.75
439.89	7538.87
440.08	7204.17
440.26	7463.97
440.45	7442.90
440.63	7538.87
440.82	7632.49
441.01	7559.93
441.19	7700.36
441.38	7700.36
441.57	7714.41
441.75	7852.50
441.94	7997.61
442.12	7934.42
442.31	8147.40
442.50	8156.77
442.68	7850.16
442.87	7946.12
443.05	8086.55
443.24	8374.44
443.43	8215.28
443.61	8344.01
443.80	8449.33
443.98	8128.68
444.17	7955.48
444.35	8142.72
444.54	8547.64
444.73	8231.66
444.91	8351.03
445.10	8526.57
445.28	8390.82
445.47	8322.94
445.65	8491.46
445.84	8535.93
446.02	8549.98
446.21	8442.31
446.39	8538.27
446.58	8585.08
446.77	8702.11
446.95	8320.60
447.14	8411.89
447.32	8573.38
447.51	8468.06
447.69	8624.87
447.88	8837.86
448.06	8617.85
448.25	8568.70
448.43	8760.63
448.62	8505.51
448.80	8585.08
448.99	8667.00
449.17	8798.07
449.36	8823.82
449.54	8816.80
449.73	8849.57
449.91	9092.98
450.10	8929.14
450.28	9088.30
450.46	8926.80
450.65	9252.14
450.83	9078.94
451.02	9137.45
451.20	9217.03
451.39	9371.50
451.57	9064.89
451.76	9198.31
451.94	9135.11
452.13	9378.53
452.31	9226.39
452.49	9371.50
452.68	9392.57
452.86	9315.33
453.05	9312.99
453.23	9596.20
453.42	9303.63
453.60	9458.10
453.78	9736.63
453.97	9397.25
454.15	9664.07
454.34	9624.28
454.52	9750.67
454.70	9654.71
454.89	9820.89
455.07	10064.30
455.26	9966.00
455.44	9858.34
455.62	10174.31
455.81	9872.38
455.99	10136.86
456.17	10001.11
456.36	9909.83
456.54	10328.78
456.73	10415.38
456.91	10628.37
457.09	10272.61
457.28	10642.42
457.46	10417.72
457.64	10464.54
457.83	10593.26
458.01	10509.01
458.19	10684.55
458.38	10801.57
458.56	10911.58
458.74	10932.64
458.93	10876.47
459.11	10862.43
459.29	10724.33
459.48	11016.90
459.66	10970.09
459.84	10991.16
460.03	11162.01
460.21	10925.62
460.39	11094.14
460.57	10944.34
460.76	11475.65
460.94	11272.02
461.12	11325.85
461.31	11288.40
461.49	11140.95
461.67	11330.53
461.85	11576.29
462.04	11400.75
462.22	11939.07
462.40	11683.95
462.59	11840.77
462.77	11597.35
462.95	11585.65
463.13	11632.46
463.32	11775.24
463.50	11960.14
463.68	12039.72
463.86	11953.12
464.05	11723.74
464.23	11805.66
464.41	11903.96
464.59	11800.98
464.78	12112.27
464.96	12166.10
465.14	12107.59
465.32	12100.57
465.50	12203.55
465.69	12159.08
465.87	12100.57
466.05	12210.57
466.23	12187.17
466.41	12456.33
466.60	12657.62
466.78	12116.95
466.96	12259.73
467.14	12369.73
467.32	12390.80
467.51	12458.67
467.69	12154.40
467.87	12599.10
468.05	12580.38
468.23	12304.20
468.41	12566.34
468.60	12498.46
468.78	12720.81
468.96	12627.19
469.14	13104.66
469.32	12908.05
469.50	12975.93
469.69	13097.64
469.87	13172.54
470.05	13270.84
470.23	13540.00
470.41	13296.58
470.59	13434.68
470.77	13275.52
470.95	13462.76
471.14	13865.33
471.32	13348.08
471.50	13617.24
471.68	13579.79
471.86	13549.36
472.04	13799.80
472.22	13916.83
472.40	13916.83
472.58	13879.38
472.77	14216.41
472.95	14267.91
473.13	14583.88
473.31	14136.84
473.49	14265.57
473.67	14251.52
473.85	14445.79
474.03	14766.44
474.21	14471.53
474.39	14841.34
474.57	14876.44
474.75	15124.54
474.93	14993.47
475.12	15073.05
475.30	15192.42
475.48	15002.83
475.66	15325.83
475.84	15180.71
476.02	15571.58
476.20	15211.14
476.38	15777.55
476.56	15941.39
476.74	15819.68
476.92	15674.57
477.10	15765.85
477.28	16498.44
477.46	16486.73
477.64	16365.03
477.82	16915.05
478.00	16755.90
478.18	16926.75
478.36	17095.27
478.54	17331.67
478.72	17355.07
478.90	17689.77
479.08	17441.67
479.26	18001.06
479.44	18132.13
479.62	17987.02
479.80	18387.25
479.98	18356.82
480.16	18881.10
480.34	18190.64
480.52	18607.26
480.70	18668.11
480.88	18675.13
481.06	18848.33
481.24	18916.21
481.41	19112.81
481.59	19419.42
481.77	19768.16
481.95	19997.54
482.13	19768.16
482.31	20107.54
482.49	20500.75
482.67	20563.95
482.85	20680.97
483.03	20865.88
483.21	20641.18
483.39	20964.18
483.57	21001.63
483.74	21298.88
483.92	21322.28
484.10	21317.60
484.28	21659.32
484.46	22513.61
484.64	22506.59
484.82	22354.46
485.00	22586.17
485.18	22850.65
485.35	23335.14
485.53	23044.91
485.71	23194.71
485.89	23510.68
486.07	23723.67
486.25	23821.97
486.43	23920.28
486.61	24065.39
486.78	24269.01
486.96	24102.84
487.14	24643.50
487.32	24608.39
487.50	25198.21
487.68	24865.85
487.85	25607.80
488.03	25963.56
488.21	25951.86
488.39	26206.98
488.57	26415.29
488.75	26476.14
488.92	26485.50
489.10	27208.73
489.28	27190.00
489.46	27459.16
489.64	26991.06
489.81	27431.08
489.99	28020.89
490.17	28037.28
490.35	28496.02
490.53	28198.77
490.70	28657.52
490.88	28582.62
491.06	29216.91
491.24	28973.49
491.41	29317.55
491.59	29738.85
491.77	29666.29
491.95	30174.19
492.13	29834.81
492.30	30298.23
492.48	30293.55
492.66	30522.93
492.84	30345.05
493.01	31084.65
493.19	30845.92
493.37	30883.37
493.54	31138.49
493.72	31768.09
493.90	31452.12
494.08	31833.63
494.25	32100.45
494.43	32456.21
494.61	32423.44
494.79	33024.96
494.96	32678.56
495.14	32954.74
495.32	33687.33
495.49	32891.55
495.67	33560.94
495.85	34073.52
496.02	34125.01
496.20	34253.74
496.38	34759.30
496.55	34515.88
496.73	35072.93
496.91	34852.92
497.09	35133.78
497.26	35524.65
497.44	35260.17
497.62	35505.93
497.79	35634.66
497.97	35700.19
498.14	36315.75
498.32	36683.22
498.50	36404.69
498.67	36524.06
498.85	36456.18
499.03	37317.50
499.20	37261.33
499.38	37081.11
499.56	37172.39
499.73	37406.44
499.91	37544.53
500.08	38043.07
500.26	37846.46
500.44	37738.80
500.61	38354.36
500.79	37823.06
500.97	38646.93
501.14	38714.80
501.32	39196.95
501.49	39056.52
501.67	38667.99
501.84	39646.33
502.02	39321.00
502.20	39377.17
502.37	39606.55
502.55	39569.10
502.72	39597.18
502.90	40208.06
503.07	40137.85
503.25	40163.59
503.43	40313.39
503.60	40222.11
503.78	40652.76
503.95	40533.40
504.13	41092.79
504.30	41017.89
504.48	40928.95
504.65	41137.26
504.83	41226.20
505.01	41666.22
505.18	41500.04
505.36	42066.45
505.53	41539.83
505.71	41867.50
505.88	42190.50
506.06	41394.71
506.23	42574.34
506.41	42288.80
506.58	42792.01
506.76	42855.21
506.93	42939.47
507.11	43112.67
507.28	42974.58
507.46	43063.52
507.63	43372.47
507.81	43728.23
507.98	43194.59
508.16	43440.34
508.33	43739.93
508.50	43938.88
508.68	43786.74
508.85	44341.45
509.03	44474.86
509.20	44280.60
509.38	44715.93
509.55	45003.82
509.73	45366.60
509.90	44832.96
510.08	45020.20
510.25	44748.70
510.42	45418.10
510.60	45481.29
510.77	45542.14
510.95	46157.70
511.12	45705.98
511.30	45401.71
511.47	45951.74
511.64	46251.33
511.82	45928.33
511.99	45989.19
512.17	46344.95
512.34	46330.90
512.51	46766.24
512.69	46681.98
512.86	46581.34
513.04	47077.54
513.21	46672.62
513.38	46628.15
513.56	47840.55
513.73	47185.20
513.90	46932.42
514.08	47302.23
514.25	47889.70
514.43	47854.59
514.60	47903.74
514.77	47817.14
514.95	48095.67
515.12	47763.31
515.29	48208.01
515.47	48320.36
515.64	48208.01
515.81	48318.02
515.99	48526.33
516.16	49350.20
516.33	48788.47
516.51	49160.61
516.68	49109.12
516.85	49109.12
517.03	49010.82
517.20	49577.23
517.37	49179.34
517.54	49083.37
517.72	49350.20
517.89	49120.82
518.06	49656.81
518.24	49727.02
518.41	49160.61
518.58	49900.22
518.75	49546.80
518.93	50087.46
519.10	49617.02
519.27	49579.57
519.45	49961.08
519.62	50321.52
519.79	50351.94
519.96	50316.84
520.14	50314.50
520.31	50387.05
520.48	50527.48
520.65	50511.10
520.83	51047.08
521.00	51058.79
521.17	50609.40
521.34	50951.12
521.52	51098.58
521.69	51112.62
521.86	51077.51
522.03	51325.61
522.20	51559.66
522.38	51690.73
522.55	51714.14
522.72	51716.48
522.89	51728.18
523.07	51980.96
523.24	51821.80
523.41	51821.80
523.58	51688.39
523.75	52191.61
523.92	51990.32
524.10	52376.51
524.27	52364.81
524.44	52453.75
524.61	52257.14
524.78	52128.41
524.96	52224.37
525.13	52804.83
525.30	52568.43
525.47	52659.71
525.64	52722.91
525.81	53050.58
525.98	53188.67
526.16	52942.92
526.33	52802.49
526.50	53165.27
526.67	53139.52
526.84	53179.31
527.01	52956.96
527.18	53282.30
527.36	53457.84
527.53	53169.95
527.70	53687.21
527.87	53832.32
528.04	53359.53
528.21	53668.48
528.38	53687.21
528.55	53616.99
528.72	53659.12
528.89	53654.44
529.07	53492.94
529.24	53902.54
529.41	54033.61
529.58	53860.41
529.75	53813.60
529.92	54061.69
530.09	54216.17
530.26	53979.78
530.43	54204.47
530.60	53867.43
530.77	53975.09
530.94	54232.55
531.11	54461.93
531.28	54436.18
531.46	54335.54
531.63	54511.08
531.80	54494.69
531.97	54464.27
532.14	54915.99
532.31	54691.30
532.48	54784.92
532.65	54703.00
532.82	54677.25
532.99	54859.82
533.16	54742.79
533.33	55344.31
533.50	55377.08
533.67	55016.63
533.84	54894.92
534.01	54967.48
534.18	55021.31
534.35	55540.91
534.52	55370.05
534.69	55470.70
534.86	55433.25
535.03	55114.94
535.20	55561.98
535.37	55444.95
535.54	55758.58
535.71	55398.14
535.88	55891.99
536.05	55735.18
536.22	55655.60
536.38	55910.72
536.55	55774.97
536.72	55718.79
536.89	55805.39
537.06	55772.63
537.23	56135.41
537.40	55746.88
537.57	56044.13
537.74	56198.60
537.91	56053.49
538.08	55922.42
538.25	55730.50
538.42	56081.58
538.59	56413.93
538.75	56189.24
538.92	56303.93
539.09	56317.97
539.26	56420.95
539.43	56200.94
539.60	56519.26
539.77	56315.63
539.94	56612.88
540.11	56669.05
540.28	56676.07
540.44	56760.33
540.61	56514.58
540.78	56584.79
540.95	56676.07
541.12	56828.21
541.29	56643.30
541.46	56757.99
541.62	56783.74
541.79	56765.01
541.96	56671.39
542.13	56793.10
542.30	57022.47
542.47	56968.64
542.63	56884.38
542.80	57151.20
542.97	57200.35
543.14	57422.70
543.31	57237.80
543.48	57230.78
543.64	57359.51
543.81	57469.51
543.98	57497.60
544.15	57425.04
544.32	57556.11
544.48	57932.94
544.65	57628.67
544.82	57736.34
544.99	57607.61
545.16	57530.37
545.32	57516.32
545.49	57762.08
545.66	57705.91
545.83	57911.88
546.00	58195.08
546.16	57890.81
546.33	57794.85
546.50	57757.40
546.67	57890.81
546.83	57631.01
547.00	57958.69
547.17	57946.98
547.34	57942.30
547.50	58178.70
547.67	58255.93
547.84	58277.00
548.00	58447.86
548.17	58578.93
548.34	58255.93
548.51	58546.16
548.67	58492.33
548.84	58405.73
549.01	58232.53
549.18	58230.19
549.34	58375.30
549.51	58775.53
549.68	58527.44
549.84	58550.84
550.01	58731.06
550.18	58574.25
550.34	58731.06
550.51	58829.37
550.68	58770.85
550.84	58489.99
551.01	58965.12
551.18	58789.58
551.34	58986.18
551.51	58880.86
551.68	58691.27
551.84	58937.03
552.01	58693.61
552.18	59021.29
552.34	58635.10
552.51	58927.67
552.68	58506.37
552.84	58983.84
553.01	59192.15
553.18	58976.82
553.34	59173.42
553.51	59044.69
553.67	59199.17
553.84	59072.78
554.01	59159.38
554.17	59276.41
554.34	59283.43
554.51	59346.62
554.67	59334.92
554.84	59089.16
555.00	59365.35
555.17	59042.35
555.33	59248.32
555.50	59124.27
555.67	59091.51
555.83	59311.52
556.00	59447.27
556.16	59597.06
556.33	59711.75
556.50	59489.40
556.66	59578.34
556.83	59405.14
556.99	59634.51
557.16	59859.20
557.32	59732.81
557.49	59898.99
557.65	59409.82
557.82	59480.03
557.98	59515.14
558.15	59578.34
558.32	59667.28
558.48	59583.02
558.65	59601.74
558.81	59559.61
558.98	59777.28
559.14	59770.26
559.31	59978.57
559.47	60053.47
559.64	59983.25
559.80	60048.78
559.97	59962.18
560.13	59896.65
560.30	59814.73
560.46	60065.17
560.63	59831.11
560.79	59957.50
560.96	60163.47
561.12	60198.58
561.29	59959.84
561.45	60076.87
561.61	60062.83
561.78	60168.15
561.94	60144.75
562.11	59908.35
562.27	60282.84
562.44	60149.43
562.60	60273.48
562.77	60154.11
562.93	59990.27
563.10	60491.15
563.26	60245.39
563.42	60486.46
563.59	60224.32
563.75	60224.32
563.92	60182.19
564.08	60221.98
564.24	60645.62
564.41	60376.46
564.57	60198.58
564.74	60470.08
564.90	60402.21
565.07	60289.86
565.23	60275.82
565.39	60437.31
565.56	60472.42
565.72	60416.25
565.88	60430.29
566.05	60353.05
566.21	60449.02
566.38	60369.44
566.54	60360.08
566.70	60484.12
566.87	60523.91
567.03	60423.27
567.19	60825.84
567.36	60575.40
567.52	60521.57
567.68	60760.31
567.85	60732.22
568.01	60699.45
568.17	60678.39
568.34	60685.41
568.50	60540.30
568.66	60397.52
568.83	60624.56
568.99	60573.06
569.15	60720.52
569.32	60498.17
569.48	60573.06
569.64	60718.18
569.81	60626.90
569.97	60615.19
570.13	60654.98
570.30	60608.17
570.46	60486.46
570.62	60844.57
570.78	60760.31
570.95	60638.60
571.11	60713.50
571.27	60781.37
571.43	60781.37
571.60	60945.21
571.76	60867.97
571.92	60825.84
572.09	60736.90
572.25	60954.57
572.41	60669.03
572.57	60727.54
572.74	60949.89
572.90	60856.27
573.06	60940.53
573.22	60931.17
573.38	60823.50
573.55	60839.89
573.71	61020.11
573.87	60851.59
574.03	60762.65
574.20	60816.48
574.36	60697.11
574.52	60837.54
574.68	60853.93
574.84	60999.04
575.01	60994.36
575.17	60856.27
575.33	60921.80
575.49	60921.80
575.65	61125.43
575.82	61083.30
575.98	60975.64
576.14	61041.17
576.30	61261.18
576.46	61027.13
576.62	60893.72
576.79	60933.51
576.95	60870.31
577.11	61219.05
577.27	61256.50
577.43	61174.58
577.59	60912.44
577.75	60973.30
577.92	61013.08
578.08	60807.12
578.24	60954.57
578.40	60989.68
578.56	61020.11
578.72	61202.67
578.88	61202.67
579.04	61017.77
579.21	61261.18
579.37	61134.79
579.53	61195.65
579.69	60942.87
579.85	61109.05
580.01	60914.78
580.17	61095.00
580.33	61312.67
580.49	61162.88
580.65	61123.09
580.82	61015.43
580.98	61066.92
581.14	61036.49
581.30	61181.60
581.46	61020.11
581.62	61284.59
581.78	60963.93
581.94	61151.18
582.10	61221.39
582.26	61106.71
582.42	61123.09
582.58	60999.04
582.74	60996.70
582.90	61221.39
583.06	61305.65
583.22	61137.13
583.38	61092.66
583.54	61202.67
583.70	61364.17
583.86	61064.58
584.02	61078.62
584.18	61392.25
584.34	61235.44
584.50	61106.71
584.66	61041.17
584.82	61059.90
584.98	61331.40
585.14	61179.26
585.30	61062.24
585.46	61116.07
585.62	61268.20
585.78	61406.30
585.94	61132.45
586.10	61057.56
586.26	61209.69
586.42	61146.50
586.58	61322.04
586.74	61235.44
586.90	61080.96
587.06	61193.31
587.22	61298.63
587.38	61427.36
587.54	61425.02
587.70	61427.36
587.86	61385.23
588.02	61317.35
588.18	61237.78
588.34	61394.59
588.49	61212.03
