SpectraSuite Data File
++++++++++++++++++++++++++++++++++++
Date: Fri Oct 25 11:34:03 EDT 2013
User: price-jones
Dark Spectrum Present: No
Reference Spectrum Present: No
Number of Sampled Component Spectra: 1
Spectrometers: USB2+H05261
Integration Time (usec): 100000 (USB2+H05261)
Spectra Averaged: 1 (USB2+H05261)
Boxcar Smoothing: 0 (USB2+H05261)
Correct for Electrical Dark: No (USB2+H05261)
Strobe/Lamp Enabled: No (USB2+H05261)
Correct for Detector Non-linearity: No (USB2+H05261)
Correct for Stray Light: No (USB2+H05261)
Number of Pixels in Processed Spectrum: 2048
>>>>>Begin Processed Spectral Data<<<<<
365.73	264.48
365.92	264.48
366.12	264.48
366.32	227.03
366.52	175.54
366.72	187.24
366.91	161.50
367.11	168.52
367.31	156.82
367.51	189.58
367.70	135.75
367.90	229.37
368.10	259.80
368.30	163.84
368.49	131.07
368.69	222.35
368.89	180.22
369.09	161.50
369.28	231.71
369.48	212.99
369.68	198.95
369.87	208.31
370.07	301.93
370.27	318.31
370.47	395.55
370.66	540.66
370.86	517.26
371.06	519.60
371.25	564.07
371.45	456.40
371.65	622.58
371.84	531.30
372.04	580.45
372.24	578.11
372.44	575.77
372.63	578.11
372.83	617.90
373.03	624.92
373.22	634.29
373.42	557.05
373.62	629.60
373.81	603.86
374.01	601.52
374.21	650.67
374.40	676.41
374.60	662.37
374.79	582.79
374.99	573.43
375.19	638.97
375.38	653.01
375.58	718.54
375.78	629.60
375.97	594.50
376.17	713.86
376.37	662.37
376.56	636.63
376.76	650.67
376.95	650.67
377.15	617.90
377.35	629.60
377.54	667.05
377.74	589.82
377.93	636.63
378.13	730.25
378.33	770.04
378.52	720.88
378.72	697.48
378.91	746.63
379.11	737.27
379.31	748.97
379.50	685.78
379.70	662.37
379.89	826.21
380.09	657.69
380.28	741.95
380.48	697.48
380.68	676.41
380.87	711.52
381.07	692.80
381.26	812.17
381.46	720.88
381.65	704.50
381.85	816.85
382.04	725.57
382.24	842.59
382.43	856.64
382.63	849.61
382.83	777.06
383.02	847.27
383.22	805.14
383.41	751.31
383.61	826.21
383.80	840.25
384.00	779.40
384.19	828.55
384.39	765.36
384.58	788.76
384.78	723.23
384.97	840.25
385.17	887.06
385.36	837.91
385.56	833.23
385.75	805.14
385.95	809.83
386.14	786.42
386.34	809.83
386.53	877.70
386.72	814.51
386.92	870.68
387.11	875.36
387.31	945.58
387.50	830.89
387.70	924.51
387.89	877.70
388.09	835.57
388.28	980.68
388.48	861.32
388.67	905.79
388.86	870.68
389.06	933.87
389.25	945.58
389.45	910.47
389.64	957.28
389.84	952.60
390.03	912.81
390.22	968.98
390.42	959.62
390.61	966.64
390.81	950.26
391.00	1039.20
391.19	908.13
391.39	940.90
391.58	1074.31
391.78	1036.86
391.97	1050.90
392.16	990.05
392.36	973.66
392.55	1060.26
392.75	971.32
392.94	1160.91
393.13	1076.65
393.33	997.07
393.52	1083.67
393.71	1107.07
393.91	1032.18
394.10	1088.35
394.29	1088.35
394.49	1039.20
394.68	1011.11
394.88	1130.48
395.07	1177.29
395.26	1090.69
395.46	1172.61
395.65	1172.61
395.84	1160.91
396.04	1198.35
396.23	1135.16
396.42	1121.12
396.62	1212.40
396.81	1261.55
397.00	1193.67
397.19	1156.22
397.39	1165.59
397.58	1235.80
397.77	1130.48
397.97	1308.36
398.16	1224.10
398.35	1238.14
398.55	1280.27
398.74	1320.06
398.93	1366.87
399.12	1252.19
399.32	1247.51
399.51	1308.36
399.70	1310.70
399.90	1303.68
400.09	1313.04
400.28	1404.32
400.47	1343.47
400.67	1420.71
400.86	1294.32
401.05	1413.68
401.24	1425.39
401.44	1401.98
401.63	1430.07
401.82	1418.36
402.01	1416.02
402.21	1434.75
402.40	1460.49
402.59	1439.43
402.78	1504.96
402.97	1511.99
403.17	1474.54
403.36	1537.73
403.55	1432.41
403.74	1528.37
403.93	1610.29
404.13	1612.63
404.32	1516.67
404.51	1558.80
404.70	1617.31
404.89	1476.88
405.09	1593.90
405.28	1654.76
405.47	1825.62
405.66	1767.10
405.85	1631.35
406.05	1717.95
406.24	1717.95
406.43	1696.89
406.62	1832.64
406.81	1760.08
407.00	1746.04
407.20	1799.87
407.39	1832.64
407.58	1818.60
407.77	1865.41
407.96	1820.94
408.15	1884.13
408.34	1856.04
408.54	1856.04
408.73	1834.98
408.92	2045.63
409.11	1989.46
409.30	1952.01
409.49	1895.83
409.68	1994.14
409.87	1933.28
410.07	1954.35
410.26	1912.22
410.45	2094.78
410.64	2064.35
410.83	2078.40
411.02	2059.67
411.21	2010.52
411.40	2172.02
411.59	2160.31
411.78	2043.29
411.98	2127.55
412.17	2267.98
412.36	2361.60
412.55	2286.70
412.74	2382.67
412.93	2256.28
413.12	2279.68
413.31	2338.20
413.50	2305.43
413.69	2345.22
413.88	2495.01
414.07	2422.45
414.26	2490.33
414.45	2434.16
414.64	2487.99
414.83	2551.18
415.02	2609.70
415.22	2635.44
415.41	2644.81
415.60	2630.76
415.79	2691.62
415.98	2679.91
416.17	2752.47
416.36	2679.91
416.55	2637.78
416.74	2775.88
416.93	2750.13
417.12	2743.11
417.31	2867.16
417.50	2843.75
417.69	2974.82
417.88	2995.89
418.07	2796.94
418.26	2974.82
418.45	3019.29
418.64	3052.06
418.83	3073.12
419.02	3007.59
419.21	2951.42
419.39	3126.96
419.58	2960.78
419.77	2960.78
419.96	3030.99
420.15	3150.36
420.34	3077.80
420.53	3016.95
420.72	3162.06
420.91	3232.28
421.10	3201.85
421.29	3262.71
421.48	3248.66
421.67	3375.05
421.86	3251.00
422.05	3377.39
422.24	3169.09
422.43	3267.39
422.61	3253.34
422.80	3220.58
422.99	3454.63
423.18	3407.82
423.37	3309.52
423.56	3325.90
423.75	3412.50
423.94	3171.43
424.13	3187.81
424.32	3155.04
424.50	3344.63
424.69	3405.48
424.88	3414.84
425.07	3309.52
425.26	3304.84
425.45	3370.37
425.64	3396.12
425.83	3358.67
426.01	3335.26
426.20	3468.67
426.39	3466.33
426.58	3431.23
426.77	3377.39
426.96	3478.04
427.15	3489.74
427.33	3496.76
427.52	3445.27
427.71	3541.23
427.90	3536.55
428.09	3555.27
428.28	3721.45
428.46	3630.17
428.65	3719.11
428.84	3751.88
429.03	3728.47
429.22	3653.58
429.40	3714.43
429.59	3559.95
429.78	3655.92
429.97	3576.34
430.16	3644.21
430.34	3817.41
430.53	3845.50
430.72	3810.39
430.91	3803.37
431.10	3702.73
431.28	3882.95
431.47	3899.33
431.66	4028.06
431.85	3808.05
432.03	4016.36
432.22	4044.45
432.41	3936.78
432.60	3950.82
432.79	4014.02
432.97	4105.30
433.16	4084.23
433.35	4072.53
433.54	4077.21
433.72	4072.53
433.91	4093.60
434.10	4308.93
434.28	4128.70
434.47	4184.88
434.66	4231.69
434.85	4332.33
435.03	4269.14
435.22	4243.39
435.41	4428.29
435.59	4241.05
435.78	4222.33
435.97	4379.14
436.16	4334.67
436.34	4339.35
436.53	4482.13
436.72	4428.29
436.90	4311.27
437.09	4430.63
437.28	4449.36
437.46	4454.04
437.65	4442.34
437.84	4568.73
438.02	4447.02
438.21	4566.39
438.40	4571.07
438.58	4535.96
438.77	4720.86
438.96	4571.07
439.14	4793.42
439.33	4880.02
439.52	4849.59
439.70	4847.25
439.89	4896.40
440.08	4887.04
440.26	4936.19
440.45	4737.24
440.63	4952.57
440.82	5109.39
441.01	4915.12
441.19	5071.94
441.38	5062.58
441.57	5083.64
441.75	5233.44
441.94	5277.91
442.12	5479.19
442.31	5376.21
442.50	5359.83
442.68	5149.18
442.87	5359.83
443.05	5252.16
443.24	5418.34
443.43	5502.60
443.61	5364.51
443.80	5696.86
443.98	5495.58
444.17	5245.14
444.35	5465.15
444.54	5530.69
444.73	5523.66
444.91	5607.92
445.10	5507.28
445.28	5664.10
445.47	5603.24
445.65	5521.32
445.84	5621.97
446.02	5664.10
446.21	5584.52
446.39	5586.86
446.58	5614.95
446.77	5673.46
446.95	5577.50
447.14	5516.64
447.32	5621.97
447.51	5647.71
447.69	5561.11
447.88	5565.79
448.06	5694.52
448.25	5755.38
448.43	5750.70
448.62	5565.79
448.80	5556.43
448.99	5753.04
449.17	5944.96
449.36	5870.06
449.54	5827.93
449.73	5987.09
449.91	5884.11
450.10	5991.77
450.28	5996.45
450.46	6031.56
450.65	5966.03
450.83	6080.71
451.02	6050.28
451.20	6005.81
451.39	6160.29
451.57	6052.63
451.76	5912.19
451.94	6078.37
452.13	6260.93
452.31	6064.33
452.49	6097.10
452.68	6221.14
452.86	6162.63
453.05	6338.17
453.23	6490.31
453.42	6195.40
453.60	6296.04
453.78	6394.34
453.97	6516.05
454.15	6258.59
454.34	6394.34
454.52	6399.02
454.70	6441.15
454.89	6389.66
455.07	6546.48
455.26	6527.75
455.44	6572.22
455.62	6497.33
455.81	6696.27
455.99	6443.49
456.17	6513.71
456.36	6675.21
456.54	6717.34
456.73	6663.51
456.91	6857.77
457.09	6834.36
457.28	7061.40
457.46	6932.67
457.64	7129.27
457.83	6909.26
458.01	7042.67
458.19	7033.31
458.38	6913.94
458.56	7211.19
458.74	6953.73
458.93	7138.63
459.11	7131.61
459.29	7087.14
459.48	7108.21
459.66	7255.66
459.84	7300.13
460.03	7180.76
460.21	7194.81
460.39	7365.67
460.57	7351.62
460.76	7377.37
460.94	7391.41
461.12	7346.94
461.31	7391.41
461.49	7328.22
461.67	7527.16
461.85	7258.00
462.04	7536.52
462.22	7852.50
462.40	7658.23
462.59	7700.36
462.77	7716.75
462.95	7569.29
463.13	7517.80
463.32	7590.36
463.50	7676.96
463.68	7801.01
463.86	7810.37
464.05	7714.41
464.23	7550.57
464.41	7644.19
464.59	7581.00
464.78	8056.12
464.96	7817.39
465.14	7691.00
465.32	7927.39
465.50	7911.01
465.69	7936.76
465.87	8011.65
466.05	7880.58
466.23	7843.14
466.41	8032.72
466.60	8208.26
466.78	8182.51
466.96	8021.02
467.14	8051.44
467.32	8124.00
467.51	8105.28
467.69	8138.04
467.87	8121.66
468.05	8238.69
468.23	8039.74
468.41	8231.66
468.60	8187.19
468.78	8311.24
468.96	8231.66
469.14	8344.01
469.32	8482.10
469.50	8182.51
469.69	8575.72
469.87	8596.79
470.05	8329.97
470.23	8538.27
470.41	8538.27
470.59	8779.35
470.77	8702.11
470.95	8713.81
471.14	8882.33
471.32	8734.88
471.50	8704.45
471.68	9048.51
471.86	8968.93
472.04	8833.18
472.22	9071.92
472.40	9013.40
472.58	8973.61
472.77	9020.42
472.95	9135.11
473.13	9415.98
473.31	9121.07
473.49	9163.20
473.67	9221.71
473.85	9408.95
474.03	9502.58
474.21	9472.15
474.39	9626.62
474.57	9661.73
474.75	9577.47
474.93	9745.99
475.12	9848.97
475.30	9907.49
475.48	9799.82
475.66	10047.92
475.84	9973.02
476.02	10083.03
476.20	10054.94
476.38	10321.76
476.56	10628.37
476.74	10457.51
476.92	10464.54
477.10	10363.89
477.28	10506.66
477.46	10420.06
477.64	10684.55
477.82	10675.18
478.00	10899.87
478.18	10965.41
478.36	10963.07
478.54	11098.82
478.72	11290.74
478.90	11222.87
479.08	11442.88
479.26	11463.94
479.44	11433.52
479.62	11515.44
479.80	11660.55
479.98	11651.19
480.16	12081.85
480.34	11824.39
480.52	11908.65
480.70	12131.00
480.88	11976.52
481.06	12182.49
481.24	12039.72
481.41	12245.68
481.59	12617.83
481.77	12821.45
481.95	12793.37
482.13	12954.87
482.31	12919.76
482.49	13036.78
482.67	12987.63
482.85	13153.81
483.03	13275.52
483.21	13455.74
483.39	13523.62
483.57	13305.95
483.74	13614.90
483.92	13568.09
484.10	13568.09
484.28	14113.43
484.46	14272.59
484.64	14431.74
484.82	14176.62
485.00	14523.02
485.18	14831.97
485.35	14941.98
485.53	14738.35
485.71	14913.89
485.89	15178.37
486.07	15077.73
486.25	14780.48
486.43	15374.98
486.61	15255.61
486.78	15763.51
486.96	15463.92
487.14	15695.63
487.32	15712.02
487.50	15981.18
487.68	16037.35
487.85	16348.64
488.03	16695.04
488.21	16472.69
488.39	16706.74
488.57	16730.15
488.75	16933.78
488.92	17268.47
489.10	17062.51
489.28	17357.41
489.46	17467.42
489.64	17551.68
489.81	17715.51
489.99	17659.34
490.17	18022.12
490.35	18094.68
490.53	18244.48
490.70	18192.98
490.88	18246.82
491.06	18609.60
491.24	18443.42
491.41	18862.38
491.59	18672.79
491.77	18808.54
491.95	19204.10
492.13	19243.88
492.30	19103.45
492.48	19255.59
492.66	19503.68
492.84	19798.59
493.01	19854.76
493.19	19838.38
493.37	20100.52
493.54	20322.87
493.72	20245.63
493.90	20233.93
494.08	20390.75
494.25	20765.23
494.43	20535.86
494.61	20854.17
494.79	21106.95
494.96	20940.77
495.14	21383.13
495.32	21296.53
495.49	21418.24
495.67	21659.32
495.85	21755.28
496.02	21539.95
496.20	22157.85
496.38	22036.14
496.55	22199.98
496.73	22541.70
496.91	22326.37
497.09	22522.98
497.26	22396.59
497.44	22249.13
497.62	22588.51
497.79	22965.34
497.97	23075.34
498.14	22944.27
498.32	23065.98
498.50	23393.65
498.67	23323.44
498.85	23662.82
499.03	23623.03
499.20	23608.98
499.38	23613.66
499.56	23683.88
499.73	24175.39
499.91	24418.81
500.08	24219.86
500.26	24222.20
500.44	24362.64
500.61	24250.29
500.79	24306.46
500.97	24634.14
501.14	24961.81
501.32	24828.40
501.49	24912.66
501.67	25125.65
501.84	25165.44
502.02	25069.48
502.20	25156.08
502.37	24959.47
502.55	25139.69
502.72	25544.61
502.90	25046.07
503.07	25551.63
503.25	25645.25
503.43	25586.74
503.60	25853.56
503.78	25965.90
503.95	26038.46
504.13	26099.31
504.30	25734.19
504.48	26066.55
504.65	26375.50
504.83	26651.68
505.01	26551.04
505.18	26513.59
505.36	26614.23
505.53	26448.05
505.71	26836.58
505.88	26831.90
506.06	26581.46
506.23	26934.88
506.41	27087.02
506.58	27454.48
506.76	27206.39
506.93	27325.75
507.11	27562.15
507.28	27735.35
507.46	27606.62
507.63	27580.87
507.81	27833.65
507.98	27873.44
508.16	28231.54
508.33	28189.41
508.50	28135.58
508.68	28346.23
508.85	28556.88
509.03	28470.28
509.20	28348.57
509.38	29350.32
509.55	28865.83
509.73	28804.97
509.90	29010.94
510.08	28643.48
510.25	29043.71
510.42	29024.98
510.60	29439.26
510.77	29497.77
510.95	29528.20
511.12	29347.98
511.30	29610.12
511.47	29759.91
511.64	29373.72
511.82	29734.17
511.99	29956.52
512.17	29996.31
512.34	29902.68
512.51	30099.29
512.69	30389.52
512.86	30045.46
513.04	30050.14
513.21	30270.15
513.38	30721.87
513.56	30625.91
513.73	30485.48
513.90	30415.26
514.08	30810.81
514.25	31070.61
514.43	30918.48
514.60	30998.06
514.77	30806.13
514.95	31194.66
515.12	31058.91
515.29	31068.27
515.47	31384.24
515.64	31409.99
515.81	31346.79
515.99	31386.58
516.16	31431.05
516.33	31864.05
516.51	31503.61
516.68	31798.52
516.85	32030.23
517.03	32247.90
517.20	32133.21
517.37	32046.62
517.54	32170.66
517.72	31859.37
517.89	32390.67
518.06	32339.18
518.24	32643.45
518.41	32430.46
518.58	32589.62
518.75	32187.05
518.93	33198.16
519.10	32563.87
519.27	33076.45
519.45	32929.00
519.62	33312.84
519.79	33235.61
519.96	32938.36
520.14	33427.53
520.31	33193.48
520.48	33233.27
520.65	33708.40
520.83	33883.94
521.00	33504.77
521.17	33528.17
521.34	33795.00
521.52	34302.89
521.69	33750.52
521.86	34092.24
522.03	34043.09
522.20	34338.00
522.38	34513.54
522.55	34202.25
522.72	34188.21
522.89	34548.65
523.07	34487.79
523.24	34494.82
523.41	34792.06
523.58	34555.67
523.75	34656.31
523.92	34590.78
524.10	34721.85
524.27	35147.82
524.44	35421.67
524.61	35321.02
524.78	35234.42
524.96	35363.15
525.13	35290.60
525.30	35644.02
525.47	35618.27
525.64	35468.48
525.81	35342.09
525.98	35709.55
526.16	35566.78
526.33	35700.19
526.50	36107.44
526.67	35847.64
526.84	35892.12
527.01	35779.77
527.18	35854.67
527.36	36133.19
527.53	36451.50
527.70	36559.17
527.87	36645.77
528.04	36123.83
528.21	36610.66
528.38	36655.13
528.55	37015.57
528.72	36360.22
528.89	36685.56
529.07	36587.25
529.24	36664.49
529.41	37125.58
529.58	36701.94
529.75	36449.16
529.92	36940.68
530.09	36847.05
530.26	37518.79
530.43	37127.92
530.60	37046.00
530.77	36940.68
530.94	37291.76
531.11	37017.91
531.28	37181.75
531.46	37343.25
531.63	37251.97
531.80	37418.14
531.97	37764.54
532.14	37638.15
532.31	37439.21
532.48	37626.45
532.65	38000.94
532.82	37846.46
532.99	38075.84
533.16	37769.22
533.33	38024.34
533.50	38288.82
533.67	37858.17
533.84	37785.61
534.01	38553.30
534.18	38197.54
534.35	38494.79
534.52	38225.63
534.69	38806.08
534.86	38799.06
535.03	38548.62
535.20	38866.94
535.37	38403.51
535.54	38712.46
535.71	38848.21
535.88	38588.41
536.05	39150.14
536.22	39351.43
536.38	39054.18
536.55	38904.38
536.72	38773.31
536.89	39012.05
537.06	39138.44
537.23	39461.43
537.40	39194.61
537.57	38902.04
537.74	39367.81
537.91	39372.49
538.08	39639.31
538.25	39241.42
538.42	39550.37
538.59	39728.25
538.75	39522.29
538.92	39374.83
539.09	40229.13
539.26	39903.79
539.43	39976.35
539.60	39742.30
539.77	39856.98
539.94	40051.25
540.11	40292.32
540.28	39728.25
540.44	40177.64
540.61	39988.05
540.78	39924.86
540.95	40236.15
541.12	39915.50
541.29	40084.01
541.46	40245.51
541.62	40135.51
541.79	40706.60
541.96	40121.46
542.13	40343.81
542.30	40479.57
542.47	40797.88
542.63	40685.53
542.80	40708.94
542.97	41188.75
543.14	41160.66
543.31	41434.50
543.48	41081.08
543.64	41425.14
543.81	41298.75
543.98	40966.40
544.15	40996.82
544.32	41371.31
544.48	41659.20
544.65	41921.34
544.82	41783.24
544.99	41500.04
545.16	41488.34
545.32	41626.43
545.49	41956.44
545.66	41993.89
545.83	41759.84
546.00	42017.30
546.16	41991.55
546.33	41525.78
546.50	41720.05
546.67	42241.99
546.83	41490.68
547.00	42204.54
547.17	41778.56
547.34	42305.18
547.50	42522.85
547.67	42307.52
547.84	42328.59
548.00	42572.00
548.17	42513.49
548.34	42384.76
548.51	42932.45
548.67	42639.88
548.84	42588.39
549.01	42595.41
549.18	42155.39
549.34	42459.66
549.51	42684.35
549.68	42876.27
549.84	42443.27
550.01	42806.06
550.18	42309.86
550.34	42581.37
550.51	43117.35
550.68	42714.78
550.84	42387.10
551.01	42983.94
551.18	42550.94
551.34	42792.01
551.51	42859.89
551.68	43281.19
551.84	42911.38
552.01	42932.45
552.18	43119.69
552.34	43124.37
552.51	43433.32
552.68	43217.99
552.84	43096.28
553.01	43402.89
553.18	43484.81
553.34	43463.75
553.51	43112.67
553.67	43201.61
553.84	43709.50
554.01	43622.90
554.17	43695.46
554.34	44051.22
554.51	43665.03
554.67	43903.77
554.84	44247.83
555.00	43934.20
555.17	43777.38
555.33	43901.43
555.50	44044.20
555.67	44004.41
555.83	44243.15
556.00	44062.93
556.16	44119.10
556.33	44006.75
556.50	43920.15
556.66	44032.50
556.83	43849.94
556.99	44296.98
557.16	44657.42
557.32	44561.46
557.49	44238.47
557.65	44329.75
557.82	44034.84
557.98	44191.65
558.15	44751.04
558.32	44346.13
558.48	44477.20
558.65	44664.44
558.81	44823.60
558.98	44147.18
559.14	44570.82
559.31	44444.43
559.47	44275.91
559.64	44402.30
559.80	44795.51
559.97	45050.63
560.13	44549.76
560.30	44538.05
560.46	44540.39
560.63	44910.20
560.79	44935.95
560.96	45380.65
561.12	44959.35
561.29	45191.06
561.45	45184.04
561.61	45038.93
561.78	45172.34
561.94	44540.39
562.11	44919.56
562.27	45130.21
562.44	45062.33
562.60	45158.30
562.77	44940.63
562.93	44816.58
563.10	45464.91
563.26	45338.52
563.42	45605.34
563.59	45059.99
563.75	45162.98
563.92	44847.00
564.08	45123.19
564.24	45343.20
564.41	45193.40
564.57	45249.58
564.74	45209.79
564.90	45116.17
565.07	45322.13
565.23	45518.74
565.39	45504.70
565.56	45834.71
565.72	45050.63
565.88	45516.40
566.05	45495.33
566.21	45425.12
566.38	45490.65
566.54	46150.68
566.70	45815.99
566.87	45359.58
567.03	45631.08
567.19	45886.20
567.36	45638.11
567.52	45738.75
567.68	46050.04
567.85	45745.77
568.01	45918.97
568.17	45879.18
568.34	46143.66
568.50	45748.11
568.66	45399.37
568.83	45698.96
568.99	45815.99
569.15	45560.87
569.32	45640.45
569.48	45755.13
569.64	46033.66
569.81	45769.18
569.97	46246.65
570.13	45970.46
570.30	45432.14
570.46	45879.18
570.62	45860.46
570.78	45904.93
570.95	46094.51
571.11	46167.07
571.27	45811.31
571.43	45815.99
571.60	45933.01
571.76	45853.44
571.92	45474.27
572.09	45902.59
572.25	45467.25
572.41	45879.18
572.57	45649.81
572.74	46494.74
572.90	45855.78
573.06	46005.57
573.22	46204.52
573.38	46700.71
573.55	46349.63
573.71	46342.61
573.87	46026.63
574.03	46373.03
574.20	46354.31
574.36	46415.16
574.52	46054.72
574.68	46632.83
574.84	46239.62
575.01	46384.74
575.17	46658.58
575.33	46188.13
575.49	46480.70
575.65	46405.80
575.82	46333.24
575.98	46026.63
576.14	46422.19
576.30	46073.45
576.46	46396.44
576.62	46281.75
576.79	46490.06
576.95	46014.93
577.11	46167.07
577.27	46433.89
577.43	46267.71
577.59	46064.08
577.75	45827.69
577.92	45954.08
578.08	46351.97
578.24	46108.55
578.40	46576.66
578.56	46302.82
578.72	46595.38
578.88	46314.52
579.04	46363.67
579.21	46691.35
579.37	46316.86
579.53	46614.11
579.69	46380.06
579.85	46754.54
580.01	46518.15
580.17	46174.09
580.33	46466.66
580.49	46700.71
580.65	46141.32
580.82	46344.95
580.98	45996.21
581.14	46349.63
581.30	46616.45
581.46	46689.01
581.62	46052.38
581.78	46209.20
581.94	46452.61
582.10	46358.99
582.26	46501.76
582.42	46590.70
582.58	46969.87
582.74	46820.08
582.90	46417.50
583.06	46604.75
583.22	46230.26
583.38	46452.61
583.54	46794.33
583.70	46838.80
583.86	46782.63
584.02	46227.92
584.18	46562.62
584.34	46925.40
584.50	46864.55
584.66	46253.67
584.82	46794.33
584.98	46955.83
585.14	46653.90
585.30	46176.43
585.46	46424.53
585.62	46335.59
585.78	46614.11
585.94	46410.48
586.10	46295.80
586.26	46492.40
586.42	46625.81
586.58	46499.42
586.74	46347.29
586.90	46904.34
587.06	46660.92
587.22	46726.46
587.38	46679.64
587.54	46796.67
587.70	47175.84
587.86	46815.40
588.02	46602.41
588.18	46609.43
588.34	46944.12
588.49	47157.11
588.65	46983.91
588.81	46579.00
588.97	46925.40
589.13	46906.68
589.29	46602.41
589.45	47075.19
589.61	46838.80
589.77	46824.76
589.93	46852.84
590.08	46852.84
