SpectraSuite Data File
++++++++++++++++++++++++++++++++++++
Date: Fri Oct 25 11:25:41 EDT 2013
User: price-jones
Dark Spectrum Present: No
Reference Spectrum Present: No
Number of Sampled Component Spectra: 1
Spectrometers: USB2+H05261
Integration Time (usec): 100000 (USB2+H05261)
Spectra Averaged: 1 (USB2+H05261)
Boxcar Smoothing: 0 (USB2+H05261)
Correct for Electrical Dark: No (USB2+H05261)
Strobe/Lamp Enabled: No (USB2+H05261)
Correct for Detector Non-linearity: No (USB2+H05261)
Correct for Stray Light: No (USB2+H05261)
Number of Pixels in Processed Spectrum: 2048
>>>>>Begin Processed Spectral Data<<<<<
365.73	220.01
365.92	220.01
366.12	220.01
366.32	117.03
366.52	107.66
366.72	60.85
366.91	140.43
367.11	138.09
367.31	133.41
367.51	114.69
367.70	135.75
367.90	124.05
368.10	154.48
368.30	126.39
368.49	117.03
368.69	98.30
368.89	201.29
369.09	163.84
369.28	201.29
369.48	212.99
369.68	177.88
369.87	236.39
370.07	198.95
370.27	238.73
370.47	355.76
370.66	587.47
370.86	634.29
371.06	617.90
371.25	753.65
371.45	645.99
371.65	648.33
371.84	641.31
372.04	676.41
372.24	706.84
372.44	713.86
372.63	657.69
372.83	720.88
373.03	676.41
373.22	741.95
373.42	744.29
373.62	767.70
373.81	788.76
374.01	805.14
374.21	767.70
374.40	725.57
374.60	901.11
374.79	805.14
374.99	830.89
375.19	823.87
375.38	910.47
375.58	866.00
375.78	880.04
375.97	835.57
376.17	863.66
376.37	926.85
376.56	814.51
376.76	833.23
376.95	819.19
377.15	915.15
377.35	915.15
377.54	856.64
377.74	868.34
377.93	875.36
378.13	922.17
378.33	1001.75
378.52	938.55
378.72	1020.47
378.91	1013.45
379.11	1022.81
379.31	896.43
379.50	1018.13
379.70	966.64
379.89	912.81
380.09	926.85
380.28	1011.11
380.48	917.49
380.68	1001.75
380.87	973.66
381.07	957.28
381.26	1060.26
381.46	938.55
381.65	1046.22
381.85	1001.75
382.04	952.60
382.24	1022.81
382.43	1053.24
382.63	1036.86
382.83	1006.43
383.02	1139.84
383.22	1078.99
383.41	1139.84
383.61	1069.62
383.80	1093.03
384.00	1153.88
384.19	1001.75
384.39	1135.16
384.58	1057.92
384.78	1109.41
384.97	1188.99
385.17	1135.16
385.36	1086.01
385.56	1121.12
385.75	1193.67
385.95	1174.95
386.14	1153.88
386.34	1219.42
386.53	1219.42
386.72	1231.12
386.92	1156.22
387.11	1334.11
387.31	1336.45
387.50	1226.44
387.70	1226.44
387.89	1277.93
388.09	1254.53
388.28	1270.91
388.48	1261.55
388.67	1277.93
388.86	1348.15
389.06	1217.08
389.25	1308.36
389.45	1352.83
389.64	1310.70
389.84	1338.79
390.03	1453.47
390.22	1327.08
390.42	1378.58
390.61	1294.32
390.81	1242.82
391.00	1336.45
391.19	1521.35
391.39	1362.19
391.58	1455.81
391.78	1488.58
391.97	1509.65
392.16	1446.45
392.36	1537.73
392.55	1474.54
392.75	1591.56
392.94	1514.33
393.13	1544.75
393.33	1556.46
393.52	1593.90
393.71	1586.88
393.91	1565.82
394.10	1455.81
394.29	1614.97
394.49	1643.06
394.68	1713.27
394.88	1570.50
395.07	1724.97
395.26	1694.55
395.46	1703.91
395.65	1755.40
395.84	1741.36
396.04	1739.02
396.23	1706.25
396.42	1746.04
396.62	1666.46
396.81	1748.38
397.00	1806.89
397.19	1781.15
397.39	1753.06
397.58	1858.39
397.77	1816.26
397.97	1825.62
398.16	1830.30
398.35	1898.17
398.55	1849.02
398.74	1963.71
398.93	1774.13
399.12	1926.26
399.32	1942.64
399.51	1940.30
399.70	1944.99
399.90	1989.46
400.09	1977.75
400.28	2010.52
400.47	1996.48
400.67	1980.09
400.86	2101.80
401.05	2092.44
401.24	2080.74
401.44	2099.46
401.63	2181.38
401.82	2207.13
402.01	2195.42
402.21	2207.13
402.40	2317.13
402.59	2242.23
402.78	2225.85
402.97	2197.76
403.17	2244.57
403.36	2300.75
403.55	2373.30
403.74	2392.03
403.93	2352.24
404.13	2389.69
404.32	2331.17
404.51	2352.24
404.70	2331.17
404.89	2263.30
405.09	2370.96
405.28	2516.08
405.47	2483.31
405.66	2401.39
405.85	2373.30
406.05	2495.01
406.24	2471.61
406.43	2548.84
406.62	2600.34
406.81	2726.72
407.00	2558.21
407.20	2609.70
407.39	2663.53
407.58	2743.11
407.77	2759.49
407.96	2745.45
408.15	2679.91
408.34	2658.85
408.54	2743.11
408.73	2853.11
408.92	2731.41
409.11	2806.30
409.30	2935.03
409.49	2949.08
409.68	2803.96
409.87	2803.96
410.07	2815.66
410.26	2977.16
410.45	2967.80
410.64	2970.14
410.83	3110.57
411.02	3054.40
411.21	3045.04
411.40	3105.89
411.59	3199.51
411.78	3094.19
411.98	3162.06
412.17	3251.00
412.36	3267.39
412.55	3286.11
412.74	3375.05
412.93	3478.04
413.12	3297.81
413.31	3522.51
413.50	3412.50
413.69	3428.88
413.88	3552.93
414.07	3529.53
414.26	3726.13
414.45	3672.30
414.64	3513.14
414.83	3674.64
415.02	3681.66
415.22	3768.26
415.41	3911.04
415.60	3875.93
415.79	3918.06
415.98	4028.06
416.17	3927.42
416.36	3962.53
416.55	4053.81
416.74	4102.96
416.93	3871.25
417.12	4102.96
417.31	4088.92
417.50	4100.62
417.69	4348.72
417.88	4250.41
418.07	4149.77
418.26	4402.55
418.45	4219.99
418.64	4409.57
418.83	4435.32
419.02	4383.82
419.21	4505.53
419.39	4582.77
419.58	4451.70
419.77	4545.32
419.96	4538.30
420.15	4664.69
420.34	4472.76
420.53	4641.28
420.72	4585.11
420.91	4683.41
421.10	4800.44
421.29	4734.90
421.48	4648.30
421.67	4786.40
421.86	4835.55
422.05	4709.16
422.24	4957.25
422.43	4821.50
422.61	4898.74
422.80	4856.61
422.99	4912.78
423.18	4873.00
423.37	5064.92
423.56	4877.68
423.75	4809.80
423.94	4788.74
424.13	4690.43
424.32	4762.99
424.50	4809.80
424.69	4929.17
424.88	5069.60
425.07	4873.00
425.26	4863.63
425.45	4938.53
425.64	4947.89
425.83	5015.77
426.01	5029.81
426.20	4896.40
426.39	4950.23
426.58	4957.25
426.77	5015.77
426.96	5172.58
427.15	5088.32
427.33	5027.47
427.52	5128.11
427.71	5235.78
427.90	5165.56
428.09	5287.27
428.28	5282.59
428.46	5205.35
428.65	5214.71
428.84	5458.13
429.03	5383.23
429.22	5305.99
429.40	5640.69
429.59	5537.71
429.78	5350.46
429.97	5301.31
430.16	5416.00
430.34	5542.39
430.53	5544.73
430.72	5612.60
430.91	5514.30
431.10	5633.67
431.28	5542.39
431.47	5792.83
431.66	5802.19
431.85	5797.51
432.03	5935.60
432.22	5872.40
432.41	5816.23
432.60	5912.19
432.79	5865.38
432.97	5860.70
433.16	6026.88
433.35	5762.40
433.54	6015.18
433.72	6024.54
433.91	6179.01
434.10	6246.89
434.28	6015.18
434.47	6127.52
434.66	6277.32
434.85	6279.66
435.03	6289.02
435.22	6136.88
435.41	6441.15
435.59	6457.54
435.78	6511.37
435.97	6319.45
436.16	6230.51
436.34	6541.80
436.53	6537.12
436.72	6445.84
436.90	6497.33
437.09	6511.37
437.28	6382.64
437.46	6621.38
437.65	6574.56
437.84	6672.87
438.02	6813.30
438.21	6726.70
438.40	6745.42
438.58	6834.36
438.77	6878.83
438.96	6967.77
439.14	7012.24
439.33	7145.66
439.52	7063.74
439.70	7098.84
439.89	7330.56
440.08	7201.83
440.26	7246.30
440.45	7330.56
440.63	7459.29
440.82	7564.61
441.01	7517.80
441.19	7611.42
441.38	7655.89
441.57	7625.47
441.75	7595.04
441.94	7922.71
442.12	8051.44
442.31	8105.28
442.50	7967.18
442.68	8107.62
442.87	7957.82
443.05	8037.40
443.24	8044.42
443.43	8091.23
443.61	8091.23
443.80	8397.84
443.98	7927.39
444.17	7953.14
444.35	8077.19
444.54	8290.18
444.73	8318.26
444.91	8304.22
445.10	8376.78
445.28	8348.69
445.47	8180.17
445.65	8234.00
445.84	8564.02
446.02	8449.33
446.21	8355.71
446.39	8479.76
446.58	8561.68
446.77	8444.65
446.95	8336.99
447.14	8351.03
447.32	8365.07
447.51	8421.25
447.69	8454.02
447.88	8514.87
448.06	8402.52
448.25	8606.15
448.43	8674.03
448.62	8468.06
448.80	8383.80
448.99	8521.89
449.17	8573.38
449.36	8568.70
449.54	8690.41
449.73	8809.78
449.91	9100.00
450.10	8961.91
450.28	9015.74
450.46	8980.64
450.65	8910.42
450.83	9118.73
451.02	9085.96
451.20	9078.94
451.39	9121.07
451.57	8835.52
451.76	8898.72
451.94	9137.45
452.13	9376.19
452.31	9242.78
452.49	9305.97
452.68	9310.65
452.86	9228.73
453.05	9474.49
453.23	9542.36
453.42	9535.34
453.60	9327.03
453.78	9514.28
453.97	9467.47
454.15	9408.95
454.34	9448.74
454.52	9877.06
454.70	9633.64
454.89	9444.06
455.07	9675.77
455.26	9881.74
455.44	9926.21
455.62	9884.08
455.81	9830.25
455.99	9942.60
456.17	10029.20
456.36	10139.20
456.54	10061.96
456.73	10214.10
456.91	10471.56
457.09	10307.72
457.28	10321.76
457.46	10197.71
457.64	10544.11
457.83	10469.22
458.01	10377.94
458.19	10469.22
458.38	10455.17
458.56	10719.65
458.74	10665.82
458.93	10368.57
459.11	10712.63
459.29	10656.46
459.48	10677.52
459.66	10750.08
459.84	10881.15
460.03	10998.18
460.21	10881.15
460.39	10913.92
460.57	11040.31
460.76	10909.24
460.94	11105.84
461.12	11255.64
461.31	11176.06
461.49	11066.05
461.67	11145.63
461.85	11431.18
462.04	11248.61
462.22	11747.15
462.40	11559.91
462.59	11330.53
462.77	11524.80
462.95	11421.81
463.13	11623.10
463.32	11616.08
463.50	11669.91
463.68	11744.81
463.86	11873.54
464.05	11707.36
464.23	11683.95
464.41	11698.00
464.59	11573.95
464.78	12238.66
464.96	12028.01
465.14	11833.75
465.32	12088.87
465.50	12156.74
465.69	11978.86
465.87	12123.98
466.05	11889.92
466.23	12346.33
466.41	12198.87
466.60	12236.32
466.78	12128.66
466.96	12135.68
467.14	12444.63
467.32	12381.43
467.51	12269.09
467.69	12156.74
467.87	12374.41
468.05	12461.01
468.23	12252.70
468.41	12339.30
468.60	12571.02
468.78	12664.64
468.96	12634.21
469.14	12561.66
469.32	13076.57
469.50	12751.24
469.69	13172.54
469.87	13015.72
470.05	13090.62
470.23	13263.82
470.41	13102.32
470.59	13399.57
470.77	13088.28
470.95	13359.78
471.14	13327.01
471.32	13060.19
471.50	13429.99
471.68	13575.11
471.86	13774.05
472.04	13717.88
472.22	13755.33
472.40	13734.26
472.58	13692.13
472.77	13762.35
472.95	14157.90
473.13	14532.39
473.31	14164.92
473.49	14052.58
473.67	14057.26
473.85	14064.28
474.03	14553.45
474.21	14307.69
474.39	14551.11
474.57	14869.42
474.75	14970.07
474.93	14834.32
475.12	14796.87
475.30	15016.88
475.48	15138.58
475.66	15136.24
475.84	15138.58
476.02	15260.29
476.20	15400.72
476.38	15789.25
476.56	15707.34
476.74	16013.95
476.92	15742.44
477.10	15611.37
477.28	15960.11
477.46	16046.71
477.64	16365.03
477.82	16580.36
478.00	16823.77
478.18	16720.79
478.36	16655.25
478.54	17011.01
478.72	16882.28
478.90	17207.62
479.08	17621.89
479.26	17544.66
479.44	17635.94
479.62	17675.73
479.80	18047.87
479.98	17912.12
480.16	18515.98
480.34	18427.04
480.52	18480.87
480.70	18654.07
480.88	18520.66
481.06	18651.73
481.24	18808.54
481.41	18916.21
481.59	19073.03
481.77	19407.72
481.95	19344.53
482.13	19655.82
482.31	19772.85
482.49	20233.93
482.67	20023.28
482.85	20013.92
483.03	20482.03
483.21	20751.19
483.39	20971.20
483.57	20465.64
483.74	20713.74
483.92	21050.78
484.10	20954.82
484.28	21727.19
484.46	22146.15
484.64	22218.71
484.82	21598.46
485.00	22228.07
485.18	22527.66
485.35	22810.86
485.53	22712.56
485.71	22827.24
485.89	23384.29
486.07	23075.34
486.25	22930.23
486.43	23644.09
486.61	23875.80
486.78	24119.22
486.96	24423.49
487.14	24353.27
487.32	24526.47
487.50	24912.66
487.68	24907.98
487.85	25046.07
488.03	25434.60
488.21	25722.49
488.39	25708.44
488.57	25986.97
488.75	25961.22
488.92	26506.57
489.10	26302.94
489.28	26696.15
489.46	27023.83
489.64	27192.34
489.81	27260.22
489.99	27620.66
490.17	27927.27
490.35	28009.19
490.53	27913.23
490.70	28013.87
490.88	28238.56
491.06	28503.04
491.24	28706.67
491.41	28809.65
491.59	29266.06
491.77	29565.65
491.95	29722.46
492.13	29450.96
492.30	29575.01
492.48	30008.01
492.66	30022.05
492.84	30267.81
493.01	30771.02
493.19	30560.37
493.37	30785.07
493.54	31070.61
493.72	31136.15
493.90	31213.38
494.08	31292.96
494.25	32116.83
494.43	31955.33
494.61	32163.64
494.79	32229.18
494.96	32390.67
495.14	32507.70
495.32	32893.89
495.49	33186.46
495.67	33326.89
495.85	33469.66
496.02	33184.12
496.20	33977.56
496.38	33783.29
496.55	33771.59
496.73	34536.94
496.91	34389.49
497.09	34295.87
497.26	34960.58
497.44	34803.77
497.62	35262.51
497.79	35601.89
497.97	35459.12
498.14	35718.92
498.32	35793.81
498.50	36039.57
498.67	36505.34
498.85	36341.50
499.03	36659.81
499.20	36491.29
499.38	36297.03
499.56	36699.60
499.73	36811.95
499.91	37048.34
500.08	37174.73
500.26	37280.05
500.44	37298.78
500.61	37687.31
500.79	37448.57
500.97	37539.85
501.14	38139.03
501.32	38340.32
501.49	38384.79
501.67	38349.68
501.84	38843.53
502.02	38609.48
502.20	39332.70
502.37	38878.64
502.55	39262.49
502.72	39243.76
502.90	39456.75
503.07	39019.07
503.25	39552.71
503.43	39423.98
503.60	39768.04
503.78	39875.71
503.95	40039.54
504.13	40376.58
504.30	40486.59
504.48	40425.73
504.65	40575.53
504.83	40711.28
505.01	41003.85
505.18	41045.97
505.36	41647.49
505.53	40989.80
505.71	41263.64
505.88	41764.52
506.06	41769.20
506.23	42038.36
506.41	41764.52
506.58	42005.59
506.76	42131.98
506.93	42412.85
507.11	42131.98
507.28	41839.42
507.46	42174.11
507.63	42614.13
507.81	42873.93
507.98	42658.60
508.16	42733.50
508.33	43026.07
508.50	43456.73
508.68	43681.42
508.85	43735.25
509.03	43756.32
509.20	43746.95
509.38	43997.39
509.55	44718.28
509.73	44238.47
509.90	44589.55
510.08	44121.44
510.25	44098.03
510.42	44762.75
510.60	44636.36
510.77	45272.98
510.95	45492.99
511.12	44774.45
511.30	45069.36
511.47	45125.53
511.64	45078.72
511.82	45631.08
511.99	45296.39
512.17	45771.52
512.34	45404.05
512.51	46485.38
512.69	46146.00
512.86	46136.64
513.04	46326.22
513.21	46653.90
513.38	46520.49
513.56	46471.34
513.73	46782.63
513.90	46946.47
514.08	46948.81
514.25	46859.87
514.43	46976.89
514.60	47304.57
514.77	47217.97
514.95	47709.48
515.12	47276.48
515.29	47655.65
515.47	47426.28
515.64	47700.12
515.81	47779.70
515.99	48243.12
516.16	47915.45
516.33	47896.72
516.51	48381.21
516.68	48311.00
516.85	48339.08
517.03	48575.48
517.20	48327.38
517.37	48781.45
517.54	48671.44
517.72	48858.68
517.89	48463.13
518.06	49324.45
518.24	48809.53
518.41	48912.52
518.58	49326.79
518.75	49074.01
518.93	49432.11
519.10	49219.13
519.27	49495.31
519.45	49553.82
519.62	49425.09
519.79	49720.00
519.96	49647.44
520.14	50110.87
520.31	49682.55
520.48	50237.26
520.65	49862.77
520.83	50380.03
521.00	50232.58
521.17	50321.52
521.34	50354.29
521.52	50707.71
521.69	50705.37
521.86	51016.66
522.03	50969.85
522.20	51206.24
522.38	51281.14
522.55	51058.79
522.72	51208.58
522.89	51047.08
523.07	51164.11
523.24	51260.07
523.41	51515.19
523.58	51302.20
523.75	51435.61
523.92	51643.92
524.10	51784.35
524.27	52168.20
524.44	51796.06
524.61	51969.26
524.78	52296.93
524.96	52112.03
525.13	52140.11
525.30	52105.01
525.47	52605.88
525.64	51992.66
525.81	52236.08
525.98	52697.16
526.16	52315.65
526.33	52449.06
526.50	53095.05
526.67	52811.85
526.84	53001.43
527.01	52701.84
527.18	52643.33
527.36	52952.28
527.53	52601.20
527.70	53186.33
527.87	53188.67
528.04	53113.78
528.21	53139.52
528.38	53394.64
528.55	53118.46
528.72	53371.24
528.89	53366.55
529.07	53310.38
529.24	53261.23
529.41	53432.09
529.58	53790.19
529.75	53357.19
529.92	53546.78
530.09	53752.74
530.26	53757.42
530.43	53722.32
530.60	53549.12
530.77	53790.19
530.94	53965.73
531.11	53867.43
531.28	54012.54
531.46	54038.29
531.63	54045.31
531.80	54117.87
531.97	54347.24
532.14	54522.78
532.31	54267.66
532.48	54377.67
532.65	54585.97
532.82	54408.09
532.99	54356.60
533.16	54419.80
533.33	54813.01
533.50	54908.97
533.67	54955.78
533.84	54497.03
534.01	54815.35
534.18	54677.25
534.35	55056.42
534.52	54644.49
534.69	54887.90
534.86	55042.38
535.03	54810.67
535.20	55011.95
535.37	55220.26
535.54	55370.05
535.71	54944.08
535.88	55341.97
536.05	55276.43
536.22	55281.11
536.38	55346.65
536.55	55676.66
536.72	55522.19
536.89	55145.36
537.06	55704.75
537.23	55487.08
537.40	55407.50
537.57	55253.03
537.74	55767.94
537.91	55796.03
538.08	55931.78
538.25	55538.57
538.42	55929.44
538.59	56116.68
538.75	55803.05
538.92	55962.21
539.09	56114.34
539.26	55856.88
539.43	55948.17
539.60	56245.41
539.77	56044.13
539.94	56310.95
540.11	56308.61
540.28	56233.71
540.44	56294.56
540.61	56308.61
540.78	56315.63
540.95	56474.79
541.12	56217.33
541.29	56327.33
541.46	56327.33
541.62	56519.26
541.79	56383.51
541.96	56212.65
542.13	56413.93
542.30	56573.09
542.47	56650.33
542.63	56666.71
542.80	56662.03
542.97	56886.72
543.14	56956.94
543.31	57167.58
543.48	57116.09
543.64	57436.75
543.81	57237.80
543.98	57209.71
544.15	57162.90
544.32	57331.42
544.48	57647.39
544.65	57076.30
544.82	57359.51
544.99	57258.87
545.16	57333.76
545.32	57207.37
545.49	57663.78
545.66	57614.63
545.83	57619.31
546.00	57642.71
546.16	57467.17
546.33	57392.28
546.50	57399.30
546.67	57593.56
546.83	57432.07
547.00	57607.61
547.17	57642.71
547.34	57776.12
547.50	57628.67
547.67	57759.74
547.84	57565.48
548.00	58129.54
548.17	58309.77
548.34	58010.18
548.51	58021.88
548.67	57797.19
548.84	58110.82
549.01	57930.60
549.18	57993.79
549.34	58113.16
549.51	58293.38
549.68	58309.77
549.84	58274.66
550.01	58241.89
550.18	58204.44
550.34	58211.46
550.51	58464.24
550.68	58225.51
550.84	57895.49
551.01	58375.30
551.18	58518.07
551.34	58281.68
551.51	58445.52
551.68	58518.07
551.84	58508.71
552.01	58424.45
552.18	58564.88
552.34	58431.47
552.51	58691.27
552.68	58272.32
552.84	58618.72
553.01	58780.21
553.18	58731.06
553.34	58665.53
553.51	58695.95
553.67	58621.06
553.84	58883.20
554.01	59000.22
554.17	58857.45
554.34	58974.48
554.51	58836.39
554.67	59180.45
554.84	58934.69
555.00	58869.15
555.17	58951.07
555.33	58918.31
555.50	59030.65
555.67	58838.73
555.83	58904.26
556.00	59227.26
556.16	59161.72
556.33	59040.01
556.50	59035.33
556.66	59245.98
556.83	59138.32
556.99	59405.14
557.16	59419.18
557.32	59503.44
557.49	59646.21
557.65	59292.79
557.82	59133.63
557.98	59264.70
558.15	59344.28
558.32	59096.19
558.48	59297.47
558.65	59278.75
558.81	59051.72
558.98	59440.24
559.14	59564.29
559.31	59489.40
559.47	59568.97
559.64	59585.36
559.80	59627.49
559.97	59590.04
560.13	59732.81
560.30	59444.93
560.46	59877.93
560.63	59681.32
560.79	59629.83
560.96	59884.95
561.12	59735.15
561.29	59707.07
561.45	59700.04
561.61	59660.26
561.78	59840.48
561.94	59592.38
562.11	59568.97
562.27	59756.22
562.44	59709.41
562.60	59838.14
562.77	59796.01
562.93	59863.88
563.10	59955.16
563.26	59828.77
563.42	59957.50
563.59	59868.56
563.75	59868.56
563.92	59873.24
564.08	59753.88
564.24	59941.12
564.41	60081.55
564.57	59936.44
564.74	59854.52
564.90	60154.11
565.07	59859.20
565.23	59945.80
565.39	59999.63
565.56	60236.03
565.72	60095.60
565.88	60023.04
566.05	60189.22
566.21	60114.32
566.38	60163.47
566.54	60266.45
566.70	60198.58
566.87	60151.77
567.03	60140.07
567.19	60350.71
567.36	60079.21
567.52	60142.41
567.68	60486.46
567.85	60104.96
568.01	60287.52
568.17	60200.92
568.34	60399.86
568.50	60200.92
568.66	60439.65
568.83	60493.49
568.99	60296.88
569.15	60334.33
569.32	60329.65
569.48	60322.63
569.64	60369.44
569.81	60331.99
569.97	60243.05
570.13	60451.36
570.30	60273.48
570.46	60474.76
570.62	60140.07
570.78	60238.37
570.95	60285.18
571.11	60542.64
571.27	60259.43
571.43	60207.94
571.60	60425.61
571.76	60509.87
571.92	60582.43
572.09	60589.45
572.25	60355.39
572.41	60427.95
572.57	60521.57
572.74	60704.13
572.90	60460.72
573.06	60498.17
573.22	60453.70
573.38	60563.70
573.55	60554.34
573.71	60734.56
573.87	60577.75
574.03	60629.24
574.20	60474.76
574.36	60460.72
574.52	60608.17
574.68	60638.60
574.84	60671.37
575.01	60783.71
575.17	60580.09
575.33	60488.80
575.49	60549.66
575.65	60608.17
575.82	60610.51
575.98	60610.51
576.14	60786.05
576.30	60741.58
576.46	60530.93
576.62	60889.04
576.79	60779.03
576.95	60772.01
577.11	60666.69
577.27	60654.98
577.43	60863.29
577.59	60505.19
577.75	60521.57
577.92	60633.92
578.08	60580.09
578.24	60825.84
578.40	60947.55
578.56	60870.31
578.72	60413.91
578.88	60896.06
579.04	61263.52
579.21	60912.44
579.37	60741.58
579.53	60851.59
579.69	60622.22
579.85	60750.94
580.01	60781.37
580.17	60608.17
580.33	60821.16
580.49	60907.76
580.65	60926.49
580.82	60722.86
580.98	60669.03
581.14	60711.16
581.30	60839.89
581.46	60842.23
581.62	60809.46
581.78	60657.32
581.94	60877.33
582.10	60638.60
582.26	60781.37
582.42	60767.33
582.58	60809.46
582.74	60629.24
582.90	60739.24
583.06	60877.33
583.22	60720.52
583.38	60720.52
583.54	61010.74
583.70	60863.29
583.86	60966.27
584.02	60734.56
584.18	60741.58
584.34	60977.98
584.50	60814.14
584.66	60811.80
584.82	60601.15
584.98	61020.11
585.14	61153.52
585.30	60680.73
585.46	60879.67
585.62	60907.76
585.78	60945.21
585.94	60729.88
586.10	60722.86
586.26	60954.57
586.42	61174.58
586.58	60968.61
586.74	60996.70
586.90	60912.44
587.06	60846.91
587.22	61095.00
587.38	60867.97
587.54	61120.75
587.70	61216.71
587.86	60811.80
588.02	60867.97
588.18	61083.30
588.34	60779.03
588.49	60910.10
