SpectraSuite Data File
++++++++++++++++++++++++++++++++++++
Date: Fri Oct 25 10:44:53 EDT 2013
User: price-jones
Dark Spectrum Present: No
Reference Spectrum Present: No
Number of Sampled Component Spectra: 1
Spectrometers: USB2+H05261
Integration Time (usec): 100000 (USB2+H05261)
Spectra Averaged: 1 (USB2+H05261)
Boxcar Smoothing: 0 (USB2+H05261)
Correct for Electrical Dark: No (USB2+H05261)
Strobe/Lamp Enabled: No (USB2+H05261)
Correct for Detector Non-linearity: No (USB2+H05261)
Correct for Stray Light: No (USB2+H05261)
Number of Pixels in Processed Spectrum: 2048
>>>>>Begin Processed Spectral Data<<<<<
365.73	168.52
365.92	168.52
366.12	168.52
366.32	42.13
366.52	58.51
366.72	65.54
366.91	49.15
367.11	30.43
367.31	0.00
367.51	53.83
367.70	56.17
367.90	37.45
368.10	79.58
368.30	70.22
368.49	37.45
368.69	86.60
368.89	39.79
369.09	0.00
369.28	93.62
369.48	49.15
369.68	63.19
369.87	49.15
370.07	124.05
370.27	161.50
370.47	170.86
370.66	308.95
370.86	449.38
371.06	433.00
371.25	449.38
371.45	400.23
371.65	491.51
371.84	418.96
372.04	442.36
372.24	404.91
372.44	423.64
372.63	554.71
372.83	456.40
373.03	514.92
373.22	507.90
373.42	491.51
373.62	500.87
373.81	547.69
374.01	526.62
374.21	559.39
374.40	528.96
374.60	629.60
374.79	496.19
374.99	624.92
375.19	557.05
375.38	622.58
375.58	596.84
375.78	571.09
375.97	547.69
376.17	571.09
376.37	624.92
376.56	533.64
376.76	535.98
376.95	566.41
377.15	629.60
377.35	681.10
377.54	662.37
377.74	580.45
377.93	669.39
378.13	552.37
378.33	596.84
378.52	627.26
378.72	587.47
378.91	669.39
379.11	641.31
379.31	655.35
379.50	519.60
379.70	608.54
379.89	585.13
380.09	613.22
380.28	606.20
380.48	685.78
380.68	671.73
380.87	543.00
381.07	718.54
381.26	697.48
381.46	629.60
381.65	704.50
381.85	599.18
382.04	660.03
382.24	678.76
382.43	615.56
382.63	575.77
382.83	634.29
383.02	678.76
383.22	662.37
383.41	683.44
383.61	734.93
383.80	727.91
384.00	718.54
384.19	634.29
384.39	723.23
384.58	732.59
384.78	739.61
384.97	695.14
385.17	748.97
385.36	725.57
385.56	791.10
385.75	779.40
385.95	807.48
386.14	805.14
386.34	847.27
386.53	709.18
386.72	807.48
386.92	741.95
387.11	788.76
387.31	807.48
387.50	805.14
387.70	880.04
387.89	816.85
388.09	781.74
388.28	842.59
388.48	849.61
388.67	828.55
388.86	828.55
389.06	844.93
389.25	814.51
389.45	873.02
389.64	884.72
389.84	976.00
390.03	943.24
390.22	987.71
390.42	905.79
390.61	854.30
390.81	959.62
391.00	952.60
391.19	1027.50
391.39	880.04
391.58	980.68
391.78	957.28
391.97	1008.77
392.16	894.08
392.36	901.11
392.55	987.71
392.75	968.98
392.94	940.90
393.13	968.98
393.33	985.37
393.52	976.00
393.71	976.00
393.91	1046.22
394.10	1001.75
394.29	1025.15
394.49	1027.50
394.68	1083.67
394.88	1160.91
395.07	1078.99
395.26	1102.39
395.46	1097.71
395.65	1090.69
395.84	1083.67
396.04	1125.80
396.23	1118.78
396.42	1090.69
396.62	1090.69
396.81	1109.41
397.00	1130.48
397.19	1137.50
397.39	1252.19
397.58	1238.14
397.77	1207.72
397.97	1233.46
398.16	1261.55
398.35	1261.55
398.55	1341.13
398.74	1172.61
398.93	1306.02
399.12	1249.85
399.32	1301.34
399.51	1284.95
399.70	1343.47
399.90	1343.47
400.09	1320.06
400.28	1373.89
400.47	1406.66
400.67	1390.28
400.86	1411.34
401.05	1483.90
401.24	1439.43
401.44	1504.96
401.63	1561.14
401.82	1516.67
402.01	1446.45
402.21	1495.60
402.40	1591.56
402.59	1495.60
402.78	1621.99
402.97	1568.16
403.17	1542.41
403.36	1626.67
403.55	1600.93
403.74	1675.82
403.93	1526.03
404.13	1614.97
404.32	1626.67
404.51	1722.63
404.70	1682.85
404.89	1647.74
405.09	1748.38
405.28	1682.85
405.47	1729.66
405.66	1715.61
405.85	1753.06
406.05	1710.93
406.24	1757.74
406.43	1846.68
406.62	1823.28
406.81	1963.71
407.00	1832.64
407.20	1717.95
407.39	1856.04
407.58	1963.71
407.77	1893.49
407.96	1856.04
408.15	1928.60
408.34	1879.45
408.54	1994.14
408.73	1944.99
408.92	1994.14
409.11	2115.84
409.30	2054.99
409.49	1907.54
409.68	2022.22
409.87	1994.14
410.07	2127.55
410.26	2052.65
410.45	2176.70
410.64	2197.76
410.83	2193.08
411.02	2160.31
411.21	2242.23
411.40	2298.41
411.59	2307.77
411.78	2284.36
411.98	2312.45
412.17	2333.51
412.36	2448.20
412.55	2485.65
412.74	2485.65
412.93	2424.80
413.12	2389.69
413.31	2523.10
413.50	2445.86
413.69	2569.91
413.88	2523.10
414.07	2544.16
414.26	2597.99
414.45	2513.74
414.64	2724.38
414.83	2614.38
415.02	2761.83
415.22	2782.90
415.41	2768.85
415.60	2691.62
415.79	2815.66
415.98	2953.76
416.17	2920.99
416.36	2932.69
416.55	2836.73
416.74	2834.39
416.93	2932.69
417.12	2939.71
417.31	2888.22
417.50	2932.69
417.69	3030.99
417.88	3049.72
418.07	3084.83
418.26	3220.58
418.45	3166.74
418.64	3316.54
418.83	3185.47
419.02	3309.52
419.21	3208.87
419.39	3279.09
419.58	3162.06
419.77	3101.21
419.96	3375.05
420.15	3302.50
420.34	3316.54
420.53	3440.59
420.72	3494.42
420.91	3480.38
421.10	3377.39
421.29	3349.31
421.48	3323.56
421.67	3501.44
421.86	3499.10
422.05	3517.83
422.24	3356.33
422.43	3485.06
422.61	3541.23
422.80	3665.28
422.99	3496.76
423.18	3449.95
423.37	3559.95
423.56	3559.95
423.75	3569.32
423.94	3578.68
424.13	3377.39
424.32	3379.73
424.50	3578.68
424.69	3651.24
424.88	3566.98
425.07	3590.38
425.26	3496.76
425.45	3515.48
425.64	3569.32
425.83	3442.93
426.01	3658.26
426.20	3576.34
426.39	3667.62
426.58	3639.53
426.77	3606.77
426.96	3662.94
427.15	3700.39
427.33	3630.17
427.52	3646.55
427.71	3660.60
427.90	3749.54
428.09	3789.33
428.28	3934.44
428.46	3744.86
428.65	3653.58
428.84	3843.16
429.03	3920.40
429.22	3775.28
429.40	3709.75
429.59	3946.14
429.78	3641.87
429.97	3611.45
430.16	3740.18
430.34	3836.14
430.53	3796.35
430.72	3894.65
430.91	3983.59
431.10	3824.44
431.28	4070.19
431.47	4072.53
431.66	4259.78
431.85	4098.28
432.03	4231.69
432.22	4250.41
432.41	4219.99
432.60	4208.28
432.79	4210.62
432.97	4325.31
433.16	4177.86
433.35	4243.39
433.54	4109.98
433.72	4016.36
433.91	4325.31
434.10	4461.06
434.28	4339.35
434.47	4311.27
434.66	4411.91
434.85	4425.95
435.03	4585.11
435.22	4545.32
435.41	4542.98
435.59	4624.90
435.78	4557.02
435.97	4695.11
436.16	4641.28
436.34	4468.08
436.53	4652.98
436.72	4767.67
436.90	4627.24
437.09	4798.10
437.28	4561.70
437.46	4894.06
437.65	4561.70
437.84	4762.99
438.02	4748.95
438.21	4706.82
438.40	4678.73
438.58	4983.00
438.77	4767.67
438.96	4952.57
439.14	5039.17
439.33	5090.67
439.52	5125.77
439.70	4961.94
439.89	5184.29
440.08	5221.74
440.26	5282.59
440.45	5130.45
440.63	5235.78
440.82	5270.89
441.01	5298.97
441.19	5303.65
441.38	5371.53
441.57	5568.13
441.75	5565.79
441.94	5657.07
442.12	5682.82
442.31	5668.78
442.50	5680.48
442.68	5678.14
442.87	5589.20
443.05	5717.93
443.24	5874.74
443.43	5795.17
443.61	5804.53
443.80	5888.79
443.98	5572.82
444.17	5554.09
444.35	5816.23
444.54	5827.93
444.73	5856.02
444.91	5689.84
445.10	5743.67
445.28	5933.26
445.47	5797.51
445.65	5708.57
445.84	5830.27
446.02	5959.00
446.21	5872.40
446.39	5921.56
446.58	5930.92
446.77	5984.75
446.95	5825.59
447.14	6129.86
447.32	5980.07
447.51	6015.18
447.69	5696.86
447.88	6113.48
448.06	5919.21
448.25	6040.92
448.43	5942.62
448.62	6125.18
448.80	5980.07
448.99	6045.60
449.17	6085.39
449.36	6069.01
449.54	6221.14
449.73	6305.40
449.91	6366.26
450.10	6384.98
450.28	6410.73
450.46	6352.21
450.65	6368.60
450.83	6518.39
451.02	6436.47
451.20	6588.61
451.39	6359.24
451.57	6483.28
451.76	6342.85
451.94	6558.18
452.13	6686.91
452.31	6530.09
452.49	6361.58
452.68	6473.92
452.86	6553.50
453.05	6724.36
453.23	6619.04
453.42	6415.41
453.60	6485.62
453.78	6691.59
453.97	6455.20
454.15	6614.35
454.34	6630.74
454.52	6794.58
454.70	6771.17
454.89	6761.81
455.07	6869.47
455.26	6874.15
455.44	6867.13
455.62	7075.44
455.81	6909.26
455.99	7005.22
456.17	7082.46
456.36	6909.26
456.54	7115.23
456.73	7016.93
456.91	7412.48
457.09	7211.19
457.28	7346.94
457.46	7281.41
457.64	7522.48
457.83	7461.63
458.01	7166.72
458.19	7613.76
458.38	7328.22
458.56	7492.05
458.74	7412.48
458.93	7389.07
459.11	7559.93
459.29	7478.01
459.48	7548.23
459.66	7489.71
459.84	7487.37
460.03	7573.97
460.21	7691.00
460.39	7616.10
460.57	7588.02
460.76	7686.32
460.94	7822.07
461.12	7817.39
461.31	7756.54
461.49	7878.24
461.67	7641.85
461.85	7913.35
462.04	7847.82
462.22	8252.73
462.40	8131.02
462.59	7859.52
462.77	8006.97
462.95	8145.06
463.13	8114.64
463.32	8074.85
463.50	8098.25
463.68	8023.36
463.86	8058.46
464.05	8168.47
464.23	8023.36
464.41	8074.85
464.59	7850.16
464.78	8374.44
464.96	8184.85
465.14	8346.35
465.32	8180.17
465.50	8397.84
465.69	8554.66
465.87	8278.47
466.05	8329.97
466.23	8226.98
466.41	8308.90
466.60	8507.85
466.78	8219.96
466.96	8404.86
467.14	8374.44
467.32	8617.85
467.51	8617.85
467.69	8348.69
467.87	8493.80
468.05	8882.33
468.23	8730.20
468.41	8685.73
468.60	8706.79
468.78	8842.54
468.96	8711.47
469.14	8723.18
469.32	8889.35
469.50	8589.77
469.69	9006.38
469.87	8917.44
470.05	9043.83
470.23	9102.34
470.41	9104.68
470.59	9055.53
470.77	9114.05
470.95	9114.05
471.14	9174.90
471.32	9097.66
471.50	9373.85
471.68	9266.18
471.86	9247.46
472.04	9252.14
472.22	9448.74
472.40	9284.91
472.58	9430.02
472.77	9518.96
472.95	9591.52
473.13	10076.01
473.31	9460.45
473.49	9596.20
473.67	9563.43
473.85	9661.73
474.03	9844.29
474.21	10038.56
474.39	10134.52
474.57	10022.17
474.75	10164.95
474.93	10251.55
475.12	10186.01
475.30	10134.52
475.48	10359.21
475.66	10296.02
475.84	10132.18
476.02	10256.23
476.20	10382.62
476.38	10590.92
476.56	10876.47
476.74	11000.52
476.92	10712.63
477.10	10939.66
477.28	10714.97
477.46	10888.17
477.64	11138.61
477.82	11276.70
478.00	11433.52
478.18	11410.11
478.36	11620.76
478.54	11604.38
478.72	11822.05
478.90	11517.78
479.08	11800.98
479.26	11962.48
479.44	12028.01
479.62	12086.53
479.80	12278.45
479.98	12287.81
480.16	12290.15
480.34	12280.79
480.52	12664.64
480.70	12662.30
480.88	12503.14
481.06	12781.67
481.24	12840.18
481.41	12891.67
481.59	13015.72
481.77	13181.90
481.95	13004.02
482.13	13179.56
482.31	13399.57
482.49	13439.36
482.67	13703.84
482.85	13893.42
483.03	13745.97
483.21	13774.05
483.39	14312.38
483.57	14024.49
483.74	14139.18
483.92	14417.70
484.10	14239.82
484.28	14546.43
484.46	14717.29
484.64	14949.00
484.82	14628.35
485.00	14860.06
485.18	14998.15
485.35	15297.74
485.53	15330.51
485.71	15054.33
485.89	15157.31
486.07	15171.35
486.25	15260.29
486.43	15765.85
486.61	15590.31
486.78	15728.40
486.96	16123.95
487.14	16624.83
487.32	15939.05
487.50	16374.39
487.68	16638.87
487.85	16884.62
488.03	17114.00
488.21	17247.41
488.39	17146.76
488.57	17184.21
488.75	17572.74
488.92	17638.28
489.10	17706.15
489.28	17923.82
489.46	17987.02
489.64	18022.12
489.81	18590.88
489.99	18263.20
490.17	18530.02
490.35	18633.00
490.53	18679.82
490.70	18909.19
490.88	18813.23
491.06	19271.97
491.24	19075.37
491.41	19122.18
491.59	19234.52
491.77	19367.93
491.95	19243.88
492.13	19683.91
492.30	20114.56
492.48	19964.77
492.66	20238.61
492.84	20283.08
493.01	20074.77
493.19	20290.10
493.37	20435.22
493.54	20350.96
493.72	20872.90
493.90	20720.76
494.08	21111.63
494.25	21249.72
494.43	21209.93
494.61	21308.24
494.79	21628.89
494.96	21738.90
495.14	21425.26
495.32	21811.45
495.49	21701.45
495.67	21998.70
495.85	22129.77
496.02	22242.11
496.20	22525.32
496.38	22157.85
496.55	22445.74
496.73	23295.35
496.91	22967.68
497.09	22934.91
497.26	23321.10
497.44	23246.20
497.62	23335.14
497.79	23353.87
497.97	23342.16
498.14	23477.91
498.32	23580.90
498.50	23917.93
498.67	24095.82
498.85	23995.17
499.03	24355.61
499.20	24219.86
499.38	24301.78
499.56	24187.10
499.73	24507.75
499.91	24629.46
500.08	24875.21
500.26	24311.14
500.44	24854.15
500.61	24711.38
500.79	24795.64
500.97	24762.87
501.14	25170.12
501.32	25181.82
501.49	24945.43
501.67	25163.10
501.84	25404.17
502.02	25298.85
502.20	25329.28
502.37	25638.23
502.55	25874.62
502.72	25783.34
502.90	25603.12
503.07	25839.51
503.25	26103.99
503.43	26164.85
503.60	25998.67
503.78	26111.02
503.95	26045.48
504.13	26462.10
504.30	26857.65
504.48	26499.55
504.65	26881.05
504.83	27178.30
505.01	26899.78
505.18	26979.36
505.36	27353.84
505.53	27576.19
505.71	27292.99
505.88	27323.41
506.06	27084.68
506.23	27513.00
506.41	27370.22
506.58	27587.89
506.76	27674.49
506.93	27974.08
507.11	27651.09
507.28	27892.16
507.46	27931.95
507.63	28121.54
507.81	28184.73
507.98	28020.89
508.16	28208.14
508.33	28245.58
508.50	28521.77
508.68	28727.74
508.85	28807.31
509.03	28945.41
509.20	28641.14
509.38	28964.13
509.55	29226.27
509.73	28905.62
509.90	29102.22
510.08	29560.97
510.25	29195.84
510.42	29336.27
510.60	29493.09
510.77	29441.60
510.95	30031.41
511.12	29769.27
511.30	29998.65
511.47	30202.27
511.64	30204.61
511.82	30309.94
511.99	29879.28
512.17	30075.88
512.34	29848.85
512.51	30459.73
512.69	30726.55
512.86	30551.01
513.04	30625.91
513.21	30745.28
513.38	30934.86
513.56	30239.72
513.73	30431.65
513.90	31072.95
514.08	30831.88
514.25	30792.09
514.43	31012.10
514.60	31374.88
514.77	31339.77
514.95	31864.05
515.12	31218.07
515.29	31342.11
515.47	31814.90
515.64	31740.00
515.81	31608.93
515.99	31709.58
516.16	31637.02
516.33	31417.01
516.51	31632.34
516.68	31257.85
516.85	31489.57
517.03	31842.99
517.20	31983.42
517.37	32514.72
517.54	32151.94
517.72	32240.88
517.89	32245.56
518.06	31964.70
518.24	31864.05
518.41	32119.17
518.58	32292.37
518.75	32079.38
518.93	32762.82
519.10	32753.46
519.27	32634.09
519.45	32582.60
519.62	33123.26
519.79	33305.82
519.96	33069.43
520.14	33270.72
520.31	33509.45
520.48	33184.12
520.65	33031.98
520.83	33553.92
521.00	33462.64
521.17	33776.27
521.34	33846.49
521.52	33811.38
521.69	34134.37
521.86	33993.94
522.03	34597.80
522.20	34230.33
522.38	34410.56
522.55	34258.42
522.72	34246.72
522.89	34146.08
523.07	34745.25
523.24	33888.62
523.41	34906.75
523.58	34511.20
523.75	34796.74
523.92	34586.10
524.10	34897.39
524.27	35021.44
524.44	35089.31
524.61	35072.93
524.78	35049.52
524.96	35377.20
525.13	35115.06
525.30	35634.66
525.47	35880.41
525.64	35342.09
525.81	35421.67
525.98	35452.09
526.16	35309.32
526.33	35501.25
526.50	35557.42
526.67	35171.23
526.84	35498.91
527.01	35353.79
527.18	35700.19
527.36	36030.21
527.53	36032.55
527.70	36500.65
527.87	36266.60
528.04	36268.94
528.21	36224.47
528.38	36238.51
528.55	36325.11
528.72	36847.05
528.89	36833.01
529.07	36533.42
529.24	36472.57
529.41	36980.46
529.58	36503.00
529.75	36774.50
529.92	36870.46
530.09	36811.95
530.26	36921.95
530.43	36552.15
530.60	37074.09
530.77	37064.72
530.94	36950.04
531.11	37106.85
531.28	37441.55
531.46	37504.74
531.63	37296.44
531.80	37085.79
531.97	37053.02
532.14	37539.85
532.31	37312.82
532.48	37354.95
532.65	37371.33
532.82	37268.35
532.99	37420.48
533.16	37694.33
533.33	37670.92
533.50	37729.44
533.67	37750.50
533.84	37888.59
534.01	38134.35
534.18	37614.75
534.35	37874.55
534.52	37792.63
534.69	37762.20
534.86	38192.86
535.03	37785.61
535.20	38263.08
535.37	38391.81
535.54	38684.37
535.71	38719.48
535.88	38389.47
536.05	38059.45
536.22	38665.65
536.38	38459.68
536.55	38256.06
536.72	38541.60
536.89	38618.84
537.06	38492.45
537.23	38738.21
537.40	38834.17
537.57	38469.04
537.74	38593.09
537.91	38960.56
538.08	39012.05
538.25	39086.95
538.42	38693.74
538.59	39213.34
538.75	38415.21
538.92	38735.87
539.09	39414.62
539.26	39271.85
539.43	39323.34
539.60	38979.28
539.77	39129.08
539.94	39477.82
540.11	39189.93
540.28	39590.16
540.44	39367.81
540.61	39573.78
540.78	39793.79
540.95	39201.63
541.12	39262.49
541.29	39564.42
541.46	39590.16
541.62	39393.56
541.79	40081.67
541.96	39564.42
542.13	39239.08
542.30	39852.30
542.47	40088.70
542.63	40058.27
542.80	40140.19
542.97	40470.20
543.14	40655.11
543.31	40369.56
543.48	40320.41
543.64	41010.87
543.81	40973.42
543.98	40811.92
544.15	40737.02
544.32	41282.37
544.48	40807.24
544.65	40701.92
544.82	40509.99
544.99	40715.96
545.16	40832.99
545.32	41167.68
545.49	41212.15
545.66	41333.86
545.83	41155.98
546.00	41181.73
546.16	40893.84
546.33	40629.36
546.50	40397.65
546.67	40935.97
546.83	40783.83
547.00	40877.46
547.17	40928.95
547.34	41062.36
547.50	41567.91
547.67	41460.25
547.84	41195.77
548.00	41474.29
548.17	41607.70
548.34	41544.51
548.51	41663.88
548.67	41670.90
548.84	41804.31
549.01	41287.05
549.18	41642.81
549.34	42064.11
549.51	41965.81
549.68	42143.69
549.84	41963.46
550.01	42059.43
550.18	41715.37
550.34	42103.90
550.51	41947.08
550.68	41670.90
550.84	41659.20
551.01	41956.44
551.18	41741.11
551.34	41675.58
551.51	42085.17
551.68	42146.03
551.84	42249.01
552.01	41986.87
552.18	42323.91
552.34	41968.15
552.51	42513.49
552.68	42366.04
552.84	42415.19
553.01	42557.96
553.18	42401.14
553.34	42623.50
553.51	42344.97
553.67	42213.90
553.84	42632.86
554.01	42080.49
554.17	42663.28
554.34	42794.36
554.51	42480.72
554.67	42960.53
554.84	42644.56
555.00	42792.01
555.17	42738.18
555.33	43042.45
555.50	42710.10
555.67	42349.65
555.83	42897.34
556.00	42972.24
556.16	43182.88
556.33	43014.37
556.50	42878.61
556.66	43299.91
556.83	42579.03
556.99	43320.98
557.16	43077.56
557.32	43054.15
557.49	42724.14
557.65	42906.70
557.82	43257.78
557.98	43192.25
558.15	43306.93
558.32	43033.09
558.48	42787.33
558.65	42988.62
558.81	43241.40
558.98	43194.59
559.14	42939.47
559.31	42892.66
559.47	43414.60
559.64	43592.48
559.80	43690.78
559.97	43407.58
560.13	43196.93
560.30	42941.81
560.46	43241.40
560.63	43079.90
560.79	44144.84
560.96	43194.59
561.12	43604.18
561.29	43571.41
561.45	43217.99
561.61	43379.49
561.78	43690.78
561.94	43491.83
562.11	43217.99
562.27	43522.26
562.44	43519.92
562.60	43430.98
562.77	43601.84
562.93	43845.26
563.10	44069.95
563.26	43590.14
563.42	43931.86
563.59	43606.52
563.75	43812.49
563.92	43887.39
564.08	44044.20
564.24	43812.49
564.41	43882.70
564.57	43732.91
564.74	43707.16
564.90	44280.60
565.07	43859.30
565.23	44135.48
565.39	43526.94
565.56	43660.35
565.72	43601.84
565.88	44091.01
566.05	43863.98
566.21	43910.79
566.38	43880.36
566.54	43821.85
566.70	43903.77
566.87	44329.75
567.03	43927.17
567.19	44697.21
567.36	44406.98
567.52	43676.74
567.68	44320.38
567.85	43803.13
568.01	44334.43
568.17	43817.17
568.34	44222.08
568.50	44165.91
568.66	43885.04
568.83	44371.88
568.99	43391.19
569.15	44018.46
569.32	43896.75
569.48	43955.26
569.64	44301.66
569.81	44168.25
569.97	44179.95
570.13	44062.93
570.30	43803.13
570.46	43789.08
570.62	44128.46
570.78	44076.97
570.95	44215.06
571.11	43988.03
571.27	44172.93
571.43	44226.76
571.60	44123.78
571.76	43943.56
571.92	44582.52
572.09	44257.19
572.25	44369.54
572.41	44224.42
572.57	44285.28
572.74	44456.14
572.90	44383.58
573.06	44376.56
573.22	44299.32
573.38	44296.98
573.55	44308.68
573.71	44444.43
573.87	44315.70
574.03	44411.67
574.20	44327.41
574.36	43981.01
574.52	44126.12
574.68	44818.92
574.84	44009.09
575.01	44296.98
575.17	44339.11
575.33	43690.78
575.49	43648.65
575.65	44341.45
575.82	44781.47
575.98	44318.04
576.14	44465.50
576.30	44226.76
576.46	43924.83
576.62	44605.93
576.79	44325.07
576.95	44041.86
577.11	44491.24
577.27	44545.08
577.43	44987.44
577.59	44451.45
577.75	44531.03
577.92	43796.10
578.08	44411.67
578.24	44409.32
578.40	44458.48
578.56	44252.51
578.72	44399.96
578.88	44669.12
579.04	44502.95
579.21	44231.44
579.37	44535.71
579.53	44371.88
579.69	44362.51
579.85	43826.53
580.01	44315.70
580.17	44287.62
580.33	44957.01
580.49	44629.34
580.65	44538.05
580.82	44507.63
580.98	44346.13
581.14	44322.72
581.30	44423.37
581.46	44788.49
581.62	43976.33
581.78	44350.81
581.94	44809.56
582.10	44051.22
582.26	44327.41
582.42	44755.72
582.58	44566.14
582.74	44179.95
582.90	45081.06
583.06	44924.24
583.22	44758.06
583.38	45095.10
583.54	44704.23
583.70	44732.32
583.86	44500.61
584.02	44254.85
584.18	44636.36
584.34	44540.39
584.50	44416.35
584.66	44362.51
584.82	44046.54
584.98	44615.29
585.14	45024.89
585.30	44491.24
585.46	44507.63
585.62	44442.09
585.78	44655.08
585.94	44222.08
586.10	44589.55
586.26	44481.88
586.42	44786.15
586.58	44851.69
586.74	44315.70
586.90	44339.11
587.06	44418.69
587.22	44753.38
587.38	44502.95
587.54	44252.51
587.70	44657.42
587.86	44589.55
588.02	44774.45
588.18	44879.77
588.34	44406.98
588.49	44208.04
588.65	43999.73
588.81	44294.64
588.97	44212.72
589.13	44362.51
589.29	44388.26
589.45	44481.88
589.61	44521.67
589.77	44463.16
589.93	44624.65
590.08	44999.14
590.24	45064.67
