SpectraSuite Data File
++++++++++++++++++++++++++++++++++++
Date: Fri Oct 25 10:46:56 EDT 2013
User: price-jones
Dark Spectrum Present: No
Reference Spectrum Present: No
Number of Sampled Component Spectra: 1
Spectrometers: USB2+H05261
Integration Time (usec): 100000 (USB2+H05261)
Spectra Averaged: 1 (USB2+H05261)
Boxcar Smoothing: 0 (USB2+H05261)
Correct for Electrical Dark: No (USB2+H05261)
Strobe/Lamp Enabled: No (USB2+H05261)
Correct for Detector Non-linearity: No (USB2+H05261)
Correct for Stray Light: No (USB2+H05261)
Number of Pixels in Processed Spectrum: 2048
>>>>>Begin Processed Spectral Data<<<<<
365.73	110.01
365.92	110.01
366.12	110.01
366.32	30.43
366.52	30.43
366.72	131.07
366.91	42.13
367.11	28.09
367.31	23.41
367.51	74.90
367.70	117.03
367.90	95.96
368.10	65.54
368.30	49.15
368.49	30.43
368.69	56.17
368.89	74.90
369.09	58.51
369.28	79.58
369.48	53.83
369.68	88.94
369.87	152.13
370.07	77.24
370.27	145.11
370.47	166.18
370.66	372.15
370.86	458.74
371.06	444.70
371.25	512.58
371.45	498.53
371.65	442.36
371.84	512.58
372.04	514.92
372.24	456.40
372.44	409.59
372.63	458.74
372.83	510.24
373.03	559.39
373.22	517.26
373.42	500.87
373.62	575.77
373.81	519.60
374.01	620.24
374.21	571.09
374.40	550.03
374.60	580.45
374.79	531.30
374.99	629.60
375.19	631.94
375.38	521.94
375.58	547.69
375.78	648.33
375.97	636.63
376.17	720.88
376.37	657.69
376.56	603.86
376.76	613.22
376.95	573.43
377.15	657.69
377.35	671.73
377.54	734.93
377.74	674.07
377.93	690.46
378.13	634.29
378.33	713.86
378.52	662.37
378.72	660.03
378.91	702.16
379.11	667.05
379.31	638.97
379.50	636.63
379.70	678.76
379.89	657.69
380.09	620.24
380.28	711.52
380.48	746.63
380.68	734.93
380.87	737.27
381.07	727.91
381.26	798.12
381.46	755.99
381.65	695.14
381.85	669.39
382.04	758.33
382.24	660.03
382.43	676.41
382.63	699.82
382.83	653.01
383.02	805.14
383.22	716.20
383.41	765.36
383.61	753.65
383.80	821.53
384.00	711.52
384.19	821.53
384.39	802.80
384.58	781.74
384.78	840.25
384.97	779.40
385.17	809.83
385.36	812.17
385.56	837.91
385.75	812.17
385.95	826.21
386.14	800.46
386.34	823.87
386.53	844.93
386.72	807.48
386.92	887.06
387.11	847.27
387.31	933.87
387.50	854.30
387.70	835.57
387.89	915.15
388.09	851.96
388.28	875.36
388.48	938.55
388.67	959.62
388.86	933.87
389.06	1004.09
389.25	983.02
389.45	1039.20
389.64	919.83
389.84	1020.47
390.03	1034.52
390.22	968.98
390.42	1074.31
390.61	1011.11
390.81	931.53
391.00	1057.92
391.19	1128.14
391.39	1015.79
391.58	1146.86
391.78	1083.67
391.97	1062.60
392.16	990.05
392.36	1095.37
392.55	1081.33
392.75	1041.54
392.94	1008.77
393.13	1114.10
393.33	1022.81
393.52	1032.18
393.71	1046.22
393.91	1130.48
394.10	1158.57
394.29	1165.59
394.49	1132.82
394.68	1146.86
394.88	1198.35
395.07	1324.74
395.26	1130.48
395.46	1149.20
395.65	1221.76
395.84	1212.40
396.04	1256.87
396.23	1245.16
396.42	1273.25
396.62	1188.99
396.81	1233.46
397.00	1165.59
397.19	1219.42
397.39	1336.45
397.58	1350.49
397.77	1350.49
397.97	1451.13
398.16	1416.02
398.35	1476.88
398.55	1385.60
398.74	1500.28
398.93	1629.01
399.12	1472.20
399.32	1519.01
399.51	1369.21
399.70	1558.80
399.90	1547.09
400.09	1621.99
400.28	1586.88
400.47	1610.29
400.67	1619.65
400.86	1699.23
401.05	1629.01
401.24	1598.59
401.44	1570.50
401.63	1776.47
401.82	1734.34
402.01	1746.04
402.21	1647.74
402.40	1680.50
402.59	1713.27
402.78	1753.06
402.97	1757.74
403.17	1830.30
403.36	1830.30
403.55	1912.22
403.74	1825.62
403.93	1823.28
404.13	1970.73
404.32	1825.62
404.51	1769.44
404.70	1867.75
404.89	1919.24
405.09	1898.17
405.28	1907.54
405.47	1832.64
405.66	1888.81
405.85	1874.77
406.05	1863.07
406.24	1963.71
406.43	1881.79
406.62	1907.54
406.81	2118.18
407.00	1982.43
407.20	2031.58
407.39	2073.71
407.58	2031.58
407.77	2045.63
407.96	2172.02
408.15	2153.29
408.34	2246.91
408.54	2326.49
408.73	2183.72
408.92	2338.20
409.11	2139.25
409.30	2200.10
409.49	2310.11
409.68	2232.87
409.87	2305.43
410.07	2277.34
410.26	2275.00
410.45	2328.83
410.64	2394.37
410.83	2544.16
411.02	2403.73
411.21	2497.35
411.40	2506.71
411.59	2658.85
411.78	2509.05
411.98	2621.40
412.17	2593.31
412.36	2590.97
412.55	2593.31
412.74	2686.94
412.93	2712.68
413.12	2750.13
413.31	2956.10
413.50	2722.04
413.69	2813.32
413.88	2820.35
414.07	2778.22
414.26	2958.44
414.45	2988.86
414.64	2848.43
414.83	2977.16
415.02	3019.29
415.22	3009.93
415.41	3052.06
415.60	3115.25
415.79	3122.27
415.98	3236.96
416.17	3152.70
416.36	3229.94
416.55	3204.19
416.74	3293.13
416.93	3246.32
417.12	3166.74
417.31	3311.86
417.50	3286.11
417.69	3346.97
417.88	3339.94
418.07	3386.76
418.26	3346.97
418.45	3356.33
418.64	3602.08
418.83	3445.27
419.02	3583.36
419.21	3545.91
419.39	3431.23
419.58	3562.30
419.77	3478.04
419.96	3562.30
420.15	3653.58
420.34	3648.90
420.53	3733.15
420.72	3707.41
420.91	3819.75
421.10	3826.78
421.29	3730.81
421.48	3709.75
421.67	3770.60
421.86	3927.42
422.05	3676.98
422.24	3756.56
422.43	3712.09
422.61	3728.47
422.80	3911.04
422.99	3887.63
423.18	3859.54
423.37	3918.06
423.56	3847.84
423.75	3983.59
423.94	3936.78
424.13	3658.26
424.32	3812.73
424.50	3983.59
424.69	3929.76
424.88	3971.89
425.07	3836.14
425.26	3758.90
425.45	3889.97
425.64	3714.43
425.83	3831.46
426.01	3967.21
426.20	3840.82
426.39	3974.23
426.58	4018.70
426.77	3932.10
426.96	3999.98
427.15	3913.38
427.33	3971.89
427.52	4070.19
427.71	4056.15
427.90	4105.30
428.09	4133.39
428.28	4238.71
428.46	4112.32
428.65	4060.83
428.84	4219.99
429.03	4348.72
429.22	4079.55
429.40	4124.02
429.59	4117.00
429.78	3918.06
429.97	3967.21
430.16	3983.59
430.34	4201.26
430.53	4079.55
430.72	4173.18
430.91	4184.88
431.10	4280.84
431.28	4592.13
431.47	4617.88
431.66	4512.55
431.85	4308.93
432.03	4566.39
432.22	4617.88
432.41	4652.98
432.60	4627.24
432.79	4713.84
432.97	4648.30
433.16	4770.01
433.35	4547.66
433.54	4561.70
433.72	4594.47
433.91	4727.88
434.10	4669.37
434.28	4671.71
434.47	4622.56
434.66	4964.28
434.85	4922.15
435.03	4924.49
435.22	5081.30
435.41	5064.92
435.59	4938.53
435.78	5071.94
435.97	5212.37
436.16	5076.62
436.34	5071.94
436.53	5053.22
436.72	5100.03
436.90	5167.90
437.09	5071.94
437.28	5034.49
437.46	5207.69
437.65	5130.45
437.84	5167.90
438.02	5064.92
438.21	5165.56
438.40	5114.07
438.58	5268.55
438.77	5329.40
438.96	5444.09
439.14	5493.24
439.33	5441.75
439.52	5542.39
439.70	5584.52
439.89	5448.77
440.08	5589.20
440.26	5603.24
440.45	5542.39
440.63	5823.25
440.82	5937.94
441.01	5797.51
441.19	6120.50
441.38	6003.47
441.57	6019.86
441.75	6003.47
441.94	6019.86
442.12	6359.24
442.31	6216.46
442.50	6321.79
442.68	6183.70
442.87	6193.06
443.05	6335.83
443.24	6345.19
443.43	6202.42
443.61	6312.42
443.80	6548.82
443.98	6228.17
444.17	6256.25
444.35	6539.46
444.54	6581.59
444.73	6518.39
444.91	6321.79
445.10	6342.85
445.28	6525.41
445.47	6223.48
445.65	6375.62
445.84	6347.53
446.02	6623.72
446.21	6431.79
446.39	6450.52
446.58	6670.53
446.77	6539.46
446.95	6469.24
447.14	6562.86
447.32	6867.13
447.51	6544.14
447.69	6696.27
447.88	6602.65
448.06	6679.89
448.25	6715.00
448.43	6661.16
448.62	6473.92
448.80	6745.42
448.99	6733.72
449.17	6775.85
449.36	6595.63
449.54	6869.47
449.73	6813.30
449.91	6939.69
450.10	7211.19
450.28	7101.19
450.46	7089.48
450.65	7028.63
450.83	7061.40
451.02	7157.36
451.20	7241.62
451.39	7197.15
451.57	7119.91
451.76	7014.59
451.94	7133.95
452.13	7126.93
452.31	7148.00
452.49	6953.73
452.68	7000.54
452.86	7019.27
453.05	7227.57
453.23	7171.40
453.42	7248.64
453.60	7281.41
453.78	7503.76
453.97	7346.94
454.15	7304.81
454.34	7307.15
454.52	7377.37
454.70	7403.11
454.89	7414.82
455.07	7555.25
455.26	7620.78
455.44	7508.44
455.62	7817.39
455.81	7602.06
455.99	7662.91
456.17	7819.73
456.36	7620.78
456.54	7936.76
456.73	7815.05
456.91	7936.76
457.09	7838.45
457.28	8329.97
457.46	7847.82
457.64	7943.78
457.83	8053.78
458.01	7932.08
458.19	8166.13
458.38	8180.17
458.56	8322.94
458.74	8266.77
458.93	8219.96
459.11	8205.92
459.29	8332.31
459.48	8411.89
459.66	8205.92
459.84	8074.85
460.03	8341.67
460.21	8388.48
460.39	8512.53
460.57	8519.55
460.76	8468.06
460.94	8519.55
461.12	8388.48
461.31	8622.53
461.49	8496.14
461.67	8596.79
461.85	8762.97
462.04	8549.98
462.22	9050.85
462.40	8868.29
462.59	8854.25
462.77	8922.12
462.95	8699.77
463.13	8922.12
463.32	8910.42
463.50	8737.22
463.68	8891.70
463.86	8891.70
464.05	8910.42
464.23	8606.15
464.41	9139.79
464.59	8629.56
464.78	9252.14
464.96	8898.72
465.14	8973.61
465.32	8982.98
465.50	9132.77
465.69	9217.03
465.87	9034.47
466.05	9111.71
466.23	8964.25
466.41	9029.79
466.60	9317.67
466.78	9123.41
466.96	9198.31
467.14	9092.98
467.32	9371.50
467.51	9474.49
467.69	9048.51
467.87	9240.44
468.05	9561.09
468.23	9055.53
468.41	9336.40
468.60	9502.58
468.78	9479.17
468.96	9537.68
469.14	9603.22
469.32	9657.05
469.50	9425.34
469.69	9661.73
469.87	9628.96
470.05	9703.86
470.23	9727.27
470.41	9797.48
470.59	9788.12
470.77	9891.10
470.95	9628.96
471.14	10022.17
471.32	9753.01
471.50	10073.67
471.68	10097.07
471.86	10249.21
472.04	10317.08
472.22	10485.60
472.40	10328.78
472.58	10106.43
472.77	10417.72
472.95	10480.92
473.13	10579.22
473.31	10450.49
473.49	10319.42
473.67	10497.30
473.85	10434.11
474.03	10656.46
474.21	10832.00
474.39	10939.66
474.57	10951.37
474.75	11035.63
474.93	10991.16
475.12	11112.86
475.30	11068.39
475.48	11243.93
475.66	11431.18
475.84	11042.65
476.02	11260.32
476.20	11302.45
476.38	11627.78
476.56	12028.01
476.74	11669.91
476.92	11646.51
477.10	11662.89
477.28	11889.92
477.46	11786.94
477.64	12086.53
477.82	12168.45
478.00	12531.23
478.18	12154.40
478.36	12500.80
478.54	12851.88
478.72	12554.63
478.90	12826.14
479.08	13078.91
479.26	12952.52
479.44	13174.88
479.62	13167.85
479.80	13001.68
479.98	13364.46
480.16	13544.68
480.34	13530.64
480.52	13563.40
480.70	13799.80
480.88	13532.98
481.06	13827.88
481.24	13731.92
481.41	13965.98
481.59	13949.59
481.77	14286.63
481.95	14181.31
482.13	14338.12
482.31	14494.94
482.49	14635.37
482.67	14530.05
482.85	14827.29
483.03	14876.44
483.21	15192.42
483.39	15180.71
483.57	15131.56
483.74	15136.24
483.92	15484.98
484.10	15433.49
484.28	15651.16
484.46	16182.46
484.64	16334.60
484.82	16006.92
485.00	16091.18
485.18	16184.80
485.35	16444.60
485.53	16023.31
485.71	16163.74
485.89	16276.09
486.07	16493.76
486.25	16432.90
486.43	16657.59
486.61	16809.73
486.78	17444.01
486.96	17191.23
487.14	17664.02
487.32	17502.53
487.50	17865.31
487.68	18045.53
487.85	18087.66
488.03	18473.85
488.21	18443.42
488.39	18602.58
488.57	18771.10
488.75	18670.45
488.92	18780.46
489.10	19208.78
489.28	19101.11
489.46	19428.79
489.64	19417.08
489.81	19754.12
489.99	19793.91
490.17	20353.30
490.35	19927.32
490.53	20357.98
490.70	20264.36
490.88	20386.07
491.06	20514.80
491.24	20570.97
491.41	20470.33
491.59	20566.29
491.77	20819.07
491.95	20945.45
492.13	20926.73
492.30	21570.38
492.48	21610.17
492.66	21530.59
492.84	21926.14
493.01	21769.32
493.19	22040.82
493.37	22471.48
493.54	22225.73
493.72	22354.46
493.90	22724.26
494.08	22703.20
494.25	23056.62
494.43	22963.00
494.61	23019.17
494.79	23168.96
494.96	23077.68
495.14	23080.02
495.32	23452.17
495.49	23344.50
495.67	23508.34
495.85	23964.75
496.02	24163.69
496.20	24339.23
496.38	24261.99
496.55	24093.47
496.73	24767.55
496.91	24512.43
497.09	24966.49
497.26	24687.97
497.44	24931.39
497.62	25008.62
497.79	24741.80
497.97	24989.90
498.14	25254.38
498.32	25631.21
498.50	25666.31
498.67	26017.40
498.85	25893.35
499.03	26185.91
499.20	26160.17
499.38	26345.07
499.56	26206.98
499.73	26122.72
499.91	26565.08
500.08	26473.80
500.26	26375.50
500.44	26181.23
500.61	26668.06
500.79	26279.54
500.97	26654.02
501.14	27318.73
501.32	27030.85
501.49	27094.04
501.67	26988.72
501.84	27374.91
502.02	27440.44
502.20	27477.89
502.37	27508.32
502.55	27475.55
502.72	27679.18
502.90	28121.54
503.07	27892.16
503.25	28048.98
503.43	27934.29
503.60	28247.93
503.78	27981.10
503.95	28079.41
504.13	28294.74
504.30	28603.69
504.48	28353.25
504.65	28580.28
504.83	28655.18
505.01	28905.62
505.18	28982.85
505.36	29401.81
505.53	28950.09
505.71	29610.12
505.88	29446.28
506.06	29420.53
506.23	29450.96
506.41	29181.80
506.58	29809.06
506.76	29858.21
506.93	29916.73
507.11	30019.71
507.28	29769.27
507.46	29731.83
507.63	30127.38
507.81	29944.81
507.98	30136.74
508.16	30225.68
508.33	30202.27
508.50	30520.59
508.68	30581.44
508.85	30937.20
509.03	30649.32
509.20	30878.69
509.38	31124.44
509.55	31400.63
509.73	31159.55
509.90	31047.21
510.08	31257.85
510.25	31332.75
510.42	31342.11
510.60	31208.70
510.77	31714.26
510.95	31660.43
511.12	31592.55
511.30	31803.20
511.47	31990.44
511.64	31805.54
511.82	32299.39
511.99	32130.87
512.17	31999.80
512.34	31873.42
512.51	32126.19
512.69	32620.05
512.86	32170.66
513.04	32741.75
513.21	33266.03
513.38	32608.34
513.56	32858.78
513.73	32809.63
513.90	33223.90
514.08	32421.10
514.25	33165.39
514.43	33167.73
514.60	33244.97
514.77	33514.13
514.95	33652.22
515.12	33551.58
515.29	33652.22
515.47	33425.19
515.64	33577.33
515.81	33661.58
515.99	33591.37
516.16	33572.64
516.33	33556.26
516.51	33582.01
516.68	33476.68
516.85	33273.06
517.03	33322.21
517.20	33813.72
517.37	33661.58
517.54	34195.23
517.72	34274.80
517.89	34263.10
518.06	33956.49
518.24	33937.77
518.41	34473.75
518.58	34340.34
518.75	34714.83
518.93	34859.94
519.10	34415.24
519.27	34733.55
519.45	34789.72
519.62	35117.40
519.79	35295.28
519.96	35468.48
520.14	35793.81
520.31	35576.14
520.48	35393.58
520.65	35583.16
520.83	35648.70
521.00	35693.17
521.17	35737.64
521.34	36002.12
521.52	36062.97
521.69	36313.41
521.86	35913.18
522.03	36107.44
522.20	36362.56
522.38	35833.60
522.55	36449.16
522.72	36266.60
522.89	36402.35
523.07	36524.06
523.24	36521.72
523.41	36907.91
523.58	36748.75
523.75	36823.65
523.92	37450.91
524.10	37118.56
524.27	37017.91
524.44	37291.76
524.61	37134.94
524.78	37483.68
524.96	37359.63
525.13	38164.78
525.30	37851.14
525.47	37539.85
525.64	37228.56
525.81	37390.06
525.98	37514.11
526.16	37553.90
526.33	37380.70
526.50	37518.79
526.67	37083.45
526.84	37607.73
527.01	37586.66
527.18	37823.06
527.36	38211.59
527.53	37876.89
527.70	38745.23
527.87	37792.63
528.04	37989.24
528.21	38412.87
528.38	38242.01
528.55	38700.76
528.72	38373.08
528.89	38749.91
529.07	38836.51
529.24	38485.43
529.41	38651.61
529.58	38888.00
529.75	38745.23
529.92	38990.98
530.09	39093.97
530.26	38806.08
530.43	39339.72
530.60	38845.87
530.77	38644.59
530.94	39648.68
531.11	39063.54
531.28	39414.62
531.46	39482.50
531.63	39676.76
531.80	39903.79
531.97	39576.12
532.14	39342.06
532.31	39187.59
532.48	39585.48
532.65	39735.27
532.82	39466.11
532.99	39810.17
533.16	39299.94
533.33	40002.10
533.50	39730.59
533.67	39868.69
533.84	40086.36
534.01	40182.32
534.18	39821.87
534.35	40332.11
534.52	40315.73
534.69	40402.33
534.86	40573.19
535.03	40175.30
535.20	40889.16
535.37	41099.81
535.54	40657.45
535.71	40638.72
535.88	40725.32
536.05	40762.77
536.22	40889.16
536.38	40708.94
536.55	40678.51
536.72	40650.42
536.89	41001.50
537.06	40762.77
537.23	41263.64
537.40	40793.20
537.57	40786.18
537.74	41031.93
537.91	41277.69
538.08	41354.93
538.25	40903.20
538.42	40804.90
538.59	41317.48
538.75	41177.04
538.92	41581.96
539.09	41570.25
539.26	41684.94
539.43	41586.64
539.60	41230.88
539.77	41483.66
539.94	41846.44
540.11	41303.43
540.28	41500.04
540.44	41420.46
540.61	41806.65
540.78	41825.37
540.95	41567.91
541.12	41677.92
541.29	41577.28
541.46	41879.21
541.62	41689.62
541.79	41986.87
541.96	41598.34
542.13	41837.08
542.30	41544.51
542.47	42087.51
542.63	42106.24
542.80	42394.12
542.97	42359.02
543.14	42997.98
543.31	42700.73
543.48	42672.65
543.64	43243.74
543.81	42777.97
543.98	42993.30
544.15	42412.85
544.32	42602.43
544.48	43566.73
544.65	43061.18
544.82	42572.00
544.99	42829.46
545.16	42787.33
545.32	42944.15
545.49	43295.23
545.66	43328.00
545.83	43187.56
546.00	43367.79
546.16	43030.75
546.33	43353.74
546.50	42939.47
546.67	43569.07
546.83	42777.97
547.00	43222.67
547.17	43187.56
547.34	43550.35
547.50	42895.00
547.67	44004.41
547.84	43407.58
548.00	43643.97
548.17	43739.93
548.34	43753.97
548.51	43929.51
548.67	44128.46
548.84	43702.48
549.01	43665.03
549.18	44109.74
549.34	43718.87
549.51	43945.90
549.68	43777.38
549.84	43866.32
550.01	43959.94
550.18	44201.02
550.34	44147.18
550.51	44055.90
550.68	44137.82
550.84	43526.94
551.01	44648.06
551.18	43889.73
551.34	43983.35
551.51	44411.67
551.68	44252.51
551.84	44287.62
552.01	44088.67
552.18	44378.90
552.34	43910.79
552.51	44842.32
552.68	44128.46
552.84	44687.85
553.01	44631.68
553.18	44304.00
553.34	44390.60
553.51	44236.12
553.67	44542.74
553.84	44720.62
554.01	44435.07
554.17	45048.29
554.34	44486.56
554.51	44708.91
554.67	44678.49
554.84	44889.13
555.00	44622.31
555.17	44512.31
555.33	44697.21
555.50	44884.45
555.67	45167.66
555.83	45048.29
556.00	45031.91
556.16	45092.76
556.33	45223.83
556.50	45207.45
556.66	45319.79
556.83	44706.57
556.99	45050.63
557.16	45532.78
557.32	45305.75
557.49	45179.36
557.65	44921.90
557.82	45036.59
557.98	45008.50
558.15	45258.94
558.32	45462.57
558.48	45191.06
558.65	45488.31
558.81	44978.07
558.98	45237.87
559.14	45153.62
559.31	45188.72
559.47	45193.40
559.64	45275.32
559.80	45563.21
559.97	45343.20
560.13	45581.93
560.30	45361.92
560.46	45216.81
560.63	45462.57
560.79	45755.13
560.96	45579.59
561.12	45120.85
561.29	45406.39
561.45	45778.54
561.61	45471.93
561.78	45933.01
561.94	45455.54
562.11	44949.99
562.27	45603.00
562.44	45708.32
562.60	45914.29
562.77	45928.33
562.93	45933.01
563.10	46115.58
563.26	45450.86
563.42	46183.45
563.59	45633.42
563.75	45584.27
563.92	45881.52
564.08	46256.01
564.24	45907.27
564.41	45907.27
564.57	45724.71
564.74	45708.32
564.90	46141.32
565.07	45902.59
565.23	45972.80
565.39	45467.25
565.56	45916.63
565.72	45347.88
565.88	45968.12
566.05	45965.78
566.21	45897.91
566.38	45715.34
566.54	45652.15
566.70	45855.78
566.87	46476.02
567.03	46305.16
567.19	46438.57
567.36	46305.16
567.52	46043.02
567.68	46230.26
567.85	46124.94
568.01	46316.86
568.17	45911.95
568.34	46403.46
568.50	46188.13
568.66	46021.95
568.83	45886.20
568.99	45876.84
569.15	46085.15
569.32	45977.48
569.48	46110.89
569.64	46309.84
569.81	46138.98
569.97	46443.25
570.13	46014.93
570.30	45933.01
570.46	45848.75
570.62	45638.11
570.78	46068.76
570.95	45851.09
571.11	46204.52
571.27	45745.77
571.43	45794.92
571.60	46043.02
571.76	46213.88
571.92	46028.98
572.09	46239.62
572.25	46005.57
572.41	46253.67
572.57	46234.94
572.74	46497.08
572.90	46265.37
573.06	46279.41
573.22	46281.75
573.38	46485.38
573.55	46153.02
573.71	46373.03
573.87	46337.93
574.03	45944.72
574.20	46117.92
574.36	45958.76
574.52	46445.59
574.68	46321.54
574.84	46485.38
575.01	45984.51
575.17	46342.61
575.33	46021.95
575.49	46176.43
575.65	46490.06
575.82	46450.27
575.98	46160.05
576.14	46450.27
576.30	46288.77
576.46	46028.98
576.62	46344.95
576.79	46178.77
576.95	45794.92
577.11	45993.87
577.27	46368.35
577.43	46103.87
577.59	46244.30
577.75	46356.65
577.92	45846.41
578.08	45846.41
578.24	45549.17
578.40	46445.59
578.56	46068.76
578.72	46270.05
578.88	46279.41
579.04	46497.08
579.21	45991.53
579.37	45968.12
579.53	46267.71
579.69	46117.92
579.85	46607.09
580.01	46689.01
580.17	46134.30
580.33	46230.26
580.49	46483.04
580.65	46525.17
580.82	46319.20
580.98	46520.49
581.14	46230.26
581.30	46625.81
581.46	46298.14
581.62	46635.17
581.78	46312.18
581.94	46492.40
582.10	46532.19
582.26	46543.89
582.42	46246.65
582.58	46497.08
582.74	46113.23
582.90	46511.13
583.06	46621.13
583.22	46902.00
583.38	46642.20
583.54	46560.28
583.70	46457.29
583.86	46483.04
584.02	46300.48
584.18	46579.00
584.34	46691.35
584.50	46635.17
584.66	46293.46
584.82	46248.99
584.98	46752.20
585.14	46618.79
585.30	46244.30
585.46	46696.03
585.62	46138.98
585.78	46597.73
585.94	46092.17
586.10	46703.05
586.26	46251.33
586.42	46576.66
586.58	46569.64
586.74	46403.46
586.90	46312.18
587.06	46036.00
587.22	46258.35
587.38	46176.43
587.54	46251.33
587.70	46656.24
587.86	46396.44
588.02	46424.53
588.18	46813.05
588.34	46436.23
588.49	46110.89
588.65	46148.34
588.81	45701.30
588.97	45893.22
589.13	46085.15
589.29	46560.28
589.45	46265.37
589.61	46422.19
589.77	46749.86
589.93	46651.56
