SpectraSuite Data File
++++++++++++++++++++++++++++++++++++
Date: Fri Oct 25 11:34:08 EDT 2013
User: price-jones
Dark Spectrum Present: No
Reference Spectrum Present: No
Number of Sampled Component Spectra: 1
Spectrometers: USB2+H05261
Integration Time (usec): 100000 (USB2+H05261)
Spectra Averaged: 1 (USB2+H05261)
Boxcar Smoothing: 0 (USB2+H05261)
Correct for Electrical Dark: No (USB2+H05261)
Strobe/Lamp Enabled: No (USB2+H05261)
Correct for Detector Non-linearity: No (USB2+H05261)
Correct for Stray Light: No (USB2+H05261)
Number of Pixels in Processed Spectrum: 2048
>>>>>Begin Processed Spectral Data<<<<<
365.73	318.31
365.92	318.31
366.12	318.31
366.32	161.50
366.52	180.22
366.72	212.99
366.91	163.84
367.11	194.26
367.31	180.22
367.51	107.66
367.70	147.45
367.90	175.54
368.10	177.88
368.30	184.90
368.49	110.01
368.69	168.52
368.89	198.95
369.09	210.65
369.28	250.44
369.48	212.99
369.68	189.58
369.87	287.89
370.07	194.26
370.27	196.60
370.47	330.02
370.66	510.24
370.86	472.79
371.06	479.81
371.25	561.73
371.45	505.56
371.65	550.03
371.84	573.43
372.04	550.03
372.24	538.32
372.44	535.98
372.63	512.58
372.83	627.26
373.03	571.09
373.22	528.96
373.42	571.09
373.62	582.79
373.81	580.45
374.01	657.69
374.21	601.52
374.40	695.14
374.60	653.01
374.79	603.86
374.99	610.88
375.19	629.60
375.38	613.22
375.58	685.78
375.78	641.31
375.97	695.14
376.17	737.27
376.37	690.46
376.56	606.20
376.76	692.80
376.95	629.60
377.15	720.88
377.35	751.31
377.54	683.44
377.74	566.41
377.93	592.16
378.13	671.73
378.33	702.16
378.52	596.84
378.72	713.86
378.91	699.82
379.11	688.12
379.31	697.48
379.50	720.88
379.70	765.36
379.89	748.97
380.09	753.65
380.28	709.18
380.48	594.50
380.68	674.07
380.87	702.16
381.07	781.74
381.26	812.17
381.46	664.71
381.65	681.10
381.85	758.33
382.04	746.63
382.24	779.40
382.43	720.88
382.63	718.54
382.83	753.65
383.02	795.78
383.22	856.64
383.41	786.42
383.61	823.87
383.80	784.08
384.00	816.85
384.19	814.51
384.39	765.36
384.58	739.61
384.78	835.57
384.97	758.33
385.17	772.38
385.36	777.06
385.56	837.91
385.75	781.74
385.95	844.93
386.14	828.55
386.34	868.34
386.53	938.55
386.72	830.89
386.92	847.27
387.11	887.06
387.31	880.04
387.50	854.30
387.70	844.93
387.89	898.77
388.09	936.21
388.28	842.59
388.48	894.08
388.67	894.08
388.86	954.94
389.06	976.00
389.25	943.24
389.45	887.06
389.64	922.17
389.84	992.39
390.03	929.19
390.22	973.66
390.42	952.60
390.61	908.13
390.81	940.90
391.00	1013.45
391.19	952.60
391.39	966.64
391.58	1043.88
391.78	1041.54
391.97	999.41
392.16	961.96
392.36	1081.33
392.55	1018.13
392.75	1041.54
392.94	1006.43
393.13	1013.45
393.33	1046.22
393.52	1069.62
393.71	1006.43
393.91	1062.60
394.10	1076.65
394.29	1090.69
394.49	1020.47
394.68	1071.97
394.88	1071.97
395.07	1102.39
395.26	1081.33
395.46	1163.25
395.65	1193.67
395.84	1081.33
396.04	1123.46
396.23	1165.59
396.42	1116.44
396.62	1170.27
396.81	1130.48
397.00	1151.54
397.19	1249.85
397.39	1249.85
397.58	1282.61
397.77	1193.67
397.97	1128.14
398.16	1296.66
398.35	1275.59
398.55	1224.10
398.74	1270.91
398.93	1343.47
399.12	1277.93
399.32	1343.47
399.51	1327.08
399.70	1341.13
399.90	1294.32
400.09	1268.57
400.28	1369.21
400.47	1469.86
400.67	1355.17
400.86	1348.15
401.05	1460.49
401.24	1371.55
401.44	1409.00
401.63	1378.58
401.82	1432.41
402.01	1348.15
402.21	1490.92
402.40	1462.83
402.59	1467.52
402.78	1488.58
402.97	1444.11
403.17	1514.33
403.36	1521.35
403.55	1488.58
403.74	1486.24
403.93	1556.46
404.13	1605.61
404.32	1600.93
404.51	1540.07
404.70	1671.14
404.89	1645.40
405.09	1673.48
405.28	1565.82
405.47	1568.16
405.66	1750.72
405.85	1675.82
406.05	1657.10
406.24	1673.48
406.43	1708.59
406.62	1760.08
406.81	1820.94
407.00	1818.60
407.20	1703.91
407.39	1853.70
407.58	1790.51
407.77	1834.98
407.96	1776.47
408.15	1909.88
408.34	1839.66
408.54	1930.94
408.73	1888.81
408.92	1907.54
409.11	1921.58
409.30	1937.96
409.49	1952.01
409.68	1952.01
409.87	1991.80
410.07	1973.07
410.26	1996.48
410.45	2094.78
410.64	2097.12
410.83	2076.06
411.02	2008.18
411.21	2047.97
411.40	2064.35
411.59	2104.14
411.78	2136.91
411.98	2120.53
412.17	2195.42
412.36	2183.72
412.55	2230.53
412.74	2282.02
412.93	2352.24
413.12	2174.36
413.31	2396.71
413.50	2352.24
413.69	2354.58
413.88	2399.05
414.07	2466.92
414.26	2436.50
414.45	2431.82
414.64	2548.84
414.83	2509.05
415.02	2558.21
415.22	2544.16
415.41	2651.83
415.60	2605.02
415.79	2635.44
415.98	2708.00
416.17	2710.34
416.36	2803.96
416.55	2705.66
416.74	2682.25
416.93	2705.66
417.12	2745.45
417.31	2792.26
417.50	2832.05
417.69	2890.56
417.88	2827.37
418.07	2825.03
418.26	2787.58
418.45	2803.96
418.64	3066.10
418.83	3040.36
419.02	2995.89
419.21	3126.96
419.39	3052.06
419.58	3014.61
419.77	2944.39
419.96	3122.27
420.15	3164.40
420.34	3150.36
420.53	3143.34
420.72	3213.56
420.91	3173.77
421.10	3141.00
421.29	3136.32
421.48	3171.43
421.67	3311.86
421.86	3290.79
422.05	3208.87
422.24	3150.36
422.43	3213.56
422.61	3302.50
422.80	3318.88
422.99	3337.60
423.18	3353.99
423.37	3433.57
423.56	3349.31
423.75	3276.75
423.94	3236.96
424.13	3148.02
424.32	3119.93
424.50	3400.80
424.69	3330.58
424.88	3485.06
425.07	3410.16
425.26	3279.09
425.45	3426.54
425.64	3393.78
425.83	3288.45
426.01	3398.46
426.20	3215.90
426.39	3330.58
426.58	3262.71
426.77	3478.04
426.96	3524.85
427.15	3520.17
427.33	3620.81
427.52	3492.08
427.71	3485.06
427.90	3538.89
428.09	3602.08
428.28	3485.06
428.46	3583.36
428.65	3627.83
428.84	3655.92
429.03	3723.79
429.22	3665.28
429.40	3691.02
429.59	3676.98
429.78	3562.30
429.97	3623.15
430.16	3574.00
430.34	3660.60
430.53	3803.37
430.72	3852.52
430.91	3756.56
431.10	3772.94
431.28	3871.25
431.47	3791.67
431.66	3964.87
431.85	3974.23
432.03	3962.53
432.22	3999.98
432.41	3964.87
432.60	4060.83
432.79	4070.19
432.97	4060.83
433.16	3920.40
433.35	3974.23
433.54	4065.51
433.72	4021.04
433.91	4046.79
434.10	4142.75
434.28	4236.37
434.47	4025.72
434.66	4154.45
434.85	4161.47
435.03	4166.15
435.22	4121.68
435.41	4360.42
435.59	4133.39
435.78	4283.18
435.97	4327.65
436.16	4271.48
436.34	4250.41
436.53	4224.67
436.72	4517.23
436.90	4287.86
437.09	4468.08
437.28	4280.84
437.46	4440.00
437.65	4503.19
437.84	4484.47
438.02	4540.64
438.21	4313.61
438.40	4493.83
438.58	4552.34
438.77	4629.58
438.96	4631.92
439.14	4770.01
439.33	4732.56
439.52	4971.30
439.70	4814.48
439.89	4994.70
440.08	4788.74
440.26	4933.85
440.45	4795.76
440.63	4884.70
440.82	5132.79
441.01	5195.99
441.19	5039.17
441.38	5118.75
441.57	5088.32
441.75	5198.33
441.94	5298.97
442.12	5207.69
442.31	5179.61
442.50	5179.61
442.68	5116.41
442.87	5394.93
443.05	5301.31
443.24	5563.45
443.43	5518.98
443.61	5495.58
443.80	5617.29
443.98	5352.81
444.17	5172.58
444.35	5448.77
444.54	5568.13
444.73	5586.86
444.91	5434.72
445.10	5533.03
445.28	5458.13
445.47	5439.40
445.65	5542.39
445.84	5467.49
446.02	5612.60
446.21	5680.48
446.39	5526.00
446.58	5692.18
446.77	5640.69
446.95	5521.32
447.14	5568.13
447.32	5727.29
447.51	5638.35
447.69	5610.26
447.88	5699.20
448.06	5760.06
448.25	5551.75
448.43	5692.18
448.62	5797.51
448.80	5621.97
448.99	5703.89
449.17	5727.29
449.36	5682.82
449.54	5767.08
449.73	5907.51
449.91	5907.51
450.10	5863.04
450.28	6155.61
450.46	5877.09
450.65	5956.66
450.83	6083.05
451.02	5877.09
451.20	6069.01
451.39	6061.99
451.57	6043.26
451.76	6043.26
451.94	6012.84
452.13	6190.72
452.31	5980.07
452.49	6127.52
452.68	6183.70
452.86	6174.33
453.05	6174.33
453.23	6225.82
453.42	6132.20
453.60	6200.08
453.78	6394.34
453.97	6228.17
454.15	6237.53
454.34	6167.31
454.52	6305.40
454.70	6555.84
454.89	6342.85
455.07	6403.71
455.26	6485.62
455.44	6686.91
455.62	6644.78
455.81	6588.61
455.99	6729.04
456.17	6604.99
456.36	6604.99
456.54	6572.22
456.73	6619.04
456.91	6913.94
457.09	6881.18
457.28	6815.64
457.46	6733.72
457.64	6878.83
457.83	6855.43
458.01	6768.83
458.19	7098.84
458.38	7049.69
458.56	7087.14
458.74	6967.77
458.93	6974.80
459.11	7255.66
459.29	7030.97
459.48	7108.21
459.66	7098.84
459.84	7066.08
460.03	7365.67
460.21	7297.79
460.39	7138.63
460.57	7276.73
460.76	7293.11
460.94	7389.07
461.12	7314.17
461.31	7466.31
461.49	7262.68
461.67	7049.69
461.85	7377.37
462.04	7325.88
462.22	7808.03
462.40	7569.29
462.59	7599.72
462.77	7637.17
462.95	7595.04
463.13	7508.44
463.32	7700.36
463.50	7812.71
463.68	7747.17
463.86	7801.01
464.05	7625.47
464.23	7784.62
464.41	7693.34
464.59	7730.79
464.78	7882.92
464.96	7911.01
465.14	7791.64
465.32	7995.27
465.50	7861.86
465.69	7866.54
465.87	7901.65
466.05	7953.14
466.23	7997.61
466.41	7948.46
466.60	8191.88
466.78	8035.06
466.96	7988.25
467.14	8032.72
467.32	8009.31
467.51	8156.77
467.69	8044.42
467.87	8035.06
468.05	8252.73
468.23	8140.38
468.41	8128.68
468.60	8236.35
468.78	8259.75
468.96	8299.54
469.14	8161.45
469.32	8496.14
469.50	8114.64
469.69	8503.17
469.87	8629.56
470.05	8585.08
470.23	8571.04
470.41	8439.97
470.59	8578.06
470.77	8557.00
470.95	8671.68
471.14	8674.03
471.32	8716.16
471.50	8849.57
471.68	8781.69
471.86	8926.80
472.04	9060.21
472.22	9036.81
472.40	8919.78
472.58	9041.49
472.77	9275.54
472.95	9153.84
473.13	9406.61
473.31	9067.24
473.49	9163.20
473.67	9128.09
473.85	9397.25
474.03	9535.34
474.21	9547.05
474.39	9540.02
474.57	9802.16
474.75	9750.67
474.93	9874.72
475.12	9774.08
475.30	9994.09
475.48	9823.23
475.66	9799.82
475.84	9891.10
476.02	10169.63
476.20	10052.60
476.38	10349.85
476.56	10384.96
476.74	10457.51
476.92	10352.19
477.10	10249.21
477.28	10623.69
477.46	10401.34
477.64	10675.18
477.82	10670.50
478.00	11192.44
478.18	10871.79
478.36	10974.77
478.54	10984.13
478.72	11220.53
478.90	11260.32
479.08	11169.04
479.26	11246.27
479.44	11370.32
479.62	11421.81
479.80	11578.63
479.98	11555.22
480.16	11864.18
480.34	11805.66
480.52	12088.87
480.70	11756.51
480.88	11964.82
481.06	12116.95
481.24	12177.81
481.41	12404.84
481.59	12332.28
481.77	12741.88
481.95	12517.18
482.13	12805.07
482.31	12697.41
482.49	12992.31
482.67	12631.87
482.85	13270.84
483.03	13188.92
483.21	13371.48
483.39	13511.91
483.57	13448.72
483.74	13762.35
483.92	13706.18
484.10	13434.68
484.28	13930.87
484.46	13987.04
484.64	14251.52
484.82	14026.83
485.00	14417.70
485.18	14279.61
485.35	14703.25
485.53	14436.42
485.71	14827.29
485.89	14944.32
486.07	14853.04
486.25	15152.63
486.43	14984.11
486.61	15325.83
486.78	15648.82
486.96	15667.55
487.14	15653.50
487.32	15889.90
487.50	15822.02
487.68	16081.82
487.85	16201.19
488.03	16226.93
488.21	16748.87
488.39	16601.42
488.57	16575.67
488.75	16702.06
488.92	17085.91
489.10	17135.06
489.28	17074.21
489.46	17621.89
489.64	17275.49
489.81	17701.47
489.99	17654.66
490.17	17935.53
490.35	18026.81
490.53	17923.82
490.70	18221.07
490.88	18132.13
491.06	18462.15
491.24	18345.12
491.41	18436.40
491.59	18750.03
491.77	18850.67
491.95	18927.91
492.13	18752.37
492.30	19164.31
492.48	19157.28
492.66	19573.90
492.84	19105.79
493.01	19761.14
493.19	19573.90
493.37	19311.76
493.54	19676.88
493.72	20063.07
493.90	20259.68
494.08	20222.23
494.25	20451.60
494.43	20835.45
494.61	20720.76
494.79	20828.43
494.96	20844.81
495.14	20851.83
495.32	21308.24
495.49	20943.11
495.67	21369.09
495.85	21434.63
496.02	21680.38
496.20	21919.12
496.38	21846.56
496.55	22146.15
496.73	22684.47
496.91	22092.32
497.09	22284.24
497.26	22434.03
497.44	22527.66
497.62	22574.47
497.79	22925.55
497.97	22932.57
498.14	22932.57
498.32	23337.48
498.50	22998.10
498.67	23438.12
498.85	23454.51
499.03	23550.47
499.20	23400.68
499.38	23754.10
499.56	23662.82
499.73	24088.79
499.91	23899.21
500.08	23770.48
500.26	23950.70
500.44	24423.49
500.61	24243.27
500.79	24238.59
500.97	24519.45
501.14	24772.23
501.32	24367.32
501.49	24776.91
501.67	24620.10
501.84	25113.95
502.02	25200.55
502.20	24915.00
502.37	25434.60
502.55	24952.45
502.72	25212.25
502.90	25266.08
503.07	25383.11
503.25	25415.88
503.43	25568.01
503.60	25879.30
503.78	25680.36
503.95	25654.61
504.13	25846.54
504.30	26115.70
504.48	25811.43
504.65	26242.09
504.83	26127.40
505.01	26349.75
505.18	26703.17
505.36	26618.91
505.53	27014.46
505.71	26948.93
505.88	26768.71
506.06	26670.40
506.23	27012.12
506.41	26869.35
506.58	26923.18
506.76	26981.70
506.93	27290.65
507.11	27267.24
507.28	27288.31
507.46	27428.74
507.63	27524.70
507.81	27922.59
507.98	27484.91
508.16	27555.13
508.33	27936.63
508.50	27999.83
508.68	28079.41
508.85	28566.24
509.03	28112.17
509.20	28393.04
509.38	28570.92
509.55	28514.75
509.73	28727.74
509.90	28528.79
510.08	28591.98
510.25	28783.91
510.42	28980.51
510.60	28971.15
510.77	29139.67
510.95	29331.59
511.12	29280.10
511.30	29336.27
511.47	29647.57
511.64	29490.75
511.82	29649.91
511.99	29708.42
512.17	29928.43
512.34	29528.20
512.51	30263.13
512.69	29860.55
512.86	29912.05
513.04	30054.82
513.21	30141.42
513.38	30120.35
513.56	30270.15
513.73	30314.62
513.90	30494.84
514.08	30497.18
514.25	30794.43
514.43	30607.19
514.60	30579.10
514.77	31304.67
514.95	31363.18
515.12	30967.63
515.29	31068.27
515.47	31194.66
515.64	31428.71
515.81	31285.94
515.99	31615.96
516.16	31269.56
516.33	31459.14
516.51	31985.76
516.68	31608.93
516.85	31592.55
517.03	32144.92
517.20	32114.49
517.37	31924.91
517.54	32222.16
517.72	32013.85
517.89	32140.24
518.06	32245.56
518.24	32065.34
518.41	32449.19
518.58	32273.65
518.75	32100.45
518.93	32231.52
519.10	32292.37
519.27	32683.24
519.45	32598.98
519.62	33095.18
519.79	32732.39
519.96	33165.39
520.14	33111.56
520.31	32975.81
520.48	33284.76
520.65	33275.40
520.83	33507.11
521.00	33399.44
521.17	33565.62
521.34	33659.24
521.52	33921.38
521.69	33504.77
521.86	33900.32
522.03	33659.24
522.20	34050.11
522.38	34366.09
522.55	34007.98
522.72	34419.92
522.89	34295.87
523.07	34242.04
523.24	34078.20
523.41	34752.27
523.58	34408.22
523.75	34541.63
523.92	34717.17
524.10	34728.87
524.27	34693.76
524.44	34763.98
524.61	35180.59
524.78	35152.51
524.96	35009.73
525.13	34951.22
525.30	35222.72
525.47	35033.14
525.64	35241.45
525.81	35637.00
525.98	35281.24
526.16	35227.40
526.33	34794.40
526.50	35903.82
526.67	35166.55
526.84	35962.33
527.01	35880.41
527.18	35852.33
527.36	35894.46
527.53	36051.27
527.70	36280.64
527.87	36041.91
528.04	36067.66
528.21	36133.19
528.38	36327.45
528.55	36734.71
528.72	36306.39
528.89	36133.19
529.07	36397.67
529.24	36442.14
529.41	36687.90
529.58	36194.04
529.75	36392.99
529.92	36435.12
530.09	36409.37
530.26	36664.49
530.43	37017.91
530.60	36718.32
530.77	36355.54
530.94	37251.97
531.11	37113.87
531.28	37003.87
531.46	37008.55
531.63	37317.50
531.80	37195.79
531.97	37216.86
532.14	37537.51
532.31	37062.38
532.48	37310.48
532.65	37652.20
532.82	37570.28
532.99	37706.03
533.16	37273.03
533.33	37481.34
533.50	37839.44
533.67	37827.74
533.84	38024.34
534.01	37830.08
534.18	37926.04
534.35	38227.97
534.52	37993.92
534.69	38167.12
534.86	38888.00
535.03	38356.70
535.20	38925.45
535.37	38417.55
535.54	38740.55
535.71	38419.89
535.88	38361.38
536.05	38899.70
536.22	38677.35
536.38	38848.21
536.55	38679.69
536.72	38513.52
536.89	38916.09
537.06	38958.22
537.23	39192.27
537.40	39000.35
537.57	39098.65
537.74	38618.84
537.91	39416.96
538.08	39014.39
538.25	39002.69
538.42	39164.18
538.59	39639.31
538.75	39019.07
538.92	39426.32
539.09	39407.60
539.26	39311.64
539.43	39482.50
539.60	39337.38
539.77	39342.06
539.94	40081.67
540.11	39592.50
540.28	39728.25
540.44	39737.62
540.61	39758.68
540.78	39746.98
540.95	39810.17
541.12	39606.55
541.29	39688.46
541.46	40179.98
541.62	39805.49
541.79	40161.25
541.96	39936.56
542.13	40053.59
542.30	40320.41
542.47	40163.59
542.63	40488.93
542.80	40795.54
542.97	40861.07
543.14	40765.11
543.31	40725.32
543.48	40950.01
543.64	41216.83
543.81	41041.29
543.98	40891.50
544.15	41090.44
544.32	41090.44
544.48	41420.46
544.65	41434.50
544.82	41434.50
544.99	40835.33
545.16	41446.21
545.32	41340.88
545.49	41497.70
545.66	41928.36
545.83	41469.61
546.00	41851.12
546.16	41481.31
546.33	41347.90
546.50	41591.32
546.67	41734.09
546.83	41237.90
547.00	41837.08
547.17	41567.91
547.34	41528.13
547.50	41759.84
547.67	42101.56
547.84	42146.03
548.00	42038.36
548.17	42344.97
548.34	41998.57
548.51	42597.75
548.67	42719.46
548.84	42183.48
549.01	42085.17
549.18	42466.68
549.34	42274.76
549.51	42703.07
549.68	42293.48
549.84	42576.69
550.01	42391.78
550.18	42878.61
550.34	42157.73
550.51	42864.57
550.68	43213.31
550.84	42366.04
551.01	42625.84
551.18	42574.34
551.34	42679.67
551.51	43138.41
551.68	42885.64
551.84	43028.41
552.01	42724.14
552.18	42808.40
552.34	43217.99
552.51	43051.81
552.68	43033.09
552.84	43241.40
553.01	43225.01
553.18	43047.13
553.34	43143.09
553.51	43304.59
553.67	43470.77
553.84	43356.08
554.01	43217.99
554.17	43412.26
554.34	43477.79
554.51	43470.77
554.67	43859.30
554.84	43351.40
555.00	43199.27
555.17	43842.92
555.33	43550.35
555.50	43611.20
555.67	43952.92
555.83	43868.66
556.00	43693.12
556.16	44336.77
556.33	44095.69
556.50	43941.22
556.66	43988.03
556.83	43545.67
556.99	43908.45
557.16	44046.54
557.32	44414.01
557.49	44142.50
557.65	43835.89
557.82	44030.16
557.98	43812.49
558.15	44198.68
558.32	44542.74
558.48	43906.11
558.65	44463.16
558.81	44069.95
558.98	43903.77
559.14	44601.25
559.31	43629.93
559.47	44250.17
559.64	43894.41
559.80	44245.49
559.97	44161.23
560.13	44201.02
560.30	43782.06
560.46	44535.71
560.63	44811.90
560.79	44734.66
560.96	44477.20
561.12	45041.27
561.29	44460.82
561.45	44376.56
561.61	44273.57
561.78	44362.51
561.94	44414.01
562.11	44701.89
562.27	44753.38
562.44	44832.96
562.60	44924.24
562.77	44793.17
562.93	44835.30
563.10	45193.40
563.26	44788.49
563.42	44992.12
563.59	45074.04
563.75	45123.19
563.92	45165.32
564.08	45008.50
564.24	45326.81
564.41	45095.10
564.57	45158.30
564.74	45052.97
564.90	44865.73
565.07	44783.81
565.23	45069.36
565.39	44999.14
565.56	45198.09
565.72	45064.67
565.88	45450.86
566.05	45181.70
566.21	45382.99
566.38	45074.04
566.54	45289.37
566.70	45399.37
566.87	45359.58
567.03	45022.54
567.19	45893.22
567.36	45071.70
567.52	45298.73
567.68	45832.37
567.85	45565.55
568.01	45434.48
568.17	45144.25
568.34	45404.05
568.50	45783.22
568.66	45535.12
568.83	45184.04
568.99	45415.76
569.15	45813.65
569.32	45006.16
569.48	45502.35
569.64	45455.54
569.81	45710.66
569.97	45855.78
570.13	45584.27
570.30	45158.30
570.46	45684.92
570.62	45593.64
570.78	45745.77
570.95	45446.18
571.11	45642.79
571.27	45427.46
571.43	45317.45
571.60	45729.39
571.76	45652.15
571.92	45638.11
572.09	45373.63
572.25	45591.30
572.41	45944.72
572.57	45401.71
572.74	46080.47
572.90	46096.85
573.06	45776.20
573.22	45687.26
573.38	45713.00
573.55	45869.82
573.71	46019.61
573.87	46054.72
574.03	46136.64
574.20	45940.04
574.36	46073.45
574.52	46286.43
574.68	46216.22
574.84	46021.95
575.01	46057.06
575.17	45902.59
575.33	46050.04
575.49	45881.52
575.65	46525.17
575.82	46153.02
575.98	45984.51
576.14	46153.02
576.30	46380.06
576.46	45996.21
576.62	46162.39
576.79	46047.70
576.95	45759.81
577.11	45825.35
577.27	46071.10
577.43	46305.16
577.59	46323.88
577.75	45879.18
577.92	45652.15
578.08	46237.28
578.24	45633.42
578.40	46211.54
578.56	46216.22
578.72	45982.16
578.88	45851.09
579.04	46335.59
579.21	46113.23
579.37	46169.41
579.53	46370.69
579.69	45420.44
579.85	45750.45
580.01	46071.10
580.17	46171.75
580.33	46443.25
580.49	46092.17
580.65	46340.27
580.82	46241.96
580.98	46267.71
581.14	45612.36
581.30	45691.94
581.46	46160.05
581.62	46188.13
581.78	46026.63
581.94	46232.60
582.10	46871.57
582.26	45921.31
582.42	46167.07
582.58	46604.75
582.74	46188.13
582.90	46176.43
583.06	46071.10
583.22	46162.39
583.38	46375.37
583.54	46609.43
583.70	46354.31
583.86	46595.38
584.02	46302.82
584.18	46803.69
584.34	46518.15
584.50	46534.53
584.66	46721.77
584.82	46005.57
584.98	46611.77
585.14	46431.55
585.30	46103.87
585.46	46593.04
585.62	45970.46
585.78	45954.08
585.94	45996.21
586.10	46377.72
586.26	46461.97
586.42	46036.00
586.58	46237.28
586.74	46024.29
586.90	46391.76
587.06	46277.07
587.22	46656.24
587.38	46667.94
587.54	45998.55
587.70	46513.47
587.86	46548.57
588.02	45954.08
588.18	46656.24
588.34	46581.34
588.49	46859.87
588.65	45954.08
588.81	46396.44
588.97	46902.00
589.13	46473.68
589.29	46586.02
589.45	46834.12
589.61	46721.77
589.77	46829.44
589.93	46450.27
590.08	46941.78
