SpectraSuite Data File
++++++++++++++++++++++++++++++++++++
Date: Fri Oct 25 10:47:57 EDT 2013
User: price-jones
Dark Spectrum Present: No
Reference Spectrum Present: No
Number of Sampled Component Spectra: 1
Spectrometers: USB2+H05261
Integration Time (usec): 100000 (USB2+H05261)
Spectra Averaged: 1 (USB2+H05261)
Boxcar Smoothing: 0 (USB2+H05261)
Correct for Electrical Dark: No (USB2+H05261)
Strobe/Lamp Enabled: No (USB2+H05261)
Correct for Detector Non-linearity: No (USB2+H05261)
Correct for Stray Light: No (USB2+H05261)
Number of Pixels in Processed Spectrum: 2048
>>>>>Begin Processed Spectral Data<<<<<
365.73	152.13
365.92	152.13
366.12	152.13
366.32	72.56
366.52	63.19
366.72	56.17
366.91	23.41
367.11	21.06
367.31	23.41
367.51	60.85
367.70	11.70
367.90	16.38
368.10	39.79
368.30	0.00
368.49	86.60
368.69	60.85
368.89	46.81
369.09	138.09
369.28	74.90
369.48	49.15
369.68	93.62
369.87	135.75
370.07	184.90
370.27	224.69
370.47	248.10
370.66	330.02
370.86	437.68
371.06	369.80
371.25	435.34
371.45	409.59
371.65	463.43
371.84	418.96
372.04	475.13
372.24	503.22
372.44	409.59
372.63	505.56
372.83	423.64
373.03	500.87
373.22	545.34
373.42	521.94
373.62	507.90
373.81	528.96
374.01	603.86
374.21	568.75
374.40	559.39
374.60	603.86
374.79	484.49
374.99	580.45
375.19	543.00
375.38	517.26
375.58	547.69
375.78	491.51
375.97	510.24
376.17	557.05
376.37	620.24
376.56	669.39
376.76	528.96
376.95	561.73
377.15	526.62
377.35	641.31
377.54	624.92
377.74	566.41
377.93	486.83
378.13	582.79
378.33	603.86
378.52	601.52
378.72	650.67
378.91	620.24
379.11	610.88
379.31	641.31
379.50	617.90
379.70	685.78
379.89	678.76
380.09	610.88
380.28	608.54
380.48	650.67
380.68	667.05
380.87	641.31
381.07	732.59
381.26	755.99
381.46	685.78
381.65	627.26
381.85	671.73
382.04	615.56
382.24	669.39
382.43	746.63
382.63	655.35
382.83	678.76
383.02	645.99
383.22	655.35
383.41	788.76
383.61	645.99
383.80	718.54
384.00	692.80
384.19	702.16
384.39	692.80
384.58	765.36
384.78	772.38
384.97	758.33
385.17	807.48
385.36	791.10
385.56	702.16
385.75	699.82
385.95	786.42
386.14	779.40
386.34	826.21
386.53	814.51
386.72	788.76
386.92	763.01
387.11	802.80
387.31	828.55
387.50	763.01
387.70	774.72
387.89	779.40
388.09	730.25
388.28	821.53
388.48	823.87
388.67	901.11
388.86	896.43
389.06	823.87
389.25	910.47
389.45	936.21
389.64	903.45
389.84	908.13
390.03	943.24
390.22	861.32
390.42	840.25
390.61	903.45
390.81	924.51
391.00	999.41
391.19	954.94
391.39	971.32
391.58	889.40
391.78	908.13
391.97	929.19
392.16	959.62
392.36	957.28
392.55	931.53
392.75	940.90
392.94	940.90
393.13	947.92
393.33	952.60
393.52	990.05
393.71	915.15
393.91	1055.58
394.10	1027.50
394.29	1034.52
394.49	1076.65
394.68	1109.41
394.88	1132.82
395.07	1097.71
395.26	1100.05
395.46	1081.33
395.65	1111.75
395.84	1067.28
396.04	1116.44
396.23	1116.44
396.42	1118.78
396.62	1004.09
396.81	1156.22
397.00	1144.52
397.19	1252.19
397.39	1224.10
397.58	1245.16
397.77	1256.87
397.97	1207.72
398.16	1240.48
398.35	1235.80
398.55	1247.51
398.74	1261.55
398.93	1409.00
399.12	1362.19
399.32	1362.19
399.51	1448.79
399.70	1490.92
399.90	1397.30
400.09	1460.49
400.28	1348.15
400.47	1413.68
400.67	1444.11
400.86	1441.77
401.05	1434.75
401.24	1504.96
401.44	1474.54
401.63	1523.69
401.82	1568.16
402.01	1394.96
402.21	1596.25
402.40	1458.15
402.59	1558.80
402.78	1488.58
402.97	1523.69
403.17	1614.97
403.36	1530.71
403.55	1701.57
403.74	1577.52
403.93	1614.97
404.13	1682.85
404.32	1561.14
404.51	1696.89
404.70	1678.16
404.89	1631.35
405.09	1820.94
405.28	1739.02
405.47	1699.23
405.66	1792.85
405.85	1813.92
406.05	1877.11
406.24	1858.39
406.43	1687.53
406.62	1874.77
406.81	1970.73
407.00	1823.28
407.20	1790.51
407.39	1839.66
407.58	1919.24
407.77	1830.30
407.96	1799.87
408.15	2015.20
408.34	2012.86
408.54	2029.24
408.73	1886.47
408.92	1977.75
409.11	2008.18
409.30	2008.18
409.49	2083.08
409.68	1994.14
409.87	2064.35
410.07	2069.03
410.26	2139.25
410.45	2101.80
410.64	2071.37
410.83	2202.44
411.02	2150.95
411.21	2230.53
411.40	2193.08
411.59	2207.13
411.78	2312.45
411.98	2317.13
412.17	2167.34
412.36	2375.64
412.55	2349.90
412.74	2441.18
412.93	2375.64
413.12	2438.84
413.31	2572.25
413.50	2490.33
413.69	2590.97
413.88	2621.40
414.07	2649.49
414.26	2658.85
414.45	2574.59
414.64	2544.16
414.83	2633.10
415.02	2670.55
415.22	2743.11
415.41	2661.19
415.60	2628.42
415.79	2710.34
415.98	2778.22
416.17	2750.13
416.36	2771.19
416.55	2813.32
416.74	2881.20
416.93	2949.08
417.12	2839.07
417.31	2988.86
417.50	2878.86
417.69	3014.61
417.88	2998.23
418.07	3098.87
418.26	2951.42
418.45	2899.92
418.64	3204.19
418.83	3164.40
419.02	3040.36
419.21	3222.92
419.39	3185.47
419.58	3136.32
419.77	3089.51
419.96	3232.28
420.15	3293.13
420.34	3290.79
420.53	3258.03
420.72	3368.03
420.91	3445.27
421.10	3396.12
421.29	3382.07
421.48	3311.86
421.67	3482.72
421.86	3506.12
422.05	3466.33
422.24	3445.27
422.43	3461.65
422.61	3513.14
422.80	3461.65
422.99	3438.25
423.18	3658.26
423.37	3644.21
423.56	3480.38
423.75	3424.20
423.94	3463.99
424.13	3243.98
424.32	3461.65
424.50	3506.12
424.69	3569.32
424.88	3588.04
425.07	3417.18
425.26	3391.44
425.45	3609.11
425.64	3522.51
425.83	3454.63
426.01	3648.90
426.20	3721.45
426.39	3506.12
426.58	3501.44
426.77	3660.60
426.96	3581.02
427.15	3620.81
427.33	3749.54
427.52	3611.45
427.71	3646.55
427.90	3672.30
428.09	3592.72
428.28	3632.51
428.46	3850.18
428.65	3735.50
428.84	3782.31
429.03	3861.88
429.22	3679.32
429.40	3815.07
429.59	3775.28
429.78	3515.48
429.97	3576.34
430.16	3646.55
430.34	3899.33
430.53	3817.41
430.72	3995.29
430.91	3985.93
431.10	3845.50
431.28	4058.49
431.47	3950.82
431.66	4187.22
431.85	3992.95
432.03	4152.11
432.22	4245.73
432.41	4215.30
432.60	4133.39
432.79	4168.49
432.97	4084.23
433.16	4252.75
433.35	4273.82
433.54	4159.13
433.72	4219.99
433.91	4234.03
434.10	4280.84
434.28	4227.01
434.47	4519.57
434.66	4369.78
434.85	4423.61
435.03	4344.03
435.22	4374.46
435.41	4566.39
435.59	4477.44
435.78	4512.55
435.97	4613.20
436.16	4599.15
436.34	4517.23
436.53	4629.58
436.72	4706.82
436.90	4606.17
437.09	4493.83
437.28	4414.25
437.46	4535.96
437.65	4685.75
437.84	4856.61
438.02	4662.35
438.21	4636.60
438.40	4573.41
438.58	4772.35
438.77	4959.60
438.96	4697.46
439.14	4840.23
439.33	5008.75
439.52	5160.88
439.70	5163.22
439.89	5039.17
440.08	5135.14
440.26	5203.01
440.45	5153.86
440.63	5160.88
440.82	5371.53
441.01	5387.91
441.19	5210.03
441.38	5371.53
441.57	5516.64
441.75	5373.87
441.94	5518.98
442.12	5341.10
442.31	5694.52
442.50	5600.90
442.68	5689.84
442.87	5633.67
443.05	5518.98
443.24	5802.19
443.43	5561.11
443.61	5692.18
443.80	5760.06
443.98	5654.73
444.17	5544.73
444.35	5645.37
444.54	5781.12
444.73	5762.40
444.91	5706.23
445.10	5832.62
445.28	5738.99
445.47	5767.08
445.65	5820.91
445.84	5949.64
446.02	5703.89
446.21	5874.74
446.39	5921.56
446.58	5937.94
446.77	5881.77
446.95	5713.25
447.14	6008.16
447.32	5956.66
447.51	5837.30
447.69	6080.71
447.88	6092.41
448.06	5851.34
448.25	5982.41
448.43	5935.60
448.62	6017.52
448.80	6038.58
448.99	5977.73
449.17	6033.90
449.36	6122.84
449.54	6087.73
449.73	6356.90
449.91	6331.15
450.10	6235.19
450.28	6424.77
450.46	6267.95
450.65	6513.71
450.83	6284.34
451.02	6424.77
451.20	6497.33
451.39	6422.43
451.57	6179.01
451.76	6349.87
451.94	6698.61
452.13	6466.90
452.31	6377.96
452.49	6394.34
452.68	6354.55
452.86	6406.05
453.05	6502.01
453.23	6663.51
453.42	6509.03
453.60	6476.26
453.78	6555.84
453.97	6399.02
454.15	6576.91
454.34	6609.67
454.52	6764.15
454.70	6724.36
454.89	6827.34
455.07	6869.47
455.26	6848.41
455.44	6853.09
455.62	6782.87
455.81	6913.94
455.99	6899.90
456.17	6857.77
456.36	7012.24
456.54	6977.14
456.73	7208.85
456.91	7206.51
457.09	7133.95
457.28	7475.67
457.46	7077.78
457.64	7302.47
457.83	7309.49
458.01	7192.47
458.19	7400.77
458.38	7243.96
458.56	7297.79
458.74	7194.81
458.93	7323.54
459.11	7253.32
459.29	7335.24
459.48	7363.33
459.66	7489.71
459.84	7400.77
460.03	7445.24
460.21	7676.96
460.39	7744.83
460.57	7588.02
460.76	7588.02
460.94	7815.05
461.12	7632.49
461.31	7730.79
461.49	7723.77
461.67	7875.90
461.85	7854.84
462.04	7747.17
462.22	8444.65
462.40	7796.32
462.59	7915.69
462.77	7882.92
462.95	8116.98
463.13	7857.18
463.32	7974.21
463.50	7960.16
463.68	8226.98
463.86	8138.04
464.05	8023.36
464.23	7920.37
464.41	8250.39
464.59	7920.37
464.78	8252.73
464.96	8135.70
465.14	8212.94
465.32	8304.22
465.50	8229.32
465.69	8390.82
465.87	8381.46
466.05	8255.07
466.23	8189.53
466.41	8294.86
466.60	8444.65
466.78	8318.26
466.96	8210.60
467.14	8442.31
467.32	8592.11
467.51	8531.25
467.69	8252.73
467.87	8297.20
468.05	8454.02
468.23	8393.16
468.41	8692.75
468.60	8465.72
468.78	8828.50
468.96	8528.91
469.14	8643.60
469.32	8835.52
469.50	8564.02
469.69	8802.75
469.87	8882.33
470.05	8823.82
470.23	8847.22
470.41	8833.18
470.59	9006.38
470.77	8830.84
470.95	8786.37
471.14	9006.38
471.32	9076.60
471.50	9376.19
471.68	9312.99
471.86	9301.29
472.04	9027.45
472.22	9502.58
472.40	9156.18
472.58	9123.41
472.77	9434.70
472.95	9525.98
473.13	9729.61
473.31	9430.02
473.49	9537.68
473.67	9493.21
473.85	9462.79
474.03	9958.98
474.21	9748.33
474.39	9961.32
474.57	9935.57
474.75	10080.69
474.93	10080.69
475.12	9994.09
475.30	10270.27
475.48	9977.70
475.66	10218.78
475.84	10146.22
476.02	10181.33
476.20	10401.34
476.38	10581.56
476.56	10642.42
476.74	10700.93
476.92	10443.47
477.10	10733.70
477.28	10995.84
477.46	10815.62
477.64	10881.15
477.82	11117.54
478.00	11169.04
478.18	11316.49
478.36	11269.68
478.54	11485.01
478.72	11279.04
478.90	11651.19
479.08	11845.45
479.26	11726.08
479.44	11765.87
479.62	11983.54
479.80	12088.87
479.98	12217.60
480.16	12393.14
480.34	12222.28
480.52	12461.01
480.70	12360.37
480.88	12444.63
481.06	12685.70
481.24	12512.50
481.41	12835.50
481.59	13062.53
481.77	12919.76
481.95	12954.87
482.13	12957.21
482.31	13151.47
482.49	13673.41
482.67	13425.31
482.85	13226.37
483.03	13549.36
483.21	13813.84
483.39	14085.34
483.57	13839.59
483.74	14125.13
483.92	14162.58
484.10	13853.63
484.28	14274.93
484.46	14581.54
484.64	14733.67
484.82	14726.65
485.00	14843.68
485.18	15007.52
485.35	15080.07
485.53	14949.00
485.71	14960.70
485.89	15267.31
486.07	15264.97
486.25	15169.01
486.43	15232.21
486.61	15660.52
486.78	15681.59
486.96	15997.56
487.14	16027.99
487.32	16046.71
487.50	16287.79
487.68	16517.16
487.85	16720.79
488.03	16744.19
488.21	16987.61
488.39	17097.61
488.57	17046.12
488.75	17254.43
488.92	17341.03
489.10	17689.77
489.28	17528.27
489.46	17701.47
489.64	17947.23
489.81	18101.70
489.99	18078.30
490.17	18328.74
490.35	18609.60
490.53	18466.83
490.70	18726.63
490.88	18647.05
491.06	19159.63
491.24	19077.71
491.41	19026.21
491.59	18972.38
491.77	18899.83
491.95	19405.38
492.13	19709.65
492.30	19527.09
492.48	19714.33
492.66	19826.68
492.84	19847.74
493.01	19894.55
493.19	20311.17
493.37	20589.69
493.54	20465.64
493.72	20575.65
493.90	20659.91
494.08	20943.11
494.25	21095.25
494.43	20807.36
494.61	20943.11
494.79	21345.69
494.96	21123.33
495.14	21488.46
495.32	21631.23
495.49	21561.02
495.67	21549.31
495.85	21755.28
496.02	22141.47
496.20	22457.44
496.38	22525.32
496.55	22429.35
496.73	22895.12
496.91	22515.95
497.09	22841.29
497.26	23023.85
497.44	22888.10
497.62	22958.31
497.79	23143.22
497.97	23042.57
498.14	23562.17
498.32	23452.17
498.50	23325.78
498.67	23838.36
498.85	23742.39
499.03	24159.01
499.20	23754.10
499.38	23880.49
499.56	24276.04
499.73	24491.37
499.91	24400.08
500.08	24477.32
500.26	24479.66
500.44	24606.05
500.61	24692.65
500.79	24329.87
500.97	24898.62
501.14	25001.60
501.32	25392.47
501.49	24957.13
501.67	24826.06
501.84	25064.80
502.02	25516.52
502.20	25450.99
502.37	25776.32
502.55	25495.46
502.72	25486.09
502.90	25778.66
503.07	25923.77
503.25	25743.55
503.43	25687.38
503.60	25879.30
503.78	26047.82
503.95	25989.31
504.13	26232.72
504.30	26391.88
504.48	26188.25
504.65	26494.86
504.83	27227.45
505.01	26916.16
505.18	26986.38
505.36	27243.84
505.53	26918.50
505.71	27126.81
505.88	27475.55
506.06	26892.76
506.23	27510.66
506.41	27115.11
506.58	27494.27
506.76	27812.59
506.93	27716.62
507.11	27765.78
507.28	27728.33
507.46	28112.17
507.63	28016.21
507.81	27913.23
507.98	27641.73
508.16	27990.47
508.33	28212.82
508.50	28386.02
508.68	28460.91
508.85	28765.18
509.03	28458.57
509.20	28659.86
509.38	28863.49
509.55	28975.83
509.73	28765.18
509.90	28727.74
510.08	29106.90
510.25	29294.14
510.42	29230.95
510.60	29027.32
510.77	29455.64
510.95	30019.71
511.12	29406.49
511.30	29708.42
511.47	29802.04
511.64	30012.69
511.82	30286.53
511.99	29972.90
512.17	30010.35
512.34	29823.11
512.51	29984.60
512.69	30204.61
512.86	30265.47
513.04	30761.66
513.21	30574.42
513.38	30504.20
513.56	30742.94
513.73	30623.57
513.90	30621.23
514.08	30562.72
514.25	31037.84
514.43	30780.39
514.60	30548.67
514.77	30881.03
514.95	31150.19
515.12	31344.45
515.29	31140.83
515.47	31662.77
515.64	31833.63
515.81	31489.57
515.99	31569.15
516.16	31791.50
516.33	31732.98
516.51	31931.93
516.68	31405.31
516.85	31772.77
517.03	31700.22
517.20	31952.99
517.37	32004.49
517.54	32051.30
517.72	32196.41
517.89	31964.70
518.06	31999.80
518.24	32123.85
518.41	31985.76
518.58	32453.87
518.75	32425.78
518.93	32826.01
519.10	32706.65
519.27	33024.96
519.45	33163.05
519.62	32708.99
519.79	32826.01
519.96	32900.91
520.14	32992.19
520.31	33443.91
520.48	33092.83
520.65	33200.50
520.83	33610.09
521.00	33617.11
521.17	33582.01
521.34	33848.83
521.52	34015.01
521.69	33684.99
521.86	33647.54
522.03	33741.16
522.20	33897.98
522.38	34190.55
522.55	34043.09
522.72	34143.74
522.89	33975.22
523.07	34354.38
523.24	34150.76
523.41	34356.72
523.58	34455.03
523.75	34792.06
523.92	34490.13
524.10	34698.44
524.27	34483.11
524.44	34953.56
524.61	35196.98
524.78	35379.54
524.96	35192.30
525.13	35349.11
525.30	35363.15
525.47	35189.95
525.64	35166.55
525.81	35342.09
525.98	35339.75
526.16	35105.70
526.33	35023.78
526.50	35716.58
526.67	35356.13
526.84	35756.36
527.01	35075.27
527.18	35393.58
527.36	35761.05
527.53	35761.05
527.70	36411.71
527.87	36203.41
528.04	35952.97
528.21	36168.30
528.38	36107.44
528.55	36275.96
528.72	36538.10
528.89	36116.81
529.07	36266.60
529.24	36184.68
529.41	36559.17
529.58	36219.79
529.75	35896.80
529.92	36498.31
530.09	36423.42
530.26	36896.20
530.43	36479.59
530.60	36486.61
530.77	37001.53
530.94	36982.80
531.11	36938.33
531.28	36931.31
531.46	37399.42
531.63	37097.49
531.80	37074.09
531.97	37120.90
532.14	37165.37
532.31	37020.25
532.48	37619.43
532.65	37177.07
532.82	37717.73
532.99	37663.90
533.16	36896.20
533.33	37703.69
533.50	37916.68
533.67	37804.33
533.84	37266.01
534.01	37900.29
534.18	37801.99
534.35	38134.35
534.52	38075.84
534.69	37867.53
534.86	38452.66
535.03	37776.25
535.20	38342.66
535.37	38260.74
535.54	38270.10
535.71	38019.66
535.88	38270.10
536.05	38094.56
536.22	38452.66
536.38	38314.57
536.55	38431.60
536.72	38412.87
536.89	38707.78
537.06	38267.76
537.23	38869.28
537.40	38632.88
537.57	38742.89
537.74	38696.08
537.91	39508.24
538.08	39185.25
538.25	38782.68
538.42	38880.98
538.59	39407.60
538.75	38700.76
538.92	38897.36
539.09	39372.49
539.26	38871.62
539.43	39292.91
539.60	39122.05
539.77	39522.29
539.94	39295.25
540.11	39166.52
540.28	39442.71
540.44	39372.49
540.61	38941.83
540.78	39248.44
540.95	39164.18
541.12	38976.94
541.29	39482.50
541.46	39159.50
541.62	39629.95
541.79	39936.56
541.96	39629.95
542.13	39707.19
542.30	39625.27
542.47	40002.10
542.63	39880.39
542.80	40067.63
542.97	40147.21
543.14	40187.00
543.31	40208.06
543.48	40362.54
543.64	40587.23
543.81	40641.06
543.98	40451.48
544.15	40502.97
544.32	40875.12
544.48	41163.00
544.65	40928.95
544.82	40870.43
544.99	40378.92
545.16	40531.06
545.32	40741.71
545.49	41017.89
545.66	40809.58
545.83	41186.41
546.00	41029.59
546.16	40800.22
546.33	40271.26
546.50	40673.83
546.67	40989.80
546.83	40456.16
547.00	40760.43
547.17	40907.88
547.34	40989.80
547.50	40896.18
547.67	41069.38
547.84	41345.56
548.00	41729.41
548.17	41291.73
548.34	41359.61
548.51	41476.63
548.67	41268.33
548.84	41654.51
549.01	41661.54
549.18	41277.69
549.34	41408.76
549.51	41619.41
549.68	41778.56
549.84	41518.76
550.01	41790.27
550.18	41965.81
550.34	41787.92
550.51	41684.94
550.68	41816.01
550.84	41453.23
551.01	42487.74
551.18	41832.39
551.34	41944.74
551.51	42225.60
551.68	42340.29
551.84	42267.73
552.01	42071.13
552.18	42424.55
552.34	41958.78
552.51	42246.67
552.68	42309.86
552.84	42401.14
553.01	42820.10
553.18	42347.31
553.34	42249.01
553.51	42099.22
553.67	42260.71
553.84	43030.75
554.01	42873.93
554.17	42686.69
554.34	42845.85
554.51	42864.57
554.67	42927.77
554.84	42941.81
555.00	42396.46
555.17	42487.74
555.33	42572.00
555.50	42904.36
555.67	42396.46
555.83	42564.98
556.00	42719.46
556.16	43248.42
556.33	43007.34
556.50	42698.39
556.66	43290.55
556.83	42682.01
556.99	43054.15
557.16	43068.20
557.32	42920.74
557.49	43096.28
557.65	43075.22
557.82	43246.08
557.98	43257.78
558.15	42714.78
558.32	43054.15
558.48	42955.85
558.65	43220.33
558.81	43086.92
558.98	43426.30
559.14	43229.69
559.31	42871.59
559.47	43452.05
559.64	43608.86
559.80	43725.89
559.97	43405.23
560.13	43262.46
560.30	43409.92
560.46	44074.63
560.63	43264.80
560.79	43353.74
560.96	43229.69
561.12	43737.59
561.29	43253.10
561.45	43585.46
561.61	43342.04
561.78	43648.65
561.94	43398.21
562.11	43515.24
562.27	43454.39
562.44	43618.22
562.60	44016.11
562.77	43643.97
562.93	43730.57
563.10	44126.12
563.26	43126.71
563.42	43655.67
563.59	43765.68
563.75	43639.29
563.92	43875.68
564.08	43828.87
564.24	43803.13
564.41	43648.65
564.57	44191.65
564.74	43576.09
564.90	44062.93
565.07	43751.63
565.23	43880.36
565.39	43793.76
565.56	43800.79
565.72	43812.49
565.88	44002.07
566.05	44198.68
566.21	44161.23
566.38	43882.70
566.54	44353.15
566.70	44369.54
566.87	44659.76
567.03	44151.87
567.19	44301.66
567.36	44357.83
567.52	43863.98
567.68	44130.80
567.85	43878.02
568.01	44016.11
568.17	44107.40
568.34	44025.48
568.50	44353.15
568.66	44072.29
568.83	44186.97
568.99	43716.53
569.15	44201.02
569.32	43709.50
569.48	44116.76
569.64	44334.43
569.81	44308.68
569.97	43782.06
570.13	44315.70
570.30	43791.42
570.46	44072.29
570.62	43688.44
570.78	43615.88
570.95	43999.73
571.11	44076.97
571.27	43840.57
571.43	44311.02
571.60	44348.47
571.76	44428.05
571.92	43753.97
572.09	44156.55
572.25	44439.75
572.41	44299.32
572.57	44172.93
572.74	44692.53
572.90	44348.47
573.06	44172.93
573.22	44589.55
573.38	44273.57
573.55	43777.38
573.71	43981.01
573.87	44219.74
574.03	44051.22
574.20	44032.50
574.36	44409.32
574.52	44608.27
574.68	44556.78
574.84	44416.35
575.01	44210.38
575.17	44458.48
575.33	44472.52
575.49	43838.23
575.65	44587.21
575.82	44744.02
575.98	44634.02
576.14	44535.71
576.30	44308.68
576.46	44432.73
576.62	44112.08
576.79	44949.99
576.95	44151.87
577.11	43973.98
577.27	44266.55
577.43	44758.06
577.59	44318.04
577.75	44140.16
577.92	43739.93
578.08	44414.01
578.24	44161.23
578.40	44528.69
578.56	44198.68
578.72	44718.28
578.88	44521.67
579.04	44495.92
579.21	44676.15
579.37	44596.57
579.53	44554.44
579.69	44198.68
579.85	44587.21
580.01	44580.18
580.17	44528.69
580.33	44765.09
580.49	44472.52
580.65	44580.18
580.82	44589.55
580.98	44664.44
581.14	44512.31
581.30	44732.32
581.46	44648.06
581.62	44247.83
581.78	44861.05
581.94	44753.38
582.10	44601.25
582.26	44830.62
582.42	44158.89
582.58	44357.83
582.74	44589.55
582.90	44678.49
583.06	44531.03
583.22	44699.55
583.38	44992.12
583.54	44559.12
583.70	44549.76
583.86	44596.57
584.02	44512.31
584.18	44741.68
584.34	44708.91
584.50	44451.45
584.66	44322.72
584.82	44172.93
584.98	44783.81
585.14	44872.75
585.30	44463.16
585.46	44598.91
585.62	44362.51
585.78	44807.22
585.94	43906.11
586.10	44533.37
586.26	44215.06
586.42	45202.77
586.58	44718.28
586.74	44280.60
586.90	44783.81
587.06	44357.83
587.22	44725.30
587.38	44952.33
587.54	45469.59
587.70	45001.48
587.86	44554.44
588.02	44825.94
588.18	44655.08
588.34	44729.98
588.49	44397.62
588.65	44680.83
588.81	44641.04
588.97	44650.40
589.13	44612.95
589.29	44818.92
589.45	44753.38
589.61	44701.89
589.77	45045.95
589.93	44648.06
590.08	45052.97
590.24	45036.59
