SpectraSuite Data File
++++++++++++++++++++++++++++++++++++
Date: Fri Oct 25 10:44:39 EDT 2013
User: price-jones
Dark Spectrum Present: No
Reference Spectrum Present: No
Number of Sampled Component Spectra: 1
Spectrometers: USB2+H05261
Integration Time (usec): 100000 (USB2+H05261)
Spectra Averaged: 1 (USB2+H05261)
Boxcar Smoothing: 0 (USB2+H05261)
Correct for Electrical Dark: No (USB2+H05261)
Strobe/Lamp Enabled: No (USB2+H05261)
Correct for Detector Non-linearity: No (USB2+H05261)
Correct for Stray Light: No (USB2+H05261)
Number of Pixels in Processed Spectrum: 2048
>>>>>Begin Processed Spectral Data<<<<<
365.73	100.64
365.92	100.64
366.12	100.64
366.32	30.43
366.52	0.00
366.72	72.56
366.91	11.70
367.11	35.11
367.31	0.00
367.51	14.04
367.70	21.06
367.90	65.54
368.10	49.15
368.30	53.83
368.49	58.51
368.69	4.68
368.89	102.98
369.09	72.56
369.28	4.68
369.48	16.38
369.68	93.62
369.87	0.00
370.07	117.03
370.27	93.62
370.47	210.65
370.66	362.78
370.86	372.15
371.06	433.00
371.25	425.98
371.45	372.15
371.65	437.68
371.84	386.19
372.04	435.34
372.24	435.34
372.44	458.74
372.63	528.96
372.83	447.04
373.03	433.00
373.22	451.72
373.42	463.43
373.62	547.69
373.81	573.43
374.01	484.49
374.21	514.92
374.40	451.72
374.60	578.11
374.79	521.94
374.99	571.09
375.19	512.58
375.38	587.47
375.58	486.83
375.78	545.34
375.97	561.73
376.17	543.00
376.37	550.03
376.56	545.34
376.76	489.17
376.95	566.41
377.15	573.43
377.35	636.63
377.54	566.41
377.74	538.32
377.93	641.31
378.13	594.50
378.33	653.01
378.52	557.05
378.72	568.75
378.91	587.47
379.11	610.88
379.31	592.16
379.50	660.03
379.70	622.58
379.89	704.50
380.09	578.11
380.28	692.80
380.48	648.33
380.68	606.20
380.87	596.84
381.07	571.09
381.26	613.22
381.46	638.97
381.65	697.48
381.85	601.52
382.04	629.60
382.24	650.67
382.43	709.18
382.63	653.01
382.83	594.50
383.02	636.63
383.22	667.05
383.41	603.86
383.61	695.14
383.80	711.52
384.00	678.76
384.19	671.73
384.39	784.08
384.58	688.12
384.78	748.97
384.97	784.08
385.17	753.65
385.36	681.10
385.56	779.40
385.75	650.67
385.95	697.48
386.14	744.29
386.34	751.31
386.53	800.46
386.72	800.46
386.92	844.93
387.11	753.65
387.31	800.46
387.50	723.23
387.70	837.91
387.89	767.70
388.09	842.59
388.28	816.85
388.48	779.40
388.67	929.19
388.86	819.19
389.06	844.93
389.25	875.36
389.45	866.00
389.64	861.32
389.84	802.80
390.03	884.72
390.22	875.36
390.42	842.59
390.61	779.40
390.81	961.96
391.00	917.49
391.19	997.07
391.39	940.90
391.58	828.55
391.78	943.24
391.97	1001.75
392.16	994.73
392.36	1029.84
392.55	952.60
392.75	966.64
392.94	919.83
393.13	861.32
393.33	840.25
393.52	1018.13
393.71	959.62
393.91	961.96
394.10	966.64
394.29	992.39
394.49	957.28
394.68	1046.22
394.88	1076.65
395.07	1097.71
395.26	1181.97
395.46	1027.50
395.65	1137.50
395.84	1027.50
396.04	1165.59
396.23	1032.18
396.42	1022.81
396.62	994.73
396.81	1142.18
397.00	1160.91
397.19	1200.69
397.39	1121.12
397.58	1282.61
397.77	1200.69
397.97	1240.48
398.16	1252.19
398.35	1245.16
398.55	1198.35
398.74	1259.21
398.93	1423.05
399.12	1324.74
399.32	1273.25
399.51	1282.61
399.70	1366.87
399.90	1341.13
400.09	1425.39
400.28	1345.81
400.47	1425.39
400.67	1441.77
400.86	1401.98
401.05	1462.83
401.24	1579.86
401.44	1528.37
401.63	1476.88
401.82	1540.07
402.01	1441.77
402.21	1526.03
402.40	1444.11
402.59	1500.28
402.78	1516.67
402.97	1514.33
403.17	1533.05
403.36	1556.46
403.55	1619.65
403.74	1572.84
403.93	1570.50
404.13	1696.89
404.32	1645.40
404.51	1703.91
404.70	1755.40
404.89	1577.52
405.09	1657.10
405.28	1715.61
405.47	1650.08
405.66	1755.40
405.85	1795.19
406.05	1694.55
406.24	1788.17
406.43	1792.85
406.62	1802.21
406.81	1975.41
407.00	1729.66
407.20	1827.96
407.39	1832.64
407.58	1778.81
407.77	1933.28
407.96	1937.96
408.15	1954.35
408.34	1937.96
408.54	1954.35
408.73	1956.69
408.92	2008.18
409.11	1989.46
409.30	1968.39
409.49	1949.67
409.68	2092.44
409.87	1996.48
410.07	2092.44
410.26	1980.09
410.45	2118.18
410.64	2024.56
410.83	2174.36
411.02	2150.95
411.21	2277.34
411.40	2244.57
411.59	2235.21
411.78	2251.60
411.98	2335.85
412.17	2284.36
412.36	2363.94
412.55	2389.69
412.74	2340.54
412.93	2410.75
413.12	2483.31
413.31	2537.14
413.50	2630.76
413.69	2527.78
413.88	2544.16
414.07	2502.03
414.26	2574.59
414.45	2525.44
414.64	2684.59
414.83	2729.06
415.02	2686.94
415.22	2738.43
415.41	2775.88
415.60	2782.90
415.79	2768.85
415.98	2848.43
416.17	2813.32
416.36	2883.54
416.55	2778.22
416.74	2862.48
416.93	2850.77
417.12	2848.43
417.31	2885.88
417.50	2857.79
417.69	3101.21
417.88	3073.12
418.07	2972.48
418.26	3124.62
418.45	3117.59
418.64	3283.77
418.83	3162.06
419.02	3204.19
419.21	3215.90
419.39	3159.72
419.58	3169.09
419.77	3157.38
419.96	3208.87
420.15	3276.75
420.34	3206.53
420.53	3377.39
420.72	3311.86
420.91	3269.73
421.10	3384.41
421.29	3361.01
421.48	3428.88
421.67	3426.54
421.86	3325.90
422.05	3442.93
422.24	3522.51
422.43	3361.01
422.61	3386.76
422.80	3445.27
422.99	3459.31
423.18	3433.57
423.37	3569.32
423.56	3410.16
423.75	3529.53
423.94	3447.61
424.13	3300.16
424.32	3375.05
424.50	3557.61
424.69	3534.21
424.88	3517.83
425.07	3468.67
425.26	3482.72
425.45	3503.78
425.64	3559.95
425.83	3517.83
426.01	3611.45
426.20	3620.81
426.39	3431.23
426.58	3492.08
426.77	3513.14
426.96	3588.04
427.15	3566.98
427.33	3702.73
427.52	3653.58
427.71	3676.98
427.90	3733.15
428.09	3817.41
428.28	3705.07
428.46	3716.77
428.65	3620.81
428.84	3812.73
429.03	3892.31
429.22	3609.11
429.40	3779.97
429.59	3772.94
429.78	3676.98
429.97	3581.02
430.16	3613.79
430.34	3705.07
430.53	3810.39
430.72	3805.71
430.91	3843.16
431.10	3775.28
431.28	4035.08
431.47	4217.65
431.66	4287.86
431.85	4046.79
432.03	4053.81
432.22	4184.88
432.41	3880.61
432.60	4184.88
432.79	4231.69
432.97	4212.96
433.16	4290.20
433.35	4112.32
433.54	4201.26
433.72	4142.75
433.91	4280.84
434.10	4271.48
434.28	4297.22
434.47	4360.42
434.66	4276.16
434.85	4372.12
435.03	4271.48
435.22	4477.44
435.41	4622.56
435.59	4496.17
435.78	4437.66
435.97	4503.19
436.16	4589.79
436.34	4409.57
436.53	4737.24
436.72	4608.51
436.90	4578.09
437.09	4650.64
437.28	4664.69
437.46	4594.47
437.65	4531.28
437.84	4571.07
438.02	4830.87
438.21	4709.16
438.40	4734.90
438.58	4755.97
438.77	4894.06
438.96	4901.08
439.14	4884.70
439.33	5071.94
439.52	4978.32
439.70	5100.03
439.89	5153.86
440.08	4950.23
440.26	5146.84
440.45	5128.11
440.63	5219.39
440.82	5270.89
441.01	5172.58
441.19	5348.12
441.38	5490.90
441.57	5476.85
441.75	5411.32
441.94	5514.30
442.12	5516.64
442.31	5509.62
442.50	5591.54
442.68	5657.07
442.87	5495.58
443.05	5671.12
443.24	5713.25
443.43	5579.84
443.61	5694.52
443.80	5696.86
443.98	5612.60
444.17	5586.86
444.35	5734.31
444.54	5893.47
444.73	5921.56
444.91	5830.27
445.10	5636.01
445.28	5701.54
445.47	5753.04
445.65	5696.86
445.84	5884.11
446.02	5792.83
446.21	5781.12
446.39	5795.17
446.58	6019.86
446.77	5900.49
446.95	5820.91
447.14	5928.58
447.32	5961.34
447.51	5900.49
447.69	5846.66
447.88	6008.16
448.06	5797.51
448.25	6064.33
448.43	5907.51
448.62	5961.34
448.80	6045.60
448.99	5834.96
449.17	6127.52
449.36	6139.23
449.54	6115.82
449.73	6146.25
449.91	6202.42
450.10	6120.50
450.28	6263.27
450.46	6349.87
450.65	6392.00
450.83	6401.37
451.02	6513.71
451.20	6530.09
451.39	6368.60
451.57	6441.15
451.76	6420.09
451.94	6417.75
452.13	6541.80
452.31	6406.05
452.49	6443.49
452.68	6497.33
452.86	6452.86
453.05	6476.26
453.23	6445.84
453.42	6480.94
453.60	6553.50
453.78	6724.36
453.97	6509.03
454.15	6520.73
454.34	6593.29
454.52	6733.72
454.70	6754.79
454.89	6647.12
455.07	6733.72
455.26	6813.30
455.44	6808.62
455.62	6801.60
455.81	6871.81
455.99	6988.84
456.17	6977.14
456.36	6892.88
456.54	7019.27
456.73	7000.54
456.91	7201.83
457.09	7206.51
457.28	7510.78
457.46	7115.23
457.64	7169.06
457.83	7218.21
458.01	6963.09
458.19	7330.56
458.38	7283.75
458.56	7442.90
458.74	7424.18
458.93	7442.90
459.11	7229.91
459.29	7351.62
459.48	7712.07
459.66	7548.23
459.84	7445.24
460.03	7569.29
460.21	7623.12
460.39	7742.49
460.57	7660.57
460.76	7478.01
460.94	7613.76
461.12	7838.45
461.31	7861.86
461.49	7779.94
461.67	7531.84
461.85	7988.25
462.04	7976.55
462.22	7901.65
462.40	7906.33
462.59	7726.11
462.77	8044.42
462.95	7882.92
463.13	8049.10
463.32	7833.77
463.50	8177.83
463.68	8156.77
463.86	8030.38
464.05	7733.13
464.23	8081.87
464.41	8180.17
464.59	7976.55
464.78	8065.49
464.96	8182.51
465.14	8194.22
465.32	8212.94
465.50	8198.90
465.69	8393.16
465.87	8301.88
466.05	8238.69
466.23	8294.86
466.41	8276.13
466.60	8407.20
466.78	8243.37
466.96	8084.21
467.14	8372.10
467.32	8465.72
467.51	8533.59
467.69	8248.05
467.87	8379.12
468.05	8428.27
468.23	8421.25
468.41	8496.14
468.60	8491.46
468.78	8643.60
468.96	8468.06
469.14	8519.55
469.32	8662.32
469.50	8465.72
469.69	8777.01
469.87	8980.64
470.05	8702.11
470.23	8762.97
470.41	8945.53
470.59	9029.79
470.77	9123.41
470.95	8856.59
471.14	9071.92
471.32	9036.81
471.50	9034.47
471.68	9219.37
471.86	9200.65
472.04	9577.47
472.22	9380.87
472.40	9294.27
472.58	9298.95
472.77	9380.87
472.95	9455.76
473.13	9757.69
473.31	9420.66
473.49	9453.42
473.67	9635.99
473.85	9685.14
474.03	9811.53
474.21	9717.90
474.39	10104.09
474.57	9848.97
474.75	10258.57
474.93	10345.17
475.12	10010.47
475.30	9743.65
475.48	10298.36
475.66	10368.57
475.84	10324.10
476.02	10249.21
476.20	10450.49
476.38	10356.87
476.56	10810.93
476.74	10820.30
476.92	10616.67
477.10	10771.15
477.28	10855.40
477.46	10644.76
477.64	11007.54
477.82	11279.04
478.00	11311.81
478.18	11349.26
478.36	11325.85
478.54	11349.26
478.72	11508.41
478.90	11602.04
479.08	11548.20
479.26	11988.22
479.44	11716.72
479.62	11892.26
479.80	12121.63
479.98	12238.66
480.16	12313.56
480.34	12095.89
480.52	12329.94
480.70	12189.51
480.88	12229.30
481.06	12212.92
481.24	12549.95
481.41	12725.49
481.59	12971.25
481.77	13055.51
481.95	13085.94
482.13	13121.04
482.31	13083.59
482.49	13252.11
482.67	13736.60
482.85	13607.87
483.03	13764.69
483.21	13841.93
483.39	13748.31
483.57	13839.59
483.74	13813.84
483.92	14443.45
484.10	13834.91
484.28	14607.28
484.46	14677.50
484.64	14946.66
484.82	14480.89
485.00	14539.41
485.18	15014.54
485.35	14927.94
485.53	14841.34
485.71	14988.79
485.89	15110.50
486.07	14930.28
486.25	15309.44
486.43	15541.16
486.61	15676.91
486.78	15562.22
486.96	16084.16
487.14	16112.25
487.32	16205.87
487.50	16655.25
487.68	16484.39
487.85	16432.90
488.03	16922.07
488.21	16673.98
488.39	16765.26
488.57	17310.60
488.75	17371.46
488.92	17474.44
489.10	17268.47
489.28	17671.04
489.46	17991.70
489.64	17699.13
489.81	18134.47
489.99	18129.79
490.17	18429.38
490.35	18532.36
490.53	18450.44
490.70	18483.21
490.88	18321.71
491.06	18941.96
491.24	18553.43
491.41	19014.51
491.59	19042.60
491.77	18965.36
491.95	19356.23
492.13	19335.17
492.30	19522.41
492.48	19721.35
492.66	19978.81
492.84	19634.75
493.01	19920.30
493.19	19784.55
493.37	20493.73
493.54	20215.21
493.72	20531.18
493.90	20533.52
494.08	20790.98
494.25	21177.17
494.43	20762.89
494.61	20753.53
494.79	21240.36
494.96	21156.10
495.14	21167.80
495.32	21530.59
495.49	21401.86
495.67	21752.94
495.85	21706.13
496.02	21975.29
496.20	22036.14
496.38	22221.05
496.55	22319.35
496.73	23051.94
496.91	22583.83
497.09	22665.75
497.26	22710.22
497.44	22813.20
497.62	23316.42
497.79	23164.28
497.97	22780.43
498.14	23215.77
498.32	23503.66
498.50	23297.69
498.67	23723.67
498.85	23674.52
499.03	23761.12
499.20	23747.08
499.38	23838.36
499.56	24140.29
499.73	23995.17
499.91	24304.12
500.08	24299.44
500.26	24063.05
500.44	24484.34
500.61	24381.36
500.79	24341.57
500.97	24552.22
501.14	25118.63
501.32	24833.08
501.49	24837.76
501.67	25036.71
501.84	25088.20
502.02	25186.50
502.20	25329.28
502.37	25408.86
502.55	25640.57
502.72	25671.00
502.90	25680.36
503.07	25631.21
503.25	26031.44
503.43	25902.71
503.60	25895.69
503.78	25778.66
503.95	25701.42
504.13	25933.14
504.30	26225.70
504.48	26169.53
504.65	26380.18
504.83	26897.44
505.01	26679.77
505.18	26579.12
505.36	26885.73
505.53	26707.85
505.71	27505.98
505.88	27133.83
506.06	26958.29
506.23	27136.17
506.41	26937.23
506.58	27192.34
506.76	27243.84
506.93	27344.48
507.11	27854.72
507.28	27405.33
507.46	27765.78
507.63	27819.61
507.81	27627.68
507.98	27814.93
508.16	28194.09
508.33	28130.90
508.50	28175.37
508.68	28444.53
508.85	28666.88
509.03	28364.95
509.20	28748.80
509.38	28566.24
509.55	28549.85
509.73	28851.78
509.90	28868.17
510.08	29163.08
510.25	28896.25
510.42	29134.99
510.60	29422.87
510.77	29287.12
510.95	29413.51
511.12	29525.86
511.30	29619.48
511.47	29509.47
511.64	29846.51
511.82	29696.72
511.99	29848.85
512.17	29722.46
512.34	29551.60
512.51	29958.86
512.69	29876.94
512.86	30110.99
513.04	30604.84
513.21	30085.25
513.38	30253.76
513.56	30061.84
513.73	30139.08
513.90	30450.37
514.08	30876.35
514.25	30759.32
514.43	30504.20
514.60	30721.87
514.77	30567.40
514.95	31164.23
515.12	31185.30
515.29	31204.02
515.47	31770.43
515.64	31641.70
515.81	31365.52
515.99	31122.10
516.16	30995.71
516.33	31360.84
516.51	31711.92
516.68	31225.09
516.85	31136.15
517.03	31599.57
517.20	31428.71
517.37	31503.61
517.54	31763.41
517.72	31866.39
517.89	31880.44
518.06	31941.29
518.24	31618.30
518.41	31782.13
518.58	32027.89
518.75	32257.26
518.93	32460.89
519.10	32261.94
519.27	32510.04
519.45	32268.97
519.62	32643.45
519.79	32472.59
519.96	32893.89
520.14	33153.69
520.31	32868.14
520.48	33132.62
520.65	33050.70
520.83	33191.14
521.00	33406.47
521.17	33570.30
521.34	33460.30
521.52	33486.04
521.69	33582.01
521.86	33867.55
522.03	33500.09
522.20	33717.76
522.38	33783.29
522.55	33865.21
522.72	33701.37
522.89	33689.67
523.07	34190.55
523.24	33811.38
523.41	34270.12
523.58	34412.90
523.75	34609.50
523.92	34710.14
524.10	34684.40
524.27	35117.40
524.44	34593.12
524.61	34689.08
524.78	34998.03
524.96	34775.68
525.13	35175.91
525.30	35056.54
525.47	35089.31
525.64	35070.59
525.81	35077.61
525.98	35353.79
526.16	35084.63
526.33	35009.73
526.50	35140.80
526.67	34885.68
526.84	35204.00
527.01	34913.77
527.18	35714.23
527.36	35842.96
527.53	35519.97
527.70	36140.21
527.87	35959.99
528.04	35798.49
528.21	35718.92
528.38	35882.75
528.55	36032.55
528.72	36142.55
528.89	36470.23
529.07	36290.01
529.24	35988.08
529.41	35824.24
529.58	36217.45
529.75	36130.85
529.92	36217.45
530.09	36472.57
530.26	36521.72
530.43	36247.88
530.60	36388.31
530.77	36495.97
530.94	37031.96
531.11	36528.74
531.28	36776.84
531.46	36858.76
531.63	36851.73
531.80	36671.51
531.97	36882.16
532.14	37078.77
532.31	36287.67
532.48	36982.80
532.65	37111.53
532.82	36706.62
532.99	37298.78
533.16	36910.25
533.33	37359.63
533.50	37596.03
533.67	37347.93
533.84	37305.80
534.01	37661.56
534.18	37486.02
534.35	37801.99
534.52	37621.77
534.69	37684.97
534.86	37787.95
535.03	37392.40
535.20	38000.94
535.37	38309.89
535.54	37921.36
535.71	37853.48
535.88	38213.93
536.05	37792.63
536.22	38232.65
536.38	37963.49
536.55	38256.06
536.72	38036.05
536.89	37944.76
537.06	38213.93
537.23	38000.94
537.40	38143.71
537.57	38188.18
537.74	38822.47
537.91	38801.40
538.08	38569.69
538.25	38532.24
538.42	38424.57
538.59	38600.12
538.75	38890.34
538.92	38792.04
539.09	38862.26
539.26	38902.04
539.43	39000.35
539.60	38820.13
539.77	38902.04
539.94	39068.22
540.11	38445.64
540.28	39072.90
540.44	39222.70
540.61	39227.38
540.78	39239.08
540.95	38983.96
541.12	38740.55
541.29	38822.47
541.46	39306.96
541.62	39606.55
541.79	39494.20
541.96	38806.08
542.13	39938.90
542.30	39077.58
542.47	39920.18
542.63	39477.82
542.80	39510.58
542.97	40367.22
543.14	39845.28
543.31	40109.76
543.48	39592.50
543.64	40147.21
543.81	40540.42
543.98	40428.07
544.15	40465.52
544.32	40257.21
544.48	40526.38
544.65	40456.16
544.82	40348.50
544.99	40093.38
545.16	40491.27
545.32	40355.52
545.49	40903.20
545.66	40505.31
545.83	40821.28
546.00	40809.58
546.16	40472.54
546.33	40488.93
546.50	40517.01
546.67	40854.05
546.83	40114.44
547.00	41064.70
547.17	41050.66
547.34	40711.28
547.50	40830.65
547.67	41212.15
547.84	41191.09
548.00	40802.56
548.17	41448.55
548.34	40942.99
548.51	41287.05
548.67	41378.33
548.84	41907.29
549.01	41048.32
549.18	41713.03
549.34	41163.00
549.51	41301.09
549.68	41198.11
549.84	41478.97
550.01	41577.28
550.18	41429.82
550.34	41621.75
550.51	41565.57
550.68	41521.10
550.84	41413.44
551.01	41596.00
551.18	41579.62
551.34	41619.41
551.51	41713.03
551.68	41619.41
551.84	41916.65
552.01	42021.98
552.18	42174.11
552.34	41731.75
552.51	41797.29
552.68	42024.32
552.84	42124.96
553.01	42431.57
553.18	42082.83
553.34	41832.39
553.51	41801.97
553.67	42277.10
553.84	42295.82
554.01	42382.42
554.17	42197.52
554.34	42450.30
554.51	42302.84
554.67	42550.94
554.84	41951.76
555.00	42113.26
555.17	41858.14
555.33	42249.01
555.50	42113.26
555.67	42148.37
555.83	42068.79
556.00	42384.76
556.16	42590.73
556.33	42436.25
556.50	42148.37
556.66	42719.46
556.83	42567.32
556.99	43082.24
557.16	42529.87
557.32	42974.58
557.49	43012.02
557.65	42419.87
557.82	42731.16
557.98	43110.33
558.15	42892.66
558.32	42696.05
558.48	42976.92
558.65	42822.44
558.81	42515.83
558.98	42637.54
559.14	42513.49
559.31	42674.99
559.47	42902.02
559.64	43178.20
559.80	42967.55
559.97	42939.47
560.13	42682.01
560.30	42426.89
560.46	43091.60
560.63	42773.29
560.79	43526.94
560.96	43065.86
561.12	43168.84
561.29	43129.05
561.45	42990.96
561.61	43145.44
561.78	43030.75
561.94	43248.42
562.11	42768.61
562.27	43299.91
562.44	42946.49
562.60	43421.62
562.77	43632.27
562.93	43313.95
563.10	43351.40
563.26	43213.31
563.42	43421.62
563.59	43068.20
563.75	43290.55
563.92	43540.99
564.08	43608.86
564.24	43810.15
564.41	43672.06
564.57	43374.81
564.74	42948.83
564.90	43529.28
565.07	43505.88
565.23	43342.04
565.39	43660.35
565.56	43545.67
565.72	43068.20
565.88	43772.70
566.05	43199.27
566.21	43854.62
566.38	43306.93
566.54	43222.67
566.70	43414.60
566.87	44081.65
567.03	43842.92
567.19	44210.38
567.36	43613.54
567.52	43653.33
567.68	43835.89
567.85	43440.34
568.01	43786.74
568.17	43997.39
568.34	43913.13
568.50	43791.42
568.66	43763.34
568.83	43571.41
568.99	43477.79
569.15	43709.50
569.32	43484.81
569.48	43482.47
569.64	43690.78
569.81	43840.57
569.97	43737.59
570.13	43821.85
570.30	43133.73
570.46	43758.66
570.62	43751.63
570.78	43203.95
570.95	43423.96
571.11	43915.47
571.27	44058.24
571.43	44268.89
571.60	43641.63
571.76	43805.47
571.92	44020.80
572.09	43452.05
572.25	43861.64
572.41	43573.75
572.57	43746.95
572.74	44172.93
572.90	44067.61
573.06	44285.28
573.22	43950.58
573.38	44037.18
573.55	43845.26
573.71	44034.84
573.87	43845.26
574.03	43583.12
574.20	44130.80
574.36	43536.30
574.52	44186.97
574.68	43852.28
574.84	44009.09
575.01	43763.34
575.17	43866.32
575.33	43695.46
575.49	43709.50
575.65	44194.00
575.82	44423.37
575.98	44135.48
576.14	43873.34
576.30	44320.38
576.46	43718.87
576.62	44271.23
576.79	43889.73
576.95	43639.29
577.11	43716.53
577.27	43810.15
577.43	43901.43
577.59	43927.17
577.75	44034.84
577.92	43367.79
578.08	43784.40
578.24	43660.35
578.40	43430.98
578.56	43973.98
578.72	44210.38
578.88	44107.40
579.04	44196.34
579.21	44369.54
579.37	44203.36
579.53	44215.06
579.69	43517.58
579.85	43992.71
580.01	44074.63
580.17	44030.16
580.33	44273.57
580.49	44439.75
580.65	44343.79
580.82	43988.03
580.98	43938.88
581.14	44130.80
581.30	44205.70
581.46	44271.23
581.62	44360.17
581.78	44409.32
581.94	44505.29
582.10	44002.07
582.26	43831.21
582.42	43882.70
582.58	44074.63
582.74	44311.02
582.90	44437.41
583.06	44149.53
583.22	44168.25
583.38	44313.36
583.54	44107.40
583.70	44292.30
583.86	44336.77
584.02	43849.94
584.18	43966.96
584.34	44133.14
584.50	43899.09
584.66	43927.17
584.82	43807.81
584.98	44137.82
585.14	44011.43
585.30	44341.45
585.46	44488.90
585.62	44531.03
585.78	44292.30
585.94	43917.81
586.10	44748.70
586.26	44233.78
586.42	44243.15
586.58	44404.64
586.74	44137.82
586.90	44161.23
587.06	44231.44
587.22	44432.73
587.38	43679.08
587.54	43941.22
587.70	44161.23
587.86	44416.35
588.02	44128.46
588.18	44208.04
588.34	43906.11
588.49	43782.06
588.65	43859.30
588.81	44161.23
588.97	43997.39
589.13	44151.87
589.29	44268.89
589.45	44509.97
589.61	44318.04
589.77	44957.01
589.93	44802.53
590.08	44601.25
590.24	44325.07
590.40	44772.11
