SpectraSuite Data File
++++++++++++++++++++++++++++++++++++
Date: Fri Oct 25 11:26:40 EDT 2013
User: price-jones
Dark Spectrum Present: No
Reference Spectrum Present: No
Number of Sampled Component Spectra: 1
Spectrometers: USB2+H05261
Integration Time (usec): 100000 (USB2+H05261)
Spectra Averaged: 1 (USB2+H05261)
Boxcar Smoothing: 0 (USB2+H05261)
Correct for Electrical Dark: No (USB2+H05261)
Strobe/Lamp Enabled: No (USB2+H05261)
Correct for Detector Non-linearity: No (USB2+H05261)
Correct for Stray Light: No (USB2+H05261)
Number of Pixels in Processed Spectrum: 2048
>>>>>Begin Processed Spectral Data<<<<<
365.73	292.57
365.92	292.57
366.12	292.57
366.32	126.39
366.52	152.13
366.72	138.09
366.91	107.66
367.11	173.20
367.31	140.43
367.51	112.35
367.70	114.69
367.90	154.48
368.10	112.35
368.30	161.50
368.49	189.58
368.69	180.22
368.89	182.56
369.09	114.69
369.28	187.24
369.48	138.09
369.68	168.52
369.87	259.80
370.07	269.16
370.27	241.08
370.47	365.12
370.66	627.26
370.86	688.12
371.06	709.18
371.25	650.67
371.45	709.18
371.65	643.65
371.84	674.07
372.04	664.71
372.24	779.40
372.44	711.52
372.63	758.33
372.83	781.74
373.03	781.74
373.22	711.52
373.42	767.70
373.62	758.33
373.81	800.46
374.01	781.74
374.21	891.74
374.40	781.74
374.60	772.38
374.79	800.46
374.99	858.98
375.19	894.08
375.38	781.74
375.58	854.30
375.78	891.74
375.97	800.46
376.17	849.61
376.37	837.91
376.56	922.17
376.76	812.17
376.95	870.68
377.15	971.32
377.35	812.17
377.54	933.87
377.74	952.60
377.93	910.47
378.13	835.57
378.33	837.91
378.52	959.62
378.72	943.24
378.91	957.28
379.11	924.51
379.31	866.00
379.50	961.96
379.70	1013.45
379.89	994.73
380.09	1008.77
380.28	1013.45
380.48	1039.20
380.68	1071.97
380.87	954.94
381.07	1081.33
381.26	1053.24
381.46	1039.20
381.65	1032.18
381.85	1074.31
382.04	1093.03
382.24	976.00
382.43	1071.97
382.63	1107.07
382.83	1083.67
383.02	1167.93
383.22	1156.22
383.41	1181.97
383.61	1111.75
383.80	1123.46
384.00	1015.79
384.19	1050.90
384.39	1135.16
384.58	1146.86
384.78	1184.31
384.97	1165.59
385.17	1184.31
385.36	1212.40
385.56	1088.35
385.75	1172.61
385.95	1158.57
386.14	1214.74
386.34	1200.69
386.53	1240.48
386.72	1231.12
386.92	1359.85
387.11	1282.61
387.31	1310.70
387.50	1219.42
387.70	1306.02
387.89	1270.91
388.09	1315.38
388.28	1289.64
388.48	1193.67
388.67	1399.64
388.86	1397.30
389.06	1266.23
389.25	1334.11
389.45	1401.98
389.64	1383.26
389.84	1430.07
390.03	1345.81
390.22	1324.74
390.42	1418.36
390.61	1352.83
390.81	1404.32
391.00	1277.93
391.19	1556.46
391.39	1467.52
391.58	1476.88
391.78	1479.22
391.97	1434.75
392.16	1416.02
392.36	1619.65
392.55	1483.90
392.75	1523.69
392.94	1544.75
393.13	1500.28
393.33	1643.06
393.52	1504.96
393.71	1631.35
393.91	1570.50
394.10	1626.67
394.29	1561.14
394.49	1607.95
394.68	1598.59
394.88	1633.69
395.07	1720.29
395.26	1650.08
395.46	1713.27
395.65	1687.53
395.84	1771.79
396.04	1774.13
396.23	1783.49
396.42	1802.21
396.62	1746.04
396.81	1776.47
397.00	1809.23
397.19	1834.98
397.39	1781.15
397.58	1842.00
397.77	1809.23
397.97	1877.11
398.16	1900.52
398.35	1930.94
398.55	1928.60
398.74	1884.13
398.93	2097.12
399.12	1921.58
399.32	1982.43
399.51	1944.99
399.70	2113.50
399.90	1994.14
400.09	2083.08
400.28	2071.37
400.47	1994.14
400.67	2017.54
400.86	1996.48
401.05	2165.00
401.24	2097.12
401.44	2062.01
401.63	2193.08
401.82	2207.13
402.01	2223.51
402.21	2204.78
402.40	2162.66
402.59	2115.84
402.78	2251.60
402.97	2242.23
403.17	2303.09
403.36	2265.64
403.55	2251.60
403.74	2385.01
403.93	2356.92
404.13	2417.77
404.32	2345.22
404.51	2324.15
404.70	2401.39
404.89	2422.45
405.09	2558.21
405.28	2406.07
405.47	2567.57
405.66	2476.29
405.85	2588.63
406.05	2497.35
406.24	2682.25
406.43	2626.08
406.62	2583.95
406.81	2717.36
407.00	2693.96
407.20	2539.48
407.39	2640.12
407.58	2628.42
407.77	2740.77
407.96	2785.24
408.15	2789.92
408.34	2771.19
408.54	2757.15
408.73	2878.86
408.92	2860.13
409.11	2958.44
409.30	2888.22
409.49	2935.03
409.68	2993.55
409.87	2888.22
410.07	2981.84
410.26	3035.67
410.45	2967.80
410.64	3094.19
410.83	2991.20
411.02	3040.36
411.21	3145.68
411.40	3204.19
411.59	3108.23
411.78	3145.68
411.98	3255.69
412.17	3281.43
412.36	3213.56
412.55	3302.50
412.74	3405.48
412.93	3424.20
413.12	3452.29
413.31	3522.51
413.50	3487.40
413.69	3337.60
413.88	3555.27
414.07	3653.58
414.26	3604.42
414.45	3529.53
414.64	3597.40
414.83	3854.86
415.02	3779.97
415.22	3824.44
415.41	3868.91
415.60	3777.62
415.79	3985.93
415.98	3981.25
416.17	3934.44
416.36	4091.26
416.55	4147.43
416.74	4126.36
416.93	4114.66
417.12	4142.75
417.31	4229.35
417.50	4231.69
417.69	4271.48
417.88	4332.33
418.07	4341.69
418.26	4306.59
418.45	4390.84
418.64	4477.44
418.83	4657.67
419.02	4606.17
419.21	4486.81
419.39	4528.94
419.58	4472.76
419.77	4493.83
419.96	4496.17
420.15	4671.71
420.34	4697.46
420.53	4695.11
420.72	4858.95
420.91	4706.82
421.10	4730.22
421.29	4901.08
421.48	4690.43
421.67	4875.34
421.86	4901.08
422.05	4882.36
422.24	4784.06
422.43	4877.68
422.61	4720.86
422.80	4971.30
422.99	4964.28
423.18	4961.94
423.37	5055.56
423.56	4968.96
423.75	4983.00
423.94	4723.20
424.13	4718.52
424.32	4823.84
424.50	5027.47
424.69	5085.98
424.88	5046.20
425.07	4994.70
425.26	5114.07
425.45	4917.47
425.64	5088.32
425.83	4999.38
426.01	4971.30
426.20	5163.22
426.39	5081.30
426.58	5170.24
426.77	5057.90
426.96	5114.07
427.15	5256.84
427.33	5219.39
427.52	5317.70
427.71	5341.10
427.90	5474.51
428.09	5397.28
428.28	5273.23
428.46	5357.49
428.65	5359.83
428.84	5488.56
429.03	5533.03
429.22	5350.46
429.40	5544.73
429.59	5577.50
429.78	5256.84
429.97	5280.25
430.16	5589.20
430.34	5584.52
430.53	5797.51
430.72	5813.89
430.91	5750.70
431.10	5802.19
431.28	5668.78
431.47	5788.14
431.66	6015.18
431.85	5710.91
432.03	5886.45
432.22	5987.09
432.41	6115.82
432.60	5998.79
432.79	6162.63
432.97	5966.03
433.16	6001.13
433.35	5944.96
433.54	6019.86
433.72	6267.95
433.91	6127.52
434.10	5984.75
434.28	6223.48
434.47	6193.06
434.66	6300.72
434.85	6314.77
435.03	6340.51
435.22	6207.10
435.41	6445.84
435.59	6401.37
435.78	6296.04
435.97	6516.05
436.16	6455.20
436.34	6537.12
436.53	6616.69
436.72	6637.76
436.90	6567.54
437.09	6635.42
437.28	6380.30
437.46	6637.76
437.65	6654.14
437.84	6764.15
438.02	6740.74
438.21	6672.87
438.40	6766.49
438.58	6916.28
438.77	7162.04
438.96	6878.83
439.14	7227.57
439.33	7265.02
439.52	7250.98
439.70	7248.64
439.89	7407.80
440.08	7527.16
440.26	7424.18
440.45	7304.81
440.63	7494.40
440.82	7850.16
441.01	7517.80
441.19	7819.73
441.38	7620.78
441.57	7698.02
441.75	7861.86
441.94	7967.18
442.12	7887.61
442.31	8070.17
442.50	7892.29
442.68	7964.84
442.87	8191.88
443.05	8088.89
443.24	8168.47
443.43	8311.24
443.61	8215.28
443.80	8561.68
443.98	8079.53
444.17	7854.84
444.35	8116.98
444.54	8491.46
444.73	8589.77
444.91	8243.37
445.10	8454.02
445.28	8409.54
445.47	8376.78
445.65	8336.99
445.84	8416.57
446.02	8439.97
446.21	8580.40
446.39	8449.33
446.58	8456.36
446.77	8475.08
446.95	8273.79
447.14	8348.69
447.32	8372.10
447.51	8325.29
447.69	8676.37
447.88	8524.23
448.06	8587.43
448.25	8432.95
448.43	8671.68
448.62	8697.43
448.80	8706.79
448.99	8564.02
449.17	8779.35
449.36	8716.16
449.54	8990.00
449.73	9067.24
449.91	9015.74
450.10	8961.91
450.28	9022.77
450.46	8950.21
450.65	8997.02
450.83	9252.14
451.02	9050.85
451.20	9224.05
451.39	9277.88
451.57	9207.67
451.76	8978.30
451.94	9121.07
452.13	9366.82
452.31	9263.84
452.49	9235.75
452.68	9385.55
452.86	9413.63
453.05	9423.00
453.23	9666.41
453.42	9343.42
453.60	9376.19
453.78	9631.30
453.97	9411.29
454.15	9586.83
454.34	9525.98
454.52	9682.80
454.70	9919.19
454.89	9816.21
455.07	9816.21
455.26	9792.80
455.44	10125.16
455.62	9863.02
455.81	9905.15
455.99	9909.83
456.17	10244.52
456.36	10129.84
456.54	10150.90
456.73	10406.02
456.91	10427.09
457.09	10303.04
457.28	10672.84
457.46	10314.74
457.64	10541.77
457.83	10546.45
458.01	10368.57
458.19	10757.10
458.38	10513.69
458.56	10792.21
458.74	10801.57
458.93	10621.35
459.11	10841.36
459.29	10810.93
459.48	10920.94
459.66	10832.00
459.84	10981.79
460.03	10923.28
460.21	11138.61
460.39	11131.59
460.57	10925.62
460.76	11307.13
460.94	11283.72
461.12	10942.00
461.31	11080.10
461.49	11164.36
461.67	11112.86
461.85	11557.57
462.04	11248.61
462.22	11548.20
462.40	11658.21
462.59	11384.37
462.77	11503.73
462.95	11674.59
463.13	11587.99
463.32	11800.98
463.50	11702.68
463.68	11861.84
463.86	11782.26
464.05	11646.51
464.23	11875.88
464.41	11868.86
464.59	11789.28
464.78	12159.08
464.96	12018.65
465.14	12088.87
465.32	12304.20
465.50	12262.07
465.69	12278.45
465.87	12259.73
466.05	12461.01
466.23	12051.42
466.41	12299.52
466.60	12517.18
466.78	12222.28
466.96	12521.87
467.14	12446.97
467.32	12528.89
467.51	12564.00
467.69	12285.47
467.87	12528.89
468.05	12451.65
468.23	12449.31
468.41	12491.44
468.60	12425.90
468.78	12793.37
468.96	12636.55
469.14	13118.70
469.32	13207.64
469.50	12746.56
469.69	13181.90
469.87	13249.77
470.05	13057.85
470.23	13261.48
470.41	13165.51
470.59	13338.71
470.77	13270.84
470.95	13186.58
471.14	13598.51
471.32	13371.48
471.50	13589.15
471.68	13373.82
471.86	13642.98
472.04	13776.39
472.22	14244.50
472.40	13818.52
472.58	14026.83
472.77	14008.11
472.95	14279.61
473.13	14745.38
473.31	14045.55
473.49	14249.18
473.67	14342.80
473.85	14398.98
474.03	14665.80
474.21	14609.62
474.39	14827.29
474.57	14733.67
474.75	14693.88
474.93	15063.69
475.12	14932.62
475.30	15234.55
475.48	14906.87
475.66	15543.50
475.84	15213.48
476.02	15477.96
476.20	15396.04
476.38	15791.59
476.56	16283.11
476.74	16123.95
476.92	16018.63
477.10	15974.16
477.28	16187.14
477.46	16355.66
477.64	16524.18
477.82	16709.08
478.00	16879.94
478.18	16891.65
478.36	17088.25
478.54	17458.06
478.72	17111.66
478.90	17418.27
479.08	17659.34
479.26	17364.43
479.44	17846.58
479.62	18073.62
479.80	18190.64
479.98	18272.56
480.16	19051.96
480.34	18515.98
480.52	18871.74
480.70	18785.14
480.88	18719.60
481.06	18761.73
481.24	19145.58
481.41	19281.33
481.59	19377.30
481.77	19323.46
481.95	19688.59
482.13	19693.27
482.31	19838.38
482.49	20465.64
482.67	20533.52
482.85	20769.91
483.03	20875.24
483.21	20945.45
483.39	21144.40
483.57	20915.03
483.74	21406.54
483.92	21184.19
484.10	21378.45
484.28	22085.30
484.46	22214.02
484.64	22363.82
484.82	22052.53
485.00	22553.40
485.18	22813.20
485.35	23211.09
485.53	23044.91
485.71	23124.49
485.89	23740.05
486.07	23260.24
486.25	23695.58
486.43	23852.40
486.61	24063.05
486.78	24318.17
486.96	24404.77
487.14	24650.52
487.32	24753.51
487.50	24669.25
487.68	25113.95
487.85	25472.05
488.03	25537.59
488.21	26015.05
488.39	25949.52
488.57	26115.70
488.75	26345.07
488.92	26618.91
489.10	26815.52
489.28	26757.00
489.46	27124.47
489.64	27428.74
489.81	27875.78
489.99	27503.64
490.17	28074.73
490.35	28613.05
490.53	28294.74
490.70	28755.82
490.88	28526.45
491.06	28811.99
491.24	29048.39
491.41	29156.05
491.59	29521.18
491.77	29277.76
491.95	29668.63
492.13	29811.40
492.30	29998.65
492.48	29979.92
492.66	30679.74
492.84	30768.68
493.01	30494.84
493.19	30745.28
493.37	31281.26
493.54	31089.34
493.72	31438.08
493.90	31651.06
494.08	31924.91
494.25	32556.85
494.43	31929.59
494.61	32318.12
494.79	32601.32
494.96	32870.48
495.14	32739.41
495.32	32973.47
495.49	33483.70
495.67	33296.46
495.85	33511.79
496.02	34192.89
496.20	33771.59
496.38	34099.26
496.55	34497.16
496.73	35058.88
496.91	34658.65
497.09	35058.88
497.26	35023.78
497.44	35189.95
497.62	35840.62
497.79	35955.31
497.97	35892.12
498.14	35798.49
498.32	36163.62
498.50	35974.03
498.67	36549.81
498.85	36734.71
499.03	37223.88
499.20	36879.82
499.38	37282.39
499.56	37266.01
499.73	37488.36
499.91	37827.74
500.08	37626.45
500.26	37794.97
500.44	37689.65
500.61	38270.10
500.79	38176.48
500.97	38447.98
501.14	38581.39
501.32	38658.63
501.49	38555.64
501.67	38560.33
501.84	39019.07
502.02	39028.43
502.20	38993.32
502.37	39531.65
502.55	39196.95
502.72	40217.43
502.90	39517.60
503.07	39852.30
503.25	39856.98
503.43	39768.04
503.60	40467.86
503.78	39768.04
503.95	40650.42
504.13	40636.38
504.30	40755.75
504.48	40910.22
504.65	41263.64
504.83	41368.97
505.01	41909.63
505.18	41366.63
505.36	41860.48
505.53	41706.01
505.71	41710.69
505.88	41975.17
506.06	41764.52
506.23	42340.29
506.41	42110.92
506.58	42270.08
506.76	42572.00
506.93	42410.51
507.11	42323.91
507.28	42899.68
507.46	43044.79
507.63	43344.38
507.81	43440.34
507.98	43154.80
508.16	43672.06
508.33	43536.30
508.50	43370.13
508.68	43594.82
508.85	44252.51
509.03	43917.81
509.20	43835.89
509.38	44507.63
509.55	44999.14
509.73	44437.41
509.90	45092.76
510.08	44989.78
510.25	44854.03
510.42	44992.12
510.60	45137.23
510.77	45270.64
510.95	45837.05
511.12	45097.44
511.30	45399.37
511.47	45617.04
511.64	46089.83
511.82	46127.28
511.99	45881.52
512.17	45858.12
512.34	46036.00
512.51	46036.00
512.69	46930.08
512.86	46401.12
513.04	46815.40
513.21	46845.82
513.38	46820.08
513.56	47047.11
513.73	47161.79
513.90	47138.39
514.08	46731.14
514.25	47349.04
514.43	47681.39
514.60	47480.11
514.77	47662.67
514.95	47657.99
515.12	47927.15
515.29	48032.47
515.47	47842.89
515.64	48112.05
515.81	48193.97
515.99	48308.66
516.16	48849.32
516.33	48385.89
516.51	49064.65
516.68	48846.98
516.85	48926.56
517.03	48985.07
517.20	49146.57
517.37	48912.52
517.54	49104.44
517.72	48900.81
517.89	49352.54
518.06	49209.76
518.24	49162.95
518.41	49677.87
518.58	49427.43
518.75	49411.05
518.93	49834.69
519.10	49766.81
519.27	50089.80
519.45	49656.81
519.62	50181.09
519.79	49949.37
519.96	50239.60
520.14	50099.17
520.31	50291.09
520.48	50534.51
520.65	50609.40
520.83	50700.68
521.00	50564.93
521.17	50618.77
521.34	50908.99
521.52	50955.80
521.69	50934.74
521.86	50981.55
522.03	50876.22
522.20	51054.11
522.38	51519.87
522.55	51660.30
522.72	51496.47
522.89	51442.63
523.07	51810.10
523.24	51587.75
523.41	51800.74
523.58	51583.07
523.75	51655.62
523.92	51618.17
524.10	52079.26
524.27	52252.46
524.44	52240.76
524.61	52481.83
524.78	52292.25
524.96	52264.16
525.13	52245.44
525.30	52449.06
525.47	52837.59
525.64	52591.84
525.81	52828.23
525.98	52807.17
526.16	52615.24
526.33	52683.12
526.50	53134.84
526.67	52758.02
526.84	53034.20
527.01	52673.76
527.18	53001.43
527.36	53139.52
527.53	53294.00
527.70	53691.89
527.87	53303.36
528.04	53378.26
528.21	53481.24
528.38	53523.37
528.55	53595.93
528.72	53616.99
528.89	53989.14
529.07	53808.92
529.24	53598.27
529.41	53897.86
529.58	53965.73
529.75	53860.41
529.92	53827.64
530.09	53893.18
530.26	54094.46
530.43	54340.22
530.60	53930.62
530.77	54007.86
530.94	54405.75
531.11	54295.75
531.28	54209.15
531.46	54220.85
531.63	54574.27
531.80	54302.77
531.97	54349.58
532.14	54787.26
532.31	54478.31
532.48	54733.43
532.65	54419.80
532.82	54625.76
532.99	54995.57
533.16	54850.45
533.33	55215.58
533.50	55054.08
533.67	54817.69
533.84	54930.03
534.01	55250.69
534.18	54988.55
534.35	55304.52
534.52	54995.57
534.69	55496.44
534.86	55363.03
535.03	55089.19
535.20	55309.20
535.37	55449.63
535.54	55477.72
535.71	55353.67
535.88	55533.89
536.05	55676.66
536.22	55629.85
536.38	55611.13
536.55	55887.31
536.72	55627.51
536.89	55882.63
537.06	55756.24
537.23	55817.10
537.40	55629.85
537.57	55833.48
537.74	56107.32
537.91	56264.14
538.08	56034.77
538.25	55917.74
538.42	56088.60
538.59	55962.21
538.75	56069.87
538.92	56119.02
539.09	56193.92
539.26	56252.44
539.43	56243.07
539.60	56324.99
539.77	56493.51
539.94	56619.90
540.11	56566.07
540.28	56772.03
540.44	56484.15
540.61	56463.08
540.78	56481.81
540.95	56542.66
541.12	56643.30
541.29	56516.92
541.46	56725.22
541.62	56638.62
541.79	56753.31
541.96	56472.45
542.13	56832.89
542.30	56879.70
542.47	56940.55
542.63	56889.06
542.80	57015.45
542.97	57216.74
543.14	57350.15
543.31	57425.04
543.48	57205.03
543.64	57581.86
543.81	57549.09
543.98	57315.04
544.15	57399.30
544.32	57762.08
544.48	57553.77
544.65	57268.23
544.82	57464.83
544.99	57305.68
545.16	57778.46
545.32	57567.82
545.49	58066.35
545.66	57925.92
545.83	57521.01
546.00	58071.03
546.16	57553.77
546.33	57897.83
546.50	57525.69
546.67	57778.46
546.83	57560.79
547.00	57956.35
547.17	57822.93
547.34	57902.51
547.50	58131.89
547.67	58197.42
547.84	58155.29
548.00	58211.46
548.17	58305.09
548.34	58108.48
548.51	58319.13
548.67	58471.26
548.84	58033.58
549.01	58113.16
549.18	58391.68
549.34	58408.07
549.51	58466.58
549.68	58642.12
549.84	58438.50
550.01	58576.59
550.18	58370.62
550.34	58651.48
550.51	58639.78
550.68	58372.96
550.84	58403.39
551.01	58710.00
551.18	58440.84
551.34	58656.17
551.51	58609.35
551.68	58515.73
551.84	58707.66
552.01	58621.06
552.18	58901.92
552.34	58569.57
552.51	58972.14
552.68	58766.17
552.84	58752.13
553.01	59152.36
553.18	58946.39
553.34	58906.60
553.51	58972.14
553.67	58885.54
553.84	59168.74
554.01	59103.21
554.17	59138.32
554.34	58979.16
554.51	59058.74
554.67	59231.94
554.84	59093.85
555.00	59182.79
555.17	59222.58
555.33	59236.62
555.50	59070.44
555.67	59121.93
555.83	59028.31
556.00	59353.65
556.16	59601.74
556.33	59358.33
556.50	59491.74
556.66	59337.26
556.83	59044.69
556.99	59451.95
557.16	59615.79
557.32	59627.49
557.49	59817.07
557.65	59395.77
557.82	59515.14
557.98	59487.06
558.15	59749.20
558.32	59709.41
558.48	59386.41
558.65	59770.26
558.81	59728.13
558.98	59613.44
559.14	59884.95
559.31	59690.68
559.47	59693.02
559.64	59826.43
559.80	59751.54
559.97	59730.47
560.13	59838.14
560.30	59613.44
560.46	59664.94
560.63	59997.29
560.79	59957.50
560.96	59976.23
561.12	59959.84
561.29	59803.03
561.45	59952.82
561.61	59744.51
561.78	59910.69
561.94	59931.76
562.11	60053.47
562.27	59819.41
562.44	60004.31
562.60	60179.85
562.77	60245.39
562.93	59735.15
563.10	60072.19
563.26	59889.63
563.42	60285.18
563.59	60264.11
563.75	59955.16
563.92	60097.94
564.08	60310.92
564.24	60486.46
564.41	60498.17
564.57	60214.96
564.74	60229.01
564.90	60217.30
565.07	60175.17
565.23	60135.38
565.39	60205.60
565.56	60371.78
565.72	60266.45
565.88	60322.63
566.05	60441.99
566.21	60327.31
566.38	60385.82
566.54	60399.86
566.70	60636.26
566.87	60540.30
567.03	60303.90
567.19	60423.27
567.36	60507.53
567.52	60313.26
567.68	60523.91
567.85	60498.17
568.01	60416.25
568.17	60505.19
568.34	60547.32
568.50	60350.71
568.66	60390.50
568.83	60453.70
568.99	60413.91
569.15	60561.36
569.32	60559.02
569.48	60575.40
569.64	60659.66
569.81	60512.21
569.97	60563.70
570.13	60563.70
570.30	60477.10
570.46	60626.90
570.62	60549.66
570.78	60542.64
570.95	60540.30
571.11	60636.26
571.27	60521.57
571.43	60463.06
571.60	60750.94
571.76	60580.09
571.92	60598.81
572.09	60760.31
572.25	60577.75
572.41	60772.01
572.57	60573.06
572.74	60870.31
572.90	60556.68
573.06	60793.07
573.22	60713.50
573.38	60626.90
573.55	60743.92
573.71	60877.33
573.87	60746.26
574.03	60603.49
574.20	60870.31
574.36	60842.23
574.52	60891.38
574.68	60814.14
574.84	60858.61
575.01	60919.46
575.17	60912.44
575.33	60807.12
575.49	60566.04
575.65	60640.94
575.82	60907.76
575.98	60893.72
576.14	61221.39
576.30	60956.91
576.46	60748.60
576.62	60844.57
576.79	60938.19
576.95	60898.40
577.11	60982.66
577.27	60959.25
577.43	60928.83
577.59	60699.45
577.75	60772.01
577.92	60764.99
578.08	60882.02
578.24	60828.18
578.40	61003.72
578.56	60924.14
578.72	60914.78
578.88	61188.63
579.04	60970.96
579.21	60956.91
579.37	61055.21
579.53	61050.53
579.69	60996.70
579.85	60823.50
580.01	60954.57
580.17	60722.86
580.33	60959.25
580.49	61106.71
580.65	61146.50
580.82	60886.70
580.98	60898.40
581.14	60818.82
581.30	61099.68
581.46	60956.91
581.62	60982.66
581.78	60938.19
581.94	60870.31
582.10	61013.08
582.26	60966.27
582.42	61017.77
582.58	61038.83
582.74	61015.43
582.90	61190.97
583.06	61043.51
583.22	60926.49
583.38	61006.06
583.54	61141.81
583.70	61045.85
583.86	61022.45
584.02	60872.65
584.18	61195.65
584.34	61062.24
584.50	60879.67
584.66	61041.17
584.82	60900.74
584.98	61162.88
585.14	61179.26
585.30	61050.53
585.46	61148.84
585.62	61183.94
585.78	61310.33
585.94	60989.68
586.10	60961.59
586.26	61132.45
586.42	61279.91
586.58	61205.01
586.74	61062.24
586.90	61195.65
587.06	61010.74
587.22	61268.20
587.38	61209.69
587.54	61214.37
587.70	61251.82
587.86	61214.37
588.02	61095.00
588.18	61244.80
588.34	61022.45
