SpectraSuite Data File
++++++++++++++++++++++++++++++++++++
Date: Fri Oct 25 10:46:55 EDT 2013
User: price-jones
Dark Spectrum Present: No
Reference Spectrum Present: No
Number of Sampled Component Spectra: 1
Spectrometers: USB2+H05261
Integration Time (usec): 100000 (USB2+H05261)
Spectra Averaged: 1 (USB2+H05261)
Boxcar Smoothing: 0 (USB2+H05261)
Correct for Electrical Dark: No (USB2+H05261)
Strobe/Lamp Enabled: No (USB2+H05261)
Correct for Detector Non-linearity: No (USB2+H05261)
Correct for Stray Light: No (USB2+H05261)
Number of Pixels in Processed Spectrum: 2048
>>>>>Begin Processed Spectral Data<<<<<
365.73	156.82
365.92	156.82
366.12	156.82
366.32	46.81
366.52	70.22
366.72	110.01
366.91	0.00
367.11	0.00
367.31	4.68
367.51	37.45
367.70	23.41
367.90	86.60
368.10	79.58
368.30	30.43
368.49	79.58
368.69	49.15
368.89	18.72
369.09	42.13
369.28	84.26
369.48	7.02
369.68	91.28
369.87	58.51
370.07	147.45
370.27	131.07
370.47	252.78
370.66	346.40
370.86	493.85
371.06	486.83
371.25	512.58
371.45	479.81
371.65	477.47
371.84	517.26
372.04	416.62
372.24	428.32
372.44	524.28
372.63	524.28
372.83	526.62
373.03	571.09
373.22	568.75
373.42	564.07
373.62	526.62
373.81	543.00
374.01	547.69
374.21	585.13
374.40	510.24
374.60	592.16
374.79	580.45
374.99	540.66
375.19	615.56
375.38	610.88
375.58	622.58
375.78	573.43
375.97	610.88
376.17	645.99
376.37	615.56
376.56	592.16
376.76	587.47
376.95	629.60
377.15	638.97
377.35	624.92
377.54	674.07
377.74	622.58
377.93	657.69
378.13	653.01
378.33	720.88
378.52	662.37
378.72	704.50
378.91	657.69
379.11	667.05
379.31	695.14
379.50	599.18
379.70	669.39
379.89	711.52
380.09	697.48
380.28	624.92
380.48	737.27
380.68	678.76
380.87	720.88
381.07	660.03
381.26	765.36
381.46	720.88
381.65	690.46
381.85	706.84
382.04	645.99
382.24	741.95
382.43	690.46
382.63	699.82
382.83	727.91
383.02	844.93
383.22	753.65
383.41	744.29
383.61	774.72
383.80	828.55
384.00	784.08
384.19	791.10
384.39	898.77
384.58	812.17
384.78	800.46
384.97	816.85
385.17	833.23
385.36	830.89
385.56	912.81
385.75	830.89
385.95	779.40
386.14	858.98
386.34	847.27
386.53	844.93
386.72	840.25
386.92	847.27
387.11	877.70
387.31	821.53
387.50	835.57
387.70	833.23
387.89	823.87
388.09	873.02
388.28	924.51
388.48	877.70
388.67	983.02
388.86	957.28
389.06	943.24
389.25	978.34
389.45	1036.86
389.64	896.43
389.84	931.53
390.03	1062.60
390.22	1022.81
390.42	1001.75
390.61	1011.11
390.81	1039.20
391.00	1050.90
391.19	994.73
391.39	1078.99
391.58	1083.67
391.78	1027.50
391.97	1039.20
392.16	1015.79
392.36	1039.20
392.55	1050.90
392.75	1041.54
392.94	997.07
393.13	1041.54
393.33	992.39
393.52	1029.84
393.71	1109.41
393.91	1181.97
394.10	1114.10
394.29	1228.78
394.49	1158.57
394.68	1200.69
394.88	1224.10
395.07	1226.44
395.26	1198.35
395.46	1228.78
395.65	1233.46
395.84	1254.53
396.04	1226.44
396.23	1170.27
396.42	1114.10
396.62	1149.20
396.81	1282.61
397.00	1217.08
397.19	1282.61
397.39	1352.83
397.58	1348.15
397.77	1476.88
397.97	1399.64
398.16	1392.62
398.35	1509.65
398.55	1376.24
398.74	1439.43
398.93	1514.33
399.12	1465.18
399.32	1516.67
399.51	1537.73
399.70	1584.54
399.90	1561.14
400.09	1600.93
400.28	1673.48
400.47	1570.50
400.67	1645.40
400.86	1514.33
401.05	1593.90
401.24	1703.91
401.44	1739.02
401.63	1795.19
401.82	1708.59
402.01	1661.78
402.21	1741.36
402.40	1771.79
402.59	1722.63
402.78	1748.38
402.97	1739.02
403.17	1760.08
403.36	1806.89
403.55	1813.92
403.74	1797.53
403.93	1888.81
404.13	1797.53
404.32	1799.87
404.51	1816.26
404.70	1928.60
404.89	1809.23
405.09	2031.58
405.28	1926.26
405.47	1961.37
405.66	1912.22
405.85	1832.64
406.05	1977.75
406.24	1881.79
406.43	1926.26
406.62	2087.76
406.81	2005.84
407.00	2139.25
407.20	2022.22
407.39	2052.65
407.58	2136.91
407.77	2094.78
407.96	2197.76
408.15	2235.21
408.34	2221.17
408.54	2284.36
408.73	2279.68
408.92	2263.30
409.11	2385.01
409.30	2310.11
409.49	2345.22
409.68	2260.96
409.87	2200.10
410.07	2272.66
410.26	2366.28
410.45	2319.47
410.64	2387.35
410.83	2413.09
411.02	2534.80
411.21	2490.33
411.40	2537.14
411.59	2647.15
411.78	2597.99
411.98	2541.82
412.17	2576.93
412.36	2534.80
412.55	2530.12
412.74	2712.68
412.93	2675.23
413.12	2703.32
413.31	2820.35
413.50	2796.94
413.69	2771.19
413.88	2857.79
414.07	2825.03
414.26	2902.26
414.45	2991.20
414.64	2928.01
414.83	3061.42
415.02	2972.48
415.22	3087.17
415.41	3000.57
415.60	3054.40
415.79	3150.36
415.98	3115.25
416.17	3204.19
416.36	3187.81
416.55	3283.77
416.74	3192.49
416.93	3190.15
417.12	3342.28
417.31	3314.20
417.50	3183.13
417.69	3337.60
417.88	3363.35
418.07	3478.04
418.26	3389.10
418.45	3396.12
418.64	3531.87
418.83	3590.38
419.02	3414.84
419.21	3562.30
419.39	3559.95
419.58	3398.46
419.77	3417.18
419.96	3630.17
420.15	3763.58
420.34	3833.80
420.53	3737.84
420.72	3758.90
420.91	3698.05
421.10	3815.07
421.29	3775.28
421.48	3878.27
421.67	3721.45
421.86	3791.67
422.05	3744.86
422.24	3693.37
422.43	3658.26
422.61	3784.65
422.80	3740.18
422.99	3831.46
423.18	3978.91
423.37	3953.16
423.56	3847.84
423.75	3889.97
423.94	3801.03
424.13	3705.07
424.32	3674.64
424.50	3894.65
424.69	4002.32
424.88	3946.14
425.07	3939.12
425.26	3913.38
425.45	3796.35
425.64	3810.39
425.83	3918.06
426.01	3868.91
426.20	3969.55
426.39	3950.82
426.58	3978.91
426.77	3922.74
426.96	4002.32
427.15	3950.82
427.33	3913.38
427.52	4102.96
427.71	4023.38
427.90	4114.66
428.09	4264.46
428.28	4109.98
428.46	4133.39
428.65	4007.00
428.84	4222.33
429.03	4166.15
429.22	4145.09
429.40	4058.49
429.59	4056.15
429.78	4067.85
429.97	3946.14
430.16	3981.25
430.34	4014.02
430.53	4081.89
430.72	4280.84
430.91	4126.36
431.10	4337.01
431.28	4379.14
431.47	4440.00
431.66	4507.87
431.85	4526.60
432.03	4554.68
432.22	4671.71
432.41	4496.17
432.60	4681.07
432.79	4695.11
432.97	4800.44
433.16	4720.86
433.35	4622.56
433.54	4566.39
433.72	4655.33
433.91	4636.60
434.10	4727.88
434.28	4798.10
434.47	4854.27
434.66	4739.58
434.85	4990.02
435.03	4966.62
435.22	4875.34
435.41	5146.84
435.59	4973.64
435.78	5076.62
435.97	5006.41
436.16	5146.84
436.34	4961.94
436.53	5151.52
436.72	5121.09
436.90	5060.24
437.09	5224.08
437.28	5048.54
437.46	5064.92
437.65	4997.04
437.84	5125.77
438.02	5181.95
438.21	5191.31
438.40	5130.45
438.58	5338.76
438.77	5334.08
438.96	5376.21
439.14	5563.45
439.33	5472.17
439.52	5495.58
439.70	5610.26
439.89	5699.20
440.08	5750.70
440.26	5654.73
440.45	5797.51
440.63	5944.96
440.82	6017.52
441.01	6050.28
441.19	5874.74
441.38	6015.18
441.57	6120.50
441.75	6106.46
441.94	6232.85
442.12	6277.32
442.31	6253.91
442.50	6246.89
442.68	6164.97
442.87	6221.14
443.05	6146.25
443.24	6284.34
443.43	6277.32
443.61	6396.68
443.80	6473.92
443.98	6267.95
444.17	6003.47
444.35	6277.32
444.54	6406.05
444.73	6384.98
444.91	6401.37
445.10	6326.47
445.28	6291.36
445.47	6354.55
445.65	6417.75
445.84	6722.02
446.02	6471.58
446.21	6469.24
446.39	6548.82
446.58	6686.91
446.77	6504.35
446.95	6445.84
447.14	6616.69
447.32	6771.17
447.51	6562.86
447.69	6635.42
447.88	6368.60
448.06	6590.95
448.25	6583.93
448.43	6689.25
448.62	6658.82
448.80	6654.14
448.99	6754.79
449.17	6808.62
449.36	6717.34
449.54	7007.56
449.73	6885.86
449.91	6916.28
450.10	7068.42
450.28	7019.27
450.46	7133.95
450.65	6984.16
450.83	7260.34
451.02	6906.92
451.20	7297.79
451.39	6995.86
451.57	7098.84
451.76	7180.76
451.94	6902.24
452.13	7166.72
452.31	7173.74
452.49	7143.32
452.68	7213.53
452.86	6993.52
453.05	7276.73
453.23	7246.30
453.42	7272.04
453.60	7166.72
453.78	7487.37
453.97	7232.26
454.15	7311.83
454.34	7187.79
454.52	7520.14
454.70	7419.50
454.89	7482.69
455.07	7510.78
455.26	7360.98
455.44	7524.82
455.62	7531.84
455.81	7749.51
455.99	7686.32
456.17	7662.91
456.36	7602.06
456.54	7969.52
456.73	7765.90
456.91	8119.32
457.09	7967.18
457.28	8060.80
457.46	7866.54
457.64	7967.18
457.83	8030.38
458.01	7836.11
458.19	8147.40
458.38	7901.65
458.56	8156.77
458.74	8070.17
458.93	8067.83
459.11	8255.07
459.29	8198.90
459.48	8395.50
459.66	8248.05
459.84	8180.17
460.03	8451.67
460.21	8355.71
460.39	8423.59
460.57	8313.58
460.76	8638.92
460.94	8404.86
461.12	8465.72
461.31	8428.27
461.49	8580.40
461.67	8336.99
461.85	8667.00
462.04	8692.75
462.22	9004.04
462.40	8826.16
462.59	8468.06
462.77	8699.77
462.95	8821.48
463.13	8641.26
463.32	8788.71
463.50	8833.18
463.68	8954.89
463.86	8926.80
464.05	8695.09
464.23	8739.56
464.41	8833.18
464.59	8697.43
464.78	9228.73
464.96	9179.58
465.14	9069.58
465.32	9015.74
465.50	9088.30
465.69	8975.95
465.87	9102.34
466.05	8957.23
466.23	9298.95
466.41	9233.41
466.60	9188.94
466.78	9067.24
466.96	9137.45
467.14	9338.74
467.32	9383.21
467.51	9348.10
467.69	9111.71
467.87	9392.57
468.05	9256.82
468.23	9331.72
468.41	9451.08
468.60	9287.25
468.78	9572.79
468.96	9582.15
469.14	9434.70
469.32	9722.59
469.50	9441.72
469.69	9589.17
469.87	9870.04
470.05	9748.33
470.23	9806.84
470.41	9486.19
470.59	9830.25
470.77	9734.29
470.95	9858.34
471.14	10033.88
471.32	9804.50
471.50	10040.90
471.68	10122.82
471.86	10258.57
472.04	10129.84
472.22	10574.54
472.40	10073.67
472.58	10197.71
472.77	10413.04
472.95	10434.11
473.13	10640.08
473.31	10377.94
473.49	10509.01
473.67	10537.09
473.85	10572.20
474.03	10850.72
474.21	10862.43
474.39	11040.31
474.57	10836.68
474.75	10953.71
474.93	11023.92
475.12	11105.84
475.30	11222.87
475.48	11192.44
475.66	11330.53
475.84	11133.93
476.02	11147.97
476.20	11279.04
476.38	11520.12
476.56	11545.86
476.74	11564.59
476.92	11695.66
477.10	11529.48
477.28	11967.16
477.46	11728.42
477.64	12116.95
477.82	11983.54
478.00	12449.31
478.18	12372.07
478.36	12573.36
478.54	12596.76
478.72	12650.60
478.90	12938.48
479.08	12840.18
479.26	13022.74
479.44	12952.52
479.62	12877.63
479.80	13121.04
479.98	13308.29
480.16	13504.89
480.34	13657.03
480.52	13577.45
480.70	13710.86
480.88	13238.07
481.06	13909.80
481.24	13797.46
481.41	14120.45
481.59	14249.18
481.77	14211.73
481.95	14436.42
482.13	14473.87
482.31	14326.42
482.49	14953.68
482.67	14766.44
482.85	14967.73
483.03	15133.90
483.21	15201.78
483.39	15276.68
483.57	15274.34
483.74	15253.27
483.92	15428.81
484.10	15232.21
484.28	15754.15
484.46	16027.99
484.64	16313.53
484.82	15864.15
485.00	16072.46
485.18	16250.34
485.35	16128.63
485.53	15964.79
485.71	16046.71
485.89	16376.73
486.07	16365.03
486.25	16463.33
486.43	16842.50
486.61	16886.97
486.78	17205.28
486.96	17294.22
487.14	17631.26
487.32	17687.43
487.50	18031.49
487.68	17987.02
487.85	18377.89
488.03	18469.17
488.21	18223.41
488.39	18483.21
488.57	18738.33
488.75	18707.90
488.92	18806.20
489.10	19066.00
489.28	19379.64
489.46	19447.51
489.64	19503.68
489.81	19681.56
489.99	19927.32
490.17	19866.47
490.35	20367.34
490.53	20304.15
490.70	20032.65
490.88	19934.34
491.06	20489.05
491.24	20552.24
491.41	20765.23
491.59	20673.95
491.77	20769.91
491.95	20954.82
492.13	21195.89
492.30	21495.48
492.48	21710.81
492.66	21546.97
492.84	21647.61
493.01	21940.18
493.19	21919.12
493.37	22185.94
493.54	22033.80
493.72	22628.30
493.90	22445.74
494.08	23103.43
494.25	22878.74
494.43	23218.11
494.61	23054.28
494.79	23201.73
494.96	23229.82
495.14	23304.71
495.32	23391.31
495.49	23555.15
495.67	23845.38
495.85	23845.38
496.02	24027.94
496.20	23875.80
496.38	24320.51
496.55	24187.10
496.73	24734.78
496.91	24723.08
497.09	24369.66
497.26	24744.14
497.44	24767.55
497.62	25008.62
497.79	25111.61
497.97	24678.61
498.14	25336.30
498.32	25338.64
498.50	25528.22
498.67	26012.71
498.85	25663.97
499.03	25694.40
499.20	25671.00
499.38	26036.12
499.56	26015.05
499.73	26469.12
499.91	26202.30
500.08	26668.06
500.26	26223.36
500.44	26567.42
500.61	26347.41
500.79	26532.31
500.97	26958.29
501.14	27428.74
501.32	26937.23
501.49	26859.99
501.67	27077.66
501.84	26955.95
502.02	27391.29
502.20	27267.24
502.37	27599.60
502.55	27775.14
502.72	27613.64
502.90	28430.49
503.07	27571.51
503.25	28294.74
503.43	27686.20
503.60	28137.92
503.78	27845.35
503.95	27707.26
504.13	28460.91
504.30	28519.43
504.48	28498.36
504.65	28732.42
504.83	28788.59
505.01	29177.12
505.18	28896.25
505.36	29104.56
505.53	29034.35
505.71	29366.70
505.88	29624.16
506.06	29188.82
506.23	29362.02
506.41	29345.64
506.58	29586.71
506.76	29642.88
506.93	29741.19
507.11	29558.63
507.28	29890.98
507.46	29986.94
507.63	29710.76
507.81	30122.69
507.98	30096.95
508.16	30469.09
508.33	30293.55
508.50	30291.21
508.68	30614.21
508.85	30951.24
509.03	30848.26
509.20	31040.18
509.38	31098.70
509.55	31058.91
509.73	31412.33
509.90	31201.68
510.08	31063.59
510.25	31091.68
510.42	31297.64
510.60	31683.83
510.77	31690.85
510.95	32046.62
511.12	31681.49
511.30	31709.58
511.47	32093.43
511.64	32402.38
511.82	32259.60
511.99	32425.78
512.17	31889.80
512.34	32421.10
512.51	32779.20
512.69	32594.30
512.86	32645.79
513.04	32697.28
513.21	32645.79
513.38	32788.56
513.56	32917.29
513.73	32589.62
513.90	32907.93
514.08	32341.52
514.25	32943.04
514.43	33415.83
514.60	33507.11
514.77	33415.83
514.95	33376.04
515.12	33106.88
515.29	33926.07
515.47	33771.59
515.64	33727.12
515.81	33539.88
515.99	33703.71
516.16	33291.78
516.33	33472.00
516.51	33647.54
516.68	33310.50
516.85	33273.06
517.03	33153.69
517.20	33612.43
517.37	33933.09
517.54	34270.12
517.72	33855.85
517.89	33802.02
518.06	34110.97
518.24	34155.44
518.41	34171.82
518.58	34342.68
518.75	34380.13
518.93	34508.86
519.10	34848.24
519.27	35063.57
519.45	35002.71
519.62	35101.01
519.79	35370.18
519.96	35204.00
520.14	35522.31
520.31	34941.86
520.48	35672.10
520.65	35304.64
520.83	35576.14
521.00	35999.78
521.17	35552.74
521.34	35571.46
521.52	36053.61
521.69	36128.51
521.86	35945.95
522.03	36460.87
522.20	36231.49
522.38	36088.72
522.55	36781.52
522.72	36236.17
522.89	36264.26
523.07	36524.06
523.24	36229.15
523.41	36711.30
523.58	36584.91
523.75	37067.06
523.92	37015.57
524.10	37387.72
524.27	37167.71
524.44	37532.83
524.61	37312.82
524.78	37350.27
524.96	37324.52
525.13	37577.30
525.30	38024.34
525.47	37975.19
525.64	37322.18
525.81	37305.80
525.98	37287.07
526.16	37535.17
526.33	37127.92
526.50	37570.28
526.67	37319.84
526.84	37586.66
527.01	37354.95
527.18	37865.19
527.36	37972.85
527.53	38300.53
527.70	38450.32
527.87	38136.69
528.04	38108.60
528.21	37794.97
528.38	38410.53
528.55	38499.47
528.72	38658.63
528.89	39021.41
529.07	38822.47
529.24	38579.05
529.41	38974.60
529.58	38906.73
529.75	38801.40
529.92	38714.80
530.09	39267.17
530.26	39257.81
530.43	38890.34
530.60	38714.80
530.77	38829.49
530.94	39639.31
531.11	38925.45
531.28	39164.18
531.46	39533.99
531.63	39379.51
531.80	39679.10
531.97	39608.89
532.14	39496.54
532.31	39374.83
532.48	39842.94
532.65	39800.81
532.82	39725.91
532.99	39468.45
533.16	39213.34
533.33	39494.20
533.50	40055.93
533.67	39887.41
533.84	39615.91
534.01	39707.19
534.18	39749.32
534.35	40423.39
534.52	40444.46
534.69	39978.69
534.86	40327.43
535.03	40392.97
535.20	40783.83
535.37	40996.82
535.54	40889.16
535.71	40912.56
535.88	40526.38
536.05	40245.51
536.22	40968.74
536.38	40893.84
536.55	40364.88
536.72	40669.15
536.89	40840.01
537.06	40374.24
537.23	41137.26
537.40	40783.83
537.57	40898.52
537.74	40938.31
537.91	41289.39
538.08	40924.27
538.25	41310.46
538.42	41207.47
538.59	41581.96
538.75	40832.99
538.92	40744.05
539.09	41275.35
539.26	41343.22
539.43	41228.54
539.60	41387.69
539.77	41230.88
539.94	41483.66
540.11	41074.06
540.28	40926.61
540.44	41937.72
540.61	41944.74
540.78	41460.25
540.95	41523.44
541.12	41717.71
541.29	41443.87
541.46	41661.54
541.62	41731.75
541.79	41621.75
541.96	41619.41
542.13	41876.86
542.30	42073.47
542.47	42401.14
542.63	42045.38
542.80	42155.39
542.97	42190.50
543.14	42953.51
543.31	42663.28
543.48	42845.85
543.64	43096.28
543.81	43054.15
543.98	42651.58
544.15	42717.12
544.32	43161.82
544.48	43477.79
544.65	42597.75
544.82	43255.44
544.99	42625.84
545.16	43103.31
545.32	42988.62
545.49	43084.58
545.66	43372.47
545.83	43407.58
546.00	43328.00
546.16	43292.89
546.33	43330.34
546.50	42913.72
546.67	43538.65
546.83	42417.53
547.00	43381.83
547.17	43292.89
547.34	43271.82
547.50	43285.87
547.67	43552.69
547.84	43302.25
548.00	43405.23
548.17	43810.15
548.34	43742.27
548.51	43941.22
548.67	43643.97
548.84	43646.31
549.01	43702.48
549.18	43805.47
549.34	43515.24
549.51	43419.28
549.68	43863.98
549.84	43945.90
550.01	44119.10
550.18	43735.25
550.34	43997.39
550.51	44025.48
550.68	44261.87
550.84	43756.32
551.01	44023.14
551.18	44072.29
551.34	43966.96
551.51	44652.74
551.68	44259.53
551.84	44446.77
552.01	44516.99
552.18	44210.38
552.34	44123.78
552.51	44666.78
552.68	43913.13
552.84	44484.22
553.01	44896.16
553.18	44849.35
553.34	44481.88
553.51	44481.88
553.67	44788.49
553.84	44685.51
554.01	44603.59
554.17	44975.73
554.34	45041.27
554.51	44769.77
554.67	44971.05
554.84	44872.75
555.00	44952.33
555.17	45013.18
555.33	44992.12
555.50	44809.56
555.67	44989.78
555.83	44809.56
556.00	45256.60
556.16	45380.65
556.33	45015.52
556.50	44816.58
556.66	45055.31
556.83	45258.94
556.99	45509.38
557.16	45181.70
557.32	44971.05
557.49	45148.93
557.65	44914.88
557.82	44832.96
557.98	45305.75
558.15	45296.39
558.32	45418.10
558.48	45408.73
558.65	45209.79
558.81	45380.65
558.98	45125.53
559.14	45160.64
559.31	45354.90
559.47	45361.92
559.64	45626.40
559.80	45319.79
559.97	45748.11
560.13	44978.07
560.30	45844.07
560.46	45352.56
560.63	45455.54
560.79	45663.85
560.96	46005.57
561.12	45659.17
561.29	45738.75
561.45	45368.94
561.61	45607.68
561.78	45553.85
561.94	45476.61
562.11	45298.73
562.27	45504.70
562.44	45272.98
562.60	45621.72
562.77	45757.47
562.93	45851.09
563.10	46487.72
563.26	45595.98
563.42	45743.43
563.59	45467.25
563.75	45794.92
563.92	46078.13
564.08	45991.53
564.24	46246.65
564.41	45666.19
564.57	45872.16
564.74	45815.99
564.90	45954.08
565.07	45947.06
565.23	45848.75
565.39	45450.86
565.56	45956.42
565.72	45745.77
565.88	45347.88
566.05	46010.25
566.21	45588.95
566.38	46146.00
566.54	45666.19
566.70	45787.90
566.87	45886.20
567.03	46124.94
567.19	46305.16
567.36	46028.98
567.52	46138.98
567.68	46239.62
567.85	46057.06
568.01	46073.45
568.17	45766.84
568.34	46073.45
568.50	46075.79
568.66	45668.53
568.83	46230.26
568.99	45942.38
569.15	46218.56
569.32	46192.81
569.48	45490.65
569.64	46206.86
569.81	46286.43
569.97	46347.29
570.13	46171.75
570.30	45614.70
570.46	46068.76
570.62	45696.62
570.78	45851.09
570.95	45886.20
571.11	46274.73
571.27	45675.55
571.43	45649.81
571.60	46146.00
571.76	45570.23
571.92	46047.70
572.09	46204.52
572.25	45766.84
572.41	45862.80
572.57	45993.87
572.74	46457.29
572.90	46459.63
573.06	46295.80
573.22	46319.20
573.38	46225.58
573.55	46080.47
573.71	46218.56
573.87	46127.28
574.03	46036.00
574.20	46326.22
574.36	45663.85
574.52	46239.62
574.68	46380.06
574.84	46635.17
575.01	46260.69
575.17	46251.33
575.33	45853.44
575.49	45911.95
575.65	46588.36
575.82	46176.43
575.98	46363.67
576.14	46241.96
576.30	46330.90
576.46	46021.95
576.62	46202.18
576.79	46274.73
576.95	46103.87
577.11	46319.20
577.27	46576.66
577.43	46054.72
577.59	46134.30
577.75	45986.85
577.92	45794.92
578.08	46263.03
578.24	46003.23
578.40	46284.09
578.56	45755.13
578.72	46108.55
578.88	46555.60
579.04	46328.56
579.21	45867.48
579.37	46298.14
579.53	46300.48
579.69	45851.09
579.85	46401.12
580.01	46129.62
580.17	46410.48
580.33	46419.84
580.49	46494.74
580.65	46539.21
580.82	46272.39
580.98	46019.61
581.14	45869.82
581.30	46616.45
581.46	46735.82
581.62	46256.01
581.78	46101.53
581.94	46857.52
582.10	46300.48
582.26	46508.79
582.42	46564.96
582.58	46424.53
582.74	46155.36
582.90	46461.97
583.06	46588.36
583.22	46354.31
583.38	46820.08
583.54	46394.10
583.70	46487.72
583.86	46513.47
584.02	46209.20
584.18	46183.45
584.34	46403.46
584.50	46260.69
584.66	46698.37
584.82	45666.19
584.98	46309.84
585.14	46293.46
585.30	46043.02
585.46	46361.33
585.62	46307.50
585.78	46745.18
585.94	46021.95
586.10	46265.37
586.26	46061.74
586.42	46333.24
586.58	46241.96
586.74	46794.33
586.90	46527.51
587.06	46050.04
587.22	46373.03
587.38	45907.27
587.54	46447.93
587.70	46703.05
587.86	46073.45
588.02	46366.01
588.18	46885.61
588.34	46211.54
588.49	46043.02
588.65	45694.28
588.81	46230.26
588.97	46256.01
589.13	46000.89
589.29	46440.91
589.45	46031.32
589.61	46382.40
589.77	46539.21
589.93	46405.80
