SpectraSuite Data File
++++++++++++++++++++++++++++++++++++
Date: Fri Oct 25 11:23:27 EDT 2013
User: price-jones
Dark Spectrum Present: No
Reference Spectrum Present: No
Number of Sampled Component Spectra: 1
Spectrometers: USB2+H05261
Integration Time (usec): 100000 (USB2+H05261)
Spectra Averaged: 1 (USB2+H05261)
Boxcar Smoothing: 0 (USB2+H05261)
Correct for Electrical Dark: No (USB2+H05261)
Strobe/Lamp Enabled: No (USB2+H05261)
Correct for Detector Non-linearity: No (USB2+H05261)
Correct for Stray Light: No (USB2+H05261)
Number of Pixels in Processed Spectrum: 2048
>>>>>Begin Processed Spectral Data<<<<<
365.73	243.42
365.92	243.42
366.12	243.42
366.32	124.05
366.52	124.05
366.72	217.67
366.91	88.94
367.11	91.28
367.31	93.62
367.51	126.39
367.70	110.01
367.90	65.54
368.10	93.62
368.30	37.45
368.49	126.39
368.69	166.18
368.89	220.01
369.09	117.03
369.28	163.84
369.48	117.03
369.68	205.97
369.87	182.56
370.07	203.63
370.27	194.26
370.47	409.59
370.66	603.86
370.86	573.43
371.06	711.52
371.25	699.82
371.45	653.01
371.65	636.63
371.84	634.29
372.04	753.65
372.24	788.76
372.44	695.14
372.63	739.61
372.83	732.59
373.03	706.84
373.22	779.40
373.42	763.01
373.62	844.93
373.81	770.04
374.01	800.46
374.21	786.42
374.40	835.57
374.60	847.27
374.79	826.21
374.99	926.85
375.19	842.59
375.38	884.72
375.58	840.25
375.78	898.77
375.97	826.21
376.17	861.32
376.37	816.85
376.56	812.17
376.76	863.66
376.95	884.72
377.15	943.24
377.35	943.24
377.54	826.21
377.74	870.68
377.93	896.43
378.13	901.11
378.33	1011.11
378.52	929.19
378.72	933.87
378.91	940.90
379.11	980.68
379.31	994.73
379.50	847.27
379.70	957.28
379.89	940.90
380.09	1004.09
380.28	1071.97
380.48	1043.88
380.68	915.15
380.87	1060.26
381.07	1053.24
381.26	1004.09
381.46	1034.52
381.65	1022.81
381.85	987.71
382.04	1050.90
382.24	1053.24
382.43	924.51
382.63	1083.67
382.83	968.98
383.02	1100.05
383.22	1093.03
383.41	1057.92
383.61	1118.78
383.80	1193.67
384.00	1121.12
384.19	1142.18
384.39	1156.22
384.58	1146.86
384.78	1188.99
384.97	1153.88
385.17	1210.06
385.36	1123.46
385.56	1109.41
385.75	1100.05
385.95	1172.61
386.14	1221.76
386.34	1160.91
386.53	1144.52
386.72	1221.76
386.92	1275.59
387.11	1200.69
387.31	1186.65
387.50	1219.42
387.70	1296.66
387.89	1284.95
388.09	1224.10
388.28	1289.64
388.48	1345.81
388.67	1254.53
388.86	1247.51
389.06	1270.91
389.25	1455.81
389.45	1327.08
389.64	1380.92
389.84	1317.72
390.03	1416.02
390.22	1320.06
390.42	1315.38
390.61	1397.30
390.81	1434.75
391.00	1458.15
391.19	1507.30
391.39	1455.81
391.58	1486.24
391.78	1533.05
391.97	1448.79
392.16	1427.73
392.36	1551.78
392.55	1556.46
392.75	1568.16
392.94	1533.05
393.13	1511.99
393.33	1469.86
393.52	1535.39
393.71	1577.52
393.91	1476.88
394.10	1607.95
394.29	1556.46
394.49	1563.48
394.68	1748.38
394.88	1661.78
395.07	1605.61
395.26	1664.12
395.46	1776.47
395.65	1706.25
395.84	1746.04
396.04	1795.19
396.23	1703.91
396.42	1771.79
396.62	1778.81
396.81	1689.87
397.00	1802.21
397.19	1741.36
397.39	1842.00
397.58	1867.75
397.77	1776.47
397.97	1830.30
398.16	1790.51
398.35	1963.71
398.55	1923.92
398.74	1909.88
398.93	2008.18
399.12	2010.52
399.32	1888.81
399.51	1991.80
399.70	2054.99
399.90	1966.05
400.09	1933.28
400.28	2008.18
400.47	1970.73
400.67	2139.25
400.86	2134.57
401.05	2157.97
401.24	1989.46
401.44	2132.23
401.63	2122.87
401.82	2122.87
402.01	2083.08
402.21	2293.72
402.40	2188.40
402.59	2200.10
402.78	2160.31
402.97	2326.49
403.17	2272.66
403.36	2260.96
403.55	2270.32
403.74	2363.94
403.93	2289.04
404.13	2359.26
404.32	2277.34
404.51	2328.83
404.70	2483.31
404.89	2434.16
405.09	2495.01
405.28	2569.91
405.47	2546.50
405.66	2516.08
405.85	2541.82
406.05	2443.52
406.24	2581.61
406.43	2548.84
406.62	2609.70
406.81	2693.96
407.00	2619.06
407.20	2555.86
407.39	2541.82
407.58	2541.82
407.77	2574.59
407.96	2726.72
408.15	2738.43
408.34	2773.53
408.54	2920.99
408.73	2820.35
408.92	2862.48
409.11	2841.41
409.30	2801.62
409.49	2916.31
409.68	2888.22
409.87	2885.88
410.07	3016.95
410.26	3049.72
410.45	3045.04
410.64	2906.95
410.83	3012.27
411.02	3075.46
411.21	3204.19
411.40	3117.59
411.59	3119.93
411.78	3208.87
411.98	3241.64
412.17	3311.86
412.36	3255.69
412.55	3248.66
412.74	3386.76
412.93	3433.57
413.12	3262.71
413.31	3611.45
413.50	3557.61
413.69	3478.04
413.88	3641.87
414.07	3660.60
414.26	3590.38
414.45	3644.21
414.64	3765.92
414.83	3679.32
415.02	3833.80
415.22	3826.78
415.41	3904.01
415.60	3936.78
415.79	3957.85
415.98	3934.44
416.17	4007.00
416.36	3810.39
416.55	3946.14
416.74	4025.72
416.93	4126.36
417.12	4168.49
417.31	4182.54
417.50	4203.60
417.69	4273.82
417.88	4311.27
418.07	4299.56
418.26	4290.20
418.45	4362.76
418.64	4491.49
418.83	4500.85
419.02	4442.34
419.21	4369.78
419.39	4550.00
419.58	4423.61
419.77	4346.37
419.96	4779.37
420.15	4734.90
420.34	4613.20
420.53	4636.60
420.72	4718.52
420.91	4706.82
421.10	4753.63
421.29	4828.53
421.48	4641.28
421.67	4685.75
421.86	4781.71
422.05	4943.21
422.24	4636.60
422.43	4844.91
422.61	4950.23
422.80	5004.07
422.99	4952.57
423.18	4980.66
423.37	5069.60
423.56	5093.01
423.75	5090.67
423.94	4903.42
424.13	4669.37
424.32	4734.90
424.50	4910.44
424.69	5291.95
424.88	4980.66
425.07	5102.37
425.26	4938.53
425.45	4800.44
425.64	4957.25
425.83	5013.43
426.01	5210.03
426.20	5181.95
426.39	5121.09
426.58	4990.02
426.77	5097.69
426.96	5188.97
427.15	5156.20
427.33	5130.45
427.52	5114.07
427.71	5362.17
427.90	5228.76
428.09	5495.58
428.28	5348.12
428.46	5289.61
428.65	5305.99
428.84	5563.45
429.03	5455.79
429.22	5481.53
429.40	5467.49
429.59	5614.95
429.78	5341.10
429.97	5343.44
430.16	5549.41
430.34	5547.07
430.53	5598.56
430.72	5586.86
430.91	5701.54
431.10	5624.31
431.28	5844.32
431.47	5900.49
431.66	5860.70
431.85	5874.74
432.03	5961.34
432.22	6024.54
432.41	5818.57
432.60	5926.24
432.79	6015.18
432.97	6087.73
433.16	6160.29
433.35	6033.90
433.54	6221.14
433.72	6080.71
433.91	6059.65
434.10	6242.21
434.28	6033.90
434.47	6340.51
434.66	6244.55
434.85	6359.24
435.03	6244.55
435.22	6171.99
435.41	6572.22
435.59	6214.12
435.78	6403.71
435.97	6368.60
436.16	6487.96
436.34	6539.46
436.53	6619.04
436.72	6672.87
436.90	6480.94
437.09	6670.53
437.28	6651.80
437.46	6710.32
437.65	6588.61
437.84	6899.90
438.02	6740.74
438.21	6682.23
438.40	6773.51
438.58	6986.50
438.77	7126.93
438.96	7026.29
439.14	6918.62
439.33	7164.38
439.52	7211.19
439.70	7356.30
439.89	7372.69
440.08	7353.96
440.26	7391.41
440.45	7300.13
440.63	7468.65
440.82	7578.65
441.01	7489.71
441.19	7545.89
441.38	7674.62
441.57	7683.98
441.75	7815.05
441.94	8032.72
442.12	7838.45
442.31	8304.22
442.50	8067.83
442.68	8009.31
442.87	8072.51
443.05	8128.68
443.24	8180.17
443.43	7955.48
443.61	8219.96
443.80	8486.78
443.98	8114.64
444.17	7775.26
444.35	8168.47
444.54	8301.88
444.73	8332.31
444.91	8318.26
445.10	8325.29
445.28	8418.91
445.47	8226.98
445.65	8402.52
445.84	8596.79
446.02	8512.53
446.21	8589.77
446.39	8489.12
446.58	8498.49
446.77	8552.32
446.95	8510.19
447.14	8514.87
447.32	8669.34
447.51	8540.61
447.69	8456.36
447.88	8606.15
448.06	8442.31
448.25	8411.89
448.43	8669.34
448.62	8725.52
448.80	8697.43
448.99	8674.03
449.17	8617.85
449.36	8613.17
449.54	9151.49
449.73	9043.83
449.91	9095.32
450.10	8884.67
450.28	9081.28
450.46	9144.47
450.65	9095.32
450.83	9121.07
451.02	8997.02
451.20	9287.25
451.39	9179.58
451.57	9132.77
451.76	8985.32
451.94	9317.67
452.13	9296.61
452.31	9533.00
452.49	9125.75
452.68	9380.87
452.86	9565.77
453.05	9404.27
453.23	9628.96
453.42	9525.98
453.60	9523.64
453.78	9509.60
453.97	9628.96
454.15	9411.29
454.34	9537.68
454.52	9919.19
454.70	9666.41
454.89	9944.94
455.07	9799.82
455.26	9797.48
455.44	9984.73
455.62	9881.74
455.81	9963.66
455.99	10045.58
456.17	10118.14
456.36	10073.67
456.54	10263.25
456.73	10289.00
456.91	10478.58
457.09	10616.67
457.28	10548.79
457.46	10305.38
457.64	10394.32
457.83	10494.96
458.01	10251.55
458.19	10871.79
458.38	10567.52
458.56	10867.11
458.74	10874.13
458.93	10719.65
459.11	10787.53
459.29	10719.65
459.48	10864.77
459.66	10883.49
459.84	10895.19
460.03	11300.11
460.21	10904.56
460.39	11070.73
460.57	10916.26
460.76	11187.76
460.94	11290.74
461.12	11152.65
461.31	11241.59
461.49	11314.15
461.67	11419.47
461.85	11459.26
462.04	11197.12
462.22	11964.82
462.40	11798.64
462.59	11339.90
462.77	11630.12
462.95	11667.57
463.13	11597.35
463.32	11569.27
463.50	11730.76
463.68	11698.00
463.86	11918.01
464.05	11854.81
464.23	11756.51
464.41	12088.87
464.59	11620.76
464.78	12058.44
464.96	11990.56
465.14	11992.90
465.32	11946.09
465.50	12325.26
465.69	12411.86
465.87	12025.67
466.05	12163.76
466.23	12273.77
466.41	12479.74
466.60	12362.71
466.78	12208.23
466.96	12156.74
467.14	12273.77
467.32	12634.21
467.51	12395.48
467.69	12292.49
467.87	12573.36
468.05	12896.35
468.23	12613.15
468.41	12671.66
468.60	12814.43
468.78	12847.20
468.96	12723.15
469.14	12980.61
469.32	13027.42
469.50	12788.69
469.69	12753.58
469.87	13069.55
470.05	13334.03
470.23	13291.90
470.41	13366.80
470.59	13408.93
470.77	13362.12
470.95	13507.23
471.14	13481.49
471.32	13380.84
471.50	13692.13
471.68	13446.38
471.86	13755.33
472.04	13682.77
472.22	14054.92
472.40	13528.30
472.58	13827.88
472.77	13965.98
472.95	14452.81
473.13	14747.72
473.31	14125.13
473.49	14242.16
473.67	14202.37
473.85	14305.35
474.03	14738.35
474.21	14471.53
474.39	14789.85
474.57	14941.98
474.75	14630.69
474.93	14937.30
475.12	14874.10
475.30	14810.91
475.48	15164.33
475.66	15307.10
475.84	15438.17
476.02	15372.64
476.20	15461.58
476.38	15515.41
476.56	16049.05
476.74	16093.52
476.92	15740.10
477.10	15875.85
477.28	16568.65
477.46	16320.56
477.64	16346.30
477.82	16774.62
478.00	17088.25
478.18	16893.99
478.36	17050.80
478.54	17371.46
478.72	17062.51
478.90	17572.74
479.08	17619.55
479.26	17949.57
479.44	17701.47
479.62	17825.52
479.80	18153.20
479.98	18162.56
480.16	18569.81
480.34	18178.94
480.52	18476.19
480.70	18799.18
480.88	18567.47
481.06	19129.20
481.24	19082.39
481.41	19257.93
481.59	19309.42
481.77	19709.65
481.95	19800.93
482.13	20140.31
482.31	19934.34
482.49	20273.72
482.67	20240.95
482.85	20723.10
483.03	20786.30
483.21	20917.37
483.39	21144.40
483.57	21158.44
483.74	21132.70
483.92	21465.05
484.10	20987.58
484.28	21598.46
484.46	21977.63
484.64	22314.67
484.82	22136.79
485.00	22513.61
485.18	22843.63
485.35	23285.99
485.53	23000.44
485.71	23295.35
485.89	23777.50
486.07	23494.30
486.25	23541.11
486.43	23840.70
486.61	24018.58
486.78	24070.07
486.96	24217.52
487.14	24924.36
487.32	24697.33
487.50	25188.85
487.68	25408.86
487.85	25153.74
488.03	25701.42
488.21	25902.71
488.39	25986.97
488.57	26012.71
488.75	26389.54
488.92	26857.65
489.10	26967.65
489.28	26906.80
489.46	27491.93
489.64	27157.24
489.81	27693.22
489.99	28217.50
490.17	28002.17
490.35	28430.49
490.53	28584.96
490.70	28636.45
490.88	28603.69
491.06	29013.28
491.24	29193.50
491.41	29113.92
491.59	29326.91
491.77	29474.37
491.95	30075.88
492.13	29949.50
492.30	30132.06
492.48	30244.40
492.66	30602.50
492.84	30293.55
493.01	30871.67
493.19	30796.77
493.37	30934.86
493.54	31250.83
493.72	31714.26
493.90	31590.21
494.08	32072.36
494.25	32423.44
494.43	32222.16
494.61	32493.66
494.79	32814.31
494.96	32772.18
495.14	33247.31
495.32	33216.88
495.49	33071.77
495.67	33766.91
495.85	33865.21
496.02	33881.60
496.20	34103.95
496.38	34410.56
496.55	34508.86
496.73	35124.42
496.91	34506.52
497.09	34885.68
497.26	35213.36
497.44	35007.39
497.62	35669.76
497.79	35983.40
497.97	35798.49
498.14	36189.36
498.32	36662.15
498.50	36226.81
498.67	36982.80
498.85	36676.19
499.03	36882.16
499.20	36706.62
499.38	37003.87
499.56	37649.86
499.73	37034.30
499.91	37493.04
500.08	37516.45
500.26	37591.34
500.44	37708.37
500.61	37986.89
500.79	37832.42
500.97	38426.92
501.14	38672.67
501.32	38813.10
501.49	38829.49
501.67	39264.83
501.84	39140.78
502.02	39037.80
502.20	39358.45
502.37	39651.02
502.55	39154.82
502.72	39625.27
502.90	40250.19
503.07	39873.37
503.25	40016.14
503.43	39929.54
503.60	40411.69
503.78	40774.47
503.95	40568.51
504.13	40942.99
504.30	40612.98
504.48	40825.96
504.65	40889.16
504.83	41181.73
505.01	41464.93
505.18	41624.09
505.36	41429.82
505.53	41581.96
505.71	41584.30
505.88	41933.04
506.06	42183.48
506.23	42237.31
506.41	41970.49
506.58	42302.84
506.76	42897.34
506.93	42717.12
507.11	42527.53
507.28	42770.95
507.46	42930.11
507.63	43627.59
507.81	43606.52
507.98	42916.06
508.16	43297.57
508.33	43426.30
508.50	43688.44
508.68	43868.66
508.85	44205.70
509.03	43955.26
509.20	44332.09
509.38	44278.25
509.55	44814.24
509.73	44617.63
509.90	45088.08
510.08	44432.73
510.25	44697.21
510.42	44837.64
510.60	45467.25
510.77	45481.29
510.95	45467.25
511.12	45195.74
511.30	45221.49
511.47	45614.70
511.64	45640.45
511.82	46120.26
511.99	46216.22
512.17	46323.88
512.34	45853.44
512.51	46174.09
512.69	46583.68
512.86	46443.25
513.04	46909.02
513.21	46773.27
513.38	47000.30
513.56	46890.29
513.73	47000.30
513.90	47070.51
514.08	46731.14
514.25	47192.22
514.43	47615.86
514.60	47533.94
514.77	47697.78
514.95	48034.81
515.12	47742.25
515.29	47929.49
515.47	47737.57
515.64	48332.06
515.81	48203.33
515.99	48409.30
516.16	48846.98
516.33	48816.55
516.51	48598.88
516.68	48516.96
516.85	48701.87
517.03	49198.06
517.20	48907.83
517.37	48889.11
517.54	49116.14
517.72	49198.06
517.89	49130.19
518.06	49565.52
518.24	49422.75
518.41	49406.37
518.58	49743.41
518.75	49511.69
518.93	49551.48
519.10	49567.87
519.27	50024.27
519.45	49972.78
519.62	50202.15
519.79	49975.12
519.96	50295.77
520.14	50358.97
520.31	50099.17
520.48	50485.36
520.65	50377.69
520.83	50981.55
521.00	50988.57
521.17	50752.18
521.34	50974.53
521.52	51140.71
521.69	50862.18
521.86	51007.29
522.03	51381.78
522.20	51428.59
522.38	51641.58
522.55	51281.14
522.72	51452.00
522.89	51870.95
523.07	51929.47
523.24	51695.41
523.41	51885.00
523.58	51957.55
523.75	52088.62
523.92	52058.20
524.10	52226.71
524.27	52310.97
524.44	52538.01
524.61	52151.82
524.78	52266.50
524.96	52439.70
525.13	52420.98
525.30	52828.23
525.47	52790.78
525.64	52502.90
525.81	52603.54
525.98	52736.95
526.16	52814.19
526.33	52966.32
526.50	53294.00
526.67	53109.10
526.84	53148.88
527.01	53368.90
527.18	53050.58
527.36	53291.66
527.53	53235.48
527.70	53581.88
527.87	53305.70
528.04	53488.26
528.21	53446.13
528.38	53422.73
528.55	53635.72
528.72	53270.59
528.89	53593.59
529.07	53736.36
529.24	53361.87
529.41	53942.33
529.58	54071.06
529.75	54003.18
529.92	53631.04
530.09	54136.59
530.26	54185.74
530.43	54000.84
530.60	54124.89
530.77	54174.04
530.94	54169.36
531.11	54277.02
531.28	54134.25
531.46	54646.83
531.63	54571.93
531.80	54564.91
531.97	54272.34
532.14	54934.71
532.31	54482.99
532.48	54745.13
532.65	54763.85
532.82	54607.04
532.99	54808.32
533.16	54787.26
533.33	54801.30
533.50	55004.93
533.67	54841.09
533.84	55173.45
534.01	55100.89
534.18	55119.62
534.35	55559.64
534.52	55194.51
534.69	55421.55
534.86	55402.82
535.03	55243.66
535.20	55238.98
535.37	55519.85
535.54	55379.42
535.71	55564.32
535.88	55571.34
536.05	55751.56
536.22	55728.16
536.38	55636.87
536.55	55789.01
536.72	55938.80
536.89	55737.52
537.06	55812.41
537.23	55828.80
537.40	55767.94
537.57	55899.01
537.74	55976.25
537.91	56451.38
538.08	56004.34
538.25	56023.06
538.42	56104.98
538.59	56336.69
538.75	55889.65
538.92	56116.68
539.09	56329.67
539.26	56411.59
539.43	56065.19
539.60	56032.42
539.77	56193.92
539.94	56530.96
540.11	56507.55
540.28	56500.53
540.44	56575.43
540.61	56636.28
540.78	56514.58
540.95	56629.26
541.12	56444.36
541.29	56807.14
541.46	56690.12
541.62	56816.50
541.79	56690.12
541.96	56729.90
542.13	56542.66
542.30	56858.63
542.47	57116.09
542.63	57109.07
542.80	57205.03
542.97	57034.17
543.14	57315.04
543.31	57506.96
543.48	57221.42
543.64	57481.22
543.81	57602.92
543.98	57336.10
544.15	57577.18
544.32	57722.29
544.48	57684.84
544.65	57511.64
544.82	57574.84
544.99	57167.58
545.16	57682.50
545.32	57542.07
545.49	57853.36
545.66	57722.29
545.83	57951.66
546.00	57914.22
546.16	57822.93
546.33	57804.21
546.50	57586.54
546.67	57996.13
546.83	57432.07
547.00	57832.30
547.17	57717.61
547.34	58040.60
547.50	58225.51
547.67	58504.03
547.84	58248.91
548.00	58466.58
548.17	58361.26
548.34	58181.04
548.51	58302.74
548.67	58298.06
548.84	58260.62
549.01	58230.19
549.18	58429.13
549.34	58328.49
549.51	58543.82
549.68	58370.62
549.84	58422.11
550.01	58497.01
550.18	58291.04
550.34	58602.33
550.51	58609.35
550.68	58756.81
550.84	58213.80
551.01	58871.49
551.18	58585.95
551.34	58791.92
551.51	58695.95
551.68	58546.16
551.84	58691.27
552.01	58513.39
552.18	58873.84
552.34	58693.61
552.51	58937.03
552.68	58667.87
552.84	58534.46
553.01	58937.03
553.18	59007.25
553.34	59199.17
553.51	58859.79
553.67	59100.87
553.84	59231.94
554.01	59086.82
554.17	59107.89
554.34	59145.34
554.51	59110.23
554.67	59299.81
554.84	59143.00
555.00	59070.44
555.17	59143.00
555.33	59276.41
555.50	59091.51
555.67	59166.40
555.83	59398.12
556.00	59119.59
556.16	59526.84
556.33	59627.49
556.50	59325.56
556.66	59437.90
556.83	59222.58
556.99	59543.23
557.16	59463.65
557.32	59676.64
557.49	59592.38
557.65	59372.37
557.82	59454.29
557.98	59370.03
558.15	59597.06
558.32	59662.60
558.48	59576.00
558.65	59515.14
558.81	59625.15
558.98	59798.35
559.14	59859.20
559.31	60149.43
559.47	59756.22
559.64	59891.97
559.80	59742.17
559.97	59852.18
560.13	59739.83
560.30	59819.41
560.46	59962.18
560.63	59943.46
560.79	59971.55
560.96	59898.99
561.12	59903.67
561.29	59819.41
561.45	60069.85
561.61	60034.74
561.78	60076.87
561.94	59866.22
562.11	59873.24
562.27	60046.44
562.44	59941.12
562.60	60144.75
562.77	60144.75
562.93	60001.97
563.10	60172.83
563.26	59934.10
563.42	60374.12
563.59	60214.96
563.75	60144.75
563.92	60107.30
564.08	60147.09
564.24	60339.01
564.41	60245.39
564.57	60519.23
564.74	60207.94
564.90	60109.64
565.07	60205.60
565.23	60191.56
565.39	60364.76
565.56	60516.89
565.72	60299.22
565.88	60331.99
566.05	60339.01
566.21	60362.42
566.38	60456.04
566.54	60533.28
566.70	60549.66
566.87	60348.37
567.03	60168.15
567.19	60615.19
567.36	60472.42
567.52	60458.38
567.68	60671.37
567.85	60463.06
568.01	60739.24
568.17	60364.76
568.34	60685.41
568.50	60341.35
568.66	60280.50
568.83	60685.41
568.99	60523.91
569.15	60519.23
569.32	60570.72
569.48	60411.57
569.64	60509.87
569.81	60692.43
569.97	60240.71
570.13	60781.37
570.30	60582.43
570.46	60769.67
570.62	60961.59
570.78	60605.83
570.95	60631.58
571.11	60874.99
571.27	60715.84
571.43	60549.66
571.60	60640.94
571.76	60828.18
571.92	60772.01
572.09	60767.33
572.25	60652.64
572.41	60924.14
572.57	60821.16
572.74	61041.17
572.90	60807.12
573.06	60907.76
573.22	60701.79
573.38	60687.75
573.55	60736.90
573.71	60879.67
573.87	60633.92
574.03	60757.97
574.20	60926.49
574.36	60807.12
574.52	60891.38
574.68	60877.33
574.84	61045.85
575.01	60921.80
575.17	60762.65
575.33	60842.23
575.49	60678.39
575.65	61043.51
575.82	60931.17
575.98	60858.61
576.14	61080.96
576.30	61057.56
576.46	60837.54
576.62	60811.80
576.79	60783.71
576.95	60795.42
577.11	60907.76
577.27	61205.01
577.43	60851.59
577.59	61174.58
577.75	60828.18
577.92	60624.56
578.08	60956.91
578.24	60935.85
578.40	60970.96
578.56	61059.90
578.72	60912.44
578.88	61106.71
579.04	61080.96
579.21	60933.51
579.37	61230.75
579.53	61174.58
579.69	60882.02
579.85	61137.13
580.01	60947.55
580.17	60905.42
580.33	61130.11
580.49	60966.27
580.65	61141.81
580.82	61041.17
580.98	60987.34
581.14	60919.46
581.30	60963.93
581.46	60893.72
581.62	60853.93
581.78	61043.51
581.94	61024.79
582.10	61130.11
582.26	61148.84
582.42	61066.92
582.58	61048.19
582.74	61034.15
582.90	60921.80
583.06	61095.00
583.22	60800.10
583.38	61066.92
583.54	61092.66
583.70	61179.26
583.86	61146.50
584.02	61043.51
584.18	61329.06
584.34	61022.45
584.50	61024.79
584.66	61165.22
584.82	60898.40
584.98	61233.10
585.14	61111.39
585.30	61057.56
585.46	61219.05
585.62	60954.57
585.78	61319.70
585.94	60980.32
586.10	61181.60
586.26	61111.39
586.42	61127.77
586.58	61207.35
586.74	61237.78
586.90	61099.68
587.06	61050.53
587.22	61429.70
587.38	61219.05
587.54	61226.07
587.70	61392.25
587.86	61237.78
588.02	61223.73
588.18	61366.51
588.34	61174.58
588.49	61134.79
