SpectraSuite Data File
++++++++++++++++++++++++++++++++++++
Date: Fri Oct 25 11:22:41 EDT 2013
User: price-jones
Dark Spectrum Present: No
Reference Spectrum Present: No
Number of Sampled Component Spectra: 1
Spectrometers: USB2+H05261
Integration Time (usec): 100000 (USB2+H05261)
Spectra Averaged: 1 (USB2+H05261)
Boxcar Smoothing: 0 (USB2+H05261)
Correct for Electrical Dark: No (USB2+H05261)
Strobe/Lamp Enabled: No (USB2+H05261)
Correct for Detector Non-linearity: No (USB2+H05261)
Correct for Stray Light: No (USB2+H05261)
Number of Pixels in Processed Spectrum: 2048
>>>>>Begin Processed Spectral Data<<<<<
365.73	182.56
365.92	182.56
366.12	182.56
366.32	93.62
366.52	114.69
366.72	121.71
366.91	128.73
367.11	133.41
367.31	135.75
367.51	112.35
367.70	91.28
367.90	126.39
368.10	140.43
368.30	135.75
368.49	170.86
368.69	126.39
368.89	170.86
369.09	124.05
369.28	198.95
369.48	56.17
369.68	133.41
369.87	220.01
370.07	142.77
370.27	191.92
370.47	294.91
370.66	603.86
370.86	648.33
371.06	758.33
371.25	704.50
371.45	657.69
371.65	692.80
371.84	599.18
372.04	636.63
372.24	706.84
372.44	739.61
372.63	760.67
372.83	774.72
373.03	793.44
373.22	681.10
373.42	746.63
373.62	713.86
373.81	716.20
374.01	851.96
374.21	858.98
374.40	739.61
374.60	753.65
374.79	765.36
374.99	821.53
375.19	823.87
375.38	828.55
375.58	835.57
375.78	894.08
375.97	861.32
376.17	882.38
376.37	823.87
376.56	931.53
376.76	870.68
376.95	851.96
377.15	954.94
377.35	856.64
377.54	915.15
377.74	896.43
377.93	945.58
378.13	887.06
378.33	938.55
378.52	926.85
378.72	933.87
378.91	858.98
379.11	933.87
379.31	943.24
379.50	903.45
379.70	947.92
379.89	999.41
380.09	1048.56
380.28	959.62
380.48	1027.50
380.68	1006.43
380.87	940.90
381.07	936.21
381.26	1074.31
381.46	1011.11
381.65	1036.86
381.85	1074.31
382.04	1088.35
382.24	1029.84
382.43	1149.20
382.63	1090.69
382.83	1039.20
383.02	1086.01
383.22	1036.86
383.41	1057.92
383.61	1048.56
383.80	1121.12
384.00	1179.63
384.19	1181.97
384.39	1144.52
384.58	1100.05
384.78	1212.40
384.97	1097.71
385.17	1139.84
385.36	1139.84
385.56	1221.76
385.75	1181.97
385.95	1163.25
386.14	1294.32
386.34	1172.61
386.53	1170.27
386.72	1282.61
386.92	1273.25
387.11	1144.52
387.31	1242.82
387.50	1231.12
387.70	1254.53
387.89	1256.87
388.09	1191.33
388.28	1277.93
388.48	1327.08
388.67	1343.47
388.86	1313.04
389.06	1373.89
389.25	1458.15
389.45	1387.94
389.64	1338.79
389.84	1376.24
390.03	1432.41
390.22	1446.45
390.42	1448.79
390.61	1341.13
390.81	1348.15
391.00	1425.39
391.19	1486.24
391.39	1397.30
391.58	1320.06
391.78	1469.86
391.97	1519.01
392.16	1404.32
392.36	1551.78
392.55	1521.35
392.75	1507.30
392.94	1612.63
393.13	1511.99
393.33	1547.09
393.52	1551.78
393.71	1598.59
393.91	1654.76
394.10	1565.82
394.29	1614.97
394.49	1591.56
394.68	1713.27
394.88	1572.84
395.07	1717.95
395.26	1694.55
395.46	1586.88
395.65	1762.42
395.84	1732.00
396.04	1762.42
396.23	1818.60
396.42	1816.26
396.62	1867.75
396.81	1839.66
397.00	1863.07
397.19	1865.41
397.39	1816.26
397.58	1865.41
397.77	1858.39
397.97	1879.45
398.16	1837.32
398.35	1860.73
398.55	1935.62
398.74	1877.11
398.93	2052.65
399.12	1916.90
399.32	2008.18
399.51	1935.62
399.70	1994.14
399.90	1844.34
400.09	2078.40
400.28	2038.61
400.47	2043.29
400.67	2059.67
400.86	2092.44
401.05	2099.46
401.24	2047.97
401.44	2169.68
401.63	2202.44
401.82	2167.34
402.01	2143.93
402.21	2258.62
402.40	2197.76
402.59	2216.49
402.78	2237.55
402.97	2265.64
403.17	2389.69
403.36	2260.96
403.55	2246.91
403.74	2321.81
403.93	2431.82
404.13	2314.79
404.32	2394.37
404.51	2394.37
404.70	2436.50
404.89	2452.88
405.09	2478.63
405.28	2502.03
405.47	2466.92
405.66	2595.65
405.85	2499.69
406.05	2530.12
406.24	2593.31
406.43	2588.63
406.62	2623.74
406.81	2726.72
407.00	2670.55
407.20	2693.96
407.39	2696.30
407.58	2789.92
407.77	2698.64
407.96	2796.94
408.15	2665.87
408.34	2619.06
408.54	2803.96
408.73	2862.48
408.92	2829.71
409.11	2698.64
409.30	2855.45
409.49	2799.28
409.68	2862.48
409.87	2923.33
410.07	3066.10
410.26	3005.25
410.45	2937.37
410.64	3131.64
410.83	3019.29
411.02	3126.96
411.21	3323.56
411.40	3225.26
411.59	3136.32
411.78	3190.15
411.98	3148.02
412.17	3330.58
412.36	3314.20
412.55	3442.93
412.74	3447.61
412.93	3389.10
413.12	3405.48
413.31	3672.30
413.50	3503.78
413.69	3581.02
413.88	3602.08
414.07	3679.32
414.26	3625.49
414.45	3679.32
414.64	3658.26
414.83	3880.61
415.02	3758.90
415.22	3875.93
415.41	3953.16
415.60	3765.92
415.79	3932.10
415.98	4021.04
416.17	4095.94
416.36	4053.81
416.55	4084.23
416.74	4133.39
416.93	4079.55
417.12	4243.39
417.31	4219.99
417.50	4095.94
417.69	4409.57
417.88	4273.82
418.07	4177.86
418.26	4273.82
418.45	4465.74
418.64	4475.10
418.83	4344.03
419.02	4397.87
419.21	4657.67
419.39	4641.28
419.58	4491.49
419.77	4341.69
419.96	4601.49
420.15	4533.62
420.34	4550.00
420.53	4723.20
420.72	4678.73
420.91	4880.02
421.10	4798.10
421.29	4858.95
421.48	4791.08
421.67	4842.57
421.86	4732.56
422.05	4821.50
422.24	4788.74
422.43	4816.82
422.61	4795.76
422.80	5107.05
422.99	4964.28
423.18	4727.88
423.37	5001.72
423.56	5006.41
423.75	4863.63
423.94	4814.48
424.13	4667.03
424.32	4823.84
424.50	5078.96
424.69	5221.74
424.88	5214.71
425.07	5046.20
425.26	4978.32
425.45	4983.00
425.64	5039.17
425.83	5149.18
426.01	5205.35
426.20	5179.61
426.39	5203.01
426.58	5102.37
426.77	5146.84
426.96	5160.88
427.15	5219.39
427.33	5291.95
427.52	5242.80
427.71	5252.16
427.90	5380.89
428.09	5343.44
428.28	5432.38
428.46	5444.09
428.65	5352.81
428.84	5593.88
429.03	5598.56
429.22	5359.83
429.40	5666.44
429.59	5565.79
429.78	5474.51
429.97	5404.30
430.16	5430.04
430.34	5664.10
430.53	5654.73
430.72	5643.03
430.91	5563.45
431.10	5673.46
431.28	5811.55
431.47	5949.64
431.66	6064.33
431.85	5713.25
432.03	5942.62
432.22	5970.71
432.41	5987.09
432.60	5977.73
432.79	5909.85
432.97	6015.18
433.16	6164.97
433.35	5933.26
433.54	6197.74
433.72	6242.21
433.91	6157.95
434.10	6211.78
434.28	6080.71
434.47	6366.26
434.66	6406.05
434.85	6406.05
435.03	6352.21
435.22	6431.79
435.41	6579.25
435.59	6342.85
435.78	6569.88
435.97	6551.16
436.16	6300.72
436.34	6373.28
436.53	6738.40
436.72	6761.81
436.90	6609.67
437.09	6600.31
437.28	6370.94
437.46	6462.22
437.65	6602.65
437.84	6810.96
438.02	6738.40
438.21	7019.27
438.40	6710.32
438.58	7019.27
438.77	7045.01
438.96	7103.53
439.14	7239.28
439.33	7194.81
439.52	7478.01
439.70	7384.39
439.89	7382.05
440.08	7417.16
440.26	7328.22
440.45	7412.48
440.63	7679.30
440.82	7779.94
441.01	7449.93
441.19	7709.72
441.38	7824.41
441.57	7789.30
441.75	7868.88
441.94	8088.89
442.12	7948.46
442.31	7896.97
442.50	8114.64
442.68	8035.06
442.87	8056.12
443.05	8070.17
443.24	8360.39
443.43	8173.15
443.61	8280.82
443.80	8421.25
443.98	8152.09
444.17	7878.24
444.35	8222.30
444.54	8432.95
444.73	8444.65
444.91	8231.66
445.10	8301.88
445.28	8318.26
445.47	8269.11
445.65	8425.93
445.84	8510.19
446.02	8437.63
446.21	8578.06
446.39	8547.64
446.58	8723.18
446.77	8533.59
446.95	8383.80
447.14	8566.36
447.32	8524.23
447.51	8552.32
447.69	8491.46
447.88	8620.19
448.06	8421.25
448.25	8564.02
448.43	8652.96
448.62	8669.34
448.80	8762.97
448.99	8739.56
449.17	8800.41
449.36	8711.47
449.54	8739.56
449.73	8847.22
449.91	9029.79
450.10	9057.87
450.28	9069.58
450.46	9254.48
450.65	9270.86
450.83	9210.01
451.02	9146.81
451.20	9186.60
451.39	9116.39
451.57	9329.38
451.76	9034.47
451.94	9238.09
452.13	9413.63
452.31	9256.82
452.49	9095.32
452.68	9317.67
452.86	9322.35
453.05	9643.01
453.23	9596.20
453.42	9495.55
453.60	9357.46
453.78	9694.50
453.97	9511.94
454.15	9430.02
454.34	9743.65
454.52	9839.61
454.70	9785.78
454.89	9879.40
455.07	9942.60
455.26	9699.18
455.44	10066.64
455.62	9848.97
455.81	9963.66
455.99	10120.48
456.17	10277.29
456.36	10293.68
456.54	10155.58
456.73	10401.34
456.91	10464.54
457.09	10597.95
457.28	10565.18
457.46	10513.69
457.64	10569.86
457.83	10668.16
458.01	10684.55
458.19	10733.70
458.38	10679.86
458.56	10977.11
458.74	10696.25
458.93	10698.59
459.11	10747.74
459.29	10874.13
459.48	10813.28
459.66	10759.44
459.84	10899.87
460.03	11040.31
460.21	11040.31
460.39	11178.40
460.57	11023.92
460.76	11194.78
460.94	11211.17
461.12	11419.47
461.31	11393.73
461.49	11400.75
461.67	11129.25
461.85	11878.22
462.04	11248.61
462.22	11833.75
462.40	11580.97
462.59	11719.06
462.77	11665.23
462.95	11901.62
463.13	11609.06
463.32	11864.18
463.50	11798.64
463.68	11768.21
463.86	11810.34
464.05	11833.75
464.23	11918.01
464.41	11985.88
464.59	11995.25
464.78	11990.56
464.96	11939.07
465.14	11873.54
465.32	12128.66
465.50	12259.73
465.69	12119.29
465.87	12276.11
466.05	12074.82
466.23	12236.32
466.41	12257.39
466.60	12720.81
466.78	12154.40
466.96	12519.53
467.14	12152.06
467.32	12400.16
467.51	12624.85
467.69	12351.01
467.87	12528.89
468.05	12559.31
468.23	12566.34
468.41	12753.58
468.60	12690.38
468.78	13032.10
468.96	12704.43
469.14	12996.99
469.32	13125.72
469.50	12957.21
469.69	12872.95
469.87	13308.29
470.05	13160.83
470.23	13603.19
470.41	13137.43
470.59	13408.93
470.77	13322.33
470.95	13453.40
471.14	13504.89
471.32	13394.89
471.50	13806.82
471.68	13724.90
471.86	13762.35
472.04	13891.08
472.22	13942.57
472.40	14038.53
472.58	14085.34
472.77	14083.00
472.95	14335.78
473.13	14785.16
473.31	14457.49
473.49	14207.05
473.67	13923.85
473.85	14672.82
474.03	14684.52
474.21	14766.44
474.39	14808.57
474.57	14586.22
474.75	14974.75
474.93	15232.21
475.12	15084.75
475.30	15332.85
475.48	15396.04
475.66	15576.27
475.84	15108.16
476.02	15620.74
476.20	15571.58
476.38	15885.22
476.56	16025.65
476.74	15826.70
476.92	15852.45
477.10	16023.31
477.28	16262.04
477.46	16023.31
477.64	16414.18
477.82	16692.70
478.00	17018.04
478.18	16741.85
478.36	17214.64
478.54	17474.44
478.72	17376.14
478.90	17551.68
479.08	17673.39
479.26	17813.82
479.44	18087.66
479.62	17942.55
479.80	18408.31
479.98	18235.11
480.16	18614.28
480.34	18122.77
480.52	18939.62
480.70	18560.45
480.88	18473.85
481.06	18913.87
481.24	19077.71
481.41	19536.45
481.59	19414.74
481.77	19784.55
481.95	19817.32
482.13	20016.26
482.31	19520.07
482.49	20416.49
482.67	20416.49
482.85	20414.15
483.03	20779.28
483.21	20912.69
483.39	21308.24
483.57	21118.65
483.74	21193.55
483.92	21570.38
484.10	21275.47
484.28	21923.80
484.46	21961.25
484.64	22225.73
484.82	22302.96
485.00	22487.87
485.18	22941.93
485.35	23239.18
485.53	23112.79
485.71	23250.88
485.89	23644.09
486.07	23250.88
486.25	23498.98
486.43	24137.94
486.61	24140.29
486.78	24037.30
486.96	24290.08
487.14	24844.79
487.32	24662.22
487.50	25160.76
487.68	25177.14
487.85	25420.56
488.03	25429.92
488.21	26012.71
488.39	25855.90
488.57	26040.80
488.75	26232.72
488.92	26897.44
489.10	26911.48
489.28	27138.51
489.46	27517.68
489.64	27592.58
489.81	27807.90
489.99	27569.17
490.17	28133.24
490.35	28407.08
490.53	28599.01
490.70	28748.80
490.88	28575.60
491.06	28795.61
491.24	29048.39
491.41	29333.93
491.59	29656.93
491.77	29860.55
491.95	29617.14
492.13	30160.14
492.30	30015.03
492.48	30129.72
492.66	30529.95
492.84	30855.28
493.01	31058.91
493.19	30841.24
493.37	31126.78
493.54	31461.48
493.72	31505.95
493.90	31955.33
494.08	32266.63
494.25	32130.87
494.43	32409.40
494.61	32463.23
494.79	32737.07
494.96	32954.74
495.14	33301.14
495.32	33649.88
495.49	33357.32
495.67	33266.03
495.85	34022.03
496.02	34162.46
496.20	33827.76
496.38	34520.56
496.55	34487.79
496.73	35009.73
496.91	34623.54
497.09	35157.19
497.26	35143.14
497.44	35285.92
497.62	35690.83
497.79	35889.77
497.97	35775.09
498.14	36285.33
498.32	36568.53
498.50	36498.31
498.67	37050.68
498.85	36594.28
499.03	37130.26
499.20	37151.32
499.38	37308.14
499.56	37528.15
499.73	37486.02
499.91	37523.47
500.08	37794.97
500.26	37846.46
500.44	37895.61
500.61	38178.82
500.79	38277.12
500.97	38616.50
501.14	38534.58
501.32	38501.81
501.49	38841.19
501.67	38684.37
501.84	39012.05
502.02	39332.70
502.20	39402.92
502.37	39391.22
502.55	39056.52
502.72	39672.08
502.90	40030.18
503.07	39856.98
503.25	40203.38
503.43	40254.87
503.60	40708.94
503.78	41031.93
503.95	40362.54
504.13	40964.06
504.30	40507.65
504.48	40760.43
504.65	41029.59
504.83	40926.61
505.01	41514.08
505.18	41670.90
505.36	42316.89
505.53	41792.61
505.71	41778.56
505.88	41904.95
506.06	42181.13
506.23	42199.86
506.41	42396.46
506.58	42319.23
506.76	42382.42
506.93	42752.23
507.11	42419.87
507.28	43028.41
507.46	42782.65
507.63	43058.84
507.81	43550.35
507.98	43110.33
508.16	43374.81
508.33	44018.46
508.50	43936.54
508.68	43931.86
508.85	44603.59
509.03	44240.81
509.20	44329.75
509.38	44905.52
509.55	44732.32
509.73	44584.86
509.90	44708.91
510.08	44886.79
510.25	44861.05
510.42	44545.08
510.60	45324.47
510.77	45247.24
510.95	45794.92
511.12	45591.30
511.30	45598.32
511.47	45329.16
511.64	45705.98
511.82	46298.14
511.99	46146.00
512.17	46197.49
512.34	46361.33
512.51	46801.35
512.69	46618.79
512.86	46677.30
513.04	47098.60
513.21	46866.89
513.38	46983.91
513.56	47159.45
513.73	46993.28
513.90	47264.78
514.08	47360.74
514.25	47547.98
514.43	47927.15
514.60	47578.41
514.77	47749.27
514.95	48325.04
515.12	47676.71
515.29	47627.56
515.47	48421.00
515.64	48397.60
515.81	48435.05
515.99	48458.45
516.16	48781.45
516.33	48549.73
516.51	49057.63
516.68	48751.02
516.85	48664.42
517.03	49116.14
517.20	49448.50
517.37	49525.74
517.54	49249.55
517.72	49233.17
517.89	49294.02
518.06	49425.09
518.24	49535.10
518.41	49432.11
518.58	49778.51
518.75	49385.30
518.93	49736.38
519.10	49963.42
519.27	49954.05
519.45	49935.33
519.62	50450.25
519.79	50085.12
519.96	50279.39
520.14	50511.10
520.31	50356.63
520.48	50763.88
520.65	50742.81
520.83	50607.06
521.00	51166.45
521.17	50885.59
521.34	50789.62
521.52	51103.26
521.69	51068.15
521.86	51526.89
522.03	51367.74
522.20	51437.95
522.38	51590.09
522.55	51466.04
522.72	51868.61
522.89	51695.41
523.07	51882.66
523.24	51660.30
523.41	52079.26
523.58	51852.23
523.75	52210.33
523.92	51901.38
524.10	52296.93
524.27	52500.56
524.44	52149.48
524.61	52449.06
524.78	52615.24
524.96	52479.49
525.13	52528.64
525.30	52750.99
525.47	52582.48
525.64	52865.68
525.81	53027.18
525.98	52992.07
526.16	53221.44
526.33	52659.71
526.50	53200.38
526.67	53052.92
526.84	53148.88
527.01	53226.12
527.18	53165.27
527.36	53275.27
527.53	53401.66
527.70	53516.35
527.87	53595.93
528.04	53462.52
528.21	53528.05
528.38	53677.85
528.55	53762.11
528.72	53542.10
528.89	53745.72
529.07	53553.80
529.24	53668.48
529.41	53682.53
529.58	53909.56
529.75	53759.76
529.92	54195.10
530.09	53837.00
530.26	54148.29
530.43	54321.49
530.60	53984.46
530.77	54155.32
530.94	54487.67
531.11	54553.21
531.28	54429.16
531.46	54417.46
531.63	54417.46
531.80	54653.85
531.97	54834.07
532.14	54550.87
532.31	54625.76
532.48	54798.96
532.65	54770.88
532.82	54677.25
532.99	54880.88
533.16	54934.71
533.33	54937.05
533.50	55222.60
533.67	55061.10
533.84	55018.97
534.01	55136.00
534.18	55208.56
534.35	55629.85
534.52	55363.03
534.69	55416.86
534.86	55531.55
535.03	55400.48
535.20	55421.55
535.37	55297.50
535.54	55686.03
535.71	55276.43
535.88	55676.66
536.05	55683.69
536.22	55744.54
536.38	55964.55
536.55	55545.59
536.72	55962.21
536.89	55882.63
537.06	55798.37
537.23	56086.26
537.40	55903.70
537.57	56039.45
537.74	56062.85
537.91	56177.54
538.08	56245.41
538.25	55891.99
538.42	56107.32
538.59	56378.82
538.75	56177.54
538.92	56165.84
539.09	56458.40
539.26	56488.83
539.43	56488.83
539.60	56493.51
539.77	56402.23
539.94	56516.92
540.11	56540.32
540.28	56699.48
540.44	56502.87
540.61	56694.80
540.78	56573.09
540.95	56704.16
541.12	56650.33
541.29	56645.65
541.46	56701.82
541.62	56720.54
541.79	56830.55
541.96	56570.75
542.13	56797.78
542.30	56655.01
542.47	57155.88
542.63	57226.10
542.80	56860.97
542.97	57286.95
543.14	57228.44
543.31	57293.97
543.48	57394.62
543.64	57689.52
543.81	57476.54
543.98	57315.04
544.15	57535.05
544.32	57799.53
544.48	57928.26
544.65	57710.59
544.82	57523.35
544.99	57471.85
545.16	57626.33
545.32	57785.49
545.49	57808.89
545.66	57792.51
545.83	58064.01
546.00	57937.62
546.16	57888.47
546.33	57799.53
546.50	57696.55
546.67	58073.37
546.83	57701.23
547.00	58103.80
547.17	58038.26
547.34	58052.31
547.50	58122.52
547.67	58534.46
547.84	58071.03
548.00	58398.71
548.17	58625.74
548.34	58246.57
548.51	58419.77
548.67	58335.51
548.84	58204.44
549.01	58291.04
549.18	58166.99
549.34	58302.74
549.51	58515.73
549.68	58763.83
549.84	58674.89
550.01	58663.19
550.18	58702.98
550.34	58511.05
550.51	58489.99
550.68	58817.66
550.84	58354.24
551.01	58885.54
551.18	58707.66
551.34	58719.36
551.51	58894.90
551.68	58866.81
551.84	58681.91
552.01	58798.94
552.18	59171.08
552.34	58876.18
552.51	59047.04
552.68	58665.53
552.84	58911.28
553.01	58988.52
553.18	59063.42
553.34	58976.82
553.51	58948.73
553.67	59105.55
553.84	59082.14
554.01	59147.68
554.17	59236.62
554.34	59213.21
554.51	59138.32
554.67	59255.34
554.84	59075.12
555.00	59311.52
555.17	59128.95
555.33	59203.85
555.50	59084.48
555.67	59229.60
555.83	58869.15
556.00	59416.84
556.16	59470.67
556.33	59290.45
556.50	59526.84
556.66	59547.91
556.83	59271.73
556.99	59615.79
557.16	59547.91
557.32	59742.17
557.49	59913.03
557.65	59451.95
557.82	59578.34
557.98	59716.43
558.15	59707.07
558.32	59814.73
558.48	59592.38
558.65	59597.06
558.81	59803.03
558.98	59945.80
559.14	59669.62
559.31	59992.61
559.47	59955.16
559.64	59955.16
559.80	59973.89
559.97	60081.55
560.13	59770.26
560.30	59929.42
560.46	59873.24
560.63	59880.27
560.79	60184.54
560.96	59952.82
561.12	60100.28
561.29	59924.74
561.45	60025.38
561.61	60027.72
561.78	59978.57
561.94	60107.30
562.11	59941.12
562.27	60076.87
562.44	60069.85
562.60	60308.58
562.77	60116.66
562.93	60161.13
563.10	60158.79
563.26	60111.98
563.42	60137.72
563.59	60090.91
563.75	60315.61
563.92	60273.48
564.08	60126.02
564.24	60346.03
564.41	60388.16
564.57	60470.08
564.74	60212.62
564.90	60329.65
565.07	60236.03
565.23	60285.18
565.39	60123.68
565.56	60289.86
565.72	60231.35
565.88	60353.05
566.05	60346.03
566.21	60500.51
566.38	60355.39
566.54	60411.57
566.70	60575.40
566.87	60556.68
567.03	60402.21
567.19	60652.64
567.36	60484.12
567.52	60355.39
567.68	60732.22
567.85	60477.10
568.01	60523.91
568.17	60509.87
568.34	60491.15
568.50	60664.35
568.66	60446.68
568.83	60563.70
568.99	60631.58
569.15	60591.79
569.32	60636.26
569.48	60664.35
569.64	60769.67
569.81	60776.69
569.97	60577.75
570.13	60715.84
570.30	60509.87
570.46	60650.30
570.62	60736.90
570.78	60547.32
570.95	60685.41
571.11	60844.57
571.27	60603.49
571.43	60809.46
571.60	61020.11
571.76	60757.97
571.92	60779.03
572.09	60825.84
572.25	60853.93
572.41	60844.57
572.57	60757.97
572.74	60919.46
572.90	61034.15
573.06	60942.87
573.22	60699.45
573.38	61071.60
573.55	60786.05
573.71	60804.78
573.87	60654.98
574.03	60886.70
574.20	60872.65
574.36	60924.14
574.52	61102.03
574.68	60914.78
574.84	61006.06
575.01	60856.27
575.17	60867.97
575.33	61087.98
575.49	60807.12
575.65	61155.86
575.82	60917.12
575.98	61141.81
576.14	61048.19
576.30	60949.89
576.46	60743.92
576.62	60968.61
576.79	60980.32
576.95	60874.99
577.11	61123.09
577.27	61221.39
577.43	61109.05
577.59	61066.92
577.75	60755.63
577.92	60889.04
578.08	60877.33
578.24	60874.99
578.40	61099.68
578.56	61258.84
578.72	61087.98
578.88	61020.11
579.04	61244.80
579.21	61123.09
579.37	61268.20
579.53	61183.94
579.69	60786.05
579.85	60973.30
580.01	60931.17
580.17	61132.45
580.33	61139.47
580.49	61240.12
580.65	61069.26
580.82	61006.06
580.98	60860.95
581.14	60959.25
581.30	61249.48
581.46	61015.43
581.62	61200.33
581.78	61090.32
581.94	61209.69
582.10	61247.14
582.26	60970.96
582.42	61216.71
582.58	61223.73
582.74	61097.34
582.90	61123.09
583.06	61282.25
583.22	61137.13
583.38	61155.86
583.54	61179.26
583.70	61286.93
583.86	61151.18
584.02	60982.66
584.18	61193.31
584.34	61169.90
584.50	61345.44
584.66	61095.00
584.82	60968.61
584.98	61275.22
585.14	61338.42
585.30	61188.63
585.46	61106.71
585.62	61272.88
585.78	61453.11
585.94	61247.14
586.10	61141.81
586.26	61286.93
586.42	61237.78
586.58	61317.35
586.74	61207.35
586.90	61125.43
587.06	61186.28
587.22	61399.27
587.38	61202.67
587.54	61373.53
587.70	61415.66
587.86	61443.74
588.02	61270.54
588.18	61371.19
588.34	61378.21
588.49	61322.04
