SpectraSuite Data File
++++++++++++++++++++++++++++++++++++
Date: Fri Oct 25 11:26:41 EDT 2013
User: price-jones
Dark Spectrum Present: No
Reference Spectrum Present: No
Number of Sampled Component Spectra: 1
Spectrometers: USB2+H05261
Integration Time (usec): 100000 (USB2+H05261)
Spectra Averaged: 1 (USB2+H05261)
Boxcar Smoothing: 0 (USB2+H05261)
Correct for Electrical Dark: No (USB2+H05261)
Strobe/Lamp Enabled: No (USB2+H05261)
Correct for Detector Non-linearity: No (USB2+H05261)
Correct for Stray Light: No (USB2+H05261)
Number of Pixels in Processed Spectrum: 2048
>>>>>Begin Processed Spectral Data<<<<<
365.73	231.71
365.92	231.71
366.12	231.71
366.32	112.35
366.52	156.82
366.72	222.35
366.91	177.88
367.11	135.75
367.31	86.60
367.51	152.13
367.70	74.90
367.90	166.18
368.10	222.35
368.30	147.45
368.49	121.71
368.69	248.10
368.89	142.77
369.09	145.11
369.28	149.79
369.48	198.95
369.68	205.97
369.87	266.82
370.07	241.08
370.27	276.18
370.47	393.21
370.66	557.05
370.86	603.86
371.06	554.71
371.25	711.52
371.45	681.10
371.65	692.80
371.84	725.57
372.04	709.18
372.24	844.93
372.44	732.59
372.63	660.03
372.83	798.12
373.03	709.18
373.22	737.27
373.42	779.40
373.62	830.89
373.81	802.80
374.01	882.38
374.21	772.38
374.40	791.10
374.60	875.36
374.79	833.23
374.99	812.17
375.19	805.14
375.38	896.43
375.58	858.98
375.78	940.90
375.97	828.55
376.17	908.13
376.37	903.45
376.56	910.47
376.76	922.17
376.95	802.80
377.15	926.85
377.35	875.36
377.54	931.53
377.74	880.04
377.93	943.24
378.13	976.00
378.33	896.43
378.52	971.32
378.72	919.83
378.91	924.51
379.11	896.43
379.31	901.11
379.50	1020.47
379.70	973.66
379.89	1046.22
380.09	1015.79
380.28	985.37
380.48	992.39
380.68	980.68
380.87	1008.77
381.07	1048.56
381.26	1067.28
381.46	1006.43
381.65	999.41
381.85	1043.88
382.04	1114.10
382.24	1090.69
382.43	1050.90
382.63	1097.71
382.83	1231.12
383.02	1121.12
383.22	1081.33
383.41	1088.35
383.61	1123.46
383.80	1156.22
384.00	1107.07
384.19	1181.97
384.39	1158.57
384.58	1163.25
384.78	1160.91
384.97	1224.10
385.17	1163.25
385.36	1242.82
385.56	1132.82
385.75	1158.57
385.95	1151.54
386.14	1160.91
386.34	1240.48
386.53	1086.01
386.72	1221.76
386.92	1282.61
387.11	1268.57
387.31	1322.40
387.50	1287.29
387.70	1282.61
387.89	1364.53
388.09	1348.15
388.28	1188.99
388.48	1256.87
388.67	1320.06
388.86	1334.11
389.06	1327.08
389.25	1341.13
389.45	1341.13
389.64	1322.40
389.84	1394.96
390.03	1418.36
390.22	1413.68
390.42	1453.47
390.61	1359.85
390.81	1486.24
391.00	1490.92
391.19	1430.07
391.39	1423.05
391.58	1537.73
391.78	1479.22
391.97	1558.80
392.16	1535.39
392.36	1579.86
392.55	1570.50
392.75	1598.59
392.94	1516.67
393.13	1521.35
393.33	1547.09
393.52	1577.52
393.71	1528.37
393.91	1593.90
394.10	1607.95
394.29	1631.35
394.49	1549.43
394.68	1652.42
394.88	1692.21
395.07	1589.22
395.26	1636.03
395.46	1654.76
395.65	1769.44
395.84	1678.16
396.04	1739.02
396.23	1863.07
396.42	1792.85
396.62	1727.32
396.81	1823.28
397.00	1827.96
397.19	1832.64
397.39	1839.66
397.58	1937.96
397.77	1839.66
397.97	1811.57
398.16	1856.04
398.35	1849.02
398.55	1933.28
398.74	1916.90
398.93	1916.90
399.12	1907.54
399.32	1952.01
399.51	1933.28
399.70	2005.84
399.90	2012.86
400.09	1926.26
400.28	2106.48
400.47	2122.87
400.67	2104.14
400.86	2054.99
401.05	2092.44
401.24	2146.27
401.44	2106.48
401.63	2188.40
401.82	2122.87
402.01	2087.76
402.21	2094.78
402.40	2176.70
402.59	2223.51
402.78	2223.51
402.97	2328.83
403.17	2232.87
403.36	2331.17
403.55	2267.98
403.74	2413.09
403.93	2394.37
404.13	2497.35
404.32	2422.45
404.51	2427.14
404.70	2420.11
404.89	2525.44
405.09	2520.76
405.28	2511.39
405.47	2441.18
405.66	2509.05
405.85	2663.53
406.05	2487.99
406.24	2480.97
406.43	2525.44
406.62	2532.46
406.81	2602.68
407.00	2679.91
407.20	2572.25
407.39	2708.00
407.58	2642.46
407.77	2679.91
407.96	2754.81
408.15	2724.38
408.34	2724.38
408.54	2782.90
408.73	2878.86
408.92	2904.60
409.11	2928.01
409.30	2850.77
409.49	2963.12
409.68	2967.80
409.87	2930.35
410.07	3096.53
410.26	3084.83
410.45	3038.02
410.64	3056.74
410.83	3059.08
411.02	3197.17
411.21	3117.59
411.40	3225.26
411.59	3232.28
411.78	3204.19
411.98	3316.54
412.17	3300.16
412.36	3377.39
412.55	3398.46
412.74	3452.29
412.93	3356.33
413.12	3311.86
413.31	3574.00
413.50	3452.29
413.69	3487.40
413.88	3721.45
414.07	3616.13
414.26	3733.15
414.45	3740.18
414.64	3686.34
414.83	3730.81
415.02	3880.61
415.22	3922.74
415.41	3941.46
415.60	3758.90
415.79	3908.69
415.98	4028.06
416.17	3976.57
416.36	3927.42
416.55	3948.48
416.74	3904.01
416.93	4042.11
417.12	4009.34
417.31	4208.28
417.50	4074.87
417.69	4442.34
417.88	4327.65
418.07	4250.41
418.26	4329.99
418.45	4491.49
418.64	4533.62
418.83	4521.92
419.02	4358.08
419.21	4755.97
419.39	4489.15
419.58	4524.26
419.77	4301.90
419.96	4524.26
420.15	4655.33
420.34	4564.04
420.53	4795.76
420.72	4683.41
420.91	4744.27
421.10	4912.78
421.29	4723.20
421.48	4692.77
421.67	4784.06
421.86	4877.68
422.05	4957.25
422.24	5020.45
422.43	4873.00
422.61	4826.18
422.80	4947.89
422.99	4915.12
423.18	4968.96
423.37	5062.58
423.56	4884.70
423.75	4952.57
423.94	4978.32
424.13	4617.88
424.32	4772.35
424.50	4992.36
424.69	5177.26
424.88	5142.16
425.07	5029.81
425.26	4966.62
425.45	4950.23
425.64	4854.27
425.83	5001.72
426.01	5046.20
426.20	5100.03
426.39	5114.07
426.58	5015.77
426.77	4919.81
426.96	5151.52
427.15	5210.03
427.33	5205.35
427.52	5359.83
427.71	5289.61
427.90	5483.88
428.09	5465.15
428.28	5233.44
428.46	5376.21
428.65	5252.16
428.84	5518.98
429.03	5554.09
429.22	5380.89
429.40	5511.96
429.59	5504.94
429.78	5572.82
429.97	5327.06
430.16	5455.79
430.34	5731.97
430.53	5650.05
430.72	5757.72
430.91	5771.76
431.10	5643.03
431.28	5727.29
431.47	5799.85
431.66	5853.68
431.85	5795.17
432.03	6003.47
432.22	6031.56
432.41	5959.00
432.60	5987.09
432.79	6108.80
432.97	6120.50
433.16	6059.65
433.35	6143.91
433.54	6179.01
433.72	6174.33
433.91	6097.10
434.10	6221.14
434.28	6029.22
434.47	6485.62
434.66	6263.27
434.85	6380.30
435.03	6345.19
435.22	6396.68
435.41	6513.71
435.59	6384.98
435.78	6525.41
435.97	6483.28
436.16	6256.25
436.34	6466.90
436.53	6623.72
436.72	6628.40
436.90	6462.22
437.09	6780.53
437.28	6375.62
437.46	6413.07
437.65	6712.66
437.84	6839.05
438.02	6738.40
438.21	6799.26
438.40	6689.25
438.58	6913.94
438.77	6993.52
438.96	7070.76
439.14	7023.95
439.33	7360.98
439.52	7428.86
439.70	7180.76
439.89	7407.80
440.08	7524.82
440.26	7454.61
440.45	7276.73
440.63	7449.93
440.82	7543.55
441.01	7658.23
441.19	7592.70
441.38	7770.58
441.57	7845.48
441.75	7676.96
441.94	7889.95
442.12	7936.76
442.31	8236.35
442.50	8084.21
442.68	7999.95
442.87	8028.04
443.05	8142.72
443.24	8322.94
443.43	8198.90
443.61	8255.07
443.80	8379.12
443.98	8074.85
444.17	7915.69
444.35	8386.14
444.54	8631.90
444.73	8458.70
444.91	8393.16
445.10	8252.73
445.28	8301.88
445.47	8187.19
445.65	8624.87
445.84	8638.92
446.02	8390.82
446.21	8542.96
446.39	8348.69
446.58	8521.89
446.77	8505.51
446.95	8554.66
447.14	8514.87
447.32	8568.70
447.51	8652.96
447.69	8472.74
447.88	8428.27
448.06	8500.83
448.25	8585.08
448.43	8655.30
448.62	8552.32
448.80	8725.52
448.99	8685.73
449.17	8737.22
449.36	8634.24
449.54	8769.99
449.73	8947.87
449.91	8884.67
450.10	8894.04
450.28	9057.87
450.46	9160.86
450.65	9121.07
450.83	9170.22
451.02	9343.42
451.20	9128.09
451.39	9041.49
451.57	9350.44
451.76	9111.71
451.94	9277.88
452.13	9350.44
452.31	9387.89
452.49	9427.68
452.68	9392.57
452.86	9593.86
453.05	9427.68
453.23	9486.19
453.42	9448.74
453.60	9387.89
453.78	9598.54
453.97	9331.72
454.15	9486.19
454.34	9441.72
454.52	9635.99
454.70	9947.28
454.89	10040.90
455.07	9872.38
455.26	9823.23
455.44	9877.06
455.62	9968.34
455.81	10085.37
455.99	9989.41
456.17	10118.14
456.36	9989.41
456.54	10176.65
456.73	10253.89
456.91	10328.78
457.09	10391.98
457.28	10490.28
457.46	10427.09
457.64	10672.84
457.83	10628.37
458.01	10420.06
458.19	10778.17
458.38	10602.63
458.56	10637.73
458.74	10752.42
458.93	10876.47
459.11	10700.93
459.29	10953.71
459.48	10806.25
459.66	10883.49
459.84	10846.04
460.03	11279.04
460.21	11068.39
460.39	11007.54
460.57	10853.06
460.76	11082.44
460.94	11265.00
461.12	11164.36
461.31	11403.09
461.49	11398.41
461.67	11229.89
461.85	11655.87
462.04	11300.11
462.22	11463.94
462.40	11819.71
462.59	11768.21
462.77	11602.04
462.95	11800.98
463.13	11880.56
463.32	11578.63
463.50	11871.20
463.68	11782.26
463.86	11758.85
464.05	11786.94
464.23	11800.98
464.41	12020.99
464.59	11789.28
464.78	12226.96
464.96	12065.46
465.14	11847.79
465.32	11990.56
465.50	12140.36
465.69	12163.76
465.87	12133.34
466.05	12142.70
466.23	12175.47
466.41	12154.40
466.60	12624.85
466.78	12100.57
466.96	12269.09
467.14	12414.20
467.32	12435.27
467.51	12638.89
467.69	12248.02
467.87	12374.41
468.05	12741.88
468.23	12585.06
468.41	12526.55
468.60	12851.88
468.78	12762.94
468.96	12723.15
469.14	13018.06
469.32	13137.43
469.50	12573.36
469.69	13032.10
469.87	13259.13
470.05	13226.37
470.23	13305.95
470.41	13200.62
470.59	13275.52
470.77	13235.73
470.95	13305.95
471.14	13731.92
471.32	13249.77
471.50	13554.04
471.68	13549.36
471.86	13642.98
472.04	13745.97
472.22	13870.01
472.40	14057.26
472.58	13942.57
472.77	13940.23
472.95	14230.46
473.13	14792.19
473.31	14410.68
473.49	14340.46
473.67	14338.12
473.85	14398.98
474.03	14663.46
474.21	14925.60
474.39	14796.87
474.57	14892.83
474.75	15295.40
474.93	15391.36
475.12	15091.77
475.30	15183.06
475.48	15264.97
475.66	15234.55
475.84	15243.91
476.02	15463.92
476.20	15559.88
476.38	15721.38
476.56	16322.90
476.74	15871.17
476.92	15995.22
477.10	15749.46
477.28	16320.56
477.46	16311.19
477.64	16374.39
477.82	16652.91
478.00	16608.44
478.18	16994.63
478.36	17097.61
478.54	17216.98
478.72	17015.69
478.90	17518.91
479.08	17762.33
479.26	17600.83
479.44	17781.05
479.62	17797.43
479.80	18225.75
479.98	18291.29
480.16	19007.49
480.34	18530.02
480.52	18654.07
480.70	18960.68
480.88	18857.70
481.06	18808.54
481.24	18850.67
481.41	19475.60
481.59	19583.26
481.77	19957.75
481.95	19496.66
482.13	19906.26
482.31	19983.49
482.49	20463.30
482.67	20400.11
482.85	20596.71
483.03	20971.20
483.21	20964.18
483.39	21221.64
483.57	21181.85
483.74	21256.75
483.92	21497.82
484.10	21514.20
484.28	21839.54
484.46	22141.47
484.64	22347.44
484.82	22160.19
485.00	22527.66
485.18	22913.84
485.35	22970.02
485.53	23164.28
485.71	23250.88
485.89	23800.91
486.07	23494.30
486.25	23454.51
486.43	23836.02
486.61	23861.76
486.78	24121.56
486.96	24203.48
487.14	24549.88
487.32	24400.08
487.50	24964.15
487.68	25331.62
487.85	25209.91
488.03	25509.50
488.21	26214.00
488.39	25998.67
488.57	26118.04
488.75	26160.17
488.92	26817.86
489.10	26864.67
489.28	26642.32
489.46	27154.90
489.64	27480.23
489.81	28004.51
489.99	27814.93
490.17	28393.04
490.35	27845.35
490.53	28273.67
490.70	28797.95
490.88	28804.97
491.06	28840.08
491.24	29116.26
491.41	29476.71
491.59	29392.45
491.77	29261.38
491.95	29668.63
492.13	29848.85
492.30	29984.60
492.48	30036.09
492.66	30408.24
492.84	30698.47
493.01	31281.26
493.19	30813.15
493.37	31192.32
493.54	31475.52
493.72	31482.55
493.90	31538.72
494.08	32065.34
494.25	31735.32
494.43	32451.53
494.61	32383.65
494.79	32620.05
494.96	32659.84
495.14	32964.10
495.32	33551.58
495.49	33415.83
495.67	33170.07
495.85	33184.12
496.02	33860.53
496.20	34188.21
496.38	34087.56
496.55	34754.61
496.73	35344.43
496.91	34934.84
497.09	35054.20
497.26	35161.87
497.44	35157.19
497.62	35470.82
497.79	35700.19
497.97	35721.26
498.14	36734.71
498.32	36442.14
498.50	36416.40
498.67	36938.33
498.85	36919.61
499.03	36999.19
499.20	36900.89
499.38	37303.46
499.56	37581.98
499.73	37544.53
499.91	37464.96
500.08	38003.28
500.26	37633.47
500.44	37720.07
500.61	37904.98
500.79	38279.46
500.97	37921.36
501.14	39257.81
501.32	39026.09
501.49	38792.04
501.67	38829.49
501.84	39227.38
502.02	38845.87
502.20	39395.90
502.37	39321.00
502.55	39604.20
502.72	39878.05
502.90	39962.31
503.07	39842.94
503.25	40411.69
503.43	39945.92
503.60	40339.13
503.78	40470.20
503.95	40690.21
504.13	40741.71
504.30	41151.30
504.48	40470.20
504.65	41123.21
504.83	41226.20
505.01	41347.90
505.18	41521.10
505.36	41453.23
505.53	41083.42
505.71	41904.95
505.88	42043.04
506.06	41230.88
506.23	42277.10
506.41	41879.21
506.58	42246.67
506.76	42356.67
506.93	42904.36
507.11	42466.68
507.28	42995.64
507.46	42880.95
507.63	43494.18
507.81	43517.58
507.98	43227.35
508.16	43302.25
508.33	44219.74
508.50	43679.08
508.68	43763.34
508.85	43620.56
509.03	44334.43
509.20	44027.82
509.38	44392.94
509.55	44802.53
509.73	45048.29
509.90	44945.31
510.08	45036.59
510.25	44854.03
510.42	45125.53
510.60	45170.00
510.77	45612.36
510.95	45464.91
511.12	45673.21
511.30	45581.93
511.47	45518.74
511.64	45881.52
511.82	46003.23
511.99	46064.08
512.17	46433.89
512.34	46272.39
512.51	46630.49
512.69	46726.46
512.86	46389.42
513.04	46784.97
513.21	46644.54
513.38	46894.97
513.56	46829.44
513.73	47510.53
513.90	47278.82
514.08	47114.98
514.25	47700.12
514.43	47590.11
514.60	47817.14
514.77	47407.55
514.95	47927.15
515.12	47938.85
515.29	47737.57
515.47	48259.51
515.64	48708.89
515.81	48280.57
515.99	48945.28
516.16	48507.60
516.33	48708.89
516.51	48861.02
516.68	48493.56
516.85	49024.86
517.03	48968.69
517.20	49408.71
517.37	49361.90
517.54	48971.03
517.72	49352.54
517.89	49202.74
518.06	49291.68
518.24	49481.27
518.41	49556.16
518.58	49492.97
518.75	49631.06
518.93	50216.19
519.10	49549.14
519.27	49984.48
519.45	49771.49
519.62	50270.03
519.79	50080.44
519.96	50204.49
520.14	50586.00
520.31	50539.19
520.48	50887.93
520.65	50361.31
520.83	50897.29
521.00	51061.13
521.17	50684.30
521.34	50827.07
521.52	51098.58
521.69	51302.20
521.86	50859.84
522.03	51599.45
522.20	51433.27
522.38	51454.34
522.55	51700.09
522.72	51344.33
522.89	51550.30
523.07	51742.22
523.24	51892.02
523.41	52044.15
523.58	51461.36
523.75	52179.90
523.92	51854.57
524.10	52346.08
524.27	52289.91
524.44	52069.90
524.61	52037.13
524.78	52432.68
524.96	52219.69
525.13	52521.62
525.30	52444.38
525.47	52804.83
525.64	52748.65
525.81	52963.98
525.98	53043.56
526.16	53010.79
526.33	53380.60
526.50	53038.88
526.67	52456.09
526.84	53326.77
527.01	52919.51
527.18	53125.48
527.36	53052.92
527.53	53247.19
527.70	53544.44
527.87	53462.52
528.04	53406.34
528.21	53736.36
528.38	53546.78
528.55	53719.98
528.72	53673.16
528.89	53687.21
529.07	53282.30
529.24	53521.03
529.41	54082.76
529.58	53902.54
529.75	53844.02
529.92	53497.62
530.09	53984.46
530.26	54073.40
530.43	53918.92
530.60	54131.91
530.77	54017.22
530.94	54223.19
531.11	54410.43
531.28	54520.44
531.46	54436.18
531.63	54300.43
531.80	54560.23
531.97	54766.20
532.14	54878.54
532.31	54665.55
532.48	54674.91
532.65	54698.32
532.82	54550.87
532.99	54848.11
533.16	54644.49
533.33	54944.08
533.50	55114.94
533.67	55068.12
533.84	54871.52
534.01	54925.35
534.18	54911.31
534.35	55430.91
534.52	55131.32
534.69	55412.18
534.86	55370.05
535.03	55344.31
535.20	55423.89
535.37	55348.99
535.54	55533.89
535.71	55056.42
535.88	55615.81
536.05	55718.79
536.22	55763.26
536.38	55643.90
536.55	55746.88
536.72	55650.92
536.89	55859.23
537.06	55735.18
537.23	55791.35
537.40	55852.20
537.57	55863.91
537.74	55774.97
537.91	55936.46
538.08	55999.66
538.25	55791.35
538.42	56317.97
538.59	56257.12
538.75	55927.10
538.92	56011.36
539.09	56252.44
539.26	56371.80
539.43	56163.50
539.60	56479.47
539.77	56381.16
539.94	56739.27
540.11	56537.98
540.28	56926.51
540.44	56643.30
540.61	56580.11
540.78	56427.98
540.95	56570.75
541.12	56456.06
541.29	56687.78
541.46	56914.81
541.62	56767.35
541.79	56956.94
541.96	56617.56
542.13	56741.61
542.30	57111.41
542.47	56973.32
542.63	56956.94
542.80	57043.54
542.97	57361.85
543.14	57492.92
543.31	57043.54
543.48	57233.12
543.64	57691.86
543.81	57518.67
543.98	57434.41
544.15	57436.75
544.32	57535.05
544.48	57790.17
544.65	57649.74
544.82	57523.35
544.99	57506.96
545.16	57659.10
545.32	57616.97
545.49	57914.22
545.66	57963.37
545.83	57860.38
546.00	58080.39
546.16	57621.65
546.33	57708.25
546.50	57715.27
546.67	57844.00
546.83	57715.27
547.00	58061.67
547.17	57762.08
547.34	58169.33
547.50	58024.22
547.67	58185.72
547.84	58064.01
548.00	58218.49
548.17	58127.20
548.34	58181.04
548.51	58436.16
548.67	58284.02
548.84	58213.80
549.01	58262.96
549.18	58375.30
549.34	58468.92
549.51	58344.87
549.68	58702.98
549.84	58394.03
550.01	58749.79
550.18	58527.44
550.34	58623.40
550.51	58597.65
550.68	58625.74
550.84	58379.98
551.01	58452.54
551.18	58555.52
551.34	58667.87
551.51	58768.51
551.68	58726.38
551.84	58522.76
552.01	58621.06
552.18	58698.30
552.34	58784.90
552.51	58876.18
552.68	58630.42
552.84	58791.92
553.01	59051.72
553.18	58815.32
553.34	58974.48
553.51	58857.45
553.67	59049.38
553.84	59072.78
554.01	59194.49
554.17	59119.59
554.34	58997.88
554.51	59215.55
554.67	59168.74
554.84	59157.04
555.00	59135.98
555.17	59051.72
555.33	59014.27
555.50	58855.11
555.67	59217.89
555.83	59180.45
556.00	59267.05
556.16	59475.35
556.33	59573.66
556.50	59318.54
556.66	59458.97
556.83	59040.01
556.99	59632.17
557.16	59735.15
557.32	59501.10
557.49	59938.78
557.65	59564.29
557.82	59536.21
557.98	59454.29
558.15	59641.53
558.32	59662.60
558.48	59402.80
558.65	59678.98
558.81	59784.30
558.98	59585.36
559.14	59557.27
559.31	59913.03
559.47	59877.93
559.64	59941.12
559.80	59723.45
559.97	59924.74
560.13	60001.97
560.30	59793.67
560.46	59781.96
560.63	60109.64
560.79	59990.27
560.96	59889.63
561.12	59873.24
561.29	59868.56
561.45	60149.43
561.61	60083.89
561.78	59929.42
561.94	59821.75
562.11	59955.16
562.27	60046.44
562.44	60095.60
562.60	60104.96
562.77	60170.49
562.93	59973.89
563.10	60200.92
563.26	60142.41
563.42	60121.34
563.59	60224.32
563.75	60158.79
563.92	60200.92
564.08	60135.38
564.24	60320.29
564.41	60264.11
564.57	60266.45
564.74	60362.42
564.90	60456.04
565.07	60357.74
565.23	60217.30
565.39	60420.93
565.56	60313.26
565.72	60392.84
565.88	60278.16
566.05	60245.39
566.21	60376.46
566.38	60430.29
566.54	60561.36
566.70	60533.28
566.87	60542.64
567.03	60320.29
567.19	60577.75
567.36	60362.42
567.52	60495.83
567.68	60441.99
567.85	60472.42
568.01	60722.86
568.17	60390.50
568.34	60809.46
568.50	60533.28
568.66	60247.73
568.83	60727.54
568.99	60446.68
569.15	60575.40
569.32	60547.32
569.48	60439.65
569.64	60441.99
569.81	60587.11
569.97	60619.88
570.13	60582.43
570.30	60643.28
570.46	60526.25
570.62	60582.43
570.78	60706.47
570.95	60643.28
571.11	60767.33
571.27	60495.83
571.43	60821.16
571.60	60839.89
571.76	60577.75
571.92	60734.56
572.09	60727.54
572.25	60739.24
572.41	60858.61
572.57	60587.11
572.74	61001.38
572.90	60954.57
573.06	60910.10
573.22	60800.10
573.38	60552.00
573.55	60800.10
573.71	60903.08
573.87	60891.38
574.03	60774.35
574.20	60942.87
574.36	60748.60
574.52	61064.58
574.68	60844.57
574.84	60891.38
575.01	60992.02
575.17	61029.47
575.33	60865.63
575.49	60725.20
575.65	61052.87
575.82	60867.97
575.98	60949.89
576.14	61174.58
576.30	60858.61
576.46	61003.72
576.62	60821.16
576.79	60961.59
576.95	60839.89
577.11	61001.38
577.27	60886.70
577.43	60748.60
577.59	60886.70
577.75	60924.14
577.92	60917.12
578.08	60963.93
578.24	60849.25
578.40	61048.19
578.56	61303.31
578.72	61043.51
578.88	60992.02
579.04	61052.87
579.21	61045.85
579.37	61071.60
579.53	61197.99
579.69	60853.93
579.85	60985.00
580.01	60945.21
580.17	61020.11
580.33	61080.96
580.49	61097.34
580.65	61013.08
580.82	60996.70
580.98	60905.42
581.14	60863.29
581.30	61195.65
581.46	60905.42
581.62	61144.16
581.78	60968.61
581.94	61188.63
582.10	60956.91
582.26	61027.13
582.42	60914.78
582.58	61008.40
582.74	61008.40
582.90	61041.17
583.06	60949.89
583.22	61027.13
583.38	60999.04
583.54	61099.68
583.70	61284.59
583.86	61055.21
584.02	60985.00
584.18	61300.97
584.34	61141.81
584.50	61055.21
584.66	60919.46
584.82	60989.68
584.98	61256.50
585.14	61221.39
585.30	61083.30
585.46	61291.61
585.62	61230.75
585.78	61251.82
585.94	60830.52
586.10	61066.92
586.26	61188.63
586.42	61340.76
586.58	61244.80
586.74	61095.00
586.90	61123.09
587.06	61240.12
587.22	61216.71
587.38	61123.09
587.54	61251.82
587.70	61345.44
587.86	61167.56
588.02	61242.46
588.18	61410.98
588.34	61340.76
588.49	61202.67
