SpectraSuite Data File
++++++++++++++++++++++++++++++++++++
Date: Fri Oct 25 11:33:43 EDT 2013
User: price-jones
Dark Spectrum Present: No
Reference Spectrum Present: No
Number of Sampled Component Spectra: 1
Spectrometers: USB2+H05261
Integration Time (usec): 100000 (USB2+H05261)
Spectra Averaged: 1 (USB2+H05261)
Boxcar Smoothing: 0 (USB2+H05261)
Correct for Electrical Dark: No (USB2+H05261)
Strobe/Lamp Enabled: No (USB2+H05261)
Correct for Detector Non-linearity: No (USB2+H05261)
Correct for Stray Light: No (USB2+H05261)
Number of Pixels in Processed Spectrum: 2048
>>>>>Begin Processed Spectral Data<<<<<
365.73	285.55
365.92	285.55
366.12	285.55
366.32	238.73
366.52	117.03
366.72	166.18
366.91	208.31
367.11	180.22
367.31	124.05
367.51	145.11
367.70	203.63
367.90	149.79
368.10	154.48
368.30	126.39
368.49	194.26
368.69	177.88
368.89	215.33
369.09	238.73
369.28	234.05
369.48	271.50
369.68	243.42
369.87	238.73
370.07	217.67
370.27	250.44
370.47	306.61
370.66	458.74
370.86	491.51
371.06	575.77
371.25	564.07
371.45	573.43
371.65	613.22
371.84	533.64
372.04	510.24
372.24	543.00
372.44	496.19
372.63	575.77
372.83	606.20
373.03	599.18
373.22	641.31
373.42	648.33
373.62	603.86
373.81	648.33
374.01	678.76
374.21	676.41
374.40	685.78
374.60	690.46
374.79	592.16
374.99	676.41
375.19	711.52
375.38	685.78
375.58	664.71
375.78	624.92
375.97	650.67
376.17	760.67
376.37	671.73
376.56	603.86
376.76	657.69
376.95	671.73
377.15	716.20
377.35	697.48
377.54	772.38
377.74	739.61
377.93	622.58
378.13	692.80
378.33	737.27
378.52	706.84
378.72	777.06
378.91	709.18
379.11	706.84
379.31	662.37
379.50	641.31
379.70	678.76
379.89	751.31
380.09	704.50
380.28	655.35
380.48	702.16
380.68	702.16
380.87	723.23
381.07	751.31
381.26	763.01
381.46	709.18
381.65	828.55
381.85	751.31
382.04	809.83
382.24	734.93
382.43	765.36
382.63	744.29
382.83	807.48
383.02	800.46
383.22	741.95
383.41	851.96
383.61	774.72
383.80	835.57
384.00	774.72
384.19	765.36
384.39	870.68
384.58	802.80
384.78	779.40
384.97	791.10
385.17	734.93
385.36	887.06
385.56	784.08
385.75	858.98
385.95	828.55
386.14	926.85
386.34	791.10
386.53	844.93
386.72	866.00
386.92	868.34
387.11	844.93
387.31	943.24
387.50	835.57
387.70	809.83
387.89	968.98
388.09	957.28
388.28	933.87
388.48	915.15
388.67	1008.77
388.86	833.23
389.06	971.32
389.25	978.34
389.45	990.05
389.64	873.02
389.84	961.96
390.03	940.90
390.22	1013.45
390.42	968.98
390.61	936.21
390.81	870.68
391.00	950.26
391.19	1011.11
391.39	1015.79
391.58	1097.71
391.78	968.98
391.97	976.00
392.16	1086.01
392.36	1153.88
392.55	1025.15
392.75	985.37
392.94	1057.92
393.13	1067.28
393.33	976.00
393.52	1020.47
393.71	1020.47
393.91	1081.33
394.10	1069.62
394.29	1118.78
394.49	1071.97
394.68	1027.50
394.88	1146.86
395.07	1277.93
395.26	1081.33
395.46	1149.20
395.65	1203.04
395.84	1198.35
396.04	1219.42
396.23	1207.72
396.42	1090.69
396.62	1193.67
396.81	1214.74
397.00	1235.80
397.19	1240.48
397.39	1287.29
397.58	1240.48
397.77	1238.14
397.97	1259.21
398.16	1322.40
398.35	1252.19
398.55	1284.95
398.74	1338.79
398.93	1308.36
399.12	1277.93
399.32	1322.40
399.51	1303.68
399.70	1401.98
399.90	1336.45
400.09	1345.81
400.28	1317.72
400.47	1275.59
400.67	1420.71
400.86	1451.13
401.05	1416.02
401.24	1434.75
401.44	1490.92
401.63	1462.83
401.82	1451.13
402.01	1430.07
402.21	1432.41
402.40	1455.81
402.59	1448.79
402.78	1490.92
402.97	1526.03
403.17	1596.25
403.36	1568.16
403.55	1638.38
403.74	1593.90
403.93	1537.73
404.13	1626.67
404.32	1544.75
404.51	1607.95
404.70	1626.67
404.89	1706.25
405.09	1671.14
405.28	1736.68
405.47	1703.91
405.66	1636.03
405.85	1701.57
406.05	1617.31
406.24	1724.97
406.43	1755.40
406.62	1851.36
406.81	1788.17
407.00	1837.32
407.20	1790.51
407.39	1811.57
407.58	1797.53
407.77	1942.64
407.96	1919.24
408.15	1900.52
408.34	1792.85
408.54	1919.24
408.73	1891.15
408.92	1881.79
409.11	1944.99
409.30	1902.86
409.49	2003.50
409.68	2052.65
409.87	2008.18
410.07	1926.26
410.26	2062.01
410.45	1956.69
410.64	1987.11
410.83	2157.97
411.02	2174.36
411.21	2193.08
411.40	2134.57
411.59	2284.36
411.78	2211.81
411.98	2335.85
412.17	2265.64
412.36	2270.32
412.55	2403.73
412.74	2312.45
412.93	2356.92
413.12	2242.23
413.31	2396.71
413.50	2406.07
413.69	2399.05
413.88	2466.92
414.07	2361.60
414.26	2530.12
414.45	2513.74
414.64	2422.45
414.83	2480.97
415.02	2663.53
415.22	2509.05
415.41	2633.10
415.60	2600.34
415.79	2729.06
415.98	2724.38
416.17	2843.75
416.36	2715.02
416.55	2768.85
416.74	2815.66
416.93	2752.47
417.12	2862.48
417.31	2998.23
417.50	2869.50
417.69	2956.10
417.88	2925.67
418.07	2794.60
418.26	2956.10
418.45	3105.89
418.64	2951.42
418.83	3049.72
419.02	3002.91
419.21	3164.40
419.39	3082.49
419.58	3148.02
419.77	3061.42
419.96	3187.81
420.15	3211.22
420.34	3178.45
420.53	3023.97
420.72	3382.07
420.91	3206.53
421.10	3293.13
421.29	3276.75
421.48	3243.98
421.67	3234.62
421.86	3267.39
422.05	3311.86
422.24	3351.65
422.43	3309.52
422.61	3293.13
422.80	3393.78
422.99	3463.99
423.18	3323.56
423.37	3478.04
423.56	3372.71
423.75	3452.29
423.94	3330.58
424.13	3255.69
424.32	3349.31
424.50	3405.48
424.69	3431.23
424.88	3609.11
425.07	3428.88
425.26	3316.54
425.45	3342.28
425.64	3550.59
425.83	3428.88
426.01	3510.80
426.20	3520.17
426.39	3550.59
426.58	3461.65
426.77	3513.14
426.96	3513.14
427.15	3506.12
427.33	3672.30
427.52	3637.19
427.71	3686.34
427.90	3672.30
428.09	3545.91
428.28	3691.02
428.46	3641.87
428.65	3634.85
428.84	3794.01
429.03	3798.69
429.22	3606.77
429.40	3686.34
429.59	3850.18
429.78	3758.90
429.97	3609.11
430.16	3784.65
430.34	3892.31
430.53	3831.46
430.72	3901.67
430.91	3819.75
431.10	3784.65
431.28	3817.41
431.47	4091.26
431.66	3988.27
431.85	3983.59
432.03	3988.27
432.22	4077.21
432.41	3988.27
432.60	4124.02
432.79	4147.43
432.97	4170.83
433.16	4074.87
433.35	4140.41
433.54	4088.92
433.72	4248.07
433.91	4236.37
434.10	4119.34
434.28	4095.94
434.47	4327.65
434.66	4278.50
434.85	4250.41
435.03	4329.99
435.22	4283.18
435.41	4545.32
435.59	4374.46
435.78	4512.55
435.97	4414.25
436.16	4479.79
436.34	4402.55
436.53	4414.25
436.72	4463.40
436.90	4355.74
437.09	4519.57
437.28	4381.48
437.46	4641.28
437.65	4566.39
437.84	4582.77
438.02	4535.96
438.21	4613.20
438.40	4503.19
438.58	4648.30
438.77	4758.31
438.96	4664.69
439.14	4788.74
439.33	4954.91
439.52	4844.91
439.70	4929.17
439.89	4936.19
440.08	4966.62
440.26	5013.43
440.45	4905.76
440.63	4922.15
440.82	5195.99
441.01	5219.39
441.19	5139.82
441.38	5064.92
441.57	5217.05
441.75	5420.68
441.94	5303.65
442.12	5380.89
442.31	5397.28
442.50	5334.08
442.68	5387.91
442.87	5334.08
443.05	5516.64
443.24	5547.07
443.43	5610.26
443.61	5636.01
443.80	5563.45
443.98	5490.90
444.17	5331.74
444.35	5694.52
444.54	5830.27
444.73	5645.37
444.91	5661.76
445.10	5671.12
445.28	5673.46
445.47	5575.16
445.65	5624.31
445.84	5834.96
446.02	5565.79
446.21	5657.07
446.39	5795.17
446.58	5951.98
446.77	5647.71
446.95	5526.00
447.14	5778.78
447.32	5797.51
447.51	5708.57
447.69	5799.85
447.88	5785.80
448.06	5790.49
448.25	5778.78
448.43	5867.72
448.62	5841.98
448.80	5804.53
448.99	5982.41
449.17	5767.08
449.36	5935.60
449.54	5895.81
449.73	6057.31
449.91	5928.58
450.10	6066.67
450.28	6132.20
450.46	6239.87
450.65	6174.33
450.83	6099.44
451.02	6090.07
451.20	6265.61
451.39	6230.51
451.57	6174.33
451.76	6321.79
451.94	6237.53
452.13	6202.42
452.31	6303.06
452.49	6356.90
452.68	6174.33
452.86	6251.57
453.05	6445.84
453.23	6415.41
453.42	6232.85
453.60	6293.70
453.78	6427.11
453.97	6499.67
454.15	6464.56
454.34	6352.21
454.52	6513.71
454.70	6422.43
454.89	6459.88
455.07	6586.27
455.26	6558.18
455.44	6686.91
455.62	6553.50
455.81	6750.10
455.99	6656.48
456.17	6726.70
456.36	6771.17
456.54	6731.38
456.73	6902.24
456.91	6967.77
457.09	6930.33
457.28	7108.21
457.46	6848.41
457.64	7054.37
457.83	7115.23
458.01	6946.71
458.19	7288.43
458.38	7145.66
458.56	7148.00
458.74	7281.41
458.93	6977.14
459.11	7318.86
459.29	7274.38
459.48	7342.26
459.66	7346.94
459.84	7323.54
460.03	7503.76
460.21	7365.67
460.39	7370.35
460.57	7389.07
460.76	7672.28
460.94	7475.67
461.12	7503.76
461.31	7576.31
461.49	7590.36
461.67	7527.16
461.85	7712.07
462.04	7581.00
462.22	8004.63
462.40	7744.83
462.59	7901.65
462.77	7662.91
462.95	7791.64
463.13	7506.10
463.32	7793.98
463.50	7906.33
463.68	7875.90
463.86	8046.76
464.05	7868.88
464.23	7744.83
464.41	8081.87
464.59	8002.29
464.78	8105.28
464.96	8070.17
465.14	7908.67
465.32	8004.63
465.50	8189.53
465.69	8248.05
465.87	8140.38
466.05	8107.62
466.23	8021.02
466.41	8187.19
466.60	8234.00
466.78	8128.68
466.96	8365.07
467.14	8102.93
467.32	8215.28
467.51	8491.46
467.69	8344.01
467.87	8468.06
468.05	8390.82
468.23	8184.85
468.41	8194.22
468.60	8533.59
468.78	8484.44
468.96	8510.19
469.14	8482.10
469.32	8720.84
469.50	8381.46
469.69	8793.39
469.87	8791.05
470.05	8774.67
470.23	8667.00
470.41	8837.86
470.59	8716.16
470.77	8772.33
470.95	8772.33
471.14	8980.64
471.32	8685.73
471.50	9160.86
471.68	9032.13
471.86	9128.09
472.04	9240.44
472.22	9495.55
472.40	9254.48
472.58	9242.78
472.77	9324.69
472.95	9394.91
473.13	9750.67
473.31	9268.52
473.49	9359.80
473.67	9315.33
473.85	9645.35
474.03	9692.16
474.21	9612.58
474.39	9942.60
474.57	9935.57
474.75	9905.15
474.93	9921.53
475.12	9951.96
475.30	10127.50
475.48	9792.80
475.66	10195.37
475.84	9998.77
476.02	10167.29
476.20	10253.89
476.38	10232.82
476.56	10658.80
476.74	10569.86
476.92	10504.32
477.10	10480.92
477.28	10485.60
477.46	10569.86
477.64	10684.55
477.82	10953.71
478.00	11103.50
478.18	11232.23
478.36	11250.96
478.54	11382.03
478.72	11403.09
478.90	11386.71
479.08	11543.52
479.26	11772.89
479.44	11665.23
479.62	11929.71
479.80	11992.90
479.98	12283.13
480.16	12320.58
480.34	12100.57
480.52	12133.34
480.70	12241.00
480.88	12292.49
481.06	12271.43
481.24	12493.78
481.41	12505.48
481.59	12854.22
481.77	12699.75
481.95	12882.31
482.13	12957.21
482.31	12910.40
482.49	13146.79
482.67	13308.29
482.85	13432.33
483.03	13479.15
483.21	13696.82
483.39	13502.55
483.57	13678.09
483.74	14005.77
483.92	14026.83
484.10	14104.07
484.28	14183.65
484.46	14626.01
484.64	14768.78
484.82	14445.79
485.00	14745.38
485.18	14785.16
485.35	15098.80
485.53	14979.43
485.71	15293.06
485.89	15501.37
486.07	15433.49
486.25	15627.76
486.43	15346.89
486.61	15438.17
486.78	15756.49
486.96	15803.30
487.14	16322.90
487.32	16229.27
487.50	16547.59
487.68	16592.06
487.85	16720.79
488.03	16538.23
488.21	16814.41
488.39	16952.50
488.57	17043.78
488.75	16849.52
488.92	17542.32
489.10	17493.16
489.28	17582.10
489.46	17731.90
489.64	17767.01
489.81	18277.24
489.99	17926.16
490.17	18148.51
490.35	18293.63
490.53	18719.60
490.70	18778.12
490.88	18546.40
491.06	18834.29
491.24	18778.12
491.41	19012.17
491.59	19316.44
491.77	19278.99
491.95	19597.31
492.13	19438.15
492.30	19419.42
492.48	19810.29
492.66	19770.51
492.84	19936.68
493.01	19700.29
493.19	19768.16
493.37	20372.02
493.54	20229.25
493.72	20683.31
493.90	20615.44
494.08	20746.51
494.25	21221.64
494.43	20652.89
494.61	21200.57
494.79	21345.69
494.96	21242.70
495.14	21553.99
495.32	21965.93
495.49	21481.44
495.67	21771.66
495.85	21874.65
496.02	22279.56
496.20	22286.58
496.38	22356.80
496.55	22499.57
496.73	23091.73
496.91	22560.42
497.09	23194.71
497.26	22948.95
497.44	22686.81
497.62	22740.64
497.79	23253.22
497.97	23470.89
498.14	23501.32
498.32	23487.28
498.50	23828.99
498.67	23796.23
498.85	23828.99
499.03	24119.22
499.20	24032.62
499.38	23861.76
499.56	24514.77
499.73	24402.43
499.91	24538.18
500.08	24807.34
500.26	24283.06
500.44	24549.88
500.61	24842.45
500.79	24463.28
500.97	25046.07
501.14	25025.01
501.32	25387.79
501.49	24830.74
501.67	25001.60
501.84	25649.93
502.02	25245.02
502.20	25682.70
502.37	25408.86
502.55	25598.44
502.72	25680.36
502.90	25940.16
503.07	25809.09
503.25	25872.28
503.43	26061.87
503.60	26532.31
503.78	26705.51
503.95	26431.67
504.13	26401.24
504.30	26618.91
504.48	26803.82
504.65	27229.79
504.83	27033.19
505.01	27351.50
505.18	27164.26
505.36	27075.32
505.53	27199.37
505.71	27723.65
505.88	27290.65
506.06	27335.12
506.23	27634.71
506.41	27707.26
506.58	27821.95
506.76	27543.42
506.93	28360.27
507.11	27845.35
507.28	28233.88
507.46	28070.04
507.63	28123.88
507.81	28706.67
507.98	27880.46
508.16	28638.80
508.33	28589.64
508.50	28477.30
508.68	28809.65
508.85	28952.43
509.03	28931.36
509.20	29338.62
509.38	29270.74
509.55	29055.41
509.73	29324.57
509.90	29465.00
510.08	29589.05
510.25	29736.51
510.42	29357.34
510.60	29795.02
510.77	29970.56
510.95	30089.93
511.12	30026.73
511.30	29881.62
511.47	30155.46
511.64	30389.52
511.82	30043.12
511.99	30508.88
512.17	30384.83
512.34	30567.40
512.51	30520.59
512.69	30822.51
512.86	30607.19
513.04	30951.24
513.21	30827.20
513.38	30876.35
513.56	31187.64
513.73	30792.09
513.90	31304.67
514.08	31079.97
514.25	31459.14
514.43	31613.62
514.60	31789.16
514.77	31756.39
514.95	32063.00
515.12	31796.18
515.29	31639.36
515.47	32245.56
515.64	32023.21
515.81	31885.12
515.99	32378.97
516.16	32589.62
516.33	31950.65
516.51	32659.84
516.68	32072.36
516.85	32346.20
517.03	32680.90
517.20	32903.25
517.37	32266.63
517.54	33039.00
517.72	32772.18
517.89	32666.86
518.06	33039.00
518.24	33104.54
518.41	33017.94
518.58	32968.79
518.75	32893.89
518.93	33031.98
519.10	33092.83
519.27	33420.51
519.45	33642.86
519.62	33958.83
519.79	34096.92
519.96	33855.85
520.14	34235.02
520.31	33792.65
520.48	34185.86
520.65	33865.21
520.83	34216.29
521.00	34359.06
521.17	34515.88
521.34	34345.02
521.52	34338.00
521.69	34658.65
521.86	34637.59
522.03	35042.50
522.20	34820.15
522.38	35168.89
522.55	35225.06
522.72	34771.00
522.89	34815.47
523.07	35379.54
523.24	34993.35
523.41	35573.80
523.58	35110.38
523.75	35445.07
523.92	35529.33
524.10	35349.11
524.27	35599.55
524.44	35449.75
524.61	35587.85
524.78	35950.63
524.96	36055.95
525.13	35852.33
525.30	36198.73
525.47	36201.07
525.64	36297.03
525.81	36158.94
525.98	36388.31
526.16	36180.00
526.33	36191.70
526.50	36456.18
526.67	36472.57
526.84	36549.81
527.01	36545.12
527.18	36720.66
527.36	36807.26
527.53	36694.92
527.70	37174.73
527.87	37228.56
528.04	36851.73
528.21	36964.08
528.38	36919.61
528.55	36940.68
528.72	37074.09
528.89	37368.99
529.07	37104.51
529.24	36933.65
529.41	37607.73
529.58	37619.43
529.75	37752.84
529.92	37785.61
530.09	37303.46
530.26	37624.11
530.43	37490.70
530.60	37565.60
530.77	37600.71
530.94	37979.87
531.11	37586.66
531.28	37858.17
531.46	38089.88
531.63	38108.60
531.80	37900.29
531.97	38291.16
532.14	38632.88
532.31	38064.13
532.48	38431.60
532.65	38682.03
532.82	38625.86
532.99	39056.52
533.16	38541.60
533.33	38471.39
533.50	38958.22
533.67	38880.98
533.84	38337.98
534.01	38525.22
534.18	39061.20
534.35	39318.66
534.52	39145.46
534.69	39131.42
534.86	39372.49
535.03	39108.01
535.20	39545.69
535.37	39239.08
535.54	39555.05
535.71	39372.49
535.88	39742.30
536.05	39257.81
536.22	39681.44
536.38	39512.92
536.55	39679.10
536.72	40002.10
536.89	39255.46
537.06	39889.75
537.23	40212.74
537.40	40140.19
537.57	39571.44
537.74	39784.43
537.91	40484.25
538.08	39976.35
538.25	39667.40
538.42	40430.41
538.59	40643.40
538.75	40266.58
538.92	40481.91
539.09	40818.94
539.26	40549.78
539.43	40360.20
539.60	40311.05
539.77	40275.94
539.94	40942.99
540.11	40889.16
540.28	41116.19
540.44	40694.89
540.61	40608.29
540.78	40694.89
540.95	40793.20
541.12	40673.83
541.29	41256.62
541.46	40521.69
541.62	40907.88
541.79	41439.18
541.96	40896.18
542.13	40772.13
542.30	41053.00
542.47	41450.89
542.63	41368.97
542.80	41322.16
542.97	41834.74
543.14	41876.86
543.31	41652.17
543.48	41926.02
543.64	42410.51
543.81	41904.95
543.98	41862.82
544.15	41911.97
544.32	42265.39
544.48	42440.93
544.65	42080.49
544.82	42234.97
544.99	41776.22
545.16	42883.30
545.32	42136.66
545.49	42787.33
545.66	42822.44
545.83	42848.19
546.00	42792.01
546.16	42820.10
546.33	42761.59
546.50	42241.99
546.67	42946.49
546.83	42038.36
547.00	42586.05
547.17	42431.57
547.34	42717.12
547.50	42813.08
547.67	43409.92
547.84	42972.24
548.00	43241.40
548.17	43421.62
548.34	43166.50
548.51	43178.20
548.67	43332.68
548.84	43264.80
549.01	43042.45
549.18	42939.47
549.34	43269.48
549.51	43709.50
549.68	43592.48
549.84	43363.11
550.01	43517.58
550.18	43196.93
550.34	43318.64
550.51	43732.91
550.68	43810.15
550.84	43580.78
551.01	43819.51
551.18	43517.58
551.34	43578.43
551.51	43716.53
551.68	43782.06
551.84	43894.41
552.01	43789.08
552.18	43983.35
552.34	43714.19
552.51	44140.16
552.68	43885.04
552.84	44067.61
553.01	44091.01
553.18	44175.27
553.34	44219.74
553.51	43725.89
553.67	43971.64
553.84	44404.64
554.01	44531.03
554.17	44559.12
554.34	44479.54
554.51	44563.80
554.67	44411.67
554.84	44516.99
555.00	44149.53
555.17	44788.49
555.33	45132.55
555.50	44266.55
555.67	44746.36
555.83	45085.74
556.00	44626.99
556.16	45069.36
556.33	44697.21
556.50	44835.30
556.66	44533.37
556.83	44718.28
556.99	45144.25
557.16	44947.65
557.32	45333.84
557.49	44964.03
557.65	44430.39
557.82	45207.45
557.98	45097.44
558.15	45017.86
558.32	45453.20
558.48	45024.89
558.65	45645.13
558.81	45420.44
558.98	45099.78
559.14	44889.13
559.31	45275.32
559.47	45390.01
559.64	45167.66
559.80	45619.38
559.97	45385.33
560.13	45645.13
560.30	45212.13
560.46	45584.27
560.63	45886.20
560.79	45968.12
560.96	46164.73
561.12	45841.73
561.29	45741.09
561.45	45705.98
561.61	45315.11
561.78	45294.05
561.94	45734.07
562.11	45640.45
562.27	45425.12
562.44	45853.44
562.60	46230.26
562.77	45925.99
562.93	45476.61
563.10	46206.86
563.26	45743.43
563.42	46667.94
563.59	45797.26
563.75	45682.58
563.92	45961.10
564.08	45708.32
564.24	46040.68
564.41	45930.67
564.57	46082.81
564.74	45642.79
564.90	46113.23
565.07	46073.45
565.23	45556.19
565.39	45911.95
565.56	46038.34
565.72	45830.03
565.88	46014.93
566.05	45851.09
566.21	45846.41
566.38	45942.38
566.54	46508.79
566.70	46075.79
566.87	46452.61
567.03	46096.85
567.19	46574.32
567.36	46115.58
567.52	46766.24
567.68	46461.97
567.85	46766.24
568.01	46555.60
568.17	46164.73
568.34	46520.49
568.50	46543.89
568.66	46358.99
568.83	46281.75
568.99	46487.72
569.15	46384.74
569.32	46600.07
569.48	46344.95
569.64	47063.49
569.81	46674.96
569.97	46436.23
570.13	46349.63
570.30	46089.83
570.46	46550.91
570.62	46703.05
570.78	46637.51
570.95	46574.32
571.11	46890.29
571.27	46389.42
571.43	46300.48
571.60	46452.61
571.76	46433.89
571.92	46485.38
572.09	46925.40
572.25	46698.37
572.41	46801.35
572.57	46733.48
572.74	47161.79
572.90	46403.46
573.06	46796.67
573.22	46916.04
573.38	47026.04
573.55	47210.95
573.71	47145.41
573.87	47133.71
574.03	47061.15
574.20	47229.67
574.36	47159.45
574.52	46937.10
574.68	46733.48
574.84	47182.86
575.01	47246.05
575.17	46911.36
575.33	46618.79
575.49	46600.07
575.65	46906.68
575.82	46958.17
575.98	46848.16
576.14	47461.38
576.30	47349.04
576.46	46822.42
576.62	46988.60
576.79	46967.53
576.95	46590.70
577.11	47126.69
577.27	46843.48
577.43	47061.15
577.59	47037.75
577.75	46712.41
577.92	47082.22
578.08	47079.88
578.24	46965.19
578.40	47086.90
578.56	47044.77
578.72	47049.45
578.88	47246.05
579.04	47147.75
579.21	47196.90
579.37	47339.68
579.53	47384.15
579.69	47009.66
579.85	46899.65
580.01	47283.50
580.17	46923.06
580.33	47562.03
580.49	47004.98
580.65	47533.94
580.82	47117.32
580.98	47473.09
581.14	47023.70
581.30	47466.06
581.46	46892.63
581.62	47037.75
581.78	46681.98
581.94	47381.80
582.10	46972.21
582.26	47466.06
582.42	47009.66
582.58	47103.28
582.74	47257.76
582.90	47503.51
583.06	47243.71
583.22	47398.19
583.38	47578.41
583.54	47365.42
583.70	47613.52
583.86	47798.42
584.02	47349.04
584.18	47171.16
584.34	47522.24
584.50	47669.69
584.66	47356.06
584.82	47243.71
584.98	48065.24
585.14	47508.19
585.30	47400.53
585.46	47407.55
585.62	46791.99
585.78	47674.37
585.94	47056.47
586.10	47334.99
586.26	47077.54
586.42	47746.93
586.58	47356.06
586.74	47264.78
586.90	47325.63
587.06	47669.69
587.22	47772.67
587.38	47232.01
587.54	48062.90
587.70	47744.59
587.86	47412.23
588.02	47234.35
588.18	47337.33
588.34	47379.46
588.49	47866.30
588.65	47288.18
588.81	47882.68
588.97	47512.88
589.13	47466.06
589.29	47728.20
589.45	47552.66
589.61	47330.31
589.77	48013.75
589.93	47557.35
590.08	47772.67
