SpectraSuite Data File
++++++++++++++++++++++++++++++++++++
Date: Fri Oct 25 11:25:11 EDT 2013
User: price-jones
Dark Spectrum Present: No
Reference Spectrum Present: No
Number of Sampled Component Spectra: 1
Spectrometers: USB2+H05261
Integration Time (usec): 100000 (USB2+H05261)
Spectra Averaged: 1 (USB2+H05261)
Boxcar Smoothing: 0 (USB2+H05261)
Correct for Electrical Dark: No (USB2+H05261)
Strobe/Lamp Enabled: No (USB2+H05261)
Correct for Detector Non-linearity: No (USB2+H05261)
Correct for Stray Light: No (USB2+H05261)
Number of Pixels in Processed Spectrum: 2048
>>>>>Begin Processed Spectral Data<<<<<
365.73	212.99
365.92	212.99
366.12	212.99
366.32	159.16
366.52	177.88
366.72	124.05
366.91	182.56
367.11	124.05
367.31	58.51
367.51	93.62
367.70	184.90
367.90	145.11
368.10	121.71
368.30	86.60
368.49	121.71
368.69	177.88
368.89	152.13
369.09	98.30
369.28	142.77
369.48	175.54
369.68	196.60
369.87	198.95
370.07	159.16
370.27	234.05
370.47	367.46
370.66	617.90
370.86	634.29
371.06	692.80
371.25	645.99
371.45	685.78
371.65	688.12
371.84	674.07
372.04	685.78
372.24	751.31
372.44	732.59
372.63	737.27
372.83	709.18
373.03	774.72
373.22	699.82
373.42	795.78
373.62	828.55
373.81	772.38
374.01	826.21
374.21	823.87
374.40	791.10
374.60	758.33
374.79	856.64
374.99	882.38
375.19	830.89
375.38	842.59
375.58	798.12
375.78	882.38
375.97	805.14
376.17	882.38
376.37	807.48
376.56	805.14
376.76	898.77
376.95	898.77
377.15	952.60
377.35	903.45
377.54	933.87
377.74	908.13
377.93	978.34
378.13	929.19
378.33	945.58
378.52	990.05
378.72	870.68
378.91	1004.09
379.11	950.26
379.31	947.92
379.50	917.49
379.70	950.26
379.89	968.98
380.09	880.04
380.28	940.90
380.48	1032.18
380.68	1008.77
380.87	1001.75
381.07	1043.88
381.26	978.34
381.46	1004.09
381.65	1041.54
381.85	1053.24
382.04	1043.88
382.24	1011.11
382.43	978.34
382.63	1001.75
382.83	1060.26
383.02	1078.99
383.22	1050.90
383.41	1125.80
383.61	1139.84
383.80	1114.10
384.00	1048.56
384.19	1097.71
384.39	1104.73
384.58	1156.22
384.78	1135.16
384.97	1196.01
385.17	1179.63
385.36	1130.48
385.56	1135.16
385.75	1165.59
385.95	1247.51
386.14	1249.85
386.34	1219.42
386.53	1165.59
386.72	1121.12
386.92	1179.63
387.11	1203.04
387.31	1158.57
387.50	1240.48
387.70	1221.76
387.89	1240.48
388.09	1327.08
388.28	1144.52
388.48	1200.69
388.67	1198.35
388.86	1359.85
389.06	1364.53
389.25	1366.87
389.45	1327.08
389.64	1310.70
389.84	1350.49
390.03	1247.51
390.22	1357.51
390.42	1362.19
390.61	1430.07
390.81	1352.83
391.00	1369.21
391.19	1472.20
391.39	1483.90
391.58	1387.94
391.78	1511.99
391.97	1441.77
392.16	1528.37
392.36	1540.07
392.55	1652.42
392.75	1483.90
392.94	1446.45
393.13	1544.75
393.33	1514.33
393.52	1533.05
393.71	1526.03
393.91	1523.69
394.10	1598.59
394.29	1582.20
394.49	1603.27
394.68	1710.93
394.88	1626.67
395.07	1668.80
395.26	1647.74
395.46	1621.99
395.65	1750.72
395.84	1708.59
396.04	1734.34
396.23	1636.03
396.42	1713.27
396.62	1764.76
396.81	1703.91
397.00	1724.97
397.19	1710.93
397.39	1727.32
397.58	1771.79
397.77	1928.60
397.97	1680.50
398.16	1849.02
398.35	1902.86
398.55	1809.23
398.74	1937.96
398.93	1809.23
399.12	1968.39
399.32	1830.30
399.51	2008.18
399.70	2031.58
399.90	2008.18
400.09	1940.30
400.28	1998.82
400.47	1961.37
400.67	2120.53
400.86	2010.52
401.05	2078.40
401.24	2019.88
401.44	2090.10
401.63	2120.53
401.82	2146.27
402.01	2083.08
402.21	2153.29
402.40	2242.23
402.59	2223.51
402.78	2183.72
402.97	2251.60
403.17	2179.04
403.36	2342.88
403.55	2272.66
403.74	2286.70
403.93	2314.79
404.13	2431.82
404.32	2366.28
404.51	2310.11
404.70	2354.58
404.89	2307.77
405.09	2413.09
405.28	2462.24
405.47	2392.03
405.66	2640.12
405.85	2487.99
406.05	2546.50
406.24	2605.02
406.43	2612.04
406.62	2590.97
406.81	2560.55
407.00	2574.59
407.20	2539.48
407.39	2555.86
407.58	2689.28
407.77	2668.21
407.96	2670.55
408.15	2729.06
408.34	2717.36
408.54	2794.60
408.73	2731.41
408.92	2862.48
409.11	2878.86
409.30	2906.95
409.49	2799.28
409.68	2836.73
409.87	2967.80
410.07	2913.97
410.26	3019.29
410.45	2897.58
410.64	3040.36
410.83	3023.97
411.02	2885.88
411.21	3190.15
411.40	3148.02
411.59	3166.74
411.78	3152.70
411.98	3239.30
412.17	3335.26
412.36	3309.52
412.55	3290.79
412.74	3384.41
412.93	3353.99
413.12	3375.05
413.31	3569.32
413.50	3548.25
413.69	3529.53
413.88	3637.19
414.07	3531.87
414.26	3627.83
414.45	3578.68
414.64	3651.24
414.83	3674.64
415.02	3693.37
415.22	3655.92
415.41	3782.31
415.60	3789.33
415.79	3857.20
415.98	4044.45
416.17	3969.55
416.36	3915.72
416.55	3819.75
416.74	4079.55
416.93	4138.07
417.12	4098.28
417.31	4044.45
417.50	4093.60
417.69	4222.33
417.88	4194.24
418.07	4229.35
418.26	4217.65
418.45	4236.37
418.64	4503.19
418.83	4400.21
419.02	4416.59
419.21	4608.51
419.39	4376.80
419.58	4418.93
419.77	4376.80
419.96	4521.92
420.15	4638.94
420.34	4465.74
420.53	4634.26
420.72	4685.75
420.91	4617.88
421.10	4688.09
421.29	4645.96
421.48	4594.47
421.67	4709.16
421.86	4676.39
422.05	4746.61
422.24	4786.40
422.43	4863.63
422.61	4997.04
422.80	4943.21
422.99	4924.49
423.18	4945.55
423.37	4889.38
423.56	5118.75
423.75	4865.97
423.94	4791.08
424.13	4528.94
424.32	4755.97
424.50	4954.91
424.69	5025.13
424.88	5015.77
425.07	4828.53
425.26	4933.85
425.45	4922.15
425.64	4973.64
425.83	4922.15
426.01	5032.15
426.20	5060.24
426.39	4992.36
426.58	4805.12
426.77	4992.36
426.96	4987.68
427.15	5128.11
427.33	5179.61
427.52	5081.30
427.71	5245.14
427.90	5219.39
428.09	5359.83
428.28	5231.10
428.46	5362.17
428.65	5341.10
428.84	5383.23
429.03	5596.22
429.22	5350.46
429.40	5413.66
429.59	5298.97
429.78	5184.29
429.97	5132.79
430.16	5432.38
430.34	5446.43
430.53	5479.19
430.72	5614.95
430.91	5689.84
431.10	5643.03
431.28	5584.52
431.47	5797.51
431.66	5743.67
431.85	5652.39
432.03	5757.72
432.22	6033.90
432.41	5914.53
432.60	5870.06
432.79	5926.24
432.97	5928.58
433.16	6045.60
433.35	5867.72
433.54	5961.34
433.72	6059.65
433.91	6010.50
434.10	6019.86
434.28	6223.48
434.47	6263.27
434.66	6153.27
434.85	6274.98
435.03	6202.42
435.22	6239.87
435.41	6413.07
435.59	6424.77
435.78	6452.86
435.97	6399.02
436.16	6420.09
436.34	6375.62
436.53	6609.67
436.72	6583.93
436.90	6410.73
437.09	6539.46
437.28	6434.13
437.46	6654.14
437.65	6712.66
437.84	6850.75
438.02	6703.29
438.21	6806.28
438.40	6539.46
438.58	6750.10
438.77	6981.82
438.96	6832.02
439.14	6935.01
439.33	7145.66
439.52	7286.09
439.70	7089.48
439.89	7382.05
440.08	7487.37
440.26	7176.08
440.45	7117.57
440.63	7531.84
440.82	7667.60
441.01	7592.70
441.19	7545.89
441.38	7609.08
441.57	7651.21
441.75	7693.34
441.94	7969.52
442.12	7962.50
442.31	7903.99
442.50	8086.55
442.68	7920.37
442.87	7899.31
443.05	7985.91
443.24	8203.58
443.43	7971.86
443.61	8088.89
443.80	8327.63
443.98	8044.42
444.17	7843.14
444.35	8124.00
444.54	8318.26
444.73	8264.43
444.91	8287.84
445.10	8250.39
445.28	8217.62
445.47	8273.79
445.65	8231.66
445.84	8255.07
446.02	8224.64
446.21	8294.86
446.39	8191.88
446.58	8390.82
446.77	8367.42
446.95	8042.08
447.14	8461.04
447.32	8489.12
447.51	8372.10
447.69	8472.74
447.88	8451.67
448.06	8507.85
448.25	8383.80
448.43	8542.96
448.62	8489.12
448.80	8397.84
448.99	8449.33
449.17	8538.27
449.36	8287.84
449.54	8685.73
449.73	8718.50
449.91	8879.99
450.10	8882.33
450.28	8910.42
450.46	9015.74
450.65	9137.45
450.83	9020.42
451.02	9041.49
451.20	9151.49
451.39	9064.89
451.57	9067.24
451.76	8959.57
451.94	9149.15
452.13	9174.90
452.31	9181.92
452.49	9090.64
452.68	9231.07
452.86	9404.27
453.05	9350.44
453.23	9493.21
453.42	9226.39
453.60	9160.86
453.78	9558.75
453.97	9357.46
454.15	9322.35
454.34	9352.78
454.52	9507.26
454.70	9687.48
454.89	9804.50
455.07	9533.00
455.26	9554.07
455.44	10026.86
455.62	9914.51
455.81	9778.76
455.99	9900.47
456.17	10019.83
456.36	9858.34
456.54	9848.97
456.73	10181.33
456.91	10202.40
457.09	10335.81
457.28	10490.28
457.46	10251.55
457.64	10399.00
457.83	10373.25
458.01	10490.28
458.19	10534.75
458.38	10712.63
458.56	10717.31
458.74	10406.02
458.93	10675.18
459.11	10555.82
459.29	10588.58
459.48	10712.63
459.66	10368.57
459.84	10691.57
460.03	11082.44
460.21	11000.52
460.39	10832.00
460.57	10839.02
460.76	11047.33
460.94	10960.73
461.12	10965.41
461.31	10930.30
461.49	10988.82
461.67	11192.44
461.85	11389.05
462.04	11241.59
462.22	11824.39
462.40	11517.78
462.59	11342.24
462.77	11318.83
462.95	11466.28
463.13	11389.05
463.32	11321.17
463.50	11674.59
463.68	11585.65
463.86	11833.75
464.05	11545.86
464.23	11695.66
464.41	11742.47
464.59	11683.95
464.78	11910.99
464.96	11955.46
465.14	11555.22
465.32	11712.04
465.50	11843.11
465.69	11889.92
465.87	12119.29
466.05	11960.14
466.23	12196.53
466.41	12002.27
466.60	12329.94
466.78	12032.69
466.96	12156.74
467.14	12285.47
467.32	12376.75
467.51	12510.16
467.69	12072.48
467.87	12168.45
468.05	12339.30
468.23	12325.26
468.41	12556.97
468.60	12671.66
468.78	12610.81
468.96	12484.42
469.14	12739.54
469.32	12912.74
469.50	12484.42
469.69	12762.94
469.87	12795.71
470.05	13132.75
470.23	13055.51
470.41	13015.72
470.59	13467.44
470.77	13011.04
470.95	13144.45
471.14	13399.57
471.32	13078.91
471.50	13563.40
471.68	13359.78
471.86	13554.04
472.04	13380.84
472.22	13738.94
472.40	13785.76
472.58	13680.43
472.77	13834.91
472.95	14071.30
473.13	14457.49
473.31	14005.77
473.49	14097.05
473.67	14008.11
473.85	14185.99
474.03	14576.86
474.21	14499.62
474.39	14581.54
474.57	14424.72
474.75	14579.20
474.93	14799.21
475.12	14766.44
475.30	14913.89
475.48	15051.99
475.66	15133.90
475.84	14785.16
476.02	15407.75
476.20	15094.11
476.38	15531.80
476.56	16013.95
476.74	15627.76
476.92	15660.52
477.10	15517.75
477.28	15999.90
477.46	16194.17
477.64	16287.79
477.82	16292.47
478.00	16669.30
478.18	16641.21
478.36	16865.90
478.54	16624.83
478.72	16980.59
478.90	17441.67
479.08	17631.26
479.26	17483.80
479.44	17741.26
479.62	17752.96
479.80	17722.54
479.98	18160.22
480.16	18452.78
480.34	17879.35
480.52	18387.25
480.70	18370.86
480.88	18132.13
481.06	18363.84
481.24	18970.04
481.41	19030.90
481.59	19005.15
481.77	19407.72
481.95	19241.54
482.13	19520.07
482.31	19456.87
482.49	20107.54
482.67	20292.44
482.85	20194.14
483.03	19943.70
483.21	20692.68
483.39	20697.36
483.57	20477.35
483.74	20940.77
483.92	21008.65
484.10	20985.24
484.28	21586.76
484.46	21820.81
484.64	22363.82
484.82	21687.40
485.00	22139.13
485.18	22532.34
485.35	22649.36
485.53	22721.92
485.71	22719.58
485.89	23115.13
486.07	23175.98
486.25	23054.28
486.43	23611.32
486.61	23356.21
486.78	23508.34
486.96	24140.29
487.14	24592.01
487.32	24353.27
487.50	24727.76
487.68	24680.95
487.85	24971.18
488.03	25364.39
488.21	25741.21
488.39	25436.94
488.57	25738.87
488.75	25788.02
488.92	26405.92
489.10	26286.56
489.28	26501.89
489.46	26916.16
489.64	26553.38
489.81	27332.78
489.99	27168.94
490.17	27917.91
490.35	28240.90
490.53	27763.43
490.70	28402.40
490.88	28063.02
491.06	28320.48
491.24	28348.57
491.41	28950.09
491.59	29242.65
491.77	29132.65
491.95	29565.65
492.13	29598.41
492.30	29404.15
492.48	29645.23
492.66	30085.25
492.84	30218.66
493.01	30202.27
493.19	30277.17
493.37	30747.62
493.54	30967.63
493.72	31007.42
493.90	31218.07
494.08	31271.90
494.25	31850.01
494.43	31941.29
494.61	32116.83
494.79	31718.94
494.96	32357.91
495.14	32425.78
495.32	33111.56
495.49	32737.07
495.67	32713.67
495.85	33242.63
496.02	33457.96
496.20	33708.40
496.38	33771.59
496.55	33827.76
496.73	34656.31
496.91	34380.13
497.09	34518.22
497.26	34768.66
497.44	34436.30
497.62	34976.97
497.79	35573.80
497.97	35110.38
498.14	35342.09
498.32	35866.37
498.50	35690.83
498.67	36467.89
498.85	35896.80
499.03	36383.63
499.20	36437.46
499.38	36884.50
499.56	36615.34
499.73	36863.44
499.91	37223.88
500.08	37298.78
500.26	36811.95
500.44	37532.83
500.61	37406.44
500.79	37312.82
500.97	37455.59
501.14	38405.85
501.32	38445.64
501.49	38059.45
501.67	38534.58
501.84	38600.12
502.02	38426.92
502.20	38988.64
502.37	39199.29
502.55	38728.84
502.72	39161.84
502.90	39225.04
503.07	38869.28
503.25	39047.16
503.43	39344.41
503.60	39697.83
503.78	39416.96
503.95	39927.20
504.13	40231.47
504.30	40208.06
504.48	40247.85
504.65	40512.33
504.83	41230.88
505.01	41539.83
505.18	40730.00
505.36	41324.50
505.53	41060.02
505.71	41352.58
505.88	41743.45
506.06	41053.00
506.23	41518.76
506.41	41525.78
506.58	41649.83
506.76	41453.23
506.93	42085.17
507.11	42071.13
507.28	42611.79
507.46	42660.94
507.63	42529.87
507.81	43009.68
507.98	42415.19
508.16	42703.07
508.33	42904.36
508.50	42789.67
508.68	43225.01
508.85	43723.55
509.03	43316.29
509.20	43517.58
509.38	44346.13
509.55	43894.41
509.73	44271.23
509.90	44177.61
510.08	44217.40
510.25	43973.98
510.42	44409.32
510.60	44720.62
510.77	44947.65
510.95	45366.60
511.12	45219.15
511.30	44521.67
511.47	44933.60
511.64	45483.63
511.82	45549.17
511.99	45287.03
512.17	45659.17
512.34	45872.16
512.51	45727.05
512.69	45890.88
512.86	45958.76
513.04	46335.59
513.21	46026.63
513.38	46204.52
513.56	46777.95
513.73	45949.40
513.90	46281.75
514.08	46143.66
514.25	46904.34
514.43	47079.88
514.60	47246.05
514.77	47145.41
514.95	47166.48
515.12	47068.17
515.29	47487.13
515.47	47718.84
515.64	47814.80
515.81	47508.19
515.99	48098.01
516.16	48123.75
516.33	48332.06
516.51	48030.13
516.68	48163.54
516.85	47882.68
517.03	48493.56
517.20	48722.93
517.37	48296.95
517.54	48776.76
517.72	48978.05
517.89	48713.57
518.06	48896.13
518.24	48638.67
518.41	49160.61
518.58	49050.61
518.75	49155.93
518.93	49521.05
519.10	49301.04
519.27	49340.83
519.45	49453.18
519.62	49535.10
519.79	49301.04
519.96	49612.34
520.14	50045.33
520.31	49834.69
520.48	50057.04
520.65	49694.25
520.83	50157.68
521.00	50003.20
521.17	50323.86
521.34	50618.77
521.52	50600.04
521.69	50454.93
521.86	50810.69
522.03	50808.35
522.20	51044.74
522.38	50848.14
522.55	50930.06
522.72	51028.36
522.89	50836.44
523.07	51255.39
523.24	51173.47
523.41	51379.44
523.58	51037.72
523.75	51489.45
523.92	51765.63
524.10	51718.82
524.27	51716.48
524.44	51784.35
524.61	52229.05
524.78	51887.34
524.96	52039.47
525.13	52046.49
525.30	52009.04
525.47	52016.07
525.64	51847.55
525.81	52062.88
525.98	52360.12
526.16	52252.46
526.33	52388.21
526.50	52619.92
526.67	52495.88
526.84	52608.22
527.01	52402.25
527.18	52540.35
527.36	53052.92
527.53	52559.07
527.70	52956.96
527.87	53125.48
528.04	52818.87
528.21	53148.88
528.38	53078.67
528.55	53038.88
528.72	53123.14
528.89	53113.78
529.07	53277.61
529.24	53090.37
529.41	53165.27
529.58	53455.50
529.75	53354.85
529.92	53359.53
530.09	53504.65
530.26	54003.18
530.43	53822.96
530.60	53404.00
530.77	53642.74
530.94	54007.86
531.11	53502.31
531.28	53766.79
531.46	54185.74
531.63	53979.78
531.80	53944.67
531.97	54178.72
532.14	54291.07
532.31	54195.10
532.48	54405.75
532.65	54506.40
532.82	54347.24
532.99	54452.56
533.16	54363.62
533.33	54468.95
533.50	54396.39
533.67	54695.98
533.84	54293.41
534.01	54550.87
534.18	54485.33
534.35	55037.70
534.52	54649.17
534.69	54906.63
534.86	55175.79
535.03	54953.44
535.20	55096.21
535.37	55220.26
535.54	55152.38
535.71	54831.73
535.88	55325.58
536.05	55299.84
536.22	55363.03
536.38	55028.34
536.55	55412.18
536.72	55257.71
536.89	54960.46
537.06	55250.69
537.23	55473.04
537.40	55292.82
537.57	55559.64
537.74	55484.74
537.91	55693.05
538.08	55697.73
538.25	55599.43
538.42	55643.90
538.59	56090.94
538.75	55660.28
538.92	55693.05
539.09	55749.22
539.26	55973.91
539.43	55721.13
539.60	55889.65
539.77	56175.20
539.94	56053.49
540.11	55997.32
540.28	56100.30
540.44	56233.71
540.61	56168.18
540.78	56161.15
540.95	56193.92
541.12	56200.94
541.29	56355.42
541.46	56355.42
541.62	56287.54
541.79	56392.87
541.96	56229.03
542.13	56378.82
542.30	56397.55
542.47	56666.71
542.63	56537.98
542.80	56800.12
542.97	56830.55
543.14	57111.41
543.31	57097.37
543.48	56886.72
543.64	57186.31
543.81	57190.99
543.98	57272.91
544.15	57034.17
544.32	57123.11
544.48	57350.15
544.65	57015.45
544.82	57207.37
544.99	56996.73
545.16	57167.58
545.32	57137.16
545.49	57331.42
545.66	57577.18
545.83	57258.87
546.00	57656.76
546.16	57673.14
546.33	57359.51
546.50	57455.47
546.67	57418.02
546.83	57286.95
547.00	57464.83
547.17	57616.97
547.34	57729.31
547.50	57698.89
547.67	57752.72
547.84	57890.81
548.00	57848.68
548.17	58185.72
548.34	57907.19
548.51	58120.18
548.67	57946.98
548.84	57930.60
549.01	57946.98
549.18	58099.12
549.34	58209.12
549.51	58014.86
549.68	58253.59
549.84	58230.19
550.01	58295.72
550.18	58113.16
550.34	58284.02
550.51	58291.04
550.68	58195.08
550.84	58195.08
551.01	58480.63
551.18	58265.30
551.34	58454.88
551.51	58431.47
551.68	58599.99
551.84	58419.77
552.01	58379.98
552.18	58562.54
552.34	58288.70
552.51	58433.81
552.68	58258.27
552.84	58501.69
553.01	58752.13
553.18	58422.11
553.34	58822.34
553.51	58457.22
553.67	58564.88
553.84	58735.74
554.01	58726.38
554.17	58698.30
554.34	58944.05
554.51	58745.11
554.67	58859.79
554.84	58681.91
555.00	58805.96
555.17	58630.42
555.33	58815.32
555.50	58684.25
555.67	58901.92
555.83	58805.96
556.00	58988.52
556.16	59363.01
556.33	59028.31
556.50	59079.80
556.66	59199.17
556.83	58857.45
556.99	59231.94
557.16	59138.32
557.32	59269.39
557.49	59215.55
557.65	58990.86
557.82	59011.93
557.98	59098.53
558.15	59234.28
558.32	59105.55
558.48	59213.21
558.65	59281.09
558.81	59402.80
558.98	59262.36
559.14	59255.34
559.31	59334.92
559.47	59606.42
559.64	59711.75
559.80	59465.99
559.97	59543.23
560.13	59543.23
560.30	59419.18
560.46	59597.06
560.63	59643.87
560.79	59491.74
560.96	59835.80
561.12	59629.83
561.29	59777.28
561.45	59737.49
561.61	59700.04
561.78	59728.13
561.94	59629.83
562.11	59580.68
562.27	59622.81
562.44	59686.00
562.60	59875.58
562.77	59721.11
562.93	59718.77
563.10	60140.07
563.26	59634.51
563.42	59973.89
563.59	59849.84
563.75	59634.51
563.92	59753.88
564.08	59891.97
564.24	59884.95
564.41	60158.79
564.57	60037.08
564.74	59910.69
564.90	59934.10
565.07	60060.49
565.23	59952.82
565.39	59915.37
565.56	59980.91
565.72	60018.36
565.88	59927.08
566.05	59927.08
566.21	60001.97
566.38	60041.76
566.54	60053.47
566.70	60254.75
566.87	60142.41
567.03	60231.35
567.19	60257.09
567.36	59999.63
567.52	60053.47
567.68	60470.08
567.85	60226.66
568.01	60315.61
568.17	60006.65
568.34	60315.61
568.50	60200.92
568.66	60268.79
568.83	60449.02
568.99	60074.53
569.15	60331.99
569.32	60275.82
569.48	60172.83
569.64	60477.10
569.81	60416.25
569.97	60126.02
570.13	60214.96
570.30	60111.98
570.46	60186.88
570.62	60402.21
570.78	60313.26
570.95	60348.37
571.11	60432.63
571.27	60247.73
571.43	60210.28
571.60	60514.55
571.76	60238.37
571.92	60423.27
572.09	60470.08
572.25	60346.03
572.41	60402.21
572.57	60374.12
572.74	60509.87
572.90	60397.52
573.06	60364.76
573.22	60259.43
573.38	60285.18
573.55	60580.09
573.71	60587.11
573.87	60512.21
574.03	60261.77
574.20	60329.65
574.36	60334.33
574.52	60633.92
574.68	60516.89
574.84	60647.96
575.01	60439.65
575.17	60633.92
575.33	60509.87
575.49	60367.10
575.65	60507.53
575.82	60591.79
575.98	60598.81
576.14	60720.52
576.30	60624.56
576.46	60507.53
576.62	60523.91
576.79	60458.38
576.95	60683.07
577.11	60598.81
577.27	60711.16
577.43	60753.29
577.59	60692.43
577.75	60348.37
577.92	60404.55
578.08	60662.00
578.24	60544.98
578.40	60842.23
578.56	60818.82
578.72	60481.78
578.88	60706.47
579.04	60846.91
579.21	60654.98
579.37	60753.29
579.53	60636.26
579.69	60619.88
579.85	60530.93
580.01	60748.60
580.17	60793.07
580.33	60690.09
580.49	60734.56
580.65	60713.50
580.82	60662.00
580.98	60657.32
581.14	60624.56
581.30	60926.49
581.46	60615.19
581.62	60643.28
581.78	60582.43
581.94	60891.38
582.10	60659.66
582.26	60633.92
582.42	60479.44
582.58	60786.05
582.74	60664.35
582.90	60877.33
583.06	60706.47
583.22	60596.47
583.38	60556.68
583.54	60795.42
583.70	60776.69
583.86	60968.61
584.02	60683.07
584.18	60858.61
584.34	60846.91
584.50	60914.78
584.66	60697.11
584.82	60566.04
584.98	60891.38
585.14	60882.02
585.30	60687.75
585.46	60947.55
585.62	60867.97
585.78	60821.16
585.94	60650.30
586.10	60781.37
586.26	60701.79
586.42	60996.70
586.58	60928.83
586.74	60919.46
586.90	60720.52
587.06	60633.92
587.22	60802.44
587.38	60699.45
587.54	60992.02
587.70	60926.49
587.86	60832.86
588.02	61062.24
588.18	61109.05
588.34	60657.32
588.49	60949.89
