SpectraSuite Data File
++++++++++++++++++++++++++++++++++++
Date: Fri Oct 25 10:43:44 EDT 2013
User: price-jones
Dark Spectrum Present: No
Reference Spectrum Present: No
Number of Sampled Component Spectra: 1
Spectrometers: USB2+H05261
Integration Time (usec): 100000 (USB2+H05261)
Spectra Averaged: 1 (USB2+H05261)
Boxcar Smoothing: 0 (USB2+H05261)
Correct for Electrical Dark: No (USB2+H05261)
Strobe/Lamp Enabled: No (USB2+H05261)
Correct for Detector Non-linearity: No (USB2+H05261)
Correct for Stray Light: No (USB2+H05261)
Number of Pixels in Processed Spectrum: 2048
>>>>>Begin Processed Spectral Data<<<<<
365.73	138.09
365.92	138.09
366.12	138.09
366.32	56.17
366.52	46.81
366.72	63.19
366.91	16.38
367.11	21.06
367.31	0.00
367.51	0.00
367.70	0.00
367.90	25.75
368.10	4.68
368.30	25.75
368.49	9.36
368.69	30.43
368.89	51.49
369.09	4.68
369.28	72.56
369.48	21.06
369.68	88.94
369.87	53.83
370.07	56.17
370.27	145.11
370.47	191.92
370.66	369.80
370.86	379.17
371.06	444.70
371.25	517.26
371.45	437.68
371.65	510.24
371.84	388.53
372.04	435.34
372.24	463.43
372.44	484.49
372.63	505.56
372.83	514.92
373.03	458.74
373.22	498.53
373.42	521.94
373.62	461.09
373.81	550.03
374.01	528.96
374.21	547.69
374.40	543.00
374.60	580.45
374.79	592.16
374.99	608.54
375.19	554.71
375.38	566.41
375.58	664.71
375.78	599.18
375.97	533.64
376.17	620.24
376.37	631.94
376.56	650.67
376.76	617.90
376.95	561.73
377.15	660.03
377.35	660.03
377.54	653.01
377.74	683.44
377.93	669.39
378.13	653.01
378.33	678.76
378.52	699.82
378.72	667.05
378.91	641.31
379.11	648.33
379.31	660.03
379.50	648.33
379.70	791.10
379.89	709.18
380.09	683.44
380.28	706.84
380.48	770.04
380.68	620.24
380.87	631.94
381.07	760.67
381.26	774.72
381.46	725.57
381.65	613.22
381.85	683.44
382.04	699.82
382.24	758.33
382.43	697.48
382.63	671.73
382.83	688.12
383.02	744.29
383.22	772.38
383.41	676.41
383.61	781.74
383.80	730.25
384.00	741.95
384.19	763.01
384.39	711.52
384.58	770.04
384.78	812.17
384.97	814.51
385.17	800.46
385.36	849.61
385.56	781.74
385.75	807.48
385.95	784.08
386.14	866.00
386.34	875.36
386.53	868.34
386.72	842.59
386.92	929.19
387.11	901.11
387.31	915.15
387.50	807.48
387.70	798.12
387.89	884.72
388.09	891.74
388.28	894.08
388.48	947.92
388.67	915.15
388.86	896.43
389.06	957.28
389.25	959.62
389.45	968.98
389.64	887.06
389.84	905.79
390.03	1034.52
390.22	1006.43
390.42	997.07
390.61	1036.86
390.81	994.73
391.00	1025.15
391.19	1013.45
391.39	1090.69
391.58	1062.60
391.78	976.00
391.97	997.07
392.16	1057.92
392.36	1071.97
392.55	954.94
392.75	1034.52
392.94	945.58
393.13	1027.50
393.33	999.41
393.52	1050.90
393.71	1076.65
393.91	1074.31
394.10	1107.07
394.29	1100.05
394.49	1093.03
394.68	1184.31
394.88	1254.53
395.07	1275.59
395.26	1247.51
395.46	1170.27
395.65	1228.78
395.84	1163.25
396.04	1259.21
396.23	1226.44
396.42	1231.12
396.62	1212.40
396.81	1266.23
397.00	1160.91
397.19	1299.00
397.39	1336.45
397.58	1460.49
397.77	1385.60
397.97	1359.85
398.16	1479.22
398.35	1439.43
398.55	1434.75
398.74	1406.66
398.93	1479.22
399.12	1467.52
399.32	1481.56
399.51	1476.88
399.70	1495.60
399.90	1586.88
400.09	1514.33
400.28	1603.27
400.47	1547.09
400.67	1600.93
400.86	1643.06
401.05	1654.76
401.24	1638.38
401.44	1729.66
401.63	1699.23
401.82	1619.65
402.01	1673.48
402.21	1624.33
402.40	1748.38
402.59	1732.00
402.78	1820.94
402.97	1699.23
403.17	1804.55
403.36	1764.76
403.55	1722.63
403.74	1944.99
403.93	1839.66
404.13	1785.83
404.32	1802.21
404.51	1804.55
404.70	1956.69
404.89	1834.98
405.09	1870.09
405.28	1966.05
405.47	1980.09
405.66	1987.11
405.85	2026.90
406.05	1926.26
406.24	2054.99
406.43	2036.27
406.62	1966.05
406.81	2015.20
407.00	2059.67
407.20	1966.05
407.39	2050.31
407.58	2113.50
407.77	2251.60
407.96	2209.47
408.15	2160.31
408.34	2160.31
408.54	2293.72
408.73	2277.34
408.92	2235.21
409.11	2249.25
409.30	2359.26
409.49	2258.62
409.68	2125.21
409.87	2246.91
410.07	2246.91
410.26	2272.66
410.45	2424.80
410.64	2518.42
410.83	2471.61
411.02	2656.51
411.21	2497.35
411.40	2509.05
411.59	2689.28
411.78	2640.12
411.98	2546.50
412.17	2761.83
412.36	2640.12
412.55	2677.57
412.74	2698.64
412.93	2572.25
413.12	2630.76
413.31	2780.56
413.50	2689.28
413.69	2815.66
413.88	2874.18
414.07	2848.43
414.26	2890.56
414.45	2904.60
414.64	3059.08
414.83	2916.31
415.02	3080.14
415.22	2988.86
415.41	3276.75
415.60	3075.46
415.79	3229.94
415.98	3272.07
416.17	3255.69
416.36	3190.15
416.55	3145.68
416.74	3288.45
416.93	3190.15
417.12	3248.66
417.31	3375.05
417.50	3295.47
417.69	3405.48
417.88	3543.57
418.07	3314.20
418.26	3452.29
418.45	3393.78
418.64	3550.59
418.83	3566.98
419.02	3616.13
419.21	3599.74
419.39	3639.53
419.58	3438.25
419.77	3548.25
419.96	3569.32
420.15	3674.64
420.34	3531.87
420.53	3651.24
420.72	3908.69
420.91	3660.60
421.10	3747.20
421.29	3831.46
421.48	3826.78
421.67	3794.01
421.86	3791.67
422.05	3936.78
422.24	3747.20
422.43	3817.41
422.61	3817.41
422.80	3728.47
422.99	3880.61
423.18	3976.57
423.37	3934.44
423.56	3920.40
423.75	3957.85
423.94	3838.48
424.13	3625.49
424.32	3777.62
424.50	3936.78
424.69	3875.93
424.88	3896.99
425.07	3864.22
425.26	3810.39
425.45	3871.25
425.64	3936.78
425.83	3786.99
426.01	3946.14
426.20	3920.40
426.39	4131.05
426.58	3847.84
426.77	3861.88
426.96	3805.71
427.15	3906.35
427.33	4007.00
427.52	3887.63
427.71	4049.13
427.90	4107.64
428.09	4187.22
428.28	4142.75
428.46	4100.62
428.65	4100.62
428.84	4241.05
429.03	4341.69
429.22	4117.00
429.40	4292.54
429.59	4093.60
429.78	3889.97
429.97	3770.60
430.16	3967.21
430.34	4135.73
430.53	4231.69
430.72	4245.73
430.91	4234.03
431.10	4337.01
431.28	4554.68
431.47	4575.75
431.66	4667.03
431.85	4603.83
432.03	4683.41
432.22	4699.80
432.41	4751.29
432.60	4685.75
432.79	4578.09
432.97	4734.90
433.16	4793.42
433.35	4552.34
433.54	4528.94
433.72	4669.37
433.91	4805.12
434.10	4741.93
434.28	4638.94
434.47	4926.83
434.66	4765.33
434.85	4947.89
435.03	4889.38
435.22	5022.79
435.41	5046.20
435.59	5020.45
435.78	5060.24
435.97	5163.22
436.16	5247.48
436.34	4973.64
436.53	5174.92
436.72	5095.35
436.90	4938.53
437.09	5067.26
437.28	5027.47
437.46	5188.97
437.65	5149.18
437.84	5249.82
438.02	5177.26
438.21	5135.14
438.40	5121.09
438.58	5366.85
438.77	5350.46
438.96	5329.40
439.14	5530.69
439.33	5628.99
439.52	5530.69
439.70	5619.63
439.89	5636.01
440.08	5760.06
440.26	5720.27
440.45	5694.52
440.63	5764.74
440.82	5881.77
441.01	5713.25
441.19	5900.49
441.38	6183.70
441.57	5954.32
441.75	6225.82
441.94	6223.48
442.12	6263.27
442.31	6403.71
442.50	6356.90
442.68	6326.47
442.87	6312.42
443.05	6349.87
443.24	6387.32
443.43	6293.70
443.61	6410.73
443.80	6530.09
443.98	6265.61
444.17	6146.25
444.35	6476.26
444.54	6597.97
444.73	6595.63
444.91	6457.54
445.10	6487.96
445.28	6303.06
445.47	6239.87
445.65	6361.58
445.84	6483.28
446.02	6597.97
446.21	6530.09
446.39	6298.38
446.58	6607.33
446.77	6642.44
446.95	6530.09
447.14	6530.09
447.32	6794.58
447.51	6647.12
447.69	6658.82
447.88	6612.01
448.06	6712.66
448.25	6698.61
448.43	6649.46
448.62	6693.93
448.80	6527.75
448.99	6827.34
449.17	6820.32
449.36	6876.49
449.54	6846.07
449.73	7000.54
449.91	6986.50
450.10	7021.61
450.28	7143.32
450.46	7150.34
450.65	7300.13
450.83	7040.33
451.02	7232.26
451.20	7222.89
451.39	7258.00
451.57	7192.47
451.76	7213.53
451.94	7260.34
452.13	7190.13
452.31	7042.67
452.49	7136.29
452.68	7133.95
452.86	7260.34
453.05	7262.68
453.23	7253.32
453.42	7197.15
453.60	7295.45
453.78	7400.77
453.97	7276.73
454.15	7412.48
454.34	7353.96
454.52	7426.52
454.70	7421.84
454.89	7637.17
455.07	7442.90
455.26	7536.52
455.44	7609.08
455.62	7749.51
455.81	7583.34
455.99	7801.01
456.17	7770.58
456.36	7819.73
456.54	7981.23
456.73	7988.25
456.91	7934.42
457.09	8049.10
457.28	8098.25
457.46	7906.33
457.64	8163.79
457.83	8070.17
458.01	8063.15
458.19	8266.77
458.38	7957.82
458.56	8053.78
458.74	8147.40
458.93	8201.24
459.11	8264.43
459.29	8304.22
459.48	8367.42
459.66	8145.06
459.84	8262.09
460.03	8603.81
460.21	8578.06
460.39	8599.13
460.57	8503.17
460.76	8697.43
460.94	8531.25
461.12	8486.78
461.31	8571.04
461.49	8503.17
461.67	8557.00
461.85	8627.21
462.04	8634.24
462.22	9245.12
462.40	8938.51
462.59	8795.73
462.77	8854.25
462.95	9046.17
463.13	8898.72
463.32	9001.70
463.50	9025.11
463.68	8891.70
463.86	8821.48
464.05	9011.06
464.23	8716.16
464.41	9022.77
464.59	8777.01
464.78	8997.02
464.96	8999.36
465.14	9011.06
465.32	9104.68
465.50	9174.90
465.69	9240.44
465.87	9158.52
466.05	9317.67
466.23	9048.51
466.41	9277.88
466.60	9434.70
466.78	9191.28
466.96	9090.64
467.14	9109.36
467.32	9329.38
467.51	9268.52
467.69	9247.46
467.87	9275.54
468.05	9315.33
468.23	9336.40
468.41	9390.23
468.60	9317.67
468.78	9600.88
468.96	9591.52
469.14	9764.72
469.32	9535.34
469.50	9518.96
469.69	9741.31
469.87	9792.80
470.05	9645.35
470.23	9858.34
470.41	9820.89
470.59	9832.59
470.77	9949.62
470.95	9961.32
471.14	9848.97
471.32	10010.47
471.50	10263.25
471.68	10076.01
471.86	10120.48
472.04	10256.23
472.22	10609.65
472.40	10162.61
472.58	10422.41
472.77	10455.17
472.95	10682.20
473.13	10750.08
473.31	10457.51
473.49	10623.69
473.67	10682.20
473.85	10604.97
474.03	11023.92
474.21	10792.21
474.39	10913.92
474.57	10892.85
474.75	11255.64
474.93	11234.57
475.12	11016.90
475.30	11143.29
475.48	11145.63
475.66	11302.45
475.84	11463.94
476.02	11407.77
476.20	11356.28
476.38	11414.79
476.56	11829.07
476.74	11899.28
476.92	11616.08
477.10	12042.06
477.28	11868.86
477.46	11906.31
477.64	12215.26
477.82	12409.52
478.00	12510.16
478.18	12561.66
478.36	12498.46
478.54	12444.63
478.72	12664.64
478.90	12950.18
479.08	12999.34
479.26	13256.79
479.44	13006.36
479.62	13366.80
479.80	13252.11
479.98	13439.36
480.16	13350.42
480.34	13495.53
480.52	13554.04
480.70	13572.77
480.88	13352.76
481.06	13834.91
481.24	13968.32
481.41	14312.38
481.59	14143.86
481.77	14338.12
481.95	14185.99
482.13	14698.56
482.31	14520.68
482.49	14628.35
482.67	14824.95
482.85	15157.31
483.03	15279.02
483.21	15122.20
483.39	15183.06
483.57	15325.83
483.74	15339.87
483.92	15492.01
484.10	15702.65
484.28	15456.90
484.46	15967.13
484.64	16416.52
484.82	16191.83
485.00	15857.13
485.18	16238.64
485.35	16409.50
485.53	16166.08
485.71	16339.28
485.89	16095.86
486.07	16484.39
486.25	16601.42
486.43	16823.77
486.61	17076.55
486.78	17132.72
486.96	17273.15
487.14	17521.25
487.32	17809.14
487.50	17694.45
487.68	18125.11
487.85	18305.33
488.03	18244.48
488.21	18354.48
488.39	18558.11
488.57	18525.34
488.75	18787.48
488.92	18925.57
489.10	19559.86
489.28	19447.51
489.46	19323.46
489.64	19576.24
489.81	20046.69
489.99	20039.67
490.17	20140.31
490.35	20046.69
490.53	20100.52
490.70	20247.97
490.88	20585.01
491.06	20596.71
491.24	20407.13
491.41	20746.51
491.59	20568.63
491.77	20774.60
491.95	20882.26
492.13	21404.20
492.30	21624.21
492.48	21502.50
492.66	21706.13
492.84	21912.10
493.01	21467.39
493.19	21797.41
493.37	22162.53
493.54	22015.08
493.72	22775.75
493.90	22473.82
494.08	22717.24
494.25	23222.80
494.43	22834.27
494.61	23594.94
494.79	23257.90
494.96	23040.23
495.14	23721.33
495.32	23866.44
495.49	23435.78
495.67	23770.48
495.85	23861.76
496.02	24079.43
496.20	24184.76
496.38	24154.33
496.55	24261.99
496.73	24940.75
496.91	25015.65
497.09	24875.21
497.26	25312.89
497.44	24783.93
497.62	24929.05
497.79	25050.75
497.97	25017.99
498.14	25425.24
498.32	25418.22
498.50	25818.45
498.67	26015.05
498.85	25818.45
499.03	25933.14
499.20	26068.89
499.38	26239.75
499.56	26244.43
499.73	26192.94
499.91	26445.71
500.08	26363.79
500.26	25996.33
500.44	26504.23
500.61	26555.72
500.79	26710.19
500.97	26953.61
501.14	27012.12
501.32	26918.50
501.49	26958.29
501.67	27115.11
501.84	27180.64
502.02	27353.84
502.20	27690.88
502.37	27931.95
502.55	27744.71
502.72	27803.22
502.90	27999.83
503.07	27910.89
503.25	28100.47
503.43	27938.97
503.60	27843.01
503.78	28217.50
503.95	27995.15
504.13	28128.56
504.30	28577.94
504.48	28657.52
504.65	28982.85
504.83	28891.57
505.01	29177.12
505.18	28989.88
505.36	29460.32
505.53	29699.06
505.71	29525.86
505.88	29677.99
506.06	29560.97
506.23	29551.60
506.41	29275.42
506.58	29483.73
506.76	29699.06
506.93	29809.06
507.11	30106.31
507.28	29841.83
507.46	29837.15
507.63	30415.26
507.81	30190.57
507.98	29874.60
508.16	30426.96
508.33	30286.53
508.50	30490.16
508.68	30511.22
508.85	31019.12
509.03	31075.29
509.20	30642.29
509.38	30661.02
509.55	31220.41
509.73	30958.27
509.90	31452.12
510.08	31047.21
510.25	31332.75
510.42	31061.25
510.60	31580.85
510.77	31861.71
510.95	32044.27
511.12	31747.03
511.30	31798.52
511.47	32055.98
511.64	32294.71
511.82	32339.18
511.99	32137.90
512.17	32355.57
512.34	32074.70
512.51	32493.66
512.69	32790.91
512.86	32517.06
513.04	32896.23
513.21	32826.01
513.38	32421.10
513.56	32929.00
513.73	32545.15
513.90	32769.84
514.08	32622.39
514.25	32959.42
514.43	33050.70
514.60	32725.37
514.77	33333.91
514.95	33326.89
515.12	33376.04
515.29	33851.17
515.47	33982.24
515.64	34031.39
515.81	33795.00
515.99	33596.05
516.16	33862.87
516.33	33654.56
516.51	33736.48
516.68	33324.55
516.85	33373.70
517.03	33390.08
517.20	33680.31
517.37	34022.03
517.54	34403.53
517.72	33954.15
517.89	33694.35
518.06	33783.29
518.24	33776.27
518.41	34232.68
518.58	34604.82
518.75	34277.15
518.93	34850.58
519.10	34464.39
519.27	34747.59
519.45	34773.34
519.62	35353.79
519.79	35466.14
519.96	35332.73
520.14	35218.04
520.31	34911.43
520.48	35573.80
520.65	35407.62
520.83	35679.13
521.00	35653.38
521.17	35526.99
521.34	36055.95
521.52	36245.54
521.69	35868.71
521.86	36254.90
522.03	36212.77
522.20	35859.35
522.38	36135.53
522.55	36451.50
522.72	36018.50
522.89	36079.36
523.07	36294.69
523.24	36226.81
523.41	36229.15
523.58	36591.94
523.75	37364.31
523.92	37048.34
524.10	36828.33
524.27	36933.65
524.44	37141.96
524.61	37024.93
524.78	37483.68
524.96	37301.12
525.13	37350.27
525.30	37446.23
525.47	37546.87
525.64	37502.40
525.81	37476.66
525.98	37415.80
526.16	37443.89
526.33	37205.16
526.50	37827.74
526.67	36858.76
526.84	37158.34
527.01	37750.50
527.18	37968.17
527.36	38040.73
527.53	37942.42
527.70	38288.82
527.87	38349.68
528.04	37954.13
528.21	38197.54
528.38	38146.05
528.55	38581.39
528.72	38284.14
528.89	38815.44
529.07	38614.16
529.24	38043.07
529.41	38656.29
529.58	38689.06
529.75	38876.30
529.92	38677.35
530.09	38602.46
530.26	38902.04
530.43	39072.90
530.60	39077.58
530.77	38948.85
530.94	39356.11
531.11	39051.84
531.28	39562.08
531.46	39566.76
531.63	39583.14
531.80	39555.05
531.97	39515.26
532.14	39543.35
532.31	39557.39
532.48	39267.17
532.65	39615.91
532.82	39337.38
532.99	39669.74
533.16	39749.32
533.33	39470.79
533.50	39878.05
533.67	39913.16
533.84	39423.98
534.01	39885.07
534.18	40175.30
534.35	39782.09
534.52	39821.87
534.69	40032.52
534.86	40477.22
535.03	40517.01
535.20	40627.02
535.37	40563.82
535.54	40767.45
535.71	40652.76
535.88	40643.40
536.05	40517.01
536.22	40587.23
536.38	41029.59
536.55	40598.93
536.72	40622.34
536.89	40458.50
537.06	41310.46
537.23	41336.20
537.40	40865.75
537.57	40568.51
537.74	40840.01
537.91	41378.33
538.08	41322.16
538.25	41254.28
538.42	40912.56
538.59	41226.20
538.75	41024.91
538.92	41198.11
539.09	41141.94
539.26	41254.28
539.43	41116.19
539.60	41352.58
539.77	41120.87
539.94	41378.33
540.11	40872.78
540.28	41579.62
540.44	41588.98
540.61	41340.88
540.78	41352.58
540.95	41284.71
541.12	40952.35
541.29	41851.12
541.46	41862.82
541.62	41883.89
541.79	41841.76
541.96	41511.74
542.13	41727.07
542.30	41783.24
542.47	42096.88
542.63	41670.90
542.80	42218.58
542.97	42476.04
543.14	42820.10
543.31	42272.42
543.48	42590.73
543.64	42799.04
543.81	43107.99
543.98	42724.14
544.15	42543.92
544.32	42871.59
544.48	42787.33
544.65	42602.43
544.82	43484.81
544.99	42511.15
545.16	42398.80
545.32	42597.75
545.49	43164.16
545.66	43372.47
545.83	42829.46
546.00	43124.37
546.16	43028.41
546.33	42859.89
546.50	42384.76
546.67	43393.53
546.83	42639.88
547.00	43386.51
547.17	43061.18
547.34	42990.96
547.50	43136.07
547.67	43564.39
547.84	42965.21
548.00	43473.11
548.17	43569.07
548.34	43489.49
548.51	43922.49
548.67	43688.44
548.84	43393.53
549.01	43285.87
549.18	43660.35
549.34	43501.20
549.51	43210.97
549.68	43882.70
549.84	43894.41
550.01	44009.09
550.18	43208.63
550.34	43966.96
550.51	43798.44
550.68	43803.13
550.84	43356.08
551.01	43995.05
551.18	43969.30
551.34	44013.77
551.51	44048.88
551.68	44261.87
551.84	44105.06
552.01	44341.45
552.18	44027.82
552.34	44013.77
552.51	44034.84
552.68	43723.55
552.84	44175.27
553.01	44081.65
553.18	44184.63
553.34	44360.17
553.51	43948.24
553.67	44121.44
553.84	44594.23
554.01	44886.79
554.17	45284.68
554.34	44406.98
554.51	44416.35
554.67	44547.42
554.84	44807.22
555.00	44744.02
555.17	44577.84
555.33	44561.46
555.50	44652.74
555.67	44758.06
555.83	44348.47
556.00	44641.04
556.16	44945.31
556.33	44877.43
556.50	44554.44
556.66	45003.82
556.83	44364.85
556.99	44832.96
557.16	44879.77
557.32	44561.46
557.49	45312.77
557.65	44570.82
557.82	44914.88
557.98	45158.30
558.15	45024.89
558.32	44662.10
558.48	44720.62
558.65	45092.76
558.81	45078.72
558.98	44767.43
559.14	44905.52
559.31	45034.25
559.47	45078.72
559.64	45464.91
559.80	45181.70
559.97	45041.27
560.13	44985.10
560.30	45397.03
560.46	45460.23
560.63	45153.62
560.79	45551.51
560.96	45418.10
561.12	45003.82
561.29	45701.30
561.45	45432.14
561.61	45160.64
561.78	45511.72
561.94	44868.07
562.11	44662.10
562.27	44978.07
562.44	45610.02
562.60	45691.94
562.77	45516.40
562.93	45577.25
563.10	45680.24
563.26	45130.21
563.42	45605.34
563.59	45631.08
563.75	45546.82
563.92	45830.03
564.08	46096.85
564.24	45317.45
564.41	45254.26
564.57	45251.92
564.74	45284.68
564.90	45151.27
565.07	45549.17
565.23	45628.74
565.39	45368.94
565.56	45518.74
565.72	45258.94
565.88	45750.45
566.05	44980.42
566.21	45373.63
566.38	45418.10
566.54	45500.01
566.70	45804.28
566.87	46075.79
567.03	45556.19
567.19	45921.31
567.36	46052.38
567.52	45600.66
567.68	45762.15
567.85	45769.18
568.01	45823.01
568.17	45787.90
568.34	46043.02
568.50	45633.42
568.66	45935.35
568.83	45755.13
568.99	45738.75
569.15	45661.51
569.32	45581.93
569.48	45504.70
569.64	45844.07
569.81	46017.27
569.97	45619.38
570.13	45603.00
570.30	45263.62
570.46	45329.16
570.62	45638.11
570.78	45333.84
570.95	45556.19
571.11	45734.07
571.27	45303.41
571.43	45661.51
571.60	46244.30
571.76	45832.37
571.92	45675.55
572.09	45720.02
572.25	45560.87
572.41	45766.84
572.57	46043.02
572.74	46319.20
572.90	45607.68
573.06	46220.90
573.22	45654.49
573.38	45935.35
573.55	45446.18
573.71	46075.79
573.87	45823.01
574.03	45851.09
574.20	45996.21
574.36	45638.11
574.52	45954.08
574.68	45907.27
574.84	45862.80
575.01	45727.05
575.17	45743.43
575.33	45684.92
575.49	45425.12
575.65	46031.32
575.82	46096.85
575.98	45560.87
576.14	45965.78
576.30	46309.84
576.46	45542.14
576.62	45933.01
576.79	45933.01
576.95	45806.62
577.11	46031.32
577.27	46138.98
577.43	45516.40
577.59	45139.57
577.75	45799.60
577.92	45059.99
578.08	45298.73
578.24	45872.16
578.40	45893.22
578.56	46258.35
578.72	46241.96
578.88	45825.35
579.04	45961.10
579.21	45539.80
579.37	45982.16
579.53	45986.85
579.69	45771.52
579.85	45418.10
580.01	46124.94
580.17	45790.24
580.33	45949.40
580.49	46387.08
580.65	46153.02
580.82	45729.39
580.98	45666.19
581.14	45432.14
581.30	46157.70
581.46	45890.88
581.62	46012.59
581.78	46225.58
581.94	46522.83
582.10	45895.56
582.26	46356.65
582.42	45925.99
582.58	45886.20
582.74	46246.65
582.90	45684.92
583.06	46363.67
583.22	46380.06
583.38	46087.49
583.54	46068.76
583.70	46583.68
583.86	46092.17
584.02	45872.16
584.18	46342.61
584.34	45909.61
584.50	45965.78
584.66	45949.40
584.82	46082.81
584.98	46438.57
585.14	45631.08
585.30	46155.36
585.46	46286.43
585.62	45970.46
585.78	46005.57
585.94	45425.12
586.10	45940.04
586.26	45956.42
586.42	46143.66
586.58	46302.82
586.74	45951.74
586.90	45909.61
587.06	45984.51
587.22	45925.99
587.38	46054.72
587.54	45867.48
587.70	46190.47
587.86	46162.39
588.02	45928.33
588.18	46333.24
588.34	45783.22
588.49	45834.71
588.65	45057.65
588.81	45684.92
588.97	45755.13
589.13	45581.93
589.29	45612.36
589.45	45979.82
589.61	45284.68
589.77	46377.72
589.93	46284.09
590.08	46632.83
