SpectraSuite Data File
++++++++++++++++++++++++++++++++++++
Date: Fri Oct 25 10:47:01 EDT 2013
User: price-jones
Dark Spectrum Present: No
Reference Spectrum Present: No
Number of Sampled Component Spectra: 1
Spectrometers: USB2+H05261
Integration Time (usec): 100000 (USB2+H05261)
Spectra Averaged: 1 (USB2+H05261)
Boxcar Smoothing: 0 (USB2+H05261)
Correct for Electrical Dark: No (USB2+H05261)
Strobe/Lamp Enabled: No (USB2+H05261)
Correct for Detector Non-linearity: No (USB2+H05261)
Correct for Stray Light: No (USB2+H05261)
Number of Pixels in Processed Spectrum: 2048
>>>>>Begin Processed Spectral Data<<<<<
365.73	119.37
365.92	119.37
366.12	119.37
366.32	93.62
366.52	102.98
366.72	25.75
366.91	11.70
367.11	117.03
367.31	0.00
367.51	0.00
367.70	0.00
367.90	93.62
368.10	21.06
368.30	46.81
368.49	28.09
368.69	51.49
368.89	42.13
369.09	16.38
369.28	88.94
369.48	72.56
369.68	128.73
369.87	46.81
370.07	110.01
370.27	117.03
370.47	248.10
370.66	369.80
370.86	397.89
371.06	404.91
371.25	547.69
371.45	418.96
371.65	484.49
371.84	514.92
372.04	503.22
372.24	538.32
372.44	447.04
372.63	477.47
372.83	538.32
373.03	486.83
373.22	535.98
373.42	564.07
373.62	540.66
373.81	528.96
374.01	564.07
374.21	561.73
374.40	601.52
374.60	575.77
374.79	547.69
374.99	528.96
375.19	566.41
375.38	550.03
375.58	582.79
375.78	627.26
375.97	610.88
376.17	648.33
376.37	564.07
376.56	594.50
376.76	589.82
376.95	596.84
377.15	596.84
377.35	568.75
377.54	716.20
377.74	568.75
377.93	636.63
378.13	667.05
378.33	667.05
378.52	594.50
378.72	615.56
378.91	718.54
379.11	592.16
379.31	564.07
379.50	620.24
379.70	669.39
379.89	688.12
380.09	636.63
380.28	702.16
380.48	552.37
380.68	641.31
380.87	643.65
381.07	711.52
381.26	720.88
381.46	718.54
381.65	746.63
381.85	734.93
382.04	603.86
382.24	653.01
382.43	706.84
382.63	699.82
382.83	758.33
383.02	744.29
383.22	849.61
383.41	741.95
383.61	713.86
383.80	791.10
384.00	772.38
384.19	784.08
384.39	645.99
384.58	730.25
384.78	697.48
384.97	741.95
385.17	685.78
385.36	842.59
385.56	737.27
385.75	765.36
385.95	791.10
386.14	816.85
386.34	784.08
386.53	816.85
386.72	826.21
386.92	830.89
387.11	795.78
387.31	814.51
387.50	767.70
387.70	903.45
387.89	814.51
388.09	840.25
388.28	842.59
388.48	882.38
388.67	863.66
388.86	957.28
389.06	851.96
389.25	959.62
389.45	882.38
389.64	898.77
389.84	903.45
390.03	938.55
390.22	1013.45
390.42	870.68
390.61	854.30
390.81	954.94
391.00	971.32
391.19	1004.09
391.39	976.00
391.58	994.73
391.78	990.05
391.97	983.02
392.16	912.81
392.36	1109.41
392.55	919.83
392.75	959.62
392.94	985.37
393.13	891.74
393.33	924.51
393.52	954.94
393.71	1121.12
393.91	1071.97
394.10	1043.88
394.29	1093.03
394.49	1172.61
394.68	1191.33
394.88	1163.25
395.07	1226.44
395.26	1198.35
395.46	1156.22
395.65	1235.80
395.84	1167.93
396.04	1219.42
396.23	1114.10
396.42	1200.69
396.62	1135.16
396.81	1163.25
397.00	1212.40
397.19	1235.80
397.39	1252.19
397.58	1261.55
397.77	1270.91
397.97	1210.06
398.16	1235.80
398.35	1406.66
398.55	1308.36
398.74	1373.89
398.93	1404.32
399.12	1425.39
399.32	1392.62
399.51	1380.92
399.70	1469.86
399.90	1432.41
400.09	1514.33
400.28	1425.39
400.47	1493.26
400.67	1509.65
400.86	1598.59
401.05	1547.09
401.24	1451.13
401.44	1521.35
401.63	1528.37
401.82	1577.52
402.01	1547.09
402.21	1664.12
402.40	1657.10
402.59	1638.38
402.78	1593.90
402.97	1563.48
403.17	1633.69
403.36	1603.27
403.55	1605.61
403.74	1722.63
403.93	1659.44
404.13	1675.82
404.32	1778.81
404.51	1675.82
404.70	1825.62
404.89	1685.19
405.09	1818.60
405.28	1713.27
405.47	1884.13
405.66	1827.96
405.85	1781.15
406.05	1741.36
406.24	1926.26
406.43	1818.60
406.62	1860.73
406.81	1956.69
407.00	1797.53
407.20	1940.30
407.39	1839.66
407.58	1933.28
407.77	2005.84
407.96	1966.05
408.15	2071.37
408.34	2045.63
408.54	2087.76
408.73	2033.93
408.92	2104.14
409.11	2122.87
409.30	2157.97
409.49	2120.53
409.68	2080.74
409.87	2038.61
410.07	2256.28
410.26	2230.53
410.45	2310.11
410.64	2317.13
410.83	2270.32
411.02	2420.11
411.21	2434.16
411.40	2345.22
411.59	2347.56
411.78	2375.64
411.98	2385.01
412.17	2413.09
412.36	2532.46
412.55	2499.69
412.74	2415.43
412.93	2558.21
413.12	2445.86
413.31	2541.82
413.50	2605.02
413.69	2663.53
413.88	2600.34
414.07	2775.88
414.26	2712.68
414.45	2775.88
414.64	2708.00
414.83	2738.43
415.02	2745.45
415.22	2937.37
415.41	2920.99
415.60	2906.95
415.79	2822.69
415.98	3023.97
416.17	2998.23
416.36	2942.05
416.55	3063.76
416.74	3028.65
416.93	2885.88
417.12	2953.76
417.31	3124.62
417.50	3098.87
417.69	3112.91
417.88	3199.51
418.07	3183.13
418.26	3246.32
418.45	3169.09
418.64	3300.16
418.83	3220.58
419.02	3222.92
419.21	3229.94
419.39	3325.90
419.58	3211.22
419.77	3220.58
419.96	3384.41
420.15	3449.95
420.34	3471.01
420.53	3480.38
420.72	3426.54
420.91	3515.48
421.10	3552.93
421.29	3660.60
421.48	3552.93
421.67	3489.74
421.86	3569.32
422.05	3655.92
422.24	3492.08
422.43	3447.61
422.61	3688.68
422.80	3574.00
422.99	3754.22
423.18	3538.89
423.37	3721.45
423.56	3702.73
423.75	3623.15
423.94	3641.87
424.13	3410.16
424.32	3557.61
424.50	3723.79
424.69	3756.56
424.88	3644.21
425.07	3676.98
425.26	3730.81
425.45	3644.21
425.64	3709.75
425.83	3632.51
426.01	3707.41
426.20	3756.56
426.39	3632.51
426.58	3538.89
426.77	3691.02
426.96	3667.62
427.15	3569.32
427.33	3686.34
427.52	3744.86
427.71	3768.26
427.90	3784.65
428.09	3854.86
428.28	3840.82
428.46	3857.20
428.65	3896.99
428.84	3955.51
429.03	3981.25
429.22	3859.54
429.40	3861.88
429.59	3833.80
429.78	3726.13
429.97	3686.34
430.16	3824.44
430.34	3948.48
430.53	3953.16
430.72	4004.66
430.91	3843.16
431.10	3969.55
431.28	4196.58
431.47	4400.21
431.66	4241.05
431.85	4149.77
432.03	4337.01
432.22	4379.14
432.41	4306.59
432.60	4358.08
432.79	4381.48
432.97	4463.40
433.16	4432.97
433.35	4285.52
433.54	4388.50
433.72	4315.95
433.91	4404.89
434.10	4482.13
434.28	4479.79
434.47	4550.00
434.66	4578.09
434.85	4629.58
435.03	4627.24
435.22	4550.00
435.41	4734.90
435.59	4713.84
435.78	4732.56
435.97	4734.90
436.16	4814.48
436.34	4699.80
436.53	4774.69
436.72	4748.95
436.90	4826.18
437.09	4943.21
437.28	4622.56
437.46	4730.22
437.65	4908.10
437.84	4830.87
438.02	4868.31
438.21	4828.53
438.40	4837.89
438.58	4940.87
438.77	5078.96
438.96	5057.90
439.14	5298.97
439.33	5228.76
439.52	5294.29
439.70	5357.49
439.89	5132.79
440.08	5338.76
440.26	5502.60
440.45	5334.08
440.63	5504.94
440.82	5509.62
441.01	5425.36
441.19	5521.32
441.38	5544.73
441.57	5600.90
441.75	5675.80
441.94	5818.57
442.12	5834.96
442.31	5937.94
442.50	5825.59
442.68	5907.51
442.87	6001.13
443.05	5940.28
443.24	6010.50
443.43	6076.03
443.61	5841.98
443.80	6029.22
443.98	5977.73
444.17	5909.85
444.35	5951.98
444.54	6179.01
444.73	6033.90
444.91	6122.84
445.10	5977.73
445.28	6101.78
445.47	5930.92
445.65	6029.22
445.84	6118.16
446.02	6258.59
446.21	6167.31
446.39	6069.01
446.58	6270.30
446.77	6176.67
446.95	6047.94
447.14	6216.46
447.32	6054.97
447.51	6141.57
447.69	6054.97
447.88	6216.46
448.06	6139.23
448.25	6176.67
448.43	6026.88
448.62	6169.65
448.80	6181.35
448.99	6455.20
449.17	6284.34
449.36	6354.55
449.54	6604.99
449.73	6567.54
449.91	6614.35
450.10	6574.56
450.28	6703.29
450.46	6670.53
450.65	6637.76
450.83	6637.76
451.02	6651.80
451.20	6691.59
451.39	6626.06
451.57	6619.04
451.76	6441.15
451.94	6738.40
452.13	6696.27
452.31	6691.59
452.49	6581.59
452.68	6794.58
452.86	6843.73
453.05	6780.53
453.23	6803.94
453.42	6902.24
453.60	6731.38
453.78	6867.13
453.97	6913.94
454.15	6895.22
454.34	6810.96
454.52	7021.61
454.70	7026.29
454.89	7002.88
455.07	6944.37
455.26	7162.04
455.44	7353.96
455.62	6927.99
455.81	7178.42
455.99	7222.89
456.17	7250.98
456.36	7468.65
456.54	7258.00
456.73	7328.22
456.91	7482.69
457.09	7578.65
457.28	7564.61
457.46	7478.01
457.64	7559.93
457.83	7613.76
458.01	7351.62
458.19	7698.02
458.38	7667.60
458.56	7613.76
458.74	7691.00
458.93	7482.69
459.11	7723.77
459.29	7637.17
459.48	7719.09
459.66	7606.74
459.84	7719.09
460.03	7836.11
460.21	7822.07
460.39	8049.10
460.57	8009.31
460.76	7943.78
460.94	7990.59
461.12	8138.04
461.31	7967.18
461.49	7941.44
461.67	7922.71
461.85	8081.87
462.04	7911.01
462.22	8512.53
462.40	8360.39
462.59	8072.51
462.77	8243.37
462.95	8184.85
463.13	8322.94
463.32	8430.61
463.50	8266.77
463.68	8374.44
463.86	8428.27
464.05	8435.29
464.23	8329.97
464.41	8362.73
464.59	8472.74
464.78	8517.21
464.96	8454.02
465.14	8559.34
465.32	8711.47
465.50	8629.56
465.69	8748.92
465.87	8638.92
466.05	8702.11
466.23	8662.32
466.41	8641.26
466.60	8767.65
466.78	8491.46
466.96	8648.28
467.14	8730.20
467.32	8652.96
467.51	8798.07
467.69	8627.21
467.87	8805.10
468.05	9015.74
468.23	8610.83
468.41	8709.13
468.60	8938.51
468.78	9078.94
468.96	9011.06
469.14	9029.79
469.32	8910.42
469.50	8877.65
469.69	9252.14
469.87	9128.09
470.05	9291.93
470.23	9277.88
470.41	9261.50
470.59	9614.92
470.77	9371.50
470.95	9415.98
471.14	9605.56
471.32	9362.14
471.50	9530.66
471.68	9563.43
471.86	9603.22
472.04	9680.46
472.22	9884.08
472.40	9600.88
472.58	9507.26
472.77	9785.78
472.95	9886.42
473.13	10148.56
473.31	9900.47
473.49	9731.95
473.67	9818.55
473.85	9933.23
474.03	10305.38
474.21	10377.94
474.39	10296.02
474.57	10310.06
474.75	10427.09
474.93	10399.00
475.12	10476.24
475.30	10555.82
475.48	10569.86
475.66	10604.97
475.84	10633.05
476.02	10794.55
476.20	10665.82
476.38	10909.24
476.56	11124.57
476.74	11105.84
476.92	11229.89
477.10	11208.83
477.28	11180.74
477.46	11009.88
477.64	11487.35
477.82	11482.67
478.00	11599.70
478.18	11796.30
478.36	11784.60
478.54	12091.21
478.72	11838.43
478.90	11920.35
479.08	12205.89
479.26	12091.21
479.44	12379.09
479.62	12549.95
479.80	12407.18
479.98	12386.12
480.16	12683.36
480.34	12592.08
480.52	12926.78
480.70	12847.20
480.88	12805.07
481.06	12870.61
481.24	13055.51
481.41	13329.35
481.59	13441.70
481.77	13551.70
481.95	13455.74
482.13	13589.15
482.31	13565.74
482.49	13970.66
482.67	13970.66
482.85	14099.39
483.03	14204.71
483.21	14375.57
483.39	14574.52
483.57	14384.93
483.74	14548.77
483.92	14871.76
484.10	14766.44
484.28	14927.94
484.46	15129.22
484.64	15424.13
484.82	15197.10
485.00	15330.51
485.18	15709.68
485.35	15646.48
485.53	15412.43
485.71	15494.35
485.89	15950.75
486.07	15744.78
486.25	15953.09
486.43	16084.16
486.61	15901.60
486.78	16273.74
486.96	16343.96
487.14	16964.20
487.32	16861.22
487.50	16908.03
487.68	17109.32
487.85	17291.88
488.03	17575.08
488.21	17441.67
488.39	17322.30
488.57	17774.03
488.75	17804.46
488.92	18148.51
489.10	18057.23
489.28	18333.42
489.46	18565.13
489.64	18693.86
489.81	18743.01
489.99	18855.36
490.17	19133.88
490.35	19410.06
490.53	19152.60
490.70	19321.12
490.88	19482.62
491.06	19779.87
491.24	19414.74
491.41	19583.26
491.59	19913.28
491.77	19620.71
491.95	19978.81
492.13	20147.33
492.30	20215.21
492.48	20463.30
492.66	20711.40
492.84	20648.21
493.01	20908.01
493.19	20966.52
493.37	20751.19
493.54	21083.55
493.72	21249.72
493.90	21252.06
494.08	21668.68
494.25	21869.97
494.43	22125.08
494.61	21923.80
494.79	22204.66
494.96	22040.82
495.14	22263.18
495.32	22525.32
495.49	22515.95
495.67	22696.17
495.85	22689.15
496.02	23087.04
496.20	22757.03
496.38	23091.73
496.55	23316.42
496.73	23847.72
496.91	23407.70
497.09	23419.40
497.26	23747.08
497.44	23491.96
497.62	23828.99
497.79	24240.93
497.97	23807.93
498.14	23747.08
498.32	24212.84
498.50	24364.98
498.67	24685.63
498.85	24519.45
499.03	24886.92
499.20	24643.50
499.38	24954.79
499.56	25043.73
499.73	24680.95
499.91	25572.69
500.08	25546.95
500.26	25039.05
500.44	25135.01
500.61	25530.56
500.79	25298.85
500.97	25322.26
501.14	25734.19
501.32	25722.49
501.49	25771.64
501.67	25834.83
501.84	26026.76
502.02	26071.23
502.20	26319.32
502.37	26597.85
502.55	26314.64
502.72	26368.48
502.90	26424.65
503.07	26319.32
503.25	26658.70
503.43	26476.14
503.60	26934.88
503.78	26991.06
503.95	26766.37
504.13	27035.53
504.30	27754.07
504.48	27028.51
504.65	27426.40
504.83	27620.66
505.01	27941.32
505.18	27498.95
505.36	28004.51
505.53	27676.83
505.71	28308.78
505.88	28357.93
506.06	27868.76
506.23	28156.64
506.41	28247.93
506.58	28458.57
506.76	28652.84
506.93	28510.07
507.11	28229.20
507.28	28400.06
507.46	28985.19
507.63	28610.71
507.81	28748.80
507.98	28889.23
508.16	28671.56
508.33	29109.24
508.50	29331.59
508.68	29256.70
508.85	29612.46
509.03	29792.68
509.20	29736.51
509.38	29921.41
509.55	29867.58
509.73	30146.10
509.90	29972.90
510.08	29661.61
510.25	30134.40
510.42	29956.52
510.60	30441.01
510.77	30473.78
510.95	30501.86
511.12	30110.99
511.30	30623.57
511.47	30733.57
511.64	30345.05
511.82	31061.25
511.99	30843.58
512.17	30934.86
512.34	31077.63
512.51	31037.84
512.69	31269.56
512.86	31133.81
513.04	31585.53
513.21	30981.67
513.38	31412.33
513.56	31491.91
513.73	31421.69
513.90	31791.50
514.08	31433.39
514.25	31639.36
514.43	31751.71
514.60	31449.78
514.77	31634.68
514.95	32320.46
515.12	32559.19
515.29	32039.59
515.47	32477.27
515.64	32535.79
515.81	32526.42
515.99	32467.91
516.16	32280.67
516.33	32584.94
516.51	32734.73
516.68	31864.05
516.85	32158.96
517.03	32346.20
517.20	32638.77
517.37	32921.98
517.54	32978.15
517.72	32999.21
517.89	33092.83
518.06	32800.27
518.24	33074.11
518.41	33256.67
518.58	33001.55
518.75	32961.76
518.93	33518.81
519.10	33617.11
519.27	33542.22
519.45	33729.46
519.62	33589.03
519.79	33738.82
519.96	33928.41
520.14	34412.90
520.31	34267.78
520.48	34188.21
520.65	33600.73
520.83	34546.31
521.00	34457.37
521.17	34312.25
521.34	34389.49
521.52	34677.38
521.69	34998.03
521.86	34972.28
522.03	34700.78
522.20	34948.88
522.38	35257.83
522.55	34913.77
522.72	34686.74
522.89	34663.33
523.07	35239.11
523.24	35033.14
523.41	35213.36
523.58	35583.16
523.75	35936.59
523.92	35491.88
524.10	35782.11
524.27	35838.28
524.44	35613.59
524.61	36065.31
524.78	36055.95
524.96	35810.20
525.13	36531.08
525.30	36631.72
525.47	36444.48
525.64	36191.70
525.81	36219.79
525.98	36549.81
526.16	36025.53
526.33	36196.38
526.50	36692.58
526.67	36385.97
526.84	36346.18
527.01	36261.92
527.18	36772.16
527.36	36456.18
527.53	36987.49
527.70	37148.98
527.87	36996.85
528.04	36598.96
528.21	37013.23
528.38	36872.80
528.55	37364.31
528.72	37361.97
528.89	37589.00
529.07	37432.19
529.24	37085.79
529.41	37387.72
529.58	37642.84
529.75	37247.29
529.92	37404.10
530.09	37556.24
530.26	37921.36
530.43	37785.61
530.60	37240.26
530.77	37647.52
530.94	38199.88
531.11	37764.54
531.28	37919.02
531.46	38452.66
531.63	38543.94
531.80	37895.61
531.97	38024.34
532.14	37862.85
532.31	37673.26
532.48	38253.72
532.65	38487.77
532.82	38373.08
532.99	38433.94
533.16	38258.40
533.33	38181.16
533.50	38490.11
533.67	39014.39
533.84	38618.84
534.01	38333.29
534.18	38553.30
534.35	39428.66
534.52	39147.80
534.69	39192.27
534.86	39264.83
535.03	39065.88
535.20	39012.05
535.37	39435.69
535.54	39737.62
535.71	39075.24
535.88	39243.76
536.05	39342.06
536.22	39445.05
536.38	39629.95
536.55	39178.23
536.72	39349.09
536.89	39040.14
537.06	39541.01
537.23	39679.10
537.40	39470.79
537.57	39667.40
537.74	39398.24
537.91	39775.06
538.08	39952.94
538.25	39754.00
538.42	39508.24
538.59	39995.07
538.75	39335.04
538.92	40112.10
539.09	39906.13
539.26	40034.86
539.43	40170.61
539.60	39702.51
539.77	40030.18
539.94	40411.69
540.11	39990.39
540.28	40034.86
540.44	39803.15
540.61	40154.23
540.78	40130.83
540.95	40208.06
541.12	40509.99
541.29	40114.44
541.46	40004.44
541.62	40645.74
541.79	40732.34
541.96	40336.79
542.13	40545.10
542.30	41130.23
542.47	40797.88
542.63	40624.68
542.80	40666.81
542.97	41305.77
543.14	41574.94
543.31	41591.32
543.48	41432.16
543.64	41752.82
543.81	41352.58
543.98	41614.72
544.15	41507.06
544.32	41755.16
544.48	41727.07
544.65	41420.46
544.82	41780.90
544.99	41202.79
545.16	41500.04
545.32	41668.56
545.49	42007.94
545.66	41818.35
545.83	41680.26
546.00	42012.62
546.16	41832.39
546.33	41827.71
546.50	41680.26
546.67	42155.39
546.83	41392.37
547.00	41792.61
547.17	42075.81
547.34	41830.05
547.50	41888.57
547.67	42251.35
547.84	42169.43
548.00	41958.78
548.17	42295.82
548.34	42480.72
548.51	42501.79
548.67	42536.90
548.84	42464.34
549.01	42471.36
549.18	42478.38
549.34	42770.95
549.51	42522.85
549.68	43040.11
549.84	42845.85
550.01	43133.73
550.18	42625.84
550.34	43002.66
550.51	42892.66
550.68	42564.98
550.84	42759.25
551.01	42967.55
551.18	42600.09
551.34	42663.28
551.51	42962.87
551.68	42899.68
551.84	43105.65
552.01	42902.02
552.18	43105.65
552.34	42527.53
552.51	43075.22
552.68	43051.81
552.84	43154.80
553.01	43653.33
553.18	43283.53
553.34	43145.44
553.51	42827.12
553.67	43363.11
553.84	43711.84
554.01	43629.93
554.17	43594.82
554.34	43295.23
554.51	43477.79
554.67	43388.85
554.84	43863.98
555.00	43290.55
555.17	43398.21
555.33	43583.12
555.50	43365.45
555.67	43777.38
555.83	43512.90
556.00	43791.42
556.16	44369.54
556.33	44140.16
556.50	43388.85
556.66	43873.34
556.83	43777.38
556.99	44105.06
557.16	44023.14
557.32	44079.31
557.49	44020.80
557.65	43761.00
557.82	43749.29
557.98	43910.79
558.15	43833.55
558.32	43920.15
558.48	43845.26
558.65	44058.24
558.81	43985.69
558.98	44388.26
559.14	44105.06
559.31	43992.71
559.47	43908.45
559.64	44425.71
559.80	44626.99
559.97	44488.90
560.13	43906.11
560.30	44076.97
560.46	44306.34
560.63	44128.46
560.79	44058.24
560.96	44655.08
561.12	44566.14
561.29	44591.89
561.45	44421.03
561.61	44547.42
561.78	44959.35
561.94	44098.03
562.11	44430.39
562.27	44194.00
562.44	43971.64
562.60	44472.52
562.77	44776.79
562.93	44753.38
563.10	44414.01
563.26	44360.17
563.42	44823.60
563.59	44528.69
563.75	44514.65
563.92	44348.47
564.08	44837.64
564.24	44598.91
564.41	44582.52
564.57	44732.32
564.74	44781.47
564.90	45006.16
565.07	45137.23
565.23	44406.98
565.39	44713.59
565.56	45048.29
565.72	44669.12
565.88	45057.65
566.05	45038.93
566.21	44610.61
566.38	44781.47
566.54	44563.80
566.70	45165.32
566.87	45237.87
567.03	44690.19
567.19	45375.97
567.36	44800.19
567.52	44872.75
567.68	45109.14
567.85	44715.93
568.01	44921.90
568.17	44685.51
568.34	44659.76
568.50	45106.80
568.66	44765.09
568.83	45336.18
568.99	44835.30
569.15	44589.55
569.32	44966.37
569.48	44811.90
569.64	45429.80
569.81	44774.45
569.97	45071.70
570.13	44931.26
570.30	45095.10
570.46	44650.40
570.62	44545.08
570.78	44538.05
570.95	45125.53
571.11	45425.12
571.27	45195.74
571.43	44854.03
571.60	45034.25
571.76	44701.89
571.92	45186.38
572.09	44947.65
572.25	44928.92
572.41	45235.53
572.57	45193.40
572.74	45488.31
572.90	45270.64
573.06	45385.33
573.22	45354.90
573.38	44823.60
573.55	44577.84
573.71	45280.00
573.87	44865.73
574.03	45045.95
574.20	45214.47
574.36	45268.30
574.52	45223.83
574.68	44949.99
574.84	45006.16
575.01	44942.97
575.17	45090.42
575.33	45338.52
575.49	44851.69
575.65	45427.46
575.82	45675.55
575.98	45223.83
576.14	45881.52
576.30	45762.15
576.46	45095.10
576.62	44755.72
576.79	44648.06
576.95	45001.48
577.11	45268.30
577.27	45146.59
577.43	44931.26
577.59	45380.65
577.75	45031.91
577.92	45067.02
578.08	44863.39
578.24	45109.14
578.40	44610.61
578.56	45572.57
578.72	45397.03
578.88	45626.40
579.04	45155.96
579.21	45329.16
579.37	45497.67
579.53	45350.22
579.69	44954.67
579.85	45722.37
580.01	45272.98
580.17	45256.60
580.33	45804.28
580.49	45385.33
580.65	45411.07
580.82	45539.80
580.98	45537.46
581.14	45144.25
581.30	45450.86
581.46	45074.04
581.62	45045.95
581.78	45106.80
581.94	45645.13
582.10	45193.40
582.26	45280.00
582.42	45368.94
582.58	45298.73
582.74	45207.45
582.90	45158.30
583.06	45483.63
583.22	45446.18
583.38	45619.38
583.54	45116.17
583.70	45411.07
583.86	45172.34
584.02	45214.47
584.18	45207.45
584.34	45792.58
584.50	45560.87
584.66	45631.08
584.82	45427.46
584.98	45715.34
585.14	45670.87
585.30	45130.21
585.46	45518.74
585.62	45104.46
585.78	45680.24
585.94	45034.25
586.10	45275.32
586.26	45102.12
586.42	45567.89
586.58	45460.23
586.74	45179.36
586.90	45544.48
587.06	45628.74
587.22	45696.62
587.38	45024.89
587.54	45354.90
587.70	45553.85
587.86	45521.08
588.02	44912.54
588.18	45710.66
588.34	45532.78
588.49	44982.76
588.65	45137.23
588.81	45137.23
588.97	45064.67
589.13	45148.93
589.29	45595.98
589.45	45387.67
589.61	45406.39
589.77	45312.77
589.93	45558.53
590.08	45577.25
590.24	45659.17
