SpectraSuite Data File
++++++++++++++++++++++++++++++++++++
Date: Fri Oct 25 11:33:52 EDT 2013
User: price-jones
Dark Spectrum Present: No
Reference Spectrum Present: No
Number of Sampled Component Spectra: 1
Spectrometers: USB2+H05261
Integration Time (usec): 100000 (USB2+H05261)
Spectra Averaged: 1 (USB2+H05261)
Boxcar Smoothing: 0 (USB2+H05261)
Correct for Electrical Dark: No (USB2+H05261)
Strobe/Lamp Enabled: No (USB2+H05261)
Correct for Detector Non-linearity: No (USB2+H05261)
Correct for Stray Light: No (USB2+H05261)
Number of Pixels in Processed Spectrum: 2048
>>>>>Begin Processed Spectral Data<<<<<
365.73	285.55
365.92	285.55
366.12	285.55
366.32	208.31
366.52	117.03
366.72	147.45
366.91	187.24
367.11	138.09
367.31	210.65
367.51	173.20
367.70	203.63
367.90	173.20
368.10	161.50
368.30	145.11
368.49	175.54
368.69	166.18
368.89	175.54
369.09	161.50
369.28	210.65
369.48	210.65
369.68	229.37
369.87	250.44
370.07	231.71
370.27	351.08
370.47	327.68
370.66	500.87
370.86	482.15
371.06	538.32
371.25	540.66
371.45	554.71
371.65	592.16
371.84	510.24
372.04	573.43
372.24	634.29
372.44	606.20
372.63	580.45
372.83	585.13
373.03	587.47
373.22	582.79
373.42	631.94
373.62	606.20
373.81	524.28
374.01	645.99
374.21	610.88
374.40	620.24
374.60	638.97
374.79	716.20
374.99	676.41
375.19	629.60
375.38	695.14
375.58	692.80
375.78	667.05
375.97	732.59
376.17	669.39
376.37	697.48
376.56	692.80
376.76	706.84
376.95	653.01
377.15	662.37
377.35	699.82
377.54	629.60
377.74	615.56
377.93	676.41
378.13	751.31
378.33	664.71
378.52	753.65
378.72	706.84
378.91	720.88
379.11	748.97
379.31	697.48
379.50	690.46
379.70	767.70
379.89	779.40
380.09	692.80
380.28	744.29
380.48	751.31
380.68	737.27
380.87	713.86
381.07	655.35
381.26	760.67
381.46	753.65
381.65	744.29
381.85	734.93
382.04	763.01
382.24	777.06
382.43	805.14
382.63	833.23
382.83	793.44
383.02	840.25
383.22	823.87
383.41	748.97
383.61	793.44
383.80	844.93
384.00	786.42
384.19	837.91
384.39	828.55
384.58	746.63
384.78	854.30
384.97	924.51
385.17	791.10
385.36	805.14
385.56	830.89
385.75	863.66
385.95	880.04
386.14	891.74
386.34	875.36
386.53	842.59
386.72	875.36
386.92	873.02
387.11	877.70
387.31	954.94
387.50	774.72
387.70	898.77
387.89	837.91
388.09	950.26
388.28	854.30
388.48	786.42
388.67	915.15
388.86	961.96
389.06	973.66
389.25	959.62
389.45	947.92
389.64	880.04
389.84	980.68
390.03	1018.13
390.22	938.55
390.42	884.72
390.61	943.24
390.81	957.28
391.00	1018.13
391.19	1036.86
391.39	938.55
391.58	983.02
391.78	980.68
391.97	1011.11
392.16	994.73
392.36	1121.12
392.55	966.64
392.75	1090.69
392.94	1032.18
393.13	1123.46
393.33	1032.18
393.52	1095.37
393.71	1076.65
393.91	1132.82
394.10	1046.22
394.29	1067.28
394.49	1046.22
394.68	1167.93
394.88	1135.16
395.07	1132.82
395.26	1086.01
395.46	1167.93
395.65	1254.53
395.84	1137.50
396.04	1200.69
396.23	1163.25
396.42	1226.44
396.62	1188.99
396.81	1217.08
397.00	1242.82
397.19	1270.91
397.39	1196.01
397.58	1263.89
397.77	1282.61
397.97	1219.42
398.16	1217.08
398.35	1275.59
398.55	1294.32
398.74	1343.47
398.93	1366.87
399.12	1221.76
399.32	1317.72
399.51	1329.42
399.70	1270.91
399.90	1282.61
400.09	1301.34
400.28	1329.42
400.47	1385.60
400.67	1516.67
400.86	1469.86
401.05	1369.21
401.24	1355.17
401.44	1432.41
401.63	1458.15
401.82	1406.66
402.01	1497.94
402.21	1488.58
402.40	1490.92
402.59	1427.73
402.78	1500.28
402.97	1458.15
403.17	1579.86
403.36	1479.22
403.55	1469.86
403.74	1586.88
403.93	1600.93
404.13	1526.03
404.32	1624.33
404.51	1586.88
404.70	1626.67
404.89	1624.33
405.09	1614.97
405.28	1823.28
405.47	1591.56
405.66	1732.00
405.85	1685.19
406.05	1755.40
406.24	1603.27
406.43	1769.44
406.62	1732.00
406.81	1795.19
407.00	1809.23
407.20	1734.34
407.39	1764.76
407.58	1942.64
407.77	1872.43
407.96	1884.13
408.15	1893.49
408.34	1849.02
408.54	1926.26
408.73	1825.62
408.92	1968.39
409.11	1907.54
409.30	1944.99
409.49	1961.37
409.68	1940.30
409.87	1989.46
410.07	2076.06
410.26	2115.84
410.45	2129.89
410.64	2169.68
410.83	2115.84
411.02	2143.93
411.21	2202.44
411.40	2275.00
411.59	2370.96
411.78	2160.31
411.98	2174.36
412.17	2118.18
412.36	2279.68
412.55	2202.44
412.74	2291.38
412.93	2312.45
413.12	2296.07
413.31	2389.69
413.50	2396.71
413.69	2347.56
413.88	2427.14
414.07	2478.63
414.26	2368.62
414.45	2495.01
414.64	2558.21
414.83	2483.31
415.02	2562.89
415.22	2590.97
415.41	2609.70
415.60	2665.87
415.79	2675.23
415.98	2761.83
416.17	2712.68
416.36	2616.72
416.55	2768.85
416.74	2813.32
416.93	2712.68
417.12	2820.35
417.31	2881.20
417.50	2810.98
417.69	2960.78
417.88	2878.86
418.07	2902.26
418.26	2883.54
418.45	2991.20
418.64	2963.12
418.83	3005.25
419.02	3042.70
419.21	3243.98
419.39	3094.19
419.58	3066.10
419.77	2974.82
419.96	3045.04
420.15	3178.45
420.34	3222.92
420.53	3304.84
420.72	3297.81
420.91	3098.87
421.10	3206.53
421.29	3407.82
421.48	3185.47
421.67	3332.92
421.86	3246.32
422.05	3307.18
422.24	3398.46
422.43	3274.41
422.61	3361.01
422.80	3424.20
422.99	3445.27
423.18	3325.90
423.37	3487.40
423.56	3323.56
423.75	3342.28
423.94	3351.65
424.13	3213.56
424.32	3309.52
424.50	3349.31
424.69	3480.38
424.88	3510.80
425.07	3426.54
425.26	3412.50
425.45	3487.40
425.64	3393.78
425.83	3398.46
426.01	3550.59
426.20	3454.63
426.39	3494.42
426.58	3463.99
426.77	3478.04
426.96	3461.65
427.15	3499.10
427.33	3501.44
427.52	3524.85
427.71	3735.50
427.90	3463.99
428.09	3611.45
428.28	3648.90
428.46	3646.55
428.65	3585.70
428.84	3791.67
429.03	3735.50
429.22	3625.49
429.40	3716.77
429.59	3808.05
429.78	3709.75
429.97	3721.45
430.16	3882.95
430.34	3831.46
430.53	3791.67
430.72	3896.99
430.91	3894.65
431.10	3779.97
431.28	3946.14
431.47	4035.08
431.66	3985.93
431.85	4014.02
432.03	4142.75
432.22	4156.79
432.41	3932.10
432.60	4039.76
432.79	3988.27
432.97	4021.04
433.16	4217.65
433.35	4084.23
433.54	4102.96
433.72	4173.18
433.91	4292.54
434.10	4142.75
434.28	4131.05
434.47	4170.83
434.66	4329.99
434.85	4355.74
435.03	4322.97
435.22	4337.01
435.41	4367.44
435.59	4334.67
435.78	4383.82
435.97	4421.27
436.16	4383.82
436.34	4472.76
436.53	4423.61
436.72	4528.94
436.90	4430.63
437.09	4428.29
437.28	4428.29
437.46	4580.43
437.65	4535.96
437.84	4472.76
438.02	4496.17
438.21	4645.96
438.40	4697.46
438.58	4702.14
438.77	4828.53
438.96	4823.84
439.14	4891.72
439.33	4798.10
439.52	4919.81
439.70	5041.51
439.89	5043.85
440.08	4933.85
440.26	5022.79
440.45	4912.78
440.63	5097.69
440.82	5228.76
441.01	5083.64
441.19	5034.49
441.38	5240.46
441.57	5093.01
441.75	5334.08
441.94	5437.06
442.12	5451.11
442.31	5570.48
442.50	5504.94
442.68	5322.38
442.87	5390.25
443.05	5556.43
443.24	5621.97
443.43	5446.43
443.61	5558.77
443.80	5736.65
443.98	5561.11
444.17	5376.21
444.35	5514.30
444.54	5593.88
444.73	5472.17
444.91	5741.33
445.10	5631.33
445.28	5661.76
445.47	5518.98
445.65	5626.65
445.84	5544.73
446.02	5839.64
446.21	5820.91
446.39	5792.83
446.58	6045.60
446.77	5729.63
446.95	5696.86
447.14	5720.27
447.32	5792.83
447.51	5685.16
447.69	5661.76
447.88	5872.40
448.06	5877.09
448.25	5708.57
448.43	5741.33
448.62	5699.20
448.80	5701.54
448.99	5799.85
449.17	5928.58
449.36	5792.83
449.54	5921.56
449.73	6026.88
449.91	5963.68
450.10	6193.06
450.28	5959.00
450.46	6064.33
450.65	6090.07
450.83	6047.94
451.02	6090.07
451.20	6017.52
451.39	6153.27
451.57	6190.72
451.76	6071.35
451.94	6265.61
452.13	6373.28
452.31	6164.97
452.49	6164.97
452.68	6415.41
452.86	6415.41
453.05	6349.87
453.23	6256.25
453.42	6370.94
453.60	6408.39
453.78	6328.81
453.97	6335.83
454.15	6434.13
454.34	6370.94
454.52	6600.31
454.70	6555.84
454.89	6537.12
455.07	6588.61
455.26	6626.06
455.44	6677.55
455.62	6740.74
455.81	6656.48
455.99	6825.00
456.17	6656.48
456.36	6745.42
456.54	6836.70
456.73	6832.02
456.91	6848.41
457.09	6967.77
457.28	6956.07
457.46	6951.39
457.64	7002.88
457.83	7016.93
458.01	7056.72
458.19	7117.57
458.38	6960.75
458.56	7033.31
458.74	7157.36
458.93	7056.72
459.11	7155.02
459.29	7035.65
459.48	7169.06
459.66	7218.21
459.84	7391.41
460.03	7435.88
460.21	7309.49
460.39	7492.05
460.57	7482.69
460.76	7576.31
460.94	7637.17
461.12	7442.90
461.31	7599.72
461.49	7475.67
461.67	7473.33
461.85	7721.43
462.04	7555.25
462.22	7903.99
462.40	7810.37
462.59	7801.01
462.77	7805.69
462.95	7737.81
463.13	7522.48
463.32	7646.53
463.50	7955.48
463.68	7922.71
463.86	7833.77
464.05	7751.85
464.23	7831.43
464.41	7957.82
464.59	7733.13
464.78	8051.44
464.96	7932.08
465.14	7754.19
465.32	7974.21
465.50	8105.28
465.69	8049.10
465.87	7974.21
466.05	8131.02
466.23	8126.34
466.41	8124.00
466.60	8432.95
466.78	7960.16
466.96	8140.38
467.14	8208.26
467.32	8264.43
467.51	8437.63
467.69	8194.22
467.87	8243.37
468.05	8397.84
468.23	8212.94
468.41	8332.31
468.60	8372.10
468.78	8430.61
468.96	8196.56
469.14	8568.70
469.32	8652.96
469.50	8557.00
469.69	8788.71
469.87	8744.24
470.05	8727.86
470.23	8685.73
470.41	8905.74
470.59	8809.78
470.77	8964.25
470.95	8690.41
471.14	8823.82
471.32	8587.43
471.50	9025.11
471.68	8872.97
471.86	8887.01
472.04	9210.01
472.22	9224.05
472.40	9055.53
472.58	9238.09
472.77	9205.33
472.95	9268.52
473.13	9870.04
473.31	9413.63
473.49	9479.17
473.67	9418.32
473.85	9547.05
474.03	9743.65
474.21	9708.54
474.39	9785.78
474.57	9748.33
474.75	9930.89
474.93	9893.44
475.12	9799.82
475.30	10120.48
475.48	9921.53
475.66	9919.19
475.84	9923.87
476.02	10019.83
476.20	10307.72
476.38	10387.30
476.56	10588.58
476.74	10186.01
476.92	10256.23
477.10	10443.47
477.28	10640.08
477.46	10633.05
477.64	10729.02
477.82	10927.96
478.00	11117.54
478.18	11190.10
478.36	11190.10
478.54	11377.34
478.72	11171.38
478.90	11253.30
479.08	11618.42
479.26	11435.86
479.44	11573.95
479.62	11922.69
479.80	11716.72
479.98	11889.92
480.16	12306.54
480.34	12016.31
480.52	12184.83
480.70	12248.02
480.88	12297.17
481.06	12496.12
481.24	12348.67
481.41	12641.23
481.59	12774.64
481.77	12929.12
481.95	12910.40
482.13	12877.63
482.31	12978.27
482.49	13102.32
482.67	13287.22
482.85	13558.72
483.03	13462.76
483.21	13671.07
483.39	13617.24
483.57	13680.43
483.74	13755.33
483.92	13923.85
484.10	13886.40
484.28	14232.80
484.46	14455.15
484.64	14621.33
484.82	14537.07
485.00	14696.22
485.18	15126.88
485.35	15049.64
485.53	14930.28
485.71	15222.84
485.89	15286.04
486.07	15377.32
486.25	15246.25
486.43	15646.48
486.61	15845.43
486.78	15903.94
486.96	15697.97
487.14	16137.99
487.32	16147.36
487.50	16079.48
487.68	15955.43
487.85	16545.25
488.03	16648.23
488.21	16807.39
488.39	16816.75
488.57	17097.61
488.75	17214.64
488.92	17156.13
489.10	17542.32
489.28	17525.93
489.46	17547.00
489.64	17521.25
489.81	18141.49
489.99	18139.15
490.17	18136.81
490.35	18405.97
490.53	18750.03
490.70	18354.48
490.88	18415.34
491.06	18834.29
491.24	18822.59
491.41	19267.29
491.59	19353.89
491.77	19096.43
491.95	19367.93
492.13	19351.55
492.30	19541.13
492.48	19660.50
492.66	19693.27
492.84	19857.10
493.01	20346.28
493.19	19810.29
493.37	20292.44
493.54	20416.49
493.72	20779.28
493.90	20348.62
494.08	20723.10
494.25	20812.04
494.43	20924.39
494.61	21092.91
494.79	21298.88
494.96	21310.58
495.14	20999.29
495.32	21759.96
495.49	21757.62
495.67	21682.72
495.85	21867.63
496.02	22267.86
496.20	21998.70
496.38	22321.69
496.55	22216.36
496.73	22902.14
496.91	22740.64
497.09	22878.74
497.26	22799.16
497.44	22855.33
497.62	23215.77
497.79	23147.90
497.97	23314.08
498.14	23812.61
498.32	23679.20
498.50	23529.41
498.67	23978.79
498.85	23576.22
499.03	23894.53
499.20	24231.57
499.38	24163.69
499.56	24198.80
499.73	24184.76
499.91	24381.36
500.08	24830.74
500.26	24624.78
500.44	24748.82
500.61	24636.48
500.79	24917.34
500.97	25106.93
501.14	24989.90
501.32	25277.79
501.49	25097.56
501.67	24947.77
501.84	25631.21
502.02	25291.83
502.20	25591.42
502.37	25495.46
502.55	25621.84
502.72	25876.96
502.90	25731.85
503.07	26188.25
503.25	26164.85
503.43	25876.96
503.60	26522.95
503.78	26480.82
503.95	26522.95
504.13	26431.67
504.30	26649.34
504.48	26867.01
504.65	26665.72
504.83	26874.03
505.01	27108.08
505.18	26899.78
505.36	27035.53
505.53	26855.31
505.71	27122.13
505.88	27311.71
506.06	27253.20
506.23	27634.71
506.41	27658.11
506.58	27716.62
506.76	27433.42
506.93	28079.41
507.11	27709.60
507.28	28151.96
507.46	27838.33
507.63	28364.95
507.81	28437.51
507.98	27810.25
508.16	28606.03
508.33	28500.70
508.50	28442.19
508.68	28458.57
508.85	28865.83
509.03	28701.99
509.20	28774.55
509.38	29521.18
509.55	29614.80
509.73	29406.49
509.90	29589.05
510.08	29373.72
510.25	29383.09
510.42	29659.27
510.60	29841.83
510.77	29532.88
510.95	30078.22
511.12	29820.77
511.30	30059.50
511.47	29900.34
511.64	29951.84
511.82	30064.18
511.99	30244.40
512.17	30401.22
512.34	30885.71
512.51	30740.60
512.69	30457.39
512.86	30972.31
513.04	30958.27
513.21	30859.96
513.38	31124.44
513.56	30991.03
513.73	31122.10
513.90	30707.83
514.08	31215.72
514.25	31456.80
514.43	31182.96
514.60	31487.23
514.77	31328.07
514.95	31920.23
515.12	31442.76
515.29	31714.26
515.47	31737.66
515.64	31637.02
515.81	31653.40
515.99	32210.45
516.16	32173.00
516.33	32006.83
516.51	32451.53
516.68	32123.85
516.85	32128.53
517.03	32313.44
517.20	32718.35
517.37	32535.79
517.54	32830.69
517.72	32521.74
517.89	33158.37
518.06	33060.07
518.24	32641.11
518.41	32933.68
518.58	33001.55
518.75	33008.58
518.93	33254.33
519.10	33139.65
519.27	33242.63
519.45	33116.24
519.62	33483.70
519.79	33907.34
519.96	33530.51
520.14	33495.41
520.31	33670.95
520.48	34057.14
520.65	33687.33
520.83	34314.59
521.00	34185.86
521.17	33846.49
521.34	34595.46
521.52	34260.76
521.69	34235.02
521.86	34347.36
522.03	34848.24
522.20	34761.64
522.38	34998.03
522.55	34368.43
522.72	35033.14
522.89	35124.42
523.07	35416.99
523.24	34955.90
523.41	35182.93
523.58	34782.70
523.75	35051.86
523.92	35218.04
524.10	35421.67
524.27	35667.42
524.44	35646.36
524.61	35672.10
524.78	35543.38
524.96	35749.34
525.13	36060.63
525.30	35805.52
525.47	35775.09
525.64	35756.36
525.81	36268.94
525.98	36119.15
526.16	36163.62
526.33	35992.76
526.50	36327.45
526.67	35976.37
526.84	36474.91
527.01	36418.74
527.18	36470.23
527.36	37013.23
527.53	36741.73
527.70	37497.72
527.87	37092.81
528.04	36753.43
528.21	37193.45
528.38	36737.05
528.55	37184.09
528.72	36935.99
528.89	37001.53
529.07	37418.14
529.24	36676.19
529.41	37319.84
529.58	37223.88
529.75	37111.53
529.92	37691.99
530.09	37404.10
530.26	37411.12
530.43	37502.40
530.60	37460.27
530.77	37675.60
530.94	37872.21
531.11	37600.71
531.28	37670.92
531.46	37844.12
531.63	38230.31
531.80	37514.11
531.97	37869.87
532.14	38712.46
532.31	37860.51
532.48	38721.82
532.65	38476.07
532.82	38061.79
532.99	38349.68
533.16	38710.12
533.33	38459.68
533.50	38581.39
533.67	38382.45
533.84	38433.94
534.01	38323.93
534.18	38345.00
534.35	39475.48
534.52	38876.30
534.69	39150.14
534.86	39201.63
535.03	38862.26
535.20	39187.59
535.37	39290.57
535.54	39515.26
535.71	39505.90
535.88	39838.26
536.05	39470.79
536.22	39700.17
536.38	39402.92
536.55	39508.24
536.72	39690.80
536.89	39625.27
537.06	39674.42
537.23	40165.93
537.40	39402.92
537.57	39847.62
537.74	39526.97
537.91	40039.54
538.08	39833.58
538.25	39585.48
538.42	40053.59
538.59	40201.04
538.75	39978.69
538.92	40418.71
539.09	40172.96
539.26	40460.84
539.43	40589.57
539.60	40280.62
539.77	39927.20
539.94	40748.73
540.11	40381.26
540.28	40074.65
540.44	40570.85
540.61	40811.92
540.78	40357.86
540.95	41041.29
541.12	40800.22
541.29	40722.98
541.46	41113.85
541.62	40954.69
541.79	40933.63
541.96	40769.79
542.13	40786.18
542.30	41230.88
542.47	41209.81
542.63	41408.76
542.80	41406.42
542.97	41598.34
543.14	42073.47
543.31	41698.98
543.48	41818.35
543.64	42380.08
543.81	41769.20
543.98	41354.93
544.15	42036.02
544.32	42019.64
544.48	42326.25
544.65	41954.10
544.82	41673.24
544.99	41881.55
545.16	42059.43
545.32	42134.32
545.49	42724.14
545.66	42579.03
545.83	42197.52
546.00	42319.23
546.16	42234.97
546.33	42167.09
546.50	42043.04
546.67	42424.55
546.83	42082.83
547.00	42422.21
547.17	42593.07
547.34	42792.01
547.50	42934.79
547.67	42780.31
547.84	42623.50
548.00	42756.91
548.17	43126.71
548.34	42911.38
548.51	42937.13
548.67	42939.47
548.84	43234.38
549.01	43225.01
549.18	42883.30
549.34	43112.67
549.51	43578.43
549.68	43871.00
549.84	42958.19
550.01	43349.06
550.18	42974.58
550.34	43295.23
550.51	43379.49
550.68	43594.82
550.84	43012.02
551.01	43665.03
551.18	43021.39
551.34	43585.46
551.51	43697.80
551.68	43522.26
551.84	43346.72
552.01	43562.05
552.18	43660.35
552.34	43477.79
552.51	43863.98
552.68	43646.31
552.84	43667.37
553.01	44114.42
553.18	43856.96
553.34	44348.47
553.51	43744.61
553.67	44219.74
553.84	44062.93
554.01	44392.94
554.17	44217.40
554.34	44250.17
554.51	43973.98
554.67	44638.70
554.84	44280.60
555.00	44388.26
555.17	44219.74
555.33	44617.63
555.50	44561.46
555.67	44383.58
555.83	44334.43
556.00	44683.17
556.16	45020.20
556.33	44875.09
556.50	45048.29
556.66	44594.23
556.83	44348.47
556.99	45109.14
557.16	44839.98
557.32	45155.96
557.49	45017.86
557.65	44758.06
557.82	44699.55
557.98	44973.39
558.15	44631.68
558.32	44856.37
558.48	44952.33
558.65	45284.68
558.81	45165.32
558.98	45165.32
559.14	45076.38
559.31	44919.56
559.47	44842.32
559.64	45394.69
559.80	44910.20
559.97	45216.81
560.13	44954.67
560.30	45394.69
560.46	45336.18
560.63	45553.85
560.79	45404.05
560.96	45500.01
561.12	45544.48
561.29	45102.12
561.45	45315.11
561.61	45052.97
561.78	45617.04
561.94	45287.03
562.11	45439.16
562.27	45287.03
562.44	45481.29
562.60	45677.90
562.77	45469.59
562.93	45579.59
563.10	46258.35
563.26	46007.91
563.42	46036.00
563.59	45340.86
563.75	45481.29
563.92	45996.21
564.08	45460.23
564.24	45851.09
564.41	45619.38
564.57	45406.39
564.74	46181.11
564.90	45738.75
565.07	45560.87
565.23	45684.92
565.39	45703.64
565.56	45921.31
565.72	45867.48
565.88	46007.91
566.05	45560.87
566.21	46103.87
566.38	46375.37
566.54	45748.11
566.70	45902.59
566.87	45865.14
567.03	45820.67
567.19	46717.09
567.36	46171.75
567.52	46010.25
567.68	46323.88
567.85	46153.02
568.01	46485.38
568.17	46553.26
568.34	46349.63
568.50	46459.63
568.66	45886.20
568.83	46124.94
568.99	46452.61
569.15	46412.82
569.32	46396.44
569.48	46246.65
569.64	46454.95
569.81	46777.95
569.97	46337.93
570.13	46447.93
570.30	46155.36
570.46	46590.70
570.62	46557.94
570.78	46171.75
570.95	46621.13
571.11	46539.21
571.27	46447.93
571.43	46192.81
571.60	46506.44
571.76	46101.53
571.92	46607.09
572.09	46349.63
572.25	46253.67
572.41	46391.76
572.57	46600.07
572.74	46930.08
572.90	46593.04
573.06	46796.67
573.22	46593.04
573.38	46370.69
573.55	46976.89
573.71	46719.43
573.87	47143.07
574.03	46684.33
574.20	47089.24
574.36	46494.74
574.52	47056.47
574.68	46838.80
574.84	46855.18
575.01	46958.17
575.17	47063.49
575.33	46714.75
575.49	46857.52
575.65	46759.22
575.82	46637.51
575.98	46593.04
576.14	47047.11
576.30	46742.84
576.46	47093.92
576.62	46916.04
576.79	46981.57
576.95	46681.98
577.11	46700.71
577.27	47023.70
577.43	46628.15
577.59	46789.65
577.75	46815.40
577.92	46841.14
578.08	46534.53
578.24	47012.00
578.40	47030.72
578.56	46808.37
578.72	46824.76
578.88	47164.14
579.04	47292.86
579.21	46787.31
579.37	47276.48
579.53	47065.83
579.69	46972.21
579.85	47079.88
580.01	46696.03
580.17	47229.67
580.33	47168.82
580.49	46855.18
580.65	47276.48
580.82	46997.96
580.98	46604.75
581.14	46349.63
581.30	46801.35
581.46	46691.35
581.62	46782.63
581.78	47234.35
581.94	47082.22
582.10	46801.35
582.26	47421.59
582.42	46866.89
582.58	47384.15
582.74	47131.37
582.90	47058.81
583.06	47117.32
583.22	46763.90
583.38	47227.33
583.54	47084.56
583.70	47157.11
583.86	47437.98
584.02	46806.03
584.18	47435.64
584.34	47489.47
584.50	47323.29
584.66	47550.32
584.82	47494.15
584.98	47227.33
585.14	47150.09
585.30	47274.14
585.46	47234.35
585.62	47372.44
585.78	47346.70
585.94	46974.55
586.10	47297.55
586.26	46712.41
586.42	46925.40
586.58	47349.04
586.74	47072.85
586.90	47056.47
587.06	47423.93
587.22	47117.32
587.38	47358.40
587.54	47721.18
587.70	47660.33
587.86	47391.17
588.02	47269.46
588.18	47035.41
588.34	47482.45
588.49	47093.92
588.65	47264.78
588.81	47124.35
588.97	47700.12
589.13	46880.93
589.29	47292.86
589.45	47547.98
589.61	47119.66
589.77	47384.15
589.93	47168.82
590.08	47367.76
