SpectraSuite Data File
++++++++++++++++++++++++++++++++++++
Date: Fri Oct 25 11:26:32 EDT 2013
User: price-jones
Dark Spectrum Present: No
Reference Spectrum Present: No
Number of Sampled Component Spectra: 1
Spectrometers: USB2+H05261
Integration Time (usec): 100000 (USB2+H05261)
Spectra Averaged: 1 (USB2+H05261)
Boxcar Smoothing: 0 (USB2+H05261)
Correct for Electrical Dark: No (USB2+H05261)
Strobe/Lamp Enabled: No (USB2+H05261)
Correct for Detector Non-linearity: No (USB2+H05261)
Correct for Stray Light: No (USB2+H05261)
Number of Pixels in Processed Spectrum: 2048
>>>>>Begin Processed Spectral Data<<<<<
365.73	196.60
365.92	196.60
366.12	196.60
366.32	208.31
366.52	138.09
366.72	173.20
366.91	117.03
367.11	140.43
367.31	114.69
367.51	133.41
367.70	56.17
367.90	142.77
368.10	191.92
368.30	168.52
368.49	203.63
368.69	140.43
368.89	163.84
369.09	163.84
369.28	205.97
369.48	159.16
369.68	142.77
369.87	280.86
370.07	264.48
370.27	227.03
370.47	339.38
370.66	629.60
370.86	629.60
371.06	711.52
371.25	692.80
371.45	636.63
371.65	737.27
371.84	737.27
372.04	774.72
372.24	727.91
372.44	744.29
372.63	748.97
372.83	711.52
373.03	716.20
373.22	716.20
373.42	770.04
373.62	770.04
373.81	767.70
374.01	760.67
374.21	753.65
374.40	812.17
374.60	898.77
374.79	826.21
374.99	863.66
375.19	800.46
375.38	908.13
375.58	844.93
375.78	933.87
375.97	844.93
376.17	887.06
376.37	884.72
376.56	940.90
376.76	814.51
376.95	856.64
377.15	931.53
377.35	924.51
377.54	887.06
377.74	826.21
377.93	896.43
378.13	959.62
378.33	973.66
378.52	847.27
378.72	1057.92
378.91	901.11
379.11	954.94
379.31	964.30
379.50	924.51
379.70	1001.75
379.89	1008.77
380.09	964.30
380.28	1027.50
380.48	964.30
380.68	1020.47
380.87	1018.13
381.07	1015.79
381.26	1029.84
381.46	1111.75
381.65	968.98
381.85	1060.26
382.04	1104.73
382.24	985.37
382.43	994.73
382.63	1135.16
382.83	1104.73
383.02	1090.69
383.22	1067.28
383.41	1076.65
383.61	1088.35
383.80	1156.22
384.00	1008.77
384.19	1116.44
384.39	1226.44
384.58	1149.20
384.78	1137.50
384.97	1184.31
385.17	1100.05
385.36	1196.01
385.56	1118.78
385.75	1111.75
385.95	1165.59
386.14	1207.72
386.34	1165.59
386.53	1254.53
386.72	1160.91
386.92	1256.87
387.11	1158.57
387.31	1394.96
387.50	1287.29
387.70	1299.00
387.89	1186.65
388.09	1221.76
388.28	1338.79
388.48	1291.98
388.67	1343.47
388.86	1364.53
389.06	1345.81
389.25	1406.66
389.45	1416.02
389.64	1366.87
389.84	1425.39
390.03	1366.87
390.22	1376.24
390.42	1387.94
390.61	1341.13
390.81	1432.41
391.00	1345.81
391.19	1490.92
391.39	1467.52
391.58	1458.15
391.78	1462.83
391.97	1533.05
392.16	1493.26
392.36	1526.03
392.55	1523.69
392.75	1486.24
392.94	1558.80
393.13	1479.22
393.33	1516.67
393.52	1598.59
393.71	1600.93
393.91	1593.90
394.10	1507.30
394.29	1647.74
394.49	1650.08
394.68	1664.12
394.88	1549.43
395.07	1603.27
395.26	1692.21
395.46	1708.59
395.65	1689.87
395.84	1736.68
396.04	1832.64
396.23	1708.59
396.42	1748.38
396.62	1732.00
396.81	1795.19
397.00	1891.15
397.19	1790.51
397.39	1753.06
397.58	1806.89
397.77	1888.81
397.97	1792.85
398.16	1837.32
398.35	1863.07
398.55	1895.83
398.74	1858.39
398.93	1907.54
399.12	1923.92
399.32	1893.49
399.51	2031.58
399.70	2024.56
399.90	1968.39
400.09	2024.56
400.28	1954.35
400.47	2008.18
400.67	2033.93
400.86	2047.97
401.05	2085.42
401.24	2127.55
401.44	2104.14
401.63	2169.68
401.82	2120.53
402.01	2221.17
402.21	2195.42
402.40	2176.70
402.59	2127.55
402.78	2146.27
402.97	2193.08
403.17	2244.57
403.36	2265.64
403.55	2340.54
403.74	2361.60
403.93	2525.44
404.13	2251.60
404.32	2338.20
404.51	2483.31
404.70	2471.61
404.89	2380.32
405.09	2509.05
405.28	2492.67
405.47	2523.10
405.66	2471.61
405.85	2560.55
406.05	2511.39
406.24	2600.34
406.43	2476.29
406.62	2764.17
406.81	2757.15
407.00	2593.31
407.20	2647.15
407.39	2593.31
407.58	2757.15
407.77	2712.68
407.96	2832.05
408.15	2736.09
408.34	2708.00
408.54	2953.76
408.73	2878.86
408.92	2916.31
409.11	2841.41
409.30	2911.63
409.49	2951.42
409.68	3000.57
409.87	3045.04
410.07	3042.70
410.26	3002.91
410.45	3089.51
410.64	3054.40
410.83	3148.02
411.02	3103.55
411.21	3089.51
411.40	3155.04
411.59	3269.73
411.78	3332.92
411.98	3038.02
412.17	3159.72
412.36	3393.78
412.55	3321.22
412.74	3379.73
412.93	3489.74
413.12	3447.61
413.31	3597.40
413.50	3506.12
413.69	3541.23
413.88	3571.66
414.07	3672.30
414.26	3634.85
414.45	3688.68
414.64	3637.19
414.83	3782.31
415.02	3784.65
415.22	3941.46
415.41	3885.29
415.60	3810.39
415.79	3864.22
415.98	4023.38
416.17	4098.28
416.36	3988.27
416.55	3999.98
416.74	4107.64
416.93	4046.79
417.12	4072.53
417.31	4058.49
417.50	4091.26
417.69	4217.65
417.88	4400.21
418.07	4266.80
418.26	4390.84
418.45	4407.23
418.64	4411.91
418.83	4465.74
419.02	4566.39
419.21	4533.62
419.39	4578.09
419.58	4498.51
419.77	4432.97
419.96	4716.18
420.15	4599.15
420.34	4660.01
420.53	4674.05
420.72	4741.93
420.91	4716.18
421.10	4709.16
421.29	4762.99
421.48	4725.54
421.67	4819.16
421.86	4777.03
422.05	4770.01
422.24	4695.11
422.43	4851.93
422.61	4861.29
422.80	4964.28
422.99	4868.31
423.18	5043.85
423.37	5060.24
423.56	5053.22
423.75	4854.27
423.94	4800.44
424.13	4557.02
424.32	4767.67
424.50	5011.09
424.69	5146.84
424.88	5018.11
425.07	4936.19
425.26	4786.40
425.45	5076.62
425.64	4873.00
425.83	4957.25
426.01	5095.35
426.20	5076.62
426.39	5130.45
426.58	4994.70
426.77	5050.88
426.96	5144.50
427.15	5163.22
427.33	5362.17
427.52	5074.28
427.71	5350.46
427.90	5228.76
428.09	5406.64
428.28	5441.75
428.46	5472.17
428.65	5296.63
428.84	5476.85
429.03	5535.37
429.22	5416.00
429.40	5474.51
429.59	5530.69
429.78	5310.68
429.97	5336.42
430.16	5619.63
430.34	5731.97
430.53	5621.97
430.72	5633.67
430.91	5724.95
431.10	5774.10
431.28	5799.85
431.47	5675.80
431.66	5827.93
431.85	5912.19
432.03	6052.63
432.22	5987.09
432.41	5977.73
432.60	6085.39
432.79	5837.30
432.97	6106.46
433.16	5956.66
433.35	5949.64
433.54	6022.20
433.72	6113.48
433.91	6092.41
434.10	6167.31
434.28	6026.88
434.47	6164.97
434.66	6331.15
434.85	6345.19
435.03	6328.81
435.22	6342.85
435.41	6544.14
435.59	6340.51
435.78	6466.90
435.97	6345.19
436.16	6502.01
436.34	6445.84
436.53	6436.47
436.72	6623.72
436.90	6394.34
437.09	6541.80
437.28	6338.17
437.46	6614.35
437.65	6682.23
437.84	6829.68
438.02	7000.54
438.21	7000.54
438.40	6778.19
438.58	6970.12
438.77	6993.52
438.96	7052.03
439.14	7075.44
439.33	7246.30
439.52	7335.24
439.70	7232.26
439.89	7517.80
440.08	7286.09
440.26	7581.00
440.45	7412.48
440.63	7611.42
440.82	7630.15
441.01	7648.87
441.19	7604.40
441.38	7679.30
441.57	7503.76
441.75	7775.26
441.94	7934.42
442.12	7803.35
442.31	8013.99
442.50	8042.08
442.68	8058.46
442.87	8051.44
443.05	8124.00
443.24	8299.54
443.43	8147.40
443.61	7941.44
443.80	8432.95
443.98	8226.98
444.17	7906.33
444.35	8222.30
444.54	8449.33
444.73	8168.47
444.91	8124.00
445.10	8252.73
445.28	8353.37
445.47	8264.43
445.65	8255.07
445.84	8334.65
446.02	8482.10
446.21	8386.14
446.39	8397.84
446.58	8435.29
446.77	8482.10
446.95	8318.26
447.14	8353.37
447.32	8578.06
447.51	8437.63
447.69	8568.70
447.88	8468.06
448.06	8482.10
448.25	8486.78
448.43	8678.71
448.62	8767.65
448.80	8655.30
448.99	8769.99
449.17	8931.48
449.36	8702.11
449.54	8968.93
449.73	9004.04
449.91	9071.92
450.10	9022.77
450.28	9118.73
450.46	9153.84
450.65	9074.26
450.83	9179.58
451.02	9046.17
451.20	9469.81
451.39	9114.05
451.57	9121.07
451.76	9097.66
451.94	9378.53
452.13	9242.78
452.31	9151.49
452.49	9219.37
452.68	9586.83
452.86	9404.27
453.05	9345.76
453.23	9432.36
453.42	9404.27
453.60	9404.27
453.78	9589.17
453.97	9310.65
454.15	9687.48
454.34	9605.56
454.52	9729.61
454.70	9753.01
454.89	9689.82
455.07	9720.24
455.26	9916.85
455.44	10022.17
455.62	9968.34
455.81	9982.38
455.99	10050.26
456.17	9996.43
456.36	9914.51
456.54	10209.42
456.73	10277.29
456.91	10516.03
457.09	10525.39
457.28	10590.92
457.46	10321.76
457.64	10490.28
457.83	10553.48
458.01	10340.49
458.19	10677.52
458.38	10494.96
458.56	10693.91
458.74	10635.39
458.93	10670.50
459.11	10892.85
459.29	10848.38
459.48	10785.19
459.66	10696.25
459.84	10757.10
460.03	11068.39
460.21	10991.16
460.39	11052.01
460.57	11131.59
460.76	11246.27
460.94	11087.12
461.12	11302.45
461.31	11159.67
461.49	11173.72
461.67	11393.73
461.85	11587.99
462.04	11321.17
462.22	11562.25
462.40	11658.21
462.59	11290.74
462.77	11613.74
462.95	11915.67
463.13	11751.83
463.32	11627.78
463.50	11948.43
463.68	11969.50
463.86	11864.18
464.05	11805.66
464.23	11590.33
464.41	11880.56
464.59	11777.58
464.78	12184.83
464.96	11948.43
465.14	11789.28
465.32	11999.93
465.50	12226.96
465.69	12262.07
465.87	12219.94
466.05	12039.72
466.23	12409.52
466.41	12425.90
466.60	12575.70
466.78	12219.94
466.96	12095.89
467.14	12397.82
467.32	12372.07
467.51	12372.07
467.69	12163.76
467.87	12517.18
468.05	12542.93
468.23	12360.37
468.41	12641.23
468.60	12465.69
468.78	12772.30
468.96	12779.32
469.14	12882.31
469.32	12891.67
469.50	12791.03
469.69	12875.29
469.87	13212.32
470.05	13092.96
470.23	13191.26
470.41	13114.02
470.59	13350.42
470.77	13345.73
470.95	13198.28
471.14	13493.19
471.32	13198.28
471.50	13678.09
471.68	13673.41
471.86	13532.98
472.04	13575.11
472.22	13973.00
472.40	13804.48
472.58	13837.25
472.77	14153.22
472.95	14097.05
473.13	14675.16
473.31	14094.71
473.49	14235.14
473.67	14263.22
473.85	14384.93
474.03	14682.18
474.21	14455.15
474.39	14745.38
474.57	14721.97
474.75	14913.89
474.93	14953.68
475.12	15068.37
475.30	15098.80
475.48	15169.01
475.66	15290.72
475.84	15047.30
476.02	15559.88
476.20	15440.51
476.38	15541.16
476.56	16060.76
476.74	15969.48
476.92	15700.31
477.10	15756.49
477.28	16018.63
477.46	16423.54
477.64	16444.60
477.82	16720.79
478.00	16788.66
478.18	16856.54
478.36	16875.26
478.54	17294.22
478.72	17317.62
478.90	17474.44
479.08	17755.30
479.26	17788.07
479.44	17994.04
479.62	17926.16
479.80	18200.01
479.98	18148.51
480.16	18625.98
480.34	18279.58
480.52	18684.50
480.70	18651.73
480.88	18675.13
481.06	18920.89
481.24	18958.34
481.41	19030.90
481.59	19550.49
481.77	19449.85
481.95	19601.99
482.13	19887.53
482.31	19906.26
482.49	20327.55
482.67	20353.30
482.85	20683.31
483.03	20505.43
483.21	20648.21
483.39	20919.71
483.57	21111.63
483.74	21039.08
483.92	21467.39
484.10	21399.52
484.28	21621.87
484.46	22127.42
484.64	22204.66
484.82	21942.52
485.00	22295.94
485.18	22817.88
485.35	22824.90
485.53	22955.97
485.71	23302.37
485.89	23679.20
486.07	23075.34
486.25	23487.28
486.43	23960.06
486.61	23857.08
486.78	23878.15
486.96	24004.53
487.14	24332.21
487.32	24760.53
487.50	25095.22
487.68	24844.79
487.85	25649.93
488.03	25612.48
488.21	25942.50
488.39	25963.56
488.57	25942.50
488.75	26394.22
488.92	26600.19
489.10	26986.38
489.28	26813.18
489.46	27119.79
489.64	27213.41
489.81	27946.00
489.99	27850.03
490.17	27946.00
490.35	28166.01
490.53	28322.82
490.70	28425.81
490.88	28716.03
491.06	29055.41
491.24	29095.20
491.41	29158.39
491.59	29610.12
491.77	28802.63
491.95	29479.05
492.13	29830.13
492.30	29996.31
492.48	30118.01
492.66	30167.16
492.84	30452.71
493.01	30979.33
493.19	30668.04
493.37	31409.99
493.54	31325.73
493.72	31435.74
493.90	31456.80
494.08	31981.08
494.25	32154.28
494.43	32219.81
494.61	32032.57
494.79	32760.48
494.96	32517.06
495.14	32706.65
495.32	33125.60
495.49	32945.38
495.67	33486.04
495.85	33738.82
496.02	33820.74
496.20	34099.26
496.38	34120.33
496.55	34146.08
496.73	35196.98
496.91	34698.44
497.09	34902.07
497.26	34794.40
497.44	35009.73
497.62	35644.02
497.79	35655.72
497.97	35491.88
498.14	36219.79
498.32	36137.87
498.50	36311.07
498.67	37067.06
498.85	36540.44
499.03	36870.46
499.20	36376.61
499.38	36858.76
499.56	36573.21
499.73	37717.73
499.91	37469.64
500.08	37806.67
500.26	37509.43
500.44	37930.72
500.61	37638.15
500.79	37670.92
500.97	38080.52
501.14	38787.36
501.32	38312.23
501.49	38843.53
501.67	38562.67
501.84	39047.16
502.02	39278.87
502.20	38902.04
502.37	39702.51
502.55	39433.35
502.72	39618.25
502.90	39789.11
503.07	39880.39
503.25	39805.49
503.43	39517.60
503.60	40467.86
503.78	40535.74
503.95	39976.35
504.13	40886.82
504.30	40465.52
504.48	40566.16
504.65	40694.89
504.83	40964.06
505.01	41254.28
505.18	41364.29
505.36	41539.83
505.53	41490.68
505.71	41909.63
505.88	41813.67
506.06	41411.10
506.23	42216.24
506.41	41776.22
506.58	42373.06
506.76	41748.14
506.93	42674.99
507.11	42623.50
507.28	42494.77
507.46	42653.92
507.63	42824.78
507.81	43248.42
507.98	43047.13
508.16	43262.46
508.33	43578.43
508.50	43145.44
508.68	43512.90
508.85	43887.39
509.03	43840.57
509.20	44491.24
509.38	44453.79
509.55	44348.47
509.73	44533.37
509.90	44741.68
510.08	45034.25
510.25	44800.19
510.42	44809.56
510.60	45317.45
510.77	45617.04
510.95	45624.06
511.12	44816.58
511.30	45139.57
511.47	45373.63
511.64	45790.24
511.82	45787.90
511.99	46071.10
512.17	46181.11
512.34	45673.21
512.51	46267.71
512.69	46038.34
512.86	46129.62
513.04	46529.85
513.21	46756.88
513.38	46670.28
513.56	46548.57
513.73	47105.62
513.90	46742.84
514.08	46869.23
514.25	47384.15
514.43	47372.44
514.60	47426.28
514.77	47452.02
514.95	47936.51
515.12	47454.36
515.29	47995.03
515.47	48259.51
515.64	48072.26
515.81	48048.86
515.99	48128.44
516.16	48680.80
516.33	48940.60
516.51	48601.22
516.68	48350.79
516.85	48839.96
517.03	48732.29
517.20	48783.79
517.37	48928.90
517.54	48734.63
517.72	49027.20
517.89	49134.87
518.06	49118.48
518.24	49876.82
518.41	49364.24
518.58	49577.23
518.75	49673.19
518.93	49240.19
519.10	49528.08
519.27	49727.02
519.45	49862.77
519.62	49930.65
519.79	50092.15
519.96	50171.72
520.14	50536.85
520.31	50237.26
520.48	50408.12
520.65	50344.92
520.83	50700.68
521.00	50649.19
521.17	50309.82
521.34	50791.97
521.52	50911.33
521.69	50777.92
521.86	51456.68
522.03	51452.00
522.20	51594.77
522.38	51423.91
522.55	51470.72
522.72	51475.40
522.89	51271.78
523.07	51737.54
523.24	51615.83
523.41	51995.00
523.58	51636.90
523.75	51744.56
523.92	51735.20
524.10	51973.94
524.27	52179.90
524.44	51924.78
524.61	52168.20
524.78	52062.88
524.96	52088.62
525.13	52184.58
525.30	52385.87
525.47	52350.76
525.64	52420.98
525.81	52694.82
525.98	52638.65
526.16	52420.98
526.33	52760.36
526.50	53230.80
526.67	52640.99
526.84	53113.78
527.01	52985.05
527.18	52935.90
527.36	53214.42
527.53	53062.29
527.70	53612.31
527.87	53439.11
528.04	53425.07
528.21	53420.39
528.38	53631.04
528.55	53677.85
528.72	53518.69
528.89	53738.70
529.07	53755.08
529.24	53666.14
529.41	53867.43
529.58	53701.25
529.75	53829.98
529.92	53928.28
530.09	53839.34
530.26	54049.99
530.43	53853.39
530.60	53783.17
530.77	53965.73
530.94	54026.59
531.11	54370.64
531.28	54323.83
531.46	54342.56
531.63	54461.93
531.80	54326.17
531.97	54384.69
532.14	54450.22
532.31	54387.03
532.48	54714.70
532.65	54644.49
532.82	54382.35
532.99	54763.85
533.16	54597.68
533.33	54747.47
533.50	55377.08
533.67	55110.25
533.84	54700.66
534.01	55262.39
534.18	54988.55
534.35	55201.53
534.52	55000.25
534.69	55236.64
534.86	55093.87
535.03	55136.00
535.20	55360.69
535.37	55650.92
535.54	55606.45
535.71	55194.51
535.88	55393.46
536.05	55585.38
536.22	55835.82
536.38	55636.87
536.55	55540.91
536.72	55749.22
536.89	55664.96
537.06	55571.34
537.23	55751.56
537.40	55763.26
537.57	55854.54
537.74	55931.78
537.91	56060.51
538.08	56116.68
538.25	55931.78
538.42	55971.57
538.59	56264.14
538.75	56086.26
538.92	56126.05
539.09	56273.50
539.26	56299.25
539.43	56006.68
539.60	56067.53
539.77	56233.71
539.94	56502.87
540.11	56271.16
540.28	56573.09
540.44	56528.62
540.61	56360.10
540.78	56348.40
540.95	56327.33
541.12	56430.32
541.29	56399.89
541.46	56776.72
541.62	56690.12
541.79	56755.65
541.96	56254.78
542.13	56865.66
542.30	56729.90
542.47	56786.08
542.63	56853.95
542.80	57181.63
542.97	57375.89
543.14	57258.87
543.31	57069.28
543.48	57305.68
543.64	57638.03
543.81	57305.68
543.98	57406.32
544.15	57403.98
544.32	57504.62
544.48	57645.05
544.65	57172.27
544.82	57600.58
544.99	57345.47
545.16	57558.45
545.32	57626.33
545.49	57659.10
545.66	57677.82
545.83	57836.98
546.00	57710.59
546.16	57848.68
546.33	57446.11
546.50	57687.18
546.67	57689.52
546.83	57492.92
547.00	57766.76
547.17	57904.85
547.34	57911.88
547.50	58047.63
547.67	58042.95
547.84	58071.03
548.00	58328.49
548.17	58291.04
548.34	58099.12
548.51	58482.97
548.67	58239.55
548.84	58122.52
549.01	58204.44
549.18	57986.77
549.34	58473.60
549.51	58312.11
549.68	58513.39
549.84	58368.28
550.01	58623.40
550.18	58220.83
550.34	58543.82
550.51	58450.20
550.68	58403.39
550.84	58068.69
551.01	58578.93
551.18	58361.26
551.34	58473.60
551.51	58763.83
551.68	58796.60
551.84	58845.75
552.01	58396.37
552.18	58784.90
552.34	58445.52
552.51	58969.80
552.68	58625.74
552.84	58852.77
553.01	59086.82
553.18	58726.38
553.34	59016.61
553.51	58632.76
553.67	59004.91
553.84	58862.13
554.01	59009.59
554.17	59070.44
554.34	59185.13
554.51	59110.23
554.67	59103.21
554.84	59152.36
555.00	59049.38
555.17	59138.32
555.33	59178.10
555.50	59110.23
555.67	59128.95
555.83	59068.10
556.00	59140.66
556.16	59676.64
556.33	59213.21
556.50	59302.15
556.66	59358.33
556.83	59093.85
556.99	59477.69
557.16	59615.79
557.32	59561.95
557.49	59646.21
557.65	59238.96
557.82	59512.80
557.98	59128.95
558.15	59587.70
558.32	59515.14
558.48	59325.56
558.65	59590.04
558.81	59529.19
558.98	59498.76
559.14	59587.70
559.31	59849.84
559.47	59662.60
559.64	59983.25
559.80	59854.52
559.97	59835.80
560.13	59648.55
560.30	59824.09
560.46	59784.30
560.63	59863.88
560.79	59945.80
560.96	59894.31
561.12	59784.30
561.29	59976.23
561.45	59859.20
561.61	59913.03
561.78	59913.03
561.94	59870.90
562.11	59863.88
562.27	59941.12
562.44	60116.66
562.60	60130.70
562.77	60280.50
562.93	60121.34
563.10	60243.05
563.26	59753.88
563.42	60315.61
563.59	60147.09
563.75	59906.01
563.92	60016.02
564.08	60104.96
564.24	60385.82
564.41	60336.67
564.57	60292.20
564.74	60322.63
564.90	60329.65
565.07	60076.87
565.23	60168.15
565.39	60168.15
565.56	60240.71
565.72	60289.86
565.88	60236.03
566.05	60065.17
566.21	60121.34
566.38	60474.76
566.54	60238.37
566.70	60324.97
566.87	60317.95
567.03	60048.78
567.19	60423.27
567.36	60348.37
567.52	60376.46
567.68	60420.93
567.85	60495.83
568.01	60526.25
568.17	60481.78
568.34	60477.10
568.50	60409.23
568.66	60505.19
568.83	60584.77
568.99	60453.70
569.15	60580.09
569.32	60643.28
569.48	60198.58
569.64	60596.47
569.81	60528.59
569.97	60315.61
570.13	60692.43
570.30	60170.49
570.46	60446.68
570.62	60537.96
570.78	60631.58
570.95	60449.02
571.11	60631.58
571.27	60512.21
571.43	60540.30
571.60	60617.53
571.76	60580.09
571.92	60624.56
572.09	60741.58
572.25	60603.49
572.41	60467.74
572.57	60776.69
572.74	60697.11
572.90	60530.93
573.06	60776.69
573.22	60566.04
573.38	60844.57
573.55	60683.07
573.71	60846.91
573.87	60736.90
574.03	60650.30
574.20	60722.86
574.36	60678.39
574.52	60727.54
574.68	60884.36
574.84	60860.95
575.01	60666.69
575.17	60961.59
575.33	60652.64
575.49	60657.32
575.65	60849.25
575.82	60807.12
575.98	61024.79
576.14	61120.75
576.30	60870.31
576.46	60907.76
576.62	60867.97
576.79	60769.67
576.95	60683.07
577.11	60779.03
577.27	60776.69
577.43	60959.25
577.59	60893.72
577.75	60910.10
577.92	60877.33
578.08	60980.32
578.24	60959.25
578.40	60994.36
578.56	60907.76
578.72	61038.83
578.88	61015.43
579.04	60842.23
579.21	60952.23
579.37	61085.64
579.53	60889.04
579.69	60797.76
579.85	60961.59
580.01	60659.66
580.17	60884.36
580.33	61064.58
580.49	60985.00
580.65	60931.17
580.82	60935.85
580.98	60954.57
581.14	60921.80
581.30	61251.82
581.46	60924.14
581.62	61099.68
581.78	60973.30
581.94	61069.26
582.10	60802.44
582.26	60825.84
582.42	61106.71
582.58	61015.43
582.74	60858.61
582.90	61062.24
583.06	60987.34
583.22	61010.74
583.38	61151.18
583.54	60882.02
583.70	60987.34
583.86	61080.96
584.02	61057.56
584.18	61226.07
584.34	61024.79
584.50	61125.43
584.66	61116.07
584.82	60797.76
584.98	61197.99
585.14	61099.68
585.30	60961.59
585.46	61190.97
585.62	60947.55
585.78	61265.86
585.94	60802.44
586.10	61092.66
586.26	61041.17
586.42	61186.28
586.58	61212.03
586.74	61127.77
586.90	60954.57
587.06	61006.06
587.22	61265.86
587.38	61095.00
587.54	61357.14
587.70	61263.52
587.86	61160.54
588.02	61270.54
588.18	61268.20
588.34	61022.45
588.49	61008.40
