SpectraSuite Data File
++++++++++++++++++++++++++++++++++++
Date: Fri Oct 25 11:26:36 EDT 2013
User: price-jones
Dark Spectrum Present: No
Reference Spectrum Present: No
Number of Sampled Component Spectra: 1
Spectrometers: USB2+H05261
Integration Time (usec): 100000 (USB2+H05261)
Spectra Averaged: 1 (USB2+H05261)
Boxcar Smoothing: 0 (USB2+H05261)
Correct for Electrical Dark: No (USB2+H05261)
Strobe/Lamp Enabled: No (USB2+H05261)
Correct for Detector Non-linearity: No (USB2+H05261)
Correct for Stray Light: No (USB2+H05261)
Number of Pixels in Processed Spectrum: 2048
>>>>>Begin Processed Spectral Data<<<<<
365.73	271.50
365.92	271.50
366.12	271.50
366.32	140.43
366.52	124.05
366.72	224.69
366.91	79.58
367.11	121.71
367.31	126.39
367.51	100.64
367.70	114.69
367.90	154.48
368.10	124.05
368.30	124.05
368.49	119.37
368.69	266.82
368.89	168.52
369.09	133.41
369.28	203.63
369.48	191.92
369.68	142.77
369.87	163.84
370.07	236.39
370.27	201.29
370.47	346.40
370.66	606.20
370.86	587.47
371.06	592.16
371.25	723.23
371.45	692.80
371.65	697.48
371.84	699.82
372.04	692.80
372.24	739.61
372.44	788.76
372.63	809.83
372.83	770.04
373.03	793.44
373.22	788.76
373.42	795.78
373.62	746.63
373.81	798.12
374.01	821.53
374.21	844.93
374.40	837.91
374.60	847.27
374.79	739.61
374.99	826.21
375.19	784.08
375.38	866.00
375.58	779.40
375.78	936.21
375.97	868.34
376.17	964.30
376.37	870.68
376.56	868.34
376.76	800.46
376.95	903.45
377.15	868.34
377.35	866.00
377.54	880.04
377.74	840.25
377.93	915.15
378.13	926.85
378.33	917.49
378.52	950.26
378.72	971.32
378.91	947.92
379.11	973.66
379.31	936.21
379.50	945.58
379.70	943.24
379.89	966.64
380.09	957.28
380.28	964.30
380.48	1001.75
380.68	940.90
380.87	1015.79
381.07	973.66
381.26	1018.13
381.46	1046.22
381.65	1036.86
381.85	1090.69
382.04	1095.37
382.24	1107.07
382.43	997.07
382.63	1149.20
382.83	1057.92
383.02	1158.57
383.22	1097.71
383.41	1062.60
383.61	1100.05
383.80	1130.48
384.00	1142.18
384.19	1172.61
384.39	1184.31
384.58	1130.48
384.78	1172.61
384.97	1193.67
385.17	1172.61
385.36	1158.57
385.56	1203.04
385.75	1135.16
385.95	1198.35
386.14	1252.19
386.34	1181.97
386.53	1266.23
386.72	1224.10
386.92	1252.19
387.11	1224.10
387.31	1231.12
387.50	1196.01
387.70	1228.78
387.89	1287.29
388.09	1263.89
388.28	1320.06
388.48	1310.70
388.67	1371.55
388.86	1380.92
389.06	1263.89
389.25	1371.55
389.45	1282.61
389.64	1352.83
389.84	1355.17
390.03	1385.60
390.22	1460.49
390.42	1291.98
390.61	1406.66
390.81	1296.66
391.00	1500.28
391.19	1430.07
391.39	1327.08
391.58	1437.09
391.78	1535.39
391.97	1502.62
392.16	1556.46
392.36	1565.82
392.55	1558.80
392.75	1516.67
392.94	1511.99
393.13	1675.82
393.33	1481.56
393.52	1476.88
393.71	1645.40
393.91	1523.69
394.10	1631.35
394.29	1643.06
394.49	1556.46
394.68	1750.72
394.88	1645.40
395.07	1661.78
395.26	1701.57
395.46	1694.55
395.65	1668.80
395.84	1643.06
396.04	1811.57
396.23	1750.72
396.42	1645.40
396.62	1643.06
396.81	1827.96
397.00	1732.00
397.19	1792.85
397.39	1827.96
397.58	1877.11
397.77	1760.08
397.97	1858.39
398.16	1933.28
398.35	1907.54
398.55	1825.62
398.74	1849.02
398.93	1956.69
399.12	1907.54
399.32	1914.56
399.51	1867.75
399.70	2047.97
399.90	1980.09
400.09	2054.99
400.28	2071.37
400.47	1975.41
400.67	2059.67
400.86	2141.59
401.05	2047.97
401.24	2062.01
401.44	2062.01
401.63	2207.13
401.82	2214.15
402.01	2136.91
402.21	2263.30
402.40	2204.78
402.59	2148.61
402.78	2190.74
402.97	2307.77
403.17	2221.17
403.36	2380.32
403.55	2286.70
403.74	2335.85
403.93	2448.20
404.13	2466.92
404.32	2396.71
404.51	2385.01
404.70	2452.88
404.89	2361.60
405.09	2492.67
405.28	2480.97
405.47	2523.10
405.66	2544.16
405.85	2518.42
406.05	2445.86
406.24	2478.63
406.43	2616.72
406.62	2567.57
406.81	2684.59
407.00	2551.18
407.20	2595.65
407.39	2609.70
407.58	2715.02
407.77	2677.57
407.96	2619.06
408.15	2712.68
408.34	2712.68
408.54	2796.94
408.73	2829.71
408.92	2806.30
409.11	2883.54
409.30	2960.78
409.49	2963.12
409.68	2960.78
409.87	2857.79
410.07	2974.82
410.26	3035.67
410.45	2937.37
410.64	3124.62
410.83	3084.83
411.02	3178.45
411.21	3162.06
411.40	3052.06
411.59	3131.64
411.78	3335.26
411.98	3136.32
412.17	3222.92
412.36	3258.03
412.55	3335.26
412.74	3403.14
412.93	3344.63
413.12	3330.58
413.31	3552.93
413.50	3543.57
413.69	3562.30
413.88	3740.18
414.07	3536.55
414.26	3641.87
414.45	3779.97
414.64	3646.55
414.83	3840.82
415.02	3805.71
415.22	3850.18
415.41	3777.62
415.60	3833.80
415.79	3831.46
415.98	3932.10
416.17	3875.93
416.36	4084.23
416.55	4018.70
416.74	4156.79
416.93	4060.83
417.12	4180.20
417.31	4177.86
417.50	4175.52
417.69	4395.53
417.88	4306.59
418.07	4290.20
418.26	4234.03
418.45	4407.23
418.64	4390.84
418.83	4573.41
419.02	4404.89
419.21	4540.64
419.39	4461.06
419.58	4425.95
419.77	4533.62
419.96	4578.09
420.15	4482.13
420.34	4547.66
420.53	4603.83
420.72	4695.11
420.91	4674.05
421.10	4718.52
421.29	4788.74
421.48	4788.74
421.67	4767.67
421.86	4704.48
422.05	4922.15
422.24	4826.18
422.43	4856.61
422.61	4968.96
422.80	5062.58
422.99	4830.87
423.18	4959.60
423.37	5041.51
423.56	4990.02
423.75	4898.74
423.94	4903.42
424.13	4652.98
424.32	4748.95
424.50	4945.55
424.69	5198.33
424.88	5205.35
425.07	4905.76
425.26	4863.63
425.45	4997.04
425.64	5015.77
425.83	5008.75
426.01	5102.37
426.20	5282.59
426.39	5085.98
426.58	4964.28
426.77	5074.28
426.96	5146.84
427.15	5125.77
427.33	5210.03
427.52	5282.59
427.71	5242.80
427.90	5359.83
428.09	5378.55
428.28	5341.10
428.46	5469.83
428.65	5495.58
428.84	5446.43
429.03	5387.91
429.22	5369.19
429.40	5451.11
429.59	5497.92
429.78	5322.38
429.97	5371.53
430.16	5502.60
430.34	5575.16
430.53	5434.72
430.72	5722.61
430.91	5650.05
431.10	5738.99
431.28	5731.97
431.47	5877.09
431.66	5785.80
431.85	5774.10
432.03	5970.71
432.22	6094.76
432.41	5973.05
432.60	5977.73
432.79	5891.13
432.97	6097.10
433.16	6162.63
433.35	6040.92
433.54	6183.70
433.72	6134.54
433.91	6038.58
434.10	6061.99
434.28	6143.91
434.47	6160.29
434.66	6408.39
434.85	6244.55
435.03	6394.34
435.22	6253.91
435.41	6637.76
435.59	6607.33
435.78	6532.44
435.97	6565.20
436.16	6363.92
436.34	6279.66
436.53	6595.63
436.72	6558.18
436.90	6504.35
437.09	6670.53
437.28	6438.81
437.46	6593.29
437.65	6803.94
437.84	6609.67
438.02	6736.06
438.21	6747.76
438.40	6715.00
438.58	6939.69
438.77	7103.53
438.96	7033.31
439.14	7166.72
439.33	7042.67
439.52	7253.32
439.70	7150.34
439.89	7243.96
440.08	7459.29
440.26	7414.82
440.45	7335.24
440.63	7581.00
440.82	7559.93
441.01	7735.47
441.19	7705.04
441.38	8023.36
441.57	7618.44
441.75	7852.50
441.94	8098.25
442.12	7985.91
442.31	7922.71
442.50	8063.15
442.68	8042.08
442.87	7927.39
443.05	8173.15
443.24	8196.56
443.43	8147.40
443.61	8250.39
443.80	8486.78
443.98	7939.10
444.17	7850.16
444.35	8156.77
444.54	8507.85
444.73	8313.58
444.91	8439.97
445.10	8327.63
445.28	8407.20
445.47	8292.52
445.65	8397.84
445.84	8439.97
446.02	8442.31
446.21	8528.91
446.39	8367.42
446.58	8624.87
446.77	8505.51
446.95	8238.69
447.14	8552.32
447.32	8685.73
447.51	8631.90
447.69	8517.21
447.88	8451.67
448.06	8566.36
448.25	8596.79
448.43	8496.14
448.62	8549.98
448.80	8608.49
448.99	8657.64
449.17	8849.57
449.36	8758.28
449.54	8828.50
449.73	9034.47
449.91	8961.91
450.10	8954.89
450.28	9128.09
450.46	9212.35
450.65	9186.60
450.83	9177.24
451.02	9130.43
451.20	9191.28
451.39	9291.93
451.57	9135.11
451.76	9001.70
451.94	9146.81
452.13	9476.83
452.31	9280.22
452.49	9172.56
452.68	9334.06
452.86	9249.80
453.05	9490.87
453.23	9617.26
453.42	9502.58
453.60	9383.21
453.78	9575.13
453.97	9572.79
454.15	9554.07
454.34	9432.36
454.52	9834.93
454.70	9582.15
454.89	9802.16
455.07	9696.84
455.26	9767.06
455.44	10031.54
455.62	10181.33
455.81	9902.81
455.99	10104.09
456.17	10340.49
456.36	10148.56
456.54	10160.27
456.73	10186.01
456.91	10448.15
457.09	10349.85
457.28	10656.46
457.46	10366.23
457.64	10471.56
457.83	10616.67
458.01	10359.21
458.19	10724.33
458.38	10635.39
458.56	10677.52
458.74	10913.92
458.93	10721.99
459.11	10815.62
459.29	10817.96
459.48	10789.87
459.66	11021.58
459.84	10761.78
460.03	10965.41
460.21	11126.91
460.39	10871.79
460.57	11052.01
460.76	11077.76
460.94	11115.20
461.12	11152.65
461.31	11147.97
461.49	11197.12
461.67	11283.72
461.85	11417.13
462.04	11445.22
462.22	11517.78
462.40	11569.27
462.59	11510.75
462.77	11524.80
462.95	11707.36
463.13	11712.04
463.32	11779.92
463.50	11971.84
463.68	11730.76
463.86	11655.87
464.05	11683.95
464.23	11550.54
464.41	11892.26
464.59	11817.36
464.78	12205.89
464.96	11995.25
465.14	11943.75
465.32	12287.81
465.50	12028.01
465.69	12159.08
465.87	12119.29
466.05	12222.28
466.23	12386.12
466.41	12025.67
466.60	12510.16
466.78	12081.85
466.96	12379.09
467.14	12306.54
467.32	12372.07
467.51	12669.32
467.69	12355.69
467.87	12346.33
468.05	12592.08
468.23	12564.00
468.41	12676.34
468.60	12463.35
468.78	12674.00
468.96	12734.85
469.14	12931.46
469.32	12912.74
469.50	13011.04
469.69	12961.89
469.87	13291.90
470.05	13011.04
470.23	13167.85
470.41	13149.13
470.59	13633.62
470.77	13092.96
470.95	13455.74
471.14	13561.06
471.32	13231.05
471.50	13509.57
471.68	13483.83
471.86	13621.92
472.04	13509.57
472.22	14150.88
472.40	13860.65
472.58	13891.08
472.77	14150.88
472.95	14193.01
473.13	14506.64
473.31	14237.48
473.49	14527.71
473.67	14174.28
473.85	14490.26
474.03	14630.69
474.21	14675.16
474.39	14794.53
474.57	14462.17
474.75	14981.77
474.93	15073.05
475.12	14808.57
475.30	15180.71
475.48	14923.26
475.66	15232.21
475.84	15157.31
476.02	15253.27
476.20	15510.73
476.38	15346.89
476.56	15910.96
476.74	15971.82
476.92	15831.38
477.10	15974.16
477.28	16112.25
477.46	16147.36
477.64	16231.62
477.82	16720.79
478.00	17156.13
478.18	16854.20
478.36	16772.28
478.54	17179.53
478.72	17308.26
478.90	17280.18
479.08	17692.11
479.26	17841.90
479.44	17706.15
479.62	17752.96
479.80	17977.65
479.98	18377.89
480.16	18595.56
480.34	18108.72
480.52	18445.76
480.70	18412.99
480.88	18466.83
481.06	18473.85
481.24	19051.96
481.41	19403.04
481.59	19353.89
481.77	19850.08
481.95	19475.60
482.13	20121.59
482.31	19740.08
482.49	20409.47
482.67	20292.44
482.85	20395.43
483.03	20556.93
483.21	21118.65
483.39	21062.48
483.57	21128.02
483.74	21109.29
483.92	21315.26
484.10	21434.63
484.28	22036.14
484.46	22160.19
484.64	22335.73
484.82	21724.85
485.00	22494.89
485.18	22838.95
485.35	23157.26
485.53	23063.64
485.71	23021.51
485.89	23580.90
486.07	23541.11
486.25	23557.49
486.43	23351.52
486.61	24226.89
486.78	24360.30
486.96	24254.97
487.14	24776.91
487.32	24685.63
487.50	25022.67
487.68	24968.84
487.85	25474.39
488.03	25769.30
488.21	26066.55
488.39	25909.73
488.57	26017.40
488.75	25858.24
488.92	26895.10
489.10	26611.89
489.28	26871.69
489.46	27243.84
489.64	26895.10
489.81	27679.18
489.99	27644.07
490.17	27852.38
490.35	28240.90
490.53	28364.95
490.70	28514.75
490.88	28334.53
491.06	28395.38
491.24	28765.18
491.41	28938.38
491.59	29050.73
491.77	29404.15
491.95	29387.77
492.13	29757.57
492.30	30574.42
492.48	29883.96
492.66	30820.17
492.84	30742.94
493.01	30532.29
493.19	31206.36
493.37	30866.98
493.54	31538.72
493.72	31660.43
493.90	32233.86
494.08	31835.97
494.25	32072.36
494.43	32088.74
494.61	32407.06
494.79	32175.34
494.96	32514.72
495.14	32905.59
495.32	33123.26
495.49	33177.09
495.67	33759.89
495.85	33795.00
496.02	34160.12
496.20	34071.18
496.38	34099.26
496.55	34096.92
496.73	35222.72
496.91	34817.81
497.09	35058.88
497.26	35023.78
497.44	35185.27
497.62	35381.88
497.79	35875.73
497.97	35908.50
498.14	35618.27
498.32	35936.59
498.50	36421.08
498.67	36472.57
498.85	36460.87
499.03	36851.73
499.20	36823.65
499.38	37001.53
499.56	37156.00
499.73	37368.99
499.91	37813.70
500.08	38117.96
500.26	37308.14
500.44	37752.84
500.61	37904.98
500.79	37961.15
500.97	38132.01
501.14	38728.84
501.32	38415.21
501.49	38960.56
501.67	38703.10
501.84	38993.32
502.02	39243.76
502.20	39096.31
502.37	39510.58
502.55	39346.75
502.72	39709.53
502.90	39606.55
503.07	39337.38
503.25	39913.16
503.43	40088.70
503.60	40179.98
503.78	40531.06
503.95	40509.99
504.13	40847.03
504.30	40732.34
504.48	40800.22
504.65	41109.17
504.83	41170.02
505.01	41256.62
505.18	41050.66
505.36	41869.84
505.53	41006.19
505.71	41759.84
505.88	41827.71
506.06	41361.95
506.23	42272.42
506.41	41954.10
506.58	42431.57
506.76	42410.51
506.93	42541.58
507.11	42321.57
507.28	42623.50
507.46	42724.14
507.63	43311.61
507.81	42967.55
507.98	43049.47
508.16	43360.76
508.33	43145.44
508.50	43604.18
508.68	43903.77
508.85	43716.53
509.03	44336.77
509.20	44289.96
509.38	44500.61
509.55	44849.35
509.73	44493.58
509.90	44954.67
510.08	44999.14
510.25	44765.09
510.42	44580.18
510.60	44755.72
510.77	45490.65
510.95	45368.94
511.12	45277.66
511.30	45378.31
511.47	45565.55
511.64	45691.94
511.82	46047.70
511.99	45790.24
512.17	46422.19
512.34	46333.24
512.51	46316.86
512.69	46761.56
512.86	46550.91
513.04	46941.78
513.21	46756.88
513.38	46770.93
513.56	47126.69
513.73	47201.58
513.90	47285.84
514.08	46894.97
514.25	47550.32
514.43	47707.14
514.60	47552.66
514.77	47735.23
514.95	48105.03
515.12	47196.90
515.29	47533.94
515.47	47894.38
515.64	48128.44
515.81	47786.72
515.99	48278.23
516.16	48439.73
516.33	48659.74
516.51	48720.59
516.68	48545.05
516.85	48854.00
517.03	49160.61
517.20	48982.73
517.37	48655.06
517.54	48905.49
517.72	49095.08
517.89	49258.91
518.06	49462.54
518.24	49492.97
518.41	49446.16
518.58	49584.25
518.75	49177.00
518.93	49626.38
519.10	49539.78
519.27	49991.50
519.45	49815.96
519.62	50068.74
519.79	49965.76
519.96	50089.80
520.14	50216.19
520.31	50478.33
520.48	50508.76
520.65	50436.20
520.83	50705.37
521.00	50562.59
521.17	50747.50
521.34	50782.60
521.52	51019.00
521.69	51000.27
521.86	50878.57
522.03	51063.47
522.20	51430.93
522.38	51618.17
522.55	51388.80
522.72	51562.00
522.89	51271.78
523.07	52062.88
523.24	51299.86
523.41	51746.90
523.58	51430.93
523.75	52163.52
523.92	52161.18
524.10	52325.02
524.27	52116.71
524.44	51995.00
524.61	52200.97
524.78	52175.22
524.96	52222.03
525.13	52250.12
525.30	52383.53
525.47	52669.08
525.64	52502.90
525.81	52741.63
525.98	52746.31
526.16	52362.46
526.33	52879.72
526.50	53429.75
526.67	52713.55
526.84	53174.63
527.01	53219.10
527.18	53162.93
527.36	53214.42
527.53	53296.34
527.70	53595.93
527.87	53783.17
528.04	53389.96
528.21	53413.37
528.38	53516.35
528.55	53677.85
528.72	53656.78
528.89	53759.76
529.07	53631.04
529.24	53710.61
529.41	53979.78
529.58	53624.01
529.75	53911.90
529.92	53993.82
530.09	54150.63
530.26	54120.21
530.43	54099.14
530.60	53954.03
530.77	54085.10
530.94	54244.26
531.11	54267.66
531.28	54052.33
531.46	54120.21
531.63	54555.55
531.80	54131.91
531.97	54630.44
532.14	54401.07
532.31	54375.33
532.48	54621.08
532.65	54841.09
532.82	54518.10
532.99	54857.48
533.16	54740.45
533.33	54705.34
533.50	55114.94
533.67	54705.34
533.84	54883.22
534.01	54813.01
534.18	55124.30
534.35	55503.46
534.52	55028.34
534.69	55407.50
534.86	55304.52
535.03	54827.05
535.20	55114.94
535.37	55269.41
535.54	55767.94
535.71	55498.78
535.88	55473.04
536.05	55330.26
536.22	55709.43
536.38	55662.62
536.55	55784.33
536.72	55697.73
536.89	55580.70
537.06	55636.87
537.23	55870.93
537.40	55690.71
537.57	55875.61
537.74	55931.78
537.91	56009.02
538.08	55786.67
538.25	55657.94
538.42	56018.38
538.59	56287.54
538.75	56236.05
538.92	56046.47
539.09	56039.45
539.26	56161.15
539.43	56102.64
539.60	56236.05
539.77	56378.82
539.94	56556.70
540.11	56427.98
540.28	56540.32
540.44	56680.75
540.61	56772.03
540.78	56722.88
540.95	56477.13
541.12	56458.40
541.29	56598.83
541.46	56732.25
541.62	56612.88
541.79	56582.45
541.96	56498.19
542.13	56547.34
542.30	56685.43
542.47	56858.63
542.63	57193.33
542.80	57118.43
542.97	57109.07
543.14	57361.85
543.31	57373.55
543.48	57240.14
543.64	57329.08
543.81	57593.56
543.98	57549.09
544.15	57434.41
544.32	57448.45
544.48	57930.60
544.65	57385.25
544.82	57581.86
544.99	57485.90
545.16	57783.15
545.32	57511.64
545.49	57755.06
545.66	57703.57
545.83	57605.26
546.00	57851.02
546.16	57696.55
546.33	57605.26
546.50	57598.24
546.67	57808.89
546.83	57602.92
547.00	57855.70
547.17	57616.97
547.34	57733.99
547.50	58028.90
547.67	58237.21
547.84	58005.50
548.00	58129.54
548.17	58309.77
548.34	57923.58
548.51	58335.51
548.67	58389.34
548.84	58195.08
549.01	58190.40
549.18	58211.46
549.34	58260.62
549.51	58445.52
549.68	58401.05
549.84	58319.13
550.01	58511.05
550.18	58195.08
550.34	58473.60
550.51	58529.78
550.68	58607.01
550.84	58504.03
551.01	58876.18
551.18	58429.13
551.34	58550.84
551.51	58555.52
551.68	58656.17
551.84	58585.95
552.01	58504.03
552.18	58803.62
552.34	58555.52
552.51	58642.12
552.68	58702.98
552.84	58712.34
553.01	58836.39
553.18	58955.75
553.34	59007.25
553.51	58967.46
553.67	58756.81
553.84	58988.52
554.01	59007.25
554.17	59121.93
554.34	59206.19
554.51	59238.96
554.67	59037.67
554.84	59201.51
555.00	59025.97
555.17	59103.21
555.33	59042.35
555.50	58915.96
555.67	59229.60
555.83	59093.85
556.00	59400.46
556.16	59552.59
556.33	59538.55
556.50	59224.92
556.66	59465.99
556.83	59133.63
556.99	59470.67
557.16	59648.55
557.32	59515.14
557.49	59625.15
557.65	59196.83
557.82	59351.30
557.98	59648.55
558.15	59618.13
558.32	59634.51
558.48	59561.95
558.65	59744.51
558.81	59545.57
558.98	59585.36
559.14	59664.94
559.31	59482.37
559.47	59620.47
559.64	59870.90
559.80	59634.51
559.97	59758.56
560.13	59702.38
560.30	59629.83
560.46	59917.71
560.63	59657.91
560.79	60030.06
560.96	60055.81
561.12	59922.40
561.29	59920.05
561.45	59821.75
561.61	59941.12
561.78	59807.71
561.94	59683.66
562.11	60184.54
562.27	60041.76
562.44	60051.12
562.60	60090.91
562.77	59906.01
562.93	59938.78
563.10	60317.95
563.26	60111.98
563.42	60271.14
563.59	59999.63
563.75	60095.60
563.92	60156.45
564.08	60224.32
564.24	60200.92
564.41	60097.94
564.57	60144.75
564.74	60294.54
564.90	60308.58
565.07	60051.12
565.23	60065.17
565.39	60133.04
565.56	60280.50
565.72	60278.16
565.88	60350.71
566.05	60313.26
566.21	60278.16
566.38	60261.77
566.54	60491.15
566.70	60376.46
566.87	60458.38
567.03	60233.69
567.19	60580.09
567.36	60289.86
567.52	60423.27
567.68	60650.30
567.85	60411.57
568.01	60479.44
568.17	60390.50
568.34	60481.78
568.50	60472.42
568.66	60329.65
568.83	60589.45
568.99	60500.51
569.15	60339.01
569.32	60519.23
569.48	60418.59
569.64	60509.87
569.81	60453.70
569.97	60441.99
570.13	60467.74
570.30	60463.06
570.46	60481.78
570.62	60603.49
570.78	60456.04
570.95	60533.28
571.11	60699.45
571.27	60383.48
571.43	60701.79
571.60	60683.07
571.76	60580.09
571.92	60650.30
572.09	60753.29
572.25	60725.20
572.41	60624.56
572.57	60654.98
572.74	60938.19
572.90	60584.77
573.06	60568.38
573.22	60788.39
573.38	60753.29
573.55	60781.37
573.71	61043.51
573.87	60734.56
574.03	60610.51
574.20	60821.16
574.36	60690.09
574.52	60821.16
574.68	60797.76
574.84	60839.89
575.01	60973.30
575.17	60711.16
575.33	60671.37
575.49	60664.35
575.65	60816.48
575.82	60982.66
575.98	60917.12
576.14	61038.83
576.30	60977.98
576.46	60769.67
576.62	60626.90
576.79	60996.70
576.95	60767.33
577.11	60835.20
577.27	61006.06
577.43	60872.65
577.59	60860.95
577.75	60739.24
577.92	60767.33
578.08	60821.16
578.24	60849.25
578.40	61076.28
578.56	61010.74
578.72	60863.29
578.88	60896.06
579.04	60898.40
579.21	60949.89
579.37	60924.14
579.53	60982.66
579.69	60807.12
579.85	60921.80
580.01	60821.16
580.17	60769.67
580.33	61235.44
580.49	61073.94
580.65	61024.79
580.82	60940.53
580.98	60865.63
581.14	60790.73
581.30	61045.85
581.46	60900.74
581.62	61048.19
581.78	60713.50
581.94	61041.17
582.10	60884.36
582.26	61080.96
582.42	60907.76
582.58	61073.94
582.74	60706.47
582.90	61001.38
583.06	60952.23
583.22	61076.28
583.38	61003.72
583.54	60898.40
583.70	61223.73
583.86	61148.84
584.02	60973.30
584.18	61160.54
584.34	60935.85
584.50	60926.49
584.66	61036.49
584.82	60884.36
584.98	61125.43
585.14	61350.12
585.30	60846.91
585.46	61116.07
585.62	61219.05
585.78	61125.43
585.94	60877.33
586.10	61036.49
586.26	61153.52
586.42	61132.45
586.58	61181.60
586.74	61141.81
586.90	61031.81
587.06	60912.44
587.22	61132.45
587.38	61064.58
587.54	61263.52
587.70	61387.57
587.86	61097.34
588.02	60907.76
588.18	61190.97
588.34	61237.78
588.49	61247.14
