SpectraSuite Data File
++++++++++++++++++++++++++++++++++++
Date: Fri Oct 25 10:48:33 EDT 2013
User: price-jones
Dark Spectrum Present: No
Reference Spectrum Present: No
Number of Sampled Component Spectra: 1
Spectrometers: USB2+H05261
Integration Time (usec): 100000 (USB2+H05261)
Spectra Averaged: 1 (USB2+H05261)
Boxcar Smoothing: 0 (USB2+H05261)
Correct for Electrical Dark: No (USB2+H05261)
Strobe/Lamp Enabled: No (USB2+H05261)
Correct for Detector Non-linearity: No (USB2+H05261)
Correct for Stray Light: No (USB2+H05261)
Number of Pixels in Processed Spectrum: 2048
>>>>>Begin Processed Spectral Data<<<<<
365.73	121.71
365.92	121.71
366.12	121.71
366.32	2.34
366.52	46.81
366.72	46.81
366.91	44.47
367.11	37.45
367.31	16.38
367.51	58.51
367.70	70.22
367.90	81.92
368.10	0.00
368.30	0.00
368.49	21.06
368.69	124.05
368.89	72.56
369.09	49.15
369.28	119.37
369.48	37.45
369.68	44.47
369.87	98.30
370.07	166.18
370.27	95.96
370.47	198.95
370.66	414.27
370.86	414.27
371.06	564.07
371.25	559.39
371.45	491.51
371.65	468.11
371.84	489.17
372.04	503.22
372.24	517.26
372.44	552.37
372.63	510.24
372.83	610.88
373.03	535.98
373.22	484.49
373.42	582.79
373.62	507.90
373.81	599.18
374.01	599.18
374.21	592.16
374.40	503.22
374.60	657.69
374.79	573.43
374.99	512.58
375.19	645.99
375.38	638.97
375.58	634.29
375.78	617.90
375.97	568.75
376.17	713.86
376.37	622.58
376.56	664.71
376.76	631.94
376.95	606.20
377.15	725.57
377.35	695.14
377.54	732.59
377.74	671.73
377.93	655.35
378.13	641.31
378.33	739.61
378.52	770.04
378.72	676.41
378.91	765.36
379.11	748.97
379.31	671.73
379.50	622.58
379.70	685.78
379.89	739.61
380.09	781.74
380.28	812.17
380.48	770.04
380.68	718.54
380.87	730.25
381.07	702.16
381.26	793.44
381.46	699.82
381.65	671.73
381.85	739.61
382.04	772.38
382.24	758.33
382.43	690.46
382.63	655.35
382.83	753.65
383.02	779.40
383.22	734.93
383.41	730.25
383.61	723.23
383.80	922.17
384.00	805.14
384.19	837.91
384.39	837.91
384.58	793.44
384.78	863.66
384.97	826.21
385.17	844.93
385.36	833.23
385.56	844.93
385.75	791.10
385.95	828.55
386.14	905.79
386.34	896.43
386.53	856.64
386.72	882.38
386.92	896.43
387.11	847.27
387.31	952.60
387.50	940.90
387.70	905.79
387.89	870.68
388.09	870.68
388.28	922.17
388.48	1034.52
388.67	875.36
388.86	931.53
389.06	1013.45
389.25	961.96
389.45	1076.65
389.64	1006.43
389.84	1006.43
390.03	1039.20
390.22	1083.67
390.42	1078.99
390.61	1081.33
390.81	1095.37
391.00	1062.60
391.19	1151.54
391.39	1109.41
391.58	1242.82
391.78	1064.94
391.97	1104.73
392.16	1027.50
392.36	1160.91
392.55	1093.03
392.75	964.30
392.94	1158.57
393.13	1053.24
393.33	1121.12
393.52	1139.84
393.71	1149.20
393.91	1193.67
394.10	1186.65
394.29	1256.87
394.49	1212.40
394.68	1193.67
394.88	1252.19
395.07	1235.80
395.26	1451.13
395.46	1273.25
395.65	1256.87
395.84	1200.69
396.04	1266.23
396.23	1240.48
396.42	1247.51
396.62	1188.99
396.81	1280.27
397.00	1315.38
397.19	1308.36
397.39	1434.75
397.58	1392.62
397.77	1376.24
397.97	1423.05
398.16	1425.39
398.35	1607.95
398.55	1488.58
398.74	1572.84
398.93	1558.80
399.12	1593.90
399.32	1570.50
399.51	1633.69
399.70	1605.61
399.90	1549.43
400.09	1739.02
400.28	1633.69
400.47	1715.61
400.67	1804.55
400.86	1837.32
401.05	1776.47
401.24	1624.33
401.44	1706.25
401.63	1863.07
401.82	1708.59
402.01	1717.95
402.21	1820.94
402.40	1844.34
402.59	1771.79
402.78	1865.41
402.97	1792.85
403.17	1867.75
403.36	1884.13
403.55	1973.07
403.74	1937.96
403.93	1952.01
404.13	2001.16
404.32	2066.69
404.51	1994.14
404.70	2101.80
404.89	1968.39
405.09	2040.95
405.28	2136.91
405.47	1984.77
405.66	2050.31
405.85	2052.65
406.05	2083.08
406.24	2033.93
406.43	2150.95
406.62	2165.00
406.81	2120.53
407.00	2195.42
407.20	2160.31
407.39	2195.42
407.58	2279.68
407.77	2165.00
407.96	2331.17
408.15	2443.52
408.34	2396.71
408.54	2347.56
408.73	2394.37
408.92	2347.56
409.11	2410.75
409.30	2476.29
409.49	2356.92
409.68	2284.36
409.87	2478.63
410.07	2431.82
410.26	2530.12
410.45	2499.69
410.64	2520.76
410.83	2551.18
411.02	2621.40
411.21	2759.49
411.40	2654.17
411.59	2628.42
411.78	2691.62
411.98	2686.94
412.17	2867.16
412.36	2693.96
412.55	2693.96
412.74	2853.11
412.93	2881.20
413.12	2806.30
413.31	3016.95
413.50	2928.01
413.69	2876.52
413.88	2967.80
414.07	3075.46
414.26	3096.53
414.45	3070.78
414.64	3098.87
414.83	3091.85
415.02	3213.56
415.22	3176.11
415.41	3183.13
415.60	3297.81
415.79	3260.37
415.98	3372.71
416.17	3431.23
416.36	3501.44
416.55	3400.80
416.74	3478.04
416.93	3365.69
417.12	3393.78
417.31	3501.44
417.50	3463.99
417.69	3541.23
417.88	3658.26
418.07	3541.23
418.26	3592.72
418.45	3707.41
418.64	3712.09
418.83	3716.77
419.02	3798.69
419.21	3688.68
419.39	3552.93
419.58	3674.64
419.77	3693.37
419.96	3805.71
420.15	3761.24
420.34	3817.41
420.53	3854.86
420.72	3995.29
420.91	3948.48
421.10	3911.04
421.29	3960.19
421.48	3981.25
421.67	3971.89
421.86	3948.48
422.05	3894.65
422.24	3873.59
422.43	3932.10
422.61	3943.80
422.80	3889.97
422.99	4065.51
423.18	4149.77
423.37	4152.11
423.56	3976.57
423.75	4166.15
423.94	3974.23
424.13	3922.74
424.32	3836.14
424.50	3953.16
424.69	4142.75
424.88	4100.62
425.07	3939.12
425.26	4072.53
425.45	4039.76
425.64	4063.17
425.83	4156.79
426.01	3992.95
426.20	4100.62
426.39	4133.39
426.58	4021.04
426.77	4002.32
426.96	4098.28
427.15	4175.52
427.33	4159.13
427.52	4191.90
427.71	4304.25
427.90	4175.52
428.09	4315.95
428.28	4444.68
428.46	4437.66
428.65	4376.80
428.84	4252.75
429.03	4409.57
429.22	4147.43
429.40	4393.19
429.59	4241.05
429.78	4105.30
429.97	3990.61
430.16	4245.73
430.34	4276.16
430.53	4301.90
430.72	4351.06
430.91	4241.05
431.10	4449.36
431.28	4723.20
431.47	4669.37
431.66	4823.84
431.85	4617.88
432.03	4737.24
432.22	4835.55
432.41	4650.64
432.60	4858.95
432.79	4835.55
432.97	5004.07
433.16	4858.95
433.35	4762.99
433.54	4833.21
433.72	4842.57
433.91	5048.54
434.10	4835.55
434.28	5090.67
434.47	5032.15
434.66	5015.77
434.85	5048.54
435.03	5076.62
435.22	5020.45
435.41	5207.69
435.59	5322.38
435.78	5341.10
435.97	5364.51
436.16	5317.70
436.34	5294.29
436.53	5345.78
436.72	5657.07
436.90	5247.48
437.09	5245.14
437.28	5179.61
437.46	5331.74
437.65	5221.74
437.84	5310.68
438.02	5268.55
438.21	5392.59
438.40	5334.08
438.58	5563.45
438.77	5490.90
438.96	5614.95
439.14	5673.46
439.33	5701.54
439.52	5659.42
439.70	5909.85
439.89	5731.97
440.08	5947.30
440.26	5921.56
440.45	5937.94
440.63	6214.12
440.82	6263.27
441.01	6265.61
441.19	6171.99
441.38	6249.23
441.57	6277.32
441.75	6253.91
441.94	6593.29
442.12	6485.62
442.31	6497.33
442.50	6485.62
442.68	6267.95
442.87	6558.18
443.05	6654.14
443.24	6609.67
443.43	6590.95
443.61	6612.01
443.80	6722.02
443.98	6642.44
444.17	6377.96
444.35	6726.70
444.54	6766.49
444.73	6927.99
444.91	6729.04
445.10	6794.58
445.28	6796.92
445.47	6672.87
445.65	6785.21
445.84	6715.00
446.02	6775.85
446.21	6761.81
446.39	6815.64
446.58	6857.77
446.77	6949.05
446.95	6890.54
447.14	6843.73
447.32	6918.62
447.51	6970.12
447.69	6897.56
447.88	6867.13
448.06	6848.41
448.25	6810.96
448.43	7126.93
448.62	7056.72
448.80	6848.41
448.99	6988.84
449.17	7248.64
449.36	7049.69
449.54	7150.34
449.73	7339.92
449.91	7302.47
450.10	7485.03
450.28	7489.71
450.46	7403.11
450.65	7632.49
450.83	7475.67
451.02	7426.52
451.20	7435.88
451.39	7480.35
451.57	7426.52
451.76	7405.46
451.94	7520.14
452.13	7513.12
452.31	7372.69
452.49	7370.35
452.68	7506.10
452.86	7463.97
453.05	7389.07
453.23	7616.10
453.42	7485.03
453.60	7611.42
453.78	7854.84
453.97	7602.06
454.15	7700.36
454.34	7646.53
454.52	7676.96
454.70	7688.66
454.89	7864.20
455.07	7829.09
455.26	7903.99
455.44	8025.70
455.62	7899.31
455.81	8013.99
455.99	7988.25
456.17	7929.74
456.36	8257.41
456.54	8241.03
456.73	8187.19
456.91	8322.94
457.09	8533.59
457.28	8669.34
457.46	8344.01
457.64	8285.50
457.83	8252.73
458.01	8091.23
458.19	8505.51
458.38	8554.66
458.56	8418.91
458.74	8374.44
458.93	8479.76
459.11	8486.78
459.29	8552.32
459.48	8503.17
459.66	8554.66
459.84	8713.81
460.03	8847.22
460.21	8926.80
460.39	8812.12
460.57	8823.82
460.76	8734.88
460.94	8929.14
461.12	9046.17
461.31	8800.41
461.49	8922.12
461.67	8910.42
461.85	9214.69
462.04	9011.06
462.22	9586.83
462.40	9170.22
462.59	9151.49
462.77	9172.56
462.95	9135.11
463.13	9280.22
463.32	9100.00
463.50	9186.60
463.68	9305.97
463.86	9345.76
464.05	9125.75
464.23	9287.25
464.41	9359.80
464.59	9036.81
464.78	9427.68
464.96	9284.91
465.14	9151.49
465.32	9415.98
465.50	9638.33
465.69	9547.05
465.87	9507.26
466.05	9460.45
466.23	9359.80
466.41	9425.34
466.60	9600.88
466.78	9418.32
466.96	9729.61
467.14	9579.81
467.32	9685.14
467.51	9783.44
467.69	9575.13
467.87	9605.56
468.05	9785.78
468.23	9423.00
468.41	9750.67
468.60	9851.31
468.78	9872.38
468.96	9816.21
469.14	10019.83
469.32	10146.22
469.50	9633.64
469.69	10057.28
469.87	10015.15
470.05	10274.95
470.23	10104.09
470.41	10228.14
470.59	10200.05
470.77	10068.98
470.95	10260.91
471.14	10595.61
471.32	10256.23
471.50	10534.75
471.68	10647.10
471.86	10691.57
472.04	10846.04
472.22	10801.57
472.40	10628.37
472.58	10490.28
472.77	10600.29
472.95	11030.94
473.13	11140.95
473.31	10939.66
473.49	10878.81
473.67	10679.86
473.85	11103.50
474.03	11265.00
474.21	11304.79
474.39	11162.01
474.57	11442.88
474.75	11147.97
474.93	11569.27
475.12	11367.98
475.30	11719.06
475.48	11405.43
475.66	11728.42
475.84	11461.60
476.02	11796.30
476.20	11728.42
476.38	11700.34
476.56	12161.42
476.74	12219.94
476.92	12308.88
477.10	12226.96
477.28	12432.93
477.46	12327.60
477.64	12706.77
477.82	12758.26
478.00	12875.29
478.18	13020.40
478.36	12835.50
478.54	13088.28
478.72	13252.11
478.90	12830.82
479.08	13357.44
479.26	13446.38
479.44	13570.43
479.62	13846.61
479.80	13556.38
479.98	14111.09
480.16	14015.13
480.34	13907.46
480.52	14288.97
480.70	14083.00
480.88	13977.68
481.06	14207.05
481.24	14513.66
481.41	14607.28
481.59	14794.53
481.77	14626.01
481.95	14864.74
482.13	15033.26
482.31	15033.26
482.49	15665.21
482.67	15400.72
482.85	15400.72
483.03	15580.95
483.21	15995.22
483.39	15815.00
483.57	15953.09
483.74	15892.24
483.92	15950.75
484.10	15939.05
484.28	16343.96
484.46	16706.74
484.64	17130.38
484.82	16657.59
485.00	16606.10
485.18	16910.37
485.35	17177.19
485.53	16608.44
485.71	16610.78
485.89	17053.14
486.07	16959.52
486.25	17146.76
486.43	17275.49
486.61	17390.18
486.78	17724.88
486.96	18068.94
487.14	18221.07
487.32	18436.40
487.50	18572.15
487.68	18827.27
487.85	18794.50
488.03	19035.58
488.21	18834.29
488.39	19215.80
488.57	19063.66
488.75	19152.60
488.92	19585.60
489.10	19810.29
489.28	20032.65
489.46	20566.29
489.64	20222.23
489.81	20704.38
489.99	20737.15
490.17	20816.72
490.35	20819.07
490.53	20929.07
490.70	21118.65
490.88	21144.40
491.06	21561.02
491.24	21600.80
491.41	21598.46
491.59	21345.69
491.77	21514.20
491.95	21848.90
492.13	22108.70
492.30	22141.47
492.48	22305.31
492.66	22501.91
492.84	22382.54
493.01	22534.68
493.19	22534.68
493.37	22876.40
493.54	22852.99
493.72	23070.66
493.90	23077.68
494.08	23700.26
494.25	23908.57
494.43	23946.02
494.61	23861.76
494.79	24357.96
494.96	24201.14
495.14	24116.88
495.32	24533.50
495.49	24147.31
495.67	24563.92
495.85	24636.48
496.02	24966.49
496.20	25069.48
496.38	24915.00
496.55	25523.54
496.73	25687.38
496.91	25610.14
497.09	25696.74
497.26	25579.71
497.44	25958.88
497.62	25935.48
497.79	26246.77
497.97	25862.92
498.14	26185.91
498.32	26342.73
498.50	26270.17
498.67	26735.94
498.85	26459.76
499.03	26789.77
499.20	27187.66
499.38	27185.32
499.56	27131.49
499.73	27325.75
499.91	27175.96
500.08	27140.85
500.26	27047.23
500.44	27204.05
500.61	27339.80
500.79	27365.54
500.97	27850.03
501.14	28116.86
501.32	27894.50
501.49	27592.58
501.67	27878.12
501.84	28364.95
502.02	28144.94
502.20	28287.71
502.37	28687.95
502.55	28744.12
502.72	28423.47
502.90	28830.72
503.07	28833.06
503.25	28877.53
503.43	28875.19
503.60	29097.54
503.78	29266.06
503.95	28718.37
504.13	29617.14
504.30	29476.71
504.48	29392.45
504.65	29851.19
504.83	29916.73
505.01	30019.71
505.18	30003.33
505.36	30462.07
505.53	30415.26
505.71	30333.34
505.88	30501.86
506.06	30281.85
506.23	30574.42
506.41	30782.73
506.58	30684.42
506.76	30796.77
506.93	30806.13
507.11	30841.24
507.28	30883.37
507.46	31103.38
507.63	30902.09
507.81	30871.67
507.98	31079.97
508.16	31264.88
508.33	31241.47
508.50	31597.23
508.68	31775.11
508.85	32233.86
509.03	32079.38
509.20	32051.30
509.38	32135.56
509.55	32404.72
509.73	32477.27
509.90	32212.79
510.08	32353.23
510.25	32346.20
510.42	32435.14
510.60	32713.67
510.77	32629.41
510.95	32971.13
511.12	32933.68
511.30	33153.69
511.47	33467.32
511.64	33404.13
511.82	33240.29
511.99	33013.26
512.17	33092.83
512.34	33284.76
512.51	33338.59
512.69	33912.02
512.86	33741.16
513.04	33509.45
513.21	33696.69
513.38	33584.35
513.56	33940.11
513.73	33209.86
513.90	34305.23
514.08	33804.36
514.25	34073.52
514.43	34143.74
514.60	34330.98
514.77	33935.43
514.95	34728.87
515.12	34450.35
515.29	34836.53
515.47	34838.87
515.64	35152.51
515.81	34792.06
515.99	34710.14
516.16	34330.98
516.33	34429.28
516.51	34752.27
516.68	34162.46
516.85	34361.40
517.03	34658.65
517.20	34494.82
517.37	35292.94
517.54	35220.38
517.72	34939.52
517.89	35192.30
518.06	34822.49
518.24	35047.18
518.41	35262.51
518.58	35267.19
518.75	35517.63
518.93	35641.68
519.10	35700.19
519.27	36065.31
519.45	36381.29
519.62	36444.48
519.79	35962.33
519.96	36290.01
520.14	36783.86
520.31	36020.84
520.48	36704.28
520.65	36645.77
520.83	36589.59
521.00	36947.70
521.17	36432.78
521.34	36624.70
521.52	37296.44
521.69	37017.91
521.86	37778.59
522.03	37221.54
522.20	36533.42
522.38	37378.36
522.55	37717.73
522.72	37263.67
522.89	37137.28
523.07	37792.63
523.24	37443.89
523.41	37904.98
523.58	37944.76
523.75	38658.63
523.92	38143.71
524.10	38384.79
524.27	38115.62
524.44	38595.43
524.61	38319.25
524.78	38689.06
524.96	38356.70
525.13	38918.43
525.30	38466.70
525.47	39007.37
525.64	38824.81
525.81	38801.40
525.98	38162.43
526.16	38195.20
526.33	38689.06
526.50	38569.69
526.67	37975.19
526.84	38478.41
527.01	38188.18
527.18	38698.42
527.36	39026.09
527.53	39391.22
527.70	39702.51
527.87	39447.39
528.04	39030.77
528.21	39016.73
528.38	39304.62
528.55	39665.06
528.72	39676.76
528.89	39924.86
529.07	39922.52
529.24	39786.77
529.41	39290.57
529.58	40126.14
529.75	39962.31
529.92	40217.43
530.09	40172.96
530.26	40278.28
530.43	40533.40
530.60	39922.52
530.77	40016.14
530.94	40744.05
531.11	40582.55
531.28	40418.71
531.46	40676.17
531.63	40952.35
531.80	40879.80
531.97	40641.06
532.14	40556.80
532.31	40524.04
532.48	40627.02
532.65	40720.64
532.82	40701.92
532.99	41071.72
533.16	40505.31
533.33	41254.28
533.50	41090.44
533.67	41045.97
533.84	40708.94
534.01	41167.68
534.18	41146.62
534.35	41645.15
534.52	41415.78
534.69	41083.42
534.86	41647.49
535.03	41675.58
535.20	41579.62
535.37	42202.20
535.54	41846.44
535.71	41745.80
535.88	41652.17
536.05	41453.23
536.22	41715.37
536.38	42160.07
536.55	41467.27
536.72	41958.78
536.89	41790.27
537.06	41991.55
537.23	42216.24
537.40	41773.88
537.57	42511.15
537.74	42454.98
537.91	42742.86
538.08	42270.08
538.25	42162.41
538.42	42485.40
538.59	42548.60
538.75	42026.66
538.92	42279.44
539.09	42513.49
539.26	42534.56
539.43	42457.32
539.60	42216.24
539.77	42483.06
539.94	42436.25
540.11	42607.11
540.28	42398.80
540.44	42335.61
540.61	42527.53
540.78	42621.16
540.95	42354.33
541.12	42520.51
541.29	42859.89
541.46	42871.59
541.62	42862.23
541.79	43540.99
541.96	42747.54
542.13	42946.49
542.30	43150.12
542.47	43342.04
542.63	43159.48
542.80	43171.18
542.97	43447.36
543.14	44135.48
543.31	43679.08
543.48	43831.21
543.64	43885.04
543.81	43709.50
543.98	43791.42
544.15	43756.32
544.32	44428.05
544.48	44194.00
544.65	43973.98
544.82	44182.29
544.99	43775.04
545.16	43978.67
545.32	43618.22
545.49	44350.81
545.66	44547.42
545.83	44598.91
546.00	44538.05
546.16	44158.89
546.33	44268.89
546.50	43948.24
546.67	44423.37
546.83	43316.29
547.00	44254.85
547.17	44102.71
547.34	44186.97
547.50	44289.96
547.67	45090.42
547.84	44619.97
548.00	44664.44
548.17	44624.65
548.34	44519.33
548.51	45488.31
548.67	45214.47
548.84	44711.25
549.01	45071.70
549.18	44879.77
549.34	44697.21
549.51	45167.66
549.68	45102.12
549.84	45296.39
550.01	45347.88
550.18	44734.66
550.34	44854.03
550.51	44676.15
550.68	45158.30
550.84	44854.03
551.01	45432.14
551.18	45268.30
551.34	45422.78
551.51	45345.54
551.68	45387.67
551.84	45684.92
552.01	45500.01
552.18	45532.78
552.34	44891.48
552.51	45373.63
552.68	45134.89
552.84	45925.99
553.01	45605.34
553.18	45532.78
553.34	45354.90
553.51	45607.68
553.67	45607.68
553.84	46031.32
554.01	45951.74
554.17	45902.59
554.34	46038.34
554.51	45727.05
554.67	46148.34
554.84	46256.01
555.00	45928.33
555.17	45731.73
555.33	46153.02
555.50	46019.61
555.67	45925.99
555.83	46054.72
556.00	46134.30
556.16	46658.58
556.33	46349.63
556.50	46110.89
556.66	45776.20
556.83	45284.68
556.99	46342.61
557.16	46078.13
557.32	46433.89
557.49	46284.09
557.65	46169.41
557.82	46246.65
557.98	46291.12
558.15	46073.45
558.32	46071.10
558.48	46017.27
558.65	45916.63
558.81	46295.80
558.98	46021.95
559.14	46160.05
559.31	46569.64
559.47	46485.38
559.64	46651.56
559.80	46660.92
559.97	46412.82
560.13	46078.13
560.30	46394.10
560.46	46426.87
560.63	46113.23
560.79	47107.96
560.96	46461.97
561.12	46454.95
561.29	46803.69
561.45	46651.56
561.61	46328.56
561.78	46138.98
561.94	46117.92
562.11	46256.01
562.27	46562.62
562.44	46431.55
562.60	46728.80
562.77	46953.49
562.93	46965.19
563.10	47068.17
563.26	46043.02
563.42	47028.38
563.59	46871.57
563.75	46726.46
563.92	46756.88
564.08	46803.69
564.24	46810.71
564.41	47058.81
564.57	46724.11
564.74	46401.12
564.90	47030.72
565.07	46780.29
565.23	46707.73
565.39	46632.83
565.56	46747.52
565.72	46375.37
565.88	46876.25
566.05	46808.37
566.21	46653.90
566.38	47054.13
566.54	46623.47
566.70	46894.97
566.87	47377.12
567.03	47145.41
567.19	47426.28
567.36	47100.94
567.52	46681.98
567.68	47386.49
567.85	46703.05
568.01	46876.25
568.17	47096.26
568.34	47091.58
568.50	46752.20
568.66	46810.71
568.83	47021.36
568.99	46696.03
569.15	46574.32
569.32	46731.14
569.48	46983.91
569.64	47154.77
569.81	47082.22
569.97	46990.94
570.13	47276.48
570.30	46611.77
570.46	46749.86
570.62	46347.29
570.78	46696.03
570.95	46920.72
571.11	46932.42
571.27	46955.83
571.43	47180.52
571.60	47253.08
571.76	47215.63
571.92	46710.07
572.09	47330.31
572.25	47105.62
572.41	46967.53
572.57	47466.06
572.74	47288.18
572.90	47140.73
573.06	47304.57
573.22	47194.56
573.38	47114.98
573.55	46518.15
573.71	47374.78
573.87	47114.98
574.03	47119.66
574.20	47236.69
574.36	46972.21
574.52	47051.79
574.68	46932.42
574.84	47140.73
575.01	47459.04
575.17	46878.59
575.33	47152.43
575.49	47002.64
575.65	47292.86
575.82	47210.95
575.98	46749.86
576.14	47363.08
576.30	47061.15
576.46	46962.85
576.62	47295.21
576.79	46681.98
576.95	46845.82
577.11	47040.09
577.27	47061.15
577.43	46960.51
577.59	47150.09
577.75	47117.32
577.92	47070.51
578.08	46679.64
578.24	46960.51
578.40	46988.60
578.56	47267.12
578.72	47105.62
578.88	46995.62
579.04	47356.06
579.21	47131.37
579.37	46791.99
579.53	47351.38
579.69	47026.04
579.85	47147.75
580.01	47318.61
580.17	47292.86
580.33	47124.35
580.49	47423.93
580.65	47449.68
580.82	47007.32
580.98	47405.21
581.14	47140.73
581.30	47351.38
581.46	47232.01
581.62	47253.08
581.78	47061.15
581.94	47805.44
582.10	47236.69
582.26	47077.54
582.42	47840.55
582.58	47075.19
582.74	47126.69
582.90	47264.78
583.06	47709.48
583.22	47405.21
583.38	47452.02
583.54	47334.99
583.70	46909.02
583.86	47295.21
584.02	47337.33
584.18	47358.40
584.34	47283.50
584.50	47372.44
584.66	47070.51
584.82	47173.50
584.98	47304.57
585.14	47494.15
585.30	47316.27
585.46	47100.94
585.62	47187.54
585.78	47091.58
585.94	46906.68
586.10	47112.64
586.26	46754.54
586.42	47566.71
586.58	47267.12
586.74	47515.22
586.90	47257.76
587.06	46988.60
587.22	47086.90
587.38	47454.36
587.54	47463.72
587.70	47721.18
587.86	47323.29
588.02	47079.88
588.18	47318.61
588.34	46892.63
588.49	46787.31
588.65	46834.12
588.81	46663.26
588.97	46913.70
589.13	46953.49
589.29	46951.15
589.45	47070.51
589.61	47384.15
589.77	47419.25
