SpectraSuite Data File
++++++++++++++++++++++++++++++++++++
Date: Fri Oct 25 11:22:45 EDT 2013
User: price-jones
Dark Spectrum Present: No
Reference Spectrum Present: No
Number of Sampled Component Spectra: 1
Spectrometers: USB2+H05261
Integration Time (usec): 100000 (USB2+H05261)
Spectra Averaged: 1 (USB2+H05261)
Boxcar Smoothing: 0 (USB2+H05261)
Correct for Electrical Dark: No (USB2+H05261)
Strobe/Lamp Enabled: No (USB2+H05261)
Correct for Detector Non-linearity: No (USB2+H05261)
Correct for Stray Light: No (USB2+H05261)
Number of Pixels in Processed Spectrum: 2048
>>>>>Begin Processed Spectral Data<<<<<
365.73	191.92
365.92	191.92
366.12	191.92
366.32	161.50
366.52	107.66
366.72	70.22
366.91	114.69
367.11	72.56
367.31	107.66
367.51	140.43
367.70	161.50
367.90	128.73
368.10	102.98
368.30	81.92
368.49	102.98
368.69	112.35
368.89	135.75
369.09	241.08
369.28	117.03
369.48	161.50
369.68	140.43
369.87	149.79
370.07	142.77
370.27	198.95
370.47	337.04
370.66	561.73
370.86	535.98
371.06	702.16
371.25	774.72
371.45	645.99
371.65	678.76
371.84	674.07
372.04	664.71
372.24	777.06
372.44	685.78
372.63	770.04
372.83	755.99
373.03	755.99
373.22	774.72
373.42	730.25
373.62	692.80
373.81	816.85
374.01	760.67
374.21	732.59
374.40	814.51
374.60	837.91
374.79	795.78
374.99	779.40
375.19	830.89
375.38	858.98
375.58	823.87
375.78	861.32
375.97	863.66
376.17	880.04
376.37	884.72
376.56	847.27
376.76	837.91
376.95	791.10
377.15	856.64
377.35	898.77
377.54	833.23
377.74	868.34
377.93	854.30
378.13	896.43
378.33	917.49
378.52	875.36
378.72	997.07
378.91	980.68
379.11	938.55
379.31	947.92
379.50	976.00
379.70	971.32
379.89	994.73
380.09	976.00
380.28	887.06
380.48	994.73
380.68	983.02
380.87	936.21
381.07	1069.62
381.26	959.62
381.46	1071.97
381.65	994.73
381.85	1006.43
382.04	1039.20
382.24	1015.79
382.43	1109.41
382.63	1071.97
382.83	1062.60
383.02	1011.11
383.22	1128.14
383.41	1069.62
383.61	1083.67
383.80	1160.91
384.00	1135.16
384.19	1064.94
384.39	1069.62
384.58	1095.37
384.78	1076.65
384.97	1130.48
385.17	1177.29
385.36	1128.14
385.56	1146.86
385.75	1086.01
385.95	1217.08
386.14	1226.44
386.34	1100.05
386.53	1167.93
386.72	1184.31
386.92	1191.33
387.11	1179.63
387.31	1289.64
387.50	1203.04
387.70	1306.02
387.89	1277.93
388.09	1160.91
388.28	1191.33
388.48	1261.55
388.67	1378.58
388.86	1219.42
389.06	1284.95
389.25	1315.38
389.45	1364.53
389.64	1320.06
389.84	1334.11
390.03	1413.68
390.22	1404.32
390.42	1345.81
390.61	1406.66
390.81	1373.89
391.00	1420.71
391.19	1486.24
391.39	1390.28
391.58	1453.47
391.78	1453.47
391.97	1416.02
392.16	1507.30
392.36	1469.86
392.55	1467.52
392.75	1437.09
392.94	1565.82
393.13	1465.18
393.33	1607.95
393.52	1479.22
393.71	1605.61
393.91	1598.59
394.10	1535.39
394.29	1685.19
394.49	1619.65
394.68	1584.54
394.88	1682.85
395.07	1619.65
395.26	1631.35
395.46	1701.57
395.65	1734.34
395.84	1666.46
396.04	1774.13
396.23	1706.25
396.42	1706.25
396.62	1799.87
396.81	1846.68
397.00	1783.49
397.19	1813.92
397.39	1823.28
397.58	1806.89
397.77	1825.62
397.97	1736.68
398.16	1891.15
398.35	1851.36
398.55	1919.24
398.74	1937.96
398.93	1870.09
399.12	1919.24
399.32	1874.77
399.51	1959.03
399.70	2033.93
399.90	1987.11
400.09	1940.30
400.28	1930.94
400.47	2165.00
400.67	2033.93
400.86	2129.89
401.05	2047.97
401.24	2134.57
401.44	2148.61
401.63	2195.42
401.82	2080.74
402.01	2104.14
402.21	2267.98
402.40	2129.89
402.59	2188.40
402.78	2183.72
402.97	2181.38
403.17	2237.55
403.36	2197.76
403.55	2260.96
403.74	2331.17
403.93	2207.13
404.13	2284.36
404.32	2410.75
404.51	2530.12
404.70	2452.88
404.89	2443.52
405.09	2436.50
405.28	2469.27
405.47	2457.56
405.66	2537.14
405.85	2483.31
406.05	2466.92
406.24	2520.76
406.43	2656.51
406.62	2595.65
406.81	2642.46
407.00	2637.78
407.20	2605.02
407.39	2670.55
407.58	2715.02
407.77	2658.85
407.96	2710.34
408.15	2686.94
408.34	2715.02
408.54	2771.19
408.73	2810.98
408.92	2916.31
409.11	2869.50
409.30	2850.77
409.49	2951.42
409.68	2832.05
409.87	3049.72
410.07	2939.71
410.26	2890.56
410.45	3096.53
410.64	3030.99
410.83	3166.74
411.02	3061.42
411.21	3157.38
411.40	3103.55
411.59	3281.43
411.78	3232.28
411.98	3194.83
412.17	3304.84
412.36	3211.22
412.55	3386.76
412.74	3428.88
412.93	3307.18
413.12	3361.01
413.31	3536.55
413.50	3630.17
413.69	3419.52
413.88	3627.83
414.07	3747.20
414.26	3742.52
414.45	3742.52
414.64	3801.03
414.83	3784.65
415.02	3817.41
415.22	3955.51
415.41	3946.14
415.60	3847.84
415.79	3939.12
415.98	3911.04
416.17	4046.79
416.36	3967.21
416.55	3892.31
416.74	4016.36
416.93	4140.41
417.12	4102.96
417.31	4131.05
417.50	4189.56
417.69	4329.99
417.88	4337.01
418.07	4222.33
418.26	4234.03
418.45	4285.52
418.64	4458.72
418.83	4332.33
419.02	4362.76
419.21	4475.10
419.39	4489.15
419.58	4507.87
419.77	4477.44
419.96	4585.11
420.15	4699.80
420.34	4692.77
420.53	4751.29
420.72	4582.77
420.91	4547.66
421.10	4697.46
421.29	4961.94
421.48	4657.67
421.67	4849.59
421.86	4835.55
422.05	4814.48
422.24	4884.70
422.43	4884.70
422.61	4954.91
422.80	4884.70
422.99	4898.74
423.18	4842.57
423.37	4966.62
423.56	4971.30
423.75	4957.25
423.94	4821.50
424.13	4627.24
424.32	4830.87
424.50	4938.53
424.69	5055.56
424.88	5118.75
425.07	4889.38
425.26	4903.42
425.45	5018.11
425.64	5114.07
425.83	5097.69
426.01	5301.31
426.20	5205.35
426.39	5046.20
426.58	5048.54
426.77	5240.46
426.96	5219.39
427.15	5088.32
427.33	5221.74
427.52	5114.07
427.71	5263.86
427.90	5174.92
428.09	5261.52
428.28	5507.28
428.46	5296.63
428.65	5364.51
428.84	5444.09
429.03	5231.10
429.22	5317.70
429.40	5305.99
429.59	5586.86
429.78	5294.29
429.97	5317.70
430.16	5568.13
430.34	5650.05
430.53	5575.16
430.72	5678.14
430.91	5605.58
431.10	5708.57
431.28	5813.89
431.47	5867.72
431.66	5998.79
431.85	5963.68
432.03	5694.52
432.22	5966.03
432.41	5919.21
432.60	5811.55
432.79	5933.26
432.97	6115.82
433.16	6005.81
433.35	5942.62
433.54	6097.10
433.72	6214.12
433.91	6258.59
434.10	6195.40
434.28	6171.99
434.47	6342.85
434.66	6193.06
434.85	6183.70
435.03	6457.54
435.22	6296.04
435.41	6541.80
435.59	6190.72
435.78	6389.66
435.97	6340.51
436.16	6298.38
436.34	6464.56
436.53	6565.20
436.72	6661.16
436.90	6487.96
437.09	6717.34
437.28	6478.60
437.46	6640.10
437.65	6691.59
437.84	6729.04
438.02	6745.42
438.21	6843.73
438.40	6801.60
438.58	7133.95
438.77	7183.10
438.96	6984.16
439.14	7150.34
439.33	7157.36
439.52	7199.49
439.70	7300.13
439.89	7442.90
440.08	7318.86
440.26	7318.86
440.45	7382.05
440.63	7363.33
440.82	7564.61
441.01	7595.04
441.19	7693.34
441.38	7679.30
441.57	7836.11
441.75	7852.50
441.94	7861.86
442.12	8039.74
442.31	8147.40
442.50	8037.40
442.68	7971.86
442.87	8276.13
443.05	8098.25
443.24	8107.62
443.43	8322.94
443.61	8341.67
443.80	8496.14
443.98	8135.70
444.17	7789.30
444.35	8245.71
444.54	8379.12
444.73	8332.31
444.91	8320.60
445.10	8308.90
445.28	8390.82
445.47	8332.31
445.65	8374.44
445.84	8402.52
446.02	8446.99
446.21	8360.39
446.39	8341.67
446.58	8519.55
446.77	8454.02
446.95	8077.19
447.14	8400.18
447.32	8592.11
447.51	8336.99
447.69	8393.16
447.88	8379.12
448.06	8678.71
448.25	8542.96
448.43	8608.49
448.62	8613.17
448.80	8599.13
448.99	8812.12
449.17	8746.58
449.36	8627.21
449.54	8812.12
449.73	8968.93
449.91	9062.55
450.10	9025.11
450.28	9100.00
450.46	9144.47
450.65	9202.99
450.83	9102.34
451.02	9055.53
451.20	9242.78
451.39	9303.63
451.57	9256.82
451.76	9020.42
451.94	9376.19
452.13	9273.20
452.31	9352.78
452.49	9100.00
452.68	9401.93
452.86	9451.08
453.05	9621.94
453.23	9490.87
453.42	9518.96
453.60	9401.93
453.78	9605.56
453.97	9497.89
454.15	9341.08
454.34	9504.92
454.52	9685.14
454.70	9944.94
454.89	9790.46
455.07	9823.23
455.26	9827.91
455.44	9982.38
455.62	10001.11
455.81	9928.55
455.99	10012.81
456.17	10073.67
456.36	10176.65
456.54	10384.96
456.73	10200.05
456.91	10403.68
457.09	10537.09
457.28	10637.73
457.46	10314.74
457.64	10626.03
457.83	10501.98
458.01	10436.45
458.19	10558.16
458.38	10555.82
458.56	10981.79
458.74	10672.84
458.93	10609.65
459.11	10775.83
459.29	10649.44
459.48	10787.53
459.66	10848.38
459.84	10939.66
460.03	11180.74
460.21	10995.84
460.39	11019.24
460.57	10981.79
460.76	11269.68
460.94	11396.07
461.12	11311.81
461.31	11335.21
461.49	11241.59
461.67	11199.46
461.85	11817.36
462.04	11229.89
462.22	11964.82
462.40	11623.10
462.59	11655.87
462.77	11508.41
462.95	11587.99
463.13	11555.22
463.32	11782.26
463.50	11712.04
463.68	11719.06
463.86	11800.98
464.05	11538.84
464.23	11709.70
464.41	11875.88
464.59	11763.53
464.78	11887.58
464.96	12105.25
465.14	11850.13
465.32	12152.06
465.50	12114.61
465.69	12187.17
465.87	12098.23
466.05	12278.45
466.23	12182.49
466.41	12159.08
466.60	12341.64
466.78	12322.92
466.96	12339.30
467.14	12294.83
467.32	12414.20
467.51	12388.46
467.69	12030.35
467.87	12664.64
468.05	12603.78
468.23	12395.48
468.41	12482.08
468.60	12709.11
468.78	12884.65
468.96	12566.34
469.14	12917.42
469.32	12915.08
469.50	12718.47
469.69	13064.87
469.87	13156.15
470.05	13160.83
470.23	13422.97
470.41	13163.17
470.59	13434.68
470.77	13123.38
470.95	13390.20
471.14	13469.78
471.32	13097.64
471.50	13577.45
471.68	13626.60
471.86	13530.64
472.04	13816.18
472.22	14057.26
472.40	13954.27
472.58	14099.39
472.77	13886.40
472.95	14295.99
473.13	14417.70
473.31	14225.78
473.49	14340.46
473.67	14099.39
473.85	14471.53
474.03	14389.61
474.21	14738.35
474.39	14906.87
474.57	14651.75
474.75	14878.79
474.93	15014.54
475.12	14801.55
475.30	15164.33
475.48	15005.17
475.66	15222.84
475.84	15227.53
476.02	15405.41
476.20	15335.19
476.38	15616.05
476.56	15932.03
476.74	15887.56
476.92	15796.28
477.10	16088.84
477.28	16098.20
477.46	16723.13
477.64	16334.60
477.82	16713.77
478.00	17334.01
478.18	16936.12
478.36	17221.66
478.54	17121.02
478.72	17383.16
478.90	17296.56
479.08	17886.37
479.26	17689.77
479.44	17755.30
479.62	17940.21
479.80	18258.52
479.98	18263.20
480.16	18602.58
480.34	18317.03
480.52	18621.30
480.70	18897.49
480.88	18853.02
481.06	19009.83
481.24	18960.68
481.41	18970.04
481.59	19508.37
481.77	19768.16
481.95	19253.25
482.13	19948.39
482.31	19721.35
482.49	20484.37
482.67	20444.58
482.85	20603.74
483.03	20353.30
483.21	20833.11
483.39	20702.04
483.57	21029.71
483.74	21343.35
483.92	21640.59
484.10	21205.25
484.28	21734.21
484.46	22031.46
484.64	22560.42
484.82	21865.28
485.00	22403.61
485.18	23136.20
485.35	23168.96
485.53	23002.78
485.71	23255.56
485.89	23901.55
486.07	23276.63
486.25	23704.95
486.43	23580.90
486.61	23983.47
486.78	23648.77
486.96	24290.08
487.14	24673.93
487.32	24629.46
487.50	25132.67
487.68	25528.22
487.85	25455.67
488.03	25743.55
488.21	25914.41
488.39	26586.15
488.57	26434.01
488.75	26024.42
488.92	26738.28
489.10	26689.13
489.28	26862.33
489.46	27585.55
489.64	27136.17
489.81	27597.26
489.99	27866.42
490.17	28102.81
490.35	28107.49
490.53	28451.55
490.70	28624.75
490.88	28341.55
491.06	29020.30
491.24	29165.42
491.41	29165.42
491.59	29289.46
491.77	29214.57
491.95	29893.32
492.13	30162.48
492.30	30422.28
492.48	30260.79
492.66	30213.98
492.84	30572.08
493.01	30764.00
493.19	30766.34
493.37	31056.57
493.54	31243.81
493.72	31833.63
493.90	31541.06
494.08	31831.29
494.25	31749.37
494.43	32224.50
494.61	32734.73
494.79	32858.78
494.96	32687.92
495.14	33027.30
495.32	32776.86
495.49	33429.87
495.67	33146.67
495.85	33425.19
496.02	33916.70
496.20	34068.84
496.38	34204.59
496.55	34335.66
496.73	35115.06
496.91	34796.74
497.09	34967.60
497.26	35026.12
497.44	35367.84
497.62	35683.81
497.79	36299.37
497.97	35491.88
498.14	36079.36
498.32	36254.90
498.50	36615.34
498.67	36500.65
498.85	37050.68
499.03	36996.85
499.20	36788.54
499.38	36910.25
499.56	37198.13
499.73	37523.47
499.91	37022.59
500.08	37752.84
500.26	37432.19
500.44	37776.25
500.61	38192.86
500.79	37954.13
500.97	38415.21
501.14	38906.73
501.32	38597.77
501.49	39075.24
501.67	38986.30
501.84	39021.41
502.02	38904.38
502.20	39070.56
502.37	39459.09
502.55	39288.23
502.72	39981.03
502.90	39945.92
503.07	39592.50
503.25	40100.40
503.43	39814.85
503.60	40458.50
503.78	40339.13
503.95	40163.59
504.13	40648.08
504.30	40486.59
504.48	40711.28
504.65	41167.68
504.83	41338.54
505.01	41352.58
505.18	41076.40
505.36	41902.61
505.53	41493.02
505.71	41846.44
505.88	42010.28
506.06	41401.74
506.23	41837.08
506.41	41911.97
506.58	41752.82
506.76	42689.03
506.93	42478.38
507.11	42550.94
507.28	42330.93
507.46	42618.81
507.63	43070.54
507.81	43447.36
507.98	43189.91
508.16	43164.16
508.33	43590.14
508.50	43835.89
508.68	44062.93
508.85	43894.41
509.03	44079.31
509.20	44296.98
509.38	44451.45
509.55	44622.31
509.73	44809.56
509.90	44835.30
510.08	44774.45
510.25	44598.91
510.42	44994.46
510.60	45137.23
510.77	45139.57
510.95	45654.49
511.12	45141.91
511.30	45397.03
511.47	45605.34
511.64	45815.99
511.82	46089.83
511.99	45713.00
512.17	46202.18
512.34	45984.51
512.51	46628.15
512.69	46581.34
512.86	46192.81
513.04	46754.54
513.21	46803.69
513.38	47210.95
513.56	47061.15
513.73	47217.97
513.90	47243.71
514.08	46965.19
514.25	47442.66
514.43	47667.35
514.60	47866.30
514.77	47356.06
514.95	48133.12
515.12	47510.53
515.29	47643.94
515.47	48051.20
515.64	48128.44
515.81	48303.98
515.99	48364.83
516.16	48720.59
516.33	48762.72
516.51	48725.27
516.68	48889.11
516.85	48631.65
517.03	49226.15
517.20	48594.20
517.37	48914.86
517.54	48725.27
517.72	49097.42
517.89	49272.96
518.06	49457.86
518.24	49375.94
518.41	49233.17
518.58	49610.00
518.75	49422.75
518.93	49521.05
519.10	49902.56
519.27	49673.19
519.45	49694.25
519.62	50021.93
519.79	50190.45
519.96	49996.18
520.14	50288.75
520.31	50335.56
520.48	50782.60
520.65	50499.40
520.83	50789.62
521.00	50721.75
521.17	50693.66
521.34	50965.17
521.52	51173.47
521.69	50918.35
521.86	51239.01
522.03	51318.59
522.20	51508.17
522.38	51569.02
522.55	51463.70
522.72	51360.72
522.89	51615.83
523.07	51774.99
523.24	51784.35
523.41	51908.40
523.58	51592.43
523.75	52149.48
523.92	51969.26
524.10	52006.70
524.27	52238.42
524.44	52149.48
524.61	52348.42
524.78	52484.17
524.96	52025.43
525.13	52470.13
525.30	52795.46
525.47	52774.40
525.64	52790.78
525.81	52715.89
525.98	52650.35
526.16	52460.77
526.33	52870.36
526.50	53193.36
526.67	52776.74
526.84	53188.67
527.01	53052.92
527.18	53029.52
527.36	53183.99
527.53	52954.62
527.70	53310.38
527.87	53544.44
528.04	53462.52
528.21	53502.31
528.38	53514.01
528.55	53731.68
528.72	53511.67
528.89	53535.07
529.07	53425.07
529.24	53518.69
529.41	53865.09
529.58	53703.59
529.75	53471.88
529.92	53773.81
530.09	53989.14
530.26	53904.88
530.43	54162.34
530.60	54017.22
530.77	53963.39
530.94	54110.85
531.11	54195.10
531.28	54363.62
531.46	54396.39
531.63	54307.45
531.80	54272.34
531.97	54747.47
532.14	54731.09
532.31	54717.04
532.48	54632.78
532.65	54658.53
532.82	54688.96
532.99	54740.45
533.16	54726.41
533.33	54866.84
533.50	55035.36
533.67	54908.97
533.84	54927.69
534.01	55058.76
534.18	55002.59
534.35	55189.83
534.52	55096.21
534.69	55327.92
534.86	55077.49
535.03	55405.16
535.20	55374.73
535.37	55458.99
535.54	55451.97
535.71	55494.10
535.88	55650.92
536.05	55590.06
536.22	55531.55
536.38	55641.56
536.55	55730.50
536.72	55814.76
536.89	55789.01
537.06	55707.09
537.23	55948.17
537.40	55852.20
537.57	56004.34
537.74	55924.76
537.91	56172.86
538.08	56046.47
538.25	55877.95
538.42	56032.42
538.59	56278.18
538.75	56104.98
538.92	56123.71
539.09	56254.78
539.26	56095.62
539.43	56315.63
539.60	56374.14
539.77	56240.73
539.94	56540.32
540.11	56231.37
540.28	56477.13
540.44	56547.34
540.61	56467.76
540.78	56722.88
540.95	56498.19
541.12	56633.94
541.29	56591.81
541.46	56842.25
541.62	56828.21
541.79	56676.07
541.96	56537.98
542.13	56516.92
542.30	56640.96
542.47	56844.59
542.63	57013.11
542.80	57284.61
542.97	57099.71
543.14	57457.81
543.31	57432.07
543.48	57244.82
543.64	57595.90
543.81	57380.57
543.98	57471.85
544.15	57235.46
544.32	57483.56
544.48	57759.74
544.65	57623.99
544.82	57425.04
544.99	57279.93
545.16	57722.29
545.32	57745.70
545.49	57836.98
545.66	57811.23
545.83	57717.61
546.00	57787.83
546.16	57691.86
546.33	57638.03
546.50	57790.17
546.67	57975.07
546.83	57680.16
547.00	57935.28
547.17	57752.72
547.34	57923.58
547.50	58185.72
547.67	58286.36
547.84	58124.86
548.00	58089.76
548.17	58382.32
548.34	58190.40
548.51	58365.94
548.67	58494.67
548.84	58195.08
549.01	58277.00
549.18	58284.02
549.34	58291.04
549.51	58536.80
549.68	58485.31
549.84	58632.76
550.01	58433.81
550.18	58436.16
550.34	58592.97
550.51	58431.47
550.68	58485.31
550.84	58445.52
551.01	58628.08
551.18	58590.63
551.34	58831.71
551.51	58700.64
551.68	58726.38
551.84	58672.55
552.01	58663.19
552.18	58864.47
552.34	58740.42
552.51	58773.19
552.68	58927.67
552.84	58815.32
553.01	59166.40
553.18	58831.71
553.34	59023.63
553.51	58827.02
553.67	59112.57
553.84	59016.61
554.01	59011.93
554.17	59194.49
554.34	58937.03
554.51	58972.14
554.67	59262.36
554.84	59084.48
555.00	59143.00
555.17	59180.45
555.33	59143.00
555.50	58939.37
555.67	59121.93
555.83	59110.23
556.00	59128.95
556.16	59524.50
556.33	59391.09
556.50	59255.34
556.66	59437.90
556.83	59143.00
556.99	59578.34
557.16	59510.46
557.32	59566.63
557.49	59791.33
557.65	59398.12
557.82	59524.50
557.98	59697.70
558.15	59374.71
558.32	59505.78
558.48	59526.84
558.65	59491.74
558.81	59510.46
558.98	59646.21
559.14	59746.86
559.31	59814.73
559.47	59781.96
559.64	60081.55
559.80	59987.93
559.97	59875.58
560.13	59746.86
560.30	59810.05
560.46	59877.93
560.63	59943.46
560.79	59788.98
560.96	59805.37
561.12	59929.42
561.29	59943.46
561.45	60076.87
561.61	59931.76
561.78	59842.82
561.94	59803.03
562.11	60102.62
562.27	59831.11
562.44	59971.55
562.60	60116.66
562.77	60126.02
562.93	59889.63
563.10	60135.38
563.26	60205.60
563.42	60308.58
563.59	60083.89
563.75	60119.00
563.92	60001.97
564.08	60233.69
564.24	60172.83
564.41	60294.54
564.57	60308.58
564.74	60327.31
564.90	60236.03
565.07	60247.73
565.23	60151.77
565.39	60355.39
565.56	60294.54
565.72	60357.74
565.88	60523.91
566.05	60280.50
566.21	60390.50
566.38	60470.08
566.54	60184.54
566.70	60507.53
566.87	60381.14
567.03	60423.27
567.19	60575.40
567.36	60540.30
567.52	60441.99
567.68	60596.47
567.85	60416.25
568.01	60741.58
568.17	60575.40
568.34	60519.23
568.50	60533.28
568.66	60362.42
568.83	60470.08
568.99	60198.58
569.15	60357.74
569.32	60374.12
569.48	60488.80
569.64	60582.43
569.81	60671.37
569.97	60617.53
570.13	60544.98
570.30	60463.06
570.46	60484.12
570.62	60570.72
570.78	60582.43
570.95	60477.10
571.11	60706.47
571.27	60874.99
571.43	60491.15
571.60	60912.44
571.76	60706.47
571.92	60786.05
572.09	60523.91
572.25	60800.10
572.41	60851.59
572.57	60736.90
572.74	60802.44
572.90	60477.10
573.06	60800.10
573.22	60523.91
573.38	60767.33
573.55	60970.96
573.71	60910.10
573.87	60729.88
574.03	60636.26
574.20	60711.16
574.36	60624.56
574.52	60846.91
574.68	60889.04
574.84	60940.53
575.01	60673.71
575.17	60874.99
575.33	60743.92
575.49	60715.84
575.65	60977.98
575.82	60877.33
575.98	60933.51
576.14	61293.95
576.30	60680.73
576.46	60956.91
576.62	60879.67
576.79	60673.71
576.95	60825.84
577.11	60938.19
577.27	60985.00
577.43	61024.79
577.59	60732.22
577.75	60795.42
577.92	60870.31
578.08	60891.38
578.24	61006.06
578.40	61148.84
578.56	61125.43
578.72	61120.75
578.88	61066.92
579.04	61087.98
579.21	60980.32
579.37	61130.11
579.53	61162.88
579.69	60867.97
579.85	60821.16
580.01	61038.83
580.17	60788.39
580.33	61095.00
580.49	60956.91
580.65	61052.87
580.82	61071.60
580.98	60921.80
581.14	60818.82
581.30	60963.93
581.46	61003.72
581.62	61235.44
581.78	61085.64
581.94	61029.47
582.10	61031.81
582.26	61190.97
582.42	61052.87
582.58	60985.00
582.74	61027.13
582.90	60966.27
583.06	60860.95
583.22	60858.61
583.38	61162.88
583.54	60970.96
583.70	61139.47
583.86	61120.75
584.02	60956.91
584.18	61277.57
584.34	61146.50
584.50	61083.30
584.66	60954.57
584.82	60900.74
584.98	61247.14
585.14	61109.05
585.30	61113.73
585.46	61212.03
585.62	61097.34
585.78	61401.61
585.94	60935.85
586.10	61214.37
586.26	61104.37
586.42	61338.42
586.58	61256.50
586.74	61354.80
586.90	61197.99
587.06	61197.99
587.22	61212.03
587.38	61146.50
587.54	61263.52
587.70	61270.54
587.86	61172.24
588.02	61300.97
588.18	61265.86
588.34	61130.11
588.49	61123.09
