SpectraSuite Data File
++++++++++++++++++++++++++++++++++++
Date: Fri Oct 25 11:26:12 EDT 2013
User: price-jones
Dark Spectrum Present: No
Reference Spectrum Present: No
Number of Sampled Component Spectra: 1
Spectrometers: USB2+H05261
Integration Time (usec): 100000 (USB2+H05261)
Spectra Averaged: 1 (USB2+H05261)
Boxcar Smoothing: 0 (USB2+H05261)
Correct for Electrical Dark: No (USB2+H05261)
Strobe/Lamp Enabled: No (USB2+H05261)
Correct for Detector Non-linearity: No (USB2+H05261)
Correct for Stray Light: No (USB2+H05261)
Number of Pixels in Processed Spectrum: 2048
>>>>>Begin Processed Spectral Data<<<<<
365.73	231.71
365.92	231.71
366.12	231.71
366.32	152.13
366.52	140.43
366.72	215.33
366.91	152.13
367.11	131.07
367.31	95.96
367.51	175.54
367.70	86.60
367.90	128.73
368.10	149.79
368.30	100.64
368.49	182.56
368.69	128.73
368.89	152.13
369.09	196.60
369.28	182.56
369.48	212.99
369.68	138.09
369.87	222.35
370.07	138.09
370.27	201.29
370.47	362.78
370.66	608.54
370.86	634.29
371.06	566.41
371.25	610.88
371.45	627.26
371.65	634.29
371.84	653.01
372.04	678.76
372.24	697.48
372.44	667.05
372.63	746.63
372.83	704.50
373.03	746.63
373.22	758.33
373.42	695.14
373.62	809.83
373.81	851.96
374.01	770.04
374.21	861.32
374.40	863.66
374.60	844.93
374.79	826.21
374.99	805.14
375.19	798.12
375.38	826.21
375.58	870.68
375.78	870.68
375.97	835.57
376.17	856.64
376.37	805.14
376.56	915.15
376.76	842.59
376.95	849.61
377.15	931.53
377.35	971.32
377.54	954.94
377.74	915.15
377.93	947.92
378.13	933.87
378.33	894.08
378.52	933.87
378.72	901.11
378.91	987.71
379.11	926.85
379.31	924.51
379.50	929.19
379.70	924.51
379.89	1034.52
380.09	959.62
380.28	1020.47
380.48	997.07
380.68	894.08
380.87	901.11
381.07	1020.47
381.26	1083.67
381.46	961.96
381.65	1022.81
381.85	1062.60
382.04	1076.65
382.24	994.73
382.43	1064.94
382.63	1060.26
382.83	1095.37
383.02	1100.05
383.22	1111.75
383.41	1029.84
383.61	1174.95
383.80	997.07
384.00	1100.05
384.19	1050.90
384.39	1177.29
384.58	1146.86
384.78	1146.86
384.97	1146.86
385.17	1165.59
385.36	1160.91
385.56	1137.50
385.75	1188.99
385.95	1135.16
386.14	1165.59
386.34	1135.16
386.53	1252.19
386.72	1226.44
386.92	1284.95
387.11	1282.61
387.31	1210.06
387.50	1212.40
387.70	1170.27
387.89	1214.74
388.09	1256.87
388.28	1315.38
388.48	1317.72
388.67	1303.68
388.86	1226.44
389.06	1313.04
389.25	1343.47
389.45	1259.21
389.64	1331.76
389.84	1378.58
390.03	1315.38
390.22	1387.94
390.42	1387.94
390.61	1451.13
390.81	1378.58
391.00	1373.89
391.19	1500.28
391.39	1364.53
391.58	1385.60
391.78	1380.92
391.97	1469.86
392.16	1451.13
392.36	1547.09
392.55	1420.71
392.75	1544.75
392.94	1439.43
393.13	1542.41
393.33	1497.94
393.52	1586.88
393.71	1514.33
393.91	1603.27
394.10	1596.25
394.29	1643.06
394.49	1526.03
394.68	1640.72
394.88	1724.97
395.07	1764.76
395.26	1589.22
395.46	1614.97
395.65	1703.91
395.84	1675.82
396.04	1771.79
396.23	1809.23
396.42	1811.57
396.62	1769.44
396.81	1736.68
397.00	1717.95
397.19	1778.81
397.39	1692.21
397.58	1811.57
397.77	1701.57
397.97	1781.15
398.16	1790.51
398.35	2015.20
398.55	1860.73
398.74	1912.22
398.93	1928.60
399.12	1952.01
399.32	1947.33
399.51	1989.46
399.70	2101.80
399.90	1891.15
400.09	1966.05
400.28	2031.58
400.47	2120.53
400.67	1994.14
400.86	2083.08
401.05	2108.82
401.24	2104.14
401.44	2113.50
401.63	2118.18
401.82	2099.46
402.01	2139.25
402.21	2193.08
402.40	2279.68
402.59	2211.81
402.78	2242.23
402.97	2207.13
403.17	2258.62
403.36	2256.28
403.55	2422.45
403.74	2263.30
403.93	2417.77
404.13	2363.94
404.32	2333.51
404.51	2434.16
404.70	2401.39
404.89	2443.52
405.09	2340.54
405.28	2499.69
405.47	2487.99
405.66	2492.67
405.85	2445.86
406.05	2485.65
406.24	2551.18
406.43	2523.10
406.62	2637.78
406.81	2698.64
407.00	2527.78
407.20	2487.99
407.39	2445.86
407.58	2644.81
407.77	2708.00
407.96	2820.35
408.15	2686.94
408.34	2686.94
408.54	2874.18
408.73	2703.32
408.92	2874.18
409.11	2895.24
409.30	2944.39
409.49	2846.09
409.68	2906.95
409.87	2956.10
410.07	2951.42
410.26	3002.91
410.45	3030.99
410.64	3052.06
410.83	3028.65
411.02	3155.04
411.21	3084.83
411.40	3136.32
411.59	3262.71
411.78	3332.92
411.98	3150.36
412.17	3218.24
412.36	3279.09
412.55	3311.86
412.74	3398.46
412.93	3342.28
413.12	3349.31
413.31	3510.80
413.50	3358.67
413.69	3571.66
413.88	3492.08
414.07	3674.64
414.26	3555.27
414.45	3698.05
414.64	3620.81
414.83	3672.30
415.02	3700.39
415.22	3838.48
415.41	3833.80
415.60	3829.12
415.79	3836.14
415.98	4011.68
416.17	3836.14
416.36	3913.38
416.55	4102.96
416.74	3969.55
416.93	4128.70
417.12	3955.51
417.31	4166.15
417.50	4102.96
417.69	4184.88
417.88	4231.69
418.07	4299.56
418.26	4250.41
418.45	4334.67
418.64	4383.82
418.83	4332.33
419.02	4465.74
419.21	4484.47
419.39	4503.19
419.58	4425.95
419.77	4465.74
419.96	4596.81
420.15	4617.88
420.34	4566.39
420.53	4582.77
420.72	4662.35
420.91	4662.35
421.10	4636.60
421.29	4791.08
421.48	4753.63
421.67	4727.88
421.86	4720.86
422.05	4873.00
422.24	4725.54
422.43	4629.58
422.61	4793.42
422.80	5039.17
422.99	4912.78
423.18	4887.04
423.37	5018.11
423.56	5067.26
423.75	4915.12
423.94	4835.55
424.13	4669.37
424.32	4716.18
424.50	5039.17
424.69	5158.54
424.88	5088.32
425.07	4975.98
425.26	5004.07
425.45	4987.68
425.64	4887.04
425.83	4980.66
426.01	5004.07
426.20	4971.30
426.39	5039.17
426.58	4875.34
426.77	4985.34
426.96	5100.03
427.15	5029.81
427.33	5144.50
427.52	5034.49
427.71	5064.92
427.90	5149.18
428.09	5153.86
428.28	5430.04
428.46	5343.44
428.65	5296.63
428.84	5439.40
429.03	5603.24
429.22	5359.83
429.40	5495.58
429.59	5490.90
429.78	5331.74
429.97	5170.24
430.16	5423.02
430.34	5533.03
430.53	5605.58
430.72	5692.18
430.91	5600.90
431.10	5544.73
431.28	5795.17
431.47	5701.54
431.66	5926.24
431.85	5727.29
432.03	5856.02
432.22	6001.13
432.41	5966.03
432.60	5973.05
432.79	5994.11
432.97	6043.26
433.16	5998.79
433.35	5907.51
433.54	6076.03
433.72	6190.72
433.91	5874.74
434.10	6155.61
434.28	6080.71
434.47	6193.06
434.66	6258.59
434.85	6319.45
435.03	6228.17
435.22	6186.04
435.41	6530.09
435.59	6424.77
435.78	6277.32
435.97	6548.82
436.16	6401.37
436.34	6239.87
436.53	6394.34
436.72	6633.08
436.90	6574.56
437.09	6609.67
437.28	6469.24
437.46	6576.91
437.65	6637.76
437.84	6862.45
438.02	6700.95
438.21	6787.55
438.40	6677.55
438.58	6937.35
438.77	7077.78
438.96	6920.96
439.14	7056.72
439.33	7190.13
439.52	7070.76
439.70	7356.30
439.89	7194.81
440.08	7269.70
440.26	7365.67
440.45	7255.66
440.63	7632.49
440.82	7485.03
441.01	7543.55
441.19	7625.47
441.38	7676.96
441.57	7793.98
441.75	7737.81
441.94	7714.41
442.12	7892.29
442.31	7971.86
442.50	7871.22
442.68	8004.63
442.87	7770.58
443.05	8163.79
443.24	7992.93
443.43	8086.55
443.61	8166.13
443.80	8507.85
443.98	8070.17
444.17	7801.01
444.35	8196.56
444.54	8379.12
444.73	8173.15
444.91	8287.84
445.10	8362.73
445.28	8299.54
445.47	8355.71
445.65	8332.31
445.84	8458.70
446.02	8339.33
446.21	8383.80
446.39	8250.39
446.58	8355.71
446.77	8376.78
446.95	8292.52
447.14	8524.23
447.32	8442.31
447.51	8524.23
447.69	8367.42
447.88	8573.38
448.06	8388.48
448.25	8416.57
448.43	8477.42
448.62	8514.87
448.80	8472.74
448.99	8793.39
449.17	8706.79
449.36	8500.83
449.54	8821.48
449.73	8795.73
449.91	8795.73
450.10	8826.16
450.28	9125.75
450.46	9018.08
450.65	9135.11
450.83	9210.01
451.02	9226.39
451.20	9137.45
451.39	9074.26
451.57	8975.95
451.76	9060.21
451.94	9043.83
452.13	9338.74
452.31	9210.01
452.49	9118.73
452.68	9226.39
452.86	9202.99
453.05	9411.29
453.23	9378.53
453.42	9334.06
453.60	9305.97
453.78	9561.09
453.97	9195.96
454.15	9418.32
454.34	9383.21
454.52	9556.41
454.70	9755.35
454.89	9523.64
455.07	9755.35
455.26	9675.77
455.44	9994.09
455.62	9909.83
455.81	9919.19
455.99	9989.41
456.17	9933.23
456.36	10094.73
456.54	10090.05
456.73	10162.61
456.91	10324.10
457.09	10473.90
457.28	10340.49
457.46	10134.52
457.64	10640.08
457.83	10289.00
458.01	10462.19
458.19	10562.84
458.38	10546.45
458.56	10499.64
458.74	10424.75
458.93	10602.63
459.11	10724.33
459.29	10647.10
459.48	10841.36
459.66	10551.14
459.84	10789.87
460.03	11290.74
460.21	10946.69
460.39	10888.17
460.57	11101.16
460.76	11084.78
460.94	11243.93
461.12	11002.86
461.31	11108.18
461.49	11080.10
461.67	11220.53
461.85	11403.09
462.04	11089.46
462.22	11616.08
462.40	11527.14
462.59	11321.17
462.77	11337.56
462.95	11606.72
463.13	11604.38
463.32	11616.08
463.50	11604.38
463.68	11700.34
463.86	11887.58
464.05	11538.84
464.23	11302.45
464.41	11793.96
464.59	11700.34
464.78	11889.92
464.96	12093.55
465.14	11714.38
465.32	11927.37
465.50	12107.59
465.69	12327.60
465.87	12077.16
466.05	12072.48
466.23	12074.82
466.41	12152.06
466.60	12610.81
466.78	12203.55
466.96	12053.76
467.14	12138.02
467.32	12430.59
467.51	12477.40
467.69	12173.13
467.87	12395.48
468.05	12716.13
468.23	12205.89
468.41	12329.94
468.60	12512.50
468.78	12451.65
468.96	12397.82
469.14	12821.45
469.32	12615.49
469.50	12535.91
469.69	12966.57
469.87	13034.44
470.05	12971.25
470.23	13172.54
470.41	13319.99
470.59	13186.58
470.77	13001.68
470.95	13144.45
471.14	13507.23
471.32	13011.04
471.50	13331.69
471.68	13514.25
471.86	13617.24
472.04	13577.45
472.22	13965.98
472.40	13668.73
472.58	13731.92
472.77	13823.20
472.95	13963.64
473.13	14441.11
473.31	13837.25
473.49	14090.02
473.67	14169.60
473.85	14291.31
474.03	14633.03
474.21	14216.41
474.39	14642.39
474.57	14361.53
474.75	14871.76
474.93	14831.97
475.12	14850.70
475.30	15101.14
475.48	15042.62
475.66	15056.67
475.84	15033.26
476.02	15161.99
476.20	15466.26
476.38	15639.46
476.56	15988.20
476.74	15976.50
476.92	15850.11
477.10	15625.42
477.28	15974.16
477.46	16308.85
477.64	16486.73
477.82	16519.50
478.00	16599.08
478.18	16957.18
478.36	16503.12
478.54	16929.09
478.72	16936.12
478.90	17060.16
479.08	17263.79
479.26	17652.32
479.44	17619.55
479.62	17774.03
479.80	17867.65
479.98	18052.55
480.16	18473.85
480.34	17785.73
480.52	18462.15
480.70	18382.57
480.88	18548.75
481.06	18691.52
481.24	18773.44
481.41	18916.21
481.59	19168.99
481.77	19260.27
481.95	19609.01
482.13	19733.06
482.31	19529.43
482.49	19833.70
482.67	20168.40
482.85	20166.06
483.03	20463.30
483.21	20863.54
483.39	20746.51
483.57	20697.36
483.74	20945.45
483.92	21371.43
484.10	20889.28
484.28	21638.25
484.46	21837.20
484.64	22113.38
484.82	21539.95
485.00	22401.27
485.18	22768.73
485.35	22537.02
485.53	22640.00
485.71	23000.44
485.89	23363.23
486.07	23288.33
486.25	23548.13
486.43	23726.01
486.61	23955.38
486.78	23791.55
486.96	24144.97
487.14	24505.41
487.32	24554.56
487.50	24437.53
487.68	24716.06
487.85	24973.52
488.03	25563.33
488.21	25448.64
488.39	25647.59
488.57	25907.39
488.75	25930.80
488.92	26340.39
489.10	26630.62
489.28	26822.54
489.46	26934.88
489.64	26441.03
489.81	27208.73
489.99	27370.22
490.17	27463.85
490.35	28451.55
490.53	27749.39
490.70	28334.53
490.88	27915.57
491.06	28364.95
491.24	28453.89
491.41	28973.49
491.59	29465.00
491.77	29202.86
491.95	29390.11
492.13	29537.56
492.30	29813.74
492.48	29593.73
492.66	29841.83
492.84	30064.18
493.01	30169.51
493.19	30520.59
493.37	30981.67
493.54	30962.95
493.72	31653.40
493.90	31138.49
494.08	31531.70
494.25	31819.58
494.43	31747.03
494.61	32081.72
494.79	32348.54
494.96	32114.49
495.14	32470.25
495.32	32987.51
495.49	32950.06
495.67	33525.83
495.85	33521.15
496.02	33441.57
496.20	33991.60
496.38	33432.21
496.55	33687.33
496.73	34515.88
496.91	34094.58
497.09	34513.54
497.26	34806.11
497.44	35030.80
497.62	35002.71
497.79	35730.62
497.97	35351.45
498.14	36039.57
498.32	35906.16
498.50	36123.83
498.67	35976.37
498.85	36126.17
499.03	36535.76
499.20	36414.05
499.38	36524.06
499.56	36818.97
499.73	36959.40
499.91	37195.79
500.08	37116.22
500.26	36912.59
500.44	37291.76
500.61	37610.07
500.79	37745.82
500.97	38136.69
501.14	38146.05
501.32	37902.64
501.49	38511.17
501.67	38080.52
501.84	38742.89
502.02	38796.72
502.20	38951.20
502.37	39182.91
502.55	39199.29
502.72	39225.04
502.90	39440.37
503.07	39339.72
503.25	39564.42
503.43	39332.70
503.60	39950.60
503.78	40137.85
503.95	40250.19
504.13	40332.11
504.30	40535.74
504.48	40196.36
504.65	40830.65
504.83	40671.49
505.01	40896.18
505.18	40870.43
505.36	41160.66
505.53	41092.79
505.71	41343.22
505.88	41261.30
506.06	41207.47
506.23	42010.28
506.41	41537.49
506.58	41935.38
506.76	42401.14
506.93	42719.46
507.11	42398.80
507.28	42483.06
507.46	42232.63
507.63	43075.22
507.81	43093.94
507.98	42546.26
508.16	43189.91
508.33	43159.48
508.50	43168.84
508.68	43826.53
508.85	43784.40
509.03	43590.14
509.20	43735.25
509.38	43744.61
509.55	44177.61
509.73	43929.51
509.90	44973.39
510.08	44521.67
510.25	44577.84
510.42	44519.33
510.60	44914.88
510.77	45233.19
510.95	45280.00
511.12	44821.26
511.30	44987.44
511.47	44865.73
511.64	45387.67
511.82	45705.98
511.99	45380.65
512.17	46129.62
512.34	46122.60
512.51	46092.17
512.69	46384.74
512.86	46356.65
513.04	46403.46
513.21	46548.57
513.38	46770.93
513.56	46770.93
513.73	46429.21
513.90	47093.92
514.08	46836.46
514.25	47164.14
514.43	47161.79
514.60	47433.30
514.77	47042.43
514.95	47161.79
515.12	47194.56
515.29	47468.40
515.47	47805.44
515.64	48189.29
515.81	47697.78
515.99	47758.63
516.16	48350.79
516.33	47821.83
516.51	48734.63
516.68	48231.42
516.85	48294.61
517.03	48755.70
517.20	48217.38
517.37	48484.20
517.54	48676.12
517.72	48678.46
517.89	48552.07
518.06	48645.69
518.24	48947.62
518.41	48893.79
518.58	49310.41
518.75	49090.40
518.93	49212.10
519.10	49364.24
519.27	49436.80
519.45	49626.38
519.62	49645.10
519.79	49588.93
519.96	49886.18
520.14	49855.75
520.31	49888.52
520.48	50038.31
520.65	50122.57
520.83	50358.97
521.00	50588.34
521.17	50216.19
521.34	50415.14
521.52	50810.69
521.69	50822.39
521.86	51021.34
522.03	50700.68
522.20	50876.22
522.38	51583.07
522.55	51213.26
522.72	50733.45
522.89	50916.01
523.07	51234.33
523.24	51175.81
523.41	51311.56
523.58	51121.98
523.75	51522.21
523.92	51688.39
524.10	51828.82
524.27	52177.56
524.44	52161.18
524.61	51976.28
524.78	51920.10
524.96	52095.64
525.13	52184.58
525.30	52367.15
525.47	52060.54
525.64	52346.08
525.81	52196.29
525.98	52624.60
526.16	52402.25
526.33	52271.18
526.50	52832.91
526.67	52453.75
526.84	52652.69
527.01	52999.09
527.18	52488.85
527.36	52657.37
527.53	52680.78
527.70	53336.13
527.87	53411.02
528.04	52945.26
528.21	53258.89
528.38	53319.74
528.55	53502.31
528.72	53160.59
528.89	53544.44
529.07	53429.75
529.24	53219.10
529.41	53822.96
529.58	53474.22
529.75	53844.02
529.92	53722.32
530.09	53635.72
530.26	54073.40
530.43	53813.60
530.60	54005.52
530.77	53317.40
530.94	53916.58
531.11	53797.21
531.28	53897.86
531.46	54115.53
531.63	53939.99
531.80	54145.95
531.97	54262.98
532.14	54141.27
532.31	54213.83
532.48	54267.66
532.65	54681.94
532.82	54092.12
532.99	54578.95
533.16	54562.57
533.33	54616.40
533.50	54934.71
533.67	54475.97
533.84	54560.23
534.01	54450.22
534.18	54672.57
534.35	54843.43
534.52	54892.58
534.69	55047.06
534.86	55217.92
535.03	54820.03
535.20	54944.08
535.37	55121.96
535.54	55199.19
535.71	55224.94
535.88	55007.27
536.05	55377.08
536.22	55480.06
536.38	55517.51
536.55	55433.25
536.72	55407.50
536.89	55136.00
537.06	55480.06
537.23	55597.09
537.40	55281.11
537.57	55269.41
537.74	55288.13
537.91	55842.84
538.08	55655.60
538.25	55800.71
538.42	55625.17
538.59	55927.10
538.75	55503.46
538.92	55826.46
539.09	55856.88
539.26	55894.33
539.43	56018.38
539.60	56072.21
539.77	55870.93
539.94	56273.50
540.11	56385.85
540.28	56196.26
540.44	56336.69
540.61	56320.31
540.78	56121.37
540.95	56135.41
541.12	56282.86
541.29	56296.91
541.46	56327.33
541.62	56685.43
541.79	56446.70
541.96	56236.05
542.13	56402.23
542.30	56596.49
542.47	56615.22
542.63	56694.80
542.80	56818.84
542.97	56856.29
543.14	57205.03
543.31	57153.54
543.48	56980.34
543.64	57380.57
543.81	57064.60
543.98	57411.00
544.15	57071.62
544.32	57326.74
544.48	57556.11
544.65	57144.18
544.82	57256.53
544.99	57127.80
545.16	57308.02
545.32	57207.37
545.49	57710.59
545.66	57621.65
545.83	57558.45
546.00	57745.70
546.16	57523.35
546.33	57347.81
546.50	57399.30
546.67	57762.08
546.83	57471.85
547.00	57705.91
547.17	57623.99
547.34	57829.96
547.50	58033.58
547.67	57818.25
547.84	57998.48
548.00	57911.88
548.17	57993.79
548.34	57874.43
548.51	58031.24
548.67	58106.14
548.84	57902.51
549.01	57909.53
549.18	57998.48
549.34	58103.80
549.51	58216.14
549.68	58206.78
549.84	58152.95
550.01	58337.85
550.18	58096.78
550.34	58192.74
550.51	58356.58
550.68	58410.41
550.84	58136.57
551.01	58482.97
551.18	58298.06
551.34	58394.03
551.51	58487.65
551.68	58429.13
551.84	58403.39
552.01	58316.79
552.18	58431.47
552.34	58295.72
552.51	58548.50
552.68	58436.16
552.84	58569.57
553.01	58922.99
553.18	58548.50
553.34	58740.42
553.51	58621.06
553.67	58794.26
553.84	58836.39
554.01	58695.95
554.17	58904.26
554.34	58812.98
554.51	58710.00
554.67	59070.44
554.84	59168.74
555.00	58962.78
555.17	59054.06
555.33	58901.92
555.50	59018.95
555.67	58679.57
555.83	58904.26
556.00	58911.28
556.16	59332.58
556.33	59121.93
556.50	58960.44
556.66	59114.91
556.83	58899.58
556.99	59093.85
557.16	59428.54
557.32	59510.46
557.49	59561.95
557.65	59206.19
557.82	59267.05
557.98	59231.94
558.15	59213.21
558.32	59360.67
558.48	59250.66
558.65	59173.42
558.81	59323.22
558.98	59473.01
559.14	59348.96
559.31	59678.98
559.47	59372.37
559.64	59746.86
559.80	59330.24
559.97	59585.36
560.13	59554.93
560.30	59489.40
560.46	59597.06
560.63	59519.82
560.79	59732.81
560.96	59763.24
561.12	59688.34
561.29	59686.00
561.45	59646.21
561.61	59707.07
561.78	59772.60
561.94	59559.61
562.11	59590.04
562.27	59688.34
562.44	59945.80
562.60	59955.16
562.77	59690.68
562.93	59660.26
563.10	60016.02
563.26	59952.82
563.42	60121.34
563.59	59856.86
563.75	59779.62
563.92	60032.40
564.08	59863.88
564.24	60104.96
564.41	59992.61
564.57	59955.16
564.74	60030.06
564.90	60044.10
565.07	59856.86
565.23	59973.89
565.39	59999.63
565.56	60128.36
565.72	60062.83
565.88	59978.57
566.05	59934.10
566.21	59910.69
566.38	60158.79
566.54	60219.64
566.70	60107.30
566.87	60058.15
567.03	60289.86
567.19	60135.38
567.36	60025.38
567.52	60114.32
567.68	60257.09
567.85	60292.20
568.01	60486.46
568.17	60329.65
568.34	60416.25
568.50	59903.67
568.66	60238.37
568.83	60350.71
568.99	60238.37
569.15	60282.84
569.32	60200.92
569.48	60310.92
569.64	60207.94
569.81	60172.83
569.97	60109.64
570.13	60247.73
570.30	60055.81
570.46	60301.56
570.62	60610.51
570.78	60341.35
570.95	60376.46
571.11	60299.22
571.27	60544.98
571.43	60495.83
571.60	60418.59
571.76	60275.82
571.92	60514.55
572.09	60521.57
572.25	60362.42
572.41	60420.93
572.57	60467.74
572.74	60584.77
572.90	60252.41
573.06	60409.23
573.22	60427.95
573.38	60540.30
573.55	60402.21
573.71	60753.29
573.87	60533.28
574.03	60381.14
574.20	60608.17
574.36	60416.25
574.52	60643.28
574.68	60781.37
574.84	60694.77
575.01	60746.26
575.17	60673.71
575.33	60477.10
575.49	60516.89
575.65	60547.32
575.82	60912.44
575.98	60535.62
576.14	60793.07
576.30	60807.12
576.46	60434.97
576.62	60612.85
576.79	60582.43
576.95	60467.74
577.11	60720.52
577.27	60830.52
577.43	60692.43
577.59	60451.36
577.75	60657.32
577.92	60772.01
578.08	60755.63
578.24	60694.77
578.40	60865.63
578.56	60835.20
578.72	60559.02
578.88	60879.67
579.04	60914.78
579.21	60587.11
579.37	60725.20
579.53	60823.50
579.69	60547.32
579.85	60743.92
580.01	60594.13
580.17	60451.36
580.33	60708.82
580.49	60790.73
580.65	60898.40
580.82	60636.26
580.98	60706.47
581.14	60589.45
581.30	60825.84
581.46	60931.17
581.62	60647.96
581.78	60645.62
581.94	60748.60
582.10	60837.54
582.26	60879.67
582.42	60783.71
582.58	60870.31
582.74	60755.63
582.90	60743.92
583.06	60650.30
583.22	60736.90
583.38	60797.76
583.54	60795.42
583.70	60910.10
583.86	61015.43
584.02	60837.54
584.18	61020.11
584.34	60781.37
584.50	60687.75
584.66	60603.49
584.82	60666.69
584.98	60898.40
585.14	61003.72
585.30	60839.89
585.46	60837.54
585.62	60851.59
585.78	61073.94
585.94	60666.69
586.10	60877.33
586.26	60846.91
586.42	60977.98
586.58	61127.77
586.74	60851.59
586.90	60910.10
587.06	60907.76
587.22	61027.13
587.38	61034.15
587.54	61034.15
587.70	61209.69
587.86	60905.42
588.02	60952.23
588.18	61130.11
588.34	60933.51
588.49	60900.74
