SpectraSuite Data File
++++++++++++++++++++++++++++++++++++
Date: Fri Oct 25 11:33:29 EDT 2013
User: price-jones
Dark Spectrum Present: No
Reference Spectrum Present: No
Number of Sampled Component Spectra: 1
Spectrometers: USB2+H05261
Integration Time (usec): 100000 (USB2+H05261)
Spectra Averaged: 1 (USB2+H05261)
Boxcar Smoothing: 0 (USB2+H05261)
Correct for Electrical Dark: No (USB2+H05261)
Strobe/Lamp Enabled: No (USB2+H05261)
Correct for Detector Non-linearity: No (USB2+H05261)
Correct for Stray Light: No (USB2+H05261)
Number of Pixels in Processed Spectrum: 2048
>>>>>Begin Processed Spectral Data<<<<<
365.73	297.25
365.92	297.25
366.12	297.25
366.32	131.07
366.52	191.92
366.72	238.73
366.91	173.20
367.11	154.48
367.31	250.44
367.51	163.84
367.70	161.50
367.90	196.60
368.10	182.56
368.30	149.79
368.49	196.60
368.69	189.58
368.89	133.41
369.09	177.88
369.28	205.97
369.48	152.13
369.68	273.84
369.87	231.71
370.07	257.46
370.27	252.78
370.47	330.02
370.66	510.24
370.86	571.09
371.06	578.11
371.25	521.94
371.45	526.62
371.65	475.13
371.84	566.41
372.04	587.47
372.24	550.03
372.44	507.90
372.63	587.47
372.83	655.35
373.03	575.77
373.22	669.39
373.42	587.47
373.62	648.33
373.81	589.82
374.01	648.33
374.21	667.05
374.40	613.22
374.60	638.97
374.79	674.07
374.99	704.50
375.19	671.73
375.38	669.39
375.58	566.41
375.78	660.03
375.97	702.16
376.17	732.59
376.37	727.91
376.56	704.50
376.76	585.13
376.95	683.44
377.15	660.03
377.35	653.01
377.54	657.69
377.74	681.10
377.93	725.57
378.13	685.78
378.33	667.05
378.52	706.84
378.72	713.86
378.91	683.44
379.11	732.59
379.31	723.23
379.50	650.67
379.70	734.93
379.89	674.07
380.09	751.31
380.28	641.31
380.48	763.01
380.68	678.76
380.87	748.97
381.07	718.54
381.26	748.97
381.46	842.59
381.65	741.95
381.85	706.84
382.04	823.87
382.24	795.78
382.43	800.46
382.63	725.57
382.83	772.38
383.02	952.60
383.22	741.95
383.41	777.06
383.61	767.70
383.80	868.34
384.00	833.23
384.19	819.19
384.39	826.21
384.58	779.40
384.78	858.98
384.97	842.59
385.17	809.83
385.36	847.27
385.56	798.12
385.75	840.25
385.95	891.74
386.14	915.15
386.34	858.98
386.53	880.04
386.72	940.90
386.92	912.81
387.11	889.40
387.31	903.45
387.50	833.23
387.70	875.36
387.89	954.94
388.09	877.70
388.28	856.64
388.48	903.45
388.67	966.64
388.86	931.53
389.06	901.11
389.25	919.83
389.45	905.79
389.64	870.68
389.84	1013.45
390.03	990.05
390.22	957.28
390.42	973.66
390.61	896.43
390.81	947.92
391.00	971.32
391.19	999.41
391.39	978.34
391.58	1060.26
391.78	1001.75
391.97	999.41
392.16	1071.97
392.36	1036.86
392.55	1011.11
392.75	992.39
392.94	1062.60
393.13	1048.56
393.33	1034.52
393.52	1071.97
393.71	1107.07
393.91	1125.80
394.10	1022.81
394.29	1128.14
394.49	1071.97
394.68	1074.31
394.88	1071.97
395.07	1191.33
395.26	1097.71
395.46	1146.86
395.65	1179.63
395.84	1181.97
396.04	1196.01
396.23	1188.99
396.42	1203.04
396.62	1125.80
396.81	1268.57
397.00	1249.85
397.19	1252.19
397.39	1210.06
397.58	1207.72
397.77	1238.14
397.97	1256.87
398.16	1153.88
398.35	1214.74
398.55	1240.48
398.74	1254.53
398.93	1343.47
399.12	1277.93
399.32	1296.66
399.51	1165.59
399.70	1380.92
399.90	1357.51
400.09	1385.60
400.28	1434.75
400.47	1441.77
400.67	1406.66
400.86	1427.73
401.05	1476.88
401.24	1444.11
401.44	1420.71
401.63	1409.00
401.82	1451.13
402.01	1451.13
402.21	1416.02
402.40	1434.75
402.59	1411.34
402.78	1455.81
402.97	1502.62
403.17	1519.01
403.36	1607.95
403.55	1547.09
403.74	1556.46
403.93	1533.05
404.13	1584.54
404.32	1509.65
404.51	1687.53
404.70	1582.20
404.89	1586.88
405.09	1696.89
405.28	1685.19
405.47	1678.16
405.66	1732.00
405.85	1753.06
406.05	1736.68
406.24	1825.62
406.43	1811.57
406.62	1806.89
406.81	1820.94
407.00	1778.81
407.20	1771.79
407.39	1842.00
407.58	1860.73
407.77	1851.36
407.96	1809.23
408.15	1884.13
408.34	1874.77
408.54	1914.56
408.73	1860.73
408.92	1963.71
409.11	2005.84
409.30	1952.01
409.49	1914.56
409.68	1914.56
409.87	2003.50
410.07	2022.22
410.26	2078.40
410.45	2019.88
410.64	2094.78
410.83	2062.01
411.02	2090.10
411.21	2186.06
411.40	2132.23
411.59	2143.93
411.78	2153.29
411.98	2146.27
412.17	2209.47
412.36	2326.49
412.55	2345.22
412.74	2218.83
412.93	2375.64
413.12	2286.70
413.31	2434.16
413.50	2476.29
413.69	2408.41
413.88	2492.67
414.07	2422.45
414.26	2469.27
414.45	2569.91
414.64	2546.50
414.83	2630.76
415.02	2602.68
415.22	2691.62
415.41	2612.04
415.60	2590.97
415.79	2724.38
415.98	2794.60
416.17	2712.68
416.36	2708.00
416.55	2736.09
416.74	2785.24
416.93	2803.96
417.12	2836.73
417.31	2876.52
417.50	2930.35
417.69	2946.73
417.88	2993.55
418.07	2904.60
418.26	2895.24
418.45	3005.25
418.64	3131.64
418.83	3084.83
419.02	3005.25
419.21	3080.14
419.39	3236.96
419.58	3136.32
419.77	3063.76
419.96	2993.55
420.15	3119.93
420.34	3115.25
420.53	3133.98
420.72	3260.37
420.91	3119.93
421.10	3213.56
421.29	3393.78
421.48	3204.19
421.67	3363.35
421.86	3337.60
422.05	3274.41
422.24	3246.32
422.43	3421.86
422.61	3318.88
422.80	3396.12
422.99	3358.67
423.18	3382.07
423.37	3459.31
423.56	3403.14
423.75	3440.59
423.94	3393.78
424.13	3236.96
424.32	3208.87
424.50	3419.52
424.69	3506.12
424.88	3616.13
425.07	3433.57
425.26	3375.05
425.45	3337.60
425.64	3311.86
425.83	3454.63
426.01	3576.34
426.20	3571.66
426.39	3482.72
426.58	3522.51
426.77	3529.53
426.96	3562.30
427.15	3536.55
427.33	3569.32
427.52	3545.91
427.71	3688.68
427.90	3576.34
428.09	3758.90
428.28	3618.47
428.46	3616.13
428.65	3653.58
428.84	3948.48
429.03	3803.37
429.22	3627.83
429.40	3702.73
429.59	3801.03
429.78	3648.90
429.97	3660.60
430.16	3868.91
430.34	3920.40
430.53	3911.04
430.72	3889.97
430.91	3915.72
431.10	3868.91
431.28	3941.46
431.47	3981.25
431.66	3859.54
431.85	3852.52
432.03	4131.05
432.22	4173.18
432.41	4112.32
432.60	4004.66
432.79	3990.61
432.97	4159.13
433.16	4301.90
433.35	4086.58
433.54	4142.75
433.72	4280.84
433.91	4145.09
434.10	4196.58
434.28	4046.79
434.47	4322.97
434.66	4320.63
434.85	4372.12
435.03	4219.99
435.22	4283.18
435.41	4423.61
435.59	4369.78
435.78	4400.21
435.97	4512.55
436.16	4423.61
436.34	4428.29
436.53	4428.29
436.72	4545.32
436.90	4449.36
437.09	4383.82
437.28	4458.72
437.46	4542.98
437.65	4601.49
437.84	4620.22
438.02	4753.63
438.21	4936.19
438.40	4535.96
438.58	4805.12
438.77	4704.48
438.96	4814.48
439.14	4952.57
439.33	4875.34
439.52	4840.23
439.70	4915.12
439.89	5158.54
440.08	5085.98
440.26	5022.79
440.45	4943.21
440.63	5069.60
440.82	5114.07
441.01	5170.24
441.19	5210.03
441.38	5437.06
441.57	5338.76
441.75	5392.59
441.94	5322.38
442.12	5341.10
442.31	5554.09
442.50	5416.00
442.68	5327.06
442.87	5502.60
443.05	5568.13
443.24	5516.64
443.43	5600.90
443.61	5643.03
443.80	5790.49
443.98	5493.24
444.17	5359.83
444.35	5654.73
444.54	5591.54
444.73	5617.29
444.91	5659.42
445.10	5701.54
445.28	5650.05
445.47	5511.96
445.65	5586.86
445.84	5626.65
446.02	5720.27
446.21	5750.70
446.39	5619.63
446.58	5818.57
446.77	5874.74
446.95	5675.80
447.14	5596.22
447.32	5617.29
447.51	5823.25
447.69	5856.02
447.88	5919.21
448.06	5832.62
448.25	5860.70
448.43	5837.30
448.62	5692.18
448.80	5867.72
448.99	5926.24
449.17	5898.15
449.36	5710.91
449.54	5959.00
449.73	5982.41
449.91	6120.50
450.10	5977.73
450.28	6197.74
450.46	6211.78
450.65	6113.48
450.83	6193.06
451.02	6015.18
451.20	6162.63
451.39	6216.46
451.57	6256.25
451.76	6188.38
451.94	6127.52
452.13	6296.04
452.31	6305.40
452.49	6331.15
452.68	6396.68
452.86	6349.87
453.05	6574.56
453.23	6394.34
453.42	6392.00
453.60	6298.38
453.78	6272.64
453.97	6471.58
454.15	6324.13
454.34	6298.38
454.52	6548.82
454.70	6504.35
454.89	6633.08
455.07	6583.93
455.26	6848.41
455.44	6686.91
455.62	6642.44
455.81	6738.40
455.99	6752.45
456.17	6864.79
456.36	6839.05
456.54	6951.39
456.73	6855.43
456.91	7087.14
457.09	6958.41
457.28	7201.83
457.46	6885.86
457.64	7267.36
457.83	7077.78
458.01	7124.59
458.19	7082.46
458.38	7178.42
458.56	7124.59
458.74	7061.40
458.93	7272.04
459.11	7073.10
459.29	7150.34
459.48	7288.43
459.66	7330.56
459.84	7372.69
460.03	7475.67
460.21	7337.58
460.39	7452.27
460.57	7543.55
460.76	7581.00
460.94	7379.71
461.12	7470.99
461.31	7569.29
461.49	7541.21
461.67	7573.97
461.85	7749.51
462.04	7393.75
462.22	8241.03
462.40	7775.26
462.59	7763.56
462.77	7836.11
462.95	7857.18
463.13	8018.68
463.32	7714.41
463.50	7768.24
463.68	8098.25
463.86	7948.46
464.05	7674.62
464.23	7985.91
464.41	7955.48
464.59	8135.70
464.78	8149.75
464.96	8109.96
465.14	8065.49
465.32	8163.79
465.50	8259.75
465.69	8222.30
465.87	8269.11
466.05	8042.08
466.23	8208.26
466.41	8266.77
466.60	8360.39
466.78	8285.50
466.96	8170.81
467.14	8250.39
467.32	8348.69
467.51	8463.38
467.69	8329.97
467.87	8386.14
468.05	8524.23
468.23	8334.65
468.41	8299.54
468.60	8517.21
468.78	8814.46
468.96	8432.95
469.14	8678.71
469.32	8718.50
469.50	8332.31
469.69	8851.91
469.87	9036.81
470.05	8699.77
470.23	8793.39
470.41	8905.74
470.59	8933.82
470.77	8711.47
470.95	8926.80
471.14	9111.71
471.32	8805.10
471.50	9207.67
471.68	8990.00
471.86	8973.61
472.04	9118.73
472.22	9495.55
472.40	9315.33
472.58	9029.79
472.77	9312.99
472.95	9408.95
473.13	9699.18
473.31	9341.08
473.49	9488.53
473.67	9483.85
473.85	9582.15
474.03	9818.55
474.21	9755.35
474.39	9743.65
474.57	9785.78
474.75	10040.90
474.93	9926.21
475.12	10005.79
475.30	10022.17
475.48	10038.56
475.66	10026.86
475.84	10214.10
476.02	10291.34
476.20	10289.00
476.38	10579.22
476.56	10637.73
476.74	10602.63
476.92	10497.30
477.10	10661.14
477.28	10747.74
477.46	10693.91
477.64	10803.91
477.82	11110.52
478.00	11342.24
478.18	11033.29
478.36	11421.81
478.54	11405.43
478.72	11435.86
478.90	11506.07
479.08	11454.58
479.26	11805.66
479.44	11618.42
479.62	12056.10
479.80	11871.20
479.98	11868.86
480.16	12383.77
480.34	12184.83
480.52	12346.33
480.70	12421.22
480.88	12257.39
481.06	12353.35
481.24	12573.36
481.41	12594.42
481.59	12943.16
481.77	12851.88
481.95	13085.94
482.13	13102.32
482.31	12898.69
482.49	13266.16
482.67	13359.78
482.85	13612.56
483.03	13809.16
483.21	13432.33
483.39	13809.16
483.57	13884.06
483.74	13991.72
483.92	14139.18
484.10	14066.62
484.28	14193.01
484.46	14562.81
484.64	14677.50
484.82	14623.67
485.00	14626.01
485.18	14930.28
485.35	15112.84
485.53	15096.46
485.71	15201.78
485.89	15674.57
486.07	15398.38
486.25	15744.78
486.43	15510.73
486.61	15609.03
486.78	16114.59
486.96	16011.60
487.14	16163.74
487.32	16479.71
487.50	16348.64
487.68	16617.80
487.85	16842.50
488.03	16828.45
488.21	16922.07
488.39	16919.73
488.57	17273.15
488.75	17343.37
488.92	17586.79
489.10	17341.03
489.28	17607.85
489.46	17696.79
489.64	17872.33
489.81	18539.38
489.99	18281.92
490.17	18345.12
490.35	18307.67
490.53	18789.82
490.70	18860.04
490.88	18604.92
491.06	18953.66
491.24	18913.87
491.41	19147.92
491.59	19440.49
491.77	19290.70
491.95	19548.15
492.13	19613.69
492.30	19878.17
492.48	19690.93
492.66	19999.88
492.84	20217.55
493.01	20255.00
493.19	20276.06
493.37	20917.37
493.54	20608.42
493.72	20788.64
493.90	20451.60
494.08	20720.76
494.25	20950.14
494.43	21043.76
494.61	21085.89
494.79	21333.98
494.96	21689.74
495.14	21621.87
495.32	21537.61
495.49	21923.80
495.67	21977.63
495.85	22143.81
496.02	22302.96
496.20	22457.44
496.38	22434.03
496.55	22490.21
496.73	22960.66
496.91	22941.93
497.09	23002.78
497.26	22850.65
497.44	23007.47
497.62	23030.87
497.79	23641.75
497.97	23637.07
498.14	23644.09
498.32	23428.76
498.50	23744.73
498.67	24109.86
498.85	23971.77
499.03	24334.55
499.20	24058.37
499.38	24439.87
499.56	24592.01
499.73	24807.34
499.91	24332.21
500.08	24950.11
500.26	24790.95
500.44	24842.45
500.61	24716.06
500.79	24753.51
500.97	24971.18
501.14	25317.57
501.32	25453.33
501.49	25401.83
501.67	25509.50
501.84	25804.41
502.02	25675.68
502.20	25858.24
502.37	25832.49
502.55	25663.97
502.72	26061.87
502.90	26101.65
503.07	25502.48
503.25	26185.91
503.43	25591.42
503.60	26696.15
503.78	26820.20
503.95	26380.18
504.13	26618.91
504.30	26862.33
504.48	26773.39
504.65	27119.79
504.83	27220.43
505.01	27658.11
505.18	27402.99
505.36	27243.84
505.53	27194.68
505.71	27583.21
505.88	27470.87
506.06	27384.27
506.23	27520.02
506.41	27644.07
506.58	27695.56
506.76	27915.57
506.93	27999.83
507.11	28161.33
507.28	28095.79
507.46	28397.72
507.63	28339.21
507.81	28603.69
507.98	28205.80
508.16	28386.02
508.33	28769.86
508.50	28840.08
508.68	28636.45
508.85	29418.19
509.03	28634.11
509.20	29270.74
509.38	29427.56
509.55	29530.54
509.73	29432.24
509.90	29237.97
510.08	29312.87
510.25	29631.18
510.42	29923.75
510.60	29844.17
510.77	30347.39
510.95	30178.87
511.12	29970.56
511.30	30209.29
511.47	29963.54
511.64	30525.27
511.82	30431.65
511.99	30607.19
512.17	30185.89
512.34	30670.38
512.51	30803.79
512.69	30927.84
512.86	30792.09
513.04	31154.87
513.21	31285.94
513.38	31473.18
513.56	31417.01
513.73	31447.44
513.90	31349.14
514.08	31325.73
514.25	31550.42
514.43	31718.94
514.60	31995.12
514.77	31587.87
514.95	31861.71
515.12	31967.04
515.29	31761.07
515.47	31835.97
515.64	31985.76
515.81	32041.93
515.99	32353.23
516.16	32514.72
516.33	32308.76
516.51	32638.77
516.68	32266.63
516.85	32840.06
517.03	32694.94
517.20	32947.72
517.37	32718.35
517.54	33188.80
517.72	33120.92
517.89	33031.98
518.06	33263.69
518.24	33607.75
518.41	33242.63
518.58	33198.16
518.75	32830.69
518.93	33251.99
519.10	33457.96
519.27	33394.76
519.45	33591.37
519.62	33858.19
519.79	33954.15
519.96	33710.74
520.14	33958.83
520.31	33890.96
520.48	34300.55
520.65	34122.67
520.83	34609.50
521.00	34527.58
521.17	34515.88
521.34	34501.84
521.52	34733.55
521.69	34398.85
521.86	34871.64
522.03	34873.98
522.20	35377.20
522.38	35370.18
522.55	35201.66
522.72	35061.22
522.89	35339.75
523.07	35702.53
523.24	35374.86
523.41	35615.93
523.58	35611.25
523.75	35662.74
523.92	35637.00
524.10	35840.62
524.27	35524.65
524.44	35768.07
524.61	36154.26
524.78	35880.41
524.96	36180.00
525.13	36060.63
525.30	36348.52
525.47	36517.04
525.64	36128.51
525.81	36392.99
525.98	36486.61
526.16	36662.15
526.33	36109.78
526.50	36840.03
526.67	36833.01
526.84	36690.24
527.01	36896.20
527.18	36837.69
527.36	36940.68
527.53	36821.31
527.70	37481.34
527.87	37495.38
528.04	36744.07
528.21	37036.64
528.38	37067.06
528.55	37331.54
528.72	37729.44
528.89	37481.34
529.07	37010.89
529.24	37345.59
529.41	37542.19
529.58	37488.36
529.75	37483.68
529.92	38064.13
530.09	37497.72
530.26	37745.82
530.43	37909.66
530.60	37383.04
530.77	37628.79
530.94	37558.58
531.11	38047.75
531.28	38309.89
531.46	38459.68
531.63	38265.42
531.80	38595.43
531.97	38724.16
532.14	38033.71
532.31	38286.48
532.48	38450.32
532.65	38829.49
532.82	38497.13
532.99	38937.15
533.16	38733.53
533.33	39182.91
533.50	38883.32
533.67	38691.40
533.84	38637.56
534.01	38866.94
534.18	38920.77
534.35	39372.49
534.52	39349.09
534.69	39744.64
534.86	39606.55
535.03	39255.46
535.20	39344.41
535.37	39674.42
535.54	39739.96
535.71	39611.23
535.88	39817.19
536.05	39388.88
536.22	39709.53
536.38	39889.75
536.55	39775.06
536.72	39566.76
536.89	39934.22
537.06	40172.96
537.23	40212.74
537.40	39901.45
537.57	40332.11
537.74	39941.24
537.91	40385.94
538.08	40699.58
538.25	39955.29
538.42	40112.10
538.59	40931.29
538.75	40217.43
538.92	40786.18
539.09	40713.62
539.26	40603.61
539.43	40608.29
539.60	40889.16
539.77	40500.63
539.94	40774.47
540.11	40999.16
540.28	40919.59
540.44	41064.70
540.61	41053.00
540.78	40360.20
540.95	40952.35
541.12	40952.35
541.29	41411.10
541.46	41289.39
541.62	40933.63
541.79	41820.69
541.96	41298.75
542.13	40809.58
542.30	41427.48
542.47	41214.49
542.63	41399.40
542.80	41708.35
542.97	42075.81
543.14	41715.37
543.31	41909.63
543.48	42078.15
543.64	42705.41
543.81	41666.22
543.98	42010.28
544.15	41860.48
544.32	42483.06
544.48	42733.50
544.65	42122.62
544.82	42497.11
544.99	42564.98
545.16	42340.29
545.32	42239.65
545.49	42960.53
545.66	43098.62
545.83	42691.37
546.00	43152.46
546.16	42803.72
546.33	42997.98
546.50	42209.22
546.67	42649.24
546.83	42272.42
547.00	42286.46
547.17	42747.54
547.34	42909.04
547.50	43077.56
547.67	43320.98
547.84	42789.67
548.00	43201.61
548.17	43477.79
548.34	43215.65
548.51	43653.33
548.67	43681.42
548.84	43260.12
549.01	43063.52
549.18	43548.01
549.34	43737.59
549.51	43239.06
549.68	43828.87
549.84	43723.55
550.01	43835.89
550.18	43215.65
550.34	43793.76
550.51	44165.91
550.68	43903.77
550.84	43782.06
551.01	44002.07
551.18	44177.61
551.34	43803.13
551.51	44147.18
551.68	44065.27
551.84	44144.84
552.01	43889.73
552.18	44083.99
552.34	43800.79
552.51	44355.49
552.68	44364.85
552.84	43793.76
553.01	44411.67
553.18	44575.50
553.34	44659.76
553.51	44006.75
553.67	44631.68
553.84	44198.68
554.01	44676.15
554.17	44732.32
554.34	44835.30
554.51	44769.77
554.67	44938.29
554.84	44755.72
555.00	44952.33
555.17	44748.70
555.33	45074.04
555.50	44336.77
555.67	44746.36
555.83	44729.98
556.00	45045.95
556.16	45017.86
556.33	45155.96
556.50	44554.44
556.66	44919.56
556.83	44804.88
556.99	45368.94
557.16	45268.30
557.32	45240.21
557.49	45551.51
557.65	44907.86
557.82	45059.99
557.98	45223.83
558.15	45326.81
558.32	45446.18
558.48	45170.00
558.65	45366.60
558.81	45572.57
558.98	45333.84
559.14	45067.02
559.31	45317.45
559.47	45226.17
559.64	45350.22
559.80	45612.36
559.97	45455.54
560.13	45612.36
560.30	45500.01
560.46	45977.48
560.63	45860.46
560.79	45614.70
560.96	45485.97
561.12	45705.98
561.29	45542.14
561.45	45600.66
561.61	45715.34
561.78	45478.95
561.94	45331.50
562.11	45738.75
562.27	45883.86
562.44	45539.80
562.60	45979.82
562.77	46164.73
562.93	45876.84
563.10	46183.45
563.26	45837.05
563.42	46244.30
563.59	46085.15
563.75	45600.66
563.92	46286.43
564.08	46108.55
564.24	46143.66
564.41	46040.68
564.57	46349.63
564.74	46052.38
564.90	46202.18
565.07	46361.33
565.23	46234.94
565.39	45595.98
565.56	46457.29
565.72	46253.67
565.88	46234.94
566.05	46660.92
566.21	46213.88
566.38	46333.24
566.54	46693.69
566.70	46689.01
566.87	46330.90
567.03	46447.93
567.19	46848.16
567.36	46480.70
567.52	46742.84
567.68	46986.25
567.85	46689.01
568.01	46480.70
568.17	46220.90
568.34	46681.98
568.50	46492.40
568.66	46674.96
568.83	46513.47
568.99	46827.10
569.15	46426.87
569.32	46738.16
569.48	46415.16
569.64	47253.08
569.81	47089.24
569.97	47154.77
570.13	46770.93
570.30	46691.35
570.46	46897.31
570.62	46469.00
570.78	46586.02
570.95	46443.25
571.11	46815.40
571.27	47079.88
571.43	46820.08
571.60	47339.68
571.76	46656.24
571.92	46955.83
572.09	46986.25
572.25	47253.08
572.41	46384.74
572.57	46700.71
572.74	47330.31
572.90	46944.12
573.06	47187.54
573.22	47049.45
573.38	47129.03
573.55	46595.38
573.71	47217.97
573.87	47220.31
574.03	47026.04
574.20	47452.02
574.36	46941.78
574.52	47337.33
574.68	47201.58
574.84	47398.19
575.01	47510.53
575.17	47592.45
575.33	47049.45
575.49	47009.66
575.65	47344.36
575.82	47379.46
575.98	46824.76
576.14	47349.04
576.30	47573.73
576.46	47316.27
576.62	46859.87
576.79	47206.26
576.95	46351.97
577.11	46967.53
577.27	47257.76
577.43	47299.89
577.59	47037.75
577.75	47475.43
577.92	46997.96
578.08	47147.75
578.24	47152.43
578.40	47365.42
578.56	47363.08
578.72	47196.90
578.88	47861.61
579.04	47295.21
579.21	47297.55
579.37	47473.09
579.53	47374.78
579.69	47402.87
579.85	47140.73
580.01	47400.53
580.17	47311.59
580.33	47281.16
580.49	47650.97
580.65	47447.34
580.82	47445.00
580.98	46962.85
581.14	47327.97
581.30	47519.90
581.46	47393.51
581.62	47224.99
581.78	47332.65
581.94	47440.32
582.10	47536.28
582.26	47760.97
582.42	47412.23
582.58	47182.86
582.74	47489.47
582.90	47725.86
583.06	47611.18
583.22	47615.86
583.38	47725.86
583.54	47665.01
583.70	47489.47
583.86	47681.39
584.02	47400.53
584.18	48163.54
584.34	47129.03
584.50	48004.39
584.66	47739.91
584.82	47583.09
584.98	48200.99
585.14	47866.30
585.30	47543.30
585.46	47454.36
585.62	47800.76
585.78	47550.32
585.94	47358.40
586.10	47367.76
586.26	47447.34
586.42	47248.39
586.58	47650.97
586.74	47943.53
586.90	47847.57
587.06	47452.02
587.22	47800.76
587.38	47475.43
587.54	47863.96
587.70	47866.30
587.86	47688.42
588.02	47437.98
588.18	47772.67
588.34	47505.85
588.49	47519.90
588.65	47686.07
588.81	47650.97
588.97	47854.59
589.13	47999.71
589.29	48009.07
589.45	47814.80
589.61	47576.07
589.77	47913.11
589.93	47393.51
590.08	47870.98
