SpectraSuite Data File
++++++++++++++++++++++++++++++++++++
Date: Fri Oct 25 11:22:29 EDT 2013
User: price-jones
Dark Spectrum Present: No
Reference Spectrum Present: No
Number of Sampled Component Spectra: 1
Spectrometers: USB2+H05261
Integration Time (usec): 100000 (USB2+H05261)
Spectra Averaged: 1 (USB2+H05261)
Boxcar Smoothing: 0 (USB2+H05261)
Correct for Electrical Dark: No (USB2+H05261)
Strobe/Lamp Enabled: No (USB2+H05261)
Correct for Detector Non-linearity: No (USB2+H05261)
Correct for Stray Light: No (USB2+H05261)
Number of Pixels in Processed Spectrum: 2048
>>>>>Begin Processed Spectral Data<<<<<
365.73	245.76
365.92	245.76
366.12	245.76
366.32	63.19
366.52	81.92
366.72	142.77
366.91	170.86
367.11	98.30
367.31	98.30
367.51	124.05
367.70	91.28
367.90	56.17
368.10	124.05
368.30	53.83
368.49	65.54
368.69	135.75
368.89	124.05
369.09	177.88
369.28	220.01
369.48	51.49
369.68	196.60
369.87	184.90
370.07	166.18
370.27	184.90
370.47	292.57
370.66	538.32
370.86	524.28
371.06	617.90
371.25	657.69
371.45	657.69
371.65	617.90
371.84	674.07
372.04	655.35
372.24	713.86
372.44	681.10
372.63	788.76
372.83	725.57
373.03	823.87
373.22	734.93
373.42	716.20
373.62	746.63
373.81	828.55
374.01	823.87
374.21	821.53
374.40	763.01
374.60	858.98
374.79	866.00
374.99	777.06
375.19	814.51
375.38	851.96
375.58	748.97
375.78	863.66
375.97	816.85
376.17	933.87
376.37	842.59
376.56	830.89
376.76	805.14
376.95	828.55
377.15	966.64
377.35	947.92
377.54	884.72
377.74	1015.79
377.93	912.81
378.13	933.87
378.33	896.43
378.52	901.11
378.72	891.74
378.91	926.85
379.11	1013.45
379.31	945.58
379.50	837.91
379.70	1008.77
379.89	968.98
380.09	896.43
380.28	968.98
380.48	1008.77
380.68	997.07
380.87	973.66
381.07	1043.88
381.26	1039.20
381.46	983.02
381.65	1088.35
381.85	985.37
382.04	1034.52
382.24	1043.88
382.43	968.98
382.63	1048.56
382.83	1109.41
383.02	1043.88
383.22	1135.16
383.41	1102.39
383.61	1146.86
383.80	1203.04
384.00	1165.59
384.19	1261.55
384.39	1174.95
384.58	1151.54
384.78	1221.76
384.97	1142.18
385.17	1200.69
385.36	1181.97
385.56	1123.46
385.75	1221.76
385.95	1226.44
386.14	1212.40
386.34	1212.40
386.53	1174.95
386.72	1160.91
386.92	1231.12
387.11	1240.48
387.31	1242.82
387.50	1301.34
387.70	1132.82
387.89	1355.17
388.09	1282.61
388.28	1259.21
388.48	1289.64
388.67	1336.45
388.86	1399.64
389.06	1327.08
389.25	1352.83
389.45	1378.58
389.64	1294.32
389.84	1350.49
390.03	1373.89
390.22	1401.98
390.42	1399.64
390.61	1343.47
390.81	1397.30
391.00	1441.77
391.19	1507.30
391.39	1474.54
391.58	1418.36
391.78	1434.75
391.97	1397.30
392.16	1465.18
392.36	1579.86
392.55	1556.46
392.75	1598.59
392.94	1558.80
393.13	1554.12
393.33	1483.90
393.52	1563.48
393.71	1600.93
393.91	1607.95
394.10	1589.22
394.29	1556.46
394.49	1591.56
394.68	1626.67
394.88	1607.95
395.07	1696.89
395.26	1694.55
395.46	1736.68
395.65	1680.50
395.84	1806.89
396.04	1874.77
396.23	1753.06
396.42	1701.57
396.62	1757.74
396.81	1757.74
397.00	1820.94
397.19	1870.09
397.39	1870.09
397.58	1788.17
397.77	1872.43
397.97	1849.02
398.16	1799.87
398.35	1928.60
398.55	1834.98
398.74	1893.49
398.93	1902.86
399.12	1870.09
399.32	1895.83
399.51	1853.70
399.70	1998.82
399.90	2038.61
400.09	2031.58
400.28	2005.84
400.47	2139.25
400.67	2071.37
400.86	2108.82
401.05	2078.40
401.24	2092.44
401.44	2085.42
401.63	2106.48
401.82	2186.06
402.01	2211.81
402.21	2143.93
402.40	2157.97
402.59	2284.36
402.78	2279.68
402.97	2139.25
403.17	2209.47
403.36	2359.26
403.55	2363.94
403.74	2284.36
403.93	2291.38
404.13	2480.97
404.32	2377.98
404.51	2380.32
404.70	2382.67
404.89	2478.63
405.09	2520.76
405.28	2513.74
405.47	2551.18
405.66	2520.76
405.85	2691.62
406.05	2523.10
406.24	2616.72
406.43	2560.55
406.62	2569.91
406.81	2616.72
407.00	2621.40
407.20	2651.83
407.39	2574.59
407.58	2724.38
407.77	2722.04
407.96	2846.09
408.15	2836.73
408.34	2696.30
408.54	2995.89
408.73	2764.17
408.92	2862.48
409.11	2935.03
409.30	2871.84
409.49	2939.71
409.68	2916.31
409.87	2888.22
410.07	3084.83
410.26	3009.93
410.45	2916.31
410.64	2928.01
410.83	3169.09
411.02	3119.93
411.21	3232.28
411.40	3241.64
411.59	3281.43
411.78	3166.74
411.98	3213.56
412.17	3201.85
412.36	3314.20
412.55	3337.60
412.74	3407.82
412.93	3375.05
413.12	3426.54
413.31	3503.78
413.50	3447.61
413.69	3442.93
413.88	3595.06
414.07	3801.03
414.26	3716.77
414.45	3784.65
414.64	3796.35
414.83	3742.52
415.02	3843.16
415.22	3974.23
415.41	3964.87
415.60	3859.54
415.79	3887.63
415.98	3955.51
416.17	3894.65
416.36	4025.72
416.55	3978.91
416.74	4035.08
416.93	4215.30
417.12	4088.92
417.31	4306.59
417.50	4231.69
417.69	4252.75
417.88	4414.25
418.07	4365.10
418.26	4222.33
418.45	4404.89
418.64	4720.86
418.83	4615.54
419.02	4416.59
419.21	4664.69
419.39	4517.23
419.58	4454.04
419.77	4418.93
419.96	4606.17
420.15	4704.48
420.34	4762.99
420.53	4652.98
420.72	4713.84
420.91	4730.22
421.10	4849.59
421.29	4758.31
421.48	4791.08
421.67	4950.23
421.86	4744.27
422.05	4636.60
422.24	4980.66
422.43	4809.80
422.61	4917.47
422.80	4983.00
422.99	4947.89
423.18	4973.64
423.37	4957.25
423.56	5102.37
423.75	4968.96
423.94	4945.55
424.13	4545.32
424.32	4727.88
424.50	5055.56
424.69	5160.88
424.88	5188.97
425.07	5060.24
425.26	5004.07
425.45	5046.20
425.64	4985.34
425.83	5032.15
426.01	5282.59
426.20	5217.05
426.39	5064.92
426.58	5097.69
426.77	5032.15
426.96	5069.60
427.15	5123.43
427.33	5210.03
427.52	5207.69
427.71	5341.10
427.90	5369.19
428.09	5399.62
428.28	5298.97
428.46	5270.89
428.65	5507.28
428.84	5713.25
429.03	5617.29
429.22	5373.87
429.40	5568.13
429.59	5624.31
429.78	5441.75
429.97	5308.34
430.16	5537.71
430.34	5767.08
430.53	5692.18
430.72	5741.33
430.91	5675.80
431.10	5650.05
431.28	5844.32
431.47	5930.92
431.66	5895.81
431.85	5853.68
432.03	5977.73
432.22	5898.15
432.41	6019.86
432.60	6057.31
432.79	6134.54
432.97	6218.80
433.16	6132.20
433.35	6008.16
433.54	6186.04
433.72	6153.27
433.91	6176.67
434.10	6328.81
434.28	6179.01
434.47	6167.31
434.66	6403.71
434.85	6347.53
435.03	6314.77
435.22	6277.32
435.41	6609.67
435.59	6602.65
435.78	6551.16
435.97	6534.78
436.16	6457.54
436.34	6494.99
436.53	6480.94
436.72	6745.42
436.90	6579.25
437.09	6562.86
437.28	6715.00
437.46	6422.43
437.65	6752.45
437.84	6885.86
438.02	6768.83
438.21	6813.30
438.40	6600.31
438.58	7033.31
438.77	7185.44
438.96	7033.31
439.14	7290.77
439.33	7215.87
439.52	7112.89
439.70	7145.66
439.89	7421.84
440.08	7707.38
440.26	7349.28
440.45	7473.33
440.63	7618.44
440.82	7721.43
441.01	7880.58
441.19	7728.45
441.38	7831.43
441.57	7693.34
441.75	7721.43
441.94	7976.55
442.12	7967.18
442.31	8166.13
442.50	8126.34
442.68	8046.76
442.87	8411.89
443.05	8100.59
443.24	8315.92
443.43	8238.69
443.61	8245.71
443.80	8540.61
443.98	8086.55
444.17	7899.31
444.35	8388.48
444.54	8262.09
444.73	8418.91
444.91	8315.92
445.10	8552.32
445.28	8189.53
445.47	8205.92
445.65	8425.93
445.84	8521.89
446.02	8704.45
446.21	8573.38
446.39	8519.55
446.58	8524.23
446.77	8578.06
446.95	8493.80
447.14	8421.25
447.32	8718.50
447.51	8634.24
447.69	8734.88
447.88	8664.66
448.06	8582.74
448.25	8711.47
448.43	8624.87
448.62	8711.47
448.80	8606.15
448.99	8774.67
449.17	8882.33
449.36	8877.65
449.54	8809.78
449.73	9163.20
449.91	8882.33
450.10	9153.84
450.28	9186.60
450.46	9078.94
450.65	9184.26
450.83	9151.49
451.02	9240.44
451.20	9294.27
451.39	9254.48
451.57	9074.26
451.76	9310.65
451.94	9261.50
452.13	9533.00
452.31	9408.95
452.49	9259.16
452.68	9472.15
452.86	9476.83
453.05	9692.16
453.23	9593.86
453.42	9554.07
453.60	9575.13
453.78	9778.76
453.97	9331.72
454.15	9696.84
454.34	9544.70
454.52	9865.36
454.70	9713.22
454.89	10005.79
455.07	9919.19
455.26	9834.93
455.44	10104.09
455.62	10092.39
455.81	9935.57
455.99	10228.14
456.17	10122.82
456.36	10178.99
456.54	10431.77
456.73	10431.77
456.91	10443.47
457.09	10623.69
457.28	10469.22
457.46	10600.29
457.64	10738.38
457.83	10607.31
458.01	10523.05
458.19	10862.43
458.38	10836.68
458.56	10689.23
458.74	10729.02
458.93	10787.53
459.11	10651.78
459.29	10731.36
459.48	10899.87
459.66	10963.07
459.84	10956.05
460.03	11372.66
460.21	11126.91
460.39	11063.71
460.57	11269.68
460.76	11096.48
460.94	11162.01
461.12	11351.60
461.31	11426.50
461.49	11218.19
461.67	11220.53
461.85	11585.65
462.04	11253.30
462.22	11672.25
462.40	11667.57
462.59	11630.12
462.77	11400.75
462.95	11803.32
463.13	11763.53
463.32	11770.55
463.50	12116.95
463.68	11850.13
463.86	11939.07
464.05	11878.22
464.23	11836.09
464.41	12035.03
464.59	11562.25
464.78	12486.76
464.96	12028.01
465.14	11957.80
465.32	12177.81
465.50	12161.42
465.69	12318.24
465.87	12297.17
466.05	12163.76
466.23	12131.00
466.41	12423.56
466.60	12863.58
466.78	12320.58
466.96	12243.34
467.14	12526.55
467.32	12336.96
467.51	12669.32
467.69	12217.60
467.87	12624.85
468.05	12699.75
468.23	12861.24
468.41	12727.83
468.60	12727.83
468.78	13109.34
468.96	12917.42
469.14	13111.68
469.32	13195.94
469.50	12676.34
469.69	13081.25
469.87	13069.55
470.05	13355.10
470.23	13404.25
470.41	13287.22
470.59	13633.62
470.77	13380.84
470.95	13376.16
471.14	13642.98
471.32	13472.12
471.50	13640.64
471.68	13675.75
471.86	13685.11
472.04	14052.58
472.22	13853.63
472.40	13947.25
472.58	13956.61
472.77	14263.22
472.95	14305.35
473.13	14801.55
473.31	14321.74
473.49	14293.65
473.67	14429.40
473.85	14443.45
474.03	14647.07
474.21	14871.76
474.39	15023.90
474.57	14792.19
474.75	15101.14
474.93	15250.93
475.12	15119.86
475.30	15250.93
475.48	15297.74
475.66	15480.30
475.84	15321.15
476.02	15733.08
476.20	15697.97
476.38	15838.41
476.56	16166.08
476.74	16418.86
476.92	16100.55
477.10	16105.23
477.28	16264.38
477.46	16365.03
477.64	16648.23
477.82	16835.47
478.00	17359.75
478.18	17043.78
478.36	16938.46
478.54	17607.85
478.72	17216.98
478.90	17429.97
479.08	18120.43
479.26	18127.45
479.44	17893.40
479.62	18052.55
479.80	18310.01
479.98	18401.29
480.16	18860.04
480.34	18621.30
480.52	18644.71
480.70	18906.85
480.88	18918.55
481.06	19000.47
481.24	18897.49
481.41	19496.66
481.59	19784.55
481.77	20027.96
481.95	19836.04
482.13	19847.74
482.31	19829.02
482.49	20870.56
482.67	20308.83
482.85	20830.77
483.03	21071.84
483.21	20992.26
483.39	21144.40
483.57	20985.24
483.74	21458.03
483.92	21582.08
484.10	21661.66
484.28	21834.86
484.46	22113.38
484.64	22436.38
484.82	22141.47
485.00	22515.95
485.18	23152.58
485.35	23246.20
485.53	22796.82
485.71	23150.24
485.89	23990.49
486.07	24243.27
486.25	23599.62
486.43	24203.48
486.61	24245.61
486.78	24053.69
486.96	24519.45
487.14	24978.20
487.32	24463.28
487.50	25172.46
487.68	25003.94
487.85	25563.33
488.03	25682.70
488.21	26162.51
488.39	26162.51
488.57	26469.12
488.75	26876.37
488.92	26749.98
489.10	27000.42
489.28	27124.47
489.46	27482.57
489.64	27407.67
489.81	27887.48
489.99	28074.73
490.17	28196.43
490.35	28643.48
490.53	28205.80
490.70	28676.24
490.88	28641.14
491.06	29167.76
491.24	29249.67
491.41	29411.17
491.59	29610.12
491.77	29582.03
491.95	30036.09
492.13	30333.34
492.30	30719.53
492.48	30150.78
492.66	30501.86
492.84	31063.59
493.01	30981.67
493.19	30920.82
493.37	31653.40
493.54	31232.11
493.72	32187.05
493.90	32018.53
494.08	32130.87
494.25	32107.47
494.43	32182.37
494.61	32828.35
494.79	32882.19
494.96	32854.10
495.14	33464.98
495.32	33347.95
495.49	33425.19
495.67	33530.51
495.85	33837.12
496.02	34082.88
496.20	34029.05
496.38	34782.70
496.55	34689.08
496.73	35196.98
496.91	35299.96
497.09	35257.83
497.26	35372.52
497.44	35405.28
497.62	35739.98
497.79	36168.30
497.97	36048.93
498.14	36378.95
498.32	36748.75
498.50	36975.78
498.67	36510.02
498.85	36833.01
499.03	36933.65
499.20	37439.21
499.38	37514.11
499.56	37258.99
499.73	37699.01
499.91	37930.72
500.08	38059.45
500.26	38284.14
500.44	38223.29
500.61	38455.00
500.79	38171.80
500.97	38487.77
501.14	38934.81
501.32	39328.02
501.49	38888.00
501.67	39440.37
501.84	39084.61
502.02	39344.41
502.20	39044.82
502.37	39962.31
502.55	39601.86
502.72	39945.92
502.90	40280.62
503.07	39990.39
503.25	40320.41
503.43	40308.71
503.60	40353.18
503.78	40987.46
503.95	40669.15
504.13	40882.14
504.30	40882.14
504.48	40884.48
504.65	41322.16
504.83	41532.81
505.01	41624.09
505.18	41778.56
505.36	41881.55
505.53	41724.73
505.71	42480.72
505.88	42396.46
506.06	41825.37
506.23	42314.55
506.41	42157.73
506.58	42457.32
506.76	42902.02
506.93	42892.66
507.11	42618.81
507.28	43131.39
507.46	43405.23
507.63	43533.96
507.81	43718.87
507.98	43526.94
508.16	43447.36
508.33	43672.06
508.50	43964.62
508.68	44804.88
508.85	44144.84
509.03	44158.89
509.20	44392.94
509.38	44814.24
509.55	44615.29
509.73	45134.89
509.90	44870.41
510.08	44802.53
510.25	44835.30
510.42	45371.28
510.60	45406.39
510.77	45546.82
510.95	46040.68
511.12	45394.69
511.30	45771.52
511.47	46227.92
511.64	45982.16
511.82	46560.28
511.99	45659.17
512.17	46417.50
512.34	46483.04
512.51	46754.54
512.69	46808.37
512.86	46691.35
513.04	47075.19
513.21	46920.72
513.38	47079.88
513.56	47257.76
513.73	47384.15
513.90	47878.00
514.08	47440.32
514.25	47863.96
514.43	47632.24
514.60	47861.61
514.77	48231.42
514.95	47950.56
515.12	47840.55
515.29	47737.57
515.47	48523.99
515.64	49102.10
515.81	48479.52
515.99	48540.37
516.16	49146.57
516.33	48591.86
516.51	49050.61
516.68	49354.88
516.85	49270.62
517.03	49481.27
517.20	49251.89
517.37	49294.02
517.54	49144.23
517.72	49256.57
517.89	49565.52
518.06	49556.16
518.24	49675.53
518.41	49635.74
518.58	50012.57
518.75	49757.45
518.93	49935.33
519.10	50050.02
519.27	50263.00
519.45	49942.35
519.62	50525.14
519.79	50501.74
519.96	50677.28
520.14	50473.65
520.31	50511.10
520.48	50770.90
520.65	50684.30
520.83	50890.27
521.00	50988.57
521.17	51047.08
521.34	51379.44
521.52	51278.80
521.69	51419.23
521.86	51636.90
522.03	51592.43
522.20	51604.13
522.38	51889.68
522.55	51753.93
522.72	51639.24
522.89	51945.85
523.07	51973.94
523.24	51992.66
523.41	52037.13
523.58	52037.13
523.75	52332.04
523.92	52577.79
524.10	52420.98
524.27	52378.85
524.44	52575.45
524.61	52624.60
524.78	52753.33
524.96	52430.34
525.13	52753.33
525.30	52774.40
525.47	53071.65
525.64	52807.17
525.81	52982.71
525.98	53132.50
526.16	53153.57
526.33	53179.31
526.50	53434.43
526.67	53183.99
526.84	53214.42
527.01	53179.31
527.18	53469.54
527.36	53380.60
527.53	53556.14
527.70	53708.27
527.87	53778.49
528.04	53874.45
528.21	53684.87
528.38	53895.52
528.55	53902.54
528.72	53998.50
528.89	53727.00
529.07	54040.63
529.24	53694.23
529.41	54087.44
529.58	53879.13
529.75	54096.80
529.92	54241.92
530.09	54108.50
530.26	54138.93
530.43	53963.39
530.60	54340.22
530.77	54312.13
530.94	54396.39
531.11	54459.58
531.28	54499.37
531.46	54635.13
531.63	54787.26
531.80	54803.64
531.97	54911.31
532.14	54602.36
532.31	54660.87
532.48	55079.83
532.65	55070.46
532.82	54848.11
532.99	55173.45
533.16	54855.14
533.33	55136.00
533.50	55381.76
533.67	55229.62
533.84	55068.12
534.01	55363.03
534.18	55171.11
534.35	55463.67
534.52	55353.67
534.69	55578.36
534.86	55695.39
535.03	55096.21
535.20	55774.97
535.37	55468.36
535.54	55880.29
535.71	55433.25
535.88	55639.22
536.05	55880.29
536.22	55819.44
536.38	55702.41
536.55	55941.14
536.72	55835.82
536.89	55845.18
537.06	56065.19
537.23	56128.39
537.40	55817.10
537.57	56250.09
537.74	56172.86
537.91	56477.13
538.08	56308.61
538.25	56100.30
538.42	56229.03
538.59	56676.07
538.75	56097.96
538.92	56390.53
539.09	56690.12
539.26	56317.97
539.43	56573.09
539.60	56498.19
539.77	56416.27
539.94	56760.33
540.11	56505.21
540.28	56727.56
540.44	56645.65
540.61	56956.94
540.78	56643.30
540.95	56659.69
541.12	56456.06
541.29	56818.84
541.46	56774.37
541.62	57102.05
541.79	56994.39
541.96	56772.03
542.13	56741.61
542.30	57045.88
542.47	57099.71
542.63	57158.22
542.80	57202.69
542.97	57364.19
543.14	57350.15
543.31	57462.49
543.48	57525.69
543.64	57710.59
543.81	57574.84
543.98	57535.05
544.15	57635.69
544.32	57750.38
544.48	57757.40
544.65	57689.52
544.82	57811.23
544.99	57528.03
545.16	57914.22
545.32	57705.91
545.49	58113.16
545.66	58080.39
545.83	58061.67
546.00	58155.29
546.16	58127.20
546.33	57757.40
546.50	57804.21
546.67	58064.01
546.83	57811.23
547.00	58045.29
547.17	58052.31
547.34	57811.23
547.50	58349.56
547.67	58487.65
547.84	58265.30
548.00	58403.39
548.17	58555.52
548.34	58461.90
548.51	58628.08
548.67	58625.74
548.84	58429.13
549.01	58218.49
549.18	58384.66
549.34	58539.14
549.51	58501.69
549.68	58670.21
549.84	58649.14
550.01	58632.76
550.18	58810.64
550.34	58497.01
550.51	58693.61
550.68	58695.95
550.84	58511.05
551.01	58885.54
551.18	58941.71
551.34	58721.70
551.51	58932.35
551.68	58939.37
551.84	58810.64
552.01	58838.73
552.18	59103.21
552.34	58927.67
552.51	59124.27
552.68	58974.48
552.84	59040.01
553.01	59058.74
553.18	59185.13
553.34	59166.40
553.51	59037.67
553.67	59210.87
553.84	59297.47
554.01	59231.94
554.17	59529.19
554.34	59295.13
554.51	59353.65
554.67	59304.49
554.84	59391.09
555.00	59306.83
555.17	59086.82
555.33	59245.98
555.50	59257.68
555.67	59330.24
555.83	59524.50
556.00	59384.07
556.16	59786.64
556.33	59655.57
556.50	59456.63
556.66	59777.28
556.83	59564.29
556.99	59384.07
557.16	59723.45
557.32	59831.11
557.49	59934.10
557.65	59730.47
557.82	59760.90
557.98	59592.38
558.15	59697.70
558.32	59819.41
558.48	59749.20
558.65	59653.23
558.81	59688.34
558.98	59882.61
559.14	59849.84
559.31	59943.46
559.47	59891.97
559.64	60001.97
559.80	59950.48
559.97	59913.03
560.13	59831.11
560.30	60119.00
560.46	60074.53
560.63	60076.87
560.79	60168.15
560.96	60116.66
561.12	60308.58
561.29	60200.92
561.45	60154.11
561.61	60102.62
561.78	60013.68
561.94	60257.09
562.11	60217.30
562.27	60236.03
562.44	60163.47
562.60	60308.58
562.77	60355.39
562.93	60032.40
563.10	60175.17
563.26	60114.32
563.42	60619.88
563.59	60425.61
563.75	60331.99
563.92	60350.71
564.08	60163.47
564.24	60479.44
564.41	60439.65
564.57	60449.02
564.74	60528.59
564.90	60383.48
565.07	60355.39
565.23	60477.10
565.39	60392.84
565.56	60535.62
565.72	60364.76
565.88	60505.19
566.05	60479.44
566.21	60449.02
566.38	60463.06
566.54	60526.25
566.70	60839.89
566.87	60652.64
567.03	60559.02
567.19	60729.88
567.36	60783.71
567.52	60568.38
567.68	60802.44
567.85	60399.86
568.01	60664.35
568.17	60598.81
568.34	60612.85
568.50	60624.56
568.66	60605.83
568.83	60598.81
568.99	60481.78
569.15	60781.37
569.32	60676.05
569.48	60587.11
569.64	60795.42
569.81	60748.60
569.97	60664.35
570.13	60863.29
570.30	60685.41
570.46	60664.35
570.62	61008.40
570.78	60633.92
570.95	60954.57
571.11	61050.53
571.27	60968.61
571.43	60704.13
571.60	60746.26
571.76	60919.46
571.92	61104.37
572.09	61001.38
572.25	61013.08
572.41	60795.42
572.57	60963.93
572.74	60987.34
572.90	60889.04
573.06	60919.46
573.22	60994.36
573.38	60970.96
573.55	60860.95
573.71	60921.80
573.87	61111.39
574.03	60877.33
574.20	61057.56
574.36	60741.58
574.52	61144.16
574.68	60912.44
574.84	61050.53
575.01	61125.43
575.17	60926.49
575.33	60954.57
575.49	61003.72
575.65	61036.49
575.82	61078.62
575.98	61249.48
576.14	61113.73
576.30	61111.39
576.46	61015.43
576.62	61247.14
576.79	61162.88
576.95	60851.59
577.11	61172.24
577.27	60970.96
577.43	61155.86
577.59	61057.56
577.75	60982.66
577.92	60996.70
578.08	60966.27
578.24	60963.93
578.40	61087.98
578.56	61286.93
578.72	61055.21
578.88	61371.19
579.04	61485.87
579.21	61282.25
579.37	61291.61
579.53	61502.26
579.69	61132.45
579.85	61045.85
580.01	61200.33
580.17	61097.34
580.33	61190.97
580.49	61336.08
580.65	61212.03
580.82	60945.21
580.98	61010.74
581.14	61062.24
581.30	61254.16
581.46	60968.61
581.62	61193.31
581.78	61069.26
581.94	61469.49
582.10	61202.67
582.26	61123.09
582.42	61155.86
582.58	61436.72
582.74	61190.97
582.90	61151.18
583.06	61345.44
583.22	60954.57
583.38	61324.38
583.54	61291.61
583.70	61434.38
583.86	61403.95
584.02	61017.77
584.18	61394.59
584.34	61286.93
584.50	61296.29
584.66	61038.83
584.82	61029.47
584.98	61331.40
585.14	61331.40
585.30	61293.95
585.46	61256.50
585.62	61085.64
585.78	61427.36
585.94	61268.20
586.10	61375.87
586.26	61340.76
586.42	61333.74
586.58	61457.79
586.74	61289.27
586.90	61282.25
587.06	61137.13
587.22	61513.96
587.38	61408.64
587.54	61544.39
587.70	61490.55
587.86	61399.27
588.02	61432.04
588.18	61609.92
588.34	61488.21
588.49	61446.08
