SpectraSuite Data File
++++++++++++++++++++++++++++++++++++
Date: Fri Oct 25 11:26:39 EDT 2013
User: price-jones
Dark Spectrum Present: No
Reference Spectrum Present: No
Number of Sampled Component Spectra: 1
Spectrometers: USB2+H05261
Integration Time (usec): 100000 (USB2+H05261)
Spectra Averaged: 1 (USB2+H05261)
Boxcar Smoothing: 0 (USB2+H05261)
Correct for Electrical Dark: No (USB2+H05261)
Strobe/Lamp Enabled: No (USB2+H05261)
Correct for Detector Non-linearity: No (USB2+H05261)
Correct for Stray Light: No (USB2+H05261)
Number of Pixels in Processed Spectrum: 2048
>>>>>Begin Processed Spectral Data<<<<<
365.73	257.46
365.92	257.46
366.12	257.46
366.32	231.71
366.52	180.22
366.72	191.92
366.91	142.77
367.11	140.43
367.31	114.69
367.51	147.45
367.70	135.75
367.90	154.48
368.10	180.22
368.30	234.05
368.49	107.66
368.69	182.56
368.89	238.73
369.09	163.84
369.28	203.63
369.48	220.01
369.68	98.30
369.87	177.88
370.07	205.97
370.27	220.01
370.47	416.62
370.66	547.69
370.86	587.47
371.06	678.76
371.25	662.37
371.45	671.73
371.65	678.76
371.84	741.95
372.04	624.92
372.24	727.91
372.44	713.86
372.63	732.59
372.83	781.74
373.03	858.98
373.22	800.46
373.42	835.57
373.62	734.93
373.81	805.14
374.01	800.46
374.21	786.42
374.40	711.52
374.60	812.17
374.79	919.83
374.99	854.30
375.19	760.67
375.38	889.40
375.58	760.67
375.78	802.80
375.97	936.21
376.17	793.44
376.37	884.72
376.56	931.53
376.76	898.77
376.95	788.76
377.15	849.61
377.35	997.07
377.54	866.00
377.74	894.08
377.93	854.30
378.13	931.53
378.33	945.58
378.52	903.45
378.72	997.07
378.91	1027.50
379.11	915.15
379.31	910.47
379.50	896.43
379.70	997.07
379.89	1015.79
380.09	943.24
380.28	983.02
380.48	959.62
380.68	966.64
380.87	924.51
381.07	968.98
381.26	968.98
381.46	966.64
381.65	1104.73
381.85	1090.69
382.04	1034.52
382.24	1027.50
382.43	1055.58
382.63	1100.05
382.83	1015.79
383.02	1062.60
383.22	1088.35
383.41	1078.99
383.61	1203.04
383.80	1069.62
384.00	1064.94
384.19	1181.97
384.39	1219.42
384.58	1083.67
384.78	1198.35
384.97	1196.01
385.17	1217.08
385.36	1153.88
385.56	1235.80
385.75	1205.38
385.95	1212.40
386.14	1214.74
386.34	1249.85
386.53	1238.14
386.72	1228.78
386.92	1200.69
387.11	1235.80
387.31	1308.36
387.50	1228.78
387.70	1303.68
387.89	1308.36
388.09	1282.61
388.28	1322.40
388.48	1394.96
388.67	1366.87
388.86	1263.89
389.06	1343.47
389.25	1383.26
389.45	1331.76
389.64	1387.94
389.84	1427.73
390.03	1397.30
390.22	1352.83
390.42	1401.98
390.61	1366.87
390.81	1453.47
391.00	1409.00
391.19	1446.45
391.39	1540.07
391.58	1504.96
391.78	1434.75
391.97	1563.48
392.16	1469.86
392.36	1563.48
392.55	1535.39
392.75	1540.07
392.94	1551.78
393.13	1441.77
393.33	1593.90
393.52	1589.22
393.71	1465.18
393.91	1568.16
394.10	1533.05
394.29	1636.03
394.49	1584.54
394.68	1668.80
394.88	1605.61
395.07	1624.33
395.26	1851.36
395.46	1739.02
395.65	1682.85
395.84	1774.13
396.04	1830.30
396.23	1769.44
396.42	1776.47
396.62	1811.57
396.81	1741.36
397.00	1764.76
397.19	1811.57
397.39	1764.76
397.58	1832.64
397.77	1830.30
397.97	1982.43
398.16	1898.17
398.35	1865.41
398.55	1865.41
398.74	1905.20
398.93	2040.95
399.12	1947.33
399.32	1949.67
399.51	1947.33
399.70	1954.35
399.90	1944.99
400.09	1966.05
400.28	2043.29
400.47	2024.56
400.67	2090.10
400.86	2157.97
401.05	2078.40
401.24	2045.63
401.44	2106.48
401.63	2235.21
401.82	2083.08
402.01	2097.12
402.21	2057.33
402.40	2122.87
402.59	2087.76
402.78	2237.55
402.97	2244.57
403.17	2298.41
403.36	2249.25
403.55	2345.22
403.74	2403.73
403.93	2354.58
404.13	2291.38
404.32	2408.41
404.51	2438.84
404.70	2469.27
404.89	2438.84
405.09	2471.61
405.28	2471.61
405.47	2499.69
405.66	2532.46
405.85	2490.33
406.05	2518.42
406.24	2530.12
406.43	2590.97
406.62	2684.59
406.81	2782.90
407.00	2623.74
407.20	2693.96
407.39	2597.99
407.58	2733.75
407.77	2778.22
407.96	2717.36
408.15	2806.30
408.34	2822.69
408.54	2904.60
408.73	2892.90
408.92	2841.41
409.11	2810.98
409.30	2911.63
409.49	2932.69
409.68	2965.46
409.87	3030.99
410.07	3117.59
410.26	2956.10
410.45	3049.72
410.64	3045.04
410.83	3124.62
411.02	3131.64
411.21	3272.07
411.40	3148.02
411.59	3307.18
411.78	3054.40
411.98	3227.60
412.17	3265.05
412.36	3311.86
412.55	3396.12
412.74	3398.46
412.93	3428.88
413.12	3361.01
413.31	3531.87
413.50	3421.86
413.69	3588.04
413.88	3798.69
414.07	3709.75
414.26	3740.18
414.45	3644.21
414.64	3824.44
414.83	3740.18
415.02	3803.37
415.22	3864.22
415.41	3847.84
415.60	3934.44
415.79	3969.55
415.98	4056.15
416.17	3936.78
416.36	3913.38
416.55	4114.66
416.74	4124.02
416.93	4138.07
417.12	4255.09
417.31	4100.62
417.50	4180.20
417.69	4313.61
417.88	4432.97
418.07	4304.25
418.26	4402.55
418.45	4362.76
418.64	4582.77
418.83	4493.83
419.02	4486.81
419.21	4454.04
419.39	4566.39
419.58	4470.42
419.77	4519.57
419.96	4702.14
420.15	4547.66
420.34	4526.60
420.53	4669.37
420.72	4779.37
420.91	4720.86
421.10	4784.06
421.29	4751.29
421.48	4695.11
421.67	4912.78
421.86	4861.29
422.05	4849.59
422.24	4847.25
422.43	4788.74
422.61	4887.04
422.80	4891.72
422.99	4983.00
423.18	5039.17
423.37	5233.44
423.56	4929.17
423.75	5039.17
423.94	4868.31
424.13	4732.56
424.32	4854.27
424.50	4882.36
424.69	5116.41
424.88	5163.22
425.07	4975.98
425.26	4894.06
425.45	5046.20
425.64	4990.02
425.83	5060.24
426.01	5039.17
426.20	4931.51
426.39	5022.79
426.58	5102.37
426.77	5203.01
426.96	5146.84
427.15	5053.22
427.33	5074.28
427.52	5156.20
427.71	5366.85
427.90	5245.14
428.09	5191.31
428.28	5259.18
428.46	5427.70
428.65	5502.60
428.84	5408.98
429.03	5579.84
429.22	5394.93
429.40	5455.79
429.59	5432.38
429.78	5238.12
429.97	5406.64
430.16	5455.79
430.34	5526.00
430.53	5659.42
430.72	5652.39
430.91	5521.32
431.10	5713.25
431.28	5771.76
431.47	5764.74
431.66	5849.00
431.85	5937.94
432.03	6071.35
432.22	5984.75
432.41	5865.38
432.60	5973.05
432.79	5921.56
432.97	6008.16
433.16	6019.86
433.35	5907.51
433.54	6260.93
433.72	6221.14
433.91	6036.24
434.10	6111.14
434.28	6310.08
434.47	6223.48
434.66	6494.99
434.85	6331.15
435.03	6326.47
435.22	6188.38
435.41	6305.40
435.59	6401.37
435.78	6480.94
435.97	6483.28
436.16	6504.35
436.34	6525.41
436.53	6616.69
436.72	6689.25
436.90	6602.65
437.09	6651.80
437.28	6525.41
437.46	6679.89
437.65	6754.79
437.84	6839.05
438.02	6895.22
438.21	6780.53
438.40	6665.85
438.58	7047.35
438.77	7014.59
438.96	7037.99
439.14	7148.00
439.33	7126.93
439.52	7377.37
439.70	7234.60
439.89	7438.22
440.08	7384.39
440.26	7300.13
440.45	7370.35
440.63	7529.50
440.82	7714.41
441.01	7613.76
441.19	7588.02
441.38	7524.82
441.57	7676.96
441.75	7925.05
441.94	7992.93
442.12	7971.86
442.31	8039.74
442.50	8086.55
442.68	8002.29
442.87	8042.08
443.05	8016.33
443.24	8287.84
443.43	8226.98
443.61	8182.51
443.80	8538.27
443.98	7974.21
444.17	8074.85
444.35	8372.10
444.54	8425.93
444.73	8355.71
444.91	8194.22
445.10	8475.08
445.28	8493.80
445.47	8217.62
445.65	8369.76
445.84	8500.83
446.02	8503.17
446.21	8755.94
446.39	8393.16
446.58	8638.92
446.77	8418.91
446.95	8250.39
447.14	8538.27
447.32	8702.11
447.51	8465.72
447.69	8587.43
447.88	8777.01
448.06	8439.97
448.25	8610.83
448.43	8781.69
448.62	8760.63
448.80	8802.75
448.99	8805.10
449.17	8622.53
449.36	8798.07
449.54	8922.12
449.73	8887.01
449.91	8945.53
450.10	9032.13
450.28	9179.58
450.46	9142.13
450.65	9092.98
450.83	9188.94
451.02	9041.49
451.20	9249.80
451.39	9231.07
451.57	8954.89
451.76	9128.09
451.94	9184.26
452.13	9207.67
452.31	9366.82
452.49	9036.81
452.68	9289.59
452.86	9411.29
453.05	9420.66
453.23	9654.71
453.42	9521.30
453.60	9219.37
453.78	9596.20
453.97	9598.54
454.15	9605.56
454.34	9591.52
454.52	9745.99
454.70	9841.95
454.89	9771.74
455.07	9980.04
455.26	9956.64
455.44	9996.43
455.62	9954.30
455.81	10057.28
455.99	9982.38
456.17	10125.16
456.36	9968.34
456.54	10101.75
456.73	10230.48
456.91	10583.90
457.09	10553.48
457.28	10562.84
457.46	10530.07
457.64	10640.08
457.83	10616.67
458.01	10431.77
458.19	10834.34
458.38	10714.97
458.56	10366.23
458.74	10850.72
458.93	10633.05
459.11	10717.31
459.29	10782.85
459.48	11026.26
459.66	10721.99
459.84	10960.73
460.03	11201.80
460.21	11257.98
460.39	11150.31
460.57	10951.37
460.76	11215.85
460.94	11197.12
461.12	11143.29
461.31	11342.24
461.49	11442.88
461.67	11440.54
461.85	11599.70
462.04	11328.19
462.22	11234.57
462.40	11817.36
462.59	11513.10
462.77	11510.75
462.95	11634.80
463.13	11618.42
463.32	11517.78
463.50	11967.16
463.68	11880.56
463.86	11955.46
464.05	11775.24
464.23	11939.07
464.41	12030.35
464.59	11765.87
464.78	12016.31
464.96	12105.25
465.14	11843.11
465.32	11997.59
465.50	12297.17
465.69	12121.63
465.87	12283.13
466.05	12002.27
466.23	12077.16
466.41	12224.62
466.60	12650.60
466.78	12290.15
466.96	12236.32
467.14	12535.91
467.32	12358.03
467.51	12585.06
467.69	12222.28
467.87	12585.06
468.05	12737.20
468.23	12479.74
468.41	12556.97
468.60	12772.30
468.78	12828.48
468.96	12753.58
469.14	12805.07
469.32	13177.22
469.50	12568.68
469.69	12943.16
469.87	13165.51
470.05	12889.33
470.23	13188.92
470.41	13249.77
470.59	13558.72
470.77	13261.48
470.95	13486.17
471.14	13575.11
471.32	13547.02
471.50	13584.47
471.68	13518.93
471.86	13809.16
472.04	14010.45
472.22	14047.90
472.40	13757.67
472.58	14015.13
472.77	13933.21
472.95	14193.01
473.13	14731.33
473.31	14235.14
473.49	14230.46
473.67	14305.35
473.85	14197.69
474.03	14895.17
474.21	14616.65
474.39	14670.48
474.57	14974.75
474.75	15047.30
474.93	14965.39
475.12	15124.54
475.30	14998.15
475.48	15161.99
475.66	15164.33
475.84	15309.44
476.02	15475.62
476.20	15470.94
476.38	15793.94
476.56	16128.63
476.74	15971.82
476.92	15740.10
477.10	15943.73
477.28	16233.96
477.46	16318.22
477.64	16430.56
477.82	16952.50
478.00	17238.05
478.18	16795.68
478.36	16910.37
478.54	17315.28
478.72	17275.49
478.90	17490.82
479.08	17626.57
479.26	18080.64
479.44	17940.21
479.62	17748.28
479.80	18228.09
479.98	18237.45
480.16	18611.94
480.34	18490.23
480.52	18724.29
480.70	18785.14
480.88	18230.43
481.06	18881.10
481.24	18920.89
481.41	19232.18
481.59	19222.82
481.77	19850.08
481.95	19365.59
482.13	19782.21
482.31	19910.94
482.49	20194.14
482.67	20212.87
482.85	20409.47
483.03	20535.86
483.21	21025.03
483.39	21303.56
483.57	20636.50
483.74	21252.06
483.92	21301.22
484.10	21315.26
484.28	21802.09
484.46	22085.30
484.64	22422.33
484.82	21956.57
485.00	22169.55
485.18	22963.00
485.35	23063.64
485.53	22848.31
485.71	23021.51
485.89	23552.81
486.07	23447.49
486.25	23534.09
486.43	24217.52
486.61	23873.46
486.78	24149.65
486.96	24404.77
487.14	24865.85
487.32	24783.93
487.50	25008.62
487.68	25064.80
487.85	25284.81
488.03	25755.26
488.21	25986.97
488.39	26197.62
488.57	25963.56
488.75	26235.06
488.92	26616.57
489.10	26576.78
489.28	26794.45
489.46	27278.94
489.64	26934.88
489.81	27995.15
489.99	27695.56
490.17	27866.42
490.35	28231.54
490.53	28205.80
490.70	28479.64
490.88	28610.71
491.06	28947.75
491.24	29336.27
491.41	29406.49
491.59	29956.52
491.77	29359.68
491.95	29879.28
492.13	29902.68
492.30	29888.64
492.48	30190.57
492.66	30335.68
492.84	30251.42
493.01	30984.01
493.19	30703.15
493.37	31138.49
493.54	31049.55
493.72	31754.05
493.90	31842.99
494.08	32189.39
494.25	32404.72
494.43	32496.00
494.61	32325.14
494.79	32556.85
494.96	32858.78
495.14	33074.11
495.32	33331.57
495.49	33284.76
495.67	33975.22
495.85	33848.83
496.02	34033.73
496.20	34185.86
496.38	34036.07
496.55	34632.91
496.73	35058.88
496.91	34909.09
497.09	35068.25
497.26	35187.61
497.44	35229.74
497.62	35332.73
497.79	36275.96
497.97	35730.62
498.14	36109.78
498.32	36299.37
498.50	36217.45
498.67	36816.63
498.85	36767.48
499.03	36636.41
499.20	37291.76
499.38	36875.14
499.56	37163.03
499.73	37570.28
499.91	37825.40
500.08	37713.05
500.26	37626.45
500.44	37574.96
500.61	38012.64
500.79	38253.72
500.97	38052.43
501.14	38705.44
501.32	39082.27
501.49	38639.90
501.67	39126.74
501.84	39157.16
502.02	38906.73
502.20	39632.29
502.37	39737.62
502.55	39599.52
502.72	39658.04
502.90	39299.94
503.07	39658.04
503.25	40722.98
503.43	39887.41
503.60	40198.70
503.78	40453.82
503.95	40102.74
504.13	40556.80
504.30	40748.73
504.48	40575.53
504.65	40734.68
504.83	41490.68
505.01	41769.20
505.18	41254.28
505.36	41848.78
505.53	41198.11
505.71	41443.87
505.88	42052.41
506.06	41827.71
506.23	42513.49
506.41	42178.79
506.58	42256.03
506.76	42527.53
506.93	42632.86
507.11	42719.46
507.28	42944.15
507.46	42810.74
507.63	43562.05
507.81	43693.12
507.98	43026.07
508.16	43639.29
508.33	43688.44
508.50	43569.07
508.68	44027.82
508.85	44264.21
509.03	44027.82
509.20	44266.55
509.38	44507.63
509.55	44896.16
509.73	44648.06
509.90	45102.12
510.08	44673.81
510.25	45045.95
510.42	44514.65
510.60	44924.24
510.77	45705.98
510.95	45586.61
511.12	45481.29
511.30	45970.46
511.47	45654.49
511.64	45610.02
511.82	45933.01
511.99	45532.78
512.17	46150.68
512.34	45904.93
512.51	46639.86
512.69	46445.59
512.86	46586.02
513.04	46878.59
513.21	46721.77
513.38	47131.37
513.56	47276.48
513.73	47103.28
513.90	47351.38
514.08	47159.45
514.25	47552.66
514.43	47339.68
514.60	47688.42
514.77	47892.04
514.95	47866.30
515.12	47512.88
515.29	47547.98
515.47	48105.03
515.64	48673.78
515.81	47887.36
515.99	48327.38
516.16	48608.25
516.33	48694.85
516.51	48935.92
516.68	48556.75
516.85	48697.19
517.03	49249.55
517.20	49008.48
517.37	49022.52
517.54	48994.43
517.72	48793.15
517.89	49120.82
518.06	49305.73
518.24	49635.74
518.41	49034.22
518.58	49525.74
518.75	49532.76
518.93	49701.28
519.10	49661.49
519.27	49935.33
519.45	49961.08
519.62	50047.68
519.79	50099.17
519.96	50213.85
520.14	50506.42
520.31	50181.09
520.48	50714.73
520.65	50836.44
520.83	50745.15
521.00	50543.87
521.17	50794.31
521.34	50782.60
521.52	50876.22
521.69	51112.62
521.86	51035.38
522.03	51435.61
522.20	51311.56
522.38	51536.26
522.55	51121.98
522.72	51384.12
522.89	51377.10
523.07	51887.34
523.24	51639.24
523.41	51840.53
523.58	51877.97
523.75	52247.78
523.92	52170.54
524.10	52479.49
524.27	52233.74
524.44	52437.36
524.61	52385.87
524.78	52182.24
524.96	52753.33
525.13	52406.94
525.30	52549.71
525.47	52594.18
525.64	52704.18
525.81	52917.17
525.98	52491.19
526.16	53020.16
526.33	52685.46
526.50	53226.12
526.67	52861.00
526.84	52961.64
527.01	52968.66
527.18	53214.42
527.36	53113.78
527.53	53244.85
527.70	53214.42
527.87	53326.77
528.04	53359.53
528.21	53265.91
528.38	53352.51
528.55	53668.48
528.72	53523.37
528.89	53294.00
529.07	53654.44
529.24	53457.84
529.41	54082.76
529.58	53900.20
529.75	53659.12
529.92	53851.05
530.09	53916.58
530.26	53989.14
530.43	54124.89
530.60	53771.47
530.77	54181.06
530.94	54225.53
531.11	54181.06
531.28	54267.66
531.46	54129.57
531.63	54625.76
531.80	54361.28
531.97	54506.40
532.14	54721.72
532.31	54410.43
532.48	54831.73
532.65	54742.79
532.82	54394.05
532.99	54677.25
533.16	54515.76
533.33	55000.25
533.50	55096.21
533.67	54876.20
533.84	54717.04
534.01	54941.74
534.18	55037.70
534.35	55285.79
534.52	55128.98
534.69	55480.06
534.86	55463.67
535.03	55136.00
535.20	55545.59
535.37	55367.71
535.54	55554.96
535.71	55325.58
535.88	55468.36
536.05	55508.14
536.22	55597.09
536.38	55529.21
536.55	55805.39
536.72	55683.69
536.89	55700.07
537.06	55772.63
537.23	55826.46
537.40	55632.19
537.57	56107.32
537.74	55852.20
537.91	56247.75
538.08	56062.85
538.25	55908.38
538.42	56065.19
538.59	56219.67
538.75	56100.30
538.92	56020.72
539.09	56423.29
539.26	56409.25
539.43	56355.42
539.60	56306.27
539.77	56362.44
539.94	56463.08
540.11	56446.70
540.28	56594.15
540.44	56378.82
540.61	56605.86
540.78	56465.42
540.95	56589.47
541.12	56568.41
541.29	56491.17
541.46	56647.99
541.62	56727.56
541.79	56594.15
541.96	56786.08
542.13	56762.67
542.30	56891.40
542.47	56961.62
542.63	57116.09
542.80	56994.39
542.97	57308.02
543.14	57357.17
543.31	57202.69
543.48	57354.83
543.64	57633.35
543.81	57645.05
543.98	57373.55
544.15	57387.60
544.32	57724.63
544.48	57893.15
544.65	57502.28
544.82	57499.94
544.99	57387.60
545.16	57518.67
545.32	57371.21
545.49	57907.19
545.66	57909.53
545.83	57902.51
546.00	57902.51
546.16	57556.11
546.33	57787.83
546.50	57490.58
546.67	57738.68
546.83	57609.95
547.00	57893.15
547.17	57659.10
547.34	57904.85
547.50	57975.07
547.67	58262.96
547.84	57860.38
548.00	58185.72
548.17	58401.05
548.34	58068.69
548.51	58265.30
548.67	58171.67
548.84	58237.21
549.01	58401.05
549.18	58363.60
549.34	58321.47
549.51	58239.55
549.68	58307.43
549.84	58471.26
550.01	58602.33
550.18	58440.84
550.34	58710.00
550.51	58691.27
550.68	58775.53
550.84	58375.30
551.01	58614.04
551.18	58550.84
551.34	58630.42
551.51	58768.51
551.68	58686.59
551.84	58616.38
552.01	58745.11
552.18	58841.07
552.34	58433.81
552.51	58728.72
552.68	58527.44
552.84	58714.68
553.01	59009.59
553.18	59028.31
553.34	59089.16
553.51	58838.73
553.67	58747.45
553.84	59047.04
554.01	59049.38
554.17	59152.36
554.34	59063.42
554.51	59213.21
554.67	59346.62
554.84	59182.79
555.00	59086.82
555.17	59077.46
555.33	59124.27
555.50	59138.32
555.67	59096.19
555.83	59004.91
556.00	59426.20
556.16	59393.43
556.33	59428.54
556.50	59135.98
556.66	59629.83
556.83	59278.75
556.99	59538.55
557.16	59484.72
557.32	59585.36
557.49	59742.17
557.65	59346.62
557.82	59583.02
557.98	59512.80
558.15	59491.74
558.32	59585.36
558.48	59590.04
558.65	59667.28
558.81	59765.58
558.98	59770.26
559.14	59564.29
559.31	59566.63
559.47	59803.03
559.64	59543.23
559.80	59749.20
559.97	59884.95
560.13	59629.83
560.30	59777.28
560.46	59983.25
560.63	60221.98
560.79	59756.22
560.96	59971.55
561.12	59779.62
561.29	59971.55
561.45	60034.74
561.61	59854.52
561.78	59999.63
561.94	59992.61
562.11	60030.06
562.27	60046.44
562.44	60058.15
562.60	60158.79
562.77	60161.13
562.93	59824.09
563.10	60287.52
563.26	60018.36
563.42	60381.14
563.59	60170.49
563.75	60081.55
563.92	60109.64
564.08	60198.58
564.24	60348.37
564.41	60186.88
564.57	60245.39
564.74	60158.79
564.90	60217.30
565.07	60236.03
565.23	60074.53
565.39	60177.51
565.56	60310.92
565.72	60264.11
565.88	60339.01
566.05	60299.22
566.21	60364.76
566.38	60441.99
566.54	60449.02
566.70	60519.23
566.87	60348.37
567.03	60341.35
567.19	60584.77
567.36	60544.98
567.52	60441.99
567.68	60666.69
567.85	60584.77
568.01	60746.26
568.17	60458.38
568.34	60463.06
568.50	60636.26
568.66	60463.06
568.83	60591.79
568.99	60273.48
569.15	60479.44
569.32	60479.44
569.48	60502.85
569.64	60645.62
569.81	60605.83
569.97	60275.82
570.13	60495.83
570.30	60395.18
570.46	60420.93
570.62	60631.58
570.78	60477.10
570.95	60671.37
571.11	60797.76
571.27	60559.02
571.43	60652.64
571.60	60858.61
571.76	60654.98
571.92	60659.66
572.09	60647.96
572.25	60708.82
572.41	60760.31
572.57	60640.94
572.74	60903.08
572.90	60652.64
573.06	60598.81
573.22	60559.02
573.38	60781.37
573.55	60809.46
573.71	60910.10
573.87	60767.33
574.03	60774.35
574.20	60762.65
574.36	60603.49
574.52	60853.93
574.68	60804.78
574.84	60818.82
575.01	61003.72
575.17	60977.98
575.33	60846.91
575.49	60935.85
575.65	60659.66
575.82	60849.25
575.98	60764.99
576.14	61057.56
576.30	61083.30
576.46	61006.06
576.62	60846.91
576.79	60919.46
576.95	60764.99
577.11	60683.07
577.27	60893.72
577.43	61015.43
577.59	60676.05
577.75	60776.69
577.92	60577.75
578.08	60954.57
578.24	60917.12
578.40	61174.58
578.56	61141.81
578.72	60947.55
578.88	61139.47
579.04	61130.11
579.21	61050.53
579.37	61092.66
579.53	61190.97
579.69	60673.71
579.85	60952.23
580.01	60921.80
580.17	60921.80
580.33	60959.25
580.49	60933.51
580.65	61022.45
580.82	61006.06
580.98	60992.02
581.14	61029.47
581.30	61160.54
581.46	61048.19
581.62	61043.51
581.78	60851.59
581.94	61036.49
582.10	61113.73
582.26	61106.71
582.42	60992.02
582.58	61027.13
582.74	61006.06
582.90	61038.83
583.06	61179.26
583.22	60889.04
583.38	60903.08
583.54	60947.55
583.70	61024.79
583.86	61029.47
584.02	60931.17
584.18	61141.81
584.34	61148.84
584.50	61256.50
584.66	61020.11
584.82	61155.86
584.98	61254.16
585.14	61240.12
585.30	61092.66
585.46	61219.05
585.62	61296.29
585.78	61141.81
585.94	60804.78
586.10	61153.52
586.26	61268.20
586.42	61090.32
586.58	61324.38
586.74	61298.63
586.90	61010.74
587.06	61146.50
587.22	61256.50
587.38	61123.09
587.54	61244.80
587.70	61242.46
587.86	61127.77
588.02	61174.58
588.18	61305.65
588.34	61097.34
588.49	61116.07
