SpectraSuite Data File
++++++++++++++++++++++++++++++++++++
Date: Fri Oct 25 11:25:02 EDT 2013
User: price-jones
Dark Spectrum Present: No
Reference Spectrum Present: No
Number of Sampled Component Spectra: 1
Spectrometers: USB2+H05261
Integration Time (usec): 100000 (USB2+H05261)
Spectra Averaged: 1 (USB2+H05261)
Boxcar Smoothing: 0 (USB2+H05261)
Correct for Electrical Dark: No (USB2+H05261)
Strobe/Lamp Enabled: No (USB2+H05261)
Correct for Detector Non-linearity: No (USB2+H05261)
Correct for Stray Light: No (USB2+H05261)
Number of Pixels in Processed Spectrum: 2048
>>>>>Begin Processed Spectral Data<<<<<
365.73	238.73
365.92	238.73
366.12	238.73
366.32	142.77
366.52	140.43
366.72	156.82
366.91	131.07
367.11	135.75
367.31	138.09
367.51	98.30
367.70	187.24
367.90	131.07
368.10	135.75
368.30	121.71
368.49	124.05
368.69	149.79
368.89	212.99
369.09	124.05
369.28	107.66
369.48	177.88
369.68	245.76
369.87	212.99
370.07	203.63
370.27	257.46
370.47	367.46
370.66	578.11
370.86	741.95
371.06	660.03
371.25	655.35
371.45	711.52
371.65	720.88
371.84	678.76
372.04	674.07
372.24	690.46
372.44	746.63
372.63	734.93
372.83	737.27
373.03	723.23
373.22	791.10
373.42	711.52
373.62	861.32
373.81	779.40
374.01	781.74
374.21	774.72
374.40	795.78
374.60	875.36
374.79	751.31
374.99	854.30
375.19	849.61
375.38	856.64
375.58	917.49
375.78	819.19
375.97	823.87
376.17	873.02
376.37	889.40
376.56	910.47
376.76	805.14
376.95	880.04
377.15	903.45
377.35	898.77
377.54	915.15
377.74	877.70
377.93	873.02
378.13	917.49
378.33	896.43
378.52	847.27
378.72	945.58
378.91	889.40
379.11	896.43
379.31	983.02
379.50	833.23
379.70	976.00
379.89	980.68
380.09	926.85
380.28	1013.45
380.48	1020.47
380.68	994.73
380.87	905.79
381.07	985.37
381.26	987.71
381.46	1011.11
381.65	992.39
381.85	1057.92
382.04	990.05
382.24	1121.12
382.43	1144.52
382.63	1083.67
382.83	1125.80
383.02	1132.82
383.22	1139.84
383.41	1025.15
383.61	1090.69
383.80	1151.54
384.00	1102.39
384.19	1132.82
384.39	1137.50
384.58	1109.41
384.78	1118.78
384.97	1076.65
385.17	1151.54
385.36	1172.61
385.56	1217.08
385.75	1081.33
385.95	1184.31
386.14	1233.46
386.34	1165.59
386.53	1165.59
386.72	1137.50
386.92	1221.76
387.11	1254.53
387.31	1252.19
387.50	1207.72
387.70	1259.21
387.89	1289.64
388.09	1226.44
388.28	1184.31
388.48	1221.76
388.67	1378.58
388.86	1306.02
389.06	1345.81
389.25	1366.87
389.45	1334.11
389.64	1341.13
389.84	1369.21
390.03	1441.77
390.22	1355.17
390.42	1371.55
390.61	1380.92
390.81	1357.51
391.00	1423.05
391.19	1411.34
391.39	1409.00
391.58	1334.11
391.78	1453.47
391.97	1523.69
392.16	1425.39
392.36	1544.75
392.55	1530.71
392.75	1589.22
392.94	1514.33
393.13	1495.60
393.33	1521.35
393.52	1575.18
393.71	1626.67
393.91	1607.95
394.10	1614.97
394.29	1600.93
394.49	1621.99
394.68	1598.59
394.88	1600.93
395.07	1722.63
395.26	1736.68
395.46	1645.40
395.65	1753.06
395.84	1734.34
396.04	1776.47
396.23	1806.89
396.42	1746.04
396.62	1891.15
396.81	1806.89
397.00	1727.32
397.19	1781.15
397.39	1806.89
397.58	1865.41
397.77	1809.23
397.97	1837.32
398.16	1870.09
398.35	1923.92
398.55	1851.36
398.74	1886.47
398.93	1907.54
399.12	1902.86
399.32	1888.81
399.51	1891.15
399.70	2062.01
399.90	1952.01
400.09	2003.50
400.28	2092.44
400.47	2057.33
400.67	2019.88
400.86	2115.84
401.05	2078.40
401.24	2099.46
401.44	2054.99
401.63	2146.27
401.82	2193.08
402.01	2101.80
402.21	2263.30
402.40	2153.29
402.59	2282.02
402.78	2209.47
402.97	2317.13
403.17	2321.81
403.36	2221.17
403.55	2253.94
403.74	2375.64
403.93	2333.51
404.13	2392.03
404.32	2457.56
404.51	2359.26
404.70	2408.41
404.89	2347.56
405.09	2420.11
405.28	2478.63
405.47	2520.76
405.66	2502.03
405.85	2499.69
406.05	2572.25
406.24	2525.44
406.43	2520.76
406.62	2567.57
406.81	2635.44
407.00	2504.37
407.20	2504.37
407.39	2649.49
407.58	2686.94
407.77	2719.70
407.96	2764.17
408.15	2635.44
408.34	2633.10
408.54	2892.90
408.73	2780.56
408.92	2785.24
409.11	2878.86
409.30	2843.75
409.49	2787.58
409.68	2867.16
409.87	2977.16
410.07	2984.18
410.26	3073.12
410.45	2881.20
410.64	3042.70
410.83	3035.67
411.02	3073.12
411.21	3243.98
411.40	3089.51
411.59	3042.70
411.78	2986.52
411.98	3234.62
412.17	3321.22
412.36	3344.63
412.55	3407.82
412.74	3314.20
412.93	3440.59
413.12	3286.11
413.31	3480.38
413.50	3487.40
413.69	3407.82
413.88	3719.11
414.07	3548.25
414.26	3531.87
414.45	3520.17
414.64	3660.60
414.83	3665.28
415.02	3662.94
415.22	3765.92
415.41	3913.38
415.60	3824.44
415.79	3882.95
415.98	3908.69
416.17	4070.19
416.36	4004.66
416.55	3995.29
416.74	3960.19
416.93	3983.59
417.12	4184.88
417.31	4215.30
417.50	4245.73
417.69	4325.31
417.88	4227.01
418.07	4159.13
418.26	4231.69
418.45	4257.43
418.64	4348.72
418.83	4423.61
419.02	4458.72
419.21	4526.60
419.39	4564.04
419.58	4393.19
419.77	4407.23
419.96	4559.36
420.15	4561.70
420.34	4589.79
420.53	4631.92
420.72	4601.49
420.91	4723.20
421.10	4758.31
421.29	4816.82
421.48	4631.92
421.67	4718.52
421.86	4819.16
422.05	4826.18
422.24	4809.80
422.43	4863.63
422.61	4978.32
422.80	4823.84
422.99	4947.89
423.18	4964.28
423.37	4943.21
423.56	4917.47
423.75	5055.56
423.94	4695.11
424.13	4624.90
424.32	4624.90
424.50	5029.81
424.69	5004.07
424.88	5074.28
425.07	4840.23
425.26	4901.08
425.45	5013.43
425.64	5001.72
425.83	4980.66
426.01	5107.05
426.20	5039.17
426.39	5011.09
426.58	4952.57
426.77	5118.75
426.96	5076.62
427.15	5247.48
427.33	5121.09
427.52	5165.56
427.71	5228.76
427.90	5195.99
428.09	5282.59
428.28	5455.79
428.46	5240.46
428.65	5296.63
428.84	5535.37
429.03	5439.40
429.22	5373.87
429.40	5526.00
429.59	5458.13
429.78	5238.12
429.97	5181.95
430.16	5444.09
430.34	5628.99
430.53	5495.58
430.72	5558.77
430.91	5495.58
431.10	5460.47
431.28	5778.78
431.47	5760.06
431.66	5858.36
431.85	5624.31
432.03	5874.74
432.22	6162.63
432.41	5905.17
432.60	5851.34
432.79	5685.16
432.97	5996.45
433.16	6003.47
433.35	5902.83
433.54	6080.71
433.72	6146.25
433.91	6078.37
434.10	6019.86
434.28	6061.99
434.47	6164.97
434.66	6230.51
434.85	6216.46
435.03	6349.87
435.22	6293.70
435.41	6429.45
435.59	6303.06
435.78	6443.49
435.97	6544.14
436.16	6438.81
436.34	6387.32
436.53	6502.01
436.72	6476.26
436.90	6422.43
437.09	6520.73
437.28	6593.29
437.46	6462.22
437.65	6516.05
437.84	6747.76
438.02	6623.72
438.21	6825.00
438.40	6853.09
438.58	6808.62
438.77	6963.09
438.96	6953.73
439.14	7140.97
439.33	7185.44
439.52	7286.09
439.70	7206.51
439.89	7171.40
440.08	7204.17
440.26	7290.77
440.45	7442.90
440.63	7489.71
440.82	7552.91
441.01	7489.71
441.19	7625.47
441.38	7655.89
441.57	7712.07
441.75	7882.92
441.94	7934.42
442.12	7929.74
442.31	8056.12
442.50	8016.33
442.68	7845.48
442.87	7885.26
443.05	8058.46
443.24	8194.22
443.43	8135.70
443.61	8285.50
443.80	8393.16
443.98	8088.89
444.17	7875.90
444.35	8210.60
444.54	8496.14
444.73	8327.63
444.91	8226.98
445.10	8395.50
445.28	8344.01
445.47	8458.70
445.65	8353.37
445.84	8479.76
446.02	8470.40
446.21	8430.61
446.39	8248.05
446.58	8397.84
446.77	8526.57
446.95	8299.54
447.14	8432.95
447.32	8669.34
447.51	8444.65
447.69	8397.84
447.88	8601.47
448.06	8514.87
448.25	8425.93
448.43	8610.83
448.62	8608.49
448.80	8596.79
448.99	8505.51
449.17	8610.83
449.36	8697.43
449.54	8856.59
449.73	9067.24
449.91	8990.00
450.10	8870.63
450.28	9053.19
450.46	9046.17
450.65	9139.79
450.83	9160.86
451.02	9020.42
451.20	9317.67
451.39	9261.50
451.57	8884.67
451.76	9022.77
451.94	9062.55
452.13	9275.54
452.31	9315.33
452.49	9254.48
452.68	9380.87
452.86	9387.89
453.05	9504.92
453.23	9289.59
453.42	9324.69
453.60	9458.10
453.78	9432.36
453.97	9399.59
454.15	9453.42
454.34	9584.49
454.52	9504.92
454.70	9760.03
454.89	9844.29
455.07	9778.76
455.26	9776.42
455.44	10045.58
455.62	9905.15
455.81	9989.41
455.99	10036.22
456.17	9968.34
456.36	10012.81
456.54	10047.92
456.73	10328.78
456.91	10328.78
457.09	10141.54
457.28	10501.98
457.46	10356.87
457.64	10602.63
457.83	10487.94
458.01	10134.52
458.19	10572.20
458.38	10518.37
458.56	10597.95
458.74	10583.90
458.93	10682.20
459.11	10560.50
459.29	10731.36
459.48	10658.80
459.66	10864.77
459.84	10810.93
460.03	11068.39
460.21	10995.84
460.39	11150.31
460.57	10686.89
460.76	11208.83
460.94	11342.24
461.12	11122.23
461.31	11307.13
461.49	11070.73
461.67	11150.31
461.85	11564.59
462.04	11356.28
462.22	11765.87
462.40	11630.12
462.59	11585.65
462.77	11377.34
462.95	11592.67
463.13	11267.34
463.32	11489.69
463.50	11548.20
463.68	11658.21
463.86	11695.66
464.05	11503.73
464.23	11613.74
464.41	12070.14
464.59	11634.80
464.78	12226.96
464.96	11910.99
465.14	12025.67
465.32	12107.59
465.50	12079.50
465.69	12006.95
465.87	12084.19
466.05	12035.03
466.23	12095.89
466.41	12248.02
466.60	12271.43
466.78	12257.39
466.96	12131.00
467.14	12116.95
467.32	12278.45
467.51	12437.61
467.69	12114.61
467.87	12318.24
468.05	12788.69
468.23	12479.74
468.41	12383.77
468.60	12734.85
468.78	12769.96
468.96	12456.33
469.14	12924.44
469.32	13179.56
469.50	12727.83
469.69	13011.04
469.87	13144.45
470.05	12924.44
470.23	13095.30
470.41	13163.17
470.59	13350.42
470.77	13184.24
470.95	13252.11
471.14	13343.39
471.32	13217.01
471.50	13427.65
471.68	13441.70
471.86	13631.28
472.04	13434.68
472.22	13809.16
472.40	13795.12
472.58	13865.33
472.77	14092.37
472.95	14146.20
473.13	14497.28
473.31	14202.37
473.49	14061.94
473.67	14237.48
473.85	14427.06
474.03	14525.36
474.21	14644.73
474.39	14611.96
474.57	14366.21
474.75	15119.86
474.93	15084.75
475.12	14677.50
475.30	14843.68
475.48	14806.23
475.66	15330.51
475.84	15049.64
476.02	15325.83
476.20	15374.98
476.38	15597.33
476.56	15925.00
476.74	15976.50
476.92	16013.95
477.10	15955.43
477.28	15978.84
477.46	16205.87
477.64	16489.07
477.82	16311.19
478.00	17041.44
478.18	16692.70
478.36	16769.94
478.54	17102.29
478.72	17144.42
478.90	17427.63
479.08	17652.32
479.26	17568.06
479.44	17537.63
479.62	17942.55
479.80	17701.47
479.98	18162.56
480.16	18703.22
480.34	18340.44
480.52	18597.90
480.70	18349.80
480.88	18405.97
481.06	18597.90
481.24	18998.13
481.41	19140.90
481.59	19365.59
481.77	19353.89
481.95	19854.76
482.13	19791.57
482.31	19620.71
482.49	20409.47
482.67	19932.00
482.85	20079.46
483.03	20367.34
483.21	20596.71
483.39	20982.90
483.57	20697.36
483.74	21221.64
483.92	21617.19
484.10	21160.78
484.28	21441.65
484.46	21912.10
484.64	22218.71
484.82	22012.74
485.00	22218.71
485.18	22686.81
485.35	23026.19
485.53	23007.47
485.71	22944.27
485.89	23421.74
486.07	23283.65
486.25	23414.72
486.43	23798.57
486.61	23796.23
486.78	24135.60
486.96	23836.02
487.14	24294.76
487.32	24439.87
487.50	24741.80
487.68	25385.45
487.85	25219.27
488.03	25710.78
488.21	25401.83
488.39	25596.10
488.57	26426.99
488.75	26089.95
488.92	26321.66
489.10	26314.64
489.28	26731.26
489.46	27204.05
489.64	27147.87
489.81	27440.44
489.99	27625.34
490.17	27583.21
490.35	27709.60
490.53	27969.40
490.70	28273.67
490.88	28245.58
491.06	28650.50
491.24	28718.37
491.41	28872.85
491.59	29153.71
491.77	29207.55
491.95	29055.41
492.13	29497.77
492.30	29729.48
492.48	29921.41
492.66	30160.14
492.84	30354.41
493.01	30536.97
493.19	30799.11
493.37	31278.92
493.54	31098.70
493.72	31117.42
493.90	31393.61
494.08	31653.40
494.25	31630.00
494.43	31791.50
494.61	32624.73
494.79	32201.09
494.96	32299.39
495.14	32484.30
495.32	32950.06
495.49	32858.78
495.67	33266.03
495.85	33647.54
496.02	33675.63
496.20	34195.23
496.38	34015.01
496.55	34415.24
496.73	34916.11
496.91	34518.22
497.09	34792.06
497.26	34527.58
497.44	34780.36
497.62	35119.74
497.79	35849.99
497.97	35140.80
498.14	36051.27
498.32	35754.02
498.50	36250.22
498.67	36203.41
498.85	36376.61
499.03	36755.77
499.20	36498.31
499.38	36849.39
499.56	36514.70
499.73	37041.32
499.91	37542.19
500.08	37511.77
500.26	37589.00
500.44	37902.64
500.61	37956.47
500.79	37663.90
500.97	37748.16
501.14	38721.82
501.32	38515.86
501.49	38740.55
501.67	38726.50
501.84	38686.71
502.02	39112.69
502.20	38878.64
502.37	39428.66
502.55	39154.82
502.72	39124.40
502.90	39477.82
503.07	39503.56
503.25	39636.97
503.43	39435.69
503.60	40219.77
503.78	39908.47
503.95	40519.35
504.13	40407.01
504.30	40893.84
504.48	40524.04
504.65	40652.76
504.83	41230.88
505.01	40996.82
505.18	40931.29
505.36	41148.96
505.53	41296.41
505.71	41745.80
505.88	41935.38
506.06	41467.27
506.23	41900.27
506.41	41792.61
506.58	42157.73
506.76	42454.98
506.93	42405.83
507.11	42300.50
507.28	42780.31
507.46	42735.84
507.63	42763.93
507.81	43456.73
507.98	42700.73
508.16	43005.00
508.33	43225.01
508.50	43580.78
508.68	43826.53
508.85	43669.72
509.03	43824.19
509.20	43353.74
509.38	44201.02
509.55	44456.14
509.73	44336.77
509.90	44554.44
510.08	44795.51
510.25	44360.17
510.42	44289.96
510.60	45127.87
510.77	45556.19
510.95	45294.05
511.12	44903.18
511.30	44886.79
511.47	45600.66
511.64	45401.71
511.82	45696.62
511.99	45804.28
512.17	46024.29
512.34	45675.55
512.51	46323.88
512.69	46288.77
512.86	46127.28
513.04	46527.51
513.21	46593.04
513.38	46714.75
513.56	46876.25
513.73	46576.66
513.90	46939.44
514.08	46763.90
514.25	46974.55
514.43	47608.84
514.60	47430.96
514.77	47100.94
514.95	47283.50
515.12	47419.25
515.29	47604.16
515.47	47452.02
515.64	47878.00
515.81	47917.79
515.99	48030.13
516.16	48549.73
516.33	48100.35
516.51	48626.97
516.68	48062.90
516.85	48566.12
517.03	48423.34
517.20	48619.95
517.37	48893.79
517.54	48755.70
517.72	48706.55
517.89	49193.38
518.06	49120.82
518.24	49277.64
518.41	49247.21
518.58	49574.89
518.75	49247.21
518.93	49420.41
519.10	49357.22
519.27	49497.65
519.45	49600.63
519.62	49956.39
519.79	49790.22
519.96	49975.12
520.14	50382.37
520.31	50099.17
520.48	50064.06
520.65	50108.53
520.83	50794.31
521.00	50485.36
521.17	50536.85
521.34	50660.90
521.52	50710.05
521.69	50422.16
521.86	51206.24
522.03	51004.95
522.20	51416.89
522.38	51405.19
522.55	51377.10
522.72	51124.32
522.89	51316.25
523.07	51650.94
523.24	51283.48
523.41	51466.04
523.58	51349.01
523.75	51679.03
523.92	51732.86
524.10	51927.13
524.27	51976.28
524.44	51711.80
524.61	51793.71
524.78	52215.01
524.96	52322.68
525.13	52383.53
525.30	52133.09
525.47	52332.04
525.64	52259.48
525.81	52484.17
525.98	52540.35
526.16	52364.81
526.33	52435.02
526.50	52804.83
526.67	52582.48
526.84	52762.70
527.01	53015.47
527.18	52823.55
527.36	53017.82
527.53	52830.57
527.70	53432.09
527.87	53034.20
528.04	53083.35
528.21	53268.25
528.38	53251.87
528.55	53284.64
528.72	53207.40
528.89	53317.40
529.07	53389.96
529.24	53331.45
529.41	53488.26
529.58	53509.33
529.75	53736.36
529.92	53616.99
530.09	53837.00
530.26	53904.88
530.43	54007.86
530.60	53848.71
530.77	53605.29
530.94	54244.26
531.11	53895.52
531.28	54199.79
531.46	54143.61
531.63	54042.97
531.80	54239.57
531.97	54246.60
532.14	54300.43
532.31	54482.99
532.48	54532.14
532.65	54749.81
532.82	54274.68
532.99	54679.60
533.16	54644.49
533.33	54377.67
533.50	55025.99
533.67	54798.96
533.84	54478.31
534.01	54836.41
534.18	54995.57
534.35	55159.41
534.52	55098.55
534.69	55271.75
534.86	55054.08
535.03	55093.87
535.20	55374.73
535.37	55458.99
535.54	55571.34
535.71	55011.95
535.88	55381.76
536.05	55430.91
536.22	55484.74
536.38	55679.00
536.55	55590.06
536.72	55447.29
536.89	55374.73
537.06	55508.14
537.23	55812.41
537.40	55629.85
537.57	55690.71
537.74	55643.90
537.91	55938.80
538.08	55866.25
538.25	55618.15
538.42	55587.72
538.59	56109.66
538.75	55817.10
538.92	55955.19
539.09	55987.95
539.26	55934.12
539.43	55861.57
539.60	56144.77
539.77	56032.42
539.94	56266.48
540.11	56205.62
540.28	56292.22
540.44	56282.86
540.61	56432.66
540.78	56346.06
540.95	56224.35
541.12	56184.56
541.29	56446.70
541.46	56575.43
541.62	56526.28
541.79	56519.26
541.96	56367.12
542.13	56477.13
542.30	56673.73
542.47	56657.35
542.63	56938.21
542.80	56566.07
542.97	56945.23
543.14	57052.90
543.31	56938.21
543.48	57286.95
543.64	57450.79
543.81	57467.17
543.98	57048.22
544.15	57125.46
544.32	57450.79
544.48	57628.67
544.65	57146.52
544.82	57322.06
544.99	57308.02
545.16	57396.96
545.32	57556.11
545.49	57748.04
545.66	57591.22
545.83	57614.63
546.00	57705.91
546.16	57586.54
546.33	57490.58
546.50	57471.85
546.67	57778.46
546.83	57476.54
547.00	57504.62
547.17	57764.42
547.34	57682.50
547.50	57869.75
547.67	58267.64
547.84	57722.29
548.00	57977.41
548.17	58204.44
548.34	58129.54
548.51	58157.63
548.67	58220.83
548.84	58061.67
549.01	58010.18
549.18	58174.02
549.34	58169.33
549.51	58326.15
549.68	58159.97
549.84	58248.91
550.01	58595.31
550.18	58328.49
550.34	58520.41
550.51	58616.38
550.68	58351.90
550.84	58174.02
551.01	58574.25
551.18	58513.39
551.34	58370.62
551.51	58520.41
551.68	58602.33
551.84	58405.73
552.01	58679.57
552.18	58497.01
552.34	58253.59
552.51	58735.74
552.68	58464.24
552.84	58632.76
553.01	58913.62
553.18	58876.18
553.34	58906.60
553.51	58749.79
553.67	58838.73
553.84	58735.74
554.01	58761.49
554.17	58817.66
554.34	58857.45
554.51	59004.91
554.67	58595.31
554.84	58843.41
555.00	58864.47
555.17	58873.84
555.33	59009.59
555.50	59030.65
555.67	58873.84
555.83	59011.93
556.00	59103.21
556.16	59313.86
556.33	59217.89
556.50	58981.50
556.66	59475.35
556.83	59084.48
556.99	59379.39
557.16	59573.66
557.32	59299.81
557.49	59370.03
557.65	59292.79
557.82	59327.90
557.98	59348.96
558.15	59536.21
558.32	59248.32
558.48	59461.31
558.65	59526.84
558.81	59412.16
558.98	59454.29
559.14	59517.48
559.31	59709.41
559.47	59763.24
559.64	59774.94
559.80	59634.51
559.97	59833.46
560.13	59559.61
560.30	59828.77
560.46	59639.19
560.63	59688.34
560.79	59943.46
560.96	59847.50
561.12	59959.84
561.29	59901.33
561.45	59875.58
561.61	59807.71
561.78	59763.24
561.94	59803.03
562.11	59798.35
562.27	59969.21
562.44	59877.93
562.60	59891.97
562.77	59945.80
562.93	59889.63
563.10	59969.21
563.26	59880.27
563.42	60149.43
563.59	59807.71
563.75	59980.91
563.92	60238.37
564.08	59854.52
564.24	60018.36
564.41	59936.44
564.57	60114.32
564.74	60243.05
564.90	60130.70
565.07	60133.04
565.23	60254.75
565.39	59894.31
565.56	60219.64
565.72	60119.00
565.88	59997.29
566.05	60095.60
566.21	60006.65
566.38	60385.82
566.54	60292.20
566.70	60339.01
566.87	60245.39
567.03	60177.51
567.19	60306.24
567.36	60266.45
567.52	60212.62
567.68	60507.53
567.85	60268.79
568.01	60460.72
568.17	60151.77
568.34	60514.55
568.50	60343.69
568.66	60341.35
568.83	60336.67
568.99	60360.08
569.15	60488.80
569.32	60392.84
569.48	60479.44
569.64	60310.92
569.81	60481.78
569.97	60310.92
570.13	60418.59
570.30	60250.07
570.46	60467.74
570.62	60488.80
570.78	60612.85
570.95	60416.25
571.11	60350.71
571.27	60339.01
571.43	60465.40
571.60	60654.98
571.76	60430.29
571.92	60629.24
572.09	60687.75
572.25	60463.06
572.41	60470.08
572.57	60343.69
572.74	60795.42
572.90	60376.46
573.06	60608.17
573.22	60465.40
573.38	60594.13
573.55	60495.83
573.71	60818.82
573.87	60715.84
574.03	60652.64
574.20	60652.64
574.36	60406.89
574.52	60699.45
574.68	60612.85
574.84	60767.33
575.01	60790.73
575.17	60671.37
575.33	60523.91
575.49	60727.54
575.65	60678.39
575.82	60659.66
575.98	60844.57
576.14	60980.32
576.30	60879.67
576.46	60727.54
576.62	60727.54
576.79	60753.29
576.95	60465.40
577.11	60676.05
577.27	60905.42
577.43	60790.73
577.59	60654.98
577.75	60573.06
577.92	60575.40
578.08	60851.59
578.24	60788.39
578.40	60919.46
578.56	60823.50
578.72	60788.39
578.88	60872.65
579.04	61078.62
579.21	60931.17
579.37	60842.23
579.53	60807.12
579.69	60633.92
579.85	60825.84
580.01	60683.07
580.17	60779.03
580.33	60772.01
580.49	60863.29
580.65	60830.52
580.82	60767.33
580.98	60835.20
581.14	60844.57
581.30	60970.96
581.46	60767.33
581.62	61001.38
581.78	60793.07
581.94	61010.74
582.10	60793.07
582.26	60734.56
582.42	60774.35
582.58	60776.69
582.74	60839.89
582.90	60800.10
583.06	60863.29
583.22	60575.40
583.38	60968.61
583.54	60917.12
583.70	61109.05
583.86	61071.60
584.02	60741.58
584.18	60907.76
584.34	60975.64
584.50	60828.18
584.66	60727.54
584.82	60816.48
584.98	61132.45
585.14	60959.25
585.30	60860.95
585.46	61087.98
585.62	60793.07
585.78	61015.43
585.94	60750.94
586.10	60954.57
586.26	60956.91
586.42	60949.89
586.58	60977.98
586.74	60910.10
586.90	61052.87
587.06	60825.84
587.22	61080.96
587.38	60956.91
587.54	61188.63
587.70	61254.16
587.86	61001.38
588.02	61146.50
588.18	61200.33
588.34	61006.06
588.49	61144.16
