SpectraSuite Data File
++++++++++++++++++++++++++++++++++++
Date: Fri Oct 25 11:33:34 EDT 2013
User: price-jones
Dark Spectrum Present: No
Reference Spectrum Present: No
Number of Sampled Component Spectra: 1
Spectrometers: USB2+H05261
Integration Time (usec): 100000 (USB2+H05261)
Spectra Averaged: 1 (USB2+H05261)
Boxcar Smoothing: 0 (USB2+H05261)
Correct for Electrical Dark: No (USB2+H05261)
Strobe/Lamp Enabled: No (USB2+H05261)
Correct for Detector Non-linearity: No (USB2+H05261)
Correct for Stray Light: No (USB2+H05261)
Number of Pixels in Processed Spectrum: 2048
>>>>>Begin Processed Spectral Data<<<<<
365.73	252.78
365.92	252.78
366.12	252.78
366.32	238.73
366.52	154.48
366.72	217.67
366.91	252.78
367.11	182.56
367.31	231.71
367.51	119.37
367.70	180.22
367.90	191.92
368.10	220.01
368.30	161.50
368.49	149.79
368.69	266.82
368.89	149.79
369.09	121.71
369.28	224.69
369.48	196.60
369.68	255.12
369.87	294.91
370.07	245.76
370.27	276.18
370.47	301.93
370.66	454.06
370.86	524.28
371.06	554.71
371.25	617.90
371.45	557.05
371.65	622.58
371.84	535.98
372.04	594.50
372.24	629.60
372.44	566.41
372.63	650.67
372.83	587.47
373.03	578.11
373.22	543.00
373.42	746.63
373.62	667.05
373.81	692.80
374.01	620.24
374.21	606.20
374.40	638.97
374.60	585.13
374.79	645.99
374.99	685.78
375.19	671.73
375.38	669.39
375.58	566.41
375.78	739.61
375.97	711.52
376.17	739.61
376.37	620.24
376.56	690.46
376.76	620.24
376.95	697.48
377.15	667.05
377.35	664.71
377.54	723.23
377.74	681.10
377.93	653.01
378.13	720.88
378.33	734.93
378.52	662.37
378.72	711.52
378.91	723.23
379.11	674.07
379.31	650.67
379.50	720.88
379.70	695.14
379.89	805.14
380.09	720.88
380.28	765.36
380.48	711.52
380.68	674.07
380.87	685.78
381.07	748.97
381.26	758.33
381.46	667.05
381.65	798.12
381.85	746.63
382.04	690.46
382.24	788.76
382.43	770.04
382.63	772.38
382.83	730.25
383.02	753.65
383.22	854.30
383.41	781.74
383.61	798.12
383.80	870.68
384.00	772.38
384.19	772.38
384.39	842.59
384.58	849.61
384.78	809.83
384.97	910.47
385.17	795.78
385.36	926.85
385.56	903.45
385.75	809.83
385.95	760.67
386.14	823.87
386.34	894.08
386.53	863.66
386.72	833.23
386.92	903.45
387.11	905.79
387.31	894.08
387.50	858.98
387.70	875.36
387.89	861.32
388.09	889.40
388.28	884.72
388.48	866.00
388.67	917.49
388.86	826.21
389.06	931.53
389.25	851.96
389.45	938.55
389.64	950.26
389.84	1001.75
390.03	1074.31
390.22	905.79
390.42	1008.77
390.61	952.60
390.81	901.11
391.00	896.43
391.19	1025.15
391.39	1004.09
391.58	1043.88
391.78	1001.75
391.97	1107.07
392.16	1006.43
392.36	1011.11
392.55	1067.28
392.75	1057.92
392.94	1057.92
393.13	1069.62
393.33	957.28
393.52	1043.88
393.71	1078.99
393.91	1071.97
394.10	1062.60
394.29	1086.01
394.49	1083.67
394.68	1071.97
394.88	1240.48
395.07	1123.46
395.26	1090.69
395.46	1090.69
395.65	1137.50
395.84	1207.72
396.04	1203.04
396.23	1233.46
396.42	1170.27
396.62	1214.74
396.81	1107.07
397.00	1046.22
397.19	1200.69
397.39	1165.59
397.58	1268.57
397.77	1291.98
397.97	1256.87
398.16	1221.76
398.35	1273.25
398.55	1303.68
398.74	1306.02
398.93	1284.95
399.12	1249.85
399.32	1294.32
399.51	1287.29
399.70	1357.51
399.90	1437.09
400.09	1406.66
400.28	1446.45
400.47	1296.66
400.67	1460.49
400.86	1469.86
401.05	1404.32
401.24	1430.07
401.44	1406.66
401.63	1364.53
401.82	1458.15
402.01	1343.47
402.21	1519.01
402.40	1561.14
402.59	1521.35
402.78	1488.58
402.97	1542.41
403.17	1582.20
403.36	1565.82
403.55	1507.30
403.74	1577.52
403.93	1689.87
404.13	1568.16
404.32	1596.25
404.51	1687.53
404.70	1675.82
404.89	1547.09
405.09	1654.76
405.28	1650.08
405.47	1605.61
405.66	1708.59
405.85	1600.93
406.05	1760.08
406.24	1696.89
406.43	1820.94
406.62	1792.85
406.81	1879.45
407.00	1746.04
407.20	1664.12
407.39	1792.85
407.58	1851.36
407.77	1816.26
407.96	1886.47
408.15	1863.07
408.34	1853.70
408.54	1872.43
408.73	1909.88
408.92	1858.39
409.11	1977.75
409.30	2012.86
409.49	1954.35
409.68	2040.95
409.87	2080.74
410.07	2092.44
410.26	2064.35
410.45	1933.28
410.64	2076.06
410.83	2120.53
411.02	2127.55
411.21	2150.95
411.40	2087.76
411.59	2064.35
411.78	2256.28
411.98	2195.42
412.17	2153.29
412.36	2333.51
412.55	2331.17
412.74	2462.24
412.93	2298.41
413.12	2263.30
413.31	2410.75
413.50	2443.52
413.69	2377.98
413.88	2572.25
414.07	2476.29
414.26	2410.75
414.45	2487.99
414.64	2511.39
414.83	2504.37
415.02	2560.55
415.22	2621.40
415.41	2717.36
415.60	2588.63
415.79	2609.70
415.98	2668.21
416.17	2841.41
416.36	2712.68
416.55	2768.85
416.74	2843.75
416.93	2881.20
417.12	2789.92
417.31	2939.71
417.50	2796.94
417.69	2946.73
417.88	2843.75
418.07	2890.56
418.26	3026.31
418.45	2979.50
418.64	3066.10
418.83	3028.65
419.02	3016.95
419.21	3164.40
419.39	3023.97
419.58	3119.93
419.77	3180.79
419.96	3234.62
420.15	3265.05
420.34	3180.79
420.53	3215.90
420.72	3269.73
420.91	3143.34
421.10	3255.69
421.29	3208.87
421.48	3136.32
421.67	3304.84
421.86	3286.11
422.05	3276.75
422.24	3194.83
422.43	3452.29
422.61	3253.34
422.80	3396.12
422.99	3358.67
423.18	3393.78
423.37	3447.61
423.56	3330.58
423.75	3393.78
423.94	3321.22
424.13	3386.76
424.32	3321.22
424.50	3419.52
424.69	3524.85
424.88	3485.06
425.07	3550.59
425.26	3426.54
425.45	3386.76
425.64	3368.03
425.83	3588.04
426.01	3510.80
426.20	3375.05
426.39	3368.03
426.58	3417.18
426.77	3510.80
426.96	3538.89
427.15	3487.40
427.33	3449.95
427.52	3592.72
427.71	3632.51
427.90	3744.86
428.09	3604.42
428.28	3665.28
428.46	3620.81
428.65	3751.88
428.84	3810.39
429.03	3772.94
429.22	3726.13
429.40	3791.67
429.59	3815.07
429.78	3679.32
429.97	3662.94
430.16	3751.88
430.34	3974.23
430.53	3901.67
430.72	3962.53
430.91	3997.64
431.10	3934.44
431.28	3929.76
431.47	4102.96
431.66	4028.06
431.85	3915.72
432.03	4056.15
432.22	4072.53
432.41	3950.82
432.60	4056.15
432.79	4035.08
432.97	4189.56
433.16	4219.99
433.35	4159.13
433.54	4002.32
433.72	4152.11
433.91	4088.92
434.10	4168.49
434.28	4170.83
434.47	4227.01
434.66	4287.86
434.85	4273.82
435.03	4444.68
435.22	4250.41
435.41	4505.53
435.59	4374.46
435.78	4322.97
435.97	4374.46
436.16	4526.60
436.34	4442.34
436.53	4379.14
436.72	4461.06
436.90	4355.74
437.09	4479.79
437.28	4393.19
437.46	4503.19
437.65	4461.06
437.84	4606.17
438.02	4582.77
438.21	4458.72
438.40	4610.86
438.58	4685.75
438.77	4755.97
438.96	4760.65
439.14	4770.01
439.33	4837.89
439.52	4980.66
439.70	4936.19
439.89	5214.71
440.08	4936.19
440.26	4987.68
440.45	5006.41
440.63	5100.03
440.82	5188.97
441.01	5050.88
441.19	5130.45
441.38	5210.03
441.57	5268.55
441.75	5238.12
441.94	5371.53
442.12	5282.59
442.31	5432.38
442.50	5432.38
442.68	5378.55
442.87	5359.83
443.05	5535.37
443.24	5666.44
443.43	5540.05
443.61	5626.65
443.80	5628.99
443.98	5528.35
444.17	5303.65
444.35	5483.88
444.54	5659.42
444.73	5628.99
444.91	5715.59
445.10	5577.50
445.28	5746.02
445.47	5701.54
445.65	5640.69
445.84	5523.66
446.02	5767.08
446.21	5673.46
446.39	5664.10
446.58	5776.44
446.77	5678.14
446.95	5518.98
447.14	5760.06
447.32	5795.17
447.51	5757.72
447.69	5533.03
447.88	5781.12
448.06	5746.02
448.25	5699.20
448.43	5778.78
448.62	5764.74
448.80	5713.25
448.99	5769.42
449.17	5902.83
449.36	5900.49
449.54	5830.27
449.73	5942.62
449.91	6094.76
450.10	5980.07
450.28	6139.23
450.46	6179.01
450.65	6022.20
450.83	6047.94
451.02	5963.68
451.20	6190.72
451.39	6207.10
451.57	6157.95
451.76	6221.14
451.94	6310.08
452.13	6471.58
452.31	6209.44
452.49	6256.25
452.68	6317.11
452.86	6408.39
453.05	6415.41
453.23	6427.11
453.42	6567.54
453.60	6455.20
453.78	6527.75
453.97	6490.31
454.15	6429.45
454.34	6438.81
454.52	6478.60
454.70	6691.59
454.89	6455.20
455.07	6757.13
455.26	6424.77
455.44	6773.51
455.62	6642.44
455.81	6738.40
455.99	6663.51
456.17	6876.49
456.36	6897.56
456.54	6918.62
456.73	6780.53
456.91	7143.32
457.09	7073.10
457.28	6932.67
457.46	6904.58
457.64	7082.46
457.83	7014.59
458.01	6988.84
458.19	7152.68
458.38	7206.51
458.56	7206.51
458.74	7300.13
458.93	7089.48
459.11	7070.76
459.29	7339.92
459.48	7211.19
459.66	7213.53
459.84	7318.86
460.03	7449.93
460.21	7435.88
460.39	7351.62
460.57	7382.05
460.76	7410.14
460.94	7389.07
461.12	7426.52
461.31	7630.15
461.49	7454.61
461.67	7583.34
461.85	7793.98
462.04	7754.19
462.22	8159.11
462.40	7929.74
462.59	7864.20
462.77	7819.73
462.95	7801.01
463.13	7667.60
463.32	7721.43
463.50	7674.62
463.68	7934.42
463.86	7875.90
464.05	7887.61
464.23	7934.42
464.41	8063.15
464.59	7934.42
464.78	8205.92
464.96	7971.86
465.14	7922.71
465.32	8016.33
465.50	8182.51
465.69	8028.04
465.87	8135.70
466.05	8248.05
466.23	8243.37
466.41	8198.90
466.60	8226.98
466.78	8159.11
466.96	8285.50
467.14	8222.30
467.32	8430.61
467.51	8262.09
467.69	8201.24
467.87	8432.95
468.05	8475.08
468.23	8374.44
468.41	8229.32
468.60	8411.89
468.78	8521.89
468.96	8168.47
469.14	8545.30
469.32	8636.58
469.50	8557.00
469.69	8716.16
469.87	8697.43
470.05	8674.03
470.23	8777.01
470.41	8924.46
470.59	8716.16
470.77	8704.45
470.95	8901.06
471.14	9092.98
471.32	8629.56
471.50	9312.99
471.68	9128.09
471.86	8987.66
472.04	9022.77
472.22	9191.28
472.40	8894.04
472.58	9153.84
472.77	9301.29
472.95	9434.70
473.13	9743.65
473.31	9320.01
473.49	9441.72
473.67	9259.16
473.85	9348.10
474.03	9745.99
474.21	9771.74
474.39	9914.51
474.57	9682.80
474.75	9877.06
474.93	10122.82
475.12	9980.04
475.30	9696.84
475.48	10071.33
475.66	10148.56
475.84	9820.89
476.02	10157.92
476.20	10101.75
476.38	10352.19
476.56	10703.27
476.74	10370.91
476.92	10443.47
477.10	10422.41
477.28	10799.23
477.46	10719.65
477.64	10789.87
477.82	11054.35
478.00	11183.08
478.18	11073.07
478.36	11140.95
478.54	11222.87
478.72	11318.83
478.90	11290.74
479.08	11742.47
479.26	11611.40
479.44	11868.86
479.62	11726.08
479.80	11899.28
479.98	11955.46
480.16	12196.53
480.34	11871.20
480.52	12327.60
480.70	12482.08
480.88	12301.86
481.06	12311.22
481.24	12500.80
481.41	12868.27
481.59	12589.74
481.77	12903.37
481.95	12924.44
482.13	13109.34
482.31	12774.64
482.49	13322.33
482.67	13277.86
482.85	13661.71
483.03	13715.54
483.21	13614.90
483.39	13745.97
483.57	13544.68
483.74	13806.82
483.92	14092.37
484.10	14134.50
484.28	14361.53
484.46	14413.02
484.64	14562.81
484.82	14448.13
485.00	14642.39
485.18	14799.21
485.35	15026.24
485.53	14923.26
485.71	15260.29
485.89	15435.83
486.07	15681.59
486.25	15295.40
486.43	15262.63
486.61	15648.82
486.78	15850.11
486.96	15763.51
487.14	16194.17
487.32	16290.13
487.50	16093.52
487.68	16376.73
487.85	16533.54
488.03	16826.11
488.21	16851.86
488.39	17174.85
488.57	17043.78
488.75	17268.47
488.92	17301.24
489.10	17532.95
489.28	17411.25
489.46	17743.60
489.64	17745.94
489.81	18181.28
489.99	18405.97
490.17	18106.38
490.35	18431.72
490.53	18511.30
490.70	18810.89
490.88	18473.85
491.06	18625.98
491.24	18892.80
491.41	19143.24
491.59	19199.41
491.77	19143.24
491.95	19513.05
492.13	19667.52
492.30	19711.99
492.48	19798.59
492.66	19737.74
492.84	20011.58
493.01	20154.35
493.19	20367.34
493.37	20444.58
493.54	20299.47
493.72	20793.32
493.90	20807.36
494.08	20851.83
494.25	21167.80
494.43	21149.08
494.61	21053.12
494.79	21312.92
494.96	20926.73
495.14	21441.65
495.32	21460.37
495.49	21539.95
495.67	21853.58
495.85	22036.14
496.02	22174.24
496.20	22291.26
496.38	22501.91
496.55	22302.96
496.73	22918.53
496.91	22717.24
497.09	23028.53
497.26	22820.22
497.44	22986.40
497.62	23253.22
497.79	23477.91
497.97	23161.94
498.14	23438.12
498.32	23587.92
498.50	23779.84
498.67	23934.32
498.85	23707.29
499.03	24053.69
499.20	24299.44
499.38	24142.63
499.56	24472.64
499.73	24350.93
499.91	24353.27
500.08	24699.67
500.26	24463.28
500.44	24833.08
500.61	24739.46
500.79	24790.95
500.97	25060.12
501.14	24891.60
501.32	25174.80
501.49	25357.36
501.67	25170.12
501.84	25460.35
502.02	25528.22
502.20	25441.62
502.37	25942.50
502.55	25956.54
502.72	26153.15
502.90	26146.12
503.07	25928.45
503.25	26508.91
503.43	26019.74
503.60	26548.70
503.78	26951.27
503.95	26494.86
504.13	26452.73
504.30	26649.34
504.48	26630.62
504.65	26588.49
504.83	27166.60
505.01	27239.15
505.18	27405.33
505.36	27143.19
505.53	27082.34
505.71	27440.44
505.88	27271.92
506.06	27204.05
506.23	27960.04
506.41	27241.50
506.58	27482.57
506.76	27751.73
506.93	28041.96
507.11	28205.80
507.28	28063.02
507.46	28222.18
507.63	28498.36
507.81	28582.62
507.98	28250.27
508.16	28500.70
508.33	28676.24
508.50	28804.97
508.68	28465.60
508.85	28968.81
509.03	28992.22
509.20	28933.70
509.38	29001.58
509.55	29177.12
509.73	29448.62
509.90	29273.08
510.08	29617.14
510.25	29235.63
510.42	29607.78
510.60	29294.14
510.77	30169.51
510.95	30134.40
511.12	30026.73
511.30	29862.90
511.47	30167.16
511.64	29975.24
511.82	30600.16
511.99	30164.82
512.17	30476.12
512.34	30389.52
512.51	30925.50
512.69	30761.66
512.86	31049.55
513.04	30864.64
513.21	30937.20
513.38	31061.25
513.56	31166.57
513.73	30766.34
513.90	31409.99
514.08	31049.55
514.25	31473.18
514.43	31377.22
514.60	31737.66
514.77	31468.50
514.95	31985.76
515.12	31592.55
515.29	31524.68
515.47	32198.75
515.64	32011.51
515.81	31798.52
515.99	32173.00
516.16	32734.73
516.33	32428.12
516.51	32430.46
516.68	32257.26
516.85	32545.15
517.03	32673.88
517.20	32790.91
517.37	32596.64
517.54	33186.46
517.72	32737.07
517.89	32924.32
518.06	33158.37
518.24	33247.31
518.41	32943.04
518.58	33069.43
518.75	32952.40
518.93	33366.68
519.10	33273.06
519.27	33453.28
519.45	33497.75
519.62	33799.68
519.79	33848.83
519.96	33813.72
520.14	33795.00
520.31	33462.64
520.48	33905.00
520.65	34174.16
520.83	34253.74
521.00	34719.51
521.17	34307.57
521.34	34501.84
521.52	34412.90
521.69	34660.99
521.86	34719.51
522.03	35119.74
522.20	35082.29
522.38	35084.63
522.55	34934.84
522.72	34850.58
522.89	35379.54
523.07	35208.68
523.24	35058.88
523.41	35817.22
523.58	35627.63
523.75	35592.53
523.92	35672.10
524.10	35658.06
524.27	35852.33
524.44	35534.01
524.61	35697.85
524.78	35777.43
524.96	35880.41
525.13	36133.19
525.30	36191.70
525.47	36425.76
525.64	36259.58
525.81	36334.48
525.98	36273.62
526.16	36465.55
526.33	35845.30
526.50	36493.63
526.67	36460.87
526.84	36423.42
527.01	36868.12
527.18	36503.00
527.36	36535.76
527.53	36933.65
527.70	37003.87
527.87	36849.39
528.04	37116.22
528.21	37015.57
528.38	36931.31
528.55	36872.80
528.72	37067.06
528.89	37415.80
529.07	37036.64
529.24	36994.51
529.41	37518.79
529.58	37383.04
529.75	37352.61
529.92	37455.59
530.09	37233.24
530.26	38127.33
530.43	37617.09
530.60	37762.20
530.77	37338.57
530.94	37977.53
531.11	37659.22
531.28	38171.80
531.46	38000.94
531.63	38249.03
531.80	38319.25
531.97	38499.47
532.14	38298.19
532.31	38108.60
532.48	38682.03
532.65	38265.42
532.82	38852.89
532.99	38520.54
533.16	38403.51
533.33	38520.54
533.50	38728.84
533.67	38520.54
533.84	38539.26
534.01	38906.73
534.18	39054.18
534.35	38969.92
534.52	39274.19
534.69	39112.69
534.86	39639.31
535.03	39178.23
535.20	39072.90
535.37	39494.20
535.54	39552.71
535.71	39440.37
535.88	39548.03
536.05	39716.55
536.22	39723.57
536.38	40189.34
536.55	39735.27
536.72	39885.07
536.89	39484.84
537.06	39908.47
537.23	39835.92
537.40	39782.09
537.57	39606.55
537.74	39831.24
537.91	40521.69
538.08	40680.85
538.25	39833.58
538.42	39871.03
538.59	40701.92
538.75	40311.05
538.92	40610.64
539.09	40421.05
539.26	40318.07
539.43	40137.85
539.60	40800.22
539.77	40840.01
539.94	40804.90
540.11	40605.95
540.28	40767.45
540.44	41085.76
540.61	40615.32
540.78	40528.72
540.95	41036.61
541.12	40395.31
541.29	40966.40
541.46	40783.83
541.62	41088.10
541.79	41235.56
541.96	40627.02
542.13	40779.15
542.30	41179.39
542.47	41202.79
542.63	41612.38
542.80	41972.83
542.97	41900.27
543.14	41921.34
543.31	41918.99
543.48	41703.67
543.64	42380.08
543.81	42000.91
543.98	41900.27
544.15	42108.58
544.32	42150.71
544.48	42223.26
544.65	42309.86
544.82	42157.73
544.99	42272.42
545.16	42520.51
545.32	41984.53
545.49	42934.79
545.66	42911.38
545.83	42581.37
546.00	42616.47
546.16	42686.69
546.33	42752.23
546.50	42349.65
546.67	42464.34
546.83	42483.06
547.00	42497.11
547.17	42726.48
547.34	42916.06
547.50	42878.61
547.67	43332.68
547.84	42560.30
548.00	42953.51
548.17	43463.75
548.34	43264.80
548.51	43562.05
548.67	43456.73
548.84	43468.43
549.01	43164.16
549.18	43225.01
549.34	43826.53
549.51	43110.33
549.68	43622.90
549.84	43391.19
550.01	43592.48
550.18	43288.21
550.34	43365.45
550.51	43707.16
550.68	43674.40
550.84	43086.92
551.01	43882.70
551.18	43758.66
551.34	43817.17
551.51	44062.93
551.68	43751.63
551.84	43732.91
552.01	44107.40
552.18	43639.29
552.34	44123.78
552.51	43908.45
552.68	43728.23
552.84	43723.55
553.01	44123.78
553.18	44102.71
553.34	44531.03
553.51	44353.15
553.67	44236.12
553.84	44399.96
554.01	44210.38
554.17	44201.02
554.34	44397.62
554.51	44208.04
554.67	44542.74
554.84	44617.63
555.00	44552.10
555.17	44404.64
555.33	44758.06
555.50	44746.36
555.67	44947.65
555.83	44879.77
556.00	44865.73
556.16	44938.29
556.33	45043.61
556.50	45198.09
556.66	45151.27
556.83	44561.46
556.99	45581.93
557.16	45539.80
557.32	45022.54
557.49	45457.88
557.65	45017.86
557.82	45144.25
557.98	44985.10
558.15	45619.38
558.32	45612.36
558.48	45041.27
558.65	45406.39
558.81	45181.70
558.98	45158.30
559.14	45055.31
559.31	45478.95
559.47	45050.63
559.64	45537.46
559.80	45528.10
559.97	45661.51
560.13	45450.86
560.30	45497.67
560.46	45310.43
560.63	45773.86
560.79	45713.00
560.96	45511.72
561.12	45556.19
561.29	45532.78
561.45	46033.66
561.61	45736.41
561.78	45792.58
561.94	45907.27
562.11	45947.06
562.27	45518.74
562.44	45507.04
562.60	45628.74
562.77	46071.10
562.93	45518.74
563.10	46110.89
563.26	46192.81
563.42	46220.90
563.59	45961.10
563.75	45736.41
563.92	46148.34
564.08	46333.24
564.24	45975.14
564.41	46021.95
564.57	45862.80
564.74	45684.92
564.90	45825.35
565.07	45928.33
565.23	45996.21
565.39	45944.72
565.56	46408.14
565.72	45844.07
565.88	46431.55
566.05	46361.33
566.21	46094.51
566.38	46546.23
566.54	46476.02
566.70	46679.64
566.87	46204.52
567.03	45764.49
567.19	46415.16
567.36	46464.32
567.52	46358.99
567.68	46656.24
567.85	46522.83
568.01	46178.77
568.17	46426.87
568.34	46883.27
568.50	46576.66
568.66	46461.97
568.83	46555.60
568.99	46398.78
569.15	46433.89
569.32	46279.41
569.48	46653.90
569.64	46897.31
569.81	46452.61
569.97	46892.63
570.13	46384.74
570.30	46307.50
570.46	46548.57
570.62	46925.40
570.78	47086.90
570.95	46660.92
571.11	46993.28
571.27	46529.85
571.43	46848.16
571.60	46450.27
571.76	46698.37
571.92	46562.62
572.09	46843.48
572.25	46777.95
572.41	46490.06
572.57	46681.98
572.74	47028.38
572.90	46843.48
573.06	46871.57
573.22	46789.65
573.38	46878.59
573.55	46983.91
573.71	47182.86
573.87	47150.09
574.03	46667.94
574.20	47217.97
574.36	46768.58
574.52	46934.76
574.68	47246.05
574.84	47409.89
575.01	47086.90
575.17	47243.71
575.33	46862.21
575.49	47327.97
575.65	47281.16
575.82	47096.26
575.98	46756.88
576.14	47196.90
576.30	47107.96
576.46	47145.41
576.62	46927.74
576.79	47358.40
576.95	46426.87
577.11	46525.17
577.27	46766.24
577.43	47253.08
577.59	46925.40
577.75	47124.35
577.92	46508.79
578.08	46904.34
578.24	46993.28
578.40	47299.89
578.56	47098.60
578.72	47140.73
578.88	47262.44
579.04	47021.36
579.21	46997.96
579.37	47470.75
579.53	47545.64
579.69	46983.91
579.85	46635.17
580.01	46909.02
580.17	47182.86
580.33	47271.80
580.49	47398.19
580.65	47112.64
580.82	47145.41
580.98	47224.99
581.14	46731.14
581.30	47290.52
581.46	47318.61
581.62	47445.00
581.78	46777.95
581.94	47494.15
582.10	47491.81
582.26	47323.29
582.42	47339.68
582.58	47213.29
582.74	47051.79
582.90	46887.95
583.06	47573.73
583.22	47320.95
583.38	47555.00
583.54	47487.13
583.70	47196.90
583.86	47122.01
584.02	47232.01
584.18	47693.10
584.34	47735.23
584.50	47391.17
584.66	47255.42
584.82	47377.12
584.98	47917.79
585.14	47693.10
585.30	46951.15
585.46	47358.40
585.62	47332.65
585.78	46782.63
585.94	46770.93
586.10	47173.50
586.26	46869.23
586.42	47246.05
586.58	47398.19
586.74	47349.04
586.90	47206.26
587.06	47292.86
587.22	47356.06
587.38	47430.96
587.54	47452.02
587.70	47889.70
587.86	47042.43
588.02	47393.51
588.18	47632.24
588.34	47540.96
588.49	47276.48
588.65	47381.80
588.81	47391.17
588.97	47447.34
589.13	47290.52
589.29	47737.57
589.45	47604.16
589.61	47826.51
589.77	47847.57
589.93	47908.43
