SpectraSuite Data File
++++++++++++++++++++++++++++++++++++
Date: Fri Oct 25 11:23:51 EDT 2013
User: price-jones
Dark Spectrum Present: No
Reference Spectrum Present: No
Number of Sampled Component Spectra: 1
Spectrometers: USB2+H05261
Integration Time (usec): 100000 (USB2+H05261)
Spectra Averaged: 1 (USB2+H05261)
Boxcar Smoothing: 0 (USB2+H05261)
Correct for Electrical Dark: No (USB2+H05261)
Strobe/Lamp Enabled: No (USB2+H05261)
Correct for Detector Non-linearity: No (USB2+H05261)
Correct for Stray Light: No (USB2+H05261)
Number of Pixels in Processed Spectrum: 2048
>>>>>Begin Processed Spectral Data<<<<<
365.73	161.50
365.92	161.50
366.12	161.50
366.32	149.79
366.52	95.96
366.72	53.83
366.91	117.03
367.11	149.79
367.31	126.39
367.51	126.39
367.70	117.03
367.90	102.98
368.10	170.86
368.30	182.56
368.49	124.05
368.69	163.84
368.89	126.39
369.09	187.24
369.28	128.73
369.48	95.96
369.68	147.45
369.87	222.35
370.07	138.09
370.27	212.99
370.47	313.63
370.66	599.18
370.86	608.54
371.06	636.63
371.25	627.26
371.45	695.14
371.65	653.01
371.84	660.03
372.04	692.80
372.24	741.95
372.44	706.84
372.63	692.80
372.83	753.65
373.03	730.25
373.22	699.82
373.42	725.57
373.62	725.57
373.81	730.25
374.01	751.31
374.21	870.68
374.40	858.98
374.60	870.68
374.79	868.34
374.99	774.72
375.19	791.10
375.38	894.08
375.58	908.13
375.78	889.40
375.97	887.06
376.17	903.45
376.37	856.64
376.56	833.23
376.76	842.59
376.95	854.30
377.15	1001.75
377.35	856.64
377.54	903.45
377.74	866.00
377.93	873.02
378.13	898.77
378.33	919.83
378.52	849.61
378.72	999.41
378.91	947.92
379.11	961.96
379.31	929.19
379.50	985.37
379.70	880.04
379.89	978.34
380.09	891.74
380.28	1004.09
380.48	1076.65
380.68	1043.88
380.87	929.19
381.07	1025.15
381.26	1057.92
381.46	978.34
381.65	999.41
381.85	1160.91
382.04	1050.90
382.24	1053.24
382.43	1090.69
382.63	1074.31
382.83	1064.94
383.02	1081.33
383.22	1172.61
383.41	1102.39
383.61	1146.86
383.80	1104.73
384.00	1071.97
384.19	1095.37
384.39	1181.97
384.58	1238.14
384.78	1137.50
384.97	1125.80
385.17	1193.67
385.36	1142.18
385.56	1210.06
385.75	1137.50
385.95	1184.31
386.14	1107.07
386.34	1081.33
386.53	1224.10
386.72	1261.55
386.92	1268.57
387.11	1181.97
387.31	1179.63
387.50	1181.97
387.70	1291.98
387.89	1268.57
388.09	1275.59
388.28	1315.38
388.48	1200.69
388.67	1359.85
388.86	1310.70
389.06	1352.83
389.25	1345.81
389.45	1331.76
389.64	1331.76
389.84	1373.89
390.03	1394.96
390.22	1423.05
390.42	1357.51
390.61	1366.87
390.81	1418.36
391.00	1404.32
391.19	1411.34
391.39	1418.36
391.58	1509.65
391.78	1528.37
391.97	1404.32
392.16	1413.68
392.36	1444.11
392.55	1535.39
392.75	1467.52
392.94	1371.55
393.13	1577.52
393.33	1607.95
393.52	1579.86
393.71	1600.93
393.91	1521.35
394.10	1535.39
394.29	1605.61
394.49	1619.65
394.68	1612.63
394.88	1671.14
395.07	1650.08
395.26	1607.95
395.46	1710.93
395.65	1809.23
395.84	1717.95
396.04	1724.97
396.23	1689.87
396.42	1764.76
396.62	1692.21
396.81	1830.30
397.00	1818.60
397.19	1729.66
397.39	1825.62
397.58	1776.47
397.77	1799.87
397.97	1820.94
398.16	1891.15
398.35	1928.60
398.55	1809.23
398.74	1846.68
398.93	2054.99
399.12	1916.90
399.32	1930.94
399.51	1867.75
399.70	1930.94
399.90	2029.24
400.09	2085.42
400.28	2022.22
400.47	1966.05
400.67	1980.09
400.86	2031.58
401.05	1975.41
401.24	2165.00
401.44	2188.40
401.63	2108.82
401.82	2099.46
402.01	2099.46
402.21	2139.25
402.40	2097.12
402.59	2122.87
402.78	2225.85
402.97	2258.62
403.17	2230.53
403.36	2209.47
403.55	2209.47
403.74	2305.43
403.93	2296.07
404.13	2363.94
404.32	2333.51
404.51	2328.83
404.70	2382.67
404.89	2417.77
405.09	2424.80
405.28	2459.90
405.47	2492.67
405.66	2537.14
405.85	2466.92
406.05	2478.63
406.24	2586.29
406.43	2534.80
406.62	2640.12
406.81	2747.79
407.00	2602.68
407.20	2476.29
407.39	2712.68
407.58	2747.79
407.77	2785.24
407.96	2832.05
408.15	2855.45
408.34	2780.56
408.54	2825.03
408.73	2708.00
408.92	2881.20
409.11	2956.10
409.30	2878.86
409.49	2974.82
409.68	2972.48
409.87	2902.26
410.07	2951.42
410.26	2864.82
410.45	3091.85
410.64	3049.72
410.83	3098.87
411.02	3159.72
411.21	3222.92
411.40	3087.17
411.59	3251.00
411.78	3159.72
411.98	3148.02
412.17	3276.75
412.36	3279.09
412.55	3379.73
412.74	3445.27
412.93	3356.33
413.12	3386.76
413.31	3499.10
413.50	3480.38
413.69	3595.06
413.88	3698.05
414.07	3541.23
414.26	3630.17
414.45	3674.64
414.64	3723.79
414.83	3719.11
415.02	3723.79
415.22	3824.44
415.41	3915.72
415.60	3988.27
415.79	3953.16
415.98	4112.32
416.17	3932.10
416.36	3861.88
416.55	3971.89
416.74	3992.95
416.93	3969.55
417.12	4159.13
417.31	4297.22
417.50	4187.22
417.69	4287.86
417.88	4285.52
418.07	4229.35
418.26	4348.72
418.45	4393.19
418.64	4557.02
418.83	4374.46
419.02	4622.56
419.21	4657.67
419.39	4559.36
419.58	4395.53
419.77	4493.83
419.96	4580.43
420.15	4634.26
420.34	4634.26
420.53	4566.39
420.72	4627.24
420.91	4688.09
421.10	4788.74
421.29	4863.63
421.48	4657.67
421.67	4793.42
421.86	4610.86
422.05	4819.16
422.24	4826.18
422.43	4910.44
422.61	4983.00
422.80	4994.70
422.99	4858.95
423.18	4975.98
423.37	4994.70
423.56	4919.81
423.75	4891.72
423.94	4823.84
424.13	4585.11
424.32	4758.31
424.50	4938.53
424.69	5125.77
424.88	4983.00
425.07	4905.76
425.26	4861.29
425.45	5011.09
425.64	5013.43
425.83	5022.79
426.01	5142.16
426.20	5139.82
426.39	5064.92
426.58	5074.28
426.77	4961.94
426.96	5200.67
427.15	5226.42
427.33	5193.65
427.52	5128.11
427.71	5228.76
427.90	5071.94
428.09	5296.63
428.28	5231.10
428.46	5200.67
428.65	5259.18
428.84	5507.28
429.03	5563.45
429.22	5575.16
429.40	5593.88
429.59	5516.64
429.78	5547.07
429.97	5298.97
430.16	5603.24
430.34	5706.23
430.53	5694.52
430.72	5643.03
430.91	5680.48
431.10	5689.84
431.28	5846.66
431.47	5792.83
431.66	5839.64
431.85	5757.72
432.03	6054.97
432.22	6069.01
432.41	5870.06
432.60	6031.56
432.79	5858.36
432.97	6008.16
433.16	6038.58
433.35	5947.30
433.54	6195.40
433.72	6188.38
433.91	6134.54
434.10	6200.08
434.28	6076.03
434.47	6132.20
434.66	6422.43
434.85	6312.42
435.03	6310.08
435.22	6389.66
435.41	6448.18
435.59	6471.58
435.78	6513.71
435.97	6361.58
436.16	6553.50
436.34	6567.54
436.53	6640.10
436.72	6761.81
436.90	6445.84
437.09	6651.80
437.28	6555.84
437.46	6502.01
437.65	6644.78
437.84	6778.19
438.02	6796.92
438.21	6885.86
438.40	6703.29
438.58	7014.59
438.77	7108.21
438.96	6806.28
439.14	7016.93
439.33	7255.66
439.52	7311.83
439.70	7248.64
439.89	7353.96
440.08	7255.66
440.26	7431.20
440.45	7377.37
440.63	7513.12
440.82	7564.61
441.01	7529.50
441.19	7756.54
441.38	7859.52
441.57	7765.90
441.75	7801.01
441.94	7967.18
442.12	8070.17
442.31	8046.76
442.50	8212.94
442.68	7925.05
442.87	8072.51
443.05	8060.80
443.24	8051.44
443.43	8109.96
443.61	8135.70
443.80	8411.89
443.98	7922.71
444.17	7812.71
444.35	8184.85
444.54	8353.37
444.73	8421.25
444.91	8201.24
445.10	8086.55
445.28	8367.42
445.47	8219.96
445.65	8547.64
445.84	8409.54
446.02	8512.53
446.21	8404.86
446.39	8285.50
446.58	8493.80
446.77	8521.89
446.95	8430.61
447.14	8503.17
447.32	8465.72
447.51	8491.46
447.69	8531.25
447.88	8561.68
448.06	8486.78
448.25	8683.39
448.43	8571.04
448.62	8699.77
448.80	8599.13
448.99	8608.49
449.17	8484.44
449.36	8704.45
449.54	8758.28
449.73	9137.45
449.91	9139.79
450.10	9062.55
450.28	9097.66
450.46	9057.87
450.65	9280.22
450.83	9125.75
451.02	9043.83
451.20	9249.80
451.39	9013.40
451.57	9231.07
451.76	9135.11
451.94	9226.39
452.13	9179.58
452.31	9320.01
452.49	9282.56
452.68	9387.89
452.86	9488.53
453.05	9535.34
453.23	9525.98
453.42	9481.51
453.60	9430.02
453.78	9451.08
453.97	9242.78
454.15	9610.24
454.34	9755.35
454.52	9687.48
454.70	9652.37
454.89	9980.04
455.07	9874.72
455.26	9870.04
455.44	10033.88
455.62	9816.21
455.81	9832.59
455.99	10045.58
456.17	10139.20
456.36	10059.62
456.54	10141.54
456.73	10354.53
456.91	10532.41
457.09	10377.94
457.28	10478.58
457.46	10289.00
457.64	10537.09
457.83	10501.98
458.01	10504.32
458.19	10754.76
458.38	10581.56
458.56	10619.01
458.74	10740.72
458.93	10703.27
459.11	10651.78
459.29	10881.15
459.48	11014.56
459.66	10595.61
459.84	11019.24
460.03	11084.78
460.21	11047.33
460.39	10869.45
460.57	11042.65
460.76	11126.91
460.94	11101.16
461.12	11321.17
461.31	11246.27
461.49	11227.55
461.67	10946.69
461.85	11414.79
462.04	11393.73
462.22	11520.12
462.40	11644.17
462.59	11492.03
462.77	11463.94
462.95	11707.36
463.13	11461.60
463.32	11557.57
463.50	11606.72
463.68	11800.98
463.86	11763.53
464.05	11747.15
464.23	11709.70
464.41	12032.69
464.59	11515.44
464.78	12205.89
464.96	11955.46
465.14	11836.09
465.32	11899.28
465.50	12149.72
465.69	12226.96
465.87	12128.66
466.05	12009.29
466.23	12241.00
466.41	12414.20
466.60	12596.76
466.78	12098.23
466.96	12032.69
467.14	12098.23
467.32	12411.86
467.51	12568.68
467.69	12231.64
467.87	12568.68
468.05	12704.43
468.23	12456.33
468.41	12308.88
468.60	12573.36
468.78	12840.18
468.96	12622.51
469.14	12741.88
469.32	12835.50
469.50	12692.73
469.69	12947.84
469.87	12910.40
470.05	13151.47
470.23	13069.55
470.41	13085.94
470.59	13256.79
470.77	13231.05
470.95	13228.71
471.14	13680.43
471.32	13153.81
471.50	13481.49
471.68	13378.50
471.86	13331.69
472.04	13642.98
472.22	14052.58
472.40	13631.28
472.58	13745.97
472.77	14059.60
472.95	13984.70
473.13	14789.85
473.31	13930.87
473.49	14143.86
473.67	14150.88
473.85	14370.89
474.03	14707.93
474.21	14651.75
474.39	14876.44
474.57	14846.02
474.75	15037.94
474.93	15000.49
475.12	14937.30
475.30	15150.29
475.48	15236.89
475.66	15461.58
475.84	15145.61
476.02	15552.86
476.20	15384.34
476.38	15754.15
476.56	15742.44
476.74	16259.70
476.92	15915.64
477.10	15587.97
477.28	16449.28
477.46	16369.71
477.64	16215.23
477.82	16807.39
478.00	16961.86
478.18	16783.98
478.36	16999.31
478.54	17165.49
478.72	17062.51
478.90	17542.32
479.08	17460.40
479.26	17820.84
479.44	17881.69
479.62	17727.22
479.80	17846.58
479.98	18174.26
480.16	19033.24
480.34	18548.75
480.52	18845.99
480.70	18745.35
480.88	18586.19
481.06	18813.23
481.24	18960.68
481.41	19260.27
481.59	19328.14
481.77	19653.48
481.95	19489.64
482.13	19716.67
482.31	19875.83
482.49	20187.12
482.67	20486.71
482.85	20760.55
483.03	20695.02
483.21	21032.05
483.39	20837.79
483.57	20999.29
483.74	21219.30
483.92	21462.71
484.10	21577.40
484.28	21610.17
484.46	22160.19
484.64	22546.38
484.82	22139.13
485.00	22539.36
485.18	22621.28
485.35	23126.83
485.53	22881.08
485.71	23552.81
485.89	23538.77
486.07	23318.76
486.25	23398.34
486.43	23985.81
486.61	23901.55
486.78	24285.40
486.96	24439.87
487.14	24912.66
487.32	24865.85
487.50	24943.09
487.68	25230.98
487.85	25411.20
488.03	25668.66
488.21	26242.09
488.39	25848.88
488.57	26246.77
488.75	25954.20
488.92	26501.89
489.10	26796.79
489.28	26436.35
489.46	27255.54
489.64	27431.08
489.81	27791.52
489.99	27669.81
490.17	27498.95
490.35	28383.68
490.53	28547.51
490.70	28194.09
490.88	28271.33
491.06	28910.30
491.24	28811.99
491.41	29193.50
491.59	29567.99
491.77	29142.01
491.95	29207.55
492.13	29799.70
492.30	30211.64
492.48	30134.40
492.66	30611.87
492.84	30553.35
493.01	30857.62
493.19	31089.34
493.37	30993.37
493.54	31318.71
493.72	31402.97
493.90	31529.36
494.08	32063.00
494.25	32252.58
494.43	32173.00
494.61	32615.37
494.79	32610.68
494.96	32800.27
495.14	33029.64
495.32	33287.10
495.49	33165.39
495.67	33125.60
495.85	33865.21
496.02	34309.91
496.20	34192.89
496.38	34216.29
496.55	34511.20
496.73	35260.17
496.91	34586.10
497.09	35047.18
497.26	35211.02
497.44	35086.97
497.62	35562.10
497.79	36039.57
497.97	35849.99
498.14	36505.34
498.32	36545.12
498.50	36182.34
498.67	36931.31
498.85	36573.21
499.03	36767.48
499.20	36737.05
499.38	37062.38
499.56	37003.87
499.73	37198.13
499.91	37436.87
500.08	38110.94
500.26	37209.84
500.44	38059.45
500.61	38316.91
500.79	37933.06
500.97	38260.74
501.14	38827.15
501.32	39122.05
501.49	38726.50
501.67	38995.67
501.84	39337.38
502.02	38909.07
502.20	39489.52
502.37	39267.17
502.55	39332.70
502.72	39744.64
502.90	39653.36
503.07	40069.97
503.25	39487.18
503.43	40037.20
503.60	40334.45
503.78	40638.72
503.95	40643.40
504.13	40816.60
504.30	40505.31
504.48	40755.75
504.65	40957.03
504.83	40783.83
505.01	41581.96
505.18	41507.06
505.36	41717.71
505.53	41455.57
505.71	41900.27
505.88	41645.15
506.06	41855.80
506.23	42099.22
506.41	41902.61
506.58	42293.48
506.76	42230.29
506.93	42279.44
507.11	42445.62
507.28	42993.30
507.46	43005.00
507.63	43065.86
507.81	43147.78
507.98	42930.11
508.16	43187.56
508.33	43756.32
508.50	43639.29
508.68	43735.25
508.85	44233.78
509.03	43456.73
509.20	44580.18
509.38	44624.65
509.55	44811.90
509.73	44683.17
509.90	44795.51
510.08	44657.42
510.25	44830.62
510.42	45317.45
510.60	44769.77
510.77	45406.39
510.95	45710.66
511.12	45195.74
511.30	45371.28
511.47	45621.72
511.64	45736.41
511.82	46050.04
511.99	45684.92
512.17	45851.09
512.34	45993.87
512.51	46384.74
512.69	46405.80
512.86	46401.12
513.04	47054.13
513.21	46712.41
513.38	46841.14
513.56	47103.28
513.73	46848.16
513.90	47395.85
514.08	47253.08
514.25	47606.50
514.43	47569.05
514.60	47665.01
514.77	47428.62
514.95	47978.64
515.12	47374.78
515.29	47667.35
515.47	48126.10
515.64	48266.53
515.81	48030.13
515.99	48278.23
516.16	48432.71
516.33	48594.20
516.51	49036.56
516.68	48458.45
516.85	48479.52
517.03	48823.58
517.20	48987.41
517.37	48914.86
517.54	49076.35
517.72	49237.85
517.89	49137.21
518.06	49549.14
518.24	49432.11
518.41	49471.90
518.58	49389.98
518.75	49511.69
518.93	49734.04
519.10	49350.20
519.27	50162.36
519.45	50038.31
519.62	50160.02
519.79	50312.16
519.96	49989.16
520.14	50167.04
520.31	50010.23
520.48	50485.36
520.65	50487.70
520.83	50703.03
521.00	50712.39
521.17	50728.77
521.34	50660.90
521.52	51145.39
521.69	50578.98
521.86	51444.98
522.03	51091.55
522.20	51407.53
522.38	51416.89
522.55	51360.72
522.72	51711.80
522.89	51290.50
523.07	51772.65
523.24	51554.98
523.41	51742.22
523.58	51695.41
523.75	52016.07
523.92	51985.64
524.10	52135.43
524.27	52294.59
524.44	52055.85
524.61	52383.53
524.78	52444.38
524.96	52149.48
525.13	52460.77
525.30	52608.22
525.47	52435.02
525.64	52559.07
525.81	52750.99
525.98	52842.27
526.16	52573.11
526.33	52619.92
526.50	53041.22
526.67	52938.24
526.84	52952.28
527.01	53066.97
527.18	53247.19
527.36	53277.61
527.53	53345.49
527.70	53521.03
527.87	53434.43
528.04	53389.96
528.21	53331.45
528.38	53378.26
528.55	53722.32
528.72	53427.41
528.89	53565.50
529.07	53467.20
529.24	53745.72
529.41	54253.62
529.58	53844.02
529.75	53801.89
529.92	53825.30
530.09	54017.22
530.26	54122.55
530.43	54005.52
530.60	53577.20
530.77	53778.49
530.94	54213.83
531.11	54190.42
531.28	54227.87
531.46	54270.00
531.63	54494.69
531.80	54307.45
531.97	54412.77
532.14	54534.48
532.31	54546.18
532.48	54754.49
532.65	54798.96
532.82	54733.43
532.99	54625.76
533.16	54934.71
533.33	54979.18
533.50	55243.66
533.67	54611.72
533.84	54710.02
534.01	54677.25
534.18	54932.37
534.35	55288.13
534.52	55166.43
534.69	55264.73
534.86	55215.58
535.03	55175.79
535.20	55255.37
535.37	55470.70
535.54	55561.98
535.71	55121.96
535.88	55540.91
536.05	55707.09
536.22	55494.10
536.38	55737.52
536.55	55501.12
536.72	55791.35
536.89	55711.77
537.06	55693.05
537.23	55599.43
537.40	55482.40
537.57	55770.28
537.74	55952.85
537.91	56385.85
538.08	55910.72
538.25	55882.63
538.42	56240.73
538.59	55987.95
538.75	56119.02
538.92	56172.86
539.09	56308.61
539.26	56324.99
539.43	56285.20
539.60	56371.80
539.77	56327.33
539.94	56582.45
540.11	56530.96
540.28	56699.48
540.44	56678.41
540.61	56631.60
540.78	56493.51
540.95	56671.39
541.12	56493.51
541.29	56629.26
541.46	56694.80
541.62	56856.29
541.79	56872.68
541.96	56381.16
542.13	56477.13
542.30	56884.38
542.47	56722.88
542.63	56987.36
542.80	56842.25
542.97	57057.58
543.14	57109.07
543.31	57446.11
543.48	57240.14
543.64	57418.02
543.81	57439.09
543.98	57425.04
544.15	57179.29
544.32	57783.15
544.48	57701.23
544.65	57338.44
544.82	57581.86
544.99	57212.06
545.16	57614.63
545.32	57621.65
545.49	57605.26
545.66	57832.30
545.83	57450.79
546.00	57970.39
546.16	57916.56
546.33	57563.14
546.50	57532.71
546.67	57930.60
546.83	57378.23
547.00	57687.18
547.17	57841.66
547.34	57820.59
547.50	58042.95
547.67	58211.46
547.84	58288.70
548.00	58295.72
548.17	58248.91
548.34	58251.25
548.51	58588.29
548.67	58241.89
548.84	58038.26
549.01	58071.03
549.18	58225.51
549.34	58480.63
549.51	58307.43
549.68	58412.75
549.84	58365.94
550.01	58431.47
550.18	58354.24
550.34	58494.67
550.51	58738.08
550.68	58464.24
550.84	58312.11
551.01	58869.15
551.18	58567.23
551.34	58590.63
551.51	58742.77
551.68	58726.38
551.84	58396.37
552.01	58714.68
552.18	58454.88
552.34	58604.67
552.51	58958.09
552.68	58712.34
552.84	58597.65
553.01	58897.24
553.18	58913.62
553.34	59047.04
553.51	58845.75
553.67	59152.36
553.84	59236.62
554.01	59044.69
554.17	59234.28
554.34	59313.86
554.51	59150.02
554.67	59407.48
554.84	59068.10
555.00	59295.13
555.17	58927.67
555.33	59171.08
555.50	59054.06
555.67	59079.80
555.83	59091.51
556.00	59157.04
556.16	59360.67
556.33	59283.43
556.50	59196.83
556.66	59496.42
556.83	59377.05
556.99	59480.03
557.16	59554.93
557.32	59625.15
557.49	59873.24
557.65	59416.84
557.82	59557.27
557.98	59583.02
558.15	59629.83
558.32	59526.84
558.48	59501.10
558.65	59552.59
558.81	59566.63
558.98	59763.24
559.14	59735.15
559.31	59800.69
559.47	59889.63
559.64	59601.74
559.80	59697.70
559.97	60051.12
560.13	59669.62
560.30	59650.89
560.46	59765.58
560.63	59873.24
560.79	59739.83
560.96	60126.02
561.12	59948.14
561.29	59721.11
561.45	60079.21
561.61	60133.04
561.78	59833.46
561.94	59639.19
562.11	59838.14
562.27	59898.99
562.44	59941.12
562.60	60310.92
562.77	59980.91
562.93	59875.58
563.10	60065.17
563.26	60079.21
563.42	60278.16
563.59	59948.14
563.75	60048.78
563.92	60285.18
564.08	60221.98
564.24	60243.05
564.41	60011.34
564.57	60123.68
564.74	60189.22
564.90	60109.64
565.07	60111.98
565.23	60165.81
565.39	60107.30
565.56	60416.25
565.72	60339.01
565.88	60130.70
566.05	60369.44
566.21	60264.11
566.38	60135.38
566.54	60416.25
566.70	60460.72
566.87	60343.69
567.03	60221.98
567.19	60540.30
567.36	60481.78
567.52	60484.12
567.68	60645.62
567.85	60467.74
568.01	60657.32
568.17	60355.39
568.34	60725.20
568.50	60388.16
568.66	60456.04
568.83	60547.32
568.99	60392.84
569.15	60484.12
569.32	60638.60
569.48	60598.81
569.64	60470.08
569.81	60458.38
569.97	60465.40
570.13	60591.79
570.30	60392.84
570.46	60570.72
570.62	60654.98
570.78	60486.46
570.95	60512.21
571.11	60671.37
571.27	60402.21
571.43	60584.77
571.60	60903.08
571.76	60650.30
571.92	60500.51
572.09	60617.53
572.25	60741.58
572.41	60537.96
572.57	60774.35
572.74	60893.72
572.90	60673.71
573.06	60851.59
573.22	60722.86
573.38	60769.67
573.55	60615.19
573.71	60715.84
573.87	60935.85
574.03	60647.96
574.20	60708.82
574.36	60552.00
574.52	60856.27
574.68	60860.95
574.84	60914.78
575.01	60772.01
575.17	60732.22
575.33	61006.06
575.49	60734.56
575.65	60863.29
575.82	61003.72
575.98	60996.70
576.14	61001.38
576.30	60879.67
576.46	60851.59
576.62	60760.31
576.79	60860.95
576.95	60608.17
577.11	60910.10
577.27	61071.60
577.43	60748.60
577.59	60797.76
577.75	60832.86
577.92	60891.38
578.08	60734.56
578.24	60959.25
578.40	61038.83
578.56	60949.89
578.72	61024.79
578.88	61003.72
579.04	60938.19
579.21	61118.41
579.37	61256.50
579.53	61045.85
579.69	60762.65
579.85	60835.20
580.01	61024.79
580.17	61041.17
580.33	61123.09
580.49	61188.63
580.65	61024.79
580.82	60900.74
580.98	60865.63
581.14	61006.06
581.30	61277.57
581.46	60846.91
581.62	61090.32
581.78	60870.31
581.94	61120.75
582.10	60963.93
582.26	61092.66
582.42	61062.24
582.58	61008.40
582.74	61127.77
582.90	61183.94
583.06	60867.97
583.22	61162.88
583.38	61010.74
583.54	61148.84
583.70	60963.93
583.86	60947.55
584.02	60814.14
584.18	61085.64
584.34	61045.85
584.50	61155.86
584.66	60889.04
584.82	60886.70
584.98	61324.38
585.14	61069.26
585.30	61029.47
585.46	61092.66
585.62	61134.79
585.78	61080.96
585.94	60764.99
586.10	61066.92
586.26	61099.68
586.42	61076.28
586.58	61200.33
586.74	61226.07
586.90	61169.90
587.06	60977.98
587.22	61230.75
587.38	61193.31
587.54	61169.90
587.70	61375.87
587.86	61048.19
588.02	61315.01
588.18	61270.54
588.34	61193.31
588.49	61258.84
