SpectraSuite Data File
++++++++++++++++++++++++++++++++++++
Date: Fri Oct 25 11:23:20 EDT 2013
User: price-jones
Dark Spectrum Present: No
Reference Spectrum Present: No
Number of Sampled Component Spectra: 1
Spectrometers: USB2+H05261
Integration Time (usec): 100000 (USB2+H05261)
Spectra Averaged: 1 (USB2+H05261)
Boxcar Smoothing: 0 (USB2+H05261)
Correct for Electrical Dark: No (USB2+H05261)
Strobe/Lamp Enabled: No (USB2+H05261)
Correct for Detector Non-linearity: No (USB2+H05261)
Correct for Stray Light: No (USB2+H05261)
Number of Pixels in Processed Spectrum: 2048
>>>>>Begin Processed Spectral Data<<<<<
365.73	220.01
365.92	220.01
366.12	220.01
366.32	145.11
366.52	117.03
366.72	166.18
366.91	32.77
367.11	124.05
367.31	119.37
367.51	93.62
367.70	135.75
367.90	173.20
368.10	110.01
368.30	121.71
368.49	149.79
368.69	175.54
368.89	135.75
369.09	168.52
369.28	121.71
369.48	229.37
369.68	147.45
369.87	201.29
370.07	203.63
370.27	234.05
370.47	306.61
370.66	559.39
370.86	615.56
371.06	645.99
371.25	748.97
371.45	610.88
371.65	624.92
371.84	631.94
372.04	676.41
372.24	648.33
372.44	746.63
372.63	674.07
372.83	770.04
373.03	784.08
373.22	704.50
373.42	755.99
373.62	784.08
373.81	858.98
374.01	816.85
374.21	821.53
374.40	830.89
374.60	828.55
374.79	819.19
374.99	837.91
375.19	781.74
375.38	819.19
375.58	844.93
375.78	917.49
375.97	844.93
376.17	812.17
376.37	809.83
376.56	847.27
376.76	805.14
376.95	870.68
377.15	968.98
377.35	823.87
377.54	880.04
377.74	940.90
377.93	882.38
378.13	980.68
378.33	898.77
378.52	910.47
378.72	954.94
378.91	931.53
379.11	894.08
379.31	980.68
379.50	931.53
379.70	938.55
379.89	957.28
380.09	910.47
380.28	1013.45
380.48	1020.47
380.68	1008.77
380.87	1050.90
381.07	957.28
381.26	973.66
381.46	971.32
381.65	990.05
381.85	983.02
382.04	1090.69
382.24	1018.13
382.43	1074.31
382.63	1074.31
382.83	1146.86
383.02	1163.25
383.22	1139.84
383.41	1111.75
383.61	1118.78
383.80	1196.01
384.00	1114.10
384.19	1020.47
384.39	1050.90
384.58	1144.52
384.78	1188.99
384.97	1156.22
385.17	1153.88
385.36	1228.78
385.56	1153.88
385.75	1188.99
385.95	1217.08
386.14	1203.04
386.34	1214.74
386.53	1240.48
386.72	1191.33
386.92	1184.31
387.11	1224.10
387.31	1268.57
387.50	1160.91
387.70	1179.63
387.89	1200.69
388.09	1252.19
388.28	1277.93
388.48	1256.87
388.67	1303.68
388.86	1289.64
389.06	1198.35
389.25	1336.45
389.45	1434.75
389.64	1338.79
389.84	1397.30
390.03	1345.81
390.22	1413.68
390.42	1359.85
390.61	1427.73
390.81	1427.73
391.00	1378.58
391.19	1427.73
391.39	1439.43
391.58	1460.49
391.78	1423.05
391.97	1509.65
392.16	1434.75
392.36	1542.41
392.55	1519.01
392.75	1614.97
392.94	1544.75
393.13	1500.28
393.33	1497.94
393.52	1533.05
393.71	1577.52
393.91	1591.56
394.10	1605.61
394.29	1652.42
394.49	1664.12
394.68	1640.72
394.88	1488.58
395.07	1584.54
395.26	1699.23
395.46	1629.01
395.65	1755.40
395.84	1696.89
396.04	1842.00
396.23	1706.25
396.42	1792.85
396.62	1809.23
396.81	1834.98
397.00	1769.44
397.19	1853.70
397.39	1818.60
397.58	1858.39
397.77	1846.68
397.97	1870.09
398.16	1797.53
398.35	1830.30
398.55	1914.56
398.74	1937.96
398.93	1944.99
399.12	1937.96
399.32	1956.69
399.51	1886.47
399.70	2026.90
399.90	2001.16
400.09	2022.22
400.28	2017.54
400.47	2012.86
400.67	2190.74
400.86	2125.21
401.05	2052.65
401.24	2146.27
401.44	2188.40
401.63	2244.57
401.82	2265.64
402.01	2193.08
402.21	2183.72
402.40	2251.60
402.59	2132.23
402.78	2270.32
402.97	2305.43
403.17	2174.36
403.36	2321.81
403.55	2305.43
403.74	2356.92
403.93	2492.67
404.13	2375.64
404.32	2387.35
404.51	2328.83
404.70	2502.03
404.89	2399.05
405.09	2516.08
405.28	2511.39
405.47	2616.72
405.66	2483.31
405.85	2562.89
406.05	2560.55
406.24	2534.80
406.43	2574.59
406.62	2623.74
406.81	2670.55
407.00	2541.82
407.20	2593.31
407.39	2640.12
407.58	2848.43
407.77	2829.71
407.96	2839.07
408.15	2785.24
408.34	2605.02
408.54	2670.55
408.73	2689.28
408.92	2787.58
409.11	2998.23
409.30	2956.10
409.49	2991.20
409.68	2967.80
409.87	2995.89
410.07	2979.50
410.26	3038.02
410.45	2988.86
410.64	3129.30
410.83	3096.53
411.02	3122.27
411.21	3192.49
411.40	3082.49
411.59	3293.13
411.78	3159.72
411.98	3293.13
412.17	3335.26
412.36	3337.60
412.55	3435.91
412.74	3545.91
412.93	3433.57
413.12	3391.44
413.31	3632.51
413.50	3552.93
413.69	3480.38
413.88	3726.13
414.07	3569.32
414.26	3737.84
414.45	3634.85
414.64	3693.37
414.83	3796.35
415.02	3583.36
415.22	3826.78
415.41	3878.27
415.60	3866.56
415.79	3868.91
415.98	4002.32
416.17	3967.21
416.36	4044.45
416.55	3885.29
416.74	4035.08
416.93	4095.94
417.12	4257.43
417.31	4133.39
417.50	4238.71
417.69	4294.88
417.88	4327.65
418.07	4285.52
418.26	4458.72
418.45	4416.59
418.64	4507.87
418.83	4519.57
419.02	4435.32
419.21	4524.26
419.39	4603.83
419.58	4526.60
419.77	4568.73
419.96	4638.94
420.15	4596.81
420.34	4528.94
420.53	4587.45
420.72	4730.22
420.91	4795.76
421.10	4943.21
421.29	4748.95
421.48	4681.07
421.67	4868.31
421.86	4777.03
422.05	4774.69
422.24	4837.89
422.43	4753.63
422.61	5041.51
422.80	4959.60
422.99	5032.15
423.18	4978.32
423.37	5111.73
423.56	4887.04
423.75	4917.47
423.94	5067.26
424.13	4538.30
424.32	4809.80
424.50	4912.78
424.69	5093.01
424.88	5181.95
425.07	5055.56
425.26	5114.07
425.45	4917.47
425.64	4889.38
425.83	4812.14
426.01	5053.22
426.20	5102.37
426.39	5172.58
426.58	5008.75
426.77	5149.18
426.96	5247.48
427.15	5345.78
427.33	5135.14
427.52	5163.22
427.71	5322.38
427.90	5287.27
428.09	5308.34
428.28	5425.36
428.46	5270.89
428.65	5434.72
428.84	5507.28
429.03	5493.24
429.22	5322.38
429.40	5467.49
429.59	5579.84
429.78	5324.72
429.97	5170.24
430.16	5535.37
430.34	5605.58
430.53	5694.52
430.72	5654.73
430.91	5720.27
431.10	5685.16
431.28	5841.98
431.47	5933.26
431.66	5907.51
431.85	5935.60
432.03	6019.86
432.22	5970.71
432.41	6022.20
432.60	6045.60
432.79	5923.90
432.97	6141.57
433.16	6104.12
433.35	6012.84
433.54	6087.73
433.72	6190.72
433.91	6148.59
434.10	6113.48
434.28	6054.97
434.47	6305.40
434.66	6253.91
434.85	6307.74
435.03	6445.84
435.22	6319.45
435.41	6410.73
435.59	6354.55
435.78	6478.60
435.97	6551.16
436.16	6693.93
436.34	6427.11
436.53	6661.16
436.72	6722.02
436.90	6539.46
437.09	6621.38
437.28	6565.20
437.46	6792.23
437.65	6612.01
437.84	6801.60
438.02	6843.73
438.21	6792.23
438.40	6759.47
438.58	7037.99
438.77	6972.46
438.96	7103.53
439.14	7253.32
439.33	7138.63
439.52	7389.07
439.70	7468.65
439.89	7428.86
440.08	7328.22
440.26	7431.20
440.45	7204.17
440.63	7592.70
440.82	7648.87
441.01	7639.51
441.19	7613.76
441.38	7868.88
441.57	7913.35
441.75	7894.63
441.94	7941.44
442.12	7779.94
442.31	8098.25
442.50	7971.86
442.68	8088.89
442.87	8161.45
443.05	8269.11
443.24	8187.19
443.43	8266.77
443.61	8280.82
443.80	8575.72
443.98	8009.31
444.17	8028.04
444.35	8344.01
444.54	8535.93
444.73	8439.97
444.91	8418.91
445.10	8594.45
445.28	8269.11
445.47	8386.14
445.65	8507.85
445.84	8524.23
446.02	8601.47
446.21	8351.03
446.39	8589.77
446.58	8468.06
446.77	8557.00
446.95	8360.39
447.14	8493.80
447.32	8601.47
447.51	8599.13
447.69	8594.45
447.88	8627.21
448.06	8718.50
448.25	8713.81
448.43	8807.44
448.62	8868.29
448.80	8650.62
448.99	8872.97
449.17	8777.01
449.36	8711.47
449.54	8926.80
449.73	8868.29
449.91	9177.24
450.10	8791.05
450.28	9228.73
450.46	9067.24
450.65	9008.72
450.83	9123.41
451.02	9329.38
451.20	9153.84
451.39	9228.73
451.57	9081.28
451.76	8938.51
451.94	9439.38
452.13	9373.85
452.31	9528.32
452.49	9273.20
452.68	9437.04
452.86	9504.92
453.05	9605.56
453.23	9689.82
453.42	9509.60
453.60	9341.08
453.78	9614.92
453.97	9497.89
454.15	9537.68
454.34	9415.98
454.52	9912.17
454.70	9680.46
454.89	9804.50
455.07	9937.91
455.26	10050.26
455.44	9879.40
455.62	9753.01
455.81	9870.04
455.99	10104.09
456.17	10193.03
456.36	10272.61
456.54	10221.12
456.73	10321.76
456.91	10413.04
457.09	10637.73
457.28	10483.26
457.46	10375.59
457.64	10483.26
457.83	10623.69
458.01	10497.30
458.19	10469.22
458.38	10682.20
458.56	10923.28
458.74	10824.98
458.93	10799.23
459.11	10686.89
459.29	10977.11
459.48	10960.73
459.66	11037.97
459.84	11070.73
460.03	11384.37
460.21	10883.49
460.39	11136.27
460.57	11250.96
460.76	11169.04
460.94	11314.15
461.12	11379.68
461.31	11171.38
461.49	11328.19
461.67	11152.65
461.85	11524.80
462.04	11454.58
462.22	11623.10
462.40	11555.22
462.59	11698.00
462.77	11515.44
462.95	11871.20
463.13	11768.21
463.32	11751.83
463.50	11716.72
463.68	11910.99
463.86	12013.97
464.05	11742.47
464.23	11976.52
464.41	12215.26
464.59	11749.49
464.78	12205.89
464.96	12074.82
465.14	11957.80
465.32	12079.50
465.50	12269.09
465.69	12297.17
465.87	12292.49
466.05	12102.91
466.23	12241.00
466.41	12627.19
466.60	12442.29
466.78	12276.11
466.96	12327.60
467.14	12461.01
467.32	12355.69
467.51	12662.30
467.69	12507.82
467.87	12423.56
468.05	13036.78
468.23	12732.51
468.41	12627.19
468.60	12896.35
468.78	12992.31
468.96	12751.24
469.14	12978.27
469.32	13172.54
469.50	12704.43
469.69	13179.56
469.87	13090.62
470.05	12992.31
470.23	13284.88
470.41	13298.92
470.59	13394.89
470.77	13341.05
470.95	13455.74
471.14	13628.94
471.32	13334.03
471.50	13652.34
471.68	13844.27
471.86	13755.33
472.04	13973.00
472.22	14015.13
472.40	14001.08
472.58	13898.10
472.77	14162.58
472.95	14338.12
473.13	14677.50
473.31	14382.59
473.49	14146.20
473.67	14300.67
473.85	14459.83
474.03	14684.52
474.21	14768.78
474.39	14766.44
474.57	14946.66
474.75	15192.42
474.93	15190.08
475.12	15089.43
475.30	15206.46
475.48	15164.33
475.66	15077.73
475.84	15367.96
476.02	15594.99
476.20	15517.75
476.38	15861.81
476.56	16067.78
476.74	16065.44
476.92	16182.46
477.10	15868.83
477.28	16271.40
477.46	16559.29
477.64	16624.83
477.82	16606.10
478.00	17200.60
478.18	16957.18
478.36	16919.73
478.54	17413.59
478.72	17392.52
478.90	17521.25
479.08	17862.97
479.26	17898.08
479.44	17996.38
479.62	18036.17
479.80	18176.60
479.98	18382.57
480.16	18761.73
480.34	18396.61
480.52	18913.87
480.70	18948.98
480.88	18794.50
481.06	18871.74
481.24	18848.33
481.41	19316.44
481.59	19768.16
481.77	19709.65
481.95	19800.93
482.13	19943.70
482.31	19917.96
482.49	20243.29
482.67	20269.04
482.85	20849.49
483.03	20900.98
483.21	21118.65
483.39	21233.34
483.57	20980.56
483.74	21282.49
483.92	21781.03
484.10	21373.77
484.28	21832.52
484.46	22071.25
484.64	22757.03
484.82	22239.77
485.00	22560.42
485.18	22923.21
485.35	23386.63
485.53	22984.06
485.71	23393.65
485.89	23655.79
486.07	23168.96
486.25	23515.36
486.43	23824.31
486.61	24177.73
486.78	24414.13
486.96	24769.89
487.14	24989.90
487.32	25200.55
487.50	25172.46
487.68	25139.69
487.85	25399.49
488.03	25881.64
488.21	26064.21
488.39	26139.10
488.57	26204.64
488.75	26689.13
488.92	26576.78
489.10	26904.46
489.28	26977.01
489.46	27094.04
489.64	27466.19
489.81	27733.01
489.99	27498.95
490.17	28271.33
490.35	28552.20
490.53	28390.70
490.70	28687.95
490.88	28528.79
491.06	29076.48
491.24	29270.74
491.41	29465.00
491.59	29490.75
491.77	29577.35
491.95	29902.68
492.13	30036.09
492.30	30174.19
492.48	30394.20
492.66	30518.25
492.84	30497.18
493.01	30579.10
493.19	30866.98
493.37	31260.20
493.54	31400.63
493.72	32098.11
493.90	31569.15
494.08	32041.93
494.25	32329.82
494.43	32133.21
494.61	32559.19
494.79	33120.92
494.96	32601.32
495.14	33057.73
495.32	33563.28
495.49	33542.22
495.67	33954.15
495.85	33905.00
496.02	33642.86
496.20	34607.16
496.38	34300.55
496.55	34504.18
496.73	35304.64
496.91	35058.88
497.09	35077.61
497.26	35344.43
497.44	35262.51
497.62	35639.34
497.79	35887.43
497.97	36048.93
498.14	36458.52
498.32	36669.17
498.50	36421.08
498.67	37223.88
498.85	36484.27
499.03	36940.68
499.20	37113.87
499.38	37649.86
499.56	37368.99
499.73	37546.87
499.91	37656.88
500.08	38040.73
500.26	37956.47
500.44	38272.44
500.61	38223.29
500.79	38302.87
500.97	38096.90
501.14	39070.56
501.32	38684.37
501.49	38675.01
501.67	39000.35
501.84	39328.02
502.02	39122.05
502.20	39213.34
502.37	39325.68
502.55	39580.80
502.72	39526.97
502.90	39746.98
503.07	40034.86
503.25	40182.32
503.43	39941.24
503.60	40582.55
503.78	40608.29
503.95	40320.41
504.13	40783.83
504.30	41111.51
504.48	41102.15
504.65	41368.97
504.83	41296.41
505.01	41397.06
505.18	41804.31
505.36	42000.91
505.53	41598.34
505.71	41893.25
505.88	42279.44
506.06	41588.98
506.23	42529.87
506.41	42075.81
506.58	42342.63
506.76	42714.78
506.93	42337.95
507.11	43019.05
507.28	42990.96
507.46	42883.30
507.63	43328.00
507.81	43988.03
507.98	43229.69
508.16	43597.16
508.33	43751.63
508.50	43735.25
508.68	44011.43
508.85	44311.02
509.03	44231.44
509.20	44514.65
509.38	44596.57
509.55	44734.66
509.73	44910.20
509.90	44554.44
510.08	45010.84
510.25	45118.51
510.42	45137.23
510.60	45118.51
510.77	45588.95
510.95	45907.27
511.12	45773.86
511.30	45757.47
511.47	46230.26
511.64	45956.42
511.82	46239.62
511.99	45825.35
512.17	46010.25
512.34	46459.63
512.51	46696.03
512.69	46635.17
512.86	46611.77
513.04	46848.16
513.21	47124.35
513.38	47033.07
513.56	47107.96
513.73	47325.63
513.90	47629.90
514.08	47255.42
514.25	48086.31
514.43	47557.35
514.60	48137.80
514.77	47697.78
514.95	48151.84
515.12	47789.06
515.29	47988.00
515.47	48229.08
515.64	48350.79
515.81	48446.75
515.99	48657.40
516.16	48718.25
516.33	49139.55
516.51	48856.34
516.68	48945.28
516.85	49130.19
517.03	49331.47
517.20	49310.41
517.37	49443.82
517.54	49413.39
517.72	49214.44
517.89	49324.45
518.06	49408.71
518.24	49607.65
518.41	49581.91
518.58	49478.92
518.75	49698.94
518.93	49900.22
519.10	49832.35
519.27	50099.17
519.45	50480.67
519.62	50335.56
519.79	50419.82
519.96	50007.89
520.14	50590.68
520.31	50246.62
520.48	50625.79
520.65	50609.40
520.83	51224.96
521.00	50955.80
521.17	50740.47
521.34	50941.76
521.52	51007.29
521.69	51145.39
521.86	51325.61
522.03	51545.62
522.20	51569.02
522.38	51711.80
522.55	51503.49
522.72	51758.61
522.89	51597.11
523.07	51849.89
523.24	51690.73
523.41	51917.76
523.58	52102.67
523.75	52086.28
523.92	52126.07
524.10	52161.18
524.27	52301.61
524.44	52470.13
524.61	52547.37
524.78	52591.84
524.96	52673.76
525.13	52715.89
525.30	52924.19
525.47	52879.72
525.64	52919.51
525.81	52690.14
525.98	53333.79
526.16	52861.00
526.33	52973.34
526.50	53083.35
526.67	53153.57
526.84	52973.34
527.01	53048.24
527.18	52961.64
527.36	53233.14
527.53	53305.70
527.70	53572.52
527.87	53731.68
528.04	53282.30
528.21	53546.78
528.38	53263.57
528.55	54155.32
528.72	53670.82
528.89	53731.68
529.07	53773.81
529.24	53846.36
529.41	53890.83
529.58	53790.19
529.75	54026.59
529.92	53947.01
530.09	54185.74
530.26	54363.62
530.43	54440.86
530.60	54157.66
530.77	54080.42
530.94	54354.26
531.11	54181.06
531.28	54405.75
531.46	54445.54
531.63	54618.74
531.80	54499.37
531.97	54887.90
532.14	54871.52
532.31	54873.86
532.48	54899.61
532.65	54983.86
532.82	54920.67
532.99	55098.55
533.16	54653.85
533.33	55093.87
533.50	55224.94
533.67	55128.98
533.84	55018.97
534.01	55058.76
534.18	55189.83
534.35	55334.95
534.52	55395.80
534.69	55487.08
534.86	55463.67
535.03	55648.58
535.20	55306.86
535.37	55393.46
535.54	55634.53
535.71	55377.08
535.88	55774.97
536.05	55833.48
536.22	55791.35
536.38	55751.56
536.55	55814.76
536.72	55650.92
536.89	55709.43
537.06	55887.31
537.23	56065.19
537.40	56137.75
537.57	56053.49
537.74	56296.91
537.91	56207.97
538.08	56322.65
538.25	55957.53
538.42	56231.37
538.59	56212.65
538.75	56083.92
538.92	56236.05
539.09	56605.86
539.26	56294.56
539.43	56233.71
539.60	56465.42
539.77	56598.83
539.94	56591.81
540.11	56807.14
540.28	56678.41
540.44	56858.63
540.61	56655.01
540.78	56516.92
540.95	56500.53
541.12	56540.32
541.29	56472.45
541.46	56823.53
541.62	56949.92
541.79	57125.46
541.96	56587.13
542.13	57013.11
542.30	57071.62
542.47	57319.72
542.63	57190.99
542.80	57427.38
542.97	57279.93
543.14	57382.91
543.31	57371.21
543.48	57499.94
543.64	57719.95
543.81	57631.01
543.98	57551.43
544.15	57492.92
544.32	57698.89
544.48	57916.56
544.65	57647.39
544.82	57691.86
544.99	57626.33
545.16	57832.30
545.32	57584.20
545.49	57921.24
545.66	58017.20
545.83	57986.77
546.00	58054.65
546.16	57818.25
546.33	57745.70
546.50	57537.39
546.67	57799.53
546.83	57790.17
547.00	58176.36
547.17	57986.77
547.34	58033.58
547.50	58258.27
547.67	58447.86
547.84	58190.40
548.00	58225.51
548.17	58578.93
548.34	58389.34
548.51	58522.76
548.67	58504.03
548.84	58494.67
549.01	58227.85
549.18	58471.26
549.34	58398.71
549.51	58504.03
549.68	58571.91
549.84	58525.10
550.01	58611.70
550.18	58466.58
550.34	58805.96
550.51	58599.99
550.68	58590.63
550.84	58450.20
551.01	58906.60
551.18	58684.25
551.34	58983.84
551.51	58702.98
551.68	58775.53
551.84	58726.38
552.01	58733.40
552.18	59025.97
552.34	58749.79
552.51	59023.63
552.68	58866.81
552.84	59044.69
553.01	59201.51
553.18	59164.06
553.34	59206.19
553.51	59161.72
553.67	58962.78
553.84	59274.07
554.01	59278.75
554.17	59180.45
554.34	59367.69
554.51	59278.75
554.67	59379.39
554.84	59313.86
555.00	59426.20
555.17	59040.01
555.33	59227.26
555.50	58983.84
555.67	59330.24
555.83	59199.17
556.00	59199.17
556.16	59695.36
556.33	59412.16
556.50	59554.93
556.66	59613.44
556.83	59468.33
556.99	59594.72
557.16	59742.17
557.32	59573.66
557.49	59758.56
557.65	59512.80
557.82	59641.53
557.98	59377.05
558.15	59508.12
558.32	59788.98
558.48	59646.21
558.65	59585.36
558.81	59774.94
558.98	59742.17
559.14	59770.26
559.31	59732.81
559.47	59894.31
559.64	59770.26
559.80	60264.11
559.97	59997.29
560.13	59826.43
560.30	60107.30
560.46	59992.61
560.63	59990.27
560.79	60041.76
560.96	60156.45
561.12	59971.55
561.29	60191.56
561.45	60130.70
561.61	60179.85
561.78	60111.98
561.94	60137.72
562.11	59997.29
562.27	60210.28
562.44	60123.68
562.60	60060.49
562.77	60126.02
562.93	60032.40
563.10	60339.01
563.26	60196.24
563.42	60369.44
563.59	60261.77
563.75	60083.89
563.92	60423.27
564.08	60355.39
564.24	60486.46
564.41	60259.43
564.57	60451.36
564.74	60243.05
564.90	60427.95
565.07	60378.80
565.23	60430.29
565.39	60397.52
565.56	60381.14
565.72	60575.40
565.88	60521.57
566.05	60320.29
566.21	60236.03
566.38	60479.44
566.54	60458.38
566.70	60552.00
566.87	60594.13
567.03	60392.84
567.19	60732.22
567.36	60692.43
567.52	60479.44
567.68	60846.91
567.85	60533.28
568.01	60694.77
568.17	60643.28
568.34	60552.00
568.50	60498.17
568.66	60526.25
568.83	60657.32
568.99	60563.70
569.15	60729.88
569.32	60718.18
569.48	60610.51
569.64	60722.86
569.81	60425.61
569.97	60530.93
570.13	60549.66
570.30	60488.80
570.46	60718.18
570.62	60629.24
570.78	60793.07
570.95	60697.11
571.11	60837.54
571.27	60612.85
571.43	60814.14
571.60	60851.59
571.76	60898.40
571.92	60849.25
572.09	60989.68
572.25	60807.12
572.41	60832.86
572.57	60790.73
572.74	60931.17
572.90	60947.55
573.06	60877.33
573.22	60697.11
573.38	60935.85
573.55	60753.29
573.71	60999.04
573.87	60919.46
574.03	60755.63
574.20	61003.72
574.36	60816.48
574.52	61034.15
574.68	60903.08
574.84	61265.86
575.01	61027.13
575.17	60921.80
575.33	60783.71
575.49	60917.12
575.65	61010.74
575.82	61188.63
575.98	61052.87
576.14	61144.16
576.30	60949.89
576.46	61045.85
576.62	60949.89
576.79	61073.94
576.95	60823.50
577.11	61071.60
577.27	60931.17
577.43	61048.19
577.59	61076.28
577.75	60956.91
577.92	61013.08
578.08	60956.91
578.24	61123.09
578.40	61137.13
578.56	61244.80
578.72	61095.00
578.88	61127.77
579.04	61162.88
579.21	60975.64
579.37	61190.97
579.53	61333.74
579.69	60816.48
579.85	61071.60
580.01	61202.67
580.17	60996.70
580.33	61207.35
580.49	61200.33
580.65	61228.41
580.82	61120.75
580.98	60889.04
581.14	60940.53
581.30	61155.86
581.46	60900.74
581.62	61183.94
581.78	61172.24
581.94	61193.31
582.10	61282.25
582.26	60996.70
582.42	61113.73
582.58	61165.22
582.74	61069.26
582.90	61169.90
583.06	61099.68
583.22	61022.45
583.38	61095.00
583.54	61247.14
583.70	61202.67
583.86	61408.64
584.02	61041.17
584.18	61389.91
584.34	61230.75
584.50	61303.31
584.66	61197.99
584.82	60928.83
584.98	61333.74
585.14	61516.30
585.30	61127.77
585.46	61233.10
585.62	61291.61
585.78	61413.32
585.94	61104.37
586.10	61249.48
586.26	61202.67
586.42	61242.46
586.58	61244.80
586.74	61286.93
586.90	61378.21
587.06	61209.69
587.22	61450.77
587.38	61410.98
587.54	61406.30
587.70	61462.47
587.86	61495.24
588.02	61237.78
588.18	61403.95
588.34	61275.22
588.49	61169.90
