SpectraSuite Data File
++++++++++++++++++++++++++++++++++++
Date: Fri Oct 25 10:44:42 EDT 2013
User: price-jones
Dark Spectrum Present: No
Reference Spectrum Present: No
Number of Sampled Component Spectra: 1
Spectrometers: USB2+H05261
Integration Time (usec): 100000 (USB2+H05261)
Spectra Averaged: 1 (USB2+H05261)
Boxcar Smoothing: 0 (USB2+H05261)
Correct for Electrical Dark: No (USB2+H05261)
Strobe/Lamp Enabled: No (USB2+H05261)
Correct for Detector Non-linearity: No (USB2+H05261)
Correct for Stray Light: No (USB2+H05261)
Number of Pixels in Processed Spectrum: 2048
>>>>>Begin Processed Spectral Data<<<<<
365.73	175.54
365.92	175.54
366.12	175.54
366.32	9.36
366.52	46.81
366.72	23.41
366.91	32.77
367.11	39.79
367.31	9.36
367.51	25.75
367.70	95.96
367.90	114.69
368.10	72.56
368.30	32.77
368.49	2.34
368.69	105.32
368.89	77.24
369.09	21.06
369.28	98.30
369.48	25.75
369.68	25.75
369.87	74.90
370.07	74.90
370.27	93.62
370.47	149.79
370.66	346.40
370.86	444.70
371.06	442.36
371.25	409.59
371.45	353.42
371.65	489.17
371.84	423.64
372.04	374.49
372.24	435.34
372.44	470.45
372.63	503.22
372.83	463.43
373.03	507.90
373.22	465.77
373.42	440.02
373.62	500.87
373.81	550.03
374.01	580.45
374.21	538.32
374.40	507.90
374.60	557.05
374.79	475.13
374.99	550.03
375.19	538.32
375.38	622.58
375.58	543.00
375.78	552.37
375.97	566.41
376.17	587.47
376.37	547.69
376.56	608.54
376.76	592.16
376.95	613.22
377.15	564.07
377.35	573.43
377.54	650.67
377.74	531.30
377.93	568.75
378.13	491.51
378.33	641.31
378.52	589.82
378.72	610.88
378.91	596.84
379.11	557.05
379.31	615.56
379.50	594.50
379.70	653.01
379.89	613.22
380.09	601.52
380.28	547.69
380.48	641.31
380.68	599.18
380.87	587.47
381.07	653.01
381.26	589.82
381.46	603.86
381.65	664.71
381.85	732.59
382.04	704.50
382.24	650.67
382.43	671.73
382.63	664.71
382.83	660.03
383.02	636.63
383.22	727.91
383.41	685.78
383.61	706.84
383.80	753.65
384.00	678.76
384.19	711.52
384.39	713.86
384.58	807.48
384.78	730.25
384.97	842.59
385.17	741.95
385.36	793.44
385.56	713.86
385.75	809.83
385.95	683.44
386.14	795.78
386.34	807.48
386.53	823.87
386.72	753.65
386.92	849.61
387.11	772.38
387.31	828.55
387.50	816.85
387.70	793.44
387.89	774.72
388.09	758.33
388.28	777.06
388.48	814.51
388.67	917.49
388.86	847.27
389.06	961.96
389.25	868.34
389.45	933.87
389.64	826.21
389.84	891.74
390.03	938.55
390.22	882.38
390.42	884.72
390.61	898.77
390.81	828.55
391.00	938.55
391.19	901.11
391.39	973.66
391.58	987.71
391.78	971.32
391.97	933.87
392.16	959.62
392.36	961.96
392.55	896.43
392.75	889.40
392.94	887.06
393.13	950.26
393.33	898.77
393.52	1025.15
393.71	1025.15
393.91	940.90
394.10	1013.45
394.29	997.07
394.49	1088.35
394.68	1046.22
394.88	1069.62
395.07	1093.03
395.26	1149.20
395.46	1167.93
395.65	1048.56
395.84	1069.62
396.04	1135.16
396.23	1153.88
396.42	992.39
396.62	1107.07
396.81	1121.12
397.00	1142.18
397.19	1078.99
397.39	1165.59
397.58	1191.33
397.77	1259.21
397.97	1242.82
398.16	1263.89
398.35	1277.93
398.55	1275.59
398.74	1315.38
398.93	1287.29
399.12	1348.15
399.32	1196.01
399.51	1310.70
399.70	1334.11
399.90	1280.27
400.09	1397.30
400.28	1369.21
400.47	1432.41
400.67	1420.71
400.86	1483.90
401.05	1474.54
401.24	1462.83
401.44	1432.41
401.63	1490.92
401.82	1563.48
402.01	1420.71
402.21	1486.24
402.40	1563.48
402.59	1561.14
402.78	1551.78
402.97	1523.69
403.17	1603.27
403.36	1519.01
403.55	1645.40
403.74	1605.61
403.93	1511.99
404.13	1713.27
404.32	1692.21
404.51	1671.14
404.70	1624.33
404.89	1598.59
405.09	1741.36
405.28	1823.28
405.47	1727.32
405.66	1790.51
405.85	1722.63
406.05	1769.44
406.24	1802.21
406.43	1760.08
406.62	1834.98
406.81	1893.49
407.00	1778.81
407.20	1790.51
407.39	1834.98
407.58	1954.35
407.77	1980.09
407.96	1900.52
408.15	1928.60
408.34	1998.82
408.54	2059.67
408.73	2029.24
408.92	1973.07
409.11	2029.24
409.30	2118.18
409.49	1973.07
409.68	2022.22
409.87	1989.46
410.07	2101.80
410.26	2087.76
410.45	2043.29
410.64	2162.66
410.83	2209.47
411.02	2265.64
411.21	2289.04
411.40	2193.08
411.59	2368.62
411.78	2296.07
411.98	2284.36
412.17	2335.85
412.36	2342.88
412.55	2436.50
412.74	2457.56
412.93	2317.13
413.12	2319.47
413.31	2523.10
413.50	2436.50
413.69	2408.41
413.88	2555.86
414.07	2518.42
414.26	2588.63
414.45	2593.31
414.64	2553.52
414.83	2612.04
415.02	2628.42
415.22	2726.72
415.41	2855.45
415.60	2759.49
415.79	2836.73
415.98	2911.63
416.17	2827.37
416.36	2780.56
416.55	2839.07
416.74	2829.71
416.93	2829.71
417.12	2946.73
417.31	2932.69
417.50	2967.80
417.69	2988.86
417.88	2974.82
418.07	2878.86
418.26	2965.46
418.45	3148.02
418.64	3286.11
418.83	3262.71
419.02	3192.49
419.21	3166.74
419.39	3171.43
419.58	3096.53
419.77	3162.06
419.96	3119.93
420.15	3379.73
420.34	3328.24
420.53	3335.26
420.72	3304.84
420.91	3426.54
421.10	3353.99
421.29	3431.23
421.48	3351.65
421.67	3496.76
421.86	3363.35
422.05	3318.88
422.24	3356.33
422.43	3478.04
422.61	3435.91
422.80	3417.18
422.99	3428.88
423.18	3529.53
423.37	3637.19
423.56	3552.93
423.75	3506.12
423.94	3463.99
424.13	3145.68
424.32	3370.37
424.50	3534.21
424.69	3574.00
424.88	3576.34
425.07	3459.31
425.26	3555.27
425.45	3466.33
425.64	3681.66
425.83	3524.85
426.01	3691.02
426.20	3660.60
426.39	3548.25
426.58	3693.37
426.77	3550.59
426.96	3576.34
427.15	3665.28
427.33	3604.42
427.52	3623.15
427.71	3761.24
427.90	3611.45
428.09	3761.24
428.28	3686.34
428.46	3672.30
428.65	3798.69
428.84	3749.54
429.03	3955.51
429.22	3852.52
429.40	3971.89
429.59	3922.74
429.78	3679.32
429.97	3588.04
430.16	3651.24
430.34	3737.84
430.53	3943.80
430.72	3857.20
430.91	3826.78
431.10	3836.14
431.28	4023.38
431.47	4084.23
431.66	4128.70
431.85	3950.82
432.03	4133.39
432.22	4142.75
432.41	4210.62
432.60	4266.80
432.79	4287.86
432.97	4332.33
433.16	4287.86
433.35	4196.58
433.54	4283.18
433.72	4227.01
433.91	4222.33
434.10	4315.95
434.28	4376.80
434.47	4430.63
434.66	4423.61
434.85	4404.89
435.03	4435.32
435.22	4491.49
435.41	4486.81
435.59	4430.63
435.78	4381.48
435.97	4648.30
436.16	4486.81
436.34	4500.85
436.53	4496.17
436.72	4809.80
436.90	4528.94
437.09	4744.27
437.28	4554.68
437.46	4716.18
437.65	4629.58
437.84	4573.41
438.02	4557.02
438.21	4599.15
438.40	4704.48
438.58	4772.35
438.77	4882.36
438.96	4994.70
439.14	4971.30
439.33	5074.28
439.52	5259.18
439.70	5032.15
439.89	5132.79
440.08	5123.43
440.26	5062.58
440.45	5095.35
440.63	5245.14
440.82	5334.08
441.01	5394.93
441.19	5451.11
441.38	5322.38
441.57	5359.83
441.75	5507.28
441.94	5713.25
442.12	5523.66
442.31	5685.16
442.50	5643.03
442.68	5554.09
442.87	5727.29
443.05	5628.99
443.24	5769.42
443.43	5844.32
443.61	5769.42
443.80	5888.79
443.98	5556.43
444.17	5528.35
444.35	5863.04
444.54	5987.09
444.73	5891.13
444.91	5694.52
445.10	5909.85
445.28	5692.18
445.47	5863.04
445.65	5731.97
445.84	5935.60
446.02	5919.21
446.21	5788.14
446.39	5935.60
446.58	5961.34
446.77	6029.22
446.95	5823.25
447.14	5891.13
447.32	6139.23
447.51	6010.50
447.69	5977.73
447.88	5893.47
448.06	6106.46
448.25	6019.86
448.43	6160.29
448.62	5944.96
448.80	6026.88
448.99	5975.39
449.17	6143.91
449.36	6113.48
449.54	6342.85
449.73	6384.98
449.91	6263.27
450.10	6193.06
450.28	6417.75
450.46	6300.72
450.65	6333.49
450.83	6263.27
451.02	6399.02
451.20	6436.47
451.39	6408.39
451.57	6214.12
451.76	6211.78
451.94	6394.34
452.13	6544.14
452.31	6366.26
452.49	6296.04
452.68	6499.67
452.86	6422.43
453.05	6640.10
453.23	6700.95
453.42	6523.07
453.60	6576.91
453.78	6768.83
453.97	6668.19
454.15	6614.35
454.34	6630.74
454.52	6780.53
454.70	6752.45
454.89	6874.15
455.07	6757.13
455.26	6628.40
455.44	6801.60
455.62	6979.48
455.81	6906.92
455.99	7089.48
456.17	6979.48
456.36	7045.01
456.54	7119.91
456.73	7077.78
456.91	7213.53
457.09	7129.27
457.28	7241.62
457.46	7115.23
457.64	7550.57
457.83	7295.45
458.01	7239.28
458.19	7360.98
458.38	7363.33
458.56	7620.78
458.74	7349.28
458.93	7339.92
459.11	7620.78
459.29	7513.12
459.48	7428.86
459.66	7543.55
459.84	7499.08
460.03	7648.87
460.21	7606.74
460.39	7770.58
460.57	7445.24
460.76	7812.71
460.94	7899.31
461.12	7875.90
461.31	7761.22
461.49	7946.12
461.67	7660.57
461.85	8006.97
462.04	7826.75
462.22	7911.01
462.40	8088.89
462.59	7929.74
462.77	7831.43
462.95	7911.01
463.13	7981.23
463.32	8030.38
463.50	8297.20
463.68	8072.51
463.86	8037.40
464.05	8042.08
464.23	8098.25
464.41	8135.70
464.59	8138.04
464.78	8276.13
464.96	8114.64
465.14	8187.19
465.32	8313.58
465.50	8409.54
465.69	8271.45
465.87	8411.89
466.05	8219.96
466.23	8159.11
466.41	8336.99
466.60	8367.42
466.78	8407.20
466.96	8201.24
467.14	8479.76
467.32	8210.60
467.51	8594.45
467.69	8156.77
467.87	8549.98
468.05	8596.79
468.23	8624.87
468.41	8554.66
468.60	8557.00
468.78	8837.86
468.96	8769.99
469.14	8898.72
469.32	8889.35
469.50	8571.04
469.69	8931.48
469.87	8812.12
470.05	8786.37
470.23	8702.11
470.41	8861.27
470.59	8940.85
470.77	9011.06
470.95	9055.53
471.14	9200.65
471.32	8844.88
471.50	9226.39
471.68	9242.78
471.86	9462.79
472.04	9219.37
472.22	9558.75
472.40	9437.04
472.58	9329.38
472.77	9500.23
472.95	9474.49
473.13	9802.16
473.31	9469.81
473.49	9509.60
473.67	9507.26
473.85	9650.03
474.03	9916.85
474.21	9893.44
474.39	10085.37
474.57	9994.09
474.75	10232.82
474.93	10160.27
475.12	10024.51
475.30	10326.44
475.48	10134.52
475.66	10413.04
475.84	10380.28
476.02	10209.42
476.20	10274.95
476.38	10621.35
476.56	10714.97
476.74	10658.80
476.92	10717.31
477.10	10822.64
477.28	10953.71
477.46	10794.55
477.64	10988.82
477.82	10951.37
478.00	11075.42
478.18	11342.24
478.36	11492.03
478.54	11513.10
478.72	11454.58
478.90	11754.17
479.08	11597.35
479.26	12063.12
479.44	11960.14
479.62	11871.20
479.80	12266.75
479.98	12063.12
480.16	12233.98
480.34	12210.57
480.52	12437.61
480.70	12730.17
480.88	12381.43
481.06	12348.67
481.24	12608.47
481.41	12847.20
481.59	13034.44
481.77	13022.74
481.95	12924.44
482.13	13277.86
482.31	13263.82
482.49	13380.84
482.67	13397.23
482.85	13673.41
483.03	13767.03
483.21	13900.44
483.39	14085.34
483.57	13942.57
483.74	13989.38
483.92	14160.24
484.10	13944.91
484.28	14333.44
484.46	14642.39
484.64	14593.24
484.82	14558.13
485.00	14754.74
485.18	14778.14
485.35	15012.20
485.53	14939.64
485.71	15229.87
485.89	15337.53
486.07	15096.46
486.25	15178.37
486.43	15424.13
486.61	15765.85
486.78	15840.75
486.96	15971.82
487.14	16130.97
487.32	16093.52
487.50	16559.29
487.68	16468.01
487.85	16844.84
488.03	16678.66
488.21	16877.60
488.39	16805.05
488.57	16847.18
488.75	17324.65
488.92	17504.87
489.10	17577.42
489.28	17886.37
489.46	17851.27
489.64	17820.84
489.81	18279.58
489.99	18476.19
490.17	18211.71
490.35	18731.31
490.53	18539.38
490.70	18820.25
490.88	18630.66
491.06	19056.64
491.24	18972.38
491.41	19241.54
491.59	19360.91
491.77	19007.49
491.95	19286.01
492.13	19473.26
492.30	19515.39
492.48	19763.48
492.66	19744.76
492.84	19662.84
493.01	20189.46
493.19	20353.30
493.37	20339.26
493.54	20201.16
493.72	20835.45
493.90	20491.39
494.08	20788.64
494.25	20966.52
494.43	20875.24
494.61	21212.28
494.79	21504.84
494.96	21256.75
495.14	21312.92
495.32	21774.00
495.49	21921.46
495.67	21809.11
495.85	22176.58
496.02	22342.75
496.20	22384.88
496.38	22499.57
496.55	22284.24
496.73	22965.34
496.91	22389.56
497.09	22761.71
497.26	23168.96
497.44	23026.19
497.62	23108.11
497.79	23194.71
497.97	23255.56
498.14	23316.42
498.32	23463.87
498.50	23777.50
498.67	23810.27
498.85	23744.73
499.03	23871.12
499.20	23978.79
499.38	24329.87
499.56	24154.33
499.73	24161.35
499.91	24512.43
500.08	24311.14
500.26	24439.87
500.44	24292.42
500.61	24692.65
500.79	24400.08
500.97	24945.43
501.14	25149.06
501.32	24741.80
501.49	24907.98
501.67	25109.27
501.84	25319.92
502.02	25090.54
502.20	25558.65
502.37	25575.03
502.55	25589.08
502.72	25792.70
502.90	25738.87
503.07	25521.20
503.25	25860.58
503.43	25621.84
503.60	25986.97
503.78	26132.08
503.95	26089.95
504.13	26316.98
504.30	26356.77
504.48	26410.60
504.65	26604.87
504.83	26698.49
505.01	27089.36
505.18	26969.99
505.36	27283.62
505.53	27047.23
505.71	27056.59
505.88	27480.23
506.06	26859.99
506.23	27491.93
506.41	27222.77
506.58	27285.97
506.76	27679.18
506.93	27700.24
507.11	27566.83
507.28	27962.38
507.46	27784.50
507.63	27777.48
507.81	28011.53
507.98	27953.02
508.16	28065.36
508.33	27957.70
508.50	28315.80
508.68	28418.78
508.85	28659.86
509.03	28608.37
509.20	28943.06
509.38	28751.14
509.55	28732.42
509.73	28905.62
509.90	29041.37
510.08	28849.44
510.25	28966.47
510.42	29338.62
510.60	29750.55
510.77	29766.93
510.95	29457.98
511.12	29252.02
511.30	29895.66
511.47	29886.30
511.64	29851.19
511.82	30150.78
511.99	29848.85
512.17	29912.05
512.34	29628.84
512.51	30384.83
512.69	30132.06
512.86	30277.17
513.04	30572.08
513.21	30785.07
513.38	30249.08
513.56	30541.65
513.73	30237.38
513.90	30548.67
514.08	30586.12
514.25	30923.16
514.43	30656.34
514.60	30801.45
514.77	30920.82
514.95	31070.61
515.12	31351.48
515.29	31150.19
515.47	31601.91
515.64	31651.06
515.81	31337.43
515.99	31906.18
516.16	31700.22
516.33	31576.17
516.51	31955.33
516.68	31257.85
516.85	31199.34
517.03	31747.03
517.20	31988.10
517.37	31845.33
517.54	32018.53
517.72	32058.32
517.89	32102.79
518.06	31744.69
518.24	32109.81
518.41	32173.00
518.58	32238.54
518.75	32409.40
518.93	32999.21
519.10	32411.74
519.27	33006.23
519.45	32643.45
519.62	32734.73
519.79	32694.94
519.96	32636.43
520.14	32912.61
520.31	33151.35
520.48	32980.49
520.65	33053.05
520.83	33879.25
521.00	33771.59
521.17	33074.11
521.34	33607.75
521.52	33418.17
521.69	33553.92
521.86	33991.60
522.03	33722.44
522.20	33844.15
522.38	33919.04
522.55	34244.38
522.72	34115.65
522.89	33462.64
523.07	34029.05
523.24	34237.36
523.41	34288.85
523.58	34150.76
523.75	35061.22
523.92	34888.03
524.10	35220.38
524.27	34733.55
524.44	34958.24
524.61	34810.79
524.78	34911.43
524.96	35159.53
525.13	34895.05
525.30	35093.99
525.47	35274.21
525.64	34965.26
525.81	35288.26
525.98	34904.41
526.16	34934.84
526.33	34941.86
526.50	35285.92
526.67	35026.12
526.84	35360.81
527.01	35042.50
527.18	35419.33
527.36	35580.82
527.53	35686.15
527.70	36371.92
527.87	35711.89
528.04	36091.06
528.21	36093.40
528.38	35793.81
528.55	36456.18
528.72	35950.63
528.89	36294.69
529.07	36467.89
529.24	36252.56
529.41	36643.43
529.58	36222.13
529.75	36271.28
529.92	36587.25
530.09	36753.43
530.26	36758.11
530.43	36542.78
530.60	36921.95
530.77	36563.85
530.94	37062.38
531.11	36886.84
531.28	36725.35
531.46	37614.75
531.63	36821.31
531.80	37036.64
531.97	37048.34
532.14	36982.80
532.31	36753.43
532.48	37380.70
532.65	37310.48
532.82	37144.30
532.99	37254.31
533.16	37319.84
533.33	37486.02
533.50	37830.08
533.67	37549.21
533.84	37191.11
534.01	37392.40
534.18	37586.66
534.35	38094.56
534.52	37720.07
534.69	38267.76
534.86	38225.63
535.03	37827.74
535.20	38497.13
535.37	38438.62
535.54	38885.66
535.71	38223.29
535.88	38024.34
536.05	37806.67
536.22	38431.60
536.38	38167.12
536.55	38506.49
536.72	38445.64
536.89	37783.27
537.06	38178.82
537.23	38307.55
537.40	38412.87
537.57	38616.50
537.74	38597.77
537.91	39143.12
538.08	39014.39
538.25	38621.18
538.42	39246.10
538.59	39105.67
538.75	38740.55
538.92	38864.60
539.09	38967.58
539.26	39056.52
539.43	39089.29
539.60	39187.59
539.77	38710.12
539.94	39337.38
540.11	38567.35
540.28	38888.00
540.44	39555.05
540.61	38969.92
540.78	39346.75
540.95	39182.91
541.12	39103.33
541.29	39288.23
541.46	39292.91
541.62	39318.66
541.79	39620.59
541.96	39533.99
542.13	39412.28
542.30	39461.43
542.47	39456.75
542.63	40009.12
542.80	39665.06
542.97	40123.80
543.14	40708.94
543.31	40041.88
543.48	39885.07
543.64	41031.93
543.81	40507.65
543.98	40456.16
544.15	40718.30
544.32	40271.26
544.48	40701.92
544.65	40329.77
544.82	40718.30
544.99	40488.93
545.16	40519.35
545.32	40257.21
545.49	41146.62
545.66	40959.38
545.83	41413.44
546.00	40957.03
546.16	40594.25
546.33	40753.41
546.50	40498.29
546.67	40692.55
546.83	39948.26
547.00	40992.14
547.17	41095.13
547.34	41205.13
547.50	41181.73
547.67	41324.50
547.84	41226.20
548.00	41338.54
548.17	41858.14
548.34	41254.28
548.51	41879.21
548.67	41588.98
548.84	41174.70
549.01	41415.78
549.18	41209.81
549.34	41188.75
549.51	41310.46
549.68	41886.23
549.84	41958.78
550.01	41598.34
550.18	41722.39
550.34	41696.64
550.51	41486.00
550.68	41663.88
550.84	41659.20
551.01	41890.91
551.18	41598.34
551.34	41366.63
551.51	42003.25
551.68	41773.88
551.84	41794.95
552.01	41937.72
552.18	42061.77
552.34	41778.56
552.51	41989.21
552.68	41914.31
552.84	42080.49
553.01	42674.99
553.18	41984.53
553.34	42225.60
553.51	42080.49
553.67	42171.77
553.84	41975.17
554.01	42356.67
554.17	42590.73
554.34	42473.70
554.51	42169.43
554.67	42347.31
554.84	42522.85
555.00	42745.20
555.17	42539.24
555.33	42050.06
555.50	42621.16
555.67	42506.47
555.83	42628.18
556.00	42541.58
556.16	42810.74
556.33	42553.28
556.50	42686.69
556.66	42410.51
556.83	42244.33
556.99	43096.28
557.16	43220.33
557.32	43227.35
557.49	42845.85
557.65	42539.24
557.82	42770.95
557.98	42787.33
558.15	42740.52
558.32	43208.63
558.48	42796.70
558.65	42958.19
558.81	42581.37
558.98	42787.33
559.14	42939.47
559.31	42719.46
559.47	43407.58
559.64	43044.79
559.80	43828.87
559.97	43159.48
560.13	42607.11
560.30	42731.16
560.46	42930.11
560.63	43393.53
560.79	43328.00
560.96	43330.34
561.12	43313.95
561.29	42941.81
561.45	43592.48
561.61	42859.89
561.78	43519.92
561.94	43009.68
562.11	43522.26
562.27	43344.38
562.44	43330.34
562.60	44055.90
562.77	43695.46
562.93	43290.55
563.10	44074.63
563.26	42967.55
563.42	43737.59
563.59	43573.75
563.75	43262.46
563.92	43915.47
564.08	43807.81
564.24	43838.23
564.41	43758.66
564.57	43620.56
564.74	43290.55
564.90	43215.65
565.07	43868.66
565.23	43681.42
565.39	43742.27
565.56	43962.28
565.72	43470.77
565.88	43236.72
566.05	43283.53
566.21	43613.54
566.38	43629.93
566.54	43395.87
566.70	44416.35
566.87	44076.97
567.03	43929.51
567.19	44212.72
567.36	44006.75
567.52	43531.62
567.68	43763.34
567.85	43690.78
568.01	43615.88
568.17	43784.40
568.34	44060.58
568.50	44161.23
568.66	43920.15
568.83	43817.17
568.99	43882.70
569.15	43938.88
569.32	43697.80
569.48	43707.16
569.64	43976.33
569.81	43997.39
569.97	43749.29
570.13	44058.24
570.30	43412.26
570.46	43959.94
570.62	43501.20
570.78	43674.40
570.95	43428.64
571.11	44325.07
571.27	43648.65
571.43	43746.95
571.60	44142.50
571.76	43854.62
571.92	44051.22
572.09	43892.07
572.25	43835.89
572.41	43814.83
572.57	44446.77
572.74	44137.82
572.90	44137.82
573.06	44479.54
573.22	43796.10
573.38	43821.85
573.55	43969.30
573.71	44662.10
573.87	43995.05
574.03	43863.98
574.20	43906.11
574.36	44102.71
574.52	44194.00
574.68	43868.66
574.84	44252.51
575.01	43810.15
575.17	44135.48
575.33	44011.43
575.49	44016.11
575.65	43948.24
575.82	44004.41
575.98	44114.42
576.14	44414.01
576.30	44231.44
576.46	44172.93
576.62	43863.98
576.79	44327.41
576.95	43854.62
577.11	44278.25
577.27	44149.53
577.43	44051.22
577.59	43950.58
577.75	43784.40
577.92	44072.29
578.08	44273.57
578.24	43899.09
578.40	44151.87
578.56	44619.97
578.72	44280.60
578.88	44528.69
579.04	44619.97
579.21	43826.53
579.37	44411.67
579.53	44088.67
579.69	43746.95
579.85	44083.99
580.01	44154.21
580.17	43819.51
580.33	44292.30
580.49	44540.39
580.65	44570.82
580.82	43868.66
580.98	44100.37
581.14	44032.50
581.30	44416.35
581.46	44044.20
581.62	44137.82
581.78	44282.94
581.94	44673.81
582.10	44009.09
582.26	44414.01
582.42	44060.58
582.58	44236.12
582.74	44179.95
582.90	44879.77
583.06	44477.20
583.22	44421.03
583.38	44739.34
583.54	44521.67
583.70	44650.40
583.86	44392.94
584.02	44179.95
584.18	44198.68
584.34	44172.93
584.50	44067.61
584.66	43922.49
584.82	44144.84
584.98	44631.68
585.14	44570.82
585.30	44109.74
585.46	43964.62
585.62	44184.63
585.78	44783.81
585.94	43999.73
586.10	44105.06
586.26	43997.39
586.42	44687.85
586.58	44538.05
586.74	44250.17
586.90	44011.43
587.06	44788.49
587.22	44547.42
587.38	44102.71
587.54	44531.03
587.70	44657.42
587.86	44516.99
588.02	44154.21
588.18	44439.75
588.34	44130.80
588.49	43866.32
588.65	44030.16
588.81	44315.70
588.97	43983.35
589.13	43931.86
589.29	44163.57
589.45	44254.85
589.61	44463.16
589.77	44739.34
589.93	44584.86
590.08	44535.71
590.24	44891.48
590.40	45076.38
