SpectraSuite Data File
++++++++++++++++++++++++++++++++++++
Date: Fri Oct 25 11:25:17 EDT 2013
User: price-jones
Dark Spectrum Present: No
Reference Spectrum Present: No
Number of Sampled Component Spectra: 1
Spectrometers: USB2+H05261
Integration Time (usec): 100000 (USB2+H05261)
Spectra Averaged: 1 (USB2+H05261)
Boxcar Smoothing: 0 (USB2+H05261)
Correct for Electrical Dark: No (USB2+H05261)
Strobe/Lamp Enabled: No (USB2+H05261)
Correct for Detector Non-linearity: No (USB2+H05261)
Correct for Stray Light: No (USB2+H05261)
Number of Pixels in Processed Spectrum: 2048
>>>>>Begin Processed Spectral Data<<<<<
365.73	292.57
365.92	292.57
366.12	292.57
366.32	114.69
366.52	142.77
366.72	156.82
366.91	86.60
367.11	93.62
367.31	114.69
367.51	156.82
367.70	177.88
367.90	98.30
368.10	210.65
368.30	161.50
368.49	84.26
368.69	196.60
368.89	126.39
369.09	159.16
369.28	205.97
369.48	168.52
369.68	201.29
369.87	182.56
370.07	224.69
370.27	264.48
370.47	285.55
370.66	535.98
370.86	585.13
371.06	610.88
371.25	695.14
371.45	638.97
371.65	660.03
371.84	610.88
372.04	655.35
372.24	702.16
372.44	713.86
372.63	685.78
372.83	746.63
373.03	758.33
373.22	704.50
373.42	774.72
373.62	760.67
373.81	744.29
374.01	835.57
374.21	814.51
374.40	723.23
374.60	823.87
374.79	814.51
374.99	784.08
375.19	760.67
375.38	826.21
375.58	922.17
375.78	807.48
375.97	868.34
376.17	901.11
376.37	898.77
376.56	837.91
376.76	884.72
376.95	802.80
377.15	889.40
377.35	968.98
377.54	849.61
377.74	837.91
377.93	901.11
378.13	919.83
378.33	924.51
378.52	882.38
378.72	931.53
378.91	880.04
379.11	905.79
379.31	1036.86
379.50	887.06
379.70	912.81
379.89	922.17
380.09	931.53
380.28	1004.09
380.48	1078.99
380.68	957.28
380.87	938.55
381.07	992.39
381.26	1083.67
381.46	1097.71
381.65	1069.62
381.85	1022.81
382.04	990.05
382.24	1020.47
382.43	1032.18
382.63	1062.60
382.83	1081.33
383.02	1081.33
383.22	1125.80
383.41	1053.24
383.61	1020.47
383.80	1069.62
384.00	1118.78
384.19	1144.52
384.39	1121.12
384.58	1111.75
384.78	1156.22
384.97	1177.29
385.17	1153.88
385.36	1226.44
385.56	1217.08
385.75	1050.90
385.95	1191.33
386.14	1214.74
386.34	1226.44
386.53	1205.38
386.72	1259.21
386.92	1299.00
387.11	1203.04
387.31	1291.98
387.50	1144.52
387.70	1224.10
387.89	1266.23
388.09	1308.36
388.28	1210.06
388.48	1277.93
388.67	1308.36
388.86	1359.85
389.06	1341.13
389.25	1324.74
389.45	1343.47
389.64	1334.11
389.84	1357.51
390.03	1345.81
390.22	1397.30
390.42	1448.79
390.61	1327.08
390.81	1371.55
391.00	1296.66
391.19	1404.32
391.39	1371.55
391.58	1418.36
391.78	1490.92
391.97	1462.83
392.16	1465.18
392.36	1502.62
392.55	1549.43
392.75	1579.86
392.94	1490.92
393.13	1441.77
393.33	1423.05
393.52	1603.27
393.71	1575.18
393.91	1633.69
394.10	1540.07
394.29	1540.07
394.49	1549.43
394.68	1687.53
394.88	1521.35
395.07	1647.74
395.26	1605.61
395.46	1591.56
395.65	1678.16
395.84	1582.20
396.04	1741.36
396.23	1746.04
396.42	1764.76
396.62	1813.92
396.81	1776.47
397.00	1699.23
397.19	1757.74
397.39	1746.04
397.58	1783.49
397.77	1799.87
397.97	1830.30
398.16	1774.13
398.35	1952.01
398.55	1959.03
398.74	1844.34
398.93	1944.99
399.12	1921.58
399.32	1961.37
399.51	1863.07
399.70	1998.82
399.90	1956.69
400.09	2057.33
400.28	2125.21
400.47	2010.52
400.67	2092.44
400.86	2045.63
401.05	2062.01
401.24	2059.67
401.44	2045.63
401.63	2099.46
401.82	2122.87
402.01	2099.46
402.21	2202.44
402.40	2181.38
402.59	2176.70
402.78	2188.40
402.97	2165.00
403.17	2230.53
403.36	2303.09
403.55	2108.82
403.74	2359.26
403.93	2260.96
404.13	2394.37
404.32	2218.83
404.51	2300.75
404.70	2356.92
404.89	2223.51
405.09	2511.39
405.28	2469.27
405.47	2445.86
405.66	2509.05
405.85	2373.30
406.05	2483.31
406.24	2506.71
406.43	2612.04
406.62	2509.05
406.81	2696.30
407.00	2679.91
407.20	2502.03
407.39	2700.98
407.58	2658.85
407.77	2633.10
407.96	2689.28
408.15	2740.77
408.34	2588.63
408.54	2867.16
408.73	2761.83
408.92	2801.62
409.11	2942.05
409.30	2869.50
409.49	2834.39
409.68	2818.00
409.87	2876.52
410.07	2911.63
410.26	3014.61
410.45	2832.05
410.64	2932.69
410.83	3007.59
411.02	3075.46
411.21	3063.76
411.40	3169.09
411.59	3115.25
411.78	3035.67
411.98	3148.02
412.17	3318.88
412.36	3213.56
412.55	3389.10
412.74	3400.80
412.93	3405.48
413.12	3384.41
413.31	3496.76
413.50	3445.27
413.69	3459.31
413.88	3482.72
414.07	3454.63
414.26	3634.85
414.45	3625.49
414.64	3679.32
414.83	3719.11
415.02	3662.94
415.22	3779.97
415.41	3868.91
415.60	3831.46
415.79	3957.85
415.98	3943.80
416.17	3922.74
416.36	4011.68
416.55	4042.11
416.74	4109.98
416.93	4002.32
417.12	4098.28
417.31	4177.86
417.50	4196.58
417.69	4205.94
417.88	4264.46
418.07	4142.75
418.26	4280.84
418.45	4451.70
418.64	4440.00
418.83	4444.68
419.02	4360.42
419.21	4432.97
419.39	4374.46
419.58	4381.48
419.77	4428.29
419.96	4458.72
420.15	4683.41
420.34	4533.62
420.53	4610.86
420.72	4636.60
420.91	4638.94
421.10	4751.29
421.29	4807.46
421.48	4643.62
421.67	4610.86
421.86	4748.95
422.05	4709.16
422.24	4823.84
422.43	4791.08
422.61	5046.20
422.80	4880.02
422.99	4802.78
423.18	4868.31
423.37	4938.53
423.56	4950.23
423.75	4950.23
423.94	4777.03
424.13	4521.92
424.32	4779.37
424.50	5020.45
424.69	5039.17
424.88	5046.20
425.07	4933.85
425.26	4940.87
425.45	4830.87
425.64	4830.87
425.83	5008.75
426.01	5076.62
426.20	5071.94
426.39	4964.28
426.58	4896.40
426.77	5146.84
426.96	5048.54
427.15	5067.26
427.33	5179.61
427.52	5069.60
427.71	5366.85
427.90	5331.74
428.09	5273.23
428.28	5235.78
428.46	5322.38
428.65	5434.72
428.84	5451.11
429.03	5584.52
429.22	5355.15
429.40	5455.79
429.59	5469.83
429.78	5434.72
429.97	5341.10
430.16	5542.39
430.34	5479.19
430.53	5614.95
430.72	5495.58
430.91	5818.57
431.10	5788.14
431.28	5685.16
431.47	5671.12
431.66	5741.33
431.85	5769.42
432.03	5715.59
432.22	5825.59
432.41	5818.57
432.60	5963.68
432.79	5877.09
432.97	5980.07
433.16	5977.73
433.35	5989.43
433.54	5907.51
433.72	6146.25
433.91	5949.64
434.10	6057.31
434.28	6113.48
434.47	6127.52
434.66	6064.33
434.85	6303.06
435.03	6370.94
435.22	6338.17
435.41	6609.67
435.59	6434.13
435.78	6431.79
435.97	6345.19
436.16	6462.22
436.34	6314.77
436.53	6502.01
436.72	6630.74
436.90	6408.39
437.09	6654.14
437.28	6382.64
437.46	6516.05
437.65	6539.46
437.84	6527.75
438.02	6658.82
438.21	6750.10
438.40	6595.63
438.58	6998.20
438.77	7077.78
438.96	6909.26
439.14	7096.50
439.33	6890.54
439.52	7239.28
439.70	6951.39
439.89	7286.09
440.08	7417.16
440.26	7478.01
440.45	7286.09
440.63	7363.33
440.82	7576.31
441.01	7459.29
441.19	7515.46
441.38	7611.42
441.57	7728.45
441.75	7714.41
441.94	7894.63
442.12	7824.41
442.31	7960.16
442.50	8079.53
442.68	7934.42
442.87	8018.68
443.05	7906.33
443.24	7955.48
443.43	8138.04
443.61	8149.75
443.80	8393.16
443.98	7997.61
444.17	7749.51
444.35	8271.45
444.54	8353.37
444.73	8215.28
444.91	8257.41
445.10	8320.60
445.28	8498.49
445.47	8290.18
445.65	8390.82
445.84	8280.82
446.02	8496.14
446.21	8451.67
446.39	8339.33
446.58	8313.58
446.77	8432.95
446.95	8404.86
447.14	8472.74
447.32	8224.64
447.51	8344.01
447.69	8360.39
447.88	8416.57
448.06	8606.15
448.25	8517.21
448.43	8514.87
448.62	8545.30
448.80	8526.57
448.99	8470.40
449.17	8592.11
449.36	8557.00
449.54	8601.47
449.73	8987.66
449.91	9142.13
450.10	9006.38
450.28	9036.81
450.46	9013.40
450.65	8706.79
450.83	9055.53
451.02	9069.58
451.20	9188.94
451.39	9088.30
451.57	9135.11
451.76	8791.05
451.94	9064.89
452.13	9289.59
452.31	9198.31
452.49	9160.86
452.68	9261.50
452.86	9238.09
453.05	9366.82
453.23	9322.35
453.42	9308.31
453.60	9345.76
453.78	9511.94
453.97	9460.45
454.15	9404.27
454.34	9415.98
454.52	9605.56
454.70	9556.41
454.89	9668.75
455.07	9612.58
455.26	9816.21
455.44	10136.86
455.62	9757.69
455.81	9792.80
455.99	10146.22
456.17	10045.58
456.36	10015.15
456.54	10333.47
456.73	10207.08
456.91	10291.34
457.09	10218.78
457.28	10377.94
457.46	10410.70
457.64	10401.34
457.83	10143.88
458.01	10176.65
458.19	10675.18
458.38	10504.32
458.56	10817.96
458.74	10864.77
458.93	10597.95
459.11	10574.54
459.29	10696.25
459.48	10747.74
459.66	10743.06
459.84	10913.92
460.03	10960.73
460.21	10846.04
460.39	10878.81
460.57	10871.79
460.76	11162.01
460.94	11119.89
461.12	11037.97
461.31	11302.45
461.49	11112.86
461.67	11066.05
461.85	11042.65
462.04	11119.89
462.22	11571.61
462.40	11712.04
462.59	11609.06
462.77	11414.79
462.95	11297.77
463.13	11304.79
463.32	11482.67
463.50	11562.25
463.68	11683.95
463.86	11826.73
464.05	11623.10
464.23	11492.03
464.41	11662.89
464.59	11527.14
464.78	11967.16
464.96	11988.22
465.14	11719.06
465.32	12140.36
465.50	12065.46
465.69	11932.05
465.87	12231.64
466.05	12065.46
466.23	11868.86
466.41	12241.00
466.60	12402.50
466.78	12039.72
466.96	12145.04
467.14	12238.66
467.32	12166.10
467.51	12496.12
467.69	12159.08
467.87	12376.75
468.05	12453.99
468.23	12266.75
468.41	12421.22
468.60	12648.26
468.78	12711.45
468.96	12470.37
469.14	12905.71
469.32	12767.62
469.50	12709.11
469.69	12830.82
469.87	13032.10
470.05	12971.25
470.23	13294.24
470.41	12903.37
470.59	13308.29
470.77	13207.64
470.95	13167.85
471.14	13451.06
471.32	13074.23
471.50	13359.78
471.68	13448.72
471.86	13652.34
472.04	13535.32
472.22	14085.34
472.40	13532.98
472.58	13638.30
472.77	14029.17
472.95	14017.47
473.13	14551.11
473.31	14026.83
473.49	13998.74
473.67	13659.37
473.85	14305.35
474.03	14373.23
474.21	14602.60
474.39	14848.36
474.57	14745.38
474.75	14602.60
474.93	14881.13
475.12	14895.17
475.30	14939.64
475.48	14693.88
475.66	15276.68
475.84	15171.35
476.02	15489.67
476.20	15545.84
476.38	15611.37
476.56	15955.43
476.74	16077.14
476.92	15702.65
477.10	15550.52
477.28	15964.79
477.46	15948.41
477.64	16086.50
477.82	16528.86
478.00	16950.16
478.18	16716.11
478.36	17018.04
478.54	16884.62
478.72	17135.06
478.90	17128.04
479.08	17408.90
479.26	17530.61
479.44	17715.51
479.62	17715.51
479.80	18242.14
479.98	18059.57
480.16	18368.52
480.34	18146.17
480.52	18539.38
480.70	18574.49
480.88	18459.81
481.06	18710.24
481.24	18930.25
481.41	18944.30
481.59	19150.26
481.77	19468.58
481.95	18948.98
482.13	19632.41
482.31	19648.80
482.49	20210.53
482.67	19974.13
482.85	20144.99
483.03	20563.95
483.21	20467.98
483.39	20975.88
483.57	20460.96
483.74	21223.98
483.92	21027.37
484.10	21130.36
484.28	21694.43
484.46	22003.38
484.64	22228.07
484.82	22197.64
485.00	22157.85
485.18	22661.07
485.35	22752.35
485.53	22733.62
485.71	22445.74
485.89	23300.03
486.07	23262.58
486.25	23218.11
486.43	23791.55
486.61	23805.59
486.78	24219.86
486.96	24290.08
487.14	24269.01
487.32	24339.23
487.50	24872.87
487.68	24709.04
487.85	25125.65
488.03	25497.80
488.21	25905.05
488.39	25699.08
488.57	26338.05
488.75	26012.71
488.92	26293.58
489.10	26817.86
489.28	26979.36
489.46	27077.66
489.64	26838.92
489.81	27751.73
489.99	27536.40
490.17	27517.68
490.35	28226.86
490.53	28084.09
490.70	28240.90
490.88	28074.73
491.06	28732.42
491.24	28737.10
491.41	28748.80
491.59	28723.05
491.77	28940.72
491.95	29357.34
492.13	29441.60
492.30	30008.01
492.48	29820.77
492.66	29668.63
492.84	30471.43
493.01	30455.05
493.19	30221.00
493.37	30937.20
493.54	30815.49
493.72	31489.57
493.90	31318.71
494.08	31379.56
494.25	32203.43
494.43	31854.69
494.61	32252.58
494.79	32301.73
494.96	32620.05
495.14	32430.46
495.32	32793.25
495.49	32973.47
495.67	33282.42
495.85	33436.89
496.02	33539.88
496.20	34073.52
496.38	33736.48
496.55	33961.17
496.73	34668.02
496.91	34094.58
497.09	34782.70
497.26	34696.10
497.44	34714.83
497.62	34923.13
497.79	35934.24
497.97	35232.08
498.14	35885.09
498.32	35777.43
498.50	35707.21
498.67	36437.46
498.85	36301.71
499.03	36739.39
499.20	36201.07
499.38	36797.90
499.56	36549.81
499.73	36708.96
499.91	37352.61
500.08	37476.66
500.26	37310.48
500.44	37326.86
500.61	37504.74
500.79	37544.53
500.97	37825.40
501.14	38029.02
501.32	38153.07
501.49	38274.78
501.67	38518.20
501.84	38525.22
502.02	39037.80
502.20	39115.03
502.37	39035.45
502.55	39189.93
502.72	39332.70
502.90	39351.43
503.07	39409.94
503.25	39267.17
503.43	39452.07
503.60	39751.66
503.78	39674.42
503.95	39833.58
504.13	40704.26
504.30	40322.75
504.48	40201.04
504.65	40561.48
504.83	40488.93
505.01	40741.71
505.18	41092.79
505.36	41383.01
505.53	41045.97
505.71	41305.77
505.88	42064.11
506.06	41331.52
506.23	41717.71
506.41	41596.00
506.58	41617.07
506.76	41933.04
506.93	42195.18
507.11	42281.78
507.28	42309.86
507.46	42344.97
507.63	42667.97
507.81	42483.06
507.98	42375.40
508.16	43021.39
508.33	42953.51
508.50	43278.85
508.68	43559.71
508.85	43653.33
509.03	43604.18
509.20	44088.67
509.38	43910.79
509.55	44149.53
509.73	44409.32
509.90	44238.47
510.08	44329.75
510.25	44034.84
510.42	44526.35
510.60	44893.82
510.77	44914.88
510.95	45254.26
511.12	44912.54
511.30	45151.27
511.47	45340.86
511.64	45329.16
511.82	45713.00
511.99	45188.72
512.17	45453.20
512.34	45305.75
512.51	46185.79
512.69	46005.57
512.86	46433.89
513.04	46094.51
513.21	46096.85
513.38	46068.76
513.56	46543.89
513.73	46948.81
513.90	46920.72
514.08	46609.43
514.25	46845.82
514.43	47391.17
514.60	47107.96
514.77	47285.84
514.95	47611.18
515.12	47276.48
515.29	47615.86
515.47	47718.84
515.64	47798.42
515.81	47709.48
515.99	48083.97
516.16	48060.56
516.33	48128.44
516.51	48231.42
516.68	47786.72
516.85	48575.48
517.03	48275.89
517.20	48781.45
517.37	48615.27
517.54	48732.29
517.72	48708.89
517.89	48914.86
518.06	48156.52
518.24	48952.30
518.41	48800.17
518.58	49237.85
518.75	48952.30
518.93	49408.71
519.10	49191.04
519.27	49434.45
519.45	49724.68
519.62	49628.72
519.79	49710.64
519.96	49940.01
520.14	49635.74
520.31	50106.19
520.48	50211.51
520.65	49944.69
520.83	50277.05
521.00	50593.02
521.17	50384.71
521.34	50459.61
521.52	50740.47
521.69	50710.05
521.86	50337.90
522.03	50820.05
522.20	51185.18
522.38	51274.12
522.55	50806.01
522.72	50869.20
522.89	50745.15
523.07	51412.21
523.24	51215.60
523.41	51728.18
523.58	51037.72
523.75	51571.36
523.92	51639.24
524.10	51639.24
524.27	51901.38
524.44	51852.23
524.61	51938.83
524.78	52203.31
524.96	51973.94
525.13	52200.97
525.30	52158.84
525.47	52505.24
525.64	52158.84
525.81	52523.96
525.98	52788.44
526.16	52484.17
526.33	52439.70
526.50	53083.35
526.67	52732.27
526.84	52638.65
527.01	52631.63
527.18	52584.82
527.36	52685.46
527.53	52734.61
527.70	53249.53
527.87	53209.74
528.04	53237.83
528.21	53291.66
528.38	52985.05
528.55	53357.19
528.72	52999.09
528.89	53123.14
529.07	53153.57
529.24	52903.13
529.41	53642.74
529.58	53509.33
529.75	53528.05
529.92	53333.79
530.09	53638.06
530.26	53968.07
530.43	53680.19
530.60	53481.24
530.77	53724.66
530.94	53813.60
531.11	53602.95
531.28	54047.65
531.46	53916.58
531.63	54082.76
531.80	54017.22
531.97	54307.45
532.14	54300.43
532.31	54089.78
532.48	54389.37
532.65	54361.28
532.82	54443.20
532.99	54585.97
533.16	54604.70
533.33	54588.31
533.50	54635.13
533.67	54581.29
533.84	54569.59
534.01	54665.55
534.18	54567.25
534.35	55103.23
534.52	54923.01
534.69	55065.78
534.86	55098.55
535.03	55030.68
535.20	55072.81
535.37	55030.68
535.54	55227.28
535.71	55234.30
535.88	55119.62
536.05	55157.06
536.22	55454.31
536.38	55416.86
536.55	55370.05
536.72	55309.20
536.89	55550.27
537.06	55461.33
537.23	55363.03
537.40	55419.20
537.57	55510.49
537.74	55655.60
537.91	55880.29
538.08	55695.39
538.25	55515.17
538.42	55889.65
538.59	55894.33
538.75	55746.88
538.92	55847.52
539.09	55861.57
539.26	55987.95
539.43	55976.25
539.60	56102.64
539.77	55964.55
539.94	56493.51
540.11	56252.44
540.28	56322.65
540.44	56140.09
540.61	56364.78
540.78	55957.53
540.95	56479.47
541.12	56140.09
541.29	56425.64
541.46	56608.20
541.62	56458.40
541.79	56332.01
541.96	56346.06
542.13	56332.01
542.30	56467.76
542.47	56505.21
542.63	56807.14
542.80	56470.11
542.97	57134.82
543.14	57237.80
543.31	56947.57
543.48	57045.88
543.64	57434.41
543.81	57286.95
543.98	57331.42
544.15	57095.03
544.32	57415.68
544.48	57542.07
544.65	57275.25
544.82	57272.91
544.99	57205.03
545.16	57436.75
545.32	57190.99
545.49	57434.41
545.66	57521.01
545.83	57425.04
546.00	57556.11
546.16	57378.23
546.33	57481.22
546.50	57343.12
546.67	57808.89
546.83	57324.40
547.00	57455.47
547.17	57415.68
547.34	57680.16
547.50	57731.65
547.67	57961.03
547.84	57764.42
548.00	58073.37
548.17	58082.73
548.34	57712.93
548.51	58052.31
548.67	58080.39
548.84	58183.38
549.01	58042.95
549.18	58188.06
549.34	57975.07
549.51	58387.00
549.68	58136.57
549.84	58309.77
550.01	58225.51
550.18	57918.90
550.34	58326.15
550.51	58321.47
550.68	58087.42
550.84	57904.85
551.01	58515.73
551.18	58384.66
551.34	58330.83
551.51	58281.68
551.68	58370.62
551.84	58468.92
552.01	58230.19
552.18	58688.93
552.34	58394.03
552.51	58665.53
552.68	58267.64
552.84	58487.65
553.01	58812.98
553.18	58717.02
553.34	58717.02
553.51	58515.73
553.67	58614.04
553.84	58763.83
554.01	58932.35
554.17	58841.07
554.34	58794.26
554.51	58922.99
554.67	58845.75
554.84	58899.58
555.00	58791.92
555.17	58869.15
555.33	58904.26
555.50	58873.84
555.67	58953.41
555.83	58864.47
556.00	58894.90
556.16	59269.39
556.33	59203.85
556.50	59011.93
556.66	59178.10
556.83	58988.52
556.99	59334.92
557.16	59552.59
557.32	59360.67
557.49	59351.30
557.65	59217.89
557.82	59262.36
557.98	59290.45
558.15	59217.89
558.32	59456.63
558.48	59339.60
558.65	59274.07
558.81	59201.51
558.98	59456.63
559.14	59203.85
559.31	59615.79
559.47	59568.97
559.64	59377.05
559.80	59622.81
559.97	59543.23
560.13	59297.47
560.30	59618.13
560.46	59632.17
560.63	59707.07
560.79	59735.15
560.96	59568.97
561.12	59749.20
561.29	59798.35
561.45	59777.28
561.61	59805.37
561.78	59613.44
561.94	59550.25
562.11	59613.44
562.27	59812.39
562.44	59746.86
562.60	59831.11
562.77	59803.03
562.93	59704.73
563.10	59861.54
563.26	59653.23
563.42	60114.32
563.59	59756.22
563.75	59913.03
563.92	59950.48
564.08	59882.61
564.24	59945.80
564.41	59943.46
564.57	59990.27
564.74	59908.35
564.90	59927.08
565.07	60224.32
565.23	59976.23
565.39	59889.63
565.56	59950.48
565.72	59828.77
565.88	59999.63
566.05	59891.97
566.21	59985.59
566.38	60275.82
566.54	60163.47
566.70	60107.30
566.87	60175.17
567.03	60011.34
567.19	60411.57
567.36	60163.47
567.52	60189.22
567.68	60470.08
567.85	60254.75
568.01	60266.45
568.17	60289.86
568.34	60329.65
568.50	60090.91
568.66	60140.07
568.83	60306.24
568.99	60268.79
569.15	60388.16
569.32	60416.25
569.48	60331.99
569.64	60217.30
569.81	60388.16
569.97	60257.09
570.13	60165.81
570.30	60114.32
570.46	60154.11
570.62	60453.70
570.78	60214.96
570.95	60285.18
571.11	60486.46
571.27	60383.48
571.43	60348.37
571.60	60584.77
571.76	60313.26
571.92	60484.12
572.09	60474.76
572.25	60559.02
572.41	60392.84
572.57	60596.47
572.74	60601.15
572.90	60339.01
573.06	60425.61
573.22	60441.99
573.38	60355.39
573.55	60512.21
573.71	60662.00
573.87	60685.41
574.03	60608.17
574.20	60591.79
574.36	60404.55
574.52	60568.38
574.68	60680.73
574.84	60488.80
575.01	60786.05
575.17	60530.93
575.33	60383.48
575.49	60418.59
575.65	60804.78
575.82	60781.37
575.98	60584.77
576.14	60685.41
576.30	60746.26
576.46	60544.98
576.62	60559.02
576.79	60729.88
576.95	60449.02
577.11	60814.14
577.27	60729.88
577.43	60879.67
577.59	60439.65
577.75	60645.62
577.92	60659.66
578.08	60603.49
578.24	60601.15
578.40	60779.03
578.56	61064.58
578.72	60671.37
578.88	60867.97
579.04	60870.31
579.21	60654.98
579.37	60767.33
579.53	60963.93
579.69	60427.95
579.85	60889.04
580.01	60764.99
580.17	60570.72
580.33	60924.14
580.49	60807.12
580.65	60748.60
580.82	60575.40
580.98	60683.07
581.14	60615.19
581.30	61043.51
581.46	60673.71
581.62	60856.27
581.78	60720.52
581.94	60764.99
582.10	60924.14
582.26	60584.77
582.42	60643.28
582.58	60748.60
582.74	60741.58
582.90	60673.71
583.06	60933.51
583.22	60556.68
583.38	60912.44
583.54	60776.69
583.70	60706.47
583.86	60736.90
584.02	60669.03
584.18	60832.86
584.34	60919.46
584.50	60638.60
584.66	60697.11
584.82	60704.13
584.98	60762.65
585.14	60748.60
585.30	60886.70
585.46	60907.76
585.62	60821.16
585.78	60977.98
585.94	60713.50
586.10	60907.76
586.26	61015.43
586.42	60900.74
586.58	60800.10
586.74	60825.84
586.90	61062.24
587.06	60708.82
587.22	61080.96
587.38	60942.87
587.54	60921.80
587.70	61078.62
587.86	60970.96
588.02	60811.80
588.18	61020.11
588.34	60767.33
588.49	60931.17
