SpectraSuite Data File
++++++++++++++++++++++++++++++++++++
Date: Fri Oct 25 11:23:11 EDT 2013
User: price-jones
Dark Spectrum Present: No
Reference Spectrum Present: No
Number of Sampled Component Spectra: 1
Spectrometers: USB2+H05261
Integration Time (usec): 100000 (USB2+H05261)
Spectra Averaged: 1 (USB2+H05261)
Boxcar Smoothing: 0 (USB2+H05261)
Correct for Electrical Dark: No (USB2+H05261)
Strobe/Lamp Enabled: No (USB2+H05261)
Correct for Detector Non-linearity: No (USB2+H05261)
Correct for Stray Light: No (USB2+H05261)
Number of Pixels in Processed Spectrum: 2048
>>>>>Begin Processed Spectral Data<<<<<
365.73	262.14
365.92	262.14
366.12	262.14
366.32	194.26
366.52	121.71
366.72	156.82
366.91	105.32
367.11	102.98
367.31	74.90
367.51	124.05
367.70	161.50
367.90	163.84
368.10	105.32
368.30	163.84
368.49	93.62
368.69	114.69
368.89	81.92
369.09	98.30
369.28	119.37
369.48	189.58
369.68	238.73
369.87	227.03
370.07	110.01
370.27	252.78
370.47	353.42
370.66	575.77
370.86	643.65
371.06	638.97
371.25	725.57
371.45	683.44
371.65	681.10
371.84	650.67
372.04	669.39
372.24	723.23
372.44	746.63
372.63	709.18
372.83	753.65
373.03	720.88
373.22	713.86
373.42	734.93
373.62	753.65
373.81	802.80
374.01	807.48
374.21	807.48
374.40	798.12
374.60	870.68
374.79	858.98
374.99	774.72
375.19	851.96
375.38	854.30
375.58	922.17
375.78	889.40
375.97	772.38
376.17	926.85
376.37	931.53
376.56	856.64
376.76	830.89
376.95	887.06
377.15	875.36
377.35	884.72
377.54	908.13
377.74	889.40
377.93	887.06
378.13	933.87
378.33	936.21
378.52	894.08
378.72	905.79
378.91	873.02
379.11	894.08
379.31	976.00
379.50	957.28
379.70	1008.77
379.89	971.32
380.09	947.92
380.28	961.96
380.48	1041.54
380.68	1015.79
380.87	990.05
381.07	1057.92
381.26	1074.31
381.46	1006.43
381.65	983.02
381.85	1076.65
382.04	940.90
382.24	1078.99
382.43	1081.33
382.63	1121.12
382.83	1102.39
383.02	1139.84
383.22	1125.80
383.41	1128.14
383.61	1050.90
383.80	1128.14
384.00	1083.67
384.19	1184.31
384.39	1212.40
384.58	1149.20
384.78	1184.31
384.97	1142.18
385.17	1186.65
385.36	1142.18
385.56	1165.59
385.75	1270.91
385.95	1109.41
386.14	1308.36
386.34	1165.59
386.53	1163.25
386.72	1273.25
386.92	1301.34
387.11	1191.33
387.31	1275.59
387.50	1226.44
387.70	1231.12
387.89	1291.98
388.09	1324.74
388.28	1329.42
388.48	1238.14
388.67	1364.53
388.86	1376.24
389.06	1324.74
389.25	1369.21
389.45	1322.40
389.64	1320.06
389.84	1418.36
390.03	1411.34
390.22	1504.96
390.42	1369.21
390.61	1392.62
390.81	1444.11
391.00	1399.64
391.19	1444.11
391.39	1500.28
391.58	1462.83
391.78	1404.32
391.97	1420.71
392.16	1453.47
392.36	1540.07
392.55	1579.86
392.75	1549.43
392.94	1488.58
393.13	1519.01
393.33	1565.82
393.52	1549.43
393.71	1647.74
393.91	1600.93
394.10	1614.97
394.29	1596.25
394.49	1600.93
394.68	1633.69
394.88	1652.42
395.07	1710.93
395.26	1757.74
395.46	1671.14
395.65	1771.79
395.84	1743.70
396.04	1764.76
396.23	1692.21
396.42	1762.42
396.62	1790.51
396.81	1949.67
397.00	1710.93
397.19	1839.66
397.39	1788.17
397.58	1790.51
397.77	1827.96
397.97	1994.14
398.16	1937.96
398.35	1839.66
398.55	1865.41
398.74	1926.26
398.93	1902.86
399.12	2022.22
399.32	1933.28
399.51	1902.86
399.70	1942.64
399.90	1893.49
400.09	1956.69
400.28	2111.16
400.47	1977.75
400.67	2094.78
400.86	2092.44
401.05	2165.00
401.24	2017.54
401.44	2183.72
401.63	2150.95
401.82	2132.23
402.01	2069.03
402.21	2179.04
402.40	2303.09
402.59	2155.63
402.78	2169.68
402.97	2204.78
403.17	2363.94
403.36	2296.07
403.55	2399.05
403.74	2342.88
403.93	2356.92
404.13	2450.54
404.32	2455.22
404.51	2401.39
404.70	2354.58
404.89	2382.67
405.09	2495.01
405.28	2452.88
405.47	2408.41
405.66	2459.90
405.85	2537.14
406.05	2567.57
406.24	2637.78
406.43	2586.29
406.62	2544.16
406.81	2726.72
407.00	2541.82
407.20	2558.21
407.39	2595.65
407.58	2775.88
407.77	2740.77
407.96	2663.53
408.15	2752.47
408.34	2766.51
408.54	2853.11
408.73	2867.16
408.92	2850.77
409.11	2892.90
409.30	2958.44
409.49	2951.42
409.68	2988.86
409.87	2895.24
410.07	3077.80
410.26	3108.23
410.45	3000.57
410.64	3070.78
410.83	3061.42
411.02	3136.32
411.21	3276.75
411.40	3173.77
411.59	3222.92
411.78	3197.17
411.98	3187.81
412.17	3389.10
412.36	3372.71
412.55	3405.48
412.74	3543.57
412.93	3398.46
413.12	3438.25
413.31	3471.01
413.50	3454.63
413.69	3595.06
413.88	3543.57
414.07	3557.61
414.26	3676.98
414.45	3602.08
414.64	3749.54
414.83	3831.46
415.02	3719.11
415.22	3922.74
415.41	3871.25
415.60	3943.80
415.79	3981.25
415.98	3908.69
416.17	4070.19
416.36	4016.36
416.55	4126.36
416.74	4133.39
416.93	4201.26
417.12	4161.47
417.31	4196.58
417.50	4044.45
417.69	4416.59
417.88	4325.31
418.07	4386.16
418.26	4407.23
418.45	4365.10
418.64	4484.47
418.83	4559.36
419.02	4491.49
419.21	4472.76
419.39	4601.49
419.58	4351.06
419.77	4521.92
419.96	4755.97
420.15	4674.05
420.34	4594.47
420.53	4681.07
420.72	4744.27
420.91	4751.29
421.10	4772.35
421.29	4830.87
421.48	4837.89
421.67	4901.08
421.86	4849.59
422.05	4896.40
422.24	4760.65
422.43	4912.78
422.61	4814.48
422.80	5048.54
422.99	4936.19
423.18	4999.38
423.37	4947.89
423.56	4805.12
423.75	4940.87
423.94	4788.74
424.13	4524.26
424.32	4645.96
424.50	4947.89
424.69	4978.32
424.88	5088.32
425.07	4896.40
425.26	5027.47
425.45	5078.96
425.64	5020.45
425.83	5149.18
426.01	5004.07
426.20	5093.01
426.39	4973.64
426.58	5125.77
426.77	5200.67
426.96	5184.29
427.15	5158.54
427.33	5242.80
427.52	5327.06
427.71	5289.61
427.90	5179.61
428.09	5392.59
428.28	5308.34
428.46	5369.19
428.65	5364.51
428.84	5434.72
429.03	5678.14
429.22	5455.79
429.40	5577.50
429.59	5619.63
429.78	5284.93
429.97	5355.15
430.16	5600.90
430.34	5628.99
430.53	5687.50
430.72	5755.38
430.91	5743.67
431.10	5619.63
431.28	5858.36
431.47	5715.59
431.66	5851.34
431.85	5731.97
432.03	6003.47
432.22	5973.05
432.41	6008.16
432.60	6043.26
432.79	6120.50
432.97	6160.29
433.16	6202.42
433.35	6111.14
433.54	6097.10
433.72	6284.34
433.91	6197.74
434.10	6258.59
434.28	6090.07
434.47	6291.36
434.66	6296.04
434.85	6291.36
435.03	6473.92
435.22	6256.25
435.41	6541.80
435.59	6422.43
435.78	6469.24
435.97	6544.14
436.16	6630.74
436.34	6494.99
436.53	6520.73
436.72	6740.74
436.90	6656.48
437.09	6712.66
437.28	6588.61
437.46	6668.19
437.65	6654.14
437.84	6712.66
438.02	6817.98
438.21	6939.69
438.40	6869.47
438.58	6979.48
438.77	7040.33
438.96	6925.65
439.14	7316.51
439.33	7215.87
439.52	7391.41
439.70	7440.56
439.89	7293.11
440.08	7552.91
440.26	7496.74
440.45	7480.35
440.63	7595.04
440.82	7812.71
441.01	7632.49
441.19	7705.04
441.38	7838.45
441.57	7840.79
441.75	7836.11
441.94	8009.31
442.12	7941.44
442.31	8175.49
442.50	7997.61
442.68	7976.55
442.87	8042.08
443.05	8140.38
443.24	8238.69
443.43	8381.46
443.61	8290.18
443.80	8573.38
443.98	8140.38
444.17	7985.91
444.35	8276.13
444.54	8587.43
444.73	8468.06
444.91	8446.99
445.10	8397.84
445.28	8374.44
445.47	8304.22
445.65	8444.65
445.84	8456.36
446.02	8496.14
446.21	8477.42
446.39	8325.29
446.58	8564.02
446.77	8699.77
446.95	8325.29
447.14	8613.17
447.32	8704.45
447.51	8498.49
447.69	8535.93
447.88	8685.73
448.06	8793.39
448.25	8587.43
448.43	8681.05
448.62	8718.50
448.80	8554.66
448.99	8765.31
449.17	8898.72
449.36	8676.37
449.54	9043.83
449.73	8961.91
449.91	9029.79
450.10	9104.68
450.28	9090.64
450.46	9062.55
450.65	9163.20
450.83	9179.58
451.02	9090.64
451.20	9245.12
451.39	9315.33
451.57	9287.25
451.76	9305.97
451.94	9331.72
452.13	9488.53
452.31	9289.59
452.49	9221.71
452.68	9434.70
452.86	9451.08
453.05	9521.30
453.23	9612.58
453.42	9401.93
453.60	9544.70
453.78	9633.64
453.97	9259.16
454.15	9621.94
454.34	9589.17
454.52	10017.49
454.70	9841.95
454.89	9736.63
455.07	9804.50
455.26	10012.81
455.44	10218.78
455.62	10031.54
455.81	10113.45
455.99	10174.31
456.17	10340.49
456.36	10279.63
456.54	10143.88
456.73	10244.52
456.91	10654.12
457.09	10537.09
457.28	10588.58
457.46	10429.43
457.64	10874.13
457.83	10438.79
458.01	10558.16
458.19	10815.62
458.38	10757.10
458.56	10839.02
458.74	10656.46
458.93	10595.61
459.11	10906.90
459.29	10684.55
459.48	10820.30
459.66	10885.83
459.84	11033.29
460.03	11000.52
460.21	11028.60
460.39	11297.77
460.57	11243.93
460.76	11314.15
460.94	11162.01
461.12	11269.68
461.31	11243.93
461.49	11344.58
461.67	11358.62
461.85	11700.34
462.04	11321.17
462.22	11660.55
462.40	11723.74
462.59	11840.77
462.77	11463.94
462.95	11658.21
463.13	11763.53
463.32	11819.71
463.50	12030.35
463.68	12065.46
463.86	12053.76
464.05	12002.27
464.23	11758.85
464.41	11845.45
464.59	11850.13
464.78	12292.49
464.96	12095.89
465.14	11875.88
465.32	12152.06
465.50	12266.75
465.69	12425.90
465.87	11981.20
466.05	12280.79
466.23	12222.28
466.41	12327.60
466.60	12535.91
466.78	12437.61
466.96	12531.23
467.14	12325.26
467.32	12608.47
467.51	12821.45
467.69	12472.71
467.87	12772.30
468.05	12791.03
468.23	12774.64
468.41	12545.27
468.60	12645.91
468.78	12844.86
468.96	12769.96
469.14	12999.34
469.32	13160.83
469.50	12678.68
469.69	12945.50
469.87	13327.01
470.05	13296.58
470.23	13282.54
470.41	13422.97
470.59	13331.69
470.77	13514.25
470.95	13757.67
471.14	13650.00
471.32	13085.94
471.50	13724.90
471.68	13729.58
471.86	13664.05
472.04	13708.52
472.22	14298.33
472.40	13832.57
472.58	14012.79
472.77	14120.45
472.95	14155.56
473.13	14752.40
473.31	14303.01
473.49	14331.10
473.67	14146.20
473.85	14518.34
474.03	14991.13
474.21	14396.64
474.39	15080.07
474.57	14899.85
474.75	15084.75
474.93	15131.56
475.12	15140.93
475.30	15410.09
475.48	15321.15
475.66	15374.98
475.84	15248.59
476.02	15534.14
476.20	15573.92
476.38	15957.77
476.56	16081.82
476.74	16245.66
476.92	15594.99
477.10	15976.50
477.28	16542.91
477.46	16276.09
477.64	16599.08
477.82	16634.19
478.00	17331.67
478.18	17095.27
478.36	17177.19
478.54	17837.22
478.72	17528.27
478.90	17610.19
479.08	17844.24
479.26	17642.96
479.44	17837.22
479.62	18052.55
479.80	18200.01
479.98	18192.98
480.16	18754.71
480.34	18546.40
480.52	18759.39
480.70	18560.45
480.88	18333.42
481.06	19129.20
481.24	19159.63
481.41	19381.98
481.59	19384.32
481.77	19693.27
481.95	19538.79
482.13	20051.37
482.31	19927.32
482.49	20437.56
482.67	20318.19
482.85	20643.52
483.03	20872.90
483.21	20989.92
483.39	21261.43
483.57	21287.17
483.74	21401.86
483.92	21589.10
484.10	21558.67
484.28	21795.07
484.46	22183.60
484.64	22338.07
484.82	22284.24
485.00	22785.12
485.18	23061.30
485.35	23290.67
485.53	22860.01
485.71	23321.10
485.89	23740.05
486.07	23349.18
486.25	23920.28
486.43	23964.75
486.61	24060.71
486.78	24414.13
486.96	24547.54
487.14	24856.49
487.32	24844.79
487.50	25235.66
487.68	25273.10
487.85	25312.89
488.03	26106.34
488.21	25940.16
488.39	26136.76
488.57	26604.87
488.75	26597.85
488.92	27236.81
489.10	27047.23
489.28	27112.77
489.46	27644.07
489.64	27281.28
489.81	28046.64
489.99	27882.80
490.17	27777.48
490.35	28320.48
490.53	28814.34
490.70	28481.98
490.88	28421.13
491.06	29034.35
491.24	29106.90
491.41	29165.42
491.59	29593.73
491.77	29345.64
491.95	29844.17
492.13	30366.11
492.30	30293.55
492.48	30169.51
492.66	30246.74
492.84	30630.59
493.01	31087.00
493.19	31016.78
493.37	31269.56
493.54	31700.22
493.72	31988.10
493.90	31758.73
494.08	31772.77
494.25	32243.22
494.43	32130.87
494.61	32332.16
494.79	32687.92
494.96	32748.78
495.14	33425.19
495.32	33802.02
495.49	33584.35
495.67	33652.22
495.85	34244.38
496.02	33996.28
496.20	34195.23
496.38	34197.57
496.55	34380.13
496.73	35157.19
496.91	35145.48
497.09	35161.87
497.26	35157.19
497.44	35487.20
497.62	35826.58
497.79	36264.26
497.97	35810.20
498.14	36598.96
498.32	36800.24
498.50	37003.87
498.67	36957.06
498.85	37200.47
499.03	37544.53
499.20	37158.34
499.38	37762.20
499.56	37303.46
499.73	37570.28
499.91	37830.08
500.08	37902.64
500.26	37607.73
500.44	38227.97
500.61	38305.21
500.79	38022.00
500.97	38574.37
501.14	39051.84
501.32	39124.40
501.49	39201.63
501.67	38885.66
501.84	39210.99
502.02	39077.58
502.20	39243.76
502.37	39732.93
502.55	39627.61
502.72	40156.57
502.90	40072.31
503.07	39620.59
503.25	40467.86
503.43	40238.49
503.60	40804.90
503.78	40900.86
503.95	40664.47
504.13	40959.38
504.30	40727.66
504.48	41104.49
504.65	41467.27
504.83	41546.85
505.01	41558.55
505.18	41502.38
505.36	42218.58
505.53	41219.17
505.71	42171.77
505.88	41923.68
506.06	42003.25
506.23	42309.86
506.41	42029.00
506.58	42291.14
506.76	42674.99
506.93	42646.90
507.11	42728.82
507.28	43171.18
507.46	43302.25
507.63	43217.99
507.81	44060.58
507.98	43576.09
508.16	43789.08
508.33	44002.07
508.50	44301.66
508.68	44226.76
508.85	44435.07
509.03	44369.54
509.20	44554.44
509.38	44868.07
509.55	44720.62
509.73	45062.33
509.90	45324.47
510.08	45280.00
510.25	45188.72
510.42	45301.07
510.60	45139.57
510.77	45382.99
510.95	45806.62
511.12	45329.16
511.30	45713.00
511.47	45776.20
511.64	46038.34
511.82	46333.24
511.99	46398.78
512.17	46277.07
512.34	46178.77
512.51	46560.28
512.69	46796.67
512.86	47091.58
513.04	47103.28
513.21	46738.16
513.38	47346.70
513.56	47253.08
513.73	47290.52
513.90	47402.87
514.08	47297.55
514.25	47636.92
514.43	47950.56
514.60	47889.70
514.77	47611.18
514.95	48177.59
515.12	48191.63
515.29	48222.06
515.47	48437.39
515.64	48568.46
515.81	48453.77
515.99	48446.75
516.16	48603.56
516.33	49085.72
516.51	49184.02
516.68	49076.35
516.85	49078.69
517.03	49116.14
517.20	49642.76
517.37	49202.74
517.54	49918.95
517.72	49284.66
517.89	49448.50
518.06	50035.97
518.24	49532.76
518.41	49797.24
518.58	49708.30
518.75	50054.70
518.93	49837.03
519.10	50017.25
519.27	50197.47
519.45	49949.37
519.62	50466.63
519.79	50307.47
519.96	50616.43
520.14	50457.27
520.31	50740.47
520.48	50621.11
520.65	50616.43
520.83	51391.14
521.00	51138.36
521.17	51133.68
521.34	51028.36
521.52	51016.66
521.69	51208.58
521.86	51604.13
522.03	51480.08
522.20	51908.40
522.38	51709.46
522.55	51636.90
522.72	51760.95
522.89	51746.90
523.07	52114.37
523.24	51782.01
523.41	52247.78
523.58	51938.83
523.75	52355.44
523.92	52299.27
524.10	52533.32
524.27	52428.00
524.44	52442.04
524.61	52451.41
524.78	52533.32
524.96	52685.46
525.13	52718.23
525.30	52706.52
525.47	52891.43
525.64	52926.53
525.81	53167.61
525.98	53071.65
526.16	52790.78
526.33	53298.68
526.50	53499.97
526.67	53174.63
526.84	53411.02
527.01	53179.31
527.18	53640.40
527.36	53242.51
527.53	53268.25
527.70	53942.33
527.87	53499.97
528.04	53638.06
528.21	53722.32
528.38	53879.13
528.55	53951.69
528.72	53755.08
528.89	53862.75
529.07	53939.99
529.24	53415.71
529.41	54103.82
529.58	54113.19
529.75	54117.87
529.92	53956.37
530.09	54354.26
530.26	54356.60
530.43	54270.00
530.60	54220.85
530.77	54213.83
530.94	54492.35
531.11	54288.73
531.28	54485.33
531.46	54585.97
531.63	54574.27
531.80	54756.83
531.97	54796.62
532.14	54789.60
532.31	54831.73
532.48	54733.43
532.65	55030.68
532.82	54869.18
532.99	55150.04
533.16	55103.23
533.33	54791.94
533.50	55332.60
533.67	55196.85
533.84	55220.26
534.01	55171.11
534.18	55327.92
534.35	55908.38
534.52	55267.07
534.69	55615.81
534.86	55590.06
535.03	55341.97
535.20	55496.44
535.37	55447.29
535.54	55814.76
535.71	55482.40
535.88	55735.18
536.05	55810.07
536.22	55990.30
536.38	56069.87
536.55	55999.66
536.72	55929.44
536.89	55889.65
537.06	55957.53
537.23	56116.68
537.40	55915.40
537.57	56186.90
537.74	55985.61
537.91	56243.07
538.08	56296.91
538.25	56090.94
538.42	56299.25
538.59	56203.28
538.75	56257.12
538.92	56416.27
539.09	56542.66
539.26	56657.35
539.43	56427.98
539.60	56444.36
539.77	56612.88
539.94	56697.14
540.11	56762.67
540.28	56561.39
540.44	56580.11
540.61	56767.35
540.78	56793.10
540.95	56781.40
541.12	56739.27
541.29	56968.64
541.46	56788.42
541.62	57055.24
541.79	56889.06
541.96	56589.47
542.13	56739.27
542.30	56992.04
542.47	57134.82
542.63	57212.06
542.80	57303.34
542.97	57326.74
543.14	57457.81
543.31	57570.16
543.48	57649.74
543.64	57638.03
543.81	57516.32
543.98	57670.80
544.15	57811.23
544.32	57764.42
544.48	57836.98
544.65	57722.29
544.82	57663.78
544.99	57745.70
545.16	57722.29
545.32	57897.83
545.49	57972.73
545.66	58204.44
545.83	58031.24
546.00	57904.85
546.16	58035.92
546.33	57764.42
546.50	57804.21
546.67	58162.31
546.83	57813.57
547.00	58005.50
547.17	58087.42
547.34	58064.01
547.50	58141.25
547.67	58532.12
547.84	58223.17
548.00	58379.98
548.17	58431.47
548.34	58417.43
548.51	58738.08
548.67	58471.26
548.84	58365.94
549.01	58363.60
549.18	58368.28
549.34	58663.19
549.51	58686.59
549.68	58525.10
549.84	58459.56
550.01	58798.94
550.18	58623.40
550.34	58782.55
550.51	58812.98
550.68	58597.65
550.84	58546.16
551.01	58731.06
551.18	58815.32
551.34	58988.52
551.51	58944.05
551.68	58829.37
551.84	58876.18
552.01	58908.94
552.18	58997.88
552.34	58686.59
552.51	58953.41
552.68	58841.07
552.84	59011.93
553.01	59285.77
553.18	59068.10
553.34	59077.46
553.51	59014.27
553.67	58967.46
553.84	59271.73
554.01	59164.06
554.17	59135.98
554.34	59405.14
554.51	59433.22
554.67	59290.45
554.84	59253.00
555.00	59231.94
555.17	59157.04
555.33	59217.89
555.50	59110.23
555.67	59402.80
555.83	59311.52
556.00	59451.95
556.16	59676.64
556.33	59484.72
556.50	59725.79
556.66	59667.28
556.83	59374.71
556.99	59664.94
557.16	59842.82
557.32	59632.17
557.49	59800.69
557.65	59716.43
557.82	59737.49
557.98	59423.86
558.15	59641.53
558.32	59943.46
558.48	59451.95
558.65	59913.03
558.81	59728.13
558.98	59826.43
559.14	59985.59
559.31	59824.09
559.47	59791.33
559.64	60151.77
559.80	59985.59
559.97	59875.58
560.13	59812.39
560.30	59889.63
560.46	60074.53
560.63	60074.53
560.79	60095.60
560.96	60123.68
561.12	59920.05
561.29	60236.03
561.45	60317.95
561.61	60095.60
561.78	60130.70
561.94	60168.15
562.11	60140.07
562.27	60285.18
562.44	60282.84
562.60	60154.11
562.77	60097.94
562.93	60100.28
563.10	60425.61
563.26	60079.21
563.42	60493.49
563.59	60331.99
563.75	60362.42
563.92	60456.04
564.08	60198.58
564.24	60477.10
564.41	60399.86
564.57	60371.78
564.74	60406.89
564.90	60254.75
565.07	60289.86
565.23	60336.67
565.39	60362.42
565.56	60348.37
565.72	60411.57
565.88	60339.01
566.05	60439.65
566.21	60198.58
566.38	60591.79
566.54	60685.41
566.70	60453.70
566.87	60509.87
567.03	60521.57
567.19	60720.52
567.36	60570.72
567.52	60533.28
567.68	60821.16
567.85	60762.65
568.01	60893.72
568.17	60458.38
568.34	60722.86
568.50	60673.71
568.66	60533.28
568.83	60640.94
568.99	60654.98
569.15	60624.56
569.32	60603.49
569.48	60512.21
569.64	60849.25
569.81	60577.75
569.97	60500.51
570.13	60619.88
570.30	60652.64
570.46	60788.39
570.62	60762.65
570.78	60561.36
570.95	60842.23
571.11	60935.85
571.27	60893.72
571.43	60783.71
571.60	60837.54
571.76	60835.20
571.92	60938.19
572.09	60931.17
572.25	60720.52
572.41	60713.50
572.57	60938.19
572.74	61130.11
572.90	60940.53
573.06	61095.00
573.22	60877.33
573.38	60886.70
573.55	60956.91
573.71	61221.39
573.87	61078.62
574.03	60697.11
574.20	60769.67
574.36	60926.49
574.52	60956.91
574.68	61017.77
574.84	61097.34
575.01	61052.87
575.17	61031.81
575.33	61092.66
575.49	60968.61
575.65	61158.20
575.82	61057.56
575.98	61087.98
576.14	60949.89
576.30	61230.75
576.46	60942.87
576.62	61036.49
576.79	60874.99
576.95	60999.04
577.11	61013.08
577.27	61118.41
577.43	61132.45
577.59	60977.98
577.75	61020.11
577.92	61001.38
578.08	61083.30
578.24	61132.45
578.40	61155.86
578.56	61286.93
578.72	61015.43
578.88	61331.40
579.04	61291.61
579.21	61038.83
579.37	61345.44
579.53	61275.22
579.69	60973.30
579.85	61041.17
580.01	61350.12
580.17	61111.39
580.33	61249.48
580.49	61368.85
580.65	61162.88
580.82	61125.43
580.98	61132.45
581.14	61087.98
581.30	61165.22
581.46	61188.63
581.62	61172.24
581.78	61240.12
581.94	61373.53
582.10	61324.38
582.26	61310.33
582.42	61172.24
582.58	61181.60
582.74	61228.41
582.90	61104.37
583.06	61186.28
583.22	60800.10
583.38	61324.38
583.54	61242.46
583.70	61338.42
583.86	61270.54
584.02	61125.43
584.18	61265.86
584.34	61113.73
584.50	61338.42
584.66	61024.79
584.82	61031.81
584.98	61373.53
585.14	61429.70
585.30	61153.52
585.46	61296.29
585.62	61284.59
585.78	61425.02
585.94	61240.12
586.10	61258.84
586.26	61242.46
586.42	61305.65
586.58	61268.20
586.74	61282.25
586.90	61293.95
587.06	61216.71
587.22	61223.73
587.38	61326.72
587.54	61331.40
587.70	61350.12
587.86	61312.67
588.02	61279.91
588.18	61560.77
588.34	61401.61
