SpectraSuite Data File
++++++++++++++++++++++++++++++++++++
Date: Fri Oct 25 11:33:35 EDT 2013
User: price-jones
Dark Spectrum Present: No
Reference Spectrum Present: No
Number of Sampled Component Spectra: 1
Spectrometers: USB2+H05261
Integration Time (usec): 100000 (USB2+H05261)
Spectra Averaged: 1 (USB2+H05261)
Boxcar Smoothing: 0 (USB2+H05261)
Correct for Electrical Dark: No (USB2+H05261)
Strobe/Lamp Enabled: No (USB2+H05261)
Correct for Detector Non-linearity: No (USB2+H05261)
Correct for Stray Light: No (USB2+H05261)
Number of Pixels in Processed Spectrum: 2048
>>>>>Begin Processed Spectral Data<<<<<
365.73	264.48
365.92	264.48
366.12	264.48
366.32	173.20
366.52	210.65
366.72	175.54
366.91	187.24
367.11	203.63
367.31	210.65
367.51	163.84
367.70	229.37
367.90	163.84
368.10	156.82
368.30	182.56
368.49	210.65
368.69	245.76
368.89	182.56
369.09	168.52
369.28	243.42
369.48	182.56
369.68	196.60
369.87	262.14
370.07	283.20
370.27	315.97
370.47	290.23
370.66	505.56
370.86	535.98
371.06	582.79
371.25	566.41
371.45	486.83
371.65	606.20
371.84	526.62
372.04	564.07
372.24	650.67
372.44	622.58
372.63	538.32
372.83	585.13
373.03	573.43
373.22	613.22
373.42	592.16
373.62	638.97
373.81	615.56
374.01	613.22
374.21	706.84
374.40	645.99
374.60	610.88
374.79	622.58
374.99	706.84
375.19	638.97
375.38	655.35
375.58	716.20
375.78	690.46
375.97	695.14
376.17	678.76
376.37	755.99
376.56	671.73
376.76	603.86
376.95	667.05
377.15	690.46
377.35	683.44
377.54	613.22
377.74	713.86
377.93	716.20
378.13	648.33
378.33	650.67
378.52	706.84
378.72	695.14
378.91	786.42
379.11	716.20
379.31	653.01
379.50	643.65
379.70	772.38
379.89	765.36
380.09	718.54
380.28	727.91
380.48	772.38
380.68	718.54
380.87	702.16
381.07	730.25
381.26	753.65
381.46	795.78
381.65	863.66
381.85	706.84
382.04	695.14
382.24	716.20
382.43	744.29
382.63	755.99
382.83	732.59
383.02	800.46
383.22	828.55
383.41	723.23
383.61	720.88
383.80	905.79
384.00	823.87
384.19	767.70
384.39	847.27
384.58	805.14
384.78	830.89
384.97	793.44
385.17	744.29
385.36	823.87
385.56	835.57
385.75	833.23
385.95	791.10
386.14	882.38
386.34	851.96
386.53	856.64
386.72	863.66
386.92	887.06
387.11	791.10
387.31	926.85
387.50	924.51
387.70	901.11
387.89	933.87
388.09	837.91
388.28	908.13
388.48	950.26
388.67	936.21
388.86	884.72
389.06	891.74
389.25	978.34
389.45	940.90
389.64	936.21
389.84	936.21
390.03	947.92
390.22	980.68
390.42	966.64
390.61	1015.79
390.81	968.98
391.00	961.96
391.19	968.98
391.39	1020.47
391.58	1006.43
391.78	976.00
391.97	1088.35
392.16	952.60
392.36	1041.54
392.55	1086.01
392.75	1043.88
392.94	1097.71
393.13	1151.54
393.33	959.62
393.52	1086.01
393.71	1095.37
393.91	1153.88
394.10	1029.84
394.29	1060.26
394.49	1102.39
394.68	1137.50
394.88	1198.35
395.07	1107.07
395.26	1181.97
395.46	1153.88
395.65	1137.50
395.84	1266.23
396.04	1212.40
396.23	1149.20
396.42	1217.08
396.62	1179.63
396.81	1259.21
397.00	1137.50
397.19	1282.61
397.39	1235.80
397.58	1275.59
397.77	1184.31
397.97	1270.91
398.16	1299.00
398.35	1313.04
398.55	1245.16
398.74	1238.14
398.93	1406.66
399.12	1341.13
399.32	1280.27
399.51	1301.34
399.70	1345.81
399.90	1315.38
400.09	1320.06
400.28	1420.71
400.47	1355.17
400.67	1448.79
400.86	1413.68
401.05	1437.09
401.24	1451.13
401.44	1416.02
401.63	1401.98
401.82	1427.73
402.01	1481.56
402.21	1394.96
402.40	1535.39
402.59	1544.75
402.78	1453.47
402.97	1509.65
403.17	1561.14
403.36	1519.01
403.55	1572.84
403.74	1591.56
403.93	1537.73
404.13	1523.69
404.32	1561.14
404.51	1633.69
404.70	1771.79
404.89	1701.57
405.09	1661.78
405.28	1666.46
405.47	1657.10
405.66	1827.96
405.85	1717.95
406.05	1764.76
406.24	1837.32
406.43	1750.72
406.62	1774.13
406.81	1954.35
407.00	1837.32
407.20	1809.23
407.39	1743.70
407.58	1837.32
407.77	1825.62
407.96	1870.09
408.15	1856.04
408.34	1790.51
408.54	1895.83
408.73	1881.79
408.92	1919.24
409.11	1912.22
409.30	1991.80
409.49	2047.97
409.68	1987.11
409.87	2031.58
410.07	2076.06
410.26	2031.58
410.45	2073.71
410.64	2111.16
410.83	2111.16
411.02	2087.76
411.21	2125.21
411.40	2146.27
411.59	2235.21
411.78	2200.10
411.98	2239.89
412.17	2282.02
412.36	2284.36
412.55	2382.67
412.74	2401.39
412.93	2324.15
413.12	2338.20
413.31	2448.20
413.50	2293.72
413.69	2429.48
413.88	2509.05
414.07	2518.42
414.26	2483.31
414.45	2527.78
414.64	2497.35
414.83	2597.99
415.02	2623.74
415.22	2616.72
415.41	2703.32
415.60	2724.38
415.79	2619.06
415.98	2759.49
416.17	2719.70
416.36	2883.54
416.55	2794.60
416.74	2754.81
416.93	2710.34
417.12	2818.00
417.31	2855.45
417.50	2913.97
417.69	3021.63
417.88	2937.37
418.07	2841.41
418.26	2841.41
418.45	2953.76
418.64	3119.93
418.83	2949.08
419.02	2960.78
419.21	3030.99
419.39	3045.04
419.58	3014.61
419.77	3206.53
419.96	3255.69
420.15	3187.81
420.34	3218.24
420.53	3342.28
420.72	3229.94
420.91	3295.47
421.10	3253.34
421.29	3316.54
421.48	3269.73
421.67	3365.69
421.86	3206.53
422.05	3377.39
422.24	3342.28
422.43	3274.41
422.61	3344.63
422.80	3311.86
422.99	3368.03
423.18	3445.27
423.37	3400.80
423.56	3463.99
423.75	3478.04
423.94	3386.76
424.13	3222.92
424.32	3440.59
424.50	3508.46
424.69	3604.42
424.88	3616.13
425.07	3424.20
425.26	3344.63
425.45	3323.56
425.64	3309.52
425.83	3410.16
426.01	3384.41
426.20	3527.19
426.39	3513.14
426.58	3520.17
426.77	3489.74
426.96	3445.27
427.15	3627.83
427.33	3552.93
427.52	3480.38
427.71	3777.62
427.90	3623.15
428.09	3564.64
428.28	3702.73
428.46	3632.51
428.65	3660.60
428.84	3974.23
429.03	3810.39
429.22	3627.83
429.40	3817.41
429.59	3686.34
429.78	3735.50
429.97	3611.45
430.16	3672.30
430.34	3845.50
430.53	3847.84
430.72	3777.62
430.91	3918.06
431.10	3864.22
431.28	3995.29
431.47	3990.61
431.66	4025.72
431.85	3995.29
432.03	4234.03
432.22	4264.46
432.41	3985.93
432.60	4032.74
432.79	4079.55
432.97	4107.64
433.16	4292.54
433.35	4168.49
433.54	4358.08
433.72	4304.25
433.91	4269.14
434.10	4287.86
434.28	4168.49
434.47	4339.35
434.66	4304.25
434.85	4395.53
435.03	4442.34
435.22	4236.37
435.41	4447.02
435.59	4451.70
435.78	4367.44
435.97	4482.13
436.16	4500.85
436.34	4423.61
436.53	4353.40
436.72	4465.74
436.90	4533.62
437.09	4505.53
437.28	4442.34
437.46	4402.55
437.65	4444.68
437.84	4667.03
438.02	4601.49
438.21	4638.94
438.40	4484.47
438.58	4533.62
438.77	4795.76
438.96	4634.26
439.14	4896.40
439.33	4744.27
439.52	4812.14
439.70	4980.66
439.89	4910.44
440.08	4957.25
440.26	5008.75
440.45	4983.00
440.63	5121.09
440.82	5210.03
441.01	5254.50
441.19	5200.67
441.38	5231.10
441.57	5200.67
441.75	5277.91
441.94	5420.68
442.12	5453.45
442.31	5359.83
442.50	5380.89
442.68	5411.32
442.87	5582.18
443.05	5476.85
443.24	5528.35
443.43	5453.45
443.61	5731.97
443.80	5720.27
443.98	5453.45
444.17	5301.31
444.35	5488.56
444.54	5659.42
444.73	5638.35
444.91	5582.18
445.10	5481.53
445.28	5565.79
445.47	5661.76
445.65	5633.67
445.84	5741.33
446.02	5860.70
446.21	5717.93
446.39	5575.16
446.58	5891.13
446.77	5738.99
446.95	5586.86
447.14	5673.46
447.32	5888.79
447.51	5816.23
447.69	5657.07
447.88	5717.93
448.06	5870.06
448.25	5643.03
448.43	5846.66
448.62	5858.36
448.80	5823.25
448.99	5769.42
449.17	5923.90
449.36	5846.66
449.54	5930.92
449.73	6099.44
449.91	6153.27
450.10	6092.41
450.28	6134.54
450.46	6132.20
450.65	6200.08
450.83	6160.29
451.02	6167.31
451.20	6197.74
451.39	6015.18
451.57	6211.78
451.76	6104.12
451.94	6174.33
452.13	6450.52
452.31	6298.38
452.49	6235.19
452.68	6314.77
452.86	6324.13
453.05	6272.64
453.23	6513.71
453.42	6380.30
453.60	6319.45
453.78	6548.82
453.97	6361.58
454.15	6392.00
454.34	6356.90
454.52	6558.18
454.70	6586.27
454.89	6579.25
455.07	6576.91
455.26	6455.20
455.44	6689.25
455.62	6712.66
455.81	6612.01
455.99	6661.16
456.17	6885.86
456.36	6658.82
456.54	6848.41
456.73	6871.81
456.91	6944.37
457.09	6899.90
457.28	7068.42
457.46	6960.75
457.64	7157.36
457.83	7042.67
458.01	6977.14
458.19	7314.17
458.38	7089.48
458.56	7265.02
458.74	7021.61
458.93	7220.55
459.11	7169.06
459.29	7295.45
459.48	7258.00
459.66	7206.51
459.84	7426.52
460.03	7513.12
460.21	7372.69
460.39	7438.22
460.57	7515.46
460.76	7548.23
460.94	7517.80
461.12	7403.11
461.31	7597.38
461.49	7377.37
461.67	7466.31
461.85	7602.06
462.04	7716.75
462.22	7997.61
462.40	7730.79
462.59	7667.60
462.77	7716.75
462.95	7765.90
463.13	7861.86
463.32	7716.75
463.50	7786.96
463.68	7779.94
463.86	8011.65
464.05	7641.85
464.23	7882.92
464.41	7978.89
464.59	7831.43
464.78	8058.46
464.96	7999.95
465.14	7901.65
465.32	7812.71
465.50	8257.41
465.69	8238.69
465.87	8187.19
466.05	7960.16
466.23	8210.60
466.41	7962.50
466.60	8397.84
466.78	8131.02
466.96	8184.85
467.14	8124.00
467.32	8540.61
467.51	8446.99
467.69	8234.00
467.87	8327.63
468.05	8365.07
468.23	8313.58
468.41	8379.12
468.60	8559.34
468.78	8428.27
468.96	8428.27
469.14	8535.93
469.32	8802.75
469.50	8468.06
469.69	8828.50
469.87	8798.07
470.05	8657.64
470.23	8720.84
470.41	8891.70
470.59	8905.74
470.77	8765.31
470.95	8905.74
471.14	8940.85
471.32	8891.70
471.50	9001.70
471.68	9022.77
471.86	9062.55
472.04	9170.22
472.22	9233.41
472.40	9144.47
472.58	9268.52
472.77	9369.16
472.95	9411.29
473.13	9699.18
473.31	9493.21
473.49	9495.55
473.67	9376.19
473.85	9778.76
474.03	9654.71
474.21	9717.90
474.39	9760.03
474.57	9757.69
474.75	9753.01
474.93	10200.05
475.12	9956.64
475.30	9989.41
475.48	9909.83
475.66	10073.67
475.84	10094.73
476.02	10188.35
476.20	10366.23
476.38	10377.94
476.56	10593.26
476.74	10689.23
476.92	10633.05
477.10	10579.22
477.28	10490.28
477.46	10827.32
477.64	10813.28
477.82	10855.40
478.00	11133.93
478.18	11206.48
478.36	11349.26
478.54	11477.99
478.72	11279.04
478.90	11382.03
479.08	11775.24
479.26	11810.34
479.44	11845.45
479.62	11974.18
479.80	11920.35
479.98	11934.39
480.16	12374.41
480.34	12273.77
480.52	12531.23
480.70	12217.60
480.88	12336.96
481.06	12418.88
481.24	12650.60
481.41	12802.73
481.59	12716.13
481.77	13029.76
481.95	12746.56
482.13	13074.23
482.31	13027.42
482.49	13429.99
482.67	13373.82
482.85	13614.90
483.03	13516.59
483.21	13586.81
483.39	13736.60
483.57	13729.58
483.74	13802.14
483.92	13912.14
484.10	13877.04
484.28	14265.57
484.46	14654.09
484.64	14649.41
484.82	14377.91
485.00	14576.86
485.18	15068.37
485.35	15152.63
485.53	14888.15
485.71	15180.71
485.89	15515.41
486.07	15419.45
486.25	15492.01
486.43	15557.54
486.61	15726.06
486.78	16049.05
486.96	15763.51
487.14	16056.08
487.32	16383.75
487.50	16198.85
487.68	16414.18
487.85	16552.27
488.03	16805.05
488.21	17186.55
488.39	16833.13
488.57	16952.50
488.75	17022.72
488.92	17366.78
489.10	17827.86
489.28	17539.97
489.46	17703.81
489.64	17855.95
489.81	18342.78
489.99	18230.43
490.17	18487.89
490.35	18504.28
490.53	18401.29
490.70	18670.45
490.88	18822.59
491.06	18654.07
491.24	18808.54
491.41	18995.79
491.59	19506.02
491.77	19183.03
491.95	19276.65
492.13	19482.62
492.30	19686.25
492.48	19711.99
492.66	19903.92
492.84	19941.36
493.01	20212.87
493.19	19990.52
493.37	20435.22
493.54	20233.93
493.72	20699.70
493.90	20767.57
494.08	20669.27
494.25	21006.31
494.43	20863.54
494.61	21088.23
494.79	21149.08
494.96	21376.11
495.14	21511.86
495.32	21603.14
495.49	21855.92
495.67	21816.13
495.85	22022.10
496.02	22148.49
496.20	22579.15
496.38	22672.77
496.55	22696.17
496.73	22654.05
496.91	22560.42
497.09	22745.33
497.26	22871.72
497.44	23000.44
497.62	23084.70
497.79	23185.35
497.97	23082.36
498.14	23388.97
498.32	23983.47
498.50	23864.10
498.67	24093.47
498.85	23520.04
499.03	23889.85
499.20	24086.45
499.38	24245.61
499.56	24252.63
499.73	24416.47
499.91	24336.89
500.08	24779.25
500.26	24615.41
500.44	24716.06
500.61	24655.20
500.79	24727.76
500.97	24734.78
501.14	25563.33
501.32	25275.45
501.49	25228.63
501.67	25130.33
501.84	25603.12
502.02	25469.71
502.20	25687.38
502.37	25811.43
502.55	25631.21
502.72	26148.46
502.90	26155.49
503.07	26181.23
503.25	26160.17
503.43	26066.55
503.60	26108.68
503.78	26618.91
503.95	26391.88
504.13	26644.66
504.30	26632.96
504.48	27058.93
504.65	26958.29
504.83	27044.89
505.01	27253.20
505.18	27236.81
505.36	27498.95
505.53	27323.41
505.71	27065.96
505.88	27541.08
506.06	27363.20
506.23	27908.55
506.41	27349.16
506.58	27592.58
506.76	27754.07
506.93	28290.06
507.11	27967.06
507.28	28058.34
507.46	28280.69
507.63	28416.44
507.81	28634.11
507.98	28905.62
508.16	28320.48
508.33	28594.32
508.50	28713.69
508.68	29050.73
508.85	28741.78
509.03	28746.46
509.20	29205.20
509.38	29336.27
509.55	29376.06
509.73	29563.31
509.90	29607.78
510.08	29406.49
510.25	29340.96
510.42	29734.17
510.60	29713.10
510.77	29788.00
510.95	30050.14
511.12	29855.87
511.30	29762.25
511.47	30242.06
511.64	30415.26
511.82	30590.80
511.99	30251.42
512.17	30810.81
512.34	30277.17
512.51	31115.08
512.69	30976.99
512.86	30998.06
513.04	30869.33
513.21	30981.67
513.38	31040.18
513.56	31482.55
513.73	30895.07
513.90	30981.67
514.08	31276.58
514.25	31669.79
514.43	32055.98
514.60	31630.00
514.77	31311.69
514.95	31868.73
515.12	31630.00
515.29	31630.00
515.47	31868.73
515.64	31878.10
515.81	31667.45
515.99	32095.77
516.16	32552.17
516.33	32224.50
516.51	32446.85
516.68	32095.77
516.85	32196.41
517.03	32334.50
517.20	32493.66
517.37	32797.93
517.54	32694.94
517.72	33046.02
517.89	33165.39
518.06	33015.60
518.24	32655.15
518.41	33226.24
518.58	33228.59
518.75	32945.38
518.93	33305.82
519.10	33362.00
519.27	33497.75
519.45	33240.29
519.62	33982.24
519.79	33872.23
519.96	33762.23
520.14	34258.42
520.31	33890.96
520.48	33947.13
520.65	33977.56
520.83	34569.71
521.00	34291.19
521.17	34668.02
521.34	34396.51
521.52	34354.38
521.69	34621.20
521.86	34944.20
522.03	34888.03
522.20	35519.97
522.38	34869.30
522.55	34831.85
522.72	34892.71
522.89	35264.85
523.07	35541.03
523.24	35351.45
523.41	35084.63
523.58	35054.20
523.75	35454.44
523.92	35243.79
524.10	35435.71
524.27	35913.18
524.44	35903.82
524.61	36006.80
524.78	35154.85
524.96	35931.90
525.13	36367.24
525.30	36093.40
525.47	35936.59
525.64	36048.93
525.81	36292.35
525.98	36109.78
526.16	36414.05
526.33	36105.10
526.50	36292.35
526.67	35990.42
526.84	36570.87
527.01	36767.48
527.18	36739.39
527.36	36535.76
527.53	37254.31
527.70	37406.44
527.87	37479.00
528.04	36790.88
528.21	37113.87
528.38	37191.11
528.55	37474.32
528.72	37652.20
528.89	37359.63
529.07	37418.14
529.24	37132.60
529.41	37553.90
529.58	37549.21
529.75	37532.83
529.92	37703.69
530.09	37345.59
530.26	37965.83
530.43	38284.14
530.60	37427.51
530.77	38059.45
530.94	37935.40
531.11	37846.46
531.28	37687.31
531.46	37816.04
531.63	37874.55
531.80	38249.03
531.97	38562.67
532.14	38487.77
532.31	38263.08
532.48	38450.32
532.65	38721.82
532.82	38761.61
532.99	38787.36
533.16	38394.15
533.33	38866.94
533.50	38611.82
533.67	38721.82
533.84	38237.33
534.01	38714.80
534.18	38979.28
534.35	39309.30
534.52	39159.50
534.69	39526.97
534.86	39566.76
535.03	39321.00
535.20	39201.63
535.37	39548.03
535.54	39480.16
535.71	39299.94
535.88	39903.79
536.05	39416.96
536.22	39442.71
536.38	39611.23
536.55	39587.82
536.72	40362.54
536.89	39552.71
537.06	40091.04
537.23	39969.33
537.40	39711.87
537.57	39746.98
537.74	39985.71
537.91	39803.15
538.08	39854.64
538.25	39861.66
538.42	40336.79
538.59	40823.62
538.75	40439.78
538.92	40505.31
539.09	40381.26
539.26	40364.88
539.43	40219.77
539.60	40776.81
539.77	40392.97
539.94	40533.40
540.11	40669.15
540.28	40931.29
540.44	40568.51
540.61	40608.29
540.78	40975.76
540.95	40996.82
541.12	40921.93
541.29	40882.14
541.46	40788.52
541.62	41144.28
541.79	41092.79
541.96	40926.61
542.13	41184.07
542.30	41273.01
542.47	41067.04
542.63	41673.24
542.80	41722.39
542.97	42157.73
543.14	41965.81
543.31	41675.58
543.48	41813.67
543.64	42567.32
543.81	41801.97
543.98	42183.48
544.15	42103.90
544.32	42153.05
544.48	42398.80
544.65	42080.49
544.82	42457.32
544.99	42206.88
545.16	42363.70
545.32	42096.88
545.49	42749.88
545.66	42763.93
545.83	42600.09
546.00	42476.04
546.16	42703.07
546.33	42679.67
546.50	42181.13
546.67	42742.86
546.83	42050.06
547.00	42574.34
547.17	42492.43
547.34	42831.80
547.50	43304.59
547.67	43241.40
547.84	43571.41
548.00	43178.20
548.17	43531.62
548.34	43173.52
548.51	43503.54
548.67	43363.11
548.84	43552.69
549.01	43007.34
549.18	43318.64
549.34	43625.25
549.51	43800.79
549.68	43550.35
549.84	43407.58
550.01	43643.97
550.18	43433.32
550.34	43386.51
550.51	43519.92
550.68	43917.81
550.84	43220.33
551.01	44287.62
551.18	43775.04
551.34	43976.33
551.51	44023.14
551.68	43810.15
551.84	44109.74
552.01	43515.24
552.18	43981.01
552.34	44172.93
552.51	44189.31
552.68	43540.99
552.84	43988.03
553.01	44257.19
553.18	43981.01
553.34	44657.42
553.51	43901.43
553.67	44105.06
553.84	44954.67
554.01	44598.91
554.17	44680.83
554.34	44357.83
554.51	44765.09
554.67	44774.45
554.84	44390.60
555.00	44748.70
555.17	44535.71
555.33	44804.88
555.50	44545.08
555.67	44751.04
555.83	44524.01
556.00	44739.34
556.16	45439.16
556.33	44863.39
556.50	44856.37
556.66	44624.65
556.83	44807.22
556.99	45130.21
557.16	45074.04
557.32	45275.32
557.49	45158.30
557.65	45373.63
557.82	45397.03
557.98	45413.41
558.15	45294.05
558.32	45284.68
558.48	45205.11
558.65	45532.78
558.81	45188.72
558.98	45205.11
559.14	45095.10
559.31	45167.66
559.47	45158.30
559.64	45514.06
559.80	45076.38
559.97	45467.25
560.13	45289.37
560.30	45846.41
560.46	45933.01
560.63	45766.84
560.79	45251.92
560.96	45539.80
561.12	46103.87
561.29	45940.04
561.45	45654.49
561.61	45614.70
561.78	45626.40
561.94	45450.86
562.11	45668.53
562.27	45888.54
562.44	45993.87
562.60	45965.78
562.77	46080.47
562.93	45668.53
563.10	45958.76
563.26	45745.77
563.42	46017.27
563.59	46080.47
563.75	45951.74
563.92	46071.10
564.08	45965.78
564.24	46045.36
564.41	45834.71
564.57	46363.67
564.74	46305.16
564.90	46174.09
565.07	45801.94
565.23	46333.24
565.39	46398.78
565.56	46466.66
565.72	46115.58
565.88	46403.46
566.05	45914.29
566.21	46057.06
566.38	46120.26
566.54	46485.38
566.70	46361.33
566.87	46674.96
567.03	46321.54
567.19	46604.75
567.36	46312.18
567.52	46237.28
567.68	46445.59
567.85	46586.02
568.01	46728.80
568.17	46469.00
568.34	46511.13
568.50	46574.32
568.66	46457.29
568.83	46492.40
568.99	46246.65
569.15	46777.95
569.32	46892.63
569.48	46244.30
569.64	46595.38
569.81	46855.18
569.97	46855.18
570.13	46820.08
570.30	46408.14
570.46	47395.85
570.62	46960.51
570.78	46513.47
570.95	46674.96
571.11	46834.12
571.27	46742.84
571.43	46532.19
571.60	46752.20
571.76	46829.44
571.92	46667.94
572.09	46955.83
572.25	46745.18
572.41	46543.89
572.57	46611.77
572.74	46583.68
572.90	47119.66
573.06	47047.11
573.22	46787.31
573.38	46660.92
573.55	46944.12
573.71	46972.21
573.87	46887.95
574.03	47028.38
574.20	47189.88
574.36	46567.30
574.52	46906.68
574.68	47194.56
574.84	46923.06
575.01	47498.83
575.17	47028.38
575.33	47194.56
575.49	46927.74
575.65	47243.71
575.82	46738.16
575.98	46972.21
576.14	47468.40
576.30	47796.08
576.46	47309.25
576.62	46873.91
576.79	46885.61
576.95	46887.95
577.11	47054.13
577.27	46988.60
577.43	46761.56
577.59	46646.88
577.75	46824.76
577.92	46775.61
578.08	46934.76
578.24	47337.33
578.40	47346.70
578.56	47164.14
578.72	47152.43
578.88	47173.50
579.04	47517.56
579.21	47026.04
579.37	47445.00
579.53	47470.75
579.69	47129.03
579.85	47042.43
580.01	47295.21
580.17	47126.69
580.33	47414.57
580.49	47274.14
580.65	47042.43
580.82	47164.14
580.98	47189.88
581.14	47262.44
581.30	47147.75
581.46	47372.44
581.62	47133.71
581.78	47421.59
581.94	47114.98
582.10	47267.12
582.26	47370.10
582.42	47395.85
582.58	47332.65
582.74	47040.09
582.90	47356.06
583.06	47370.10
583.22	47000.30
583.38	47445.00
583.54	47400.53
583.70	47313.93
583.86	47496.49
584.02	47217.97
584.18	47601.82
584.34	47562.03
584.50	47667.35
584.66	47763.31
584.82	47398.19
584.98	48062.90
585.14	47267.12
585.30	47327.97
585.46	47086.90
585.62	47463.72
585.78	47526.92
585.94	46923.06
586.10	47657.99
586.26	47171.16
586.42	47178.18
586.58	47653.31
586.74	47725.86
586.90	47267.12
587.06	47264.78
587.22	47604.16
587.38	47327.97
587.54	47833.53
587.70	47505.85
587.86	47878.00
588.02	47608.84
588.18	47388.83
588.34	47709.48
588.49	47695.44
588.65	47290.52
588.81	47585.43
588.97	47650.97
589.13	47208.61
589.29	47629.90
589.45	47709.48
589.61	48044.18
589.77	47927.15
589.93	47660.33
590.08	47880.34
