SpectraSuite Data File
++++++++++++++++++++++++++++++++++++
Date: Fri Oct 25 11:34:14 EDT 2013
User: price-jones
Dark Spectrum Present: No
Reference Spectrum Present: No
Number of Sampled Component Spectra: 1
Spectrometers: USB2+H05261
Integration Time (usec): 100000 (USB2+H05261)
Spectra Averaged: 1 (USB2+H05261)
Boxcar Smoothing: 0 (USB2+H05261)
Correct for Electrical Dark: No (USB2+H05261)
Strobe/Lamp Enabled: No (USB2+H05261)
Correct for Detector Non-linearity: No (USB2+H05261)
Correct for Stray Light: No (USB2+H05261)
Number of Pixels in Processed Spectrum: 2048
>>>>>Begin Processed Spectral Data<<<<<
365.73	306.61
365.92	306.61
366.12	306.61
366.32	175.54
366.52	222.35
366.72	170.86
366.91	215.33
367.11	208.31
367.31	170.86
367.51	138.09
367.70	161.50
367.90	152.13
368.10	191.92
368.30	175.54
368.49	147.45
368.69	227.03
368.89	201.29
369.09	255.12
369.28	191.92
369.48	285.55
369.68	212.99
369.87	266.82
370.07	243.42
370.27	252.78
370.47	301.93
370.66	437.68
370.86	510.24
371.06	552.37
371.25	545.34
371.45	559.39
371.65	547.69
371.84	512.58
372.04	519.60
372.24	519.60
372.44	566.41
372.63	622.58
372.83	643.65
373.03	603.86
373.22	564.07
373.42	589.82
373.62	617.90
373.81	678.76
374.01	674.07
374.21	599.18
374.40	709.18
374.60	662.37
374.79	641.31
374.99	596.84
375.19	653.01
375.38	568.75
375.58	643.65
375.78	678.76
375.97	678.76
376.17	692.80
376.37	720.88
376.56	660.03
376.76	610.88
376.95	641.31
377.15	711.52
377.35	671.73
377.54	758.33
377.74	725.57
377.93	683.44
378.13	748.97
378.33	702.16
378.52	688.12
378.72	685.78
378.91	744.29
379.11	671.73
379.31	702.16
379.50	755.99
379.70	695.14
379.89	826.21
380.09	758.33
380.28	744.29
380.48	697.48
380.68	697.48
380.87	734.93
381.07	723.23
381.26	718.54
381.46	777.06
381.65	828.55
381.85	758.33
382.04	748.97
382.24	786.42
382.43	760.67
382.63	730.25
382.83	746.63
383.02	854.30
383.22	802.80
383.41	744.29
383.61	842.59
383.80	887.06
384.00	802.80
384.19	847.27
384.39	779.40
384.58	800.46
384.78	760.67
384.97	798.12
385.17	828.55
385.36	854.30
385.56	931.53
385.75	870.68
385.95	856.64
386.14	828.55
386.34	837.91
386.53	791.10
386.72	844.93
386.92	919.83
387.11	912.81
387.31	858.98
387.50	833.23
387.70	866.00
387.89	933.87
388.09	819.19
388.28	849.61
388.48	856.64
388.67	880.04
388.86	990.05
389.06	873.02
389.25	917.49
389.45	877.70
389.64	980.68
389.84	959.62
390.03	919.83
390.22	966.64
390.42	922.17
390.61	858.98
390.81	894.08
391.00	926.85
391.19	898.77
391.39	976.00
391.58	978.34
391.78	959.62
391.97	880.04
392.16	976.00
392.36	985.37
392.55	1004.09
392.75	1132.82
392.94	1036.86
393.13	1071.97
393.33	1020.47
393.52	1050.90
393.71	1149.20
393.91	980.68
394.10	1137.50
394.29	1186.65
394.49	971.32
394.68	1217.08
394.88	1132.82
395.07	1170.27
395.26	1036.86
395.46	1118.78
395.65	1144.52
395.84	1177.29
396.04	1203.04
396.23	1184.31
396.42	1184.31
396.62	1280.27
396.81	1146.86
397.00	1193.67
397.19	1184.31
397.39	1158.57
397.58	1135.16
397.77	1172.61
397.97	1249.85
398.16	1219.42
398.35	1254.53
398.55	1196.01
398.74	1233.46
398.93	1247.51
399.12	1338.79
399.32	1268.57
399.51	1282.61
399.70	1226.44
399.90	1315.38
400.09	1350.49
400.28	1345.81
400.47	1357.51
400.67	1373.89
400.86	1392.62
401.05	1409.00
401.24	1437.09
401.44	1406.66
401.63	1469.86
401.82	1444.11
402.01	1387.94
402.21	1373.89
402.40	1474.54
402.59	1460.49
402.78	1488.58
402.97	1507.30
403.17	1441.77
403.36	1392.62
403.55	1568.16
403.74	1551.78
403.93	1629.01
404.13	1516.67
404.32	1502.62
404.51	1589.22
404.70	1549.43
404.89	1673.48
405.09	1675.82
405.28	1797.53
405.47	1605.61
405.66	1767.10
405.85	1682.85
406.05	1589.22
406.24	1673.48
406.43	1659.44
406.62	1750.72
406.81	1837.32
407.00	1724.97
407.20	1696.89
407.39	1832.64
407.58	1827.96
407.77	1881.79
407.96	1820.94
408.15	1900.52
408.34	1682.85
408.54	1888.81
408.73	1846.68
408.92	1816.26
409.11	1947.33
409.30	1982.43
409.49	1956.69
409.68	1900.52
409.87	1891.15
410.07	1930.94
410.26	2040.95
410.45	1909.88
410.64	2031.58
410.83	2101.80
411.02	2052.65
411.21	2176.70
411.40	2108.82
411.59	2122.87
411.78	2207.13
411.98	2111.16
412.17	2172.02
412.36	2200.10
412.55	2190.74
412.74	2298.41
412.93	2296.07
413.12	2305.43
413.31	2310.11
413.50	2328.83
413.69	2354.58
413.88	2413.09
414.07	2420.11
414.26	2396.71
414.45	2431.82
414.64	2469.27
414.83	2406.07
415.02	2544.16
415.22	2516.08
415.41	2675.23
415.60	2696.30
415.79	2607.36
415.98	2729.06
416.17	2658.85
416.36	2633.10
416.55	2693.96
416.74	2789.92
416.93	2759.49
417.12	2787.58
417.31	2775.88
417.50	2862.48
417.69	2881.20
417.88	2909.29
418.07	2860.13
418.26	2885.88
418.45	2956.10
418.64	2928.01
418.83	2923.33
419.02	2967.80
419.21	3052.06
419.39	2937.37
419.58	2995.89
419.77	2981.84
419.96	2963.12
420.15	2963.12
420.34	3030.99
420.53	3030.99
420.72	2993.55
420.91	3117.59
421.10	3136.32
421.29	3159.72
421.48	3023.97
421.67	3148.02
421.86	3225.26
422.05	3293.13
422.24	3262.71
422.43	3370.37
422.61	3356.33
422.80	3346.97
422.99	3314.20
423.18	3229.94
423.37	3311.86
423.56	3400.80
423.75	3363.35
423.94	3295.47
424.13	3068.44
424.32	3234.62
424.50	3300.16
424.69	3433.57
424.88	3358.67
425.07	3152.70
425.26	3309.52
425.45	3321.22
425.64	3337.60
425.83	3365.69
426.01	3461.65
426.20	3323.56
426.39	3375.05
426.58	3407.82
426.77	3258.03
426.96	3522.51
427.15	3311.86
427.33	3433.57
427.52	3524.85
427.71	3522.51
427.90	3559.95
428.09	3637.19
428.28	3609.11
428.46	3674.64
428.65	3541.23
428.84	3728.47
429.03	3646.55
429.22	3592.72
429.40	3716.77
429.59	3672.30
429.78	3627.83
429.97	3569.32
430.16	3786.99
430.34	3775.28
430.53	3786.99
430.72	3770.60
430.91	3801.03
431.10	3695.71
431.28	3885.29
431.47	3868.91
431.66	3859.54
431.85	3744.86
432.03	3974.23
432.22	4035.08
432.41	4011.68
432.60	4070.19
432.79	3819.75
432.97	3906.35
433.16	4086.58
433.35	3997.64
433.54	4173.18
433.72	4168.49
433.91	4102.96
434.10	4145.09
434.28	4091.26
434.47	4194.24
434.66	4229.35
434.85	4219.99
435.03	4238.71
435.22	4301.90
435.41	4423.61
435.59	4381.48
435.78	4351.06
435.97	4292.54
436.16	4362.76
436.34	4322.97
436.53	4400.21
436.72	4395.53
436.90	4414.25
437.09	4540.64
437.28	4348.72
437.46	4334.67
437.65	4575.75
437.84	4503.19
438.02	4418.93
438.21	4596.81
438.40	4397.87
438.58	4692.77
438.77	4667.03
438.96	4657.67
439.14	4737.24
439.33	4629.58
439.52	4786.40
439.70	4816.82
439.89	4814.48
440.08	4760.65
440.26	4788.74
440.45	4856.61
440.63	4966.62
440.82	4964.28
441.01	4936.19
441.19	4959.60
441.38	5057.90
441.57	5256.84
441.75	5046.20
441.94	5245.14
442.12	5376.21
442.31	5240.46
442.50	5310.68
442.68	5270.89
442.87	5355.15
443.05	5217.05
443.24	5577.50
443.43	5373.87
443.61	5451.11
443.80	5486.22
443.98	5313.02
444.17	5097.69
444.35	5455.79
444.54	5518.98
444.73	5526.00
444.91	5509.62
445.10	5472.17
445.28	5430.04
445.47	5535.37
445.65	5528.35
445.84	5483.88
446.02	5561.11
446.21	5423.02
446.39	5490.90
446.58	5561.11
446.77	5547.07
446.95	5486.22
447.14	5654.73
447.32	5547.07
447.51	5561.11
447.69	5542.39
447.88	5593.88
448.06	5542.39
448.25	5600.90
448.43	5664.10
448.62	5631.33
448.80	5738.99
448.99	5783.46
449.17	5746.02
449.36	5659.42
449.54	5816.23
449.73	5727.29
449.91	5856.02
450.10	5980.07
450.28	6012.84
450.46	5841.98
450.65	5912.19
450.83	6064.33
451.02	5980.07
451.20	6146.25
451.39	5954.32
451.57	5987.09
451.76	5898.15
451.94	6148.59
452.13	6345.19
452.31	6141.57
452.49	5991.77
452.68	6200.08
452.86	6085.39
453.05	6085.39
453.23	6139.23
453.42	6153.27
453.60	6017.52
453.78	6352.21
453.97	6429.45
454.15	6239.87
454.34	6228.17
454.52	6370.94
454.70	6464.56
454.89	6270.30
455.07	6300.72
455.26	6382.64
455.44	6450.52
455.62	6408.39
455.81	6558.18
455.99	6462.22
456.17	6551.16
456.36	6705.63
456.54	6719.68
456.73	6609.67
456.91	6839.05
457.09	6871.81
457.28	6991.18
457.46	6825.00
457.64	6944.37
457.83	6927.99
458.01	7035.65
458.19	6920.96
458.38	7021.61
458.56	6988.84
458.74	7002.88
458.93	7016.93
459.11	6977.14
459.29	7133.95
459.48	7110.55
459.66	7138.63
459.84	7192.47
460.03	7267.36
460.21	7101.19
460.39	7400.77
460.57	7192.47
460.76	7157.36
460.94	7447.58
461.12	7379.71
461.31	7234.60
461.49	7339.92
461.67	7365.67
461.85	7489.71
462.04	7386.73
462.22	7906.33
462.40	7456.95
462.59	7454.61
462.77	7712.07
462.95	7536.52
463.13	7452.27
463.32	7625.47
463.50	7854.84
463.68	7545.89
463.86	7779.94
464.05	7702.70
464.23	7658.23
464.41	7648.87
464.59	7557.59
464.78	7707.38
464.96	7969.52
465.14	7595.04
465.32	7847.82
465.50	7894.63
465.69	8070.17
465.87	7985.91
466.05	7868.88
466.23	7822.07
466.41	8072.51
466.60	8163.79
466.78	7784.62
466.96	7962.50
467.14	8060.80
467.32	8056.12
467.51	8191.88
467.69	7922.71
467.87	8222.30
468.05	8219.96
468.23	8283.16
468.41	8210.60
468.60	8222.30
468.78	8311.24
468.96	8159.11
469.14	8444.65
469.32	8428.27
469.50	8231.66
469.69	8491.46
469.87	8475.08
470.05	8521.89
470.23	8454.02
470.41	8638.92
470.59	8695.09
470.77	8580.40
470.95	8746.58
471.14	8898.72
471.32	8667.00
471.50	8870.63
471.68	8819.14
471.86	9081.28
472.04	8863.61
472.22	9074.26
472.40	8753.60
472.58	8809.78
472.77	9076.60
472.95	9128.09
473.13	9411.29
473.31	9064.89
473.49	9296.61
473.67	9184.26
473.85	9394.91
474.03	9525.98
474.21	9298.95
474.39	9582.15
474.57	9462.79
474.75	9633.64
474.93	9694.50
475.12	9851.31
475.30	9671.09
475.48	9825.57
475.66	9973.02
475.84	9706.20
476.02	9975.36
476.20	10078.35
476.38	10045.58
476.56	10307.72
476.74	10438.79
476.92	10101.75
477.10	10153.24
477.28	10602.63
477.46	10434.11
477.64	10518.37
477.82	10539.43
478.00	10871.79
478.18	10740.72
478.36	10902.22
478.54	11061.37
478.72	11117.54
478.90	11370.32
479.08	11508.41
479.26	11515.44
479.44	11356.28
479.62	11419.47
479.80	11573.95
479.98	11698.00
480.16	11791.62
480.34	11910.99
480.52	12079.50
480.70	12114.61
480.88	11866.52
481.06	11997.59
481.24	11988.22
481.41	12379.09
481.59	12624.85
481.77	12404.84
481.95	12774.64
482.13	12638.89
482.31	12592.08
482.49	12884.65
482.67	12802.73
482.85	12975.93
483.03	13511.91
483.21	13275.52
483.39	13483.83
483.57	13355.10
483.74	13467.44
483.92	13535.32
484.10	13460.42
484.28	13755.33
484.46	14075.98
484.64	14298.33
484.82	14181.31
485.00	14068.96
485.18	14476.21
485.35	14752.40
485.53	14527.71
485.71	14860.06
485.89	15030.92
486.07	15040.28
486.25	15105.82
486.43	15396.04
486.61	15445.20
486.78	15564.56
486.96	15503.71
487.14	15487.32
487.32	15772.87
487.50	16105.23
487.68	15957.77
487.85	16070.12
488.03	16290.13
488.21	16601.42
488.39	16634.19
488.57	16596.74
488.75	16896.33
488.92	17057.82
489.10	16791.00
489.28	17057.82
489.46	17317.62
489.64	17425.29
489.81	17715.51
489.99	17481.46
490.17	17558.70
490.35	17577.42
490.53	18277.24
490.70	18115.75
490.88	18120.43
491.06	18260.86
491.24	17970.63
491.41	18298.31
491.59	18625.98
491.77	18607.26
491.95	18808.54
492.13	19173.67
492.30	19168.99
492.48	19000.47
492.66	19323.46
492.84	19494.32
493.01	19491.98
493.19	19316.44
493.37	19903.92
493.54	19534.11
493.72	20098.18
493.90	20252.66
494.08	20140.31
494.25	20374.36
494.43	20374.36
494.61	20500.75
494.79	20690.34
494.96	20718.42
495.14	20629.48
495.32	20842.47
495.49	20868.22
495.67	21432.29
495.85	21401.86
496.02	21734.21
496.20	21687.40
496.38	22073.59
496.55	21888.69
496.73	22419.99
496.91	22094.66
497.09	22284.24
497.26	22356.80
497.44	22321.69
497.62	22525.32
497.79	22911.50
497.97	22766.39
498.14	22953.63
498.32	22874.06
498.50	22960.66
498.67	23410.04
498.85	23269.61
499.03	23803.25
499.20	23531.75
499.38	23564.51
499.56	23641.75
499.73	23875.80
499.91	24093.47
500.08	23903.89
500.26	23737.71
500.44	24156.67
500.61	24041.98
500.79	24051.34
500.97	24404.77
501.14	24624.78
501.32	24386.04
501.49	24746.48
501.67	24706.70
501.84	24795.64
502.02	24545.20
502.20	24980.54
502.37	24917.34
502.55	25507.16
502.72	25036.71
502.90	25413.54
503.07	25202.89
503.25	25528.22
503.43	25343.32
503.60	25610.14
503.78	25656.95
503.95	25696.74
504.13	25617.16
504.30	25827.81
504.48	25458.01
504.65	26150.81
504.83	26206.98
505.01	26387.20
505.18	26328.69
505.36	26930.20
505.53	26298.26
505.71	26705.51
505.88	27136.17
506.06	26583.80
506.23	26967.65
506.41	26607.21
506.58	26902.12
506.76	26726.58
506.93	27440.44
507.11	27316.39
507.28	27302.35
507.46	27236.81
507.63	27578.53
507.81	27962.38
507.98	27782.16
508.16	27770.46
508.33	28219.84
508.50	27929.61
508.68	28151.96
508.85	28404.74
509.03	27901.53
509.20	28070.04
509.38	28231.54
509.55	28294.74
509.73	28575.60
509.90	28364.95
510.08	28720.71
510.25	28545.17
510.42	28641.14
510.60	29050.73
510.77	28830.72
510.95	29860.55
511.12	28954.77
511.30	29371.38
511.47	29289.46
511.64	29144.35
511.82	29436.92
511.99	29516.50
512.17	29685.01
512.34	29750.55
512.51	29780.98
512.69	29947.15
512.86	29500.11
513.04	30398.88
513.21	30206.95
513.38	30602.50
513.56	30188.23
513.73	30426.96
513.90	30256.11
514.08	30026.73
514.25	30927.84
514.43	30412.92
514.60	30651.66
514.77	30560.37
514.95	30850.60
515.12	30707.83
515.29	30712.51
515.47	31168.91
515.64	30923.16
515.81	30895.07
515.99	31194.66
516.16	31527.02
516.33	31845.33
516.51	31754.05
516.68	31585.53
516.85	31475.52
517.03	31660.43
517.20	31770.43
517.37	32037.25
517.54	31615.96
517.72	32130.87
517.89	31971.72
518.06	32222.16
518.24	32184.71
518.41	32114.49
518.58	32320.46
518.75	32025.55
518.93	32629.41
519.10	32301.73
519.27	32893.89
519.45	32385.99
519.62	32818.99
519.79	32732.39
519.96	32769.84
520.14	33048.36
520.31	32931.34
520.48	33027.30
520.65	33172.41
520.83	33495.41
521.00	33340.93
521.17	33432.21
521.34	33413.49
521.52	33830.10
521.69	33638.18
521.86	33778.61
522.03	33778.61
522.20	33905.00
522.38	33593.71
522.55	34064.16
522.72	34279.49
522.89	34019.69
523.07	34356.72
523.24	34017.35
523.41	34288.85
523.58	33989.26
523.75	34595.46
523.92	34675.04
524.10	34796.74
524.27	34803.77
524.44	34567.37
524.61	34848.24
524.78	34941.86
524.96	34944.20
525.13	34993.35
525.30	35051.86
525.47	35314.00
525.64	35061.22
525.81	34991.01
525.98	35477.84
526.16	35278.89
526.33	35192.30
526.50	35257.83
526.67	35152.51
526.84	35477.84
527.01	35662.74
527.18	35543.38
527.36	35824.24
527.53	35941.27
527.70	35934.24
527.87	36400.01
528.04	35910.84
528.21	36266.60
528.38	36353.20
528.55	36156.60
528.72	35976.37
528.89	35959.99
529.07	36018.50
529.24	35875.73
529.41	36629.38
529.58	36575.55
529.75	36400.01
529.92	36308.73
530.09	36531.08
530.26	36449.16
530.43	36825.99
530.60	36751.09
530.77	36730.03
530.94	36751.09
531.11	37160.69
531.28	36828.33
531.46	36935.99
531.63	37453.25
531.80	36774.50
531.97	37380.70
532.14	37422.83
532.31	37434.53
532.48	38036.05
532.65	38061.79
532.82	37820.72
532.99	37450.91
533.16	37350.27
533.33	37635.81
533.50	37865.19
533.67	37731.78
533.84	37226.22
534.01	37801.99
534.18	37654.54
534.35	38085.20
534.52	38127.33
534.69	38281.80
534.86	38192.86
535.03	37773.91
535.20	38485.43
535.37	38403.51
535.54	38801.40
535.71	38345.00
535.88	38813.10
536.05	38632.88
536.22	39012.05
536.38	38534.58
536.55	38649.27
536.72	38225.63
536.89	38478.41
537.06	38581.39
537.23	39550.37
537.40	38836.51
537.57	39023.75
537.74	38747.57
537.91	39173.55
538.08	38962.90
538.25	38761.61
538.42	39063.54
538.59	39409.94
538.75	38897.36
538.92	39800.81
539.09	39665.06
539.26	39433.35
539.43	38703.10
539.60	39438.03
539.77	39351.43
539.94	39313.98
540.11	39208.65
540.28	39601.86
540.44	39725.91
540.61	39938.90
540.78	39782.09
540.95	39997.41
541.12	39662.72
541.29	39487.18
541.46	39831.24
541.62	39997.41
541.79	40430.41
541.96	39849.96
542.13	40041.88
542.30	39971.67
542.47	40100.40
542.63	40706.60
542.80	40353.18
542.97	40725.32
543.14	40692.55
543.31	40563.82
543.48	40189.34
543.64	40807.24
543.81	40823.62
543.98	41195.77
544.15	40687.87
544.32	41001.50
544.48	41422.80
544.65	41050.66
544.82	41191.09
544.99	41106.83
545.16	41158.32
545.32	41294.07
545.49	41249.60
545.66	41605.36
545.83	41628.77
546.00	41530.47
546.16	41460.25
546.33	41017.89
546.50	41340.88
546.67	41982.19
546.83	41064.70
547.00	41289.39
547.17	41661.54
547.34	41675.58
547.50	42129.64
547.67	42403.49
547.84	41556.21
548.00	41940.06
548.17	42122.62
548.34	42124.96
548.51	42253.69
548.67	42377.74
548.84	42167.09
549.01	42131.98
549.18	41787.92
549.34	42462.00
549.51	42609.45
549.68	42529.87
549.84	42717.12
550.01	42522.85
550.18	42267.73
550.34	42621.16
550.51	42604.77
550.68	42726.48
550.84	42370.72
551.01	42244.33
551.18	42637.54
551.34	42157.73
551.51	42560.30
551.68	42368.38
551.84	42728.82
552.01	42883.30
552.18	42979.26
552.34	42478.38
552.51	42953.51
552.68	42637.54
552.84	43028.41
553.01	43077.56
553.18	42792.01
553.34	43466.09
553.51	42960.53
553.67	43016.71
553.84	43225.01
554.01	42916.06
554.17	43012.02
554.34	43234.38
554.51	43494.18
554.67	43426.30
554.84	43576.09
555.00	43194.59
555.17	43232.04
555.33	43257.78
555.50	43288.21
555.67	43353.74
555.83	43695.46
556.00	43739.93
556.16	43915.47
556.33	44074.63
556.50	43473.11
556.66	43641.63
556.83	43515.24
556.99	43784.40
557.16	44081.65
557.32	44374.22
557.49	44147.18
557.65	43311.61
557.82	43981.01
557.98	44350.81
558.15	44191.65
558.32	44500.61
558.48	43966.96
558.65	43798.44
558.81	44154.21
558.98	43910.79
559.14	44058.24
559.31	43973.98
559.47	43945.90
559.64	43920.15
559.80	44252.51
559.97	44589.55
560.13	43882.70
560.30	44058.24
560.46	44428.05
560.63	44271.23
560.79	44587.21
560.96	44552.10
561.12	44091.01
561.29	44673.81
561.45	44891.48
561.61	44350.81
561.78	44198.68
561.94	44418.69
562.11	44531.03
562.27	44641.04
562.44	44507.63
562.60	44755.72
562.77	44856.37
562.93	44729.98
563.10	44931.26
563.26	44697.21
563.42	44942.97
563.59	44919.56
563.75	44374.22
563.92	44996.80
564.08	44900.84
564.24	44734.66
564.41	44964.03
564.57	44828.28
564.74	44854.03
564.90	44697.21
565.07	44619.97
565.23	45006.16
565.39	44875.09
565.56	45294.05
565.72	44715.93
565.88	44832.96
566.05	44821.26
566.21	45076.38
566.38	45200.43
566.54	45001.48
566.70	45205.11
566.87	44776.79
567.03	44999.14
567.19	45209.79
567.36	45436.82
567.52	45308.09
567.68	45165.32
567.85	45261.28
568.01	45207.45
568.17	45378.31
568.34	45272.98
568.50	45373.63
568.66	45280.00
568.83	45427.46
568.99	45120.85
569.15	45406.39
569.32	45162.98
569.48	45359.58
569.64	45624.06
569.81	45261.28
569.97	45624.06
570.13	45535.12
570.30	44816.58
570.46	45181.70
570.62	45471.93
570.78	45619.38
570.95	45839.39
571.11	45823.01
571.27	45432.14
571.43	45794.92
571.60	45310.43
571.76	45537.46
571.92	45661.51
572.09	45390.01
572.25	45478.95
572.41	45708.32
572.57	45574.91
572.74	45633.42
572.90	45673.21
573.06	45467.25
573.22	45708.32
573.38	45413.41
573.55	45668.53
573.71	46248.99
573.87	45830.03
574.03	45727.05
574.20	45844.07
574.36	45776.20
574.52	45734.07
574.68	45914.29
574.84	46134.30
575.01	46136.64
575.17	45806.62
575.33	45434.48
575.49	45567.89
575.65	45778.54
575.82	45797.26
575.98	45268.30
576.14	45865.14
576.30	45996.21
576.46	45624.06
576.62	45579.59
576.79	45677.90
576.95	45359.58
577.11	45467.25
577.27	45722.37
577.43	46000.89
577.59	45867.48
577.75	45804.28
577.92	45668.53
578.08	45591.30
578.24	45907.27
578.40	46061.74
578.56	45736.41
578.72	45846.41
578.88	46136.64
579.04	45722.37
579.21	45453.20
579.37	45837.05
579.53	46382.40
579.69	45909.61
579.85	45539.80
580.01	45832.37
580.17	45528.10
580.33	45839.39
580.49	45890.88
580.65	45797.26
580.82	45535.12
580.98	45773.86
581.14	45645.13
581.30	46167.07
581.46	45907.27
581.62	45879.18
581.78	45813.65
581.94	46031.32
582.10	45617.04
582.26	46181.11
582.42	46178.77
582.58	46305.16
582.74	46176.43
582.90	46195.15
583.06	45993.87
583.22	45830.03
583.38	46363.67
583.54	46419.84
583.70	46213.88
583.86	46466.66
584.02	46295.80
584.18	46445.59
584.34	46440.91
584.50	46220.90
584.66	46110.89
584.82	46469.00
584.98	46728.80
585.14	46333.24
585.30	46443.25
585.46	46234.94
585.62	45769.18
585.78	45841.73
585.94	46251.33
586.10	46007.91
586.26	45996.21
586.42	46330.90
586.58	45975.14
586.74	46115.58
586.90	46443.25
587.06	46396.44
587.22	46347.29
587.38	46087.49
587.54	46686.67
587.70	46279.41
587.86	46316.86
588.02	45993.87
588.18	46138.98
588.34	46384.74
588.49	46410.48
588.65	46068.76
588.81	46138.98
588.97	46349.63
589.13	46204.52
589.29	45984.51
589.45	46557.94
589.61	46415.16
589.77	46567.30
589.93	46464.32
590.08	46340.27
