SpectraSuite Data File
++++++++++++++++++++++++++++++++++++
Date: Fri Oct 25 11:34:41 EDT 2013
User: price-jones
Dark Spectrum Present: No
Reference Spectrum Present: No
Number of Sampled Component Spectra: 1
Spectrometers: USB2+H05261
Integration Time (usec): 100000 (USB2+H05261)
Spectra Averaged: 1 (USB2+H05261)
Boxcar Smoothing: 0 (USB2+H05261)
Correct for Electrical Dark: No (USB2+H05261)
Strobe/Lamp Enabled: No (USB2+H05261)
Correct for Detector Non-linearity: No (USB2+H05261)
Correct for Stray Light: No (USB2+H05261)
Number of Pixels in Processed Spectrum: 2048
>>>>>Begin Processed Spectral Data<<<<<
365.73	325.33
365.92	325.33
366.12	325.33
366.32	229.37
366.52	201.29
366.72	175.54
366.91	140.43
367.11	184.90
367.31	163.84
367.51	166.18
367.70	196.60
367.90	163.84
368.10	189.58
368.30	189.58
368.49	170.86
368.69	215.33
368.89	241.08
369.09	154.48
369.28	203.63
369.48	212.99
369.68	170.86
369.87	234.05
370.07	245.76
370.27	306.61
370.47	313.63
370.66	526.62
370.86	454.06
371.06	608.54
371.25	505.56
371.45	477.47
371.65	531.30
371.84	545.34
372.04	477.47
372.24	580.45
372.44	547.69
372.63	561.73
372.83	545.34
373.03	550.03
373.22	580.45
373.42	580.45
373.62	664.71
373.81	648.33
374.01	648.33
374.21	599.18
374.40	559.39
374.60	674.07
374.79	645.99
374.99	596.84
375.19	650.67
375.38	631.94
375.58	638.97
375.78	688.12
375.97	645.99
376.17	674.07
376.37	657.69
376.56	617.90
376.76	690.46
376.95	660.03
377.15	688.12
377.35	711.52
377.54	702.16
377.74	676.41
377.93	702.16
378.13	716.20
378.33	674.07
378.52	791.10
378.72	706.84
378.91	739.61
379.11	741.95
379.31	695.14
379.50	662.37
379.70	643.65
379.89	734.93
380.09	671.73
380.28	739.61
380.48	674.07
380.68	667.05
380.87	755.99
381.07	763.01
381.26	807.48
381.46	763.01
381.65	758.33
381.85	812.17
382.04	774.72
382.24	730.25
382.43	866.00
382.63	760.67
382.83	746.63
383.02	884.72
383.22	809.83
383.41	847.27
383.61	765.36
383.80	793.44
384.00	772.38
384.19	760.67
384.39	844.93
384.58	791.10
384.78	809.83
384.97	763.01
385.17	800.46
385.36	784.08
385.56	819.19
385.75	800.46
385.95	786.42
386.14	821.53
386.34	896.43
386.53	847.27
386.72	807.48
386.92	821.53
387.11	842.59
387.31	870.68
387.50	870.68
387.70	819.19
387.89	854.30
388.09	887.06
388.28	896.43
388.48	910.47
388.67	844.93
388.86	947.92
389.06	880.04
389.25	870.68
389.45	976.00
389.64	849.61
389.84	994.73
390.03	940.90
390.22	931.53
390.42	854.30
390.61	901.11
390.81	940.90
391.00	959.62
391.19	1029.84
391.39	903.45
391.58	957.28
391.78	933.87
391.97	1006.43
392.16	997.07
392.36	1050.90
392.55	954.94
392.75	1078.99
392.94	1055.58
393.13	1020.47
393.33	1043.88
393.52	1064.94
393.71	1048.56
393.91	1039.20
394.10	1043.88
394.29	1015.79
394.49	1118.78
394.68	1132.82
394.88	1128.14
395.07	1186.65
395.26	1053.24
395.46	1034.52
395.65	1144.52
395.84	1107.07
396.04	1128.14
396.23	1121.12
396.42	1076.65
396.62	1259.21
396.81	1174.95
397.00	1193.67
397.19	1217.08
397.39	1210.06
397.58	1219.42
397.77	1219.42
397.97	1256.87
398.16	1203.04
398.35	1193.67
398.55	1160.91
398.74	1275.59
398.93	1256.87
399.12	1268.57
399.32	1261.55
399.51	1299.00
399.70	1275.59
399.90	1289.64
400.09	1320.06
400.28	1277.93
400.47	1343.47
400.67	1359.85
400.86	1324.74
401.05	1334.11
401.24	1376.24
401.44	1394.96
401.63	1378.58
401.82	1409.00
402.01	1420.71
402.21	1348.15
402.40	1437.09
402.59	1462.83
402.78	1359.85
402.97	1399.64
403.17	1472.20
403.36	1462.83
403.55	1406.66
403.74	1624.33
403.93	1554.12
404.13	1582.20
404.32	1610.29
404.51	1549.43
404.70	1500.28
404.89	1584.54
405.09	1586.88
405.28	1551.78
405.47	1582.20
405.66	1659.44
405.85	1591.56
406.05	1633.69
406.24	1650.08
406.43	1708.59
406.62	1771.79
406.81	1760.08
407.00	1781.15
407.20	1694.55
407.39	1785.83
407.58	1774.13
407.77	1750.72
407.96	1788.17
408.15	1856.04
408.34	1809.23
408.54	1813.92
408.73	1830.30
408.92	1811.57
409.11	1952.01
409.30	1863.07
409.49	1813.92
409.68	1942.64
409.87	1860.73
410.07	2099.46
410.26	1973.07
410.45	1907.54
410.64	1933.28
410.83	2040.95
411.02	2017.54
411.21	2005.84
411.40	1877.11
411.59	2073.71
411.78	2125.21
411.98	2050.31
412.17	2155.63
412.36	2200.10
412.55	2207.13
412.74	2249.25
412.93	2335.85
413.12	2260.96
413.31	2298.41
413.50	2293.72
413.69	2167.34
413.88	2300.75
414.07	2298.41
414.26	2380.32
414.45	2279.68
414.64	2422.45
414.83	2427.14
415.02	2445.86
415.22	2492.67
415.41	2513.74
415.60	2471.61
415.79	2602.68
415.98	2593.31
416.17	2602.68
416.36	2616.72
416.55	2595.65
416.74	2651.83
416.93	2623.74
417.12	2612.04
417.31	2836.73
417.50	2813.32
417.69	2787.58
417.88	2654.17
418.07	2752.47
418.26	2813.32
418.45	2757.15
418.64	2906.95
418.83	2925.67
419.02	2860.13
419.21	2970.14
419.39	2888.22
419.58	2895.24
419.77	2855.45
419.96	2965.46
420.15	3002.91
420.34	3002.91
420.53	3023.97
420.72	3152.70
420.91	3030.99
421.10	3016.95
421.29	3087.17
421.48	3023.97
421.67	3192.49
421.86	3063.76
422.05	3187.81
422.24	3208.87
422.43	3082.49
422.61	3272.07
422.80	3281.43
422.99	3260.37
423.18	3166.74
423.37	3297.81
423.56	3246.32
423.75	3281.43
423.94	3201.85
424.13	3119.93
424.32	3103.55
424.50	3262.71
424.69	3318.88
424.88	3372.71
425.07	3311.86
425.26	3187.81
425.45	3286.11
425.64	3171.43
425.83	3314.20
426.01	3321.22
426.20	3304.84
426.39	3288.45
426.58	3307.18
426.77	3344.63
426.96	3368.03
427.15	3363.35
427.33	3344.63
427.52	3384.41
427.71	3297.81
427.90	3442.93
428.09	3466.33
428.28	3604.42
428.46	3421.86
428.65	3433.57
428.84	3534.21
429.03	3543.57
429.22	3499.10
429.40	3618.47
429.59	3571.66
429.78	3646.55
429.97	3351.65
430.16	3447.61
430.34	3719.11
430.53	3705.07
430.72	3744.86
430.91	3712.09
431.10	3747.20
431.28	3801.03
431.47	3779.97
431.66	3695.71
431.85	3684.00
432.03	3791.67
432.22	3857.20
432.41	3782.31
432.60	3801.03
432.79	3730.81
432.97	3908.69
433.16	3831.46
433.35	3873.59
433.54	3969.55
433.72	3932.10
433.91	3829.12
434.10	4025.72
434.28	3922.74
434.47	4142.75
434.66	4102.96
434.85	4173.18
435.03	4007.00
435.22	4147.43
435.41	4189.56
435.59	4222.33
435.78	4262.12
435.97	4269.14
436.16	4248.07
436.34	4109.98
436.53	4285.52
436.72	4285.52
436.90	4262.12
437.09	4227.01
437.28	4128.70
437.46	4428.29
437.65	4264.46
437.84	4475.10
438.02	4388.50
438.21	4369.78
438.40	4374.46
438.58	4622.56
438.77	4575.75
438.96	4493.83
439.14	4557.02
439.33	4662.35
439.52	4636.60
439.70	4767.67
439.89	4753.63
440.08	4929.17
440.26	4837.89
440.45	4709.16
440.63	4730.22
440.82	4943.21
441.01	4807.46
441.19	4877.68
441.38	5114.07
441.57	4891.72
441.75	5039.17
441.94	5039.17
442.12	5078.96
442.31	5256.84
442.50	5076.62
442.68	5174.92
442.87	5268.55
443.05	5266.21
443.24	5273.23
443.43	5266.21
443.61	5149.18
443.80	5476.85
443.98	5100.03
444.17	5139.82
444.35	5193.65
444.54	5380.89
444.73	5270.89
444.91	5371.53
445.10	5336.42
445.28	5329.40
445.47	5392.59
445.65	5359.83
445.84	5399.62
446.02	5458.13
446.21	5408.98
446.39	5280.25
446.58	5451.11
446.77	5507.28
446.95	5404.30
447.14	5408.98
447.32	5432.38
447.51	5619.63
447.69	5469.83
447.88	5483.88
448.06	5551.75
448.25	5453.45
448.43	5584.52
448.62	5434.72
448.80	5455.79
448.99	5511.96
449.17	5537.71
449.36	5586.86
449.54	5621.97
449.73	5614.95
449.91	5542.39
450.10	5839.64
450.28	5865.38
450.46	5961.34
450.65	5865.38
450.83	5628.99
451.02	5935.60
451.20	5879.43
451.39	5867.72
451.57	5860.70
451.76	6031.56
451.94	5996.45
452.13	5916.87
452.31	5970.71
452.49	5956.66
452.68	5973.05
452.86	5825.59
453.05	6258.59
453.23	6094.76
453.42	5928.58
453.60	6043.26
453.78	6186.04
453.97	6279.66
454.15	6001.13
454.34	5914.53
454.52	6099.44
454.70	6300.72
454.89	6286.68
455.07	6291.36
455.26	6239.87
455.44	6239.87
455.62	6382.64
455.81	6225.82
455.99	6347.53
456.17	6403.71
456.36	6431.79
456.54	6553.50
456.73	6740.74
456.91	6637.76
457.09	6717.34
457.28	6766.49
457.46	6668.19
457.64	6745.42
457.83	6771.17
458.01	6579.25
458.19	6899.90
458.38	6932.67
458.56	6808.62
458.74	6766.49
458.93	6822.66
459.11	6857.77
459.29	6988.84
459.48	7000.54
459.66	6949.05
459.84	6920.96
460.03	7101.19
460.21	7000.54
460.39	6925.65
460.57	6895.22
460.76	7023.95
460.94	7115.23
461.12	7112.89
461.31	7082.46
461.49	7124.59
461.67	7014.59
461.85	7274.38
462.04	7070.76
462.22	7606.74
462.40	7370.35
462.59	7459.29
462.77	7274.38
462.95	7412.48
463.13	7360.98
463.32	7442.90
463.50	7342.26
463.68	7318.86
463.86	7463.97
464.05	7506.10
464.23	7545.89
464.41	7644.19
464.59	7253.32
464.78	7658.23
464.96	7569.29
465.14	7566.95
465.32	7602.06
465.50	7744.83
465.69	7590.36
465.87	7707.38
466.05	7749.51
466.23	7609.08
466.41	7658.23
466.60	7861.86
466.78	7801.01
466.96	7810.37
467.14	7775.26
467.32	7772.92
467.51	7887.61
467.69	7693.34
467.87	7955.48
468.05	7908.67
468.23	7934.42
468.41	7845.48
468.60	7946.12
468.78	8079.53
468.96	8009.31
469.14	8147.40
469.32	8194.22
469.50	8060.80
469.69	8128.68
469.87	8304.22
470.05	8177.83
470.23	8280.82
470.41	8297.20
470.59	8435.29
470.77	8414.23
470.95	8496.14
471.14	8484.44
471.32	8287.84
471.50	8692.75
471.68	8622.53
471.86	8585.08
472.04	8746.58
472.22	8851.91
472.40	8812.12
472.58	8767.65
472.77	8854.25
472.95	8947.87
473.13	9121.07
473.31	8793.39
473.49	8908.08
473.67	8905.74
473.85	8943.19
474.03	9181.92
474.21	9212.35
474.39	9210.01
474.57	9174.90
474.75	9296.61
474.93	9338.74
475.12	9289.59
475.30	9518.96
475.48	9617.26
475.66	9392.57
475.84	9415.98
476.02	9743.65
476.20	9774.08
476.38	10050.26
476.56	10045.58
476.74	9886.42
476.92	9762.37
477.10	9863.02
477.28	10160.27
477.46	10141.54
477.64	10457.51
477.82	10525.39
478.00	10611.99
478.18	10466.88
478.36	10485.60
478.54	10799.23
478.72	10750.08
478.90	10920.94
479.08	11103.50
479.26	11068.39
479.44	11152.65
479.62	11176.06
479.80	11335.21
479.98	11496.71
480.16	11396.07
480.34	11372.66
480.52	11435.86
480.70	11508.41
480.88	11648.85
481.06	11901.62
481.24	11772.89
481.41	11927.37
481.59	12168.45
481.77	12243.34
481.95	12332.28
482.13	12126.32
482.31	12126.32
482.49	12608.47
482.67	12397.82
482.85	12924.44
483.03	12746.56
483.21	12854.22
483.39	13036.78
483.57	12943.16
483.74	12968.91
483.92	13184.24
484.10	13107.00
484.28	13640.64
484.46	13664.05
484.64	13781.07
484.82	13502.55
485.00	13965.98
485.18	14256.20
485.35	14221.10
485.53	14279.61
485.71	14553.45
485.89	14672.82
486.07	14441.11
486.25	14511.32
486.43	14398.98
486.61	14452.81
486.78	14888.15
486.96	14920.92
487.14	15356.25
487.32	15122.20
487.50	15154.97
487.68	15669.89
487.85	15854.79
488.03	15960.11
488.21	15920.32
488.39	15852.45
488.57	16037.35
488.75	16067.78
488.92	16444.60
489.10	16435.24
489.28	16760.58
489.46	16950.16
489.64	16879.94
489.81	17125.70
489.99	16985.27
490.17	17036.76
490.35	17476.78
490.53	17537.63
490.70	17891.06
490.88	17425.29
491.06	17841.90
491.24	17752.96
491.41	18204.69
491.59	18052.55
491.77	17947.23
491.95	18405.97
492.13	18314.69
492.30	18244.48
492.48	18750.03
492.66	18710.24
492.84	18853.02
493.01	19000.47
493.19	18750.03
493.37	19168.99
493.54	19049.62
493.72	19768.16
493.90	19372.61
494.08	19386.66
494.25	19943.70
494.43	19803.27
494.61	20121.59
494.79	20470.33
494.96	19974.13
495.14	20283.08
495.32	20470.33
495.49	20428.20
495.67	20411.81
495.85	20814.38
496.02	20870.56
496.20	21128.02
496.38	20912.69
496.55	21254.40
496.73	21715.49
496.91	21289.51
497.09	21701.45
497.26	21474.42
497.44	21530.59
497.62	21867.63
497.79	22466.80
497.97	21937.84
498.14	22370.84
498.32	22288.92
498.50	22522.98
498.67	22319.35
498.85	22541.70
499.03	22717.24
499.20	22822.56
499.38	22658.73
499.56	23089.38
499.73	22991.08
499.91	23211.09
500.08	23117.47
500.26	23215.77
500.44	23335.14
500.61	23506.00
500.79	23578.56
500.97	23936.66
501.14	23864.10
501.32	23950.70
501.49	23548.13
501.67	23871.12
501.84	24037.30
502.02	24250.29
502.20	24027.94
502.37	24442.21
502.55	24201.14
502.72	24322.85
502.90	24788.61
503.07	24367.32
503.25	24283.06
503.43	24641.16
503.60	24531.15
503.78	24996.92
503.95	24823.72
504.13	25123.31
504.30	25165.44
504.48	25275.45
504.65	25408.86
504.83	25333.96
505.01	25539.93
505.18	25486.09
505.36	25834.83
505.53	25661.63
505.71	25860.58
505.88	26174.21
506.06	25799.73
506.23	26012.71
506.41	26085.27
506.58	26073.57
506.76	26162.51
506.93	26401.24
507.11	26354.43
507.28	26522.95
507.46	26625.93
507.63	26686.79
507.81	26995.74
507.98	26731.26
508.16	26927.86
508.33	27311.71
508.50	27054.25
508.68	27089.36
508.85	27407.67
509.03	27410.01
509.20	27733.01
509.38	27679.18
509.55	27721.30
509.73	27559.81
509.90	27756.41
510.08	27515.34
510.25	27803.22
510.42	27878.12
510.60	28189.41
510.77	28276.01
510.95	28638.80
511.12	28371.97
511.30	28170.69
511.47	28294.74
511.64	28231.54
511.82	28556.88
511.99	28343.89
512.17	28503.04
512.34	28739.44
512.51	28996.90
512.69	29041.37
512.86	29032.00
513.04	28933.70
513.21	29207.55
513.38	29212.23
513.56	29675.65
513.73	29167.76
513.90	29193.50
514.08	29720.12
514.25	29647.57
514.43	29839.49
514.60	29893.32
514.77	29612.46
514.95	29928.43
515.12	30136.74
515.29	30019.71
515.47	30490.16
515.64	30050.14
515.81	29926.09
515.99	30239.72
516.16	30588.46
516.33	30525.27
516.51	30642.29
516.68	30551.01
516.85	30546.33
517.03	30927.84
517.20	31005.08
517.37	31028.48
517.54	31079.97
517.72	31379.56
517.89	30904.43
518.06	31152.53
518.24	31281.26
518.41	30923.16
518.58	31356.16
518.75	31042.53
518.93	31510.63
519.10	31431.05
519.27	31913.20
519.45	31299.98
519.62	31967.04
519.79	31679.15
519.96	31459.14
520.14	31910.86
520.31	32149.60
520.48	32100.45
520.65	32023.21
520.83	32456.21
521.00	32233.86
521.17	32531.11
521.34	32275.99
521.52	32177.68
521.69	32133.21
521.86	32414.08
522.03	32538.13
522.20	32837.72
522.38	33212.20
522.55	32840.06
522.72	32868.14
522.89	32577.92
523.07	33057.73
523.24	33060.07
523.41	33317.53
523.58	33085.81
523.75	33303.48
523.92	33226.24
524.10	33408.81
524.27	33436.89
524.44	33570.30
524.61	33780.95
524.78	33729.46
524.96	33589.03
525.13	33991.60
525.30	34164.80
525.47	33769.25
525.64	33802.02
525.81	34300.55
525.98	34249.06
526.16	34356.72
526.33	33769.25
526.50	34157.78
526.67	34384.81
526.84	34455.03
527.01	34150.76
527.18	34473.75
527.36	34761.64
527.53	34888.03
527.70	35288.26
527.87	35070.59
528.04	34700.78
528.21	34806.11
528.38	34906.75
528.55	35325.71
528.72	34756.96
528.89	35402.94
529.07	35501.25
529.24	35213.36
529.41	35452.09
529.58	35290.60
529.75	35402.94
529.92	35531.67
530.09	35452.09
530.26	35721.26
530.43	35412.31
530.60	35510.61
530.77	35597.21
530.94	35931.90
531.11	35711.89
531.28	35866.37
531.46	36002.12
531.63	36194.04
531.80	35952.97
531.97	35786.79
532.14	36282.98
532.31	36486.61
532.48	36208.09
532.65	36444.48
532.82	36376.61
532.99	36507.68
533.16	36147.23
533.33	36568.53
533.50	36524.06
533.67	36486.61
533.84	36280.64
534.01	36498.31
534.18	36458.52
534.35	36816.63
534.52	36814.29
534.69	37081.11
534.86	37441.55
535.03	36659.81
535.20	37205.16
535.37	37188.77
535.54	37127.92
535.71	37310.48
535.88	37017.91
536.05	37275.37
536.22	37441.55
536.38	37476.66
536.55	37570.28
536.72	37350.27
536.89	37202.82
537.06	37654.54
537.23	37607.73
537.40	37308.14
537.57	37715.39
537.74	37699.01
537.91	37574.96
538.08	37708.37
538.25	37418.14
538.42	37684.97
538.59	37930.72
538.75	38384.79
538.92	38101.58
539.09	38307.55
539.26	38139.03
539.43	38312.23
539.60	38239.67
539.77	38110.94
539.94	38476.07
540.11	38675.01
540.28	38696.08
540.44	38494.79
540.61	38747.57
540.78	38270.10
540.95	38192.86
541.12	38497.13
541.29	38499.47
541.46	38728.84
541.62	38782.68
541.79	38724.16
541.96	38859.91
542.13	38616.50
542.30	38822.47
542.47	38630.54
542.63	38974.60
542.80	39438.03
542.97	39651.02
543.14	39917.84
543.31	39351.43
543.48	39330.36
543.64	39737.62
543.81	39845.28
543.98	39653.36
544.15	39484.84
544.32	39990.39
544.48	40067.63
544.65	39976.35
544.82	40217.43
544.99	39274.19
545.16	39732.93
545.32	39969.33
545.49	40130.83
545.66	40294.66
545.83	40364.88
546.00	40357.86
546.16	40201.04
546.33	40053.59
546.50	40048.91
546.67	40175.30
546.83	39882.73
547.00	40692.55
547.17	40594.25
547.34	40261.90
547.50	40355.52
547.67	40872.78
547.84	40486.59
548.00	40540.42
548.17	40985.12
548.34	40999.16
548.51	40921.93
548.67	40711.28
548.84	41191.09
549.01	40535.74
549.18	40692.55
549.34	40935.97
549.51	40938.31
549.68	41022.57
549.84	41298.75
550.01	41525.78
550.18	40863.41
550.34	41120.87
550.51	41118.53
550.68	41366.63
550.84	40699.58
551.01	41256.62
551.18	41579.62
551.34	41434.50
551.51	41544.51
551.68	41331.52
551.84	41287.05
552.01	41581.96
552.18	41581.96
552.34	41247.26
552.51	41668.56
552.68	41411.10
552.84	41654.51
553.01	41689.62
553.18	41574.94
553.34	41659.20
553.51	41216.83
553.67	41977.51
553.84	41984.53
554.01	42157.73
554.17	42108.58
554.34	42337.95
554.51	42176.45
554.67	42197.52
554.84	42120.28
555.00	42096.88
555.17	42326.25
555.33	42499.45
555.50	42068.79
555.67	42672.65
555.83	41991.55
556.00	42307.52
556.16	42665.63
556.33	41982.19
556.50	42340.29
556.66	42328.59
556.83	42426.89
556.99	42429.23
557.16	42478.38
557.32	42560.30
557.49	42623.50
557.65	42007.94
557.82	42340.29
557.98	42581.37
558.15	42342.63
558.32	42775.63
558.48	42710.10
558.65	42862.23
558.81	42829.46
558.98	43009.68
559.14	42766.27
559.31	42869.25
559.47	42909.04
559.64	43000.32
559.80	42646.90
559.97	42925.42
560.13	42958.19
560.30	43016.71
560.46	43285.87
560.63	43159.48
560.79	43344.38
560.96	43157.14
561.12	43505.88
561.29	43241.40
561.45	43407.58
561.61	43311.61
561.78	43168.84
561.94	43306.93
562.11	43512.90
562.27	43295.23
562.44	43634.61
562.60	43098.62
562.77	43456.73
562.93	42969.90
563.10	43737.59
563.26	43283.53
563.42	43618.22
563.59	43002.66
563.75	43236.72
563.92	43409.92
564.08	43452.05
564.24	43805.47
564.41	43639.29
564.57	43335.02
564.74	43620.56
564.90	43063.52
565.07	43569.07
565.23	43269.48
565.39	43873.34
565.56	43873.34
565.72	43531.62
565.88	43711.84
566.05	43770.36
566.21	43559.71
566.38	43796.10
566.54	43716.53
566.70	43875.68
566.87	43459.07
567.03	43494.18
567.19	43978.67
567.36	43531.62
567.52	44362.51
567.68	44065.27
567.85	43962.28
568.01	44254.85
568.17	43859.30
568.34	44020.80
568.50	44046.54
568.66	43620.56
568.83	44053.56
568.99	43356.08
569.15	44041.86
569.32	43796.10
569.48	43896.75
569.64	44158.89
569.81	44252.51
569.97	43959.94
570.13	44477.20
570.30	43590.14
570.46	44137.82
570.62	43997.39
570.78	43969.30
570.95	43983.35
571.11	44100.37
571.27	43983.35
571.43	43819.51
571.60	43899.09
571.76	44175.27
571.92	44423.37
572.09	44128.46
572.25	44367.20
572.41	44051.22
572.57	44381.24
572.74	44715.93
572.90	43948.24
573.06	44498.26
573.22	44444.43
573.38	44554.44
573.55	44273.57
573.71	45064.67
573.87	44610.61
574.03	44079.31
574.20	44535.71
574.36	44474.86
574.52	44802.53
574.68	44479.54
574.84	44697.21
575.01	44425.71
575.17	44467.84
575.33	44355.49
575.49	44634.02
575.65	44074.63
575.82	44758.06
575.98	44067.61
576.14	44591.89
576.30	44533.37
576.46	44877.43
576.62	44287.62
576.79	44402.30
576.95	44231.44
577.11	44002.07
577.27	44313.36
577.43	44648.06
577.59	44285.28
577.75	44683.17
577.92	44081.65
578.08	44631.68
578.24	44313.36
578.40	45067.02
578.56	44596.57
578.72	44285.28
578.88	44861.05
579.04	44315.70
579.21	44575.50
579.37	44561.46
579.53	44776.79
579.69	44619.97
579.85	44648.06
580.01	44685.51
580.17	44563.80
580.33	44652.74
580.49	45095.10
580.65	45085.74
580.82	44552.10
580.98	44238.47
581.14	44385.92
581.30	44486.56
581.46	44507.63
581.62	44711.25
581.78	44762.75
581.94	45001.48
582.10	44795.51
582.26	44348.47
582.42	44942.97
582.58	45134.89
582.74	44982.76
582.90	44542.74
583.06	45132.55
583.22	44659.76
583.38	44755.72
583.54	44818.92
583.70	44954.67
583.86	44643.38
584.02	44729.98
584.18	45160.64
584.34	44814.24
584.50	44671.46
584.66	45284.68
584.82	45106.80
584.98	45242.56
585.14	44678.49
585.30	44765.09
585.46	44996.80
585.62	44631.68
585.78	44676.15
585.94	44821.26
586.10	44622.31
586.26	44683.17
586.42	44687.85
586.58	44676.15
586.74	44601.25
586.90	44486.56
587.06	44847.00
587.22	45303.41
587.38	44699.55
587.54	45022.54
587.70	45188.72
587.86	44875.09
588.02	44720.62
588.18	45469.59
588.34	44868.07
588.49	45174.68
588.65	44858.71
588.81	44748.70
588.97	45064.67
589.13	45106.80
589.29	45090.42
589.45	45769.18
589.61	45289.37
589.77	45198.09
589.93	44807.22
590.08	45081.06
