SpectraSuite Data File
++++++++++++++++++++++++++++++++++++
Date: Fri Oct 25 11:34:38 EDT 2013
User: price-jones
Dark Spectrum Present: No
Reference Spectrum Present: No
Number of Sampled Component Spectra: 1
Spectrometers: USB2+H05261
Integration Time (usec): 100000 (USB2+H05261)
Spectra Averaged: 1 (USB2+H05261)
Boxcar Smoothing: 0 (USB2+H05261)
Correct for Electrical Dark: No (USB2+H05261)
Strobe/Lamp Enabled: No (USB2+H05261)
Correct for Detector Non-linearity: No (USB2+H05261)
Correct for Stray Light: No (USB2+H05261)
Number of Pixels in Processed Spectrum: 2048
>>>>>Begin Processed Spectral Data<<<<<
365.73	257.46
365.92	257.46
366.12	257.46
366.32	238.73
366.52	170.86
366.72	191.92
366.91	102.98
367.11	196.60
367.31	250.44
367.51	175.54
367.70	215.33
367.90	187.24
368.10	236.39
368.30	121.71
368.49	184.90
368.69	182.56
368.89	184.90
369.09	182.56
369.28	245.76
369.48	210.65
369.68	287.89
369.87	264.48
370.07	283.20
370.27	280.86
370.47	322.99
370.66	388.53
370.86	550.03
371.06	531.30
371.25	561.73
371.45	514.92
371.65	603.86
371.84	517.26
372.04	540.66
372.24	533.64
372.44	575.77
372.63	594.50
372.83	554.71
373.03	559.39
373.22	627.26
373.42	615.56
373.62	559.39
373.81	582.79
374.01	587.47
374.21	650.67
374.40	615.56
374.60	676.41
374.79	613.22
374.99	697.48
375.19	653.01
375.38	521.94
375.58	648.33
375.78	573.43
375.97	615.56
376.17	702.16
376.37	704.50
376.56	617.90
376.76	645.99
376.95	655.35
377.15	667.05
377.35	620.24
377.54	720.88
377.74	638.97
377.93	631.94
378.13	669.39
378.33	678.76
378.52	648.33
378.72	725.57
378.91	653.01
379.11	676.41
379.31	678.76
379.50	662.37
379.70	711.52
379.89	760.67
380.09	695.14
380.28	664.71
380.48	737.27
380.68	697.48
380.87	699.82
381.07	720.88
381.26	777.06
381.46	863.66
381.65	779.40
381.85	716.20
382.04	798.12
382.24	683.44
382.43	746.63
382.63	816.85
382.83	734.93
383.02	795.78
383.22	830.89
383.41	751.31
383.61	753.65
383.80	760.67
384.00	702.16
384.19	765.36
384.39	781.74
384.58	760.67
384.78	814.51
384.97	866.00
385.17	786.42
385.36	791.10
385.56	805.14
385.75	816.85
385.95	819.19
386.14	830.89
386.34	866.00
386.53	826.21
386.72	847.27
386.92	908.13
387.11	908.13
387.31	877.70
387.50	833.23
387.70	847.27
387.89	877.70
388.09	793.44
388.28	751.31
388.48	894.08
388.67	837.91
388.86	868.34
389.06	889.40
389.25	950.26
389.45	1004.09
389.64	898.77
389.84	973.66
390.03	971.32
390.22	884.72
390.42	896.43
390.61	973.66
390.81	896.43
391.00	987.71
391.19	1015.79
391.39	973.66
391.58	837.91
391.78	940.90
391.97	1027.50
392.16	1020.47
392.36	997.07
392.55	1055.58
392.75	1027.50
392.94	1036.86
393.13	994.73
393.33	1004.09
393.52	917.49
393.71	1032.18
393.91	976.00
394.10	1001.75
394.29	1062.60
394.49	1050.90
394.68	1055.58
394.88	1050.90
395.07	1001.75
395.26	1036.86
395.46	1062.60
395.65	1123.46
395.84	1093.03
396.04	1191.33
396.23	1151.54
396.42	1172.61
396.62	1210.06
396.81	1153.88
397.00	1191.33
397.19	1156.22
397.39	1137.50
397.58	1280.27
397.77	1188.99
397.97	1249.85
398.16	1167.93
398.35	1179.63
398.55	1240.48
398.74	1207.72
398.93	1280.27
399.12	1163.25
399.32	1235.80
399.51	1387.94
399.70	1334.11
399.90	1240.48
400.09	1275.59
400.28	1387.94
400.47	1376.24
400.67	1313.04
400.86	1273.25
401.05	1364.53
401.24	1355.17
401.44	1327.08
401.63	1418.36
401.82	1362.19
402.01	1373.89
402.21	1364.53
402.40	1394.96
402.59	1430.07
402.78	1444.11
402.97	1383.26
403.17	1551.78
403.36	1413.68
403.55	1476.88
403.74	1568.16
403.93	1530.71
404.13	1551.78
404.32	1507.30
404.51	1540.07
404.70	1579.86
404.89	1584.54
405.09	1500.28
405.28	1547.09
405.47	1584.54
405.66	1544.75
405.85	1629.01
406.05	1600.93
406.24	1619.65
406.43	1717.95
406.62	1717.95
406.81	1720.29
407.00	1638.38
407.20	1715.61
407.39	1776.47
407.58	1720.29
407.77	1830.30
407.96	1806.89
408.15	1806.89
408.34	1785.83
408.54	1832.64
408.73	1823.28
408.92	1987.11
409.11	1790.51
409.30	1940.30
409.49	1937.96
409.68	1909.88
409.87	2031.58
410.07	1877.11
410.26	2017.54
410.45	2026.90
410.64	1998.82
410.83	2026.90
411.02	1966.05
411.21	2047.97
411.40	2106.48
411.59	2069.03
411.78	2132.23
411.98	1994.14
412.17	2153.29
412.36	2216.49
412.55	2162.66
412.74	2183.72
412.93	2186.06
413.12	2214.15
413.31	2345.22
413.50	2204.78
413.69	2324.15
413.88	2300.75
414.07	2296.07
414.26	2342.88
414.45	2417.77
414.64	2429.48
414.83	2429.48
415.02	2534.80
415.22	2473.95
415.41	2457.56
415.60	2469.27
415.79	2630.76
415.98	2499.69
416.17	2544.16
416.36	2537.14
416.55	2647.15
416.74	2658.85
416.93	2607.36
417.12	2696.30
417.31	2703.32
417.50	2691.62
417.69	2949.08
417.88	2729.06
418.07	2733.75
418.26	2752.47
418.45	2834.39
418.64	2974.82
418.83	2977.16
419.02	2972.48
419.21	2883.54
419.39	2981.84
419.58	2818.00
419.77	2881.20
419.96	3117.59
420.15	3105.89
420.34	2949.08
420.53	3021.63
420.72	3094.19
420.91	3103.55
421.10	3077.80
421.29	3143.34
421.48	3049.72
421.67	3052.06
421.86	3117.59
422.05	3199.51
422.24	3119.93
422.43	3236.96
422.61	3218.24
422.80	3281.43
422.99	3232.28
423.18	3307.18
423.37	3218.24
423.56	3246.32
423.75	3267.39
423.94	3115.25
424.13	3091.85
424.32	3152.70
424.50	3337.60
424.69	3337.60
424.88	3307.18
425.07	3286.11
425.26	3208.87
425.45	3150.36
425.64	3337.60
425.83	3356.33
426.01	3227.60
426.20	3290.79
426.39	3300.16
426.58	3396.12
426.77	3396.12
426.96	3463.99
427.15	3356.33
427.33	3534.21
427.52	3433.57
427.71	3501.44
427.90	3356.33
428.09	3403.14
428.28	3515.48
428.46	3309.52
428.65	3426.54
428.84	3695.71
429.03	3604.42
429.22	3494.42
429.40	3557.61
429.59	3597.40
429.78	3541.23
429.97	3506.12
430.16	3648.90
430.34	3611.45
430.53	3630.17
430.72	3588.04
430.91	3833.80
431.10	3714.43
431.28	3845.50
431.47	3721.45
431.66	3847.84
431.85	3637.19
432.03	3922.74
432.22	3859.54
432.41	3845.50
432.60	3829.12
432.79	3896.99
432.97	3836.14
433.16	4004.66
433.35	3744.86
433.54	3843.16
433.72	4046.79
433.91	3971.89
434.10	4131.05
434.28	3985.93
434.47	4102.96
434.66	4095.94
434.85	4056.15
435.03	4091.26
435.22	4147.43
435.41	4166.15
435.59	4208.28
435.78	4100.62
435.97	4128.70
436.16	4255.09
436.34	4170.83
436.53	4217.65
436.72	4280.84
436.90	4189.56
437.09	4304.25
437.28	4369.78
437.46	4229.35
437.65	4287.86
437.84	4468.08
438.02	4334.67
438.21	4428.29
438.40	4227.01
438.58	4531.28
438.77	4589.79
438.96	4360.42
439.14	4678.73
439.33	4643.62
439.52	4559.36
439.70	4578.09
439.89	4788.74
440.08	4730.22
440.26	4669.37
440.45	4692.77
440.63	4770.01
440.82	4896.40
441.01	4882.36
441.19	4873.00
441.38	5034.49
441.57	4966.62
441.75	4936.19
441.94	5165.56
442.12	5165.56
442.31	5116.41
442.50	5261.52
442.68	5200.67
442.87	5081.30
443.05	5270.89
443.24	5404.30
443.43	5188.97
443.61	5488.56
443.80	5390.25
443.98	5174.92
444.17	5186.63
444.35	5200.67
444.54	5252.16
444.73	5308.34
444.91	5291.95
445.10	5298.97
445.28	5320.04
445.47	5345.78
445.65	5448.77
445.84	5310.68
446.02	5474.51
446.21	5359.83
446.39	5434.72
446.58	5593.88
446.77	5378.55
446.95	5284.93
447.14	5310.68
447.32	5432.38
447.51	5413.66
447.69	5486.22
447.88	5556.43
448.06	5572.82
448.25	5476.85
448.43	5516.64
448.62	5593.88
448.80	5638.35
448.99	5631.33
449.17	5722.61
449.36	5418.34
449.54	5703.89
449.73	5729.63
449.91	5818.57
450.10	5823.25
450.28	5970.71
450.46	5668.78
450.65	5860.70
450.83	5846.66
451.02	5839.64
451.20	5860.70
451.39	5764.74
451.57	5839.64
451.76	5788.14
451.94	5947.30
452.13	5994.11
452.31	6071.35
452.49	5930.92
452.68	6153.27
452.86	6057.31
453.05	6221.14
453.23	6071.35
453.42	5966.03
453.60	5961.34
453.78	6073.69
453.97	6083.05
454.15	6167.31
454.34	6157.95
454.52	6307.74
454.70	6214.12
454.89	6289.02
455.07	6101.78
455.26	6356.90
455.44	6317.11
455.62	6380.30
455.81	6462.22
455.99	6361.58
456.17	6317.11
456.36	6590.95
456.54	6473.92
456.73	6581.59
456.91	6541.80
457.09	6597.97
457.28	6633.08
457.46	6513.71
457.64	6628.40
457.83	6569.88
458.01	6745.42
458.19	6899.90
458.38	6820.32
458.56	6853.09
458.74	6937.35
458.93	6796.92
459.11	6759.47
459.29	6904.58
459.48	6942.03
459.66	6778.19
459.84	7042.67
460.03	7126.93
460.21	7246.30
460.39	7002.88
460.57	6991.18
460.76	6998.20
460.94	7190.13
461.12	6960.75
461.31	7037.99
461.49	6998.20
461.67	7173.74
461.85	7021.61
462.04	7140.97
462.22	7721.43
462.40	7391.41
462.59	7243.96
462.77	7218.21
462.95	7419.50
463.13	7372.69
463.32	7178.42
463.50	7515.46
463.68	7440.56
463.86	7583.34
464.05	7552.91
464.23	7260.34
464.41	7463.97
464.59	7585.68
464.78	7903.99
464.96	7681.64
465.14	7665.25
465.32	7683.98
465.50	7896.97
465.69	7775.26
465.87	7712.07
466.05	7705.04
466.23	7758.88
466.41	7911.01
466.60	7934.42
466.78	7866.54
466.96	7822.07
467.14	7728.45
467.32	7990.59
467.51	7915.69
467.69	7763.56
467.87	7955.48
468.05	7911.01
468.23	7756.54
468.41	7948.46
468.60	8133.36
468.78	8044.42
468.96	8018.68
469.14	8215.28
469.32	8131.02
469.50	7950.80
469.69	8219.96
469.87	8358.05
470.05	8336.99
470.23	8283.16
470.41	8308.90
470.59	8514.87
470.77	8404.86
470.95	8238.69
471.14	8472.74
471.32	8138.04
471.50	8470.40
471.68	8617.85
471.86	8528.91
472.04	8833.18
472.22	8870.63
472.40	8772.33
472.58	8678.71
472.77	8950.21
472.95	8889.35
473.13	9076.60
473.31	8901.06
473.49	9130.43
473.67	8861.27
473.85	8929.14
474.03	9221.71
474.21	9212.35
474.39	9315.33
474.57	9245.12
474.75	9376.19
474.93	9514.28
475.12	9453.42
475.30	9549.39
475.48	9518.96
475.66	9390.23
475.84	9486.19
476.02	9577.47
476.20	9750.67
476.38	10178.99
476.56	10083.03
476.74	9874.72
476.92	10054.94
477.10	10010.47
477.28	10040.90
477.46	10017.49
477.64	10148.56
477.82	10300.70
478.00	10553.48
478.18	10462.19
478.36	10441.13
478.54	10796.89
478.72	10525.39
478.90	10808.59
479.08	11028.60
479.26	10862.43
479.44	11138.61
479.62	11309.47
479.80	11351.60
479.98	11225.21
480.16	11548.20
480.34	11419.47
480.52	11658.21
480.70	11709.70
480.88	11805.66
481.06	11676.93
481.24	11763.53
481.41	11969.50
481.59	12023.33
481.77	12063.12
481.95	12208.23
482.13	12362.71
482.31	12297.17
482.49	12545.27
482.67	12659.96
482.85	12645.91
483.03	12922.10
483.21	13071.89
483.39	13163.17
483.57	12924.44
483.74	13390.20
483.92	13289.56
484.10	13364.46
484.28	13394.89
484.46	13678.09
484.64	14066.62
484.82	13764.69
485.00	13818.52
485.18	14389.61
485.35	14242.16
485.53	14434.08
485.71	14216.41
485.89	14747.72
486.07	14593.24
486.25	14359.19
486.43	14560.47
486.61	14951.34
486.78	14958.36
486.96	15056.67
487.14	15087.09
487.32	15403.07
487.50	15389.02
487.68	15489.67
487.85	15529.45
488.03	16023.31
488.21	16053.73
488.39	15845.43
488.57	15925.00
488.75	16514.82
488.92	16533.54
489.10	16713.77
489.28	16222.25
489.46	16959.52
489.64	16758.24
489.81	17317.62
489.99	17165.49
490.17	17224.00
490.35	17383.16
490.53	17432.31
490.70	17666.36
490.88	17523.59
491.06	18040.85
491.24	18157.88
491.41	18061.91
491.59	18200.01
491.77	17980.00
491.95	18164.90
492.13	18422.36
492.30	18541.72
492.48	18492.57
492.66	18740.67
492.84	18675.13
493.01	19096.43
493.19	19152.60
493.37	19187.71
493.54	19211.12
493.72	19403.04
493.90	19304.74
494.08	19695.61
494.25	19964.77
494.43	19908.60
494.61	19814.98
494.79	20250.32
494.96	20144.99
495.14	20046.69
495.32	20655.23
495.49	20297.13
495.67	20716.08
495.85	21125.68
496.02	20870.56
496.20	21312.92
496.38	21432.29
496.55	21179.51
496.73	21781.03
496.91	21495.48
497.09	21680.38
497.26	21603.14
497.44	21645.27
497.62	21720.17
497.79	22101.68
497.97	21954.22
498.14	22167.21
498.32	22448.08
498.50	22679.79
498.67	22892.78
498.85	22499.57
499.03	22644.68
499.20	22682.13
499.38	22951.29
499.56	22974.70
499.73	23157.26
499.91	23262.58
500.08	23679.20
500.26	23215.77
500.44	23550.47
500.61	23414.72
500.79	23297.69
500.97	23683.88
501.14	24135.60
501.32	24203.48
501.49	23957.72
501.67	24140.29
501.84	24212.84
502.02	23733.03
502.20	24472.64
502.37	24442.21
502.55	24053.69
502.72	24269.01
502.90	24343.91
503.07	24512.43
503.25	24470.30
503.43	24482.00
503.60	24882.24
503.78	24835.42
503.95	24751.17
504.13	25055.43
504.30	25579.71
504.48	25673.34
504.65	25371.41
504.83	25717.81
505.01	25579.71
505.18	25439.28
505.36	25785.68
505.53	25380.77
505.71	25963.56
505.88	26038.46
506.06	25600.78
506.23	26206.98
506.41	26256.13
506.58	26043.14
506.76	26256.13
506.93	26611.89
507.11	26684.45
507.28	26817.86
507.46	26665.72
507.63	26801.47
507.81	26913.82
507.98	26604.87
508.16	26656.36
508.33	26829.56
508.50	26984.04
508.68	27278.94
508.85	27473.21
509.03	27257.88
509.20	27571.51
509.38	27463.85
509.55	27641.73
509.73	27468.53
509.90	27711.94
510.08	27807.90
510.25	27903.87
510.42	27854.72
510.60	27702.58
510.77	28037.28
510.95	28472.62
511.12	28109.83
511.30	27995.15
511.47	28409.42
511.64	28278.35
511.82	28889.23
511.99	28460.91
512.17	28821.36
512.34	28783.91
512.51	29184.14
512.69	29010.94
512.86	28811.99
513.04	29280.10
513.21	28858.81
513.38	29268.40
513.56	29537.56
513.73	29146.69
513.90	29692.04
514.08	29640.54
514.25	29968.22
514.43	29883.96
514.60	29792.68
514.77	29682.67
514.95	30096.95
515.12	29813.74
515.29	30223.34
515.47	30134.40
515.64	30419.94
515.81	29935.45
515.99	30391.86
516.16	30911.46
516.33	30471.43
516.51	30918.48
516.68	30635.27
516.85	30593.14
517.03	30897.41
517.20	31328.07
517.37	31084.65
517.54	30742.94
517.72	30824.86
517.89	31037.84
518.06	31241.47
518.24	31377.22
518.41	30852.94
518.58	31264.88
518.75	31173.60
518.93	31985.76
519.10	31461.48
519.27	31529.36
519.45	31646.38
519.62	31817.24
519.79	31828.95
519.96	31831.29
520.14	31615.96
520.31	31957.67
520.48	32051.30
520.65	32479.61
520.83	32280.67
521.00	32135.56
521.17	32491.32
521.34	32652.81
521.52	32435.14
521.69	32690.26
521.86	32650.47
522.03	32926.66
522.20	33095.18
522.38	32903.25
522.55	32797.93
522.72	33116.24
522.89	33266.03
523.07	33624.14
523.24	33076.45
523.41	33472.00
523.58	33502.43
523.75	33270.72
523.92	33455.62
524.10	33841.81
524.27	33457.96
524.44	33516.47
524.61	33909.68
524.78	33682.65
524.96	33989.26
525.13	33900.32
525.30	34026.71
525.47	34448.00
525.64	33993.94
525.81	34616.52
525.98	34209.27
526.16	34249.06
526.33	34185.86
526.50	34370.77
526.67	34305.23
526.84	34431.62
527.01	34375.45
527.18	34394.17
527.36	34611.84
527.53	34993.35
527.70	35367.84
527.87	35077.61
528.04	34974.63
528.21	35274.21
528.38	34799.08
528.55	35175.91
528.72	35105.70
528.89	35285.92
529.07	35248.47
529.24	35145.48
529.41	35644.02
529.58	35021.44
529.75	35070.59
529.92	35503.59
530.09	35976.37
530.26	35791.47
530.43	35711.89
530.60	35421.67
530.77	35587.85
530.94	35592.53
531.11	35927.22
531.28	35896.80
531.46	36144.89
531.63	36130.85
531.80	35660.40
531.97	36222.13
532.14	36081.70
532.31	36072.34
532.48	36215.11
532.65	36388.31
532.82	36620.02
532.99	36582.57
533.16	36442.14
533.33	36582.57
533.50	36720.66
533.67	36566.19
533.84	36793.22
534.01	37024.93
534.18	36662.15
534.35	36800.24
534.52	37151.32
534.69	36952.38
534.86	37050.68
535.03	36959.40
535.20	37195.79
535.37	37228.56
535.54	37390.06
535.71	37612.41
535.88	37429.85
536.05	37488.36
536.22	37736.46
536.38	37099.83
536.55	37509.43
536.72	37633.47
536.89	37170.05
537.06	37666.24
537.23	37696.67
537.40	37474.32
537.57	37673.26
537.74	37556.24
537.91	38085.20
538.08	38153.07
538.25	37589.00
538.42	37965.83
538.59	38345.00
538.75	38223.29
538.92	38389.47
539.09	38792.04
539.26	38293.50
539.43	38445.64
539.60	38274.78
539.77	38389.47
539.94	38389.47
540.11	38321.59
540.28	38543.94
540.44	38747.57
540.61	38536.92
540.78	38190.52
540.95	38483.09
541.12	38719.48
541.29	38356.70
541.46	38944.17
541.62	38670.33
541.79	39026.09
541.96	38799.06
542.13	39164.18
542.30	38799.06
542.47	39297.59
542.63	38899.70
542.80	39379.51
542.97	39276.53
543.14	39714.21
543.31	39349.09
543.48	39744.64
543.64	40009.12
543.81	39620.59
543.98	39604.20
544.15	39798.47
544.32	39557.39
544.48	40140.19
544.65	39627.61
544.82	39810.17
544.99	39597.18
545.16	40107.42
545.32	40060.61
545.49	40112.10
545.66	40339.13
545.83	40102.74
546.00	40369.56
546.16	40137.85
546.33	40252.53
546.50	40170.61
546.67	40435.10
546.83	39999.76
547.00	40617.66
547.17	40027.84
547.34	40701.92
547.50	40776.81
547.67	40982.78
547.84	40605.95
548.00	40760.43
548.17	41036.61
548.34	40753.41
548.51	41043.63
548.67	41003.85
548.84	40868.09
549.01	41001.50
549.18	40994.48
549.34	41275.35
549.51	41088.10
549.68	41408.76
549.84	41338.54
550.01	41638.13
550.18	40840.01
550.34	41441.53
550.51	41240.24
550.68	41198.11
550.84	40942.99
551.01	41331.52
551.18	41675.58
551.34	41209.81
551.51	41720.05
551.68	41628.77
551.84	41429.82
552.01	41209.81
552.18	41736.43
552.34	41596.00
552.51	41504.72
552.68	41177.04
552.84	41879.21
553.01	41867.50
553.18	41897.93
553.34	42045.38
553.51	41394.71
553.67	41804.31
553.84	41888.57
554.01	42253.69
554.17	41832.39
554.34	42169.43
554.51	42483.06
554.67	42485.40
554.84	42162.41
555.00	41918.99
555.17	42038.36
555.33	42426.89
555.50	42096.88
555.67	42354.33
555.83	42391.78
556.00	42230.29
556.16	42761.59
556.33	42712.44
556.50	42550.94
556.66	42473.70
556.83	42047.72
556.99	42569.66
557.16	42787.33
557.32	42574.34
557.49	42857.55
557.65	42614.13
557.82	42714.78
557.98	42625.84
558.15	42628.18
558.32	42794.36
558.48	42497.11
558.65	43311.61
558.81	42934.79
558.98	42717.12
559.14	43033.09
559.31	42831.80
559.47	42618.81
559.64	43150.12
559.80	43318.64
559.97	43302.25
560.13	42939.47
560.30	42951.17
560.46	43349.06
560.63	43285.87
560.79	43405.23
560.96	43526.94
561.12	43665.03
561.29	42997.98
561.45	43323.32
561.61	43438.00
561.78	42862.23
561.94	43271.82
562.11	43171.18
562.27	43489.49
562.44	43173.52
562.60	43508.22
562.77	43571.41
562.93	43070.54
563.10	43566.73
563.26	43089.26
563.42	43920.15
563.59	43423.96
563.75	43426.30
563.92	43650.99
564.08	43725.89
564.24	43590.14
564.41	43711.84
564.57	43922.49
564.74	44144.84
564.90	43548.01
565.07	43353.74
565.23	43367.79
565.39	43847.60
565.56	43700.14
565.72	43746.95
565.88	44053.56
566.05	43753.97
566.21	44418.69
566.38	43594.82
566.54	43737.59
566.70	44098.03
566.87	44072.29
567.03	43988.03
567.19	44271.23
567.36	44168.25
567.52	43763.34
567.68	44268.89
567.85	44210.38
568.01	44238.47
568.17	43868.66
568.34	43798.44
568.50	44086.33
568.66	44093.35
568.83	43695.46
568.99	43892.07
569.15	43859.30
569.32	44315.70
569.48	43650.99
569.64	44315.70
569.81	44182.29
569.97	44308.68
570.13	43938.88
570.30	43950.58
570.46	44287.62
570.62	44016.11
570.78	44119.10
570.95	44238.47
571.11	44383.58
571.27	44123.78
571.43	43943.56
571.60	44011.43
571.76	44392.94
571.92	44357.83
572.09	44257.19
572.25	44418.69
572.41	43978.67
572.57	44392.94
572.74	44430.39
572.90	44114.42
573.06	44477.20
573.22	44439.75
573.38	44526.35
573.55	44353.15
573.71	45184.04
573.87	44547.42
574.03	44201.02
574.20	44327.41
574.36	44648.06
574.52	44596.57
574.68	44306.34
574.84	44648.06
575.01	44919.56
575.17	44596.57
575.33	44554.44
575.49	44481.88
575.65	44868.07
575.82	44706.57
575.98	44154.21
576.14	44657.42
576.30	44807.22
576.46	44650.40
576.62	44659.76
576.79	44898.50
576.95	44233.78
577.11	44748.70
577.27	44369.54
577.43	44470.18
577.59	44575.50
577.75	44201.02
577.92	44257.19
578.08	44587.21
578.24	44619.97
578.40	45237.87
578.56	44830.62
578.72	44624.65
578.88	44989.78
579.04	44928.92
579.21	44505.29
579.37	44706.57
579.53	45116.17
579.69	44582.52
579.85	44657.42
580.01	44381.24
580.17	44610.61
580.33	44657.42
580.49	44601.25
580.65	44477.20
580.82	44369.54
580.98	44788.49
581.14	44547.42
581.30	44987.44
581.46	44594.23
581.62	44395.28
581.78	44589.55
581.94	44886.79
582.10	44968.71
582.26	45158.30
582.42	44839.98
582.58	44809.56
582.74	44811.90
582.90	45226.17
583.06	45111.49
583.22	44680.83
583.38	44739.34
583.54	44957.01
583.70	44949.99
583.86	45055.31
584.02	44769.77
584.18	45364.26
584.34	44863.39
584.50	45170.00
584.66	44940.63
584.82	44996.80
584.98	45050.63
585.14	45139.57
585.30	44666.78
585.46	45162.98
585.62	44818.92
585.78	44713.59
585.94	44842.32
586.10	45076.38
586.26	44753.38
586.42	44886.79
586.58	44685.51
586.74	45111.49
586.90	44701.89
587.06	44587.21
587.22	44886.79
587.38	45345.54
587.54	45338.52
587.70	45420.44
587.86	45132.55
588.02	45151.27
588.18	44839.98
588.34	45158.30
588.49	45031.91
588.65	44692.53
588.81	45301.07
588.97	44949.99
589.13	45064.67
589.29	45088.08
589.45	45521.08
589.61	45097.44
589.77	45240.21
589.93	45319.79
590.08	44910.20
