SpectraSuite Data File
++++++++++++++++++++++++++++++++++++
Date: Fri Oct 25 10:43:40 EDT 2013
User: price-jones
Dark Spectrum Present: No
Reference Spectrum Present: No
Number of Sampled Component Spectra: 1
Spectrometers: USB2+H05261
Integration Time (usec): 100000 (USB2+H05261)
Spectra Averaged: 1 (USB2+H05261)
Boxcar Smoothing: 0 (USB2+H05261)
Correct for Electrical Dark: No (USB2+H05261)
Strobe/Lamp Enabled: No (USB2+H05261)
Correct for Detector Non-linearity: No (USB2+H05261)
Correct for Stray Light: No (USB2+H05261)
Number of Pixels in Processed Spectrum: 2048
>>>>>Begin Processed Spectral Data<<<<<
365.73	117.03
365.92	117.03
366.12	117.03
366.32	14.04
366.52	16.38
366.72	9.36
366.91	0.00
367.11	0.00
367.31	0.00
367.51	0.00
367.70	70.22
367.90	0.00
368.10	16.38
368.30	11.70
368.49	0.00
368.69	46.81
368.89	0.00
369.09	95.96
369.28	4.68
369.48	39.79
369.68	51.49
369.87	93.62
370.07	37.45
370.27	138.09
370.47	196.60
370.66	360.44
370.86	404.91
371.06	496.19
371.25	449.38
371.45	425.98
371.65	468.11
371.84	486.83
372.04	416.62
372.24	449.38
372.44	505.56
372.63	442.36
372.83	468.11
373.03	540.66
373.22	592.16
373.42	550.03
373.62	568.75
373.81	524.28
374.01	596.84
374.21	634.29
374.40	568.75
374.60	631.94
374.79	606.20
374.99	533.64
375.19	606.20
375.38	664.71
375.58	636.63
375.78	667.05
375.97	643.65
376.17	676.41
376.37	627.26
376.56	657.69
376.76	631.94
376.95	718.54
377.15	638.97
377.35	690.46
377.54	732.59
377.74	667.05
377.93	737.27
378.13	634.29
378.33	683.44
378.52	645.99
378.72	660.03
378.91	587.47
379.11	610.88
379.31	592.16
379.50	594.50
379.70	657.69
379.89	704.50
380.09	669.39
380.28	716.20
380.48	676.41
380.68	737.27
380.87	650.67
381.07	657.69
381.26	711.52
381.46	711.52
381.65	667.05
381.85	695.14
382.04	674.07
382.24	763.01
382.43	683.44
382.63	709.18
382.83	716.20
383.02	767.70
383.22	695.14
383.41	774.72
383.61	770.04
383.80	807.48
384.00	774.72
384.19	772.38
384.39	758.33
384.58	837.91
384.78	788.76
384.97	816.85
385.17	858.98
385.36	856.64
385.56	861.32
385.75	828.55
385.95	751.31
386.14	863.66
386.34	861.32
386.53	835.57
386.72	779.40
386.92	812.17
387.11	807.48
387.31	950.26
387.50	795.78
387.70	915.15
387.89	891.74
388.09	880.04
388.28	842.59
388.48	938.55
388.67	961.96
388.86	1020.47
389.06	1022.81
389.25	997.07
389.45	983.02
389.64	992.39
389.84	922.17
390.03	1013.45
390.22	985.37
390.42	894.08
390.61	905.79
390.81	929.19
391.00	1050.90
391.19	999.41
391.39	1109.41
391.58	1135.16
391.78	1095.37
391.97	985.37
392.16	1053.24
392.36	1121.12
392.55	1090.69
392.75	985.37
392.94	1083.67
393.13	887.06
393.33	933.87
393.52	1053.24
393.71	1130.48
393.91	1060.26
394.10	1107.07
394.29	1156.22
394.49	1184.31
394.68	1200.69
394.88	1350.49
395.07	1259.21
395.26	1329.42
395.46	1228.78
395.65	1198.35
395.84	1238.14
396.04	1331.76
396.23	1217.08
396.42	1139.84
396.62	1217.08
396.81	1219.42
397.00	1277.93
397.19	1289.64
397.39	1376.24
397.58	1378.58
397.77	1507.30
397.97	1394.96
398.16	1462.83
398.35	1423.05
398.55	1416.02
398.74	1540.07
398.93	1575.18
399.12	1521.35
399.32	1451.13
399.51	1465.18
399.70	1589.22
399.90	1483.90
400.09	1645.40
400.28	1621.99
400.47	1586.88
400.67	1621.99
400.86	1664.12
401.05	1605.61
401.24	1657.10
401.44	1757.74
401.63	1732.00
401.82	1797.53
402.01	1797.53
402.21	1776.47
402.40	1842.00
402.59	1795.19
402.78	1755.40
402.97	1827.96
403.17	1811.57
403.36	1853.70
403.55	1860.73
403.74	1956.69
403.93	1928.60
404.13	1902.86
404.32	1954.35
404.51	1900.52
404.70	1916.90
404.89	2010.52
405.09	1966.05
405.28	1916.90
405.47	1846.68
405.66	1914.56
405.85	2040.95
406.05	1987.11
406.24	2043.29
406.43	2057.33
406.62	2225.85
406.81	2179.04
407.00	2094.78
407.20	2106.48
407.39	2087.76
407.58	2172.02
407.77	2204.78
407.96	2267.98
408.15	2193.08
408.34	2263.30
408.54	2352.24
408.73	2251.60
408.92	2373.30
409.11	2305.43
409.30	2345.22
409.49	2260.96
409.68	2249.25
409.87	2324.15
410.07	2368.62
410.26	2314.79
410.45	2490.33
410.64	2495.01
410.83	2534.80
411.02	2651.83
411.21	2560.55
411.40	2661.19
411.59	2677.57
411.78	2672.89
411.98	2530.12
412.17	2649.49
412.36	2764.17
412.55	2691.62
412.74	2803.96
412.93	2801.62
413.12	2670.55
413.31	2998.23
413.50	2867.16
413.69	2963.12
413.88	3129.30
414.07	2981.84
414.26	3042.70
414.45	3007.59
414.64	3178.45
414.83	3030.99
415.02	3026.31
415.22	3122.27
415.41	3143.34
415.60	3117.59
415.79	3176.11
415.98	3398.46
416.17	3283.77
416.36	3260.37
416.55	3286.11
416.74	3335.26
416.93	3211.22
417.12	3368.03
417.31	3426.54
417.50	3480.38
417.69	3541.23
417.88	3471.01
418.07	3524.85
418.26	3485.06
418.45	3574.00
418.64	3674.64
418.83	3765.92
419.02	3665.28
419.21	3691.02
419.39	3548.25
419.58	3459.31
419.77	3737.84
419.96	3674.64
420.15	3756.56
420.34	3726.13
420.53	3875.93
420.72	3882.95
420.91	3822.09
421.10	4004.66
421.29	3925.08
421.48	3798.69
421.67	3936.78
421.86	3838.48
422.05	3831.46
422.24	3847.84
422.43	3875.93
422.61	3934.44
422.80	3995.29
422.99	3861.88
423.18	3936.78
423.37	4009.34
423.56	3967.21
423.75	3920.40
423.94	3988.27
424.13	3733.15
424.32	3829.12
424.50	3911.04
424.69	4056.15
424.88	4117.00
425.07	3941.46
425.26	3922.74
425.45	3964.87
425.64	4037.42
425.83	3922.74
426.01	4163.81
426.20	4081.89
426.39	4124.02
426.58	3955.51
426.77	3854.86
426.96	4140.41
427.15	3978.91
427.33	3939.12
427.52	4189.56
427.71	4325.31
427.90	4257.43
428.09	4337.01
428.28	4222.33
428.46	4280.84
428.65	4264.46
428.84	4444.68
429.03	4311.27
429.22	4175.52
429.40	4194.24
429.59	4119.34
429.78	3964.87
429.97	4060.83
430.16	4021.04
430.34	4007.00
430.53	4264.46
430.72	4133.39
430.91	4266.80
431.10	4407.23
431.28	4627.24
431.47	4751.29
431.66	4699.80
431.85	4627.24
432.03	4664.69
432.22	4741.93
432.41	4545.32
432.60	4678.73
432.79	4603.83
432.97	4807.46
433.16	4861.29
433.35	4760.65
433.54	4781.71
433.72	4660.01
433.91	4589.79
434.10	4896.40
434.28	4952.57
434.47	4887.04
434.66	4971.30
434.85	5043.85
435.03	5097.69
435.22	4992.36
435.41	5296.63
435.59	4973.64
435.78	5191.31
435.97	5158.54
436.16	5231.10
436.34	5057.90
436.53	5305.99
436.72	5350.46
436.90	5093.01
437.09	5259.18
437.28	5352.81
437.46	5287.27
437.65	5233.44
437.84	5270.89
438.02	5221.74
438.21	5247.48
438.40	5195.99
438.58	5416.00
438.77	5432.38
438.96	5577.50
439.14	5668.78
439.33	5598.56
439.52	5621.97
439.70	5638.35
439.89	5795.17
440.08	5659.42
440.26	5643.03
440.45	5837.30
440.63	5975.39
440.82	6080.71
441.01	5966.03
441.19	5888.79
441.38	6202.42
441.57	6207.10
441.75	6209.44
441.94	6387.32
442.12	6319.45
442.31	6548.82
442.50	6384.98
442.68	6399.02
442.87	6431.79
443.05	6476.26
443.24	6492.65
443.43	6614.35
443.61	6483.28
443.80	6686.91
443.98	6445.84
444.17	6366.26
444.35	6565.20
444.54	6759.47
444.73	6600.31
444.91	6537.12
445.10	6513.71
445.28	6640.10
445.47	6506.69
445.65	6504.35
445.84	6553.50
446.02	6555.84
446.21	6707.98
446.39	6661.16
446.58	6815.64
446.77	6857.77
446.95	6736.06
447.14	6750.10
447.32	6810.96
447.51	6869.47
447.69	6764.15
447.88	6843.73
448.06	6782.87
448.25	6825.00
448.43	6967.77
448.62	6932.67
448.80	6726.70
448.99	6937.35
449.17	6806.28
449.36	6822.66
449.54	6890.54
449.73	6942.03
449.91	7297.79
450.10	7272.04
450.28	7332.90
450.46	7204.17
450.65	7389.07
450.83	7082.46
451.02	7351.62
451.20	7260.34
451.39	7379.71
451.57	7311.83
451.76	7272.04
451.94	7396.09
452.13	7389.07
452.31	7269.70
452.49	7323.54
452.68	7335.24
452.86	7349.28
453.05	7353.96
453.23	7527.16
453.42	7346.94
453.60	7520.14
453.78	7501.42
453.97	7435.88
454.15	7496.74
454.34	7485.03
454.52	7468.65
454.70	7360.98
454.89	7693.34
455.07	7637.17
455.26	7503.76
455.44	7960.16
455.62	7784.62
455.81	7737.81
455.99	8116.98
456.17	8021.02
456.36	8011.65
456.54	8035.06
456.73	7971.86
456.91	8135.70
457.09	8145.06
457.28	8409.54
457.46	8063.15
457.64	8285.50
457.83	8386.14
458.01	8142.72
458.19	8259.75
458.38	8180.17
458.56	8535.93
458.74	8255.07
458.93	8468.06
459.11	8388.48
459.29	8451.67
459.48	8444.65
459.66	8425.93
459.84	8564.02
460.03	8624.87
460.21	8589.77
460.39	8592.11
460.57	8552.32
460.76	8634.24
460.94	8589.77
461.12	8872.97
461.31	8608.49
461.49	8599.13
461.67	8748.92
461.85	8938.51
462.04	8854.25
462.22	9462.79
462.40	8819.14
462.59	9078.94
462.77	9100.00
462.95	9022.77
463.13	8872.97
463.32	8903.40
463.50	9252.14
463.68	9116.39
463.86	8968.93
464.05	8947.87
464.23	8994.68
464.41	9050.85
464.59	8943.19
464.78	9263.84
464.96	9397.25
465.14	9092.98
465.32	9348.10
465.50	9315.33
465.69	9439.38
465.87	9439.38
466.05	9247.46
466.23	9109.36
466.41	9439.38
466.60	9530.66
466.78	9362.14
466.96	9348.10
467.14	9476.83
467.32	9511.94
467.51	9584.49
467.69	9383.21
467.87	9703.86
468.05	9687.48
468.23	9493.21
468.41	9586.83
468.60	9652.37
468.78	9966.00
468.96	9577.47
469.14	9813.87
469.32	9710.88
469.50	9788.12
469.69	9792.80
469.87	9865.36
470.05	9844.29
470.23	9848.97
470.41	9942.60
470.59	10347.51
470.77	9968.34
470.95	9994.09
471.14	10377.94
471.32	10083.03
471.50	10562.84
471.68	10649.44
471.86	10487.94
472.04	10567.52
472.22	10745.40
472.40	10190.69
472.58	10485.60
472.77	10619.01
472.95	10981.79
473.13	11073.07
473.31	10600.29
473.49	10658.80
473.67	10668.16
473.85	10848.38
474.03	11208.83
474.21	11101.16
474.39	11098.82
474.57	10998.18
474.75	11410.11
474.93	11302.45
475.12	11253.30
475.30	11339.90
475.48	11281.38
475.66	11585.65
475.84	11552.88
476.02	11590.33
476.20	11529.48
476.38	12006.95
476.56	12098.23
476.74	11927.37
476.92	12016.31
477.10	11899.28
477.28	12301.86
477.46	12210.57
477.64	12395.48
477.82	12418.88
478.00	12524.21
478.18	12688.04
478.36	12564.00
478.54	12966.57
478.72	13011.04
478.90	12952.52
479.08	13341.05
479.26	13359.78
479.44	13525.96
479.62	13392.55
479.80	13350.42
479.98	13420.63
480.16	13916.83
480.34	13731.92
480.52	13858.31
480.70	13916.83
480.88	13760.01
481.06	14019.81
481.24	14249.18
481.41	14455.15
481.59	14630.69
481.77	14450.47
481.95	14417.70
482.13	14707.93
482.31	14808.57
482.49	14930.28
482.67	15183.06
482.85	15187.74
483.03	15187.74
483.21	15421.79
483.39	15623.08
483.57	15587.97
483.74	15573.92
483.92	15833.72
484.10	15522.43
484.28	16002.24
484.46	16238.64
484.64	16329.92
484.82	16287.79
485.00	16339.28
485.18	16145.02
485.35	16535.88
485.53	16673.98
485.71	16009.26
485.89	16477.37
486.07	16645.89
486.25	16734.83
486.43	17027.40
486.61	17256.77
486.78	17441.67
486.96	17554.02
487.14	17940.21
487.32	17830.20
487.50	18022.12
487.68	18389.59
487.85	18387.25
488.03	18916.21
488.21	18611.94
488.39	18527.68
488.57	18721.95
488.75	19028.56
488.92	19260.27
489.10	19410.06
489.28	19639.44
489.46	19861.79
489.64	19868.81
489.81	20224.57
489.99	20308.83
490.17	20580.33
490.35	20615.44
490.53	20652.89
490.70	20702.04
490.88	20484.37
491.06	20978.22
491.24	21006.31
491.41	20769.91
491.59	21242.70
491.77	20900.98
491.95	21062.48
492.13	21572.72
492.30	21926.14
492.48	22031.46
492.66	22080.61
492.84	22242.11
493.01	22419.99
493.19	22024.44
493.37	22532.34
493.54	22443.40
493.72	22696.17
493.90	23033.21
494.08	23150.24
494.25	23442.81
494.43	23248.54
494.61	23803.25
494.79	23669.84
494.96	23908.57
495.14	23814.95
495.32	23749.42
495.49	24301.78
495.67	24034.96
495.85	24414.13
496.02	24482.00
496.20	24498.39
496.38	24793.29
496.55	24545.20
496.73	25064.80
496.91	24896.28
497.09	25198.21
497.26	25153.74
497.44	25123.31
497.62	25528.22
497.79	25818.45
497.97	25226.29
498.14	25874.62
498.32	25748.23
498.50	25968.24
498.67	25968.24
498.85	26204.64
499.03	26118.04
499.20	26520.61
499.38	26712.53
499.56	26890.41
499.73	27072.98
499.91	27082.34
500.08	26822.54
500.26	26410.60
500.44	26892.76
500.61	26939.57
500.79	27356.18
500.97	26991.06
501.14	26934.88
501.32	27063.61
501.49	27391.29
501.67	27438.10
501.84	27599.60
502.02	27632.36
502.20	27770.46
502.37	27981.10
502.55	27899.19
502.72	28088.77
502.90	28297.08
503.07	28060.68
503.25	28170.69
503.43	28212.82
503.60	28367.29
503.78	28257.29
503.95	28844.76
504.13	28762.84
504.30	28999.24
504.48	29090.52
504.65	29411.17
504.83	29170.10
505.01	29362.02
505.18	29530.54
505.36	29551.60
505.53	29972.90
505.71	30167.16
505.88	29764.59
506.06	29530.54
506.23	29876.94
506.41	29860.55
506.58	30019.71
506.76	30057.16
506.93	30520.59
507.11	29811.40
507.28	30363.77
507.46	30026.73
507.63	30136.74
507.81	30066.52
507.98	30614.21
508.16	30382.49
508.33	31143.17
508.50	30363.77
508.68	31189.98
508.85	31409.99
509.03	31402.97
509.20	31508.29
509.38	31323.39
509.55	31512.97
509.73	31386.58
509.90	31552.76
510.08	31604.25
510.25	31545.74
510.42	31770.43
510.60	32491.32
510.77	32130.87
510.95	32678.56
511.12	32063.00
511.30	32348.54
511.47	32875.16
511.64	33081.13
511.82	33134.96
511.99	32552.17
512.17	32444.51
512.34	32339.18
512.51	32470.25
512.69	32762.82
512.86	32898.57
513.04	33123.26
513.21	33036.66
513.38	32975.81
513.56	33130.28
513.73	32863.46
513.90	33282.42
514.08	33563.28
514.25	33771.59
514.43	33593.71
514.60	33242.63
514.77	33748.18
514.95	33668.61
515.12	33727.12
515.29	33631.16
515.47	34232.68
515.64	34370.77
515.81	34192.89
515.99	34031.39
516.16	33979.90
516.33	33518.81
516.51	34448.00
516.68	33560.94
516.85	33364.34
517.03	33406.47
517.20	34244.38
517.37	34885.68
517.54	34824.83
517.72	34448.00
517.89	34146.08
518.06	34286.51
518.24	34522.90
518.41	34321.62
518.58	34829.51
518.75	34838.87
518.93	34937.18
519.10	35009.73
519.27	35253.15
519.45	35143.14
519.62	35232.08
519.79	35686.15
519.96	35693.17
520.14	36048.93
520.31	35358.47
520.48	35929.56
520.65	35952.97
520.83	36084.04
521.00	36364.90
521.17	36142.55
521.34	36325.11
521.52	36285.33
521.69	36231.49
521.86	36563.85
522.03	36680.88
522.20	36666.83
522.38	36790.88
522.55	36538.10
522.72	36488.95
522.89	36718.32
523.07	37106.85
523.24	36425.76
523.41	37099.83
523.58	37221.54
523.75	37453.25
523.92	37598.37
524.10	38036.05
524.27	37247.29
524.44	37614.75
524.61	37556.24
524.78	37853.48
524.96	37706.03
525.13	38106.26
525.30	38115.62
525.47	37869.87
525.64	38087.54
525.81	37771.57
525.98	38185.84
526.16	37544.53
526.33	37165.37
526.50	37738.80
526.67	37668.58
526.84	37563.26
527.01	37743.48
527.18	38108.60
527.36	38129.67
527.53	38286.48
527.70	38838.85
527.87	38150.73
528.04	38506.49
528.21	38667.99
528.38	38880.98
528.55	39138.44
528.72	39395.90
528.89	39330.36
529.07	38799.06
529.24	38827.15
529.41	38993.32
529.58	39009.71
529.75	39241.42
529.92	39058.86
530.09	39573.78
530.26	39669.74
530.43	39566.76
530.60	39445.05
530.77	39477.82
530.94	39910.82
531.11	39543.35
531.28	40062.95
531.46	39709.53
531.63	40210.40
531.80	39702.51
531.97	39782.09
532.14	39449.73
532.31	40053.59
532.48	39597.18
532.65	40233.81
532.82	39772.72
532.99	39887.41
533.16	39693.15
533.33	40238.49
533.50	40776.81
533.67	39856.98
533.84	40182.32
534.01	39929.54
534.18	40123.80
534.35	40837.67
534.52	40318.07
534.69	40580.21
534.86	40952.35
535.03	40835.33
535.20	41275.35
535.37	41373.65
535.54	40783.83
535.71	41254.28
535.88	41254.28
536.05	41006.19
536.22	40966.40
536.38	41324.50
536.55	40917.25
536.72	40690.21
536.89	41055.34
537.06	41125.55
537.23	41092.79
537.40	41511.74
537.57	41371.31
537.74	41415.78
537.91	41773.88
538.08	41757.50
538.25	41596.00
538.42	41289.39
538.59	41694.30
538.75	41312.80
538.92	41586.64
539.09	41897.93
539.26	41495.36
539.43	41855.80
539.60	41659.20
539.77	41748.14
539.94	41759.84
540.11	41537.49
540.28	41654.51
540.44	41689.62
540.61	41202.79
540.78	41411.10
540.95	41832.39
541.12	41518.76
541.29	42190.50
541.46	42340.29
541.62	41846.44
541.79	42204.54
541.96	41862.82
542.13	42356.67
542.30	42249.01
542.47	42721.80
542.63	42286.46
542.80	42274.76
542.97	42761.59
543.14	42539.24
543.31	42829.46
543.48	42892.66
543.64	43110.33
543.81	43115.01
543.98	43199.27
544.15	42670.31
544.32	43377.15
544.48	43217.99
544.65	43316.29
544.82	43566.73
544.99	43126.71
545.16	42724.14
545.32	43306.93
545.49	43536.30
545.66	43934.20
545.83	43856.96
546.00	43796.10
546.16	42850.53
546.33	43529.28
546.50	43367.79
546.67	43763.34
546.83	43302.25
547.00	43325.66
547.17	43716.53
547.34	43318.64
547.50	43786.74
547.67	43566.73
547.84	43730.57
548.00	43845.26
548.17	44055.90
548.34	44100.37
548.51	44666.78
548.67	44093.35
548.84	43938.88
549.01	43941.22
549.18	44158.89
549.34	44355.49
549.51	44018.46
549.68	44336.77
549.84	44116.76
550.01	44474.86
550.18	44130.80
550.34	44240.81
550.51	44177.61
550.68	43693.12
550.84	44053.56
551.01	44542.74
551.18	44460.82
551.34	44615.29
551.51	44638.70
551.68	44935.95
551.84	44598.91
552.01	44289.96
552.18	44245.49
552.34	44245.49
552.51	44802.53
552.68	44505.29
552.84	44971.05
553.01	44729.98
553.18	44596.57
553.34	44931.26
553.51	44287.62
553.67	44868.07
553.84	45059.99
554.01	44903.18
554.17	45106.80
554.34	45029.57
554.51	45055.31
554.67	44971.05
554.84	45069.36
555.00	44629.34
555.17	44673.81
555.33	44928.92
555.50	45064.67
555.67	45027.23
555.83	45237.87
556.00	45085.74
556.16	45432.14
556.33	44889.13
556.50	45123.19
556.66	44891.48
556.83	44584.86
556.99	45064.67
557.16	45139.57
557.32	45469.59
557.49	45375.97
557.65	45244.90
557.82	45420.44
557.98	45148.93
558.15	45390.01
558.32	45399.37
558.48	45048.29
558.65	45205.11
558.81	45542.14
558.98	45132.55
559.14	45392.35
559.31	44945.31
559.47	45418.10
559.64	45125.53
559.80	45502.35
559.97	45717.68
560.13	45439.16
560.30	45350.22
560.46	45563.21
560.63	45490.65
560.79	45708.32
560.96	45675.55
561.12	45806.62
561.29	45368.94
561.45	45436.82
561.61	45677.90
561.78	45560.87
561.94	45715.34
562.11	45610.02
562.27	45441.50
562.44	45893.22
562.60	45794.92
562.77	45949.40
562.93	45855.78
563.10	46169.41
563.26	45483.63
563.42	45862.80
563.59	46127.28
563.75	45586.61
563.92	46160.05
564.08	46059.40
564.24	46197.49
564.41	45724.71
564.57	45904.93
564.74	45895.56
564.90	45984.51
565.07	45876.84
565.23	45970.46
565.39	45762.15
565.56	45645.13
565.72	45324.47
565.88	45614.70
566.05	45301.07
566.21	45750.45
566.38	45844.07
566.54	46148.34
566.70	46583.68
566.87	46494.74
567.03	46419.84
567.19	46726.46
567.36	46389.42
567.52	46429.21
567.68	46206.86
567.85	45787.90
568.01	45799.60
568.17	45769.18
568.34	46253.67
568.50	46206.86
568.66	45907.27
568.83	45855.78
568.99	46019.61
569.15	46047.70
569.32	46160.05
569.48	46150.68
569.64	46295.80
569.81	46085.15
569.97	46080.47
570.13	46349.63
570.30	46106.21
570.46	45698.96
570.62	45649.81
570.78	45483.63
570.95	45713.00
571.11	45668.53
571.27	46003.23
571.43	45851.09
571.60	45830.03
571.76	46319.20
571.92	46284.09
572.09	46316.86
572.25	46358.99
572.41	46192.81
572.57	46780.29
572.74	46520.49
572.90	46646.88
573.06	46157.70
573.22	46241.96
573.38	46443.25
573.55	46202.18
573.71	46604.75
573.87	46555.60
574.03	46286.43
574.20	46075.79
574.36	46162.39
574.52	46209.20
574.68	46089.83
574.84	46354.31
575.01	46082.81
575.17	46136.64
575.33	45778.54
575.49	46007.91
575.65	46672.62
575.82	46398.78
575.98	46028.98
576.14	46426.87
576.30	46358.99
576.46	46164.73
576.62	46026.63
576.79	45963.44
576.95	46012.59
577.11	46157.70
577.27	46003.23
577.43	46160.05
577.59	46501.76
577.75	45855.78
577.92	45947.06
578.08	45762.15
578.24	45951.74
578.40	46340.27
578.56	46410.48
578.72	46225.58
578.88	46394.10
579.04	46279.41
579.21	46167.07
579.37	45961.10
579.53	46616.45
579.69	46340.27
579.85	46391.76
580.01	46632.83
580.17	46415.16
580.33	46136.64
580.49	46251.33
580.65	46534.53
580.82	46347.29
580.98	46555.60
581.14	45862.80
581.30	46195.15
581.46	46342.61
581.62	46361.33
581.78	46841.14
581.94	46602.41
582.10	46590.70
582.26	46459.63
582.42	46450.27
582.58	46387.08
582.74	46445.59
582.90	46747.52
583.06	46574.32
583.22	46939.44
583.38	46801.35
583.54	46246.65
583.70	46429.21
583.86	46319.20
584.02	45986.85
584.18	46766.24
584.34	46323.88
584.50	46326.22
584.66	46223.24
584.82	46267.71
584.98	46424.53
585.14	46492.40
585.30	46543.89
585.46	46705.39
585.62	46010.25
585.78	46443.25
585.94	45881.52
586.10	46412.82
586.26	46157.70
586.42	46756.88
586.58	46817.74
586.74	46681.98
586.90	46471.34
587.06	46234.94
587.22	46602.41
587.38	46403.46
587.54	46784.97
587.70	46761.56
587.86	46597.73
588.02	46265.37
588.18	46555.60
588.34	46277.07
588.49	46066.42
588.65	45968.12
588.81	45848.75
588.97	45883.86
589.13	45895.56
589.29	46124.94
589.45	46113.23
589.61	46368.35
589.77	46698.37
589.93	46157.70
590.08	46579.00
