SpectraSuite Data File
++++++++++++++++++++++++++++++++++++
Date: Fri Oct 25 10:44:25 EDT 2013
User: price-jones
Dark Spectrum Present: No
Reference Spectrum Present: No
Number of Sampled Component Spectra: 1
Spectrometers: USB2+H05261
Integration Time (usec): 100000 (USB2+H05261)
Spectra Averaged: 1 (USB2+H05261)
Boxcar Smoothing: 0 (USB2+H05261)
Correct for Electrical Dark: No (USB2+H05261)
Strobe/Lamp Enabled: No (USB2+H05261)
Correct for Detector Non-linearity: No (USB2+H05261)
Correct for Stray Light: No (USB2+H05261)
Number of Pixels in Processed Spectrum: 2048
>>>>>Begin Processed Spectral Data<<<<<
365.73	156.82
365.92	156.82
366.12	156.82
366.32	42.13
366.52	39.79
366.72	35.11
366.91	9.36
367.11	0.00
367.31	23.41
367.51	51.49
367.70	30.43
367.90	4.68
368.10	28.09
368.30	0.00
368.49	42.13
368.69	93.62
368.89	70.22
369.09	25.75
369.28	32.77
369.48	49.15
369.68	135.75
369.87	79.58
370.07	65.54
370.27	112.35
370.47	212.99
370.66	423.64
370.86	440.02
371.06	468.11
371.25	538.32
371.45	517.26
371.65	470.45
371.84	433.00
372.04	514.92
372.24	484.49
372.44	482.15
372.63	580.45
372.83	491.51
373.03	484.49
373.22	636.63
373.42	493.85
373.62	521.94
373.81	493.85
374.01	535.98
374.21	540.66
374.40	571.09
374.60	533.64
374.79	638.97
374.99	540.66
375.19	615.56
375.38	629.60
375.58	608.54
375.78	578.11
375.97	655.35
376.17	709.18
376.37	638.97
376.56	596.84
376.76	589.82
376.95	594.50
377.15	641.31
377.35	671.73
377.54	664.71
377.74	643.65
377.93	613.22
378.13	683.44
378.33	620.24
378.52	643.65
378.72	695.14
378.91	716.20
379.11	702.16
379.31	737.27
379.50	702.16
379.70	744.29
379.89	636.63
380.09	699.82
380.28	685.78
380.48	683.44
380.68	704.50
380.87	601.52
381.07	772.38
381.26	748.97
381.46	763.01
381.65	713.86
381.85	697.48
382.04	814.51
382.24	795.78
382.43	788.76
382.63	669.39
382.83	683.44
383.02	718.54
383.22	753.65
383.41	884.72
383.61	770.04
383.80	737.27
384.00	772.38
384.19	774.72
384.39	847.27
384.58	861.32
384.78	861.32
384.97	734.93
385.17	807.48
385.36	847.27
385.56	830.89
385.75	770.04
385.95	809.83
386.14	805.14
386.34	823.87
386.53	875.36
386.72	926.85
386.92	943.24
387.11	910.47
387.31	866.00
387.50	945.58
387.70	875.36
387.89	938.55
388.09	875.36
388.28	915.15
388.48	833.23
388.67	882.38
388.86	999.41
389.06	950.26
389.25	990.05
389.45	980.68
389.64	929.19
389.84	1083.67
390.03	997.07
390.22	1078.99
390.42	1015.79
390.61	1029.84
390.81	1022.81
391.00	1097.71
391.19	1123.46
391.39	1181.97
391.58	1111.75
391.78	1128.14
391.97	1069.62
392.16	1081.33
392.36	1081.33
392.55	1062.60
392.75	1116.44
392.94	980.68
393.13	990.05
393.33	1057.92
393.52	1090.69
393.71	1104.73
393.91	1198.35
394.10	1203.04
394.29	1170.27
394.49	1156.22
394.68	1242.82
394.88	1261.55
395.07	1313.04
395.26	1245.16
395.46	1245.16
395.65	1280.27
395.84	1153.88
396.04	1259.21
396.23	1231.12
396.42	1188.99
396.62	1231.12
396.81	1291.98
397.00	1268.57
397.19	1364.53
397.39	1411.34
397.58	1434.75
397.77	1406.66
397.97	1460.49
398.16	1387.94
398.35	1474.54
398.55	1446.45
398.74	1526.03
398.93	1668.80
399.12	1596.25
399.32	1621.99
399.51	1516.67
399.70	1619.65
399.90	1570.50
400.09	1593.90
400.28	1645.40
400.47	1699.23
400.67	1589.22
400.86	1724.97
401.05	1703.91
401.24	1734.34
401.44	1771.79
401.63	1781.15
401.82	1776.47
402.01	1715.61
402.21	1849.02
402.40	1762.42
402.59	1846.68
402.78	1678.16
402.97	1755.40
403.17	1816.26
403.36	2015.20
403.55	1977.75
403.74	1952.01
403.93	1991.80
404.13	1863.07
404.32	1961.37
404.51	1919.24
404.70	1982.43
404.89	1944.99
405.09	1952.01
405.28	2087.76
405.47	1905.20
405.66	2085.42
405.85	2176.70
406.05	2012.86
406.24	2179.04
406.43	1935.62
406.62	2209.47
406.81	2146.27
407.00	2113.50
407.20	2050.31
407.39	2076.06
407.58	2186.06
407.77	2218.83
407.96	2319.47
408.15	2335.85
408.34	2317.13
408.54	2356.92
408.73	2272.66
408.92	2317.13
409.11	2464.58
409.30	2417.77
409.49	2314.79
409.68	2441.18
409.87	2284.36
410.07	2392.03
410.26	2415.43
410.45	2307.77
410.64	2492.67
410.83	2607.36
411.02	2626.08
411.21	2740.77
411.40	2551.18
411.59	2597.99
411.78	2635.44
411.98	2719.70
412.17	2796.94
412.36	2635.44
412.55	2825.03
412.74	2867.16
412.93	2815.66
413.12	2808.64
413.31	2939.71
413.50	2878.86
413.69	2902.26
413.88	2911.63
414.07	3063.76
414.26	3038.02
414.45	3021.63
414.64	3136.32
414.83	3126.96
415.02	3075.46
415.22	3185.47
415.41	3265.05
415.60	3229.94
415.79	3302.50
415.98	3407.82
416.17	3309.52
416.36	3426.54
416.55	3314.20
416.74	3316.54
416.93	3325.90
417.12	3370.37
417.31	3407.82
417.50	3410.16
417.69	3475.70
417.88	3407.82
418.07	3552.93
418.26	3590.38
418.45	3463.99
418.64	3758.90
418.83	3637.19
419.02	3698.05
419.21	3740.18
419.39	3737.84
419.58	3669.96
419.77	3707.41
419.96	3707.41
420.15	3808.05
420.34	3749.54
420.53	3812.73
420.72	3929.76
420.91	3899.33
421.10	3995.29
421.29	4011.68
421.48	3971.89
421.67	3988.27
421.86	3953.16
422.05	3925.08
422.24	3894.65
422.43	3929.76
422.61	3990.61
422.80	4044.45
422.99	3960.19
423.18	4060.83
423.37	4107.64
423.56	4126.36
423.75	4044.45
423.94	4018.70
424.13	3901.67
424.32	4021.04
424.50	4035.08
424.69	4166.15
424.88	4149.77
425.07	4025.72
425.26	3875.93
425.45	4117.00
425.64	4147.43
425.83	4046.79
426.01	3971.89
426.20	4086.58
426.39	4292.54
426.58	4063.17
426.77	4119.34
426.96	4023.38
427.15	3927.42
427.33	4182.54
427.52	4234.03
427.71	4215.30
427.90	4257.43
428.09	4184.88
428.28	4294.88
428.46	4271.48
428.65	4231.69
428.84	4346.37
429.03	4367.44
429.22	4255.09
429.40	4161.47
429.59	4348.72
429.78	4065.51
429.97	4112.32
430.16	4264.46
430.34	4189.56
430.53	4217.65
430.72	4346.37
430.91	4327.65
431.10	4573.41
431.28	4622.56
431.47	4821.50
431.66	4849.59
431.85	4716.18
432.03	4648.30
432.22	4814.48
432.41	4835.55
432.60	4734.90
432.79	4758.31
432.97	4924.49
433.16	4770.01
433.35	4805.12
433.54	4702.14
433.72	4844.91
433.91	4805.12
434.10	5041.51
434.28	4854.27
434.47	5032.15
434.66	5020.45
434.85	5193.65
435.03	5006.41
435.22	4978.32
435.41	5313.02
435.59	5338.76
435.78	5261.52
435.97	5170.24
436.16	5329.40
436.34	5291.95
436.53	5261.52
436.72	5479.19
436.90	5153.86
437.09	5518.98
437.28	5291.95
437.46	5352.81
437.65	5259.18
437.84	5336.42
438.02	5284.93
438.21	5322.38
438.40	5205.35
438.58	5359.83
438.77	5483.88
438.96	5575.16
439.14	5720.27
439.33	5844.32
439.52	5851.34
439.70	5839.64
439.89	5849.00
440.08	5743.67
440.26	5872.40
440.45	5856.02
440.63	5926.24
440.82	6120.50
441.01	6141.57
441.19	6120.50
441.38	6284.34
441.57	6176.67
441.75	6244.55
441.94	6459.88
442.12	6471.58
442.31	6651.80
442.50	6534.78
442.68	6473.92
442.87	6513.71
443.05	6438.81
443.24	6541.80
443.43	6551.16
443.61	6616.69
443.80	6998.20
443.98	6445.84
444.17	6441.15
444.35	6649.46
444.54	6848.41
444.73	6853.09
444.91	6705.63
445.10	6623.72
445.28	6560.52
445.47	6633.08
445.65	6581.59
445.84	6724.36
446.02	6794.58
446.21	6569.88
446.39	6808.62
446.58	6832.02
446.77	6857.77
446.95	6780.53
447.14	7007.56
447.32	7066.08
447.51	6892.88
447.69	6782.87
447.88	6857.77
448.06	6920.96
448.25	7042.67
448.43	6944.37
448.62	6806.28
448.80	6841.39
448.99	6895.22
449.17	7108.21
449.36	6846.07
449.54	7096.50
449.73	7274.38
449.91	7276.73
450.10	7356.30
450.28	7290.77
450.46	7400.77
450.65	7529.50
450.83	7494.40
451.02	7365.67
451.20	7508.44
451.39	7531.84
451.57	7442.90
451.76	7419.50
451.94	7435.88
452.13	7478.01
452.31	7335.24
452.49	7290.77
452.68	7475.67
452.86	7351.62
453.05	7431.20
453.23	7632.49
453.42	7485.03
453.60	7648.87
453.78	7674.62
453.97	7581.00
454.15	7564.61
454.34	7522.48
454.52	7768.24
454.70	7613.76
454.89	7786.96
455.07	7667.60
455.26	7786.96
455.44	7777.60
455.62	7936.76
455.81	7927.39
455.99	8030.38
456.17	8095.91
456.36	8217.62
456.54	8145.06
456.73	8173.15
456.91	8486.78
457.09	8182.51
457.28	8458.70
457.46	8212.94
457.64	8243.37
457.83	8390.82
458.01	8238.69
458.19	8484.44
458.38	8355.71
458.56	8461.04
458.74	8557.00
458.93	8475.08
459.11	8634.24
459.29	8706.79
459.48	8554.66
459.66	8622.53
459.84	8599.13
460.03	8835.52
460.21	8652.96
460.39	8805.10
460.57	8805.10
460.76	8713.81
460.94	8887.01
461.12	9036.81
461.31	8994.68
461.49	8872.97
461.67	9018.08
461.85	9277.88
462.04	9109.36
462.22	9212.35
462.40	9214.69
462.59	9062.55
462.77	9146.81
462.95	9151.49
463.13	8924.46
463.32	9060.21
463.50	9345.76
463.68	9188.94
463.86	9294.27
464.05	9170.22
464.23	9200.65
464.41	9266.18
464.59	9200.65
464.78	9444.06
464.96	9392.57
465.14	9425.34
465.32	9516.62
465.50	9633.64
465.69	9579.81
465.87	9432.36
466.05	9448.74
466.23	9486.19
466.41	9268.52
466.60	9497.89
466.78	9558.75
466.96	9420.66
467.14	9689.82
467.32	9804.50
467.51	9818.55
467.69	9528.32
467.87	9511.94
468.05	9689.82
468.23	9488.53
468.41	9762.37
468.60	9659.39
468.78	9848.97
468.96	9769.40
469.14	10083.03
469.32	9907.49
469.50	9607.90
469.69	9994.09
469.87	10115.80
470.05	9898.13
470.23	10061.96
470.41	10120.48
470.59	10040.90
470.77	9970.68
470.95	10171.97
471.14	10501.98
471.32	10286.65
471.50	10581.56
471.68	10611.99
471.86	10693.91
472.04	10843.70
472.22	10927.96
472.40	10576.88
472.58	10780.51
472.77	10686.89
472.95	10771.15
473.13	11108.18
473.31	10963.07
473.49	10675.18
473.67	10850.72
473.85	10981.79
474.03	11272.02
474.21	11183.08
474.39	11407.77
474.57	11250.96
474.75	11531.82
474.93	11655.87
475.12	11283.72
475.30	11463.94
475.48	11587.99
475.66	11630.12
475.84	11527.14
476.02	11681.61
476.20	11754.17
476.38	12067.80
476.56	12004.61
476.74	12180.15
476.92	12049.08
477.10	12224.62
477.28	12400.16
477.46	12388.46
477.64	12578.04
477.82	12739.54
478.00	12856.56
478.18	12994.65
478.36	13022.74
478.54	12985.29
478.72	13083.59
478.90	13345.73
479.08	13493.19
479.26	13547.02
479.44	13642.98
479.62	13774.05
479.80	13785.76
479.98	13949.59
480.16	14139.18
480.34	13855.97
480.52	14101.73
480.70	14033.85
480.88	13731.92
481.06	14097.05
481.24	14410.68
481.41	14485.58
481.59	14766.44
481.77	14981.77
481.95	14778.14
482.13	15197.10
482.31	14993.47
482.49	15051.99
482.67	15396.04
482.85	15477.96
483.03	15482.64
483.21	15690.95
483.39	16102.89
483.57	15803.30
483.74	16081.82
483.92	15964.79
484.10	15637.12
484.28	16077.14
484.46	16573.33
484.64	16774.62
484.82	16582.70
485.00	16215.23
485.18	17142.08
485.35	16922.07
485.53	16645.89
485.71	16741.85
485.89	16980.59
486.07	16791.00
486.25	17109.32
486.43	17179.53
486.61	17198.26
486.78	17649.98
486.96	17867.65
487.14	18375.55
487.32	18190.64
487.50	18518.32
487.68	18310.01
487.85	18815.57
488.03	19124.52
488.21	19124.52
488.39	19049.62
488.57	18995.79
488.75	19360.91
488.92	19555.18
489.10	19639.44
489.28	20034.99
489.46	20287.76
489.64	20095.84
489.81	20400.11
489.99	20891.62
490.17	20575.65
490.35	21010.99
490.53	21322.28
490.70	20936.09
490.88	20636.50
491.06	21149.08
491.24	21268.45
491.41	21174.83
491.59	21385.47
491.77	21479.10
491.95	21542.29
492.13	21832.52
492.30	22127.42
492.48	22511.27
492.66	22361.48
492.84	22197.64
493.01	22537.02
493.19	22855.33
493.37	22752.35
493.54	22920.87
493.72	23449.83
493.90	23410.04
494.08	23585.58
494.25	23791.55
494.43	23463.87
494.61	23786.86
494.79	23920.28
494.96	24091.13
495.14	24081.77
495.32	24306.46
495.49	24332.21
495.67	24400.08
495.85	24968.84
496.02	24907.98
496.20	25167.78
496.38	24966.49
496.55	25397.15
496.73	25832.49
496.91	25493.12
497.09	25776.32
497.26	25577.37
497.44	25951.86
497.62	25661.63
497.79	26167.19
497.97	25441.62
498.14	25841.85
498.32	26087.61
498.50	26223.36
498.67	26588.49
498.85	26712.53
499.03	26663.38
499.20	26984.04
499.38	27054.25
499.56	27517.68
499.73	27199.37
499.91	27314.05
500.08	27182.98
500.26	26810.84
500.44	27309.37
500.61	27274.26
500.79	26991.06
500.97	27388.95
501.14	28004.51
501.32	27627.68
501.49	27821.95
501.67	27733.01
501.84	28018.55
502.02	28044.30
502.20	28566.24
502.37	28519.43
502.55	28603.69
502.72	28835.40
502.90	28545.17
503.07	28486.66
503.25	28893.91
503.43	28884.55
503.60	28467.94
503.78	28793.27
503.95	28863.49
504.13	29268.40
504.30	29432.24
504.48	29350.32
504.65	29713.10
504.83	29750.55
505.01	30235.04
505.18	29785.66
505.36	30452.71
505.53	30265.47
505.71	30176.53
505.88	30785.07
506.06	29872.26
506.23	30574.42
506.41	30579.10
506.58	30246.74
506.76	30703.15
506.93	31051.89
507.11	30377.81
507.28	30937.20
507.46	30888.05
507.63	30934.86
507.81	30855.28
507.98	30731.23
508.16	31103.38
508.33	31124.44
508.50	31519.99
508.68	31934.27
508.85	32058.32
509.03	31817.24
509.20	31665.11
509.38	31700.22
509.55	31955.33
509.73	31887.46
509.90	31955.33
510.08	32184.71
510.25	32210.45
510.42	32191.73
510.60	32411.74
510.77	32790.91
510.95	32954.74
511.12	32556.85
511.30	32884.53
511.47	33308.16
511.64	33109.22
511.82	33141.99
511.99	32814.31
512.17	33153.69
512.34	32833.04
512.51	33340.93
512.69	33858.19
512.86	33354.97
513.04	33839.47
513.21	33727.12
513.38	33287.10
513.56	33790.31
513.73	33385.40
513.90	33738.82
514.08	33284.76
514.25	33593.71
514.43	34050.11
514.60	34094.58
514.77	33734.14
514.95	34471.41
515.12	34216.29
515.29	34651.63
515.47	34951.22
515.64	34782.70
515.81	34464.39
515.99	34267.78
516.16	34731.21
516.33	34103.95
516.51	34277.15
516.68	33986.92
516.85	33748.18
517.03	34256.08
517.20	34356.72
517.37	34532.26
517.54	35208.68
517.72	34852.92
517.89	34576.73
518.06	34546.31
518.24	34595.46
518.41	35196.98
518.58	35325.71
518.75	35297.62
518.93	35894.46
519.10	35461.46
519.27	35782.11
519.45	35723.60
519.62	36332.14
519.79	35962.33
519.96	36091.06
520.14	36102.76
520.31	36037.23
520.48	36158.94
520.65	36357.88
520.83	36863.44
521.00	37116.22
521.17	36479.59
521.34	36533.42
521.52	36615.34
521.69	36968.76
521.86	37055.36
522.03	36849.39
522.20	37397.08
522.38	37247.29
522.55	37205.16
522.72	37158.34
522.89	36980.46
523.07	37464.96
523.24	37659.22
523.41	37422.83
523.58	37677.94
523.75	37848.80
523.92	37851.14
524.10	38232.65
524.27	38209.25
524.44	38253.72
524.61	38218.61
524.78	38426.92
524.96	38010.30
525.13	38501.81
525.30	39079.92
525.47	38497.13
525.64	38443.30
525.81	38520.54
525.98	38263.08
526.16	37993.92
526.33	38167.12
526.50	38478.41
526.67	38246.69
526.84	38227.97
527.01	37851.14
527.18	38663.31
527.36	38773.31
527.53	39386.54
527.70	39229.72
527.87	39131.42
528.04	39344.41
528.21	39288.23
528.38	39526.97
528.55	39686.12
528.72	39730.59
528.89	39995.07
529.07	39412.28
529.24	39306.96
529.41	39639.31
529.58	39536.33
529.75	39470.79
529.92	39646.33
530.09	40264.24
530.26	40306.37
530.43	39777.40
530.60	39983.37
530.77	39966.99
530.94	39974.01
531.11	40289.98
531.28	40203.38
531.46	40402.33
531.63	40587.23
531.80	40306.37
531.97	40121.46
532.14	39882.73
532.31	39892.09
532.48	40360.20
532.65	40378.92
532.82	40119.12
532.99	40252.53
533.16	40797.88
533.33	40921.93
533.50	41223.86
533.67	41024.91
533.84	40814.26
534.01	41038.95
534.18	40786.18
534.35	41022.57
534.52	41191.09
534.69	41404.08
534.86	41268.33
535.03	40952.35
535.20	41776.22
535.37	41558.55
535.54	41783.24
535.71	41216.83
535.88	41808.99
536.05	41539.83
536.22	41645.15
536.38	41701.32
536.55	41305.77
536.72	41373.65
536.89	41312.80
537.06	41734.09
537.23	41780.90
537.40	41752.82
537.57	42043.04
537.74	42085.17
537.91	41998.57
538.08	41977.51
538.25	41450.89
538.42	41909.63
538.59	42838.83
538.75	41729.41
538.92	41982.19
539.09	42377.74
539.26	42239.65
539.43	41811.33
539.60	42218.58
539.77	42000.91
539.94	42082.83
540.11	41823.03
540.28	42476.04
540.44	42164.75
540.61	42396.46
540.78	42033.68
540.95	42094.53
541.12	42466.68
541.29	42347.31
541.46	42796.70
541.62	42656.26
541.79	43225.01
541.96	42230.29
542.13	43084.58
542.30	42777.97
542.47	42808.40
542.63	42768.61
542.80	43154.80
542.97	43421.62
543.14	43540.99
543.31	43723.55
543.48	43496.52
543.64	44002.07
543.81	43828.87
543.98	43744.61
544.15	43255.44
544.32	43889.73
544.48	44201.02
544.65	43849.94
544.82	44123.78
544.99	43381.83
545.16	43634.61
545.32	43943.56
545.49	44016.11
545.66	44502.95
545.83	44320.38
546.00	44107.40
546.16	43981.01
546.33	43571.41
546.50	43770.36
546.67	43983.35
546.83	43885.04
547.00	43962.28
547.17	44067.61
547.34	43658.01
547.50	44093.35
547.67	44355.49
547.84	44594.23
548.00	44313.36
548.17	44519.33
548.34	44371.88
548.51	44889.13
548.67	44509.97
548.84	44865.73
549.01	44165.91
549.18	44657.42
549.34	44669.12
549.51	45170.00
549.68	44928.92
549.84	44603.59
550.01	45364.26
550.18	44790.83
550.34	44989.78
550.51	44877.43
550.68	45003.82
550.84	44336.77
551.01	45270.64
551.18	44919.56
551.34	44683.17
551.51	45249.58
551.68	45509.38
551.84	45256.60
552.01	44957.01
552.18	44973.39
552.34	44954.67
552.51	45310.43
552.68	44996.80
552.84	45347.88
553.01	45322.13
553.18	44994.46
553.34	45357.24
553.51	45038.93
553.67	45275.32
553.84	45741.09
554.01	45347.88
554.17	45549.17
554.34	45813.65
554.51	45659.17
554.67	45563.21
554.84	45530.44
555.00	45631.08
555.17	45462.57
555.33	45607.68
555.50	45441.50
555.67	45652.15
555.83	45425.12
556.00	45457.88
556.16	45612.36
556.33	45614.70
556.50	45701.30
556.66	45663.85
556.83	45546.82
556.99	45839.39
557.16	45874.50
557.32	45764.49
557.49	45935.35
557.65	45448.52
557.82	45635.77
557.98	45958.76
558.15	46087.49
558.32	45876.84
558.48	45764.49
558.65	45848.75
558.81	45378.31
558.98	45684.92
559.14	45640.45
559.31	46012.59
559.47	46057.06
559.64	46403.46
559.80	46010.25
559.97	46204.52
560.13	45923.65
560.30	46101.53
560.46	46106.21
560.63	45947.06
560.79	46415.16
560.96	46555.60
561.12	46204.52
561.29	45879.18
561.45	46108.55
561.61	45624.06
561.78	45675.55
561.94	46003.23
562.11	46028.98
562.27	45715.34
562.44	46174.09
562.60	46394.10
562.77	46358.99
562.93	45972.80
563.10	46295.80
563.26	46361.33
563.42	46387.08
563.59	46368.35
563.75	45846.41
563.92	46274.73
564.08	46443.25
564.24	46305.16
564.41	46419.84
564.57	45933.01
564.74	46461.97
564.90	46424.53
565.07	46504.10
565.23	46258.35
565.39	46398.78
565.56	46237.28
565.72	46258.35
565.88	46361.33
566.05	46377.72
566.21	46791.99
566.38	46335.59
566.54	46738.16
566.70	46787.31
566.87	46707.73
567.03	46728.80
567.19	46759.22
567.36	46876.25
567.52	46340.27
567.68	46770.93
567.85	46438.57
568.01	46405.80
568.17	46401.12
568.34	46719.43
568.50	46586.02
568.66	46452.61
568.83	46351.97
568.99	46148.34
569.15	46450.27
569.32	46256.01
569.48	45961.10
569.64	46525.17
569.81	46639.86
569.97	46307.50
570.13	46834.12
570.30	46651.56
570.46	46157.70
570.62	46487.72
570.78	46117.92
570.95	46436.23
571.11	46539.21
571.27	46501.76
571.43	46230.26
571.60	46686.67
571.76	46459.63
571.92	46656.24
572.09	46670.28
572.25	46469.00
572.41	46719.43
572.57	46681.98
572.74	46873.91
572.90	46934.76
573.06	47030.72
573.22	46838.80
573.38	46674.96
573.55	46756.88
573.71	47077.54
573.87	46850.50
574.03	46656.24
574.20	47056.47
574.36	46941.78
574.52	46550.91
574.68	46962.85
574.84	46796.67
575.01	46632.83
575.17	46974.55
575.33	46614.11
575.49	46321.54
575.65	46958.17
575.82	46356.65
575.98	46878.59
576.14	46782.63
576.30	46962.85
576.46	46927.74
576.62	46972.21
576.79	46791.99
576.95	46672.62
577.11	46712.41
577.27	46611.77
577.43	46686.67
577.59	46775.61
577.75	46777.95
577.92	46366.01
578.08	46330.90
578.24	46443.25
578.40	46625.81
578.56	46511.13
578.72	47044.77
578.88	46766.24
579.04	46993.28
579.21	46829.44
579.37	46831.78
579.53	46864.55
579.69	46452.61
579.85	46649.22
580.01	47086.90
580.17	46913.70
580.33	46925.40
580.49	46909.02
580.65	47150.09
580.82	46822.42
580.98	46714.75
581.14	46546.23
581.30	47047.11
581.46	46731.14
581.62	47002.64
581.78	46717.09
581.94	47269.46
582.10	47042.43
582.26	46583.68
582.42	46894.97
582.58	47150.09
582.74	46749.86
582.90	46628.15
583.06	47119.66
583.22	47271.80
583.38	47122.01
583.54	46836.46
583.70	47459.04
583.86	47072.85
584.02	46871.57
584.18	47126.69
584.34	47131.37
584.50	46880.93
584.66	46646.88
584.82	46824.76
584.98	47091.58
585.14	47203.92
585.30	46717.09
585.46	47452.02
585.62	46667.94
585.78	46696.03
585.94	46813.05
586.10	46656.24
586.26	46852.84
586.42	46948.81
586.58	47082.22
586.74	46946.47
586.90	46920.72
587.06	46726.46
587.22	46836.46
587.38	46660.92
587.54	46426.87
587.70	46885.61
587.86	47145.41
588.02	46909.02
588.18	47433.30
588.34	47037.75
588.49	46110.89
588.65	46469.00
588.81	46417.50
588.97	46499.42
589.13	46141.32
589.29	46073.45
589.45	46747.52
589.61	46642.20
589.77	47093.92
589.93	47145.41
