SpectraSuite Data File
++++++++++++++++++++++++++++++++++++
Date: Fri Oct 25 11:33:15 EDT 2013
User: price-jones
Dark Spectrum Present: No
Reference Spectrum Present: No
Number of Sampled Component Spectra: 1
Spectrometers: USB2+H05261
Integration Time (usec): 100000 (USB2+H05261)
Spectra Averaged: 1 (USB2+H05261)
Boxcar Smoothing: 0 (USB2+H05261)
Correct for Electrical Dark: No (USB2+H05261)
Strobe/Lamp Enabled: No (USB2+H05261)
Correct for Detector Non-linearity: No (USB2+H05261)
Correct for Stray Light: No (USB2+H05261)
Number of Pixels in Processed Spectrum: 2048
>>>>>Begin Processed Spectral Data<<<<<
365.73	231.71
365.92	231.71
366.12	231.71
366.32	205.97
366.52	156.82
366.72	191.92
366.91	201.29
367.11	194.26
367.31	114.69
367.51	198.95
367.70	205.97
367.90	70.22
368.10	124.05
368.30	217.67
368.49	170.86
368.69	194.26
368.89	170.86
369.09	306.61
369.28	245.76
369.48	285.55
369.68	236.39
369.87	220.01
370.07	269.16
370.27	269.16
370.47	332.36
370.66	486.83
370.86	575.77
371.06	493.85
371.25	638.97
371.45	465.77
371.65	582.79
371.84	484.49
372.04	535.98
372.24	589.82
372.44	585.13
372.63	603.86
372.83	554.71
373.03	575.77
373.22	655.35
373.42	578.11
373.62	615.56
373.81	657.69
374.01	622.58
374.21	634.29
374.40	631.94
374.60	622.58
374.79	594.50
374.99	648.33
375.19	681.10
375.38	645.99
375.58	664.71
375.78	638.97
375.97	753.65
376.17	695.14
376.37	697.48
376.56	699.82
376.76	695.14
376.95	723.23
377.15	699.82
377.35	746.63
377.54	697.48
377.74	653.01
377.93	638.97
378.13	720.88
378.33	744.29
378.52	660.03
378.72	676.41
378.91	704.50
379.11	716.20
379.31	746.63
379.50	760.67
379.70	741.95
379.89	814.51
380.09	744.29
380.28	737.27
380.48	716.20
380.68	777.06
380.87	711.52
381.07	753.65
381.26	760.67
381.46	744.29
381.65	737.27
381.85	763.01
382.04	732.59
382.24	816.85
382.43	821.53
382.63	758.33
382.83	802.80
383.02	884.72
383.22	809.83
383.41	784.08
383.61	844.93
383.80	849.61
384.00	877.70
384.19	788.76
384.39	863.66
384.58	737.27
384.78	777.06
384.97	919.83
385.17	741.95
385.36	905.79
385.56	915.15
385.75	795.78
385.95	779.40
386.14	837.91
386.34	833.23
386.53	819.19
386.72	931.53
386.92	800.46
387.11	959.62
387.31	952.60
387.50	978.34
387.70	837.91
387.89	842.59
388.09	791.10
388.28	870.68
388.48	926.85
388.67	922.17
388.86	901.11
389.06	912.81
389.25	954.94
389.45	891.74
389.64	999.41
389.84	947.92
390.03	952.60
390.22	994.73
390.42	889.40
390.61	973.66
390.81	929.19
391.00	901.11
391.19	950.26
391.39	992.39
391.58	1048.56
391.78	980.68
391.97	1025.15
392.16	1015.79
392.36	1135.16
392.55	1158.57
392.75	1093.03
392.94	1039.20
393.13	1062.60
393.33	1055.58
393.52	999.41
393.71	1064.94
393.91	1107.07
394.10	1036.86
394.29	1100.05
394.49	1060.26
394.68	1121.12
394.88	1116.44
395.07	1181.97
395.26	1074.31
395.46	1095.37
395.65	1170.27
395.84	1167.93
396.04	1268.57
396.23	1088.35
396.42	1165.59
396.62	1233.46
396.81	1273.25
397.00	1263.89
397.19	1217.08
397.39	1200.69
397.58	1270.91
397.77	1287.29
397.97	1181.97
398.16	1217.08
398.35	1301.34
398.55	1259.21
398.74	1240.48
398.93	1277.93
399.12	1238.14
399.32	1268.57
399.51	1268.57
399.70	1341.13
399.90	1299.00
400.09	1299.00
400.28	1460.49
400.47	1341.13
400.67	1462.83
400.86	1369.21
401.05	1434.75
401.24	1462.83
401.44	1451.13
401.63	1352.83
401.82	1401.98
402.01	1308.36
402.21	1479.22
402.40	1476.88
402.59	1488.58
402.78	1568.16
402.97	1488.58
403.17	1467.52
403.36	1570.50
403.55	1540.07
403.74	1495.60
403.93	1542.41
404.13	1619.65
404.32	1624.33
404.51	1736.68
404.70	1626.67
404.89	1659.44
405.09	1694.55
405.28	1760.08
405.47	1753.06
405.66	1661.78
405.85	1666.46
406.05	1746.04
406.24	1710.93
406.43	1750.72
406.62	1708.59
406.81	1870.09
407.00	1760.08
407.20	1804.55
407.39	1865.41
407.58	1820.94
407.77	1877.11
407.96	1837.32
408.15	2036.27
408.34	1762.42
408.54	1930.94
408.73	1949.67
408.92	1947.33
409.11	2008.18
409.30	1968.39
409.49	2001.16
409.68	2031.58
409.87	1987.11
410.07	2026.90
410.26	2108.82
410.45	2022.22
410.64	2022.22
410.83	2106.48
411.02	2165.00
411.21	2120.53
411.40	2188.40
411.59	2345.22
411.78	2249.25
411.98	2232.87
412.17	2345.22
412.36	2260.96
412.55	2284.36
412.74	2382.67
412.93	2422.45
413.12	2331.17
413.31	2396.71
413.50	2324.15
413.69	2399.05
413.88	2471.61
414.07	2429.48
414.26	2438.84
414.45	2499.69
414.64	2516.08
414.83	2574.59
415.02	2612.04
415.22	2719.70
415.41	2768.85
415.60	2696.30
415.79	2754.81
415.98	2658.85
416.17	2796.94
416.36	2778.22
416.55	2670.55
416.74	2663.53
416.93	2761.83
417.12	2726.72
417.31	2801.62
417.50	2862.48
417.69	2846.09
417.88	2988.86
418.07	2944.39
418.26	2981.84
418.45	3014.61
418.64	3040.36
418.83	3052.06
419.02	3075.46
419.21	2991.20
419.39	3138.66
419.58	3105.89
419.77	3105.89
419.96	3124.62
420.15	3171.43
420.34	3211.22
420.53	3082.49
420.72	3243.98
420.91	3206.53
421.10	3262.71
421.29	3346.97
421.48	3126.96
421.67	3379.73
421.86	3363.35
422.05	3377.39
422.24	3309.52
422.43	3480.38
422.61	3412.50
422.80	3454.63
422.99	3442.93
423.18	3459.31
423.37	3496.76
423.56	3452.29
423.75	3473.36
423.94	3400.80
424.13	3258.03
424.32	3375.05
424.50	3396.12
424.69	3487.40
424.88	3499.10
425.07	3400.80
425.26	3510.80
425.45	3506.12
425.64	3478.04
425.83	3503.78
426.01	3452.29
426.20	3510.80
426.39	3510.80
426.58	3456.97
426.77	3496.76
426.96	3506.12
427.15	3442.93
427.33	3555.27
427.52	3442.93
427.71	3599.74
427.90	3695.71
428.09	3646.55
428.28	3770.60
428.46	3637.19
428.65	3700.39
428.84	3747.20
429.03	3927.42
429.22	3632.51
429.40	3789.33
429.59	3761.24
429.78	3501.44
429.97	3796.35
430.16	3714.43
430.34	3772.94
430.53	3974.23
430.72	3871.25
430.91	3824.44
431.10	3772.94
431.28	3911.04
431.47	4088.92
431.66	4084.23
431.85	3974.23
432.03	4063.17
432.22	4290.20
432.41	3995.29
432.60	4102.96
432.79	4128.70
432.97	4070.19
433.16	4196.58
433.35	4102.96
433.54	4292.54
433.72	4236.37
433.91	4320.63
434.10	4245.73
434.28	4210.62
434.47	4168.49
434.66	4327.65
434.85	4255.09
435.03	4337.01
435.22	4241.05
435.41	4304.25
435.59	4444.68
435.78	4376.80
435.97	4379.14
436.16	4447.02
436.34	4388.50
436.53	4524.26
436.72	4620.22
436.90	4594.47
437.09	4498.51
437.28	4444.68
437.46	4629.58
437.65	4578.09
437.84	4711.50
438.02	4540.64
438.21	4601.49
438.40	4610.86
438.58	4734.90
438.77	4793.42
438.96	4678.73
439.14	4957.25
439.33	4947.89
439.52	4992.36
439.70	5128.11
439.89	5032.15
440.08	5039.17
440.26	5100.03
440.45	4997.04
440.63	4985.34
440.82	5109.39
441.01	5270.89
441.19	5270.89
441.38	5200.67
441.57	5343.44
441.75	5303.65
441.94	5387.91
442.12	5399.62
442.31	5472.17
442.50	5542.39
442.68	5448.77
442.87	5392.59
443.05	5575.16
443.24	5502.60
443.43	5654.73
443.61	5664.10
443.80	5757.72
443.98	5479.19
444.17	5462.81
444.35	5579.84
444.54	5750.70
444.73	5741.33
444.91	5526.00
445.10	5570.48
445.28	5767.08
445.47	5633.67
445.65	5729.63
445.84	5743.67
446.02	5776.44
446.21	5867.72
446.39	5727.29
446.58	5764.74
446.77	5731.97
446.95	5664.10
447.14	5708.57
447.32	5797.51
447.51	5558.77
447.69	5696.86
447.88	5607.92
448.06	5696.86
448.25	5809.21
448.43	5827.93
448.62	5867.72
448.80	5830.27
448.99	5741.33
449.17	5935.60
449.36	5809.21
449.54	6090.07
449.73	5996.45
449.91	6132.20
450.10	6195.40
450.28	6176.67
450.46	6242.21
450.65	6111.14
450.83	6209.44
451.02	6239.87
451.20	6342.85
451.39	6207.10
451.57	6298.38
451.76	6136.88
451.94	6373.28
452.13	6335.83
452.31	6354.55
452.49	6249.23
452.68	6310.08
452.86	6368.60
453.05	6422.43
453.23	6436.47
453.42	6340.51
453.60	6380.30
453.78	6513.71
453.97	6448.18
454.15	6422.43
454.34	6459.88
454.52	6731.38
454.70	6511.37
454.89	6595.63
455.07	6635.42
455.26	6623.72
455.44	6637.76
455.62	6614.35
455.81	6738.40
455.99	6747.76
456.17	6766.49
456.36	6839.05
456.54	6738.40
456.73	6867.13
456.91	7164.38
457.09	7091.82
457.28	7014.59
457.46	6963.09
457.64	7112.89
457.83	7063.74
458.01	6916.28
458.19	7311.83
458.38	7129.27
458.56	7185.44
458.74	7103.53
458.93	7339.92
459.11	7332.90
459.29	7265.02
459.48	7272.04
459.66	7234.60
459.84	7445.24
460.03	7487.37
460.21	7456.95
460.39	7384.39
460.57	7571.63
460.76	7466.31
460.94	7480.35
461.12	7571.63
461.31	7733.13
461.49	7506.10
461.67	7611.42
461.85	7658.23
462.04	7648.87
462.22	8112.30
462.40	7698.02
462.59	7843.14
462.77	7749.51
462.95	7964.84
463.13	7786.96
463.32	7779.94
463.50	8046.76
463.68	8154.43
463.86	7978.89
464.05	7854.84
464.23	8009.31
464.41	7929.74
464.59	7873.56
464.78	7997.61
464.96	8156.77
465.14	7948.46
465.32	8107.62
465.50	8077.19
465.69	8203.58
465.87	8138.04
466.05	8173.15
466.23	8163.79
466.41	8231.66
466.60	8269.11
466.78	8280.82
466.96	8226.98
467.14	8114.64
467.32	8299.54
467.51	8365.07
467.69	8346.35
467.87	8308.90
468.05	8500.83
468.23	8505.51
468.41	8315.92
468.60	8423.59
468.78	8777.01
468.96	8444.65
469.14	8444.65
469.32	8760.63
469.50	8411.89
469.69	8744.24
469.87	8777.01
470.05	8793.39
470.23	8872.97
470.41	9015.74
470.59	8971.27
470.77	8767.65
470.95	9067.24
471.14	9149.15
471.32	8695.09
471.50	9039.15
471.68	9109.36
471.86	9092.98
472.04	9170.22
472.22	9308.31
472.40	8966.59
472.58	9383.21
472.77	9451.08
472.95	9390.23
473.13	9626.62
473.31	9357.46
473.49	9628.96
473.67	9373.85
473.85	9444.06
474.03	9879.40
474.21	9635.99
474.39	9841.95
474.57	9841.95
474.75	9970.68
474.93	9923.87
475.12	9841.95
475.30	10118.14
475.48	10239.84
475.66	9966.00
475.84	10012.81
476.02	10244.52
476.20	10415.38
476.38	10399.00
476.56	10541.77
476.74	10733.70
476.92	10682.20
477.10	10590.92
477.28	10808.59
477.46	10731.36
477.64	10743.06
477.82	11094.14
478.00	11281.38
478.18	11222.87
478.36	11325.85
478.54	11332.87
478.72	11346.92
478.90	11456.92
479.08	11679.27
479.26	11866.52
479.44	11679.27
479.62	11754.17
479.80	11833.75
479.98	11985.88
480.16	12348.67
480.34	12145.04
480.52	12292.49
480.70	12376.75
480.88	12336.96
481.06	12594.42
481.24	12571.02
481.41	12704.43
481.59	12744.22
481.77	12800.39
481.95	13048.49
482.13	13128.06
482.31	12901.03
482.49	13455.74
482.67	13228.71
482.85	13422.97
483.03	13699.16
483.21	13886.40
483.39	13930.87
483.57	13774.05
483.74	14127.47
483.92	14022.15
484.10	14118.11
484.28	14232.80
484.46	14600.26
484.64	14724.31
484.82	14516.00
485.00	14743.03
485.18	15239.23
485.35	15143.27
485.53	14995.81
485.71	15159.65
485.89	15288.38
486.07	15672.23
486.25	15576.27
486.43	15751.81
486.61	15398.38
486.78	16030.33
486.96	16063.10
487.14	16226.93
487.32	16437.58
487.50	16208.21
487.68	16444.60
487.85	16716.11
488.03	16837.81
488.21	17326.99
488.39	17184.21
488.57	17298.90
488.75	17282.52
488.92	17514.23
489.10	17638.28
489.28	17554.02
489.46	18253.84
489.64	17769.35
489.81	18113.41
489.99	18506.62
490.17	18216.39
490.35	18480.87
490.53	18347.46
490.70	18909.19
490.88	18686.84
491.06	19089.41
491.24	18913.87
491.41	19108.13
491.59	19428.79
491.77	19433.47
491.95	19758.80
492.13	19917.96
492.30	19988.18
492.48	19716.67
492.66	19709.65
492.84	20039.67
493.01	20196.48
493.19	20411.81
493.37	20276.06
493.54	20416.49
493.72	20631.82
493.90	20833.11
494.08	20823.75
494.25	21319.94
494.43	21191.21
494.61	21170.15
494.79	21488.46
494.96	21256.75
495.14	21350.37
495.32	22082.95
495.49	21743.58
495.67	21884.01
495.85	21949.54
496.02	22312.33
496.20	22309.99
496.38	22530.00
496.55	22424.67
496.73	22862.35
496.91	22768.73
497.09	23082.36
497.26	23047.26
497.44	22939.59
497.62	23344.50
497.79	23782.18
497.97	23433.44
498.14	23978.79
498.32	23915.59
498.50	23796.23
498.67	24390.72
498.85	24112.20
499.03	24348.59
499.20	24404.77
499.38	24219.86
499.56	24559.24
499.73	24617.75
499.91	24697.33
500.08	24697.33
500.26	24727.76
500.44	25057.78
500.61	24929.05
500.79	24723.08
500.97	25230.98
501.14	25392.47
501.32	25549.29
501.49	25198.21
501.67	25521.20
501.84	25813.77
502.02	25818.45
502.20	26267.83
502.37	25661.63
502.55	25741.21
502.72	25888.67
502.90	26403.58
503.07	25820.79
503.25	26094.63
503.43	26075.91
503.60	26501.89
503.78	26864.67
503.95	26284.22
504.13	26455.08
504.30	26909.14
504.48	27002.76
504.65	27318.73
504.83	27108.08
505.01	27608.96
505.18	27229.79
505.36	27634.71
505.53	27208.73
505.71	27658.11
505.88	27765.78
506.06	27964.72
506.23	27798.54
506.41	27838.33
506.58	28194.09
506.76	28023.23
506.93	28261.97
507.11	27971.74
507.28	28327.50
507.46	28166.01
507.63	28369.63
507.81	28404.74
507.98	28259.63
508.16	28613.05
508.33	28701.99
508.50	28882.21
508.68	29144.35
508.85	29371.38
509.03	29200.52
509.20	29303.51
509.38	29729.48
509.55	29549.26
509.73	29631.18
509.90	29479.05
510.08	29752.89
510.25	29420.53
510.42	29542.24
510.60	30230.36
510.77	29972.90
510.95	30492.50
511.12	30319.30
511.30	30010.35
511.47	30433.99
511.64	30302.92
511.82	30684.42
511.99	30539.31
512.17	30595.48
512.34	30668.04
512.51	31082.31
512.69	30871.67
512.86	30951.24
513.04	31323.39
513.21	31194.66
513.38	31295.30
513.56	31054.23
513.73	31335.09
513.90	31597.23
514.08	31337.43
514.25	31519.99
514.43	31819.58
514.60	31665.11
514.77	31550.42
514.95	32285.35
515.12	32041.93
515.29	31896.82
515.47	32231.52
515.64	32154.28
515.81	32074.70
515.99	32002.14
516.16	32723.03
516.33	32524.08
516.51	32884.53
516.68	32400.04
516.85	32945.38
517.03	33139.65
517.20	33017.94
517.37	32730.05
517.54	33102.20
517.72	33060.07
517.89	33682.65
518.06	33448.60
518.24	33144.33
518.41	33621.80
518.58	33303.48
518.75	33511.79
518.93	33809.04
519.10	33436.89
519.27	33649.88
519.45	33940.11
519.62	33869.89
519.79	33982.24
519.96	33975.22
520.14	34270.12
520.31	33699.03
520.48	34361.40
520.65	34078.20
520.83	34763.98
521.00	34391.83
521.17	34691.42
521.34	34677.38
521.52	34684.40
521.69	34976.97
521.86	35009.73
522.03	35288.26
522.20	35075.27
522.38	35709.55
522.55	35452.09
522.72	35208.68
522.89	35728.28
523.07	35817.22
523.24	35545.72
523.41	35667.42
523.58	35346.77
523.75	35917.86
523.92	35817.22
524.10	35571.46
524.27	35955.31
524.44	36053.61
524.61	36095.74
524.78	36250.22
524.96	36332.14
525.13	36151.91
525.30	36327.45
525.47	36566.19
525.64	36456.18
525.81	36465.55
525.98	36535.76
526.16	35828.92
526.33	36652.79
526.50	36891.52
526.67	36912.59
526.84	36847.05
527.01	36718.32
527.18	37064.72
527.36	37090.47
527.53	37284.73
527.70	37383.04
527.87	37301.12
528.04	37146.64
528.21	37240.26
528.38	37174.73
528.55	37523.47
528.72	37027.28
528.89	37137.28
529.07	37532.83
529.24	37371.33
529.41	37764.54
529.58	37593.68
529.75	37710.71
529.92	37713.05
530.09	37818.38
530.26	38000.94
530.43	38398.83
530.60	37876.89
530.77	38000.94
530.94	38167.12
531.11	37834.76
531.28	38408.19
531.46	38623.52
531.63	38375.42
531.80	38150.73
531.97	38508.83
532.14	38646.93
532.31	38464.36
532.48	38738.21
532.65	38689.06
532.82	38696.08
532.99	38747.57
533.16	38738.21
533.33	38876.30
533.50	38960.56
533.67	38888.00
533.84	39388.88
534.01	38852.89
534.18	38969.92
534.35	39632.29
534.52	39241.42
534.69	39175.89
534.86	40121.46
535.03	39070.56
535.20	39498.88
535.37	39746.98
535.54	40165.93
535.71	39840.60
535.88	40020.82
536.05	39653.36
536.22	40231.47
536.38	39761.02
536.55	39845.28
536.72	40123.80
536.89	39903.79
537.06	39438.03
537.23	40477.22
537.40	40060.61
537.57	40428.07
537.74	40325.09
537.91	40697.24
538.08	40662.13
538.25	39927.20
538.42	40858.73
538.59	40678.51
538.75	40329.77
538.92	40694.89
539.09	41022.57
539.26	40947.67
539.43	40662.13
539.60	41144.28
539.77	40603.61
539.94	40701.92
540.11	40989.80
540.28	41235.56
540.44	41216.83
540.61	40737.02
540.78	41013.21
540.95	40975.76
541.12	41134.92
541.29	41392.37
541.46	41474.29
541.62	41401.74
541.79	41464.93
541.96	40964.06
542.13	41488.34
542.30	41081.08
542.47	41415.78
542.63	42099.22
542.80	41736.43
542.97	42066.45
543.14	41982.19
543.31	42139.00
543.48	41713.03
543.64	42506.47
543.81	42234.97
543.98	42436.25
544.15	42183.48
544.32	42375.40
544.48	42810.74
544.65	42249.01
544.82	42799.04
544.99	42347.31
545.16	42408.17
545.32	42450.30
545.49	42775.63
545.66	43241.40
545.83	42892.66
546.00	42923.08
546.16	43133.73
546.33	42925.42
546.50	42726.48
546.67	43033.09
546.83	42740.52
547.00	43234.38
547.17	42700.73
547.34	43105.65
547.50	43349.06
547.67	43337.36
547.84	43276.51
548.00	43749.29
548.17	43922.49
548.34	43599.50
548.51	43519.92
548.67	43826.53
548.84	43803.13
549.01	43335.02
549.18	43215.65
549.34	43634.61
549.51	44041.86
549.68	43578.43
549.84	43730.57
550.01	43969.30
550.18	43643.97
550.34	43695.46
550.51	43580.78
550.68	44011.43
550.84	43634.61
551.01	44149.53
551.18	43894.41
551.34	43875.68
551.51	44107.40
551.68	43917.81
551.84	44233.78
552.01	43941.22
552.18	43906.11
552.34	44339.11
552.51	44032.50
552.68	43522.26
552.84	44367.20
553.01	44432.73
553.18	44285.28
553.34	44842.32
553.51	44311.02
553.67	44460.82
553.84	44603.59
554.01	44495.92
554.17	44847.00
554.34	44416.35
554.51	44678.49
554.67	45382.99
554.84	44994.46
555.00	44479.54
555.17	44619.97
555.33	45088.08
555.50	44701.89
555.67	45244.90
555.83	45095.10
556.00	45301.07
556.16	45162.98
556.33	45008.50
556.50	44912.54
556.66	44931.26
556.83	45078.72
556.99	45382.99
557.16	45301.07
557.32	45359.58
557.49	45570.23
557.65	45181.70
557.82	45003.82
557.98	45148.93
558.15	45577.25
558.32	45432.14
558.48	45289.37
558.65	45359.58
558.81	45368.94
558.98	45359.58
559.14	45455.54
559.31	45457.88
559.47	45490.65
559.64	45832.37
559.80	45668.53
559.97	45408.73
560.13	45507.04
560.30	45811.31
560.46	45825.35
560.63	45603.00
560.79	46241.96
560.96	45888.54
561.12	45965.78
561.29	46089.83
561.45	46136.64
561.61	46047.70
561.78	45825.35
561.94	45954.08
562.11	46164.73
562.27	46445.59
562.44	45743.43
562.60	46405.80
562.77	46225.58
562.93	46199.83
563.10	46209.20
563.26	46279.41
563.42	46773.27
563.59	46183.45
563.75	46064.08
563.92	45951.74
564.08	46232.60
564.24	46494.74
564.41	46167.07
564.57	46415.16
564.74	46487.72
564.90	46398.78
565.07	46050.04
565.23	46571.98
565.39	46300.48
565.56	46906.68
565.72	46368.35
565.88	46508.79
566.05	46586.02
566.21	46841.14
566.38	46642.20
566.54	46918.38
566.70	46822.42
566.87	46129.62
567.03	46340.27
567.19	46794.33
567.36	46511.13
567.52	46630.49
567.68	47037.75
567.85	46843.48
568.01	47243.71
568.17	46677.30
568.34	46623.47
568.50	46693.69
568.66	46611.77
568.83	46644.54
568.99	46583.68
569.15	46630.49
569.32	46909.02
569.48	46916.04
569.64	47061.15
569.81	46740.50
569.97	46696.03
570.13	47187.54
570.30	46700.71
570.46	46932.42
570.62	46763.90
570.78	46677.30
570.95	47023.70
571.11	47367.76
571.27	46969.87
571.43	46656.24
571.60	47035.41
571.76	46911.36
571.92	47105.62
572.09	47110.30
572.25	47035.41
572.41	46567.30
572.57	47229.67
572.74	47147.75
572.90	46948.81
573.06	46979.23
573.22	47283.50
573.38	47547.98
573.55	47185.20
573.71	47505.85
573.87	47058.81
574.03	46909.02
574.20	47412.23
574.36	47103.28
574.52	47086.90
574.68	47669.69
574.84	47555.00
575.01	47330.31
575.17	47756.29
575.33	47262.44
575.49	46965.19
575.65	47246.05
575.82	46927.74
575.98	47075.19
576.14	47239.03
576.30	47531.60
576.46	47405.21
576.62	47119.66
576.79	47358.40
576.95	47056.47
577.11	46892.63
577.27	47412.23
577.43	47182.86
577.59	47192.22
577.75	47271.80
577.92	47037.75
578.08	47569.05
578.24	47800.76
578.40	47487.13
578.56	47760.97
578.72	47098.60
578.88	47325.63
579.04	47590.11
579.21	47442.66
579.37	47407.55
579.53	47517.56
579.69	47503.51
579.85	47419.25
580.01	47215.63
580.17	47669.69
580.33	47683.73
580.49	47606.50
580.65	47459.04
580.82	47463.72
580.98	47330.31
581.14	47309.25
581.30	47903.74
581.46	47428.62
581.62	47400.53
581.78	47133.71
581.94	47545.64
582.10	47363.08
582.26	47945.87
582.42	47533.94
582.58	47854.59
582.74	47606.50
582.90	47545.64
583.06	48058.22
583.22	47672.03
583.38	47735.23
583.54	47367.76
583.70	47800.76
583.86	47629.90
584.02	47409.89
584.18	47363.08
584.34	47634.58
584.50	48123.75
584.66	47723.52
584.82	47529.26
584.98	47980.98
585.14	48025.45
585.30	47620.54
585.46	47515.22
585.62	47330.31
585.78	47611.18
585.94	47297.55
586.10	47775.02
586.26	47414.57
586.42	47697.78
586.58	47620.54
586.74	48100.35
586.90	47559.69
587.06	47508.19
587.22	47421.59
587.38	47746.93
587.54	48072.26
587.70	48093.33
587.86	47674.37
588.02	47625.22
588.18	47917.79
588.34	47592.45
588.49	47999.71
588.65	47812.46
588.81	48023.11
588.97	48016.09
589.13	47683.73
589.29	47749.27
589.45	48116.73
589.61	47725.86
589.77	48065.24
589.93	48037.16
590.08	48020.77
