SpectraSuite Data File
++++++++++++++++++++++++++++++++++++
Date: Fri Oct 25 11:33:18 EDT 2013
User: price-jones
Dark Spectrum Present: No
Reference Spectrum Present: No
Number of Sampled Component Spectra: 1
Spectrometers: USB2+H05261
Integration Time (usec): 100000 (USB2+H05261)
Spectra Averaged: 1 (USB2+H05261)
Boxcar Smoothing: 0 (USB2+H05261)
Correct for Electrical Dark: No (USB2+H05261)
Strobe/Lamp Enabled: No (USB2+H05261)
Correct for Detector Non-linearity: No (USB2+H05261)
Correct for Stray Light: No (USB2+H05261)
Number of Pixels in Processed Spectrum: 2048
>>>>>Begin Processed Spectral Data<<<<<
365.73	215.33
365.92	215.33
366.12	215.33
366.32	220.01
366.52	170.86
366.72	234.05
366.91	135.75
367.11	191.92
367.31	168.52
367.51	149.79
367.70	119.37
367.90	180.22
368.10	133.41
368.30	128.73
368.49	105.32
368.69	205.97
368.89	175.54
369.09	198.95
369.28	257.46
369.48	145.11
369.68	245.76
369.87	241.08
370.07	229.37
370.27	294.91
370.47	346.40
370.66	489.17
370.86	596.84
371.06	552.37
371.25	493.85
371.45	550.03
371.65	442.36
371.84	519.60
372.04	557.05
372.24	564.07
372.44	592.16
372.63	599.18
372.83	582.79
373.03	596.84
373.22	624.92
373.42	601.52
373.62	629.60
373.81	624.92
374.01	723.23
374.21	643.65
374.40	582.79
374.60	587.47
374.79	615.56
374.99	730.25
375.19	685.78
375.38	751.31
375.58	648.33
375.78	697.48
375.97	702.16
376.17	699.82
376.37	725.57
376.56	760.67
376.76	662.37
376.95	704.50
377.15	678.76
377.35	713.86
377.54	688.12
377.74	648.33
377.93	713.86
378.13	615.56
378.33	795.78
378.52	664.71
378.72	699.82
378.91	718.54
379.11	716.20
379.31	720.88
379.50	734.93
379.70	713.86
379.89	763.01
380.09	624.92
380.28	709.18
380.48	734.93
380.68	692.80
380.87	660.03
381.07	795.78
381.26	795.78
381.46	763.01
381.65	720.88
381.85	784.08
382.04	807.48
382.24	849.61
382.43	777.06
382.63	800.46
382.83	758.33
383.02	870.68
383.22	828.55
383.41	760.67
383.61	858.98
383.80	791.10
384.00	851.96
384.19	833.23
384.39	809.83
384.58	887.06
384.78	868.34
384.97	863.66
385.17	851.96
385.36	826.21
385.56	866.00
385.75	833.23
385.95	894.08
386.14	795.78
386.34	802.80
386.53	861.32
386.72	884.72
386.92	863.66
387.11	933.87
387.31	891.74
387.50	882.38
387.70	868.34
387.89	861.32
388.09	866.00
388.28	868.34
388.48	910.47
388.67	938.55
388.86	933.87
389.06	954.94
389.25	978.34
389.45	898.77
389.64	952.60
389.84	964.30
390.03	1020.47
390.22	936.21
390.42	915.15
390.61	943.24
390.81	966.64
391.00	952.60
391.19	1071.97
391.39	973.66
391.58	961.96
391.78	1025.15
391.97	997.07
392.16	1013.45
392.36	1107.07
392.55	1053.24
392.75	994.73
392.94	1027.50
393.13	1088.35
393.33	1078.99
393.52	1041.54
393.71	1060.26
393.91	1100.05
394.10	1008.77
394.29	1111.75
394.49	1135.16
394.68	1086.01
394.88	1060.26
395.07	1210.06
395.26	1107.07
395.46	1130.48
395.65	1179.63
395.84	1170.27
396.04	1233.46
396.23	1203.04
396.42	1165.59
396.62	1156.22
396.81	1324.74
397.00	1294.32
397.19	1249.85
397.39	1167.93
397.58	1242.82
397.77	1170.27
397.97	1186.65
398.16	1301.34
398.35	1317.72
398.55	1186.65
398.74	1247.51
398.93	1287.29
399.12	1301.34
399.32	1303.68
399.51	1273.25
399.70	1263.89
399.90	1357.51
400.09	1373.89
400.28	1437.09
400.47	1329.42
400.67	1420.71
400.86	1376.24
401.05	1366.87
401.24	1439.43
401.44	1401.98
401.63	1497.94
401.82	1488.58
402.01	1327.08
402.21	1432.41
402.40	1455.81
402.59	1432.41
402.78	1488.58
402.97	1544.75
403.17	1526.03
403.36	1462.83
403.55	1586.88
403.74	1570.50
403.93	1558.80
404.13	1551.78
404.32	1617.31
404.51	1603.27
404.70	1614.97
404.89	1645.40
405.09	1720.29
405.28	1617.31
405.47	1603.27
405.66	1753.06
405.85	1748.38
406.05	1699.23
406.24	1685.19
406.43	1708.59
406.62	1846.68
406.81	1844.34
407.00	1820.94
407.20	1715.61
407.39	1809.23
407.58	1827.96
407.77	1895.83
407.96	1837.32
408.15	1858.39
408.34	1853.70
408.54	1961.37
408.73	1921.58
408.92	2062.01
409.11	1898.17
409.30	1900.52
409.49	2017.54
409.68	2005.84
409.87	1980.09
410.07	2078.40
410.26	2083.08
410.45	2069.03
410.64	2216.49
410.83	2139.25
411.02	2160.31
411.21	2157.97
411.40	2150.95
411.59	2230.53
411.78	2186.06
411.98	2190.74
412.17	2235.21
412.36	2225.85
412.55	2389.69
412.74	2382.67
412.93	2429.48
413.12	2324.15
413.31	2478.63
413.50	2373.30
413.69	2356.92
413.88	2392.03
414.07	2427.14
414.26	2504.37
414.45	2487.99
414.64	2471.61
414.83	2656.51
415.02	2665.87
415.22	2759.49
415.41	2672.89
415.60	2675.23
415.79	2654.17
415.98	2759.49
416.17	2764.17
416.36	2782.90
416.55	2637.78
416.74	2818.00
416.93	2738.43
417.12	2759.49
417.31	2820.35
417.50	2822.69
417.69	2923.33
417.88	3023.97
418.07	3014.61
418.26	2974.82
418.45	2860.13
418.64	3007.59
418.83	3052.06
419.02	3180.79
419.21	3073.12
419.39	3087.17
419.58	3162.06
419.77	3077.80
419.96	3159.72
420.15	3211.22
420.34	3180.79
420.53	3124.62
420.72	3241.64
420.91	3201.85
421.10	3255.69
421.29	3321.22
421.48	3206.53
421.67	3330.58
421.86	3358.67
422.05	3311.86
422.24	3293.13
422.43	3349.31
422.61	3372.71
422.80	3370.37
422.99	3426.54
423.18	3428.88
423.37	3440.59
423.56	3433.57
423.75	3417.18
423.94	3262.71
424.13	3220.58
424.32	3365.69
424.50	3339.94
424.69	3527.19
424.88	3595.06
425.07	3487.40
425.26	3351.65
425.45	3332.92
425.64	3435.91
425.83	3452.29
426.01	3510.80
426.20	3548.25
426.39	3471.01
426.58	3473.36
426.77	3426.54
426.96	3581.02
427.15	3658.26
427.33	3604.42
427.52	3623.15
427.71	3506.12
427.90	3639.53
428.09	3632.51
428.28	3786.99
428.46	3801.03
428.65	3730.81
428.84	3768.26
429.03	3875.93
429.22	3829.12
429.40	3796.35
429.59	3824.44
429.78	3730.81
429.97	3597.40
430.16	3878.27
430.34	3887.63
430.53	3817.41
430.72	3983.59
430.91	3939.12
431.10	3868.91
431.28	3969.55
431.47	4046.79
431.66	4072.53
431.85	3995.29
432.03	3943.80
432.22	4224.67
432.41	3967.21
432.60	4091.26
432.79	4145.09
432.97	4180.20
433.16	4217.65
433.35	4245.73
433.54	4138.07
433.72	4100.62
433.91	4264.46
434.10	4194.24
434.28	4147.43
434.47	4337.01
434.66	4360.42
434.85	4496.17
435.03	4376.80
435.22	4372.12
435.41	4365.10
435.59	4489.15
435.78	4503.19
435.97	4454.04
436.16	4435.32
436.34	4404.89
436.53	4519.57
436.72	4538.30
436.90	4428.29
437.09	4596.81
437.28	4470.42
437.46	4432.97
437.65	4645.96
437.84	4564.04
438.02	4739.58
438.21	4676.39
438.40	4652.98
438.58	4833.21
438.77	4891.72
438.96	4882.36
439.14	4968.96
439.33	4908.10
439.52	4910.44
439.70	4884.70
439.89	5043.85
440.08	5029.81
440.26	5135.14
440.45	5055.56
440.63	4999.38
440.82	5146.84
441.01	4997.04
441.19	5231.10
441.38	5404.30
441.57	5387.91
441.75	5336.42
441.94	5425.36
442.12	5425.36
442.31	5444.09
442.50	5523.66
442.68	5451.11
442.87	5518.98
443.05	5448.77
443.24	5575.16
443.43	5441.75
443.61	5600.90
443.80	5645.37
443.98	5448.77
444.17	5533.03
444.35	5600.90
444.54	5893.47
444.73	5757.72
444.91	5643.03
445.10	5757.72
445.28	5591.54
445.47	5652.39
445.65	5706.23
445.84	5839.64
446.02	5736.65
446.21	5783.46
446.39	5851.34
446.58	5636.01
446.77	5870.06
446.95	5558.77
447.14	5748.36
447.32	5879.43
447.51	5720.27
447.69	5806.87
447.88	5982.41
448.06	5776.44
448.25	5870.06
448.43	5870.06
448.62	5703.89
448.80	5774.10
448.99	5956.66
449.17	5930.92
449.36	5926.24
449.54	6174.33
449.73	6083.05
449.91	6127.52
450.10	6148.59
450.28	6300.72
450.46	6146.25
450.65	6054.97
450.83	6164.97
451.02	6167.31
451.20	6286.68
451.39	6113.48
451.57	6174.33
451.76	6160.29
451.94	6251.57
452.13	6399.02
452.31	6368.60
452.49	6249.23
452.68	6289.02
452.86	6321.79
453.05	6555.84
453.23	6534.78
453.42	6251.57
453.60	6258.59
453.78	6429.45
453.97	6502.01
454.15	6492.65
454.34	6396.68
454.52	6663.51
454.70	6731.38
454.89	6572.22
455.07	6661.16
455.26	6670.53
455.44	6895.22
455.62	6686.91
455.81	6782.87
455.99	6700.95
456.17	6876.49
456.36	6932.67
456.54	6932.67
456.73	6927.99
456.91	7171.40
457.09	6920.96
457.28	7129.27
457.46	7021.61
457.64	7077.78
457.83	7117.57
458.01	7054.37
458.19	7201.83
458.38	7304.81
458.56	7403.11
458.74	7241.62
458.93	7384.39
459.11	7393.75
459.29	7138.63
459.48	7316.51
459.66	7150.34
459.84	7368.01
460.03	7363.33
460.21	7421.84
460.39	7283.75
460.57	7456.95
460.76	7522.48
460.94	7604.40
461.12	7634.83
461.31	7435.88
461.49	7522.48
461.67	7571.63
461.85	7793.98
462.04	7791.64
462.22	8081.87
462.40	7716.75
462.59	7936.76
462.77	7941.44
462.95	7997.61
463.13	7803.35
463.32	7925.05
463.50	7836.11
463.68	7957.82
463.86	8159.11
464.05	7999.95
464.23	8016.33
464.41	8245.71
464.59	7892.29
464.78	8095.91
464.96	8156.77
465.14	8098.25
465.32	8311.24
465.50	8166.13
465.69	8425.93
465.87	8308.90
466.05	8283.16
466.23	8224.64
466.41	8163.79
466.60	8294.86
466.78	8219.96
466.96	8322.94
467.14	8283.16
467.32	8503.17
467.51	8388.48
467.69	8219.96
467.87	8458.70
468.05	8339.33
468.23	8463.38
468.41	8353.37
468.60	8362.73
468.78	8564.02
468.96	8430.61
469.14	8528.91
469.32	8809.78
469.50	8528.91
469.69	8681.05
469.87	8898.72
470.05	8594.45
470.23	8919.78
470.41	8856.59
470.59	9004.04
470.77	8854.25
470.95	8926.80
471.14	9170.22
471.32	8917.44
471.50	9202.99
471.68	9088.30
471.86	9294.27
472.04	9048.51
472.22	9387.89
472.40	9121.07
472.58	9289.59
472.77	9289.59
472.95	9547.05
473.13	9724.93
473.31	9476.83
473.49	9488.53
473.67	9525.98
473.85	9692.16
474.03	9834.93
474.21	9935.57
474.39	10080.69
474.57	9947.28
474.75	9991.75
474.93	10040.90
475.12	9958.98
475.30	9841.95
475.48	10139.20
475.66	10239.84
475.84	10040.90
476.02	10272.61
476.20	10356.87
476.38	10462.19
476.56	10747.74
476.74	10492.62
476.92	10537.09
477.10	10523.05
477.28	10757.10
477.46	10733.70
477.64	10876.47
477.82	10984.13
478.00	11389.05
478.18	11293.08
478.36	11309.47
478.54	11232.23
478.72	11482.67
478.90	11552.88
479.08	11587.99
479.26	11967.16
479.44	11705.02
479.62	12013.97
479.80	11971.84
479.98	12175.47
480.16	12365.05
480.34	12156.74
480.52	12542.93
480.70	12739.54
480.88	12388.46
481.06	12507.82
481.24	12622.51
481.41	12664.64
481.59	12741.88
481.77	12957.21
481.95	13008.70
482.13	13060.19
482.31	13011.04
482.49	13490.85
482.67	13537.66
482.85	13453.40
483.03	13795.12
483.21	13614.90
483.39	13961.30
483.57	13902.78
483.74	14167.26
483.92	14314.72
484.10	13951.93
484.28	14303.01
484.46	14499.62
484.64	14895.17
484.82	14565.15
485.00	14682.18
485.18	15185.40
485.35	15166.67
485.53	15169.01
485.71	15204.12
485.89	15599.67
486.07	15653.50
486.25	15721.38
486.43	15602.01
486.61	15772.87
486.78	15875.85
486.96	16102.89
487.14	16318.22
487.32	16334.60
487.50	16479.71
487.68	16531.20
487.85	16795.68
488.03	16828.45
488.21	16929.09
488.39	16926.75
488.57	17649.98
488.75	17322.30
488.92	17652.32
489.10	17783.39
489.28	17689.77
489.46	17734.24
489.64	17834.88
489.81	18228.09
489.99	18431.72
490.17	18621.30
490.35	18803.86
490.53	18747.69
490.70	18824.93
490.88	18719.60
491.06	19063.66
491.24	18878.76
491.41	19126.86
491.59	19531.77
491.77	19473.26
491.95	19578.58
492.13	19735.40
492.30	19728.38
492.48	19838.38
492.66	19936.68
492.84	20255.00
493.01	20449.26
493.19	20322.87
493.37	20608.42
493.54	20793.32
493.72	20908.01
493.90	20915.03
494.08	20872.90
494.25	21102.27
494.43	21303.56
494.61	21429.94
494.79	21516.54
494.96	21219.30
495.14	21851.24
495.32	22022.10
495.49	21678.04
495.67	22017.42
495.85	21994.01
496.02	22258.49
496.20	22742.99
496.38	22742.99
496.55	22740.64
496.73	23264.92
496.91	22979.38
497.09	23218.11
497.26	22993.42
497.44	23344.50
497.62	22981.72
497.79	23733.03
497.97	23267.27
498.14	23793.89
498.32	23828.99
498.50	23922.62
498.67	24294.76
498.85	24084.11
499.03	24137.94
499.20	24037.30
499.38	24577.97
499.56	24828.40
499.73	24648.18
499.91	24751.17
500.08	24938.41
500.26	24842.45
500.44	24821.38
500.61	25268.42
500.79	25202.89
500.97	25549.29
501.14	26113.36
501.32	25448.64
501.49	25427.58
501.67	25858.24
501.84	25575.03
502.02	25797.38
502.20	25607.80
502.37	25930.80
502.55	25832.49
502.72	25942.50
502.90	25975.27
503.07	26136.76
503.25	26328.69
503.43	26405.92
503.60	26637.64
503.78	26850.63
503.95	26686.79
504.13	26794.45
504.30	27005.10
504.48	26974.67
504.65	27339.80
504.83	27239.15
505.01	27168.94
505.18	27370.22
505.36	27938.97
505.53	27573.85
505.71	27545.76
505.88	27868.76
506.06	27508.32
506.23	28020.89
506.41	27852.38
506.58	28215.16
506.76	28074.73
506.93	28486.66
507.11	28126.22
507.28	28444.53
507.46	28491.34
507.63	28250.27
507.81	28744.12
507.98	28332.18
508.16	28620.07
508.33	28479.64
508.50	29006.26
508.68	28978.17
508.85	29254.36
509.03	29254.36
509.20	29640.54
509.38	29481.39
509.55	29418.19
509.73	29694.38
509.90	29935.45
510.08	29881.62
510.25	29628.84
510.42	29848.85
510.60	30089.93
510.77	30148.44
510.95	30164.82
511.12	30586.12
511.30	30436.33
511.47	30146.10
511.64	30445.69
511.82	30808.47
511.99	30817.83
512.17	31232.11
512.34	30752.30
512.51	30639.95
512.69	31527.02
512.86	31278.92
513.04	31459.14
513.21	30951.24
513.38	31515.31
513.56	31641.70
513.73	31318.71
513.90	31611.28
514.08	31543.40
514.25	32016.19
514.43	31721.28
514.60	32170.66
514.77	31903.84
514.95	32032.57
515.12	32020.87
515.29	32107.47
515.47	32107.47
515.64	32655.15
515.81	32371.95
515.99	32737.07
516.16	32624.73
516.33	32514.72
516.51	33006.23
516.68	32514.72
516.85	32912.61
517.03	32966.45
517.20	33125.60
517.37	33167.73
517.54	33010.92
517.72	33273.06
517.89	33207.52
518.06	33439.23
518.24	33439.23
518.41	33263.69
518.58	33340.93
518.75	33359.66
518.93	33621.80
519.10	33645.20
519.27	33790.31
519.45	33970.54
519.62	34426.94
519.79	34277.15
519.96	33968.19
520.14	33912.02
520.31	33839.47
520.48	34532.26
520.65	34452.69
520.83	34808.45
521.00	34518.22
521.17	34675.04
521.34	34593.12
521.52	34920.79
521.69	34927.81
521.86	34890.37
522.03	34876.32
522.20	35440.39
522.38	35365.49
522.55	35054.20
522.72	35662.74
522.89	35314.00
523.07	35363.15
523.24	35566.78
523.41	35700.19
523.58	35613.59
523.75	35709.55
523.92	35484.86
524.10	35634.66
524.27	36130.85
524.44	35800.83
524.61	36425.76
524.78	36112.13
524.96	36437.46
525.13	36278.30
525.30	36669.17
525.47	36217.45
525.64	36926.63
525.81	36814.29
525.98	37010.89
526.16	36779.18
526.33	36786.20
526.50	36762.79
526.67	36678.54
526.84	36783.86
527.01	36910.25
527.18	36992.17
527.36	37034.30
527.53	37378.36
527.70	37399.42
527.87	37493.04
528.04	37064.72
528.21	37368.99
528.38	37680.28
528.55	37736.46
528.72	37179.41
528.89	37551.56
529.07	37600.71
529.24	37305.80
529.41	37846.46
529.58	37998.60
529.75	38022.00
529.92	38014.98
530.09	37607.73
530.26	37926.04
530.43	38323.93
530.60	37766.88
530.77	37937.74
530.94	38417.55
531.11	38286.48
531.28	38092.22
531.46	38543.94
531.63	38127.33
531.80	38876.30
531.97	38356.70
532.14	38934.81
532.31	38724.16
532.48	39138.44
532.65	39033.11
532.82	38637.56
532.99	38990.98
533.16	39180.57
533.33	39381.85
533.50	39124.40
533.67	38857.57
533.84	39194.61
534.01	39306.96
534.18	39033.11
534.35	39494.20
534.52	39269.51
534.69	39625.27
534.86	39983.37
535.03	39447.39
535.20	39985.71
535.37	39990.39
535.54	40212.74
535.71	39814.85
535.88	39627.61
536.05	39784.43
536.22	40107.42
536.38	39777.40
536.55	39955.29
536.72	39423.98
536.89	40161.25
537.06	40306.37
537.23	40425.73
537.40	40381.26
537.57	40147.21
537.74	40231.47
537.91	41137.26
538.08	40236.15
538.25	40055.93
538.42	40666.81
538.59	40222.11
538.75	40458.50
538.92	41179.39
539.09	40889.16
539.26	40992.14
539.43	40840.01
539.60	41186.41
539.77	40924.27
539.94	41064.70
540.11	41057.68
540.28	41343.22
540.44	41345.56
540.61	41235.56
540.78	41088.10
540.95	41118.53
541.12	40959.38
541.29	41172.36
541.46	41467.27
541.62	41750.48
541.79	41516.42
541.96	41436.84
542.13	41298.75
542.30	41158.32
542.47	41783.24
542.63	41500.04
542.80	42082.83
542.97	42244.33
543.14	42124.96
543.31	41991.55
543.48	41991.55
543.64	42581.37
543.81	42766.27
543.98	42607.11
544.15	42087.51
544.32	42983.94
544.48	42878.61
544.65	42553.28
544.82	42518.17
544.99	42099.22
545.16	43002.66
545.32	42864.57
545.49	42951.17
545.66	43143.09
545.83	42808.40
546.00	43005.00
546.16	42848.19
546.33	42689.03
546.50	42862.23
546.67	43030.75
546.83	42883.30
547.00	42937.13
547.17	42897.34
547.34	43154.80
547.50	43269.48
547.67	43309.27
547.84	43040.11
548.00	43587.80
548.17	43732.91
548.34	43536.30
548.51	43938.88
548.67	43894.41
548.84	43768.02
549.01	43751.63
549.18	43428.64
549.34	44072.29
549.51	44076.97
549.68	43936.54
549.84	44002.07
550.01	44217.40
550.18	44126.12
550.34	43899.09
550.51	43714.19
550.68	44357.83
550.84	43625.25
551.01	44236.12
551.18	43929.51
551.34	44194.00
551.51	44130.80
551.68	43943.56
551.84	43901.43
552.01	44198.68
552.18	44163.57
552.34	44446.77
552.51	44666.78
552.68	44027.82
552.84	44521.67
553.01	44701.89
553.18	44598.91
553.34	44577.84
553.51	44439.75
553.67	44741.68
553.84	45067.02
554.01	44774.45
554.17	44861.05
554.34	45052.97
554.51	45118.51
554.67	45123.19
554.84	44910.20
555.00	44912.54
555.17	45228.51
555.33	44957.01
555.50	44879.77
555.67	45052.97
555.83	45085.74
556.00	45155.96
556.16	45649.81
556.33	44666.78
556.50	45277.66
556.66	45635.77
556.83	45162.98
556.99	45989.19
557.16	45382.99
557.32	45439.16
557.49	45989.19
557.65	45345.54
557.82	45661.51
557.98	45228.51
558.15	45626.40
558.32	45741.09
558.48	45525.76
558.65	45359.58
558.81	45921.31
558.98	45656.83
559.14	45591.30
559.31	45284.68
559.47	45893.22
559.64	45659.17
559.80	45886.20
559.97	46171.75
560.13	45954.08
560.30	45710.66
560.46	45647.47
560.63	46284.09
560.79	46366.01
560.96	46082.81
561.12	46101.53
561.29	46117.92
561.45	46277.07
561.61	46253.67
561.78	45666.19
561.94	45530.44
562.11	45893.22
562.27	46054.72
562.44	46499.42
562.60	46314.52
562.77	46167.07
562.93	45998.55
563.10	46312.18
563.26	46061.74
563.42	46497.08
563.59	46127.28
563.75	46281.75
563.92	46391.76
564.08	46555.60
564.24	46483.04
564.41	46422.19
564.57	46398.78
564.74	46440.91
564.90	46293.46
565.07	46244.30
565.23	46342.61
565.39	46466.66
565.56	46424.53
565.72	46314.52
565.88	46394.10
566.05	46693.69
566.21	46681.98
566.38	46459.63
566.54	46567.30
566.70	46525.17
566.87	46314.52
567.03	46637.51
567.19	47112.64
567.36	46586.02
567.52	46593.04
567.68	46836.46
567.85	46995.62
568.01	46770.93
568.17	46799.01
568.34	47035.41
568.50	46763.90
568.66	46909.02
568.83	46934.76
568.99	46866.89
569.15	46848.16
569.32	46913.70
569.48	46981.57
569.64	47255.42
569.81	47096.26
569.97	47213.29
570.13	47220.31
570.30	46906.68
570.46	46787.31
570.62	47519.90
570.78	46969.87
570.95	46883.27
571.11	47398.19
571.27	46951.15
571.43	46880.93
571.60	47246.05
571.76	46932.42
571.92	47117.32
572.09	47187.54
572.25	47199.24
572.41	46909.02
572.57	47103.28
572.74	47817.14
572.90	46990.94
573.06	47318.61
573.22	47180.52
573.38	47442.66
573.55	47182.86
573.71	47433.30
573.87	47089.24
574.03	47033.07
574.20	47643.94
574.36	47459.04
574.52	47686.07
574.68	47185.20
574.84	47533.94
575.01	47833.53
575.17	47475.43
575.33	47482.45
575.49	47295.21
575.65	47566.71
575.82	47775.02
575.98	47255.42
576.14	47683.73
576.30	47873.32
576.46	47737.57
576.62	47206.26
576.79	47777.36
576.95	47079.88
577.11	47136.05
577.27	47569.05
577.43	47606.50
577.59	47547.98
577.75	47185.20
577.92	47316.27
578.08	47547.98
578.24	47812.46
578.40	47896.72
578.56	48112.05
578.72	47789.06
578.88	47751.61
579.04	47854.59
579.21	47421.59
579.37	47559.69
579.53	48186.95
579.69	47196.90
579.85	47442.66
580.01	47622.88
580.17	47119.66
580.33	47487.13
580.49	47540.96
580.65	47475.43
580.82	47814.80
580.98	47576.07
581.14	47381.80
581.30	47880.34
581.46	47480.11
581.62	47629.90
581.78	47262.44
581.94	47480.11
582.10	47508.19
582.26	47901.40
582.42	47672.03
582.58	47683.73
582.74	47873.32
582.90	48107.37
583.06	47498.83
583.22	47786.72
583.38	47817.14
583.54	48259.51
583.70	47924.81
583.86	47847.57
584.02	47576.07
584.18	47821.83
584.34	48046.52
584.50	48069.92
584.66	48119.07
584.82	47723.52
584.98	47758.63
585.14	47950.56
585.30	47915.45
585.46	47601.82
585.62	47374.78
585.78	48128.44
585.94	47290.52
586.10	47875.66
586.26	47349.04
586.42	47688.42
586.58	47992.68
586.74	47725.86
586.90	47445.00
587.06	47894.38
587.22	48243.12
587.38	47814.80
587.54	48025.45
587.70	48105.03
587.86	47786.72
588.02	47739.91
588.18	47688.42
588.34	47622.88
588.49	47838.21
588.65	47849.91
588.81	48172.91
588.97	47868.64
589.13	48051.20
589.29	48252.48
589.45	48016.09
589.61	48119.07
589.77	48065.24
589.93	48030.13
590.08	48460.79
