SpectraSuite Data File
++++++++++++++++++++++++++++++++++++
Date: Fri Oct 25 10:43:44 EDT 2013
User: price-jones
Dark Spectrum Present: No
Reference Spectrum Present: No
Number of Sampled Component Spectra: 1
Spectrometers: USB2+H05261
Integration Time (usec): 100000 (USB2+H05261)
Spectra Averaged: 1 (USB2+H05261)
Boxcar Smoothing: 0 (USB2+H05261)
Correct for Electrical Dark: No (USB2+H05261)
Strobe/Lamp Enabled: No (USB2+H05261)
Correct for Detector Non-linearity: No (USB2+H05261)
Correct for Stray Light: No (USB2+H05261)
Number of Pixels in Processed Spectrum: 2048
>>>>>Begin Processed Spectral Data<<<<<
365.73	107.66
365.92	107.66
366.12	107.66
366.32	86.60
366.52	0.00
366.72	7.02
366.91	9.36
367.11	23.41
367.31	4.68
367.51	25.75
367.70	35.11
367.90	21.06
368.10	63.19
368.30	2.34
368.49	2.34
368.69	135.75
368.89	44.47
369.09	46.81
369.28	21.06
369.48	70.22
369.68	58.51
369.87	53.83
370.07	72.56
370.27	135.75
370.47	220.01
370.66	383.85
370.86	435.34
371.06	425.98
371.25	468.11
371.45	451.72
371.65	454.06
371.84	454.06
372.04	496.19
372.24	521.94
372.44	521.94
372.63	505.56
372.83	500.87
373.03	425.98
373.22	500.87
373.42	449.38
373.62	587.47
373.81	552.37
374.01	559.39
374.21	617.90
374.40	533.64
374.60	582.79
374.79	568.75
374.99	538.32
375.19	531.30
375.38	615.56
375.58	550.03
375.78	617.90
375.97	547.69
376.17	660.03
376.37	620.24
376.56	638.97
376.76	610.88
376.95	564.07
377.15	610.88
377.35	655.35
377.54	650.67
377.74	638.97
377.93	669.39
378.13	669.39
378.33	662.37
378.52	643.65
378.72	657.69
378.91	683.44
379.11	573.43
379.31	660.03
379.50	535.98
379.70	685.78
379.89	737.27
380.09	664.71
380.28	744.29
380.48	683.44
380.68	674.07
380.87	641.31
381.07	730.25
381.26	732.59
381.46	697.48
381.65	697.48
381.85	770.04
382.04	629.60
382.24	709.18
382.43	718.54
382.63	669.39
382.83	727.91
383.02	807.48
383.22	741.95
383.41	685.78
383.61	669.39
383.80	716.20
384.00	732.59
384.19	718.54
384.39	826.21
384.58	737.27
384.78	767.70
384.97	842.59
385.17	697.48
385.36	777.06
385.56	866.00
385.75	774.72
385.95	821.53
386.14	798.12
386.34	826.21
386.53	882.38
386.72	786.42
386.92	858.98
387.11	891.74
387.31	866.00
387.50	877.70
387.70	849.61
387.89	887.06
388.09	863.66
388.28	880.04
388.48	889.40
388.67	908.13
388.86	891.74
389.06	891.74
389.25	964.30
389.45	961.96
389.64	1015.79
389.84	912.81
390.03	961.96
390.22	1039.20
390.42	922.17
390.61	926.85
390.81	973.66
391.00	971.32
391.19	1069.62
391.39	1029.84
391.58	985.37
391.78	1039.20
391.97	1043.88
392.16	1025.15
392.36	961.96
392.55	1006.43
392.75	929.19
392.94	910.47
393.13	999.41
393.33	983.02
393.52	1090.69
393.71	1025.15
393.91	1006.43
394.10	1128.14
394.29	1086.01
394.49	1179.63
394.68	1163.25
394.88	1181.97
395.07	1266.23
395.26	1188.99
395.46	1235.80
395.65	1116.44
395.84	1193.67
396.04	1268.57
396.23	1170.27
396.42	1121.12
396.62	1025.15
396.81	1118.78
397.00	1303.68
397.19	1315.38
397.39	1256.87
397.58	1357.51
397.77	1331.76
397.97	1343.47
398.16	1336.45
398.35	1451.13
398.55	1413.68
398.74	1359.85
398.93	1547.09
399.12	1320.06
399.32	1490.92
399.51	1448.79
399.70	1544.75
399.90	1568.16
400.09	1549.43
400.28	1668.80
400.47	1619.65
400.67	1600.93
400.86	1659.44
401.05	1654.76
401.24	1631.35
401.44	1607.95
401.63	1825.62
401.82	1675.82
402.01	1654.76
402.21	1724.97
402.40	1701.57
402.59	1619.65
402.78	1771.79
402.97	1853.70
403.17	1790.51
403.36	1813.92
403.55	1893.49
403.74	1856.04
403.93	1781.15
404.13	1839.66
404.32	1874.77
404.51	1893.49
404.70	1799.87
404.89	1806.89
405.09	1914.56
405.28	1877.11
405.47	1963.71
405.66	1989.46
405.85	1982.43
406.05	1942.64
406.24	1879.45
406.43	1996.48
406.62	2029.24
406.81	2059.67
407.00	2012.86
407.20	2057.33
407.39	2127.55
407.58	2125.21
407.77	2024.56
407.96	2232.87
408.15	2265.64
408.34	2193.08
408.54	2289.04
408.73	2298.41
408.92	2216.49
409.11	2282.02
409.30	2359.26
409.49	2256.28
409.68	2218.83
409.87	2267.98
410.07	2296.07
410.26	2368.62
410.45	2307.77
410.64	2359.26
410.83	2366.28
411.02	2553.52
411.21	2502.03
411.40	2495.01
411.59	2605.02
411.78	2553.52
411.98	2516.08
412.17	2523.10
412.36	2628.42
412.55	2733.75
412.74	2801.62
412.93	2602.68
413.12	2640.12
413.31	2820.35
413.50	2743.11
413.69	2813.32
413.88	2876.52
414.07	2827.37
414.26	2888.22
414.45	2958.44
414.64	2949.08
414.83	2958.44
415.02	3002.91
415.22	3023.97
415.41	3178.45
415.60	3005.25
415.79	3115.25
415.98	3255.69
416.17	3129.30
416.36	3197.17
416.55	3131.64
416.74	3267.39
416.93	3112.91
417.12	3258.03
417.31	3304.84
417.50	3323.56
417.69	3503.78
417.88	3300.16
418.07	3356.33
418.26	3379.73
418.45	3316.54
418.64	3452.29
418.83	3602.08
419.02	3613.79
419.21	3548.25
419.39	3496.76
419.58	3379.73
419.77	3524.85
419.96	3676.98
420.15	3726.13
420.34	3616.13
420.53	3524.85
420.72	3763.58
420.91	3808.05
421.10	3712.09
421.29	3847.84
421.48	3768.26
421.67	3861.88
421.86	3698.05
422.05	3674.64
422.24	3716.77
422.43	3730.81
422.61	3845.50
422.80	3871.25
422.99	3864.22
423.18	3908.69
423.37	3918.06
423.56	3936.78
423.75	3822.09
423.94	3871.25
424.13	3543.57
424.32	3772.94
424.50	3932.10
424.69	3882.95
424.88	3920.40
425.07	3885.29
425.26	3927.42
425.45	3878.27
425.64	3819.75
425.83	3866.56
426.01	4009.34
426.20	3997.64
426.39	4004.66
426.58	3770.60
426.77	3978.91
426.96	4044.45
427.15	3866.56
427.33	3983.59
427.52	3983.59
427.71	4138.07
427.90	3948.48
428.09	4037.42
428.28	4002.32
428.46	4039.76
428.65	4194.24
428.84	4245.73
429.03	4372.12
429.22	4077.21
429.40	3990.61
429.59	4077.21
429.78	3908.69
429.97	3850.18
430.16	3882.95
430.34	3920.40
430.53	4182.54
430.72	4177.86
430.91	4145.09
431.10	4383.82
431.28	4505.53
431.47	4624.90
431.66	4643.62
431.85	4507.87
432.03	4533.62
432.22	4617.88
432.41	4521.92
432.60	4664.69
432.79	4629.58
432.97	4805.12
433.16	4746.61
433.35	4685.75
433.54	4571.07
433.72	4622.56
433.91	4657.67
434.10	4648.30
434.28	4786.40
434.47	4870.65
434.66	4877.68
434.85	4971.30
435.03	4940.87
435.22	4765.33
435.41	5142.16
435.59	4868.31
435.78	4917.47
435.97	5074.28
436.16	5097.69
436.34	5006.41
436.53	5163.22
436.72	5121.09
436.90	5039.17
437.09	5088.32
437.28	4957.25
437.46	5097.69
437.65	5093.01
437.84	5114.07
438.02	5170.24
438.21	5064.92
438.40	4975.98
438.58	5317.70
438.77	5362.17
438.96	5378.55
439.14	5577.50
439.33	5413.66
439.52	5685.16
439.70	5526.00
439.89	5584.52
440.08	5568.13
440.26	5540.05
440.45	5556.43
440.63	5741.33
440.82	6017.52
441.01	5886.45
441.19	5942.62
441.38	6099.44
441.57	5865.38
441.75	5987.09
441.94	6099.44
442.12	6204.76
442.31	6347.53
442.50	6251.57
442.68	6167.31
442.87	6125.18
443.05	6111.14
443.24	6464.56
443.43	6326.47
443.61	6333.49
443.80	6384.98
443.98	6193.06
444.17	6169.65
444.35	6279.66
444.54	6441.15
444.73	6399.02
444.91	6455.20
445.10	6389.66
445.28	6366.26
445.47	6291.36
445.65	6326.47
445.84	6555.84
446.02	6455.20
446.21	6502.01
446.39	6340.51
446.58	6490.31
446.77	6473.92
446.95	6429.45
447.14	6487.96
447.32	6761.81
447.51	6530.09
447.69	6413.07
447.88	6551.16
448.06	6518.39
448.25	6621.38
448.43	6633.08
448.62	6806.28
448.80	6722.02
448.99	6661.16
449.17	6698.61
449.36	6663.51
449.54	6918.62
449.73	7173.74
449.91	7040.33
450.10	7059.06
450.28	7082.46
450.46	7115.23
450.65	7150.34
450.83	6949.05
451.02	7089.48
451.20	6937.35
451.39	7215.87
451.57	7126.93
451.76	7124.59
451.94	7061.40
452.13	7157.36
452.31	6972.46
452.49	7084.80
452.68	7126.93
452.86	7094.16
453.05	7166.72
453.23	7325.88
453.42	7440.56
453.60	7227.57
453.78	7307.15
453.97	7250.98
454.15	7166.72
454.34	7372.69
454.52	7435.88
454.70	7466.31
454.89	7332.90
455.07	7447.58
455.26	7468.65
455.44	7609.08
455.62	7506.10
455.81	7588.02
455.99	7679.30
456.17	7658.23
456.36	7723.77
456.54	7845.48
456.73	7894.63
456.91	8065.49
457.09	8032.72
457.28	8248.05
457.46	7908.67
457.64	7911.01
457.83	8079.53
458.01	7915.69
458.19	8095.91
458.38	8077.19
458.56	8250.39
458.74	8198.90
458.93	8133.36
459.11	8166.13
459.29	8177.83
459.48	8189.53
459.66	8327.63
459.84	8514.87
460.03	8271.45
460.21	8379.12
460.39	8667.00
460.57	8355.71
460.76	8372.10
460.94	8559.34
461.12	8475.08
461.31	8493.80
461.49	8531.25
461.67	8807.44
461.85	8720.84
462.04	8601.47
462.22	9275.54
462.40	8697.43
462.59	8561.68
462.77	8664.66
462.95	8910.42
463.13	8678.71
463.32	8772.33
463.50	8784.03
463.68	8879.99
463.86	8863.61
464.05	8915.10
464.23	9025.11
464.41	8769.99
464.59	8727.86
464.78	8966.59
464.96	8835.52
465.14	8922.12
465.32	9109.36
465.50	9296.61
465.69	9146.81
465.87	9057.87
466.05	9186.60
466.23	8945.53
466.41	9174.90
466.60	9331.72
466.78	9167.88
466.96	9116.39
467.14	9249.80
467.32	9055.53
467.51	9362.14
467.69	9025.11
467.87	9399.59
468.05	9582.15
468.23	9418.32
468.41	9259.16
468.60	9376.19
468.78	9584.49
468.96	9348.10
469.14	9675.77
469.32	9657.05
469.50	9259.16
469.69	9462.79
469.87	9533.00
470.05	9743.65
470.23	9619.60
470.41	9832.59
470.59	9823.23
470.77	9619.60
470.95	9863.02
471.14	9788.12
471.32	10022.17
471.50	10012.81
471.68	10204.74
471.86	10359.21
472.04	10207.08
472.22	10466.88
472.40	10155.58
472.58	10228.14
472.77	10434.11
472.95	10321.76
473.13	10541.77
473.31	10548.79
473.49	10363.89
473.67	10509.01
473.85	10705.61
474.03	10647.10
474.21	10923.28
474.39	11103.50
474.57	10986.47
474.75	11147.97
474.93	10956.05
475.12	11012.22
475.30	10960.73
475.48	11026.26
475.66	11290.74
475.84	11070.73
476.02	11248.61
476.20	11250.96
476.38	11332.87
476.56	11786.94
476.74	11763.53
476.92	11742.47
477.10	11758.85
477.28	12175.47
477.46	12046.74
477.64	12049.08
477.82	12189.51
478.00	12411.86
478.18	12496.12
478.36	12458.67
478.54	12503.14
478.72	12566.34
478.90	12826.14
479.08	12933.80
479.26	12908.05
479.44	13071.89
479.62	12980.61
479.80	13146.79
479.98	13191.26
480.16	13453.40
480.34	13500.21
480.52	13792.78
480.70	13687.45
480.88	13401.91
481.06	13570.43
481.24	13666.39
481.41	13989.38
481.59	14265.57
481.77	14139.18
481.95	14305.35
482.13	14295.99
482.31	14424.72
482.49	14396.64
482.67	14546.43
482.85	14956.02
483.03	15159.65
483.21	15073.05
483.39	15105.82
483.57	15197.10
483.74	15337.53
483.92	15124.54
484.10	15396.04
484.28	15555.20
484.46	15854.79
484.64	16231.62
484.82	15875.85
485.00	15978.84
485.18	16273.74
485.35	16266.72
485.53	16100.55
485.71	16112.25
485.89	16453.97
486.07	16226.93
486.25	16297.15
486.43	16636.53
486.61	16613.12
486.78	17324.65
486.96	17247.41
487.14	17579.76
487.32	17364.43
487.50	17734.24
487.68	17994.04
487.85	18237.45
488.03	18338.10
488.21	18492.57
488.39	18345.12
488.57	18279.58
488.75	18544.06
488.92	18848.33
489.10	18995.79
489.28	19204.10
489.46	19398.36
489.64	19580.92
489.81	19707.31
489.99	19747.10
490.17	19854.76
490.35	20194.14
490.53	19948.39
490.70	20140.31
490.88	20311.17
491.06	20332.23
491.24	20582.67
491.41	20376.70
491.59	20425.86
491.77	20498.41
491.95	20877.58
492.13	20933.75
492.30	21263.77
492.48	21371.43
492.66	21661.66
492.84	21294.19
493.01	22036.14
493.19	21823.16
493.37	22066.57
493.54	22104.02
493.72	21891.03
493.90	22207.00
494.08	22794.48
494.25	22904.48
494.43	23117.47
494.61	23372.59
494.79	23264.92
494.96	22927.89
495.14	23295.35
495.32	23555.15
495.49	23435.78
495.67	23300.03
495.85	23613.66
496.02	23955.38
496.20	24133.26
496.38	24034.96
496.55	24320.51
496.73	24500.73
496.91	24491.37
497.09	24676.27
497.26	24790.95
497.44	24809.68
497.62	24919.68
497.79	24971.18
497.97	24891.60
498.14	25015.65
498.32	25525.88
498.50	25186.50
498.67	25804.41
498.85	25685.04
499.03	26092.29
499.20	25916.75
499.38	25883.98
499.56	25710.78
499.73	26223.36
499.91	26263.15
500.08	26630.62
500.26	25933.14
500.44	26333.37
500.61	26478.48
500.79	26480.82
500.97	26480.82
501.14	26752.32
501.32	26794.45
501.49	26607.21
501.67	27002.76
501.84	26962.97
502.02	27335.12
502.20	27531.72
502.37	27683.86
502.55	27264.90
502.72	27615.98
502.90	27714.28
503.07	27611.30
503.25	28112.17
503.43	27470.87
503.60	27716.62
503.78	27962.38
503.95	28013.87
504.13	28224.52
504.30	28379.00
504.48	28446.87
504.65	28641.14
504.83	28650.50
505.01	29067.11
505.18	28247.93
505.36	29797.36
505.53	29092.86
505.71	29249.67
505.88	28975.83
506.06	28957.11
506.23	29443.94
506.41	29158.39
506.58	29797.36
506.76	29975.24
506.93	29647.57
507.11	30015.03
507.28	29392.45
507.46	29757.57
507.63	29668.63
507.81	29682.67
507.98	29816.08
508.16	29951.84
508.33	30195.25
508.50	30436.33
508.68	30473.78
508.85	30780.39
509.03	30728.89
509.20	30984.01
509.38	31115.08
509.55	31143.17
509.73	31236.79
509.90	31452.12
510.08	31035.50
510.25	31047.21
510.42	31239.13
510.60	31599.57
510.77	31232.11
510.95	31850.01
511.12	31314.03
511.30	31356.16
511.47	32456.21
511.64	32072.36
511.82	32128.53
511.99	31653.40
512.17	31747.03
512.34	31683.83
512.51	32311.10
512.69	32556.85
512.86	31964.70
513.04	32268.97
513.21	32205.77
513.38	32243.22
513.56	32388.33
513.73	32526.42
513.90	32723.03
514.08	32826.01
514.25	32879.85
514.43	32830.69
514.60	32856.44
514.77	33067.09
514.95	33170.07
515.12	33209.86
515.29	33022.62
515.47	33537.54
515.64	33902.66
515.81	33631.16
515.99	33469.66
516.16	33649.88
516.33	33322.21
516.51	33167.73
516.68	33057.73
516.85	33259.01
517.03	33163.05
517.20	33727.12
517.37	34101.61
517.54	34272.46
517.72	33900.32
517.89	33563.28
518.06	33647.54
518.24	34183.52
518.41	33497.75
518.58	33886.28
518.75	34071.18
518.93	34094.58
519.10	34352.04
519.27	34834.19
519.45	34604.82
519.62	35117.40
519.79	35285.92
519.96	34899.73
520.14	34916.11
520.31	34595.46
520.48	35178.25
520.65	35377.20
520.83	35309.32
521.00	35356.13
521.17	35688.49
521.34	36151.91
521.52	35765.73
521.69	35812.54
521.86	36325.11
522.03	36470.23
522.20	35967.01
522.38	36102.76
522.55	36018.50
522.72	36208.09
522.89	35660.40
523.07	36500.65
523.24	35917.86
523.41	36882.16
523.58	36561.51
523.75	37095.15
523.92	37174.73
524.10	36858.76
524.27	36905.57
524.44	37120.90
524.61	36980.46
524.78	36732.37
524.96	37170.05
525.13	37193.45
525.30	37350.27
525.47	37132.60
525.64	37006.21
525.81	37010.89
525.98	37132.60
526.16	37120.90
526.33	36811.95
526.50	37450.91
526.67	37034.30
526.84	36989.83
527.01	37200.47
527.18	37411.12
527.36	37631.13
527.53	37757.52
527.70	38223.29
527.87	38213.93
528.04	37900.29
528.21	37890.93
528.38	37743.48
528.55	38506.49
528.72	38103.92
528.89	38642.24
529.07	38410.53
529.24	38309.89
529.41	38188.18
529.58	38124.99
529.75	38735.87
529.92	38485.43
530.09	38567.35
530.26	38876.30
530.43	39124.40
530.60	38483.09
530.77	38941.83
530.94	38974.60
531.11	39100.99
531.28	39040.14
531.46	39215.68
531.63	39356.11
531.80	39105.67
531.97	39262.49
532.14	38761.61
532.31	38738.21
532.48	38693.74
532.65	39077.58
532.82	39246.10
532.99	39257.81
533.16	39583.14
533.33	39356.11
533.50	39550.37
533.67	39508.24
533.84	39473.13
534.01	39901.45
534.18	39744.64
534.35	40203.38
534.52	39976.35
534.69	39798.47
534.86	39950.60
535.03	40430.41
535.20	40437.44
535.37	40507.65
535.54	40582.55
535.71	40315.73
535.88	40521.69
536.05	40175.30
536.22	40493.61
536.38	40509.99
536.55	40608.29
536.72	40222.11
536.89	39974.01
537.06	40172.96
537.23	40355.52
537.40	40818.94
537.57	40973.42
537.74	40751.07
537.91	41177.04
538.08	40746.39
538.25	40533.40
538.42	40940.65
538.59	40926.61
538.75	40781.49
538.92	40919.59
539.09	41258.96
539.26	41153.64
539.43	41102.15
539.60	41071.72
539.77	40914.90
539.94	40964.06
540.11	40807.24
540.28	40842.35
540.44	41240.24
540.61	41177.04
540.78	41460.25
540.95	41235.56
541.12	41343.22
541.29	41350.24
541.46	41670.90
541.62	42249.01
541.79	41649.83
541.96	41001.50
542.13	41476.63
542.30	41366.63
542.47	41801.97
542.63	41649.83
542.80	41638.13
542.97	42349.65
543.14	42066.45
543.31	41991.55
543.48	42370.72
543.64	42618.81
543.81	42199.86
543.98	42543.92
544.15	42536.90
544.32	42520.51
544.48	42930.11
544.65	42522.85
544.82	42518.17
544.99	42382.42
545.16	42614.13
545.32	42497.11
545.49	43084.58
545.66	43086.92
545.83	42979.26
546.00	42859.89
546.16	42754.57
546.33	42682.01
546.50	42630.52
546.67	43042.45
546.83	42312.20
547.00	42988.62
547.17	42794.36
547.34	42590.73
547.50	43213.31
547.67	43051.81
547.84	43189.91
548.00	43210.97
548.17	43152.46
548.34	43166.50
548.51	43402.89
548.67	43562.05
548.84	43454.39
549.01	43271.82
549.18	43269.48
549.34	43620.56
549.51	43552.69
549.68	43693.12
549.84	43524.60
550.01	43620.56
550.18	43402.89
550.34	43615.88
550.51	43548.01
550.68	43255.44
550.84	43152.46
551.01	43702.48
551.18	43707.16
551.34	43540.99
551.51	43997.39
551.68	43929.51
551.84	43945.90
552.01	43871.00
552.18	44018.46
552.34	43351.40
552.51	43636.95
552.68	44060.58
552.84	43964.62
553.01	44863.39
553.18	44177.61
553.34	44257.19
553.51	44163.57
553.67	44341.45
553.84	44697.21
554.01	44748.70
554.17	44353.15
554.34	44509.97
554.51	44411.67
554.67	44594.23
554.84	44215.06
555.00	44397.62
555.17	44715.93
555.33	44315.70
555.50	44694.87
555.67	44184.63
555.83	44626.99
556.00	45031.91
556.16	44917.22
556.33	44374.22
556.50	44348.47
556.66	44718.28
556.83	44648.06
556.99	44451.45
557.16	44713.59
557.32	44495.92
557.49	44886.79
557.65	44179.95
557.82	44732.32
557.98	44729.98
558.15	44622.31
558.32	44994.46
558.48	44360.17
558.65	44507.63
558.81	44725.30
558.98	44732.32
559.14	44940.63
559.31	44748.70
559.47	44954.67
559.64	44959.35
559.80	45008.50
559.97	44701.89
560.13	44432.73
560.30	44758.06
560.46	44921.90
560.63	44891.48
560.79	45034.25
560.96	45282.34
561.12	45057.65
561.29	44825.94
561.45	45099.78
561.61	44849.35
561.78	44823.60
561.94	44629.34
562.11	44619.97
562.27	45081.06
562.44	45024.89
562.60	45724.71
562.77	45193.40
562.93	45195.74
563.10	45464.91
563.26	44786.15
563.42	45280.00
563.59	45055.31
563.75	45434.48
563.92	45984.51
564.08	45528.10
564.24	45469.59
564.41	45221.49
564.57	45450.86
564.74	45521.08
564.90	45399.37
565.07	45146.59
565.23	45275.32
565.39	45392.35
565.56	45422.78
565.72	45057.65
565.88	45570.23
566.05	45331.50
566.21	45418.10
566.38	45404.05
566.54	45574.91
566.70	45968.12
566.87	45633.42
567.03	45216.81
567.19	46106.21
567.36	45598.32
567.52	45322.13
567.68	45610.02
567.85	45490.65
568.01	45626.40
568.17	45570.23
568.34	45705.98
568.50	45684.92
568.66	45333.84
568.83	45420.44
568.99	45331.50
569.15	45315.11
569.32	45331.50
569.48	45422.78
569.64	45670.87
569.81	45546.82
569.97	45123.19
570.13	45647.47
570.30	45272.98
570.46	45380.65
570.62	45179.36
570.78	45041.27
570.95	45045.95
571.11	45301.07
571.27	45373.63
571.43	45642.79
571.60	45228.51
571.76	45263.62
571.92	45425.12
572.09	45787.90
572.25	45914.29
572.41	45530.44
572.57	46007.91
572.74	46153.02
572.90	45560.87
573.06	45940.04
573.22	45790.24
573.38	45830.03
573.55	45619.38
573.71	45996.21
573.87	46005.57
574.03	45757.47
574.20	45748.11
574.36	45748.11
574.52	45872.16
574.68	45411.07
574.84	45813.65
575.01	45666.19
575.17	45736.41
575.33	45296.39
575.49	45488.31
575.65	45729.39
575.82	45680.24
575.98	45336.18
576.14	45696.62
576.30	46080.47
576.46	45769.18
576.62	45757.47
576.79	45483.63
576.95	45291.71
577.11	45975.14
577.27	45600.66
577.43	45778.54
577.59	45476.61
577.75	45333.84
577.92	45191.06
578.08	45399.37
578.24	45570.23
578.40	45799.60
578.56	45670.87
578.72	45921.31
578.88	46340.27
579.04	46031.32
579.21	45642.79
579.37	45823.01
579.53	45619.38
579.69	45448.52
579.85	45640.45
580.01	45741.09
580.17	45673.21
580.33	45745.77
580.49	45455.54
580.65	45909.61
580.82	46031.32
580.98	45455.54
581.14	45734.07
581.30	46005.57
581.46	45834.71
581.62	45811.31
581.78	46080.47
581.94	46213.88
582.10	45879.18
582.26	46171.75
582.42	45890.88
582.58	45797.26
582.74	45434.48
582.90	45640.45
583.06	46574.32
583.22	45808.96
583.38	45963.44
583.54	46101.53
583.70	45832.37
583.86	45895.56
584.02	45542.14
584.18	46040.68
584.34	45684.92
584.50	45773.86
584.66	46199.83
584.82	45680.24
584.98	46195.15
585.14	46607.09
585.30	45677.90
585.46	45895.56
585.62	45450.86
585.78	45991.53
585.94	45595.98
586.10	46000.89
586.26	45542.14
586.42	46461.97
586.58	45867.48
586.74	45778.54
586.90	45713.00
587.06	45717.68
587.22	46033.66
587.38	45797.26
587.54	45790.24
587.70	45895.56
587.86	46085.15
588.02	45839.39
588.18	45766.84
588.34	45687.26
588.49	44973.39
588.65	45052.97
588.81	45193.40
588.97	45457.88
589.13	45415.76
589.29	45694.28
589.45	45811.31
589.61	45504.70
589.77	45724.71
589.93	45771.52
590.08	46302.82
