SpectraSuite Data File
++++++++++++++++++++++++++++++++++++
Date: Fri Oct 25 11:34:47 EDT 2013
User: price-jones
Dark Spectrum Present: No
Reference Spectrum Present: No
Number of Sampled Component Spectra: 1
Spectrometers: USB2+H05261
Integration Time (usec): 100000 (USB2+H05261)
Spectra Averaged: 1 (USB2+H05261)
Boxcar Smoothing: 0 (USB2+H05261)
Correct for Electrical Dark: No (USB2+H05261)
Strobe/Lamp Enabled: No (USB2+H05261)
Correct for Detector Non-linearity: No (USB2+H05261)
Correct for Stray Light: No (USB2+H05261)
Number of Pixels in Processed Spectrum: 2048
>>>>>Begin Processed Spectral Data<<<<<
365.73	278.52
365.92	278.52
366.12	278.52
366.32	170.86
366.52	147.45
366.72	224.69
366.91	194.26
367.11	184.90
367.31	147.45
367.51	175.54
367.70	187.24
367.90	201.29
368.10	170.86
368.30	210.65
368.49	128.73
368.69	273.84
368.89	133.41
369.09	194.26
369.28	299.59
369.48	201.29
369.68	215.33
369.87	231.71
370.07	170.86
370.27	346.40
370.47	348.74
370.66	463.43
370.86	510.24
371.06	510.24
371.25	592.16
371.45	538.32
371.65	589.82
371.84	489.17
372.04	566.41
372.24	566.41
372.44	531.30
372.63	589.82
372.83	624.92
373.03	526.62
373.22	505.56
373.42	613.22
373.62	594.50
373.81	568.75
374.01	676.41
374.21	702.16
374.40	624.92
374.60	620.24
374.79	620.24
374.99	594.50
375.19	592.16
375.38	636.63
375.58	723.23
375.78	723.23
375.97	704.50
376.17	585.13
376.37	690.46
376.56	669.39
376.76	704.50
376.95	596.84
377.15	674.07
377.35	706.84
377.54	711.52
377.74	690.46
377.93	739.61
378.13	711.52
378.33	606.20
378.52	718.54
378.72	692.80
378.91	660.03
379.11	655.35
379.31	732.59
379.50	702.16
379.70	601.52
379.89	751.31
380.09	763.01
380.28	767.70
380.48	674.07
380.68	741.95
380.87	669.39
381.07	732.59
381.26	741.95
381.46	702.16
381.65	748.97
381.85	748.97
382.04	718.54
382.24	730.25
382.43	767.70
382.63	781.74
382.83	784.08
383.02	709.18
383.22	760.67
383.41	760.67
383.61	793.44
383.80	793.44
384.00	837.91
384.19	795.78
384.39	840.25
384.58	812.17
384.78	809.83
384.97	793.44
385.17	746.63
385.36	891.74
385.56	772.38
385.75	863.66
385.95	720.88
386.14	805.14
386.34	779.40
386.53	784.08
386.72	866.00
386.92	830.89
387.11	849.61
387.31	922.17
387.50	791.10
387.70	805.14
387.89	938.55
388.09	861.32
388.28	898.77
388.48	833.23
388.67	905.79
388.86	875.36
389.06	936.21
389.25	880.04
389.45	828.55
389.64	823.87
389.84	889.40
390.03	961.96
390.22	910.47
390.42	943.24
390.61	933.87
390.81	915.15
391.00	959.62
391.19	1020.47
391.39	943.24
391.58	938.55
391.78	1025.15
391.97	1029.84
392.16	994.73
392.36	978.34
392.55	959.62
392.75	992.39
392.94	1048.56
393.13	994.73
393.33	964.30
393.52	1048.56
393.71	1111.75
393.91	1086.01
394.10	1050.90
394.29	1109.41
394.49	1083.67
394.68	1062.60
394.88	1123.46
395.07	1053.24
395.26	1146.86
395.46	1053.24
395.65	1144.52
395.84	1144.52
396.04	1109.41
396.23	1132.82
396.42	1034.52
396.62	1137.50
396.81	1214.74
397.00	1146.86
397.19	1128.14
397.39	1207.72
397.58	1184.31
397.77	1203.04
397.97	1186.65
398.16	1240.48
398.35	1191.33
398.55	1273.25
398.74	1242.82
398.93	1284.95
399.12	1289.64
399.32	1254.53
399.51	1329.42
399.70	1327.08
399.90	1172.61
400.09	1235.80
400.28	1378.58
400.47	1345.81
400.67	1296.66
400.86	1329.42
401.05	1294.32
401.24	1401.98
401.44	1406.66
401.63	1380.92
401.82	1359.85
402.01	1399.64
402.21	1362.19
402.40	1521.35
402.59	1406.66
402.78	1430.07
402.97	1390.28
403.17	1490.92
403.36	1439.43
403.55	1493.26
403.74	1547.09
403.93	1511.99
404.13	1568.16
404.32	1556.46
404.51	1547.09
404.70	1610.29
404.89	1507.30
405.09	1549.43
405.28	1643.06
405.47	1568.16
405.66	1619.65
405.85	1617.31
406.05	1708.59
406.24	1687.53
406.43	1570.50
406.62	1685.19
406.81	1736.68
407.00	1657.10
407.20	1621.99
407.39	1703.91
407.58	1736.68
407.77	1717.95
407.96	1685.19
408.15	1804.55
408.34	1832.64
408.54	1874.77
408.73	1830.30
408.92	1849.02
409.11	1849.02
409.30	1909.88
409.49	1893.49
409.68	1935.62
409.87	1933.28
410.07	1926.26
410.26	2036.27
410.45	2043.29
410.64	2052.65
410.83	2045.63
411.02	2038.61
411.21	2090.10
411.40	2099.46
411.59	2218.83
411.78	2062.01
411.98	2026.90
412.17	2197.76
412.36	2090.10
412.55	2197.76
412.74	2230.53
412.93	2162.66
413.12	2134.57
413.31	2307.77
413.50	2228.19
413.69	2438.84
413.88	2282.02
414.07	2251.60
414.26	2401.39
414.45	2450.54
414.64	2406.07
414.83	2424.80
415.02	2401.39
415.22	2562.89
415.41	2466.92
415.60	2558.21
415.79	2644.81
415.98	2583.95
416.17	2576.93
416.36	2628.42
416.55	2677.57
416.74	2670.55
416.93	2633.10
417.12	2684.59
417.31	2724.38
417.50	2637.78
417.69	2825.03
417.88	2780.56
418.07	2850.77
418.26	2808.64
418.45	2778.22
418.64	2867.16
418.83	2986.52
419.02	2888.22
419.21	2906.95
419.39	2939.71
419.58	2963.12
419.77	2932.69
419.96	2953.76
420.15	3026.31
420.34	3028.65
420.53	3030.99
420.72	3108.23
420.91	3117.59
421.10	3126.96
421.29	3169.09
421.48	3094.19
421.67	3157.38
421.86	3061.42
422.05	3208.87
422.24	3241.64
422.43	3148.02
422.61	3307.18
422.80	3136.32
422.99	3215.90
423.18	3265.05
423.37	3255.69
423.56	3136.32
423.75	3229.94
423.94	3110.57
424.13	2972.48
424.32	3084.83
424.50	3251.00
424.69	3424.20
424.88	3274.41
425.07	3255.69
425.26	3185.47
425.45	3239.30
425.64	3241.64
425.83	3213.56
426.01	3321.22
426.20	3258.03
426.39	3325.90
426.58	3375.05
426.77	3258.03
426.96	3309.52
427.15	3370.37
427.33	3400.80
427.52	3400.80
427.71	3400.80
427.90	3351.65
428.09	3475.70
428.28	3548.25
428.46	3538.89
428.65	3571.66
428.84	3674.64
429.03	3482.72
429.22	3456.97
429.40	3564.64
429.59	3574.00
429.78	3454.63
429.97	3529.53
430.16	3571.66
430.34	3688.68
430.53	3599.74
430.72	3611.45
430.91	3611.45
431.10	3597.40
431.28	3822.09
431.47	3770.60
431.66	3805.71
431.85	3810.39
432.03	3822.09
432.22	3908.69
432.41	3803.37
432.60	3822.09
432.79	3833.80
432.97	3810.39
433.16	4007.00
433.35	3915.72
433.54	3969.55
433.72	3943.80
433.91	4025.72
434.10	3999.98
434.28	4119.34
434.47	4109.98
434.66	4128.70
434.85	3985.93
435.03	4105.30
435.22	4212.96
435.41	4212.96
435.59	4142.75
435.78	4105.30
435.97	4023.38
436.16	4163.81
436.34	4117.00
436.53	4250.41
436.72	4404.89
436.90	4332.33
437.09	4184.88
437.28	4259.78
437.46	4234.03
437.65	4234.03
437.84	4416.59
438.02	4395.53
438.21	4470.42
438.40	4198.92
438.58	4493.83
438.77	4697.46
438.96	4451.70
439.14	4594.47
439.33	4606.17
439.52	4608.51
439.70	4603.83
439.89	4718.52
440.08	4882.36
440.26	4664.69
440.45	4800.44
440.63	4835.55
440.82	4784.06
441.01	4748.95
441.19	4880.02
441.38	5011.09
441.57	4994.70
441.75	4983.00
441.94	5146.84
442.12	5130.45
442.31	5027.47
442.50	5081.30
442.68	5165.56
442.87	5254.50
443.05	5172.58
443.24	5270.89
443.43	5247.48
443.61	5268.55
443.80	5476.85
443.98	5160.88
444.17	5142.16
444.35	5313.02
444.54	5542.39
444.73	5390.25
444.91	5362.17
445.10	5322.38
445.28	5472.17
445.47	5284.93
445.65	5416.00
445.84	5355.15
446.02	5434.72
446.21	5399.62
446.39	5338.76
446.58	5338.76
446.77	5385.57
446.95	5298.97
447.14	5287.27
447.32	5493.24
447.51	5570.48
447.69	5413.66
447.88	5385.57
448.06	5467.49
448.25	5666.44
448.43	5355.15
448.62	5591.54
448.80	5551.75
448.99	5441.75
449.17	5444.09
449.36	5441.75
449.54	5591.54
449.73	5856.02
449.91	5753.04
450.10	5680.48
450.28	5755.38
450.46	5827.93
450.65	5736.65
450.83	5783.46
451.02	5811.55
451.20	5738.99
451.39	5881.77
451.57	5933.26
451.76	5806.87
451.94	5991.77
452.13	5977.73
452.31	5710.91
452.49	5767.08
452.68	5977.73
452.86	5902.83
453.05	6071.35
453.23	6087.73
453.42	6111.14
453.60	5928.58
453.78	6022.20
453.97	6101.78
454.15	6127.52
454.34	6207.10
454.52	6157.95
454.70	6186.04
454.89	6237.53
455.07	6235.19
455.26	6108.80
455.44	6349.87
455.62	6218.80
455.81	6345.19
455.99	6466.90
456.17	6476.26
456.36	6340.51
456.54	6396.68
456.73	6689.25
456.91	6616.69
457.09	6616.69
457.28	6719.68
457.46	6684.57
457.64	6771.17
457.83	6600.31
458.01	6600.31
458.19	6904.58
458.38	6806.28
458.56	6853.09
458.74	6726.70
458.93	6801.60
459.11	6897.56
459.29	6752.45
459.48	6995.86
459.66	6822.66
459.84	7037.99
460.03	6876.49
460.21	6953.73
460.39	7084.80
460.57	6773.51
460.76	6916.28
460.94	6988.84
461.12	7290.77
461.31	7112.89
461.49	7145.66
461.67	7227.57
461.85	7389.07
462.04	7262.68
462.22	7351.62
462.40	7311.83
462.59	7323.54
462.77	7463.97
462.95	7410.14
463.13	7323.54
463.32	7412.48
463.50	7447.58
463.68	7522.48
463.86	7562.27
464.05	7283.75
464.23	7513.12
464.41	7545.89
464.59	7300.13
464.78	7520.14
464.96	7655.89
465.14	7431.20
465.32	7531.84
465.50	7632.49
465.69	8107.62
465.87	7550.57
466.05	7644.19
466.23	7665.25
466.41	7772.92
466.60	7955.48
466.78	7646.53
466.96	7735.47
467.14	7756.54
467.32	7803.35
467.51	7880.58
467.69	7573.97
467.87	7868.88
468.05	8011.65
468.23	7812.71
468.41	7918.03
468.60	7892.29
468.78	8018.68
468.96	7948.46
469.14	7988.25
469.32	8393.16
469.50	8091.23
469.69	8262.09
469.87	8285.50
470.05	8248.05
470.23	8297.20
470.41	8503.17
470.59	8493.80
470.77	8423.59
470.95	8348.69
471.14	8407.20
471.32	8449.33
471.50	8505.51
471.68	8636.58
471.86	8795.73
472.04	8748.92
472.22	8648.28
472.40	8587.43
472.58	8552.32
472.77	8727.86
472.95	8791.05
473.13	9221.71
473.31	8968.93
473.49	8833.18
473.67	8812.12
473.85	8765.31
474.03	9123.41
474.21	9125.75
474.39	9123.41
474.57	9130.43
474.75	9282.56
474.93	9467.47
475.12	9308.31
475.30	9390.23
475.48	9495.55
475.66	9329.38
475.84	9675.77
476.02	9717.90
476.20	9638.33
476.38	9816.21
476.56	10017.49
476.74	10127.50
476.92	9886.42
477.10	9846.63
477.28	10209.42
477.46	10122.82
477.64	10214.10
477.82	10352.19
478.00	10434.11
478.18	10459.85
478.36	10415.38
478.54	10768.80
478.72	10513.69
478.90	10675.18
479.08	11070.73
479.26	11112.86
479.44	11019.24
479.62	11169.04
479.80	11082.44
479.98	11171.38
480.16	11564.59
480.34	11419.47
480.52	11496.71
480.70	11625.44
480.88	11585.65
481.06	11676.93
481.24	11709.70
481.41	11903.96
481.59	12229.30
481.77	12042.06
481.95	12166.10
482.13	12203.55
482.31	12404.84
482.49	12510.16
482.67	12631.87
482.85	12791.03
483.03	12657.62
483.21	12891.67
483.39	13032.10
483.57	13067.21
483.74	12814.43
483.92	13214.66
484.10	13027.42
484.28	13760.01
484.46	13551.70
484.64	13689.79
484.82	13696.82
485.00	13923.85
485.18	14003.43
485.35	14232.80
485.53	14127.47
485.71	14436.42
485.89	14342.80
486.07	14508.98
486.25	14483.24
486.43	14806.23
486.61	14869.42
486.78	14874.10
486.96	14941.98
487.14	14984.11
487.32	15077.73
487.50	15178.37
487.68	15328.17
487.85	15506.05
488.03	15812.66
488.21	16042.03
488.39	16173.10
488.57	16107.57
488.75	16037.35
488.92	16280.77
489.10	16112.25
489.28	16496.10
489.46	17022.72
489.64	16503.12
489.81	17109.32
489.99	17165.49
490.17	17130.38
490.35	17584.44
490.53	17488.48
490.70	17561.04
490.88	17462.74
491.06	17909.78
491.24	17610.19
491.41	17844.24
491.59	18218.73
491.77	17972.97
491.95	17972.97
492.13	18366.18
492.30	18532.36
492.48	18408.31
492.66	18647.05
492.84	18698.54
493.01	18972.38
493.19	19049.62
493.37	19037.92
493.54	19246.23
493.72	19342.19
493.90	19260.27
494.08	19463.90
494.25	19569.22
494.43	19819.66
494.61	19704.97
494.79	20011.58
494.96	19927.32
495.14	20327.55
495.32	20432.88
495.49	20119.24
495.67	20519.48
495.85	20613.10
496.02	20858.85
496.20	20833.11
496.38	21158.44
496.55	21289.51
496.73	21455.69
496.91	21467.39
497.09	21699.11
497.26	21673.36
497.44	21523.57
497.62	21476.76
497.79	21685.06
497.97	22225.73
498.14	22010.40
498.32	22033.80
498.50	22405.95
498.67	22537.02
498.85	22312.33
499.03	22789.80
499.20	22733.62
499.38	23143.22
499.56	22909.16
499.73	22822.56
499.91	23164.28
500.08	23580.90
500.26	23103.43
500.44	23527.06
500.61	23578.56
500.79	23538.77
500.97	23482.59
501.14	23812.61
501.32	23843.04
501.49	23943.68
501.67	23611.32
501.84	24243.27
502.02	23950.70
502.20	24114.54
502.37	24397.74
502.55	24203.48
502.72	24350.93
502.90	24343.91
503.07	24442.21
503.25	24629.46
503.43	24414.13
503.60	24692.65
503.78	24891.60
503.95	24652.86
504.13	24776.91
504.30	25132.67
504.48	24999.26
504.65	25322.26
504.83	25310.55
505.01	25474.39
505.18	25495.46
505.36	25654.61
505.53	25633.55
505.71	25692.06
505.88	25851.22
506.06	25619.50
506.23	25912.07
506.41	25542.27
506.58	25979.95
506.76	26270.17
506.93	26511.25
507.11	26169.53
507.28	26125.06
507.46	26441.03
507.63	26724.24
507.81	26813.18
507.98	26218.68
508.16	26927.86
508.33	26618.91
508.50	26845.94
508.68	26857.65
508.85	27644.07
509.03	27260.22
509.20	27222.77
509.38	27555.13
509.55	27440.44
509.73	27763.43
509.90	27924.93
510.08	27737.69
510.25	27552.79
510.42	27917.91
510.60	27934.29
510.77	28030.26
510.95	27810.25
511.12	28058.34
511.30	28051.32
511.47	28252.61
511.64	28390.70
511.82	28713.69
511.99	28507.72
512.17	28657.52
512.34	28402.40
512.51	29123.29
512.69	29207.55
512.86	29226.27
513.04	29214.57
513.21	29034.35
513.38	29003.92
513.56	29500.11
513.73	29156.05
513.90	29191.16
514.08	29397.13
514.25	29411.17
514.43	29472.03
514.60	29898.00
514.77	29486.07
514.95	29621.82
515.12	30071.20
515.29	29645.23
515.47	30110.99
515.64	30075.88
515.81	29926.09
515.99	30230.36
516.16	30373.13
516.33	30359.09
516.51	30749.96
516.68	30293.55
516.85	30639.95
517.03	30600.16
517.20	31117.42
517.37	30778.04
517.54	30742.94
517.72	31061.25
517.89	30998.06
518.06	30941.88
518.24	30988.69
518.41	31061.25
518.58	30988.69
518.75	30841.24
518.93	31541.06
519.10	31159.55
519.27	31704.90
519.45	31477.86
519.62	31548.08
519.79	31861.71
519.96	31527.02
520.14	31821.92
520.31	31611.28
520.48	32144.92
520.65	31847.67
520.83	32081.72
521.00	32641.11
521.17	32177.68
521.34	32304.07
521.52	32414.08
521.69	32325.14
521.86	32378.97
522.03	32723.03
522.20	32762.82
522.38	33043.68
522.55	33062.41
522.72	33153.69
522.89	33200.50
523.07	33160.71
523.24	33095.18
523.41	33205.18
523.58	32980.49
523.75	33528.17
523.92	33053.05
524.10	33401.79
524.27	33633.50
524.44	33675.63
524.61	33890.96
524.78	33539.88
524.96	33598.39
525.13	33776.27
525.30	33928.41
525.47	34036.07
525.64	33956.49
525.81	34277.15
525.98	34485.45
526.16	33787.97
526.33	34232.68
526.50	34628.23
526.67	34267.78
526.84	34705.46
527.01	33579.67
527.18	34513.54
527.36	34562.69
527.53	34604.82
527.70	35498.91
527.87	35204.00
528.04	34541.63
528.21	34707.80
528.38	35023.78
528.55	35281.24
528.72	34817.81
528.89	34995.69
529.07	34974.63
529.24	34707.80
529.41	35040.16
529.58	35290.60
529.75	35344.43
529.92	35744.66
530.09	35126.76
530.26	35431.03
530.43	35901.48
530.60	35306.98
530.77	35351.45
530.94	35391.24
531.11	35622.95
531.28	35566.78
531.46	35711.89
531.63	35826.58
531.80	35522.31
531.97	35754.02
532.14	36051.27
532.31	35695.51
532.48	36240.86
532.65	36730.03
532.82	36161.28
532.99	36032.55
533.16	35995.10
533.33	36673.85
533.50	36500.65
533.67	36580.23
533.84	36488.95
534.01	36664.49
534.18	36610.66
534.35	36837.69
534.52	36657.47
534.69	36992.17
534.86	36762.79
535.03	36889.18
535.20	37235.58
535.37	37694.33
535.54	37340.91
535.71	37156.00
535.88	37090.47
536.05	36847.05
536.22	37574.96
536.38	37420.48
536.55	37287.07
536.72	36907.91
536.89	37434.53
537.06	37626.45
537.23	37633.47
537.40	37600.71
537.57	37748.16
537.74	37565.60
537.91	37446.23
538.08	38047.75
538.25	37542.19
538.42	37544.53
538.59	38000.94
538.75	37752.84
538.92	38040.73
539.09	38232.65
539.26	37900.29
539.43	37792.63
539.60	38436.28
539.77	38419.89
539.94	39030.77
540.11	38249.03
540.28	38078.18
540.44	38305.21
540.61	38485.43
540.78	38216.27
540.95	37942.42
541.12	38197.54
541.29	38588.41
541.46	38621.18
541.62	38700.76
541.79	38733.53
541.96	38543.94
542.13	37956.47
542.30	39105.67
542.47	39054.18
542.63	38700.76
542.80	39096.31
542.97	39489.52
543.14	39290.57
543.31	39496.54
543.48	39201.63
543.64	39892.09
543.81	39592.50
543.98	39344.41
544.15	39510.58
544.32	39559.73
544.48	39803.15
544.65	39662.72
544.82	39496.54
544.99	39292.91
545.16	39793.79
545.32	39817.19
545.49	40079.33
545.66	40203.38
545.83	40311.05
546.00	40091.04
546.16	40098.06
546.33	39978.69
546.50	40187.00
546.67	40018.48
546.83	39662.72
547.00	40285.30
547.17	39835.92
547.34	40474.88
547.50	40655.11
547.67	40233.81
547.84	40751.07
548.00	40495.95
548.17	40940.65
548.34	40374.24
548.51	40825.96
548.67	40928.95
548.84	40989.80
549.01	40751.07
549.18	40854.05
549.34	41336.20
549.51	40950.01
549.68	40924.27
549.84	40882.14
550.01	41230.88
550.18	40910.22
550.34	40844.69
550.51	41219.17
550.68	41120.87
550.84	40835.33
551.01	41209.81
551.18	40886.82
551.34	41165.34
551.51	41263.64
551.68	41235.56
551.84	41357.27
552.01	41235.56
552.18	41446.21
552.34	41397.06
552.51	41258.96
552.68	40985.12
552.84	41865.16
553.01	41596.00
553.18	41811.33
553.34	41565.57
553.51	41621.75
553.67	41544.51
553.84	41874.52
554.01	42026.66
554.17	42066.45
554.34	41876.86
554.51	41567.91
554.67	42380.08
554.84	42204.54
555.00	41902.61
555.17	41708.35
555.33	42209.22
555.50	41820.69
555.67	42211.56
555.83	42169.43
556.00	41886.23
556.16	42937.13
556.33	42351.99
556.50	42380.08
556.66	42738.18
556.83	42092.19
556.99	42361.36
557.16	42651.58
557.32	42265.39
557.49	42710.10
557.65	42539.24
557.82	42520.51
557.98	42670.31
558.15	42508.81
558.32	42799.04
558.48	42457.32
558.65	42960.53
558.81	42880.95
558.98	42904.36
559.14	42672.65
559.31	42464.34
559.47	42955.85
559.64	42883.30
559.80	42663.28
559.97	42857.55
560.13	42686.69
560.30	42810.74
560.46	43445.02
560.63	43297.57
560.79	43152.46
560.96	43433.32
561.12	43159.48
561.29	42653.92
561.45	43002.66
561.61	42983.94
561.78	43007.34
561.94	42953.51
562.11	43093.94
562.27	43365.45
562.44	43061.18
562.60	43419.28
562.77	43182.88
562.93	43091.60
563.10	43548.01
563.26	43384.17
563.42	43482.47
563.59	43304.59
563.75	43538.65
563.92	43393.53
564.08	43508.22
564.24	43686.10
564.41	43508.22
564.57	43466.09
564.74	43124.37
564.90	43391.19
565.07	43192.25
565.23	43426.30
565.39	43704.82
565.56	44112.08
565.72	42937.13
565.88	43180.54
566.05	43615.88
566.21	43140.75
566.38	43185.22
566.54	43672.06
566.70	44048.88
566.87	43608.86
567.03	43576.09
567.19	43894.41
567.36	43793.76
567.52	43688.44
567.68	44119.10
567.85	43971.64
568.01	43969.30
568.17	43576.09
568.34	43681.42
568.50	43887.39
568.66	43622.90
568.83	43597.16
568.99	44086.33
569.15	43835.89
569.32	43679.08
569.48	43770.36
569.64	44292.30
569.81	43810.15
569.97	44460.82
570.13	43882.70
570.30	43866.32
570.46	44039.52
570.62	44058.24
570.78	43983.35
570.95	43908.45
571.11	44168.25
571.27	43889.73
571.43	43901.43
571.60	44177.61
571.76	44294.64
571.92	43873.34
572.09	44119.10
572.25	44100.37
572.41	43863.98
572.57	44474.86
572.74	44957.01
572.90	43973.98
573.06	44507.63
573.22	44458.48
573.38	44603.59
573.55	44107.40
573.71	44638.70
573.87	44364.85
574.03	44325.07
574.20	44285.28
574.36	44032.50
574.52	45043.61
574.68	43957.60
574.84	44460.82
575.01	44493.58
575.17	44788.49
575.33	44498.26
575.49	44245.49
575.65	44172.93
575.82	44360.17
575.98	44282.94
576.14	44584.86
576.30	44687.85
576.46	44374.22
576.62	44252.51
576.79	44718.28
576.95	44147.18
577.11	44528.69
577.27	44051.22
577.43	44619.97
577.59	44355.49
577.75	43959.94
577.92	44062.93
578.08	44210.38
578.24	44332.09
578.40	44779.13
578.56	44568.48
578.72	44149.53
578.88	44619.97
579.04	44481.88
579.21	44292.30
579.37	44832.96
579.53	44589.55
579.69	44594.23
579.85	44308.68
580.01	44261.87
580.17	44275.91
580.33	44690.19
580.49	44704.23
580.65	44715.93
580.82	44589.55
580.98	43966.96
581.14	44201.02
581.30	44383.58
581.46	44706.57
581.62	44790.83
581.78	44154.21
581.94	44765.09
582.10	44233.78
582.26	45031.91
582.42	44715.93
582.58	44528.69
582.74	44608.27
582.90	44582.52
583.06	44872.75
583.22	44334.43
583.38	44893.82
583.54	44442.09
583.70	44437.41
583.86	44545.08
584.02	44722.96
584.18	45233.19
584.34	44949.99
584.50	44893.82
584.66	44954.67
584.82	45277.66
584.98	45008.50
585.14	44854.03
585.30	44507.63
585.46	44839.98
585.62	44886.79
585.78	44828.28
585.94	44774.45
586.10	44729.98
586.26	44758.06
586.42	44945.31
586.58	44744.02
586.74	44898.50
586.90	44488.90
587.06	44247.83
587.22	45111.49
587.38	44596.57
587.54	44931.26
587.70	44605.93
587.86	44645.72
588.02	44928.92
588.18	44648.06
588.34	45174.68
588.49	44954.67
588.65	44865.73
588.81	44603.59
588.97	45144.25
589.13	44603.59
589.29	44741.68
589.45	45099.78
589.61	44952.33
589.77	45048.29
589.93	45104.46
590.08	45380.65
590.24	45373.63
