SpectraSuite Data File
++++++++++++++++++++++++++++++++++++
Date: Fri Oct 25 11:33:25 EDT 2013
User: price-jones
Dark Spectrum Present: No
Reference Spectrum Present: No
Number of Sampled Component Spectra: 1
Spectrometers: USB2+H05261
Integration Time (usec): 100000 (USB2+H05261)
Spectra Averaged: 1 (USB2+H05261)
Boxcar Smoothing: 0 (USB2+H05261)
Correct for Electrical Dark: No (USB2+H05261)
Strobe/Lamp Enabled: No (USB2+H05261)
Correct for Detector Non-linearity: No (USB2+H05261)
Correct for Stray Light: No (USB2+H05261)
Number of Pixels in Processed Spectrum: 2048
>>>>>Begin Processed Spectral Data<<<<<
365.73	262.14
365.92	262.14
366.12	262.14
366.32	149.79
366.52	119.37
366.72	180.22
366.91	163.84
367.11	191.92
367.31	154.48
367.51	161.50
367.70	152.13
367.90	133.41
368.10	231.71
368.30	201.29
368.49	166.18
368.69	182.56
368.89	198.95
369.09	189.58
369.28	191.92
369.48	245.76
369.68	194.26
369.87	262.14
370.07	285.55
370.27	285.55
370.47	280.86
370.66	503.22
370.86	517.26
371.06	524.28
371.25	592.16
371.45	599.18
371.65	557.05
371.84	545.34
372.04	620.24
372.24	545.34
372.44	580.45
372.63	599.18
372.83	669.39
373.03	690.46
373.22	578.11
373.42	608.54
373.62	606.20
373.81	638.97
374.01	622.58
374.21	648.33
374.40	674.07
374.60	627.26
374.79	561.73
374.99	683.44
375.19	695.14
375.38	702.16
375.58	653.01
375.78	631.94
375.97	585.13
376.17	718.54
376.37	685.78
376.56	645.99
376.76	641.31
376.95	641.31
377.15	744.29
377.35	653.01
377.54	692.80
377.74	685.78
377.93	709.18
378.13	702.16
378.33	737.27
378.52	650.67
378.72	697.48
378.91	697.48
379.11	716.20
379.31	809.83
379.50	704.50
379.70	664.71
379.89	788.76
380.09	716.20
380.28	727.91
380.48	758.33
380.68	734.93
380.87	737.27
381.07	730.25
381.26	727.91
381.46	795.78
381.65	837.91
381.85	812.17
382.04	786.42
382.24	774.72
382.43	779.40
382.63	732.59
382.83	737.27
383.02	826.21
383.22	828.55
383.41	833.23
383.61	805.14
383.80	870.68
384.00	851.96
384.19	894.08
384.39	844.93
384.58	793.44
384.78	835.57
384.97	856.64
385.17	917.49
385.36	873.02
385.56	999.41
385.75	805.14
385.95	880.04
386.14	849.61
386.34	861.32
386.53	856.64
386.72	898.77
386.92	936.21
387.11	917.49
387.31	950.26
387.50	980.68
387.70	828.55
387.89	891.74
388.09	980.68
388.28	887.06
388.48	856.64
388.67	940.90
388.86	990.05
389.06	971.32
389.25	997.07
389.45	933.87
389.64	985.37
389.84	971.32
390.03	985.37
390.22	945.58
390.42	983.02
390.61	833.23
390.81	1018.13
391.00	987.71
391.19	1100.05
391.39	987.71
391.58	1008.77
391.78	978.34
391.97	1067.28
392.16	1025.15
392.36	1156.22
392.55	1060.26
392.75	1027.50
392.94	1104.73
393.13	1069.62
393.33	1060.26
393.52	1083.67
393.71	1114.10
393.91	1076.65
394.10	1142.18
394.29	1100.05
394.49	1078.99
394.68	1146.86
394.88	1135.16
395.07	1104.73
395.26	1174.95
395.46	1174.95
395.65	1181.97
395.84	1170.27
396.04	1170.27
396.23	1153.88
396.42	1198.35
396.62	1160.91
396.81	1200.69
397.00	1233.46
397.19	1160.91
397.39	1294.32
397.58	1371.55
397.77	1219.42
397.97	1299.00
398.16	1226.44
398.35	1313.04
398.55	1233.46
398.74	1317.72
398.93	1233.46
399.12	1364.53
399.32	1240.48
399.51	1289.64
399.70	1282.61
399.90	1350.49
400.09	1460.49
400.28	1343.47
400.47	1357.51
400.67	1526.03
400.86	1465.18
401.05	1406.66
401.24	1474.54
401.44	1352.83
401.63	1556.46
401.82	1479.22
402.01	1458.15
402.21	1490.92
402.40	1526.03
402.59	1394.96
402.78	1432.41
402.97	1437.09
403.17	1568.16
403.36	1432.41
403.55	1528.37
403.74	1544.75
403.93	1490.92
404.13	1586.88
404.32	1528.37
404.51	1685.19
404.70	1621.99
404.89	1610.29
405.09	1680.50
405.28	1664.12
405.47	1664.12
405.66	1755.40
405.85	1811.57
406.05	1650.08
406.24	1631.35
406.43	1715.61
406.62	1874.77
406.81	1959.03
407.00	1715.61
407.20	1739.02
407.39	1811.57
407.58	1940.30
407.77	1926.26
407.96	1916.90
408.15	1834.98
408.34	1907.54
408.54	2005.84
408.73	1926.26
408.92	2043.29
409.11	1959.03
409.30	2005.84
409.49	1930.94
409.68	1998.82
409.87	2005.84
410.07	2071.37
410.26	2139.25
410.45	2057.33
410.64	2141.59
410.83	2076.06
411.02	2106.48
411.21	2106.48
411.40	2148.61
411.59	2197.76
411.78	2148.61
411.98	2132.23
412.17	2293.72
412.36	2204.78
412.55	2279.68
412.74	2263.30
412.93	2373.30
413.12	2396.71
413.31	2502.03
413.50	2483.31
413.69	2457.56
413.88	2469.27
414.07	2370.96
414.26	2385.01
414.45	2607.36
414.64	2548.84
414.83	2623.74
415.02	2651.83
415.22	2579.27
415.41	2700.98
415.60	2607.36
415.79	2708.00
415.98	2775.88
416.17	2857.79
416.36	2672.89
416.55	2759.49
416.74	2937.37
416.93	2839.07
417.12	2850.77
417.31	2860.13
417.50	2974.82
417.69	3077.80
417.88	3061.42
418.07	2909.29
418.26	2853.11
418.45	3038.02
418.64	3178.45
418.83	3133.98
419.02	3023.97
419.21	3033.33
419.39	3047.38
419.58	3150.36
419.77	3040.36
419.96	3070.78
420.15	3300.16
420.34	3194.83
420.53	3309.52
420.72	3304.84
420.91	3213.56
421.10	3255.69
421.29	3124.62
421.48	3190.15
421.67	3286.11
421.86	3323.56
422.05	3300.16
422.24	3468.67
422.43	3372.71
422.61	3475.70
422.80	3447.61
422.99	3382.07
423.18	3309.52
423.37	3445.27
423.56	3337.60
423.75	3403.14
423.94	3361.01
424.13	3258.03
424.32	3368.03
424.50	3456.97
424.69	3543.57
424.88	3543.57
425.07	3398.46
425.26	3361.01
425.45	3410.16
425.64	3440.59
425.83	3442.93
426.01	3499.10
426.20	3585.70
426.39	3522.51
426.58	3358.67
426.77	3534.21
426.96	3602.08
427.15	3585.70
427.33	3653.58
427.52	3592.72
427.71	3576.34
427.90	3679.32
428.09	3655.92
428.28	3667.62
428.46	3775.28
428.65	3606.77
428.84	3875.93
429.03	3887.63
429.22	3639.53
429.40	3747.20
429.59	3861.88
429.78	3653.58
429.97	3641.87
430.16	3801.03
430.34	4107.64
430.53	3932.10
430.72	4004.66
430.91	3770.60
431.10	3833.80
431.28	3953.16
431.47	4131.05
431.66	4032.74
431.85	4023.38
432.03	4079.55
432.22	4067.85
432.41	4124.02
432.60	4086.58
432.79	4065.51
432.97	4119.34
433.16	4107.64
433.35	4152.11
433.54	4219.99
433.72	4238.71
433.91	4262.12
434.10	4278.50
434.28	4227.01
434.47	4266.80
434.66	4313.61
434.85	4229.35
435.03	4269.14
435.22	4346.37
435.41	4346.37
435.59	4440.00
435.78	4416.59
435.97	4475.10
436.16	4395.53
436.34	4521.92
436.53	4587.45
436.72	4779.37
436.90	4381.48
437.09	4535.96
437.28	4521.92
437.46	4526.60
437.65	4603.83
437.84	4608.51
438.02	4798.10
438.21	4793.42
438.40	4603.83
438.58	4777.03
438.77	4706.82
438.96	4844.91
439.14	4779.37
439.33	5006.41
439.52	4973.64
439.70	4943.21
439.89	5032.15
440.08	4985.34
440.26	5097.69
440.45	4978.32
440.63	4990.02
440.82	5249.82
441.01	5050.88
441.19	5282.59
441.38	5226.42
441.57	5217.05
441.75	5446.43
441.94	5373.87
442.12	5385.57
442.31	5514.30
442.50	5465.15
442.68	5357.49
442.87	5444.09
443.05	5652.39
443.24	5736.65
443.43	5661.76
443.61	5577.50
443.80	5797.51
443.98	5453.45
444.17	5167.90
444.35	5518.98
444.54	5724.95
444.73	5706.23
444.91	5689.84
445.10	5713.25
445.28	5652.39
445.47	5490.90
445.65	5706.23
445.84	5724.95
446.02	5820.91
446.21	5640.69
446.39	5806.87
446.58	5853.68
446.77	5865.38
446.95	5542.39
447.14	5678.14
447.32	5888.79
447.51	5823.25
447.69	5694.52
447.88	5769.42
448.06	5839.64
448.25	5928.58
448.43	5806.87
448.62	5893.47
448.80	5671.12
448.99	6069.01
449.17	5961.34
449.36	5954.32
449.54	6031.56
449.73	5996.45
449.91	6136.88
450.10	6087.73
450.28	6127.52
450.46	6293.70
450.65	6174.33
450.83	6277.32
451.02	6422.43
451.20	6335.83
451.39	6263.27
451.57	6328.81
451.76	6176.67
451.94	6104.12
452.13	6384.98
452.31	6307.74
452.49	6403.71
452.68	6333.49
452.86	6258.59
453.05	6382.64
453.23	6499.67
453.42	6324.13
453.60	6345.19
453.78	6438.81
453.97	6480.94
454.15	6415.41
454.34	6340.51
454.52	6527.75
454.70	6661.16
454.89	6736.06
455.07	6722.02
455.26	6747.76
455.44	6555.84
455.62	6665.85
455.81	6715.00
455.99	6747.76
456.17	6766.49
456.36	6782.87
456.54	6942.03
456.73	7101.19
456.91	7052.03
457.09	7269.70
457.28	7309.49
457.46	7037.99
457.64	7164.38
457.83	7143.32
458.01	7005.22
458.19	7356.30
458.38	7192.47
458.56	7363.33
458.74	7215.87
458.93	7330.56
459.11	7417.16
459.29	7211.19
459.48	7229.91
459.66	7300.13
459.84	7382.05
460.03	7438.22
460.21	7552.91
460.39	7552.91
460.57	7524.82
460.76	7534.18
460.94	7421.84
461.12	7688.66
461.31	7536.52
461.49	7379.71
461.67	7581.00
461.85	7929.74
462.04	7693.34
462.22	8142.72
462.40	7845.48
462.59	7681.64
462.77	7550.57
462.95	8072.51
463.13	7782.28
463.32	7850.16
463.50	7969.52
463.68	7988.25
463.86	8032.72
464.05	7768.24
464.23	7768.24
464.41	8126.34
464.59	7969.52
464.78	8273.79
464.96	8276.13
465.14	8016.33
465.32	8163.79
465.50	8245.71
465.69	8067.83
465.87	8215.28
466.05	8184.85
466.23	8056.12
466.41	8205.92
466.60	8671.68
466.78	8196.56
466.96	7990.59
467.14	8451.67
467.32	8315.92
467.51	8449.33
467.69	8355.71
467.87	8177.83
468.05	8409.54
468.23	8435.29
468.41	8180.17
468.60	8444.65
468.78	8634.24
468.96	8521.89
469.14	8641.26
469.32	8781.69
469.50	8622.53
469.69	8720.84
469.87	8798.07
470.05	8711.47
470.23	8758.28
470.41	8858.93
470.59	8903.40
470.77	8772.33
470.95	8835.52
471.14	9125.75
471.32	8990.00
471.50	9221.71
471.68	9132.77
471.86	9240.44
472.04	9233.41
472.22	9441.72
472.40	9121.07
472.58	9401.93
472.77	9294.27
472.95	9341.08
473.13	10045.58
473.31	9547.05
473.49	9486.19
473.67	9589.17
473.85	9568.11
474.03	9673.43
474.21	9652.37
474.39	10045.58
474.57	9902.81
474.75	9930.89
474.93	9846.63
475.12	9827.91
475.30	10057.28
475.48	9963.66
475.66	10146.22
475.84	10281.97
476.02	10305.38
476.20	10160.27
476.38	10422.41
476.56	10747.74
476.74	10693.91
476.92	10932.64
477.10	10464.54
477.28	10597.95
477.46	10738.38
477.64	10771.15
477.82	10890.51
478.00	11330.53
478.18	11403.09
478.36	11105.84
478.54	11480.33
478.72	11426.50
478.90	11782.26
479.08	11695.66
479.26	11915.67
479.44	11681.61
479.62	11864.18
479.80	11786.94
479.98	12056.10
480.16	12535.91
480.34	12009.29
480.52	12531.23
480.70	12425.90
480.88	12355.69
481.06	12212.92
481.24	12533.57
481.41	12697.41
481.59	12718.47
481.77	12968.91
481.95	13006.36
482.13	12837.84
482.31	13273.18
482.49	13504.89
482.67	13254.45
482.85	13521.27
483.03	13490.85
483.21	13579.79
483.39	13928.53
483.57	13933.21
483.74	14209.39
483.92	14244.50
484.10	13720.22
484.28	14398.98
484.46	14511.32
484.64	14782.82
484.82	14478.55
485.00	14806.23
485.18	15019.22
485.35	15059.01
485.53	15133.90
485.71	15257.95
485.89	15477.96
486.07	15494.35
486.25	15433.49
486.43	15459.24
486.61	15831.38
486.78	16023.31
486.96	16208.21
487.14	16140.33
487.32	16229.27
487.50	16240.98
487.68	16779.30
487.85	16688.02
488.03	16676.32
488.21	17240.39
488.39	17050.80
488.57	17483.80
488.75	17214.64
488.92	17369.12
489.10	17586.79
489.28	17518.91
489.46	17963.61
489.64	17916.80
489.81	18338.10
489.99	18354.48
490.17	18394.27
490.35	18647.05
490.53	18602.58
490.70	18838.97
490.88	18691.52
491.06	19157.28
491.24	19204.10
491.41	19056.64
491.59	19548.15
491.77	19433.47
491.95	19604.33
492.13	19557.52
492.30	19941.36
492.48	19768.16
492.66	19847.74
492.84	20278.40
493.01	20545.22
493.19	20084.14
493.37	20486.71
493.54	20334.57
493.72	20697.36
493.90	20793.32
494.08	20973.54
494.25	21371.43
494.43	21013.33
494.61	21090.57
494.79	21401.86
494.96	21376.11
495.14	21427.60
495.32	21689.74
495.49	21848.90
495.67	22001.04
495.85	22167.21
496.02	22443.40
496.20	22661.07
496.38	22735.96
496.55	22312.33
496.73	23152.58
496.91	22841.29
497.09	22740.64
497.26	22955.97
497.44	23278.97
497.62	23220.45
497.79	23730.69
497.97	23559.83
498.14	23704.95
498.32	23653.45
498.50	23674.52
498.67	24049.00
498.85	23931.98
499.03	24261.99
499.20	24379.02
499.38	24151.99
499.56	24603.71
499.73	24842.45
499.91	24472.64
500.08	25109.27
500.26	24704.35
500.44	25202.89
500.61	24964.15
500.79	25067.14
500.97	25151.40
501.14	25610.14
501.32	25472.05
501.49	25598.44
501.67	25631.21
501.84	25848.88
502.02	25558.65
502.20	25689.72
502.37	25631.21
502.55	25706.10
502.72	26134.42
502.90	26012.71
503.07	26277.19
503.25	26410.60
503.43	26089.95
503.60	26600.19
503.78	26600.19
503.95	26890.41
504.13	26848.29
504.30	26675.09
504.48	26717.22
504.65	26822.54
504.83	27103.40
505.01	27365.54
505.18	27384.27
505.36	27576.19
505.53	27543.42
505.71	27274.26
505.88	27594.92
506.06	27463.85
506.23	27864.08
506.41	28034.94
506.58	27695.56
506.76	27992.81
506.93	28542.83
507.11	28273.67
507.28	28418.78
507.46	28631.77
507.63	28336.87
507.81	28264.31
507.98	28339.21
508.16	28636.45
508.33	28596.67
508.50	28767.52
508.68	29193.50
508.85	29385.43
509.03	29383.09
509.20	28999.24
509.38	29174.78
509.55	29331.59
509.73	29666.29
509.90	29315.21
510.08	29806.72
510.25	29792.68
510.42	29701.40
510.60	30019.71
510.77	30291.21
510.95	30448.03
511.12	30146.10
511.30	30096.95
511.47	30513.56
511.64	30686.76
511.82	30852.94
511.99	30632.93
512.17	30689.10
512.34	30597.82
512.51	30899.75
512.69	30892.73
512.86	30843.58
513.04	30845.92
513.21	31054.23
513.38	31351.48
513.56	31639.36
513.73	31220.41
513.90	31211.04
514.08	31779.79
514.25	31573.83
514.43	31702.56
514.60	31880.44
514.77	31559.78
514.95	32339.18
515.12	32039.59
515.29	31995.12
515.47	32343.86
515.64	32278.33
515.81	32259.60
515.99	32444.51
516.16	32739.41
516.33	32650.47
516.51	32680.90
516.68	32577.92
516.85	33083.47
517.03	32708.99
517.20	33235.61
517.37	32734.73
517.54	33020.28
517.72	32816.65
517.89	33209.86
518.06	33198.16
518.24	33621.80
518.41	33443.91
518.58	33736.48
518.75	33090.49
518.93	33909.68
519.10	33694.35
519.27	33692.01
519.45	34249.06
519.62	33935.43
519.79	34169.48
519.96	34188.21
520.14	34174.16
520.31	34033.73
520.48	34298.21
520.65	34316.93
520.83	34885.68
521.00	34710.14
521.17	34497.16
521.34	34717.17
521.52	34850.58
521.69	34611.84
521.86	34670.36
522.03	35543.38
522.20	34962.92
522.38	35459.12
522.55	35196.98
522.72	35157.19
522.89	35833.60
523.07	35597.21
523.24	35363.15
523.41	35615.93
523.58	35695.51
523.75	35693.17
523.92	35819.56
524.10	35456.78
524.27	35831.26
524.44	35976.37
524.61	36318.09
524.78	36348.52
524.96	36247.88
525.13	36273.62
525.30	36404.69
525.47	36332.14
525.64	36442.14
525.81	36570.87
525.98	36264.26
526.16	36685.56
526.33	36624.70
526.50	36982.80
526.67	36308.73
526.84	36725.35
527.01	36884.50
527.18	36776.84
527.36	36865.78
527.53	36980.46
527.70	37467.30
527.87	37493.04
528.04	36865.78
528.21	37661.56
528.38	37713.05
528.55	37486.02
528.72	37092.81
528.89	37495.38
529.07	37703.69
529.24	37177.07
529.41	38080.52
529.58	38426.92
529.75	37413.46
529.92	38026.68
530.09	37865.19
530.26	37890.93
530.43	37933.06
530.60	37897.95
530.77	37731.78
530.94	38022.00
531.11	38038.39
531.28	38286.48
531.46	38335.63
531.63	38635.22
531.80	38195.20
531.97	38663.31
532.14	38618.84
532.31	38354.36
532.48	38611.82
532.65	39269.51
532.82	38639.90
532.99	38969.92
533.16	38707.78
533.33	39110.35
533.50	39047.16
533.67	39000.35
533.84	39058.86
534.01	39152.48
534.18	39047.16
534.35	39435.69
534.52	39248.44
534.69	39672.08
534.86	39702.51
535.03	39653.36
535.20	39590.16
535.37	39583.14
535.54	39852.30
535.71	39978.69
535.88	40268.92
536.05	39955.29
536.22	40165.93
536.38	39763.36
536.55	39323.34
536.72	40060.61
536.89	39943.58
537.06	40304.02
537.23	40594.25
537.40	40051.25
537.57	39929.54
537.74	40275.94
537.91	40304.02
538.08	40472.54
538.25	40608.29
538.42	40870.43
538.59	40385.94
538.75	40243.17
538.92	40545.10
539.09	41055.34
539.26	40828.30
539.43	41010.87
539.60	40605.95
539.77	40900.86
539.94	40816.60
540.11	40465.52
540.28	41111.51
540.44	40573.19
540.61	41221.52
540.78	40788.52
540.95	41099.81
541.12	41205.13
541.29	40987.46
541.46	41598.34
541.62	41591.32
541.79	41588.98
541.96	40790.86
542.13	41441.53
542.30	41703.67
542.47	41621.75
542.63	41830.05
542.80	42190.50
542.97	42309.86
543.14	42204.54
543.31	42141.35
543.48	42012.62
543.64	42745.20
543.81	42497.11
543.98	42197.52
544.15	42508.81
544.32	42600.09
544.48	42918.40
544.65	42677.33
544.82	42925.42
544.99	42476.04
545.16	42543.92
545.32	42660.94
545.49	42625.84
545.66	42930.11
545.83	42906.70
546.00	43049.47
546.16	42827.12
546.33	42712.44
546.50	42660.94
546.67	43047.13
546.83	42719.46
547.00	42707.76
547.17	42583.71
547.34	42784.99
547.50	43157.14
547.67	43491.83
547.84	43402.89
548.00	43548.01
548.17	43480.13
548.34	43526.94
548.51	43393.53
548.67	43405.23
548.84	43318.64
549.01	43636.95
549.18	43683.76
549.34	43744.61
549.51	43662.69
549.68	43793.76
549.84	44051.22
550.01	43627.59
550.18	43592.48
550.34	43531.62
550.51	43833.55
550.68	44140.16
550.84	43819.51
551.01	44102.71
551.18	44030.16
551.34	43700.14
551.51	44172.93
551.68	43768.02
551.84	44027.82
552.01	43798.44
552.18	44168.25
552.34	43959.94
552.51	44598.91
552.68	44058.24
552.84	44463.16
553.01	44847.00
553.18	44404.64
553.34	44879.77
553.51	44481.88
553.67	44542.74
553.84	44697.21
554.01	44643.38
554.17	44734.66
554.34	45130.21
554.51	44594.23
554.67	44458.48
554.84	45059.99
555.00	44671.46
555.17	45008.50
555.33	45415.76
555.50	44797.85
555.67	44905.52
555.83	44992.12
556.00	44966.37
556.16	45759.81
556.33	45120.85
556.50	45113.83
556.66	45123.19
556.83	44975.73
556.99	45418.10
557.16	45518.74
557.32	45514.06
557.49	45567.89
557.65	45441.50
557.82	45294.05
557.98	45462.57
558.15	45284.68
558.32	45177.02
558.48	45059.99
558.65	45902.59
558.81	45516.40
558.98	45230.85
559.14	45469.59
559.31	45502.35
559.47	45485.97
559.64	46045.36
559.80	45785.56
559.97	45741.09
560.13	45708.32
560.30	45469.59
560.46	46033.66
560.63	45628.74
560.79	45808.96
560.96	46319.20
561.12	46263.03
561.29	46068.76
561.45	46218.56
561.61	45972.80
561.78	45963.44
561.94	45808.96
562.11	46122.60
562.27	45921.31
562.44	45954.08
562.60	46071.10
562.77	45841.73
562.93	46244.30
563.10	46408.14
563.26	46092.17
563.42	46443.25
563.59	46160.05
563.75	46321.54
563.92	46300.48
564.08	46120.26
564.24	46527.51
564.41	46258.35
564.57	46080.47
564.74	46314.52
564.90	46277.07
565.07	46391.76
565.23	46000.89
565.39	46618.79
565.56	46529.85
565.72	46333.24
565.88	46717.09
566.05	46710.07
566.21	46639.86
566.38	46487.72
566.54	46323.88
566.70	46735.82
566.87	46586.02
567.03	46480.70
567.19	46831.78
567.36	46408.14
567.52	46490.06
567.68	46951.15
567.85	46897.31
568.01	47002.64
568.17	46632.83
568.34	46450.27
568.50	46988.60
568.66	46403.46
568.83	46576.66
568.99	46852.84
569.15	46618.79
569.32	46691.35
569.48	47058.81
569.64	47276.48
569.81	47164.14
569.97	46836.46
570.13	47030.72
570.30	46562.62
570.46	46876.25
570.62	46677.30
570.78	46871.57
570.95	46934.76
571.11	47054.13
571.27	46836.46
571.43	46951.15
571.60	47051.79
571.76	46637.51
571.92	47107.96
572.09	47147.75
572.25	47037.75
572.41	47105.62
572.57	47419.25
572.74	47543.30
572.90	47089.24
573.06	47189.88
573.22	47318.61
573.38	47246.05
573.55	47510.53
573.71	47374.78
573.87	47119.66
574.03	47400.53
574.20	47285.84
574.36	46937.10
574.52	46684.33
574.68	47278.82
574.84	47346.70
575.01	47227.33
575.17	47288.18
575.33	47239.03
575.49	47182.86
575.65	47318.61
575.82	47440.32
575.98	47590.11
576.14	47391.17
576.30	47990.34
576.46	47583.09
576.62	47274.14
576.79	47103.28
576.95	47096.26
577.11	47217.97
577.27	47491.81
577.43	47578.41
577.59	47405.21
577.75	47524.58
577.92	47157.11
578.08	47423.93
578.24	47131.37
578.40	47435.64
578.56	47470.75
578.72	47648.63
578.88	47709.48
579.04	47529.26
579.21	47489.47
579.37	47402.87
579.53	47870.98
579.69	47402.87
579.85	47505.85
580.01	46986.25
580.17	47622.88
580.33	47538.62
580.49	47562.03
580.65	47435.64
580.82	47260.10
580.98	47463.72
581.14	47037.75
581.30	47559.69
581.46	47220.31
581.62	46897.31
581.78	47590.11
581.94	47487.13
582.10	47292.86
582.26	47604.16
582.42	47798.42
582.58	47428.62
582.74	47672.03
582.90	47313.93
583.06	47791.40
583.22	47290.52
583.38	47606.50
583.54	47533.94
583.70	47597.13
583.86	47878.00
584.02	48023.11
584.18	47899.06
584.34	48020.77
584.50	47931.83
584.66	47632.24
584.82	48034.81
584.98	47466.06
585.14	47608.84
585.30	47763.31
585.46	47742.25
585.62	47662.67
585.78	47882.68
585.94	47295.21
586.10	47325.63
586.26	47672.03
586.42	47765.65
586.58	47831.19
586.74	47447.34
586.90	47604.16
587.06	47842.89
587.22	47611.18
587.38	47655.65
587.54	47559.69
587.70	48383.55
587.86	47899.06
588.02	47320.95
588.18	48032.47
588.34	47604.16
588.49	47632.24
588.65	47650.97
588.81	48083.97
588.97	48432.71
589.13	47627.56
589.29	47681.39
589.45	48254.82
589.61	47683.73
589.77	47772.67
589.93	47976.30
