SpectraSuite Data File
++++++++++++++++++++++++++++++++++++
Date: Fri Oct 25 10:43:30 EDT 2013
User: price-jones
Dark Spectrum Present: No
Reference Spectrum Present: No
Number of Sampled Component Spectra: 1
Spectrometers: USB2+H05261
Integration Time (usec): 100000 (USB2+H05261)
Spectra Averaged: 1 (USB2+H05261)
Boxcar Smoothing: 0 (USB2+H05261)
Correct for Electrical Dark: No (USB2+H05261)
Strobe/Lamp Enabled: No (USB2+H05261)
Correct for Detector Non-linearity: No (USB2+H05261)
Correct for Stray Light: No (USB2+H05261)
Number of Pixels in Processed Spectrum: 2048
>>>>>Begin Processed Spectral Data<<<<<
365.73	46.81
365.92	46.81
366.12	46.81
366.32	0.00
366.52	58.51
366.72	32.77
366.91	0.00
367.11	2.34
367.31	42.13
367.51	53.83
367.70	7.02
367.90	4.68
368.10	18.72
368.30	0.00
368.49	25.75
368.69	25.75
368.89	93.62
369.09	67.88
369.28	44.47
369.48	70.22
369.68	58.51
369.87	119.37
370.07	58.51
370.27	124.05
370.47	182.56
370.66	344.06
370.86	409.59
371.06	388.53
371.25	468.11
371.45	421.30
371.65	449.38
371.84	470.45
372.04	444.70
372.24	498.53
372.44	573.43
372.63	477.47
372.83	543.00
373.03	550.03
373.22	514.92
373.42	470.45
373.62	498.53
373.81	559.39
374.01	613.22
374.21	582.79
374.40	531.30
374.60	535.98
374.79	648.33
374.99	566.41
375.19	601.52
375.38	631.94
375.58	550.03
375.78	571.09
375.97	627.26
376.17	716.20
376.37	615.56
376.56	528.96
376.76	620.24
376.95	589.82
377.15	571.09
377.35	688.12
377.54	594.50
377.74	713.86
377.93	678.76
378.13	697.48
378.33	634.29
378.52	624.92
378.72	667.05
378.91	657.69
379.11	641.31
379.31	624.92
379.50	678.76
379.70	706.84
379.89	706.84
380.09	688.12
380.28	641.31
380.48	615.56
380.68	596.84
380.87	699.82
381.07	765.36
381.26	763.01
381.46	674.07
381.65	645.99
381.85	716.20
382.04	711.52
382.24	758.33
382.43	688.12
382.63	711.52
382.83	676.41
383.02	713.86
383.22	751.31
383.41	730.25
383.61	732.59
383.80	798.12
384.00	763.01
384.19	814.51
384.39	763.01
384.58	751.31
384.78	723.23
384.97	816.85
385.17	748.97
385.36	706.84
385.56	819.19
385.75	823.87
385.95	807.48
386.14	891.74
386.34	924.51
386.53	875.36
386.72	781.74
386.92	816.85
387.11	763.01
387.31	858.98
387.50	866.00
387.70	866.00
387.89	781.74
388.09	835.57
388.28	840.25
388.48	861.32
388.67	910.47
388.86	997.07
389.06	968.98
389.25	973.66
389.45	957.28
389.64	964.30
389.84	990.05
390.03	1076.65
390.22	961.96
390.42	1008.77
390.61	1032.18
390.81	997.07
391.00	1039.20
391.19	973.66
391.39	1053.24
391.58	1074.31
391.78	992.39
391.97	1032.18
392.16	926.85
392.36	1025.15
392.55	1015.79
392.75	1036.86
392.94	933.87
393.13	1025.15
393.33	992.39
393.52	997.07
393.71	1046.22
393.91	1032.18
394.10	1043.88
394.29	1104.73
394.49	1210.06
394.68	1130.48
394.88	1132.82
395.07	1226.44
395.26	1207.72
395.46	1203.04
395.65	1158.57
395.84	1240.48
396.04	1231.12
396.23	1177.29
396.42	1163.25
396.62	1181.97
396.81	1249.85
397.00	1186.65
397.19	1306.02
397.39	1303.68
397.58	1299.00
397.77	1324.74
397.97	1465.18
398.16	1348.15
398.35	1469.86
398.55	1462.83
398.74	1416.02
398.93	1561.14
399.12	1486.24
399.32	1444.11
399.51	1493.26
399.70	1586.88
399.90	1558.80
400.09	1607.95
400.28	1570.50
400.47	1605.61
400.67	1650.08
400.86	1640.72
401.05	1600.93
401.24	1757.74
401.44	1741.36
401.63	1710.93
401.82	1617.31
402.01	1638.38
402.21	1694.55
402.40	1696.89
402.59	1748.38
402.78	1736.68
402.97	1750.72
403.17	1839.66
403.36	1788.17
403.55	1811.57
403.74	1860.73
403.93	1830.30
404.13	1888.81
404.32	1909.88
404.51	1937.96
404.70	1944.99
404.89	1879.45
405.09	1975.41
405.28	1947.33
405.47	2022.22
405.66	1891.15
405.85	1956.69
406.05	1942.64
406.24	2003.50
406.43	1959.03
406.62	2160.31
406.81	2155.63
407.00	2115.84
407.20	2057.33
407.39	2083.08
407.58	2069.03
407.77	2092.44
407.96	2125.21
408.15	2150.95
408.34	2204.78
408.54	2204.78
408.73	2228.19
408.92	2244.57
409.11	2324.15
409.30	2300.75
409.49	2260.96
409.68	2363.94
409.87	2286.70
410.07	2354.58
410.26	2300.75
410.45	2410.75
410.64	2427.14
410.83	2422.45
411.02	2502.03
411.21	2593.31
411.40	2626.08
411.59	2663.53
411.78	2607.36
411.98	2492.67
412.17	2663.53
412.36	2745.45
412.55	2654.17
412.74	2682.25
412.93	2719.70
413.12	2698.64
413.31	2883.54
413.50	2827.37
413.69	2850.77
413.88	2949.08
414.07	2995.89
414.26	2930.35
414.45	2895.24
414.64	2993.55
414.83	2913.97
415.02	3049.72
415.22	3136.32
415.41	3190.15
415.60	3138.66
415.79	3164.40
415.98	3150.36
416.17	3335.26
416.36	3194.83
416.55	3246.32
416.74	3309.52
416.93	3155.04
417.12	3239.30
417.31	3302.50
417.50	3335.26
417.69	3492.08
417.88	3452.29
418.07	3349.31
418.26	3440.59
418.45	3290.79
418.64	3574.00
418.83	3478.04
419.02	3557.61
419.21	3613.79
419.39	3520.17
419.58	3604.42
419.77	3557.61
419.96	3557.61
420.15	3559.95
420.34	3674.64
420.53	3733.15
420.72	3765.92
420.91	3775.28
421.10	3833.80
421.29	3777.62
421.48	3681.66
421.67	3716.77
421.86	3988.27
422.05	3861.88
422.24	3616.13
422.43	3838.48
422.61	3786.99
422.80	3908.69
422.99	3927.42
423.18	3896.99
423.37	3955.51
423.56	3922.74
423.75	3899.33
423.94	3819.75
424.13	3646.55
424.32	3669.96
424.50	3976.57
424.69	4079.55
424.88	3960.19
425.07	3847.84
425.26	3836.14
425.45	3829.12
425.64	4011.68
425.83	3852.52
426.01	4023.38
426.20	3955.51
426.39	4119.34
426.58	3880.61
426.77	3904.01
426.96	3976.57
427.15	3880.61
427.33	3969.55
427.52	4060.83
427.71	4180.20
427.90	4039.76
428.09	4093.60
428.28	4056.15
428.46	4060.83
428.65	4236.37
428.84	4189.56
429.03	4187.22
429.22	4074.87
429.40	4163.81
429.59	4084.23
429.78	3866.56
429.97	3896.99
430.16	3983.59
430.34	3960.19
430.53	4032.74
430.72	4236.37
430.91	4154.45
431.10	4269.14
431.28	4414.25
431.47	4535.96
431.66	4645.96
431.85	4524.26
432.03	4573.41
432.22	4690.43
432.41	4627.24
432.60	4550.00
432.79	4704.48
432.97	4798.10
433.16	4608.51
433.35	4606.17
433.54	4667.03
433.72	4564.04
433.91	4678.73
434.10	4784.06
434.28	4676.39
434.47	4791.08
434.66	4788.74
434.85	4947.89
435.03	4922.15
435.22	4791.08
435.41	4952.57
435.59	5123.43
435.78	5074.28
435.97	5132.79
436.16	5032.15
436.34	5050.88
436.53	5149.18
436.72	5219.39
436.90	5039.17
437.09	5025.13
437.28	5006.41
437.46	5294.29
437.65	5135.14
437.84	5252.16
438.02	5259.18
438.21	5020.45
438.40	5062.58
438.58	5284.93
438.77	5357.49
438.96	5378.55
439.14	5490.90
439.33	5458.13
439.52	5324.72
439.70	5647.71
439.89	5607.92
440.08	5633.67
440.26	5722.61
440.45	5621.97
440.63	5867.72
440.82	5823.25
441.01	5720.27
441.19	5928.58
441.38	5980.07
441.57	5961.34
441.75	6129.86
441.94	5970.71
442.12	6181.35
442.31	6511.37
442.50	6277.32
442.68	6232.85
442.87	6251.57
443.05	6071.35
443.24	6396.68
443.43	6249.23
443.61	6314.77
443.80	6644.78
443.98	6436.47
444.17	6125.18
444.35	6553.50
444.54	6516.05
444.73	6434.13
444.91	6427.11
445.10	6394.34
445.28	6338.17
445.47	6326.47
445.65	6408.39
445.84	6469.24
446.02	6719.68
446.21	6604.99
446.39	6459.88
446.58	6736.06
446.77	6640.10
446.95	6684.57
447.14	6743.08
447.32	6715.00
447.51	6799.26
447.69	6567.54
447.88	6717.34
448.06	6820.32
448.25	6612.01
448.43	6787.55
448.62	6663.51
448.80	6668.19
448.99	6698.61
449.17	6686.91
449.36	6717.34
449.54	6963.09
449.73	7040.33
449.91	7108.21
450.10	7162.04
450.28	7311.83
450.46	7208.85
450.65	7276.73
450.83	7335.24
451.02	7225.23
451.20	7178.42
451.39	7300.13
451.57	7033.31
451.76	7080.12
451.94	7269.70
452.13	7087.14
452.31	7063.74
452.49	7045.01
452.68	7190.13
452.86	7185.44
453.05	7349.28
453.23	7414.82
453.42	7190.13
453.60	7136.29
453.78	7368.01
453.97	7265.02
454.15	7405.46
454.34	7358.64
454.52	7506.10
454.70	7557.59
454.89	7454.61
455.07	7396.09
455.26	7515.46
455.44	7679.30
455.62	7639.51
455.81	7716.75
455.99	7873.56
456.17	7850.16
456.36	7815.05
456.54	7922.71
456.73	8006.97
456.91	7997.61
457.09	8161.45
457.28	8250.39
457.46	7992.93
457.64	8226.98
457.83	7955.48
458.01	8159.11
458.19	8210.60
458.38	8109.96
458.56	8196.56
458.74	8077.19
458.93	8334.65
459.11	8180.17
459.29	8271.45
459.48	8252.73
459.66	8128.68
459.84	8353.37
460.03	8552.32
460.21	8475.08
460.39	8552.32
460.57	8341.67
460.76	8477.42
460.94	8674.03
461.12	8418.91
461.31	8725.52
461.49	8699.77
461.67	8599.13
461.85	8821.48
462.04	8727.86
462.22	9334.06
462.40	8964.25
462.59	8730.20
462.77	8887.01
462.95	8926.80
463.13	8919.78
463.32	9067.24
463.50	8950.21
463.68	9060.21
463.86	8903.40
464.05	8947.87
464.23	8950.21
464.41	9081.28
464.59	8851.91
464.78	9055.53
464.96	9130.43
465.14	9004.04
465.32	9125.75
465.50	9146.81
465.69	9338.74
465.87	9273.20
466.05	9210.01
466.23	9032.13
466.41	9177.24
466.60	9451.08
466.78	9252.14
466.96	9111.71
467.14	9324.69
467.32	9387.89
467.51	9521.30
467.69	9158.52
467.87	9380.87
468.05	9479.17
468.23	9434.70
468.41	9628.96
468.60	9673.43
468.78	9540.02
468.96	9369.16
469.14	9628.96
469.32	9762.37
469.50	9458.10
469.69	9612.58
469.87	9785.78
470.05	9806.84
470.23	9764.72
470.41	10015.15
470.59	9769.40
470.77	9827.91
470.95	9844.29
471.14	10092.39
471.32	10106.43
471.50	10188.35
471.68	10377.94
471.86	10303.04
472.04	10242.18
472.22	10518.37
472.40	10230.48
472.58	10466.88
472.77	10326.44
472.95	10752.42
473.13	10700.93
473.31	10384.96
473.49	10483.26
473.67	10579.22
473.85	11026.26
474.03	10848.38
474.21	10878.81
474.39	10972.43
474.57	10841.36
474.75	10993.50
474.93	11227.55
475.12	11061.37
475.30	11122.23
475.48	10953.71
475.66	11098.82
475.84	11325.85
476.02	11492.03
476.20	11248.61
476.38	11749.49
476.56	11829.07
476.74	11932.05
476.92	11723.74
477.10	11901.62
477.28	12049.08
477.46	12032.69
477.64	12217.60
477.82	12222.28
478.00	12533.57
478.18	12620.17
478.36	12648.26
478.54	12648.26
478.72	12807.41
478.90	13022.74
479.08	13074.23
479.26	12933.80
479.44	12865.92
479.62	13177.22
479.80	13331.69
479.98	13238.07
480.16	13432.33
480.34	13563.40
480.52	13558.72
480.70	13724.90
480.88	13640.64
481.06	13858.31
481.24	14202.37
481.41	14092.37
481.59	14125.13
481.77	14380.25
481.95	14380.25
482.13	14464.51
482.31	14759.42
482.49	14703.25
482.67	14813.25
482.85	14782.82
483.03	15164.33
483.21	15309.44
483.39	15234.55
483.57	15426.47
483.74	15159.65
483.92	15606.69
484.10	15447.54
484.28	15803.30
484.46	15981.18
484.64	16219.91
484.82	15847.77
485.00	16137.99
485.18	16098.20
485.35	16425.88
485.53	15917.98
485.71	16203.53
485.89	16137.99
486.07	16100.55
486.25	16596.74
486.43	16812.07
486.61	16943.14
486.78	16980.59
486.96	16943.14
487.14	17436.99
487.32	17640.62
487.50	17827.86
487.68	17930.84
487.85	18387.25
488.03	18333.42
488.21	18368.52
488.39	18352.14
488.57	18637.69
488.75	18712.58
488.92	19108.13
489.10	19016.85
489.28	19248.57
489.46	19768.16
489.64	19236.86
489.81	19845.40
489.99	20194.14
490.17	20011.58
490.35	20400.11
490.53	20287.76
490.70	20247.97
490.88	20259.68
491.06	20528.84
491.24	20718.42
491.41	20603.74
491.59	20685.65
491.77	20877.58
491.95	20929.07
492.13	21120.99
492.30	21656.98
492.48	21818.47
492.66	21884.01
492.84	21699.11
493.01	22118.06
493.19	22237.43
493.37	22204.66
493.54	21970.61
493.72	22342.75
493.90	22307.65
494.08	22635.32
494.25	23101.09
494.43	23173.64
494.61	23225.14
494.79	23271.95
494.96	23454.51
495.14	23194.71
495.32	23557.49
495.49	23613.66
495.67	23662.82
495.85	24098.16
496.02	23931.98
496.20	24290.08
496.38	24226.89
496.55	24372.00
496.73	25158.42
496.91	24655.20
497.09	24587.33
497.26	25085.86
497.44	25069.48
497.62	25142.03
497.79	25259.06
497.97	25308.21
498.14	25324.60
498.32	25469.71
498.50	25326.94
498.67	26005.69
498.85	26005.69
499.03	26312.30
499.20	26057.18
499.38	25958.88
499.56	26082.93
499.73	26272.51
499.91	26515.93
500.08	26412.95
500.26	26396.56
500.44	26548.70
500.61	26834.24
500.79	26628.27
500.97	26841.26
501.14	27042.55
501.32	27152.55
501.49	26925.52
501.67	27037.87
501.84	26806.16
502.02	27346.82
502.20	27384.27
502.37	27428.74
502.55	28135.58
502.72	27931.95
502.90	27835.99
503.07	28079.41
503.25	27852.38
503.43	27929.61
503.60	28070.04
503.78	27690.88
503.95	28208.14
504.13	28489.00
504.30	28627.09
504.48	28252.61
504.65	28577.94
504.83	28797.95
505.01	29022.64
505.18	29064.77
505.36	29263.72
505.53	29181.80
505.71	29652.25
505.88	29472.03
506.06	29146.69
506.23	29226.27
506.41	29308.19
506.58	29261.38
506.76	29521.18
506.93	29919.07
507.11	29907.37
507.28	29830.13
507.46	29703.74
507.63	29928.43
507.81	30080.56
507.98	29848.85
508.16	30754.64
508.33	30560.37
508.50	30448.03
508.68	30270.15
508.85	31133.81
509.03	30651.66
509.20	31063.59
509.38	31339.77
509.55	31220.41
509.73	31152.53
509.90	31545.74
510.08	31023.80
510.25	31342.11
510.42	31571.49
510.60	31805.54
510.77	31683.83
510.95	32224.50
511.12	32095.77
511.30	31824.26
511.47	31964.70
511.64	32268.97
511.82	32273.65
511.99	31854.69
512.17	32095.77
512.34	32285.35
512.51	32250.24
512.69	32336.84
512.86	32187.05
513.04	32414.08
513.21	32762.82
513.38	32261.94
513.56	33137.30
513.73	32414.08
513.90	32893.89
514.08	33062.41
514.25	32837.72
514.43	32989.85
514.60	32793.25
514.77	33153.69
514.95	33319.87
515.12	33308.16
515.29	33450.94
515.47	34160.12
515.64	34206.93
515.81	33834.78
515.99	33207.52
516.16	33682.65
516.33	33553.92
516.51	33706.05
516.68	33256.67
516.85	33083.47
517.03	33158.37
517.20	33818.40
517.37	33783.29
517.54	34309.91
517.72	34251.40
517.89	33933.09
518.06	33872.23
518.24	34017.35
518.41	34015.01
518.58	34693.76
518.75	34499.50
518.93	34796.74
519.10	34749.93
519.27	34806.11
519.45	34888.03
519.62	35007.39
519.79	35194.64
519.96	35105.70
520.14	35283.58
520.31	34665.67
520.48	35637.00
520.65	35234.42
520.83	35592.53
521.00	35938.93
521.17	36062.97
521.34	36088.72
521.52	35838.28
521.69	35988.08
521.86	36322.77
522.03	35620.61
522.20	36074.68
522.38	36257.24
522.55	36048.93
522.72	36615.34
522.89	36119.15
523.07	37092.81
523.24	36503.00
523.41	37146.64
523.58	36435.12
523.75	37071.75
523.92	37160.69
524.10	37207.50
524.27	36877.48
524.44	37041.32
524.61	37074.09
524.78	37153.66
524.96	37373.67
525.13	37315.16
525.30	37624.11
525.47	37591.34
525.64	37383.04
525.81	37219.20
525.98	37493.04
526.16	37099.83
526.33	36875.14
526.50	37366.65
526.67	37041.32
526.84	36830.67
527.01	37350.27
527.18	37436.87
527.36	37727.10
527.53	37834.76
527.70	38115.62
527.87	38239.67
528.04	37603.05
528.21	37865.19
528.38	38447.98
528.55	38576.71
528.72	38412.87
528.89	38382.45
529.07	38450.32
529.24	38176.48
529.41	38656.29
529.58	38272.44
529.75	38546.28
529.92	38810.76
530.09	38817.78
530.26	39131.42
530.43	39122.05
530.60	39026.09
530.77	39133.76
530.94	39105.67
531.11	39227.38
531.28	39194.61
531.46	39651.02
531.63	39608.89
531.80	38923.11
531.97	39115.03
532.14	38906.73
532.31	38735.87
532.48	39007.37
532.65	39433.35
532.82	39489.52
532.99	40184.66
533.16	39313.98
533.33	39931.88
533.50	39494.20
533.67	40250.19
533.84	39751.66
534.01	39433.35
534.18	39442.71
534.35	40112.10
534.52	40114.44
534.69	40100.40
534.86	40318.07
535.03	40322.75
535.20	40748.73
535.37	40659.79
535.54	40685.53
535.71	40795.54
535.88	40594.25
536.05	40624.68
536.22	40306.37
536.38	40407.01
536.55	40397.65
536.72	40987.46
536.89	40430.41
537.06	40519.35
537.23	41116.19
537.40	40620.00
537.57	40818.94
537.74	40921.93
537.91	41254.28
538.08	41148.96
538.25	40790.86
538.42	40802.56
538.59	41104.49
538.75	40732.34
538.92	41048.32
539.09	41202.79
539.26	41280.03
539.43	41050.66
539.60	41209.81
539.77	41359.61
539.94	41596.00
540.11	41347.90
540.28	41296.41
540.44	41600.68
540.61	41490.68
540.78	41181.73
540.95	41258.96
541.12	41294.07
541.29	41230.88
541.46	41738.77
541.62	41366.63
541.79	41886.23
541.96	41673.24
542.13	41757.50
542.30	41518.76
542.47	41563.23
542.63	41724.73
542.80	41972.83
542.97	42204.54
543.14	42586.05
543.31	42141.35
543.48	42174.11
543.64	42777.97
543.81	42651.58
543.98	42892.66
544.15	42663.28
544.32	42490.09
544.48	43271.82
544.65	42934.79
544.82	42513.49
544.99	42347.31
545.16	42625.84
545.32	42384.76
545.49	42967.55
545.66	42953.51
545.83	43051.81
546.00	43463.75
546.16	42904.36
546.33	42789.67
546.50	42667.97
546.67	43276.51
546.83	42569.66
547.00	42969.90
547.17	43061.18
547.34	43220.33
547.50	42820.10
547.67	43227.35
547.84	43414.60
548.00	43423.96
548.17	43611.20
548.34	43269.48
548.51	43737.59
548.67	43515.24
548.84	43540.99
549.01	43503.54
549.18	43047.13
549.34	43976.33
549.51	43871.00
549.68	43995.05
549.84	43110.33
550.01	43695.46
550.18	43344.38
550.34	43936.54
550.51	44020.80
550.68	44060.58
550.84	43311.61
551.01	43831.21
551.18	43721.21
551.34	43761.00
551.51	43852.28
551.68	44161.23
551.84	44091.01
552.01	43910.79
552.18	43966.96
552.34	43807.81
552.51	44198.68
552.68	43503.54
552.84	44273.57
553.01	44275.91
553.18	44254.85
553.34	44362.51
553.51	44266.55
553.67	44311.02
553.84	44460.82
554.01	44631.68
554.17	44804.88
554.34	44435.07
554.51	44671.46
554.67	44364.85
554.84	44252.51
555.00	44334.43
555.17	44678.49
555.33	44531.03
555.50	44662.10
555.67	44421.03
555.83	44360.17
556.00	44769.77
556.16	44966.37
556.33	44608.27
556.50	44502.95
556.66	44830.62
556.83	44287.62
556.99	44376.56
557.16	44678.49
557.32	44996.80
557.49	45104.46
557.65	44814.24
557.82	44914.88
557.98	44832.96
558.15	45074.04
558.32	44879.77
558.48	44495.92
558.65	44865.73
558.81	44868.07
558.98	44598.91
559.14	44875.09
559.31	44732.32
559.47	45010.84
559.64	45022.54
559.80	44945.31
559.97	44760.40
560.13	45048.29
560.30	45263.62
560.46	45490.65
560.63	45170.00
560.79	45155.96
560.96	45577.25
561.12	45015.52
561.29	44797.85
561.45	45045.95
561.61	44912.54
561.78	44875.09
561.94	45233.19
562.11	45298.73
562.27	45223.83
562.44	45310.43
562.60	45464.91
562.77	45776.20
562.93	45265.96
563.10	45631.08
563.26	44610.61
563.42	45755.13
563.59	45301.07
563.75	45200.43
563.92	45635.77
564.08	45560.87
564.24	45317.45
564.41	45411.07
564.57	45188.72
564.74	45228.51
564.90	45212.13
565.07	45177.02
565.23	45429.80
565.39	45305.75
565.56	45869.82
565.72	45188.72
565.88	45024.89
566.05	45144.25
566.21	44882.11
566.38	45345.54
566.54	45375.97
566.70	45680.24
566.87	45181.70
567.03	45663.85
567.19	46499.42
567.36	45862.80
567.52	45399.37
567.68	45925.99
567.85	45399.37
568.01	45677.90
568.17	45329.16
568.34	45478.95
568.50	45500.01
568.66	45673.21
568.83	45193.40
568.99	45371.28
569.15	45691.94
569.32	44973.39
569.48	45605.34
569.64	45984.51
569.81	45476.61
569.97	45577.25
570.13	45806.62
570.30	45668.53
570.46	45184.04
570.62	45221.49
570.78	45029.57
570.95	45050.63
571.11	45462.57
571.27	45495.33
571.43	45621.72
571.60	45698.96
571.76	45666.19
571.92	45635.77
572.09	45970.46
572.25	45474.27
572.41	45794.92
572.57	45933.01
572.74	46323.88
572.90	45532.78
573.06	45776.20
573.22	45769.18
573.38	46129.62
573.55	45862.80
573.71	45853.44
573.87	45591.30
574.03	45570.23
574.20	45970.46
574.36	45736.41
574.52	45972.80
574.68	45968.12
574.84	45610.02
575.01	45869.82
575.17	45694.28
575.33	45301.07
575.49	45551.51
575.65	45698.96
575.82	45694.28
575.98	45500.01
576.14	45933.01
576.30	46024.29
576.46	45305.75
576.62	45696.62
576.79	46129.62
576.95	45972.80
577.11	45705.98
577.27	45769.18
577.43	45521.08
577.59	45544.48
577.75	45694.28
577.92	45366.60
578.08	45322.13
578.24	45570.23
578.40	45844.07
578.56	45720.02
578.72	45823.01
578.88	45851.09
579.04	45935.35
579.21	45729.39
579.37	45958.76
579.53	46075.79
579.69	45640.45
579.85	45439.16
580.01	45961.10
580.17	45874.50
580.33	45631.08
580.49	45935.35
580.65	45808.96
580.82	46007.91
580.98	45401.71
581.14	45918.97
581.30	46155.36
581.46	46459.63
581.62	45790.24
581.78	45855.78
581.94	46218.56
582.10	46012.59
582.26	45855.78
582.42	45855.78
582.58	46007.91
582.74	45979.82
582.90	46408.14
583.06	45846.41
583.22	45748.11
583.38	45916.63
583.54	46059.40
583.70	46167.07
583.86	45612.36
584.02	45392.35
584.18	46085.15
584.34	45951.74
584.50	45619.38
584.66	45996.21
584.82	45844.07
584.98	46054.72
585.14	45666.19
585.30	45675.55
585.46	45895.56
585.62	45558.53
585.78	45897.91
585.94	45759.81
586.10	45464.91
586.26	45427.46
586.42	45734.07
586.58	45984.51
586.74	45862.80
586.90	45832.37
587.06	46185.79
587.22	45975.14
587.38	46380.06
587.54	45958.76
587.70	46028.98
587.86	46071.10
588.02	45794.92
588.18	46115.58
588.34	45839.39
588.49	45408.73
588.65	45441.50
588.81	45591.30
588.97	45354.90
589.13	45621.72
589.29	45579.59
589.45	45752.79
589.61	45682.58
589.77	46279.41
589.93	46202.18
590.08	46036.00
