SpectraSuite Data File
++++++++++++++++++++++++++++++++++++
Date: Fri Oct 25 11:23:27 EDT 2013
User: price-jones
Dark Spectrum Present: No
Reference Spectrum Present: No
Number of Sampled Component Spectra: 1
Spectrometers: USB2+H05261
Integration Time (usec): 100000 (USB2+H05261)
Spectra Averaged: 1 (USB2+H05261)
Boxcar Smoothing: 0 (USB2+H05261)
Correct for Electrical Dark: No (USB2+H05261)
Strobe/Lamp Enabled: No (USB2+H05261)
Correct for Detector Non-linearity: No (USB2+H05261)
Correct for Stray Light: No (USB2+H05261)
Number of Pixels in Processed Spectrum: 2048
>>>>>Begin Processed Spectral Data<<<<<
365.73	196.60
365.92	196.60
366.12	196.60
366.32	138.09
366.52	95.96
366.72	74.90
366.91	184.90
367.11	95.96
367.31	86.60
367.51	154.48
367.70	133.41
367.90	65.54
368.10	114.69
368.30	58.51
368.49	112.35
368.69	121.71
368.89	191.92
369.09	180.22
369.28	166.18
369.48	215.33
369.68	266.82
369.87	264.48
370.07	227.03
370.27	210.65
370.47	311.29
370.66	643.65
370.86	601.52
371.06	655.35
371.25	734.93
371.45	615.56
371.65	723.23
371.84	697.48
372.04	655.35
372.24	777.06
372.44	751.31
372.63	765.36
372.83	802.80
373.03	739.61
373.22	697.48
373.42	732.59
373.62	772.38
373.81	786.42
374.01	823.87
374.21	793.44
374.40	746.63
374.60	732.59
374.79	814.51
374.99	786.42
375.19	826.21
375.38	840.25
375.58	809.83
375.78	837.91
375.97	863.66
376.17	866.00
376.37	791.10
376.56	877.70
376.76	877.70
376.95	823.87
377.15	915.15
377.35	870.68
377.54	833.23
377.74	842.59
377.93	781.74
378.13	1011.11
378.33	954.94
378.52	887.06
378.72	870.68
378.91	938.55
379.11	947.92
379.31	903.45
379.50	931.53
379.70	990.05
379.89	1025.15
380.09	1008.77
380.28	1043.88
380.48	1015.79
380.68	964.30
380.87	997.07
381.07	1015.79
381.26	997.07
381.46	1006.43
381.65	1041.54
381.85	1069.62
382.04	1053.24
382.24	1039.20
382.43	980.68
382.63	1074.31
382.83	1184.31
383.02	1062.60
383.22	1109.41
383.41	1111.75
383.61	1118.78
383.80	1128.14
384.00	1160.91
384.19	1074.31
384.39	1165.59
384.58	1186.65
384.78	1118.78
384.97	1233.46
385.17	1151.54
385.36	1064.94
385.56	1107.07
385.75	1128.14
385.95	1174.95
386.14	1355.17
386.34	1177.29
386.53	1228.78
386.72	1205.38
386.92	1179.63
387.11	1254.53
387.31	1275.59
387.50	1240.48
387.70	1242.82
387.89	1254.53
388.09	1205.38
388.28	1247.51
388.48	1273.25
388.67	1252.19
388.86	1263.89
389.06	1277.93
389.25	1263.89
389.45	1329.42
389.64	1327.08
389.84	1385.60
390.03	1371.55
390.22	1348.15
390.42	1467.52
390.61	1341.13
390.81	1479.22
391.00	1364.53
391.19	1455.81
391.39	1465.18
391.58	1434.75
391.78	1540.07
391.97	1371.55
392.16	1430.07
392.36	1490.92
392.55	1568.16
392.75	1516.67
392.94	1533.05
393.13	1598.59
393.33	1565.82
393.52	1556.46
393.71	1598.59
393.91	1598.59
394.10	1504.96
394.29	1547.09
394.49	1554.12
394.68	1652.42
394.88	1689.87
395.07	1717.95
395.26	1636.03
395.46	1689.87
395.65	1694.55
395.84	1638.38
396.04	1694.55
396.23	1734.34
396.42	1715.61
396.62	1682.85
396.81	1739.02
397.00	1720.29
397.19	1806.89
397.39	1813.92
397.58	1863.07
397.77	1811.57
397.97	1813.92
398.16	1830.30
398.35	1919.24
398.55	1912.22
398.74	1788.17
398.93	1844.34
399.12	1853.70
399.32	1893.49
399.51	1973.07
399.70	2003.50
399.90	2076.06
400.09	2080.74
400.28	2052.65
400.47	2045.63
400.67	2062.01
400.86	2113.50
401.05	2143.93
401.24	2172.02
401.44	2101.80
401.63	2228.19
401.82	2099.46
402.01	2054.99
402.21	2076.06
402.40	2099.46
402.59	2216.49
402.78	2172.02
402.97	2340.54
403.17	2267.98
403.36	2244.57
403.55	2377.98
403.74	2436.50
403.93	2303.09
404.13	2333.51
404.32	2293.72
404.51	2385.01
404.70	2436.50
404.89	2438.84
405.09	2413.09
405.28	2370.96
405.47	2363.94
405.66	2382.67
405.85	2700.98
406.05	2497.35
406.24	2518.42
406.43	2490.33
406.62	2670.55
406.81	2663.53
407.00	2619.06
407.20	2626.08
407.39	2595.65
407.58	2757.15
407.77	2693.96
407.96	2696.30
408.15	2752.47
408.34	2705.66
408.54	2864.82
408.73	2700.98
408.92	2951.42
409.11	2759.49
409.30	2902.26
409.49	2871.84
409.68	2967.80
409.87	2913.97
410.07	2981.84
410.26	2937.37
410.45	2991.20
410.64	3040.36
410.83	3091.85
411.02	3136.32
411.21	3075.46
411.40	3171.43
411.59	3204.19
411.78	3155.04
411.98	3199.51
412.17	3222.92
412.36	3459.31
412.55	3377.39
412.74	3424.20
412.93	3414.84
413.12	3265.05
413.31	3648.90
413.50	3611.45
413.69	3391.44
413.88	3538.89
414.07	3618.47
414.26	3581.02
414.45	3646.55
414.64	3618.47
414.83	3674.64
415.02	3815.07
415.22	3747.20
415.41	3978.91
415.60	3983.59
415.79	4077.21
415.98	3962.53
416.17	4042.11
416.36	3927.42
416.55	4126.36
416.74	4081.89
416.93	4058.49
417.12	4173.18
417.31	4168.49
417.50	4252.75
417.69	4379.14
417.88	4311.27
418.07	4435.32
418.26	4273.82
418.45	4341.69
418.64	4559.36
418.83	4308.93
419.02	4386.16
419.21	4395.53
419.39	4636.60
419.58	4404.89
419.77	4482.13
419.96	4484.47
420.15	4636.60
420.34	4713.84
420.53	4613.20
420.72	4861.29
420.91	4627.24
421.10	4739.58
421.29	4858.95
421.48	4741.93
421.67	4760.65
421.86	4826.18
422.05	4873.00
422.24	4849.59
422.43	4905.76
422.61	4868.31
422.80	5020.45
422.99	5022.79
423.18	4966.62
423.37	5062.58
423.56	4812.14
423.75	4856.61
423.94	4844.91
424.13	4692.77
424.32	4819.16
424.50	5046.20
424.69	5046.20
424.88	5067.26
425.07	5001.72
425.26	4999.38
425.45	4975.98
425.64	4957.25
425.83	5095.35
426.01	5163.22
426.20	4964.28
426.39	4983.00
426.58	4938.53
426.77	4929.17
426.96	5093.01
427.15	5270.89
427.33	5195.99
427.52	4997.04
427.71	5156.20
427.90	5238.12
428.09	5359.83
428.28	5394.93
428.46	5366.85
428.65	5376.21
428.84	5542.39
429.03	5448.77
429.22	5298.97
429.40	5673.46
429.59	5537.71
429.78	5294.29
429.97	5376.21
430.16	5582.18
430.34	5507.28
430.53	5682.82
430.72	5661.76
430.91	5680.48
431.10	5654.73
431.28	5844.32
431.47	5891.13
431.66	5900.49
431.85	5837.30
432.03	6026.88
432.22	6050.28
432.41	5914.53
432.60	5818.57
432.79	5982.41
432.97	5919.21
433.16	6122.84
433.35	5926.24
433.54	6059.65
433.72	6047.94
433.91	6108.80
434.10	6246.89
434.28	6286.68
434.47	6352.21
434.66	6251.57
434.85	6328.81
435.03	6317.11
435.22	6284.34
435.41	6487.96
435.59	6511.37
435.78	6429.45
435.97	6436.47
436.16	6499.67
436.34	6345.19
436.53	6459.88
436.72	6707.98
436.90	6677.55
437.09	6614.35
437.28	6370.94
437.46	6656.48
437.65	6792.23
437.84	6771.17
438.02	6703.29
438.21	6773.51
438.40	6703.29
438.58	6974.80
438.77	6944.37
438.96	7016.93
439.14	7171.40
439.33	7136.29
439.52	7372.69
439.70	7269.70
439.89	7344.60
440.08	7548.23
440.26	7499.08
440.45	7517.80
440.63	7534.18
440.82	7826.75
441.01	7637.17
441.19	7702.70
441.38	7772.92
441.57	7868.88
441.75	7936.76
441.94	7985.91
442.12	8081.87
442.31	8152.09
442.50	8182.51
442.68	7896.97
442.87	8121.66
443.05	8102.93
443.24	8203.58
443.43	8222.30
443.61	8290.18
443.80	8552.32
443.98	8065.49
444.17	7861.86
444.35	8301.88
444.54	8308.90
444.73	8601.47
444.91	8439.97
445.10	8528.91
445.28	8287.84
445.47	8145.06
445.65	8444.65
445.84	8306.56
446.02	8514.87
446.21	8723.18
446.39	8629.56
446.58	8346.35
446.77	8610.83
446.95	8367.42
447.14	8435.29
447.32	8657.64
447.51	8652.96
447.69	8486.78
447.88	8617.85
448.06	8540.61
448.25	8531.25
448.43	8685.73
448.62	8685.73
448.80	8535.93
448.99	8681.05
449.17	8727.86
449.36	8723.18
449.54	8954.89
449.73	8889.35
449.91	9036.81
450.10	9015.74
450.28	9142.13
450.46	9100.00
450.65	9053.19
450.83	9048.51
451.02	8875.31
451.20	9060.21
451.39	9118.73
451.57	9247.46
451.76	9240.44
451.94	9294.27
452.13	9486.19
452.31	9210.01
452.49	9273.20
452.68	9235.75
452.86	9338.74
453.05	9413.63
453.23	9605.56
453.42	9334.06
453.60	9453.42
453.78	9547.05
453.97	9523.64
454.15	9776.42
454.34	9408.95
454.52	9507.26
454.70	9668.75
454.89	9834.93
455.07	9537.68
455.26	9689.82
455.44	9909.83
455.62	9905.15
455.81	10071.33
455.99	9954.30
456.17	10057.28
456.36	10132.18
456.54	9994.09
456.73	10314.74
456.91	10516.03
457.09	10494.96
457.28	10658.80
457.46	10429.43
457.64	10712.63
457.83	10527.73
458.01	10476.24
458.19	10691.57
458.38	10368.57
458.56	10700.93
458.74	10787.53
458.93	10682.20
459.11	10752.42
459.29	10623.69
459.48	10871.79
459.66	10766.46
459.84	11124.57
460.03	11077.76
460.21	10860.09
460.39	11122.23
460.57	10803.91
460.76	11178.40
460.94	11398.41
461.12	11096.48
461.31	11351.60
461.49	11356.28
461.67	11367.98
461.85	11515.44
462.04	11140.95
462.22	11901.62
462.40	11564.59
462.59	11417.13
462.77	11580.97
462.95	11754.17
463.13	11527.14
463.32	11728.42
463.50	11812.68
463.68	11955.46
463.86	11836.09
464.05	11880.56
464.23	11669.91
464.41	11838.43
464.59	11728.42
464.78	12196.53
464.96	12100.57
465.14	11859.49
465.32	12079.50
465.50	12102.91
465.69	12369.73
465.87	12250.36
466.05	12365.05
466.23	12126.32
466.41	12306.54
466.60	12540.59
466.78	12269.09
466.96	12348.67
467.14	12395.48
467.32	12554.63
467.51	12393.14
467.69	12025.67
467.87	12603.78
468.05	12634.21
468.23	12442.29
468.41	12437.61
468.60	12510.16
468.78	12758.26
468.96	12624.85
469.14	12891.67
469.32	12943.16
469.50	12889.33
469.69	13102.32
469.87	13097.64
470.05	13048.49
470.23	13123.38
470.41	13048.49
470.59	13261.48
470.77	13193.60
470.95	13432.33
471.14	13715.54
471.32	12975.93
471.50	13750.65
471.68	13797.46
471.86	13661.71
472.04	13745.97
472.22	14059.60
472.40	13685.11
472.58	13603.19
472.77	14005.77
472.95	14256.20
473.13	14745.38
473.31	14010.45
473.49	14398.98
473.67	14057.26
473.85	14363.87
474.03	14864.74
474.21	14810.91
474.39	14743.03
474.57	14831.97
474.75	15005.17
474.93	15201.78
475.12	15030.92
475.30	15215.82
475.48	15087.09
475.66	15438.17
475.84	15236.89
476.02	15391.36
476.20	15484.98
476.38	15566.90
476.56	15999.90
476.74	16072.46
476.92	15737.76
477.10	16013.95
477.28	16065.44
477.46	16327.58
477.64	16343.96
477.82	16510.14
478.00	17181.87
478.18	17020.38
478.36	16931.44
478.54	16968.88
478.72	17153.79
478.90	17135.06
479.08	17657.00
479.26	17736.58
479.44	17539.97
479.62	17919.14
479.80	18211.71
479.98	18352.14
480.16	18721.95
480.34	18284.26
480.52	18902.17
480.70	18731.31
480.88	18661.09
481.06	18853.02
481.24	18937.27
481.41	19241.54
481.59	19225.16
481.77	19639.44
481.95	19538.79
482.13	19798.59
482.31	19920.30
482.49	20439.90
482.67	20208.19
482.85	20521.82
483.03	20704.38
483.21	21102.27
483.39	21223.98
483.57	21060.14
483.74	20996.95
483.92	21425.26
484.10	21226.32
484.28	21682.72
484.46	22522.98
484.64	22157.85
484.82	22286.58
485.00	22815.54
485.18	23051.94
485.35	23122.15
485.53	23166.62
485.71	23133.86
485.89	23445.15
486.07	23463.87
486.25	23393.65
486.43	23634.73
486.61	24065.39
486.78	24037.30
486.96	24540.52
487.14	24795.64
487.32	24521.79
487.50	25146.72
487.68	25420.56
487.85	25411.20
488.03	25589.08
488.21	25909.73
488.39	25764.62
488.57	26321.66
488.75	26349.75
488.92	26625.93
489.10	26979.36
489.28	27047.23
489.46	27166.60
489.64	27112.77
489.81	27730.67
489.99	27798.54
490.17	27662.79
490.35	28070.04
490.53	28409.42
490.70	28493.68
490.88	28353.25
491.06	28730.08
491.24	29329.25
491.41	29146.69
491.59	29195.84
491.77	29418.19
491.95	29654.59
492.13	29951.84
492.30	30080.56
492.48	30417.60
492.66	30242.06
492.84	30466.75
493.01	30916.14
493.19	31061.25
493.37	31026.14
493.54	31683.83
493.72	31449.78
493.90	31562.12
494.08	31807.88
494.25	31765.75
494.43	32074.70
494.61	32456.21
494.79	32809.63
494.96	32355.57
495.14	32851.76
495.32	33247.31
495.49	33860.53
495.67	33556.26
495.85	33858.19
496.02	33956.49
496.20	34270.12
496.38	34190.55
496.55	34541.63
496.73	35035.48
496.91	35035.48
497.09	35241.45
497.26	35093.99
497.44	35122.08
497.62	35101.01
497.79	36194.04
497.97	35721.26
498.14	36149.57
498.32	36280.64
498.50	36306.39
498.67	36318.09
498.85	36828.33
499.03	37118.56
499.20	36861.10
499.38	37235.58
499.56	37315.16
499.73	37310.48
499.91	37399.42
500.08	37799.65
500.26	37427.51
500.44	37542.19
500.61	38061.79
500.79	37846.46
500.97	38359.04
501.14	38761.61
501.32	38698.42
501.49	38529.90
501.67	39049.50
501.84	39255.46
502.02	39210.99
502.20	39700.17
502.37	39618.25
502.55	39117.37
502.72	39945.92
502.90	39777.40
503.07	39761.02
503.25	39889.75
503.43	39674.42
503.60	40280.62
503.78	40250.19
503.95	40470.20
504.13	40652.76
504.30	41165.34
504.48	40460.84
504.65	41188.75
504.83	41139.60
505.01	41397.06
505.18	41050.66
505.36	41638.13
505.53	41425.14
505.71	41324.50
505.88	41975.17
506.06	41518.76
506.23	42223.26
506.41	41647.49
506.58	42691.37
506.76	42225.60
506.93	42820.10
507.11	42850.53
507.28	42712.44
507.46	42976.92
507.63	43447.36
507.81	43386.51
507.98	43335.02
508.16	43089.26
508.33	43538.65
508.50	43800.79
508.68	43892.07
508.85	44245.49
509.03	43814.83
509.20	44002.07
509.38	44772.11
509.55	44694.87
509.73	44467.84
509.90	44814.24
510.08	44619.97
510.25	44830.62
510.42	45048.29
510.60	45464.91
510.77	45567.89
510.95	45720.02
511.12	45099.78
511.30	45858.12
511.47	45628.74
511.64	45762.15
511.82	45876.84
511.99	46134.30
512.17	46246.65
512.34	45785.56
512.51	46342.61
512.69	46408.14
512.86	46380.06
513.04	46932.42
513.21	46775.61
513.38	46990.94
513.56	46803.69
513.73	46892.63
513.90	47187.54
514.08	47054.13
514.25	47459.04
514.43	47723.52
514.60	47791.40
514.77	47559.69
514.95	47700.12
515.12	47503.51
515.29	47873.32
515.47	48275.89
515.64	48353.13
515.81	48240.78
515.99	48411.64
516.16	48540.37
516.33	48507.60
516.51	48959.33
516.68	48348.45
516.85	48807.19
517.03	48753.36
517.20	48999.12
517.37	48865.70
517.54	49097.42
517.72	49062.31
517.89	49352.54
518.06	49450.84
518.24	49481.27
518.41	49240.19
518.58	49642.76
518.75	49350.20
518.93	49996.18
519.10	49687.23
519.27	50148.32
519.45	49720.00
519.62	50087.46
519.79	50246.62
519.96	49904.90
520.14	50370.67
520.31	50124.91
520.48	50457.27
520.65	50281.73
520.83	50937.08
521.00	50916.01
521.17	50836.44
521.34	50908.99
521.52	51026.02
521.69	50906.65
521.86	51051.76
522.03	51344.33
522.20	51292.84
522.38	51302.20
522.55	51653.28
522.72	51672.01
522.89	51547.96
523.07	51711.80
523.24	51866.27
523.41	51948.19
523.58	51770.31
523.75	52093.30
523.92	52126.07
524.10	52109.69
524.27	52299.27
524.44	52060.54
524.61	52425.66
524.78	52505.24
524.96	52369.49
525.13	52442.04
525.30	52697.16
525.47	52526.30
525.64	52746.31
525.81	52872.70
525.98	53183.99
526.16	52807.17
526.33	52982.71
526.50	53441.45
526.67	52954.62
526.84	53202.72
527.01	52905.47
527.18	52919.51
527.36	53081.01
527.53	53202.72
527.70	53394.64
527.87	53469.54
528.04	53485.92
528.21	53499.97
528.38	53382.94
528.55	53689.55
528.72	53450.81
528.89	53731.68
529.07	53289.32
529.24	53537.41
529.41	53736.36
529.58	53996.16
529.75	53684.87
529.92	53963.39
530.09	54089.78
530.26	54054.67
530.43	54134.25
530.60	54066.38
530.77	54181.06
530.94	54152.97
531.11	54384.69
531.28	54431.50
531.46	54660.87
531.63	54653.85
531.80	54192.76
531.97	54733.43
532.14	54541.50
532.31	54576.61
532.48	54817.69
532.65	54745.13
532.82	54735.77
532.99	54808.32
533.16	54742.79
533.33	54937.05
533.50	55136.00
533.67	54911.31
533.84	54920.67
534.01	55210.90
534.18	55126.64
534.35	55381.76
534.52	55210.90
534.69	55337.29
534.86	55550.27
535.03	55105.57
535.20	55248.35
535.37	55384.10
535.54	55505.80
535.71	55238.98
535.88	55597.09
536.05	55814.76
536.22	55763.26
536.38	55655.60
536.55	55657.94
536.72	55739.86
536.89	55590.06
537.06	55880.29
537.23	55861.57
537.40	55569.00
537.57	55842.84
537.74	56023.06
537.91	55899.01
538.08	56151.79
538.25	55702.41
538.42	56081.58
538.59	56292.22
538.75	56245.41
538.92	55882.63
539.09	56229.03
539.26	56250.09
539.43	56397.55
539.60	56362.44
539.77	56055.83
539.94	56769.69
540.11	56559.05
540.28	56449.04
540.44	56573.09
540.61	56584.79
540.78	56500.53
540.95	56542.66
541.12	56615.22
541.29	56521.60
541.46	56762.67
541.62	56718.20
541.79	56832.89
541.96	56596.49
542.13	56835.23
542.30	56816.50
542.47	57071.62
542.63	57015.45
542.80	57134.82
542.97	57186.31
543.14	57429.72
543.31	57214.40
543.48	57277.59
543.64	57591.22
543.81	57661.44
543.98	57523.35
544.15	57289.29
544.32	57532.71
544.48	57560.79
544.65	57420.36
544.82	57675.48
544.99	57441.43
545.16	57338.44
545.32	57387.60
545.49	57654.42
545.66	57825.28
545.83	57729.31
546.00	57890.81
546.16	57799.53
546.33	57656.76
546.50	57378.23
546.67	57766.76
546.83	57499.94
547.00	57792.51
547.17	57954.00
547.34	57916.56
547.50	57914.22
547.67	58045.29
547.84	58251.25
548.00	58227.85
548.17	58426.79
548.34	58365.94
548.51	58541.48
548.67	58562.54
548.84	58244.23
549.01	58122.52
549.18	58326.15
549.34	58553.18
549.51	58300.40
549.68	58391.68
549.84	58482.97
550.01	58440.84
550.18	58274.66
550.34	58623.40
550.51	58471.26
550.68	58468.92
550.84	58391.68
551.01	58658.51
551.18	58829.37
551.34	58557.86
551.51	58674.89
551.68	58679.57
551.84	58653.82
552.01	58534.46
552.18	58719.36
552.34	58812.98
552.51	58857.45
552.68	58705.32
552.84	58693.61
553.01	59007.25
553.18	58951.07
553.34	59093.85
553.51	58869.15
553.67	58820.00
553.84	58885.54
554.01	58997.88
554.17	59063.42
554.34	59096.19
554.51	58983.84
554.67	59194.49
554.84	59140.66
555.00	58939.37
555.17	59213.21
555.33	59245.98
555.50	59021.29
555.67	59166.40
555.83	58944.05
556.00	59030.65
556.16	59477.69
556.33	59381.73
556.50	59451.95
556.66	59388.75
556.83	59243.64
556.99	59700.04
557.16	59494.08
557.32	59683.66
557.49	59693.02
557.65	59454.29
557.82	59351.30
557.98	59517.48
558.15	59353.65
558.32	59594.72
558.48	59393.43
558.65	59526.84
558.81	59718.77
558.98	59608.76
559.14	59714.09
559.31	59861.54
559.47	59863.88
559.64	59870.90
559.80	60016.02
559.97	59669.62
560.13	59709.41
560.30	59781.96
560.46	59700.04
560.63	59992.61
560.79	59695.36
560.96	59985.59
561.12	59999.63
561.29	60039.42
561.45	60161.13
561.61	60001.97
561.78	60119.00
561.94	59877.93
562.11	59941.12
562.27	60039.42
562.44	60100.28
562.60	60250.07
562.77	60027.72
562.93	59931.76
563.10	60149.43
563.26	59938.78
563.42	60247.73
563.59	60069.85
563.75	60065.17
563.92	60170.49
564.08	60149.43
564.24	60261.77
564.41	60196.24
564.57	60217.30
564.74	60322.63
564.90	60079.21
565.07	60175.17
565.23	60388.16
565.39	60243.05
565.56	60200.92
565.72	60458.38
565.88	60374.12
566.05	60027.72
566.21	60158.79
566.38	60221.98
566.54	60299.22
566.70	60264.11
566.87	60453.70
567.03	60231.35
567.19	60521.57
567.36	60470.08
567.52	60449.02
567.68	60636.26
567.85	60486.46
568.01	60535.62
568.17	60367.10
568.34	60523.91
568.50	60385.82
568.66	60568.38
568.83	60481.78
568.99	60423.27
569.15	60512.21
569.32	60542.64
569.48	60638.60
569.64	60720.52
569.81	60587.11
569.97	60437.31
570.13	60587.11
570.30	60362.42
570.46	60664.35
570.62	60598.81
570.78	60636.26
570.95	60687.75
571.11	60528.59
571.27	60626.90
571.43	60533.28
571.60	60863.29
571.76	60727.54
571.92	60729.88
572.09	60757.97
572.25	60685.41
572.41	60949.89
572.57	60917.12
572.74	60849.25
572.90	60739.24
573.06	60715.84
573.22	60727.54
573.38	60807.12
573.55	60729.88
573.71	60886.70
573.87	60884.36
574.03	60612.85
574.20	60809.46
574.36	60552.00
574.52	60856.27
574.68	60870.31
574.84	60973.30
575.01	60800.10
575.17	60776.69
575.33	60615.19
575.49	60713.50
575.65	60800.10
575.82	61010.74
575.98	60828.18
576.14	60867.97
576.30	61001.38
576.46	60804.78
576.62	60800.10
576.79	60636.26
576.95	60750.94
577.11	60924.14
577.27	60949.89
577.43	60985.00
577.59	60657.32
577.75	60795.42
577.92	60889.04
578.08	60776.69
578.24	61027.13
578.40	61125.43
578.56	61190.97
578.72	60886.70
578.88	61048.19
579.04	61123.09
579.21	61092.66
579.37	61127.77
579.53	61162.88
579.69	60694.77
579.85	60872.65
580.01	60905.42
580.17	60832.86
580.33	61073.94
580.49	61095.00
580.65	60910.10
580.82	60870.31
580.98	61034.15
581.14	60921.80
581.30	61069.26
581.46	61172.24
581.62	60933.51
581.78	61059.90
581.94	61169.90
582.10	60973.30
582.26	61031.81
582.42	60959.25
582.58	61038.83
582.74	61022.45
582.90	60851.59
583.06	61006.06
583.22	61003.72
583.38	61158.20
583.54	61029.47
583.70	60970.96
583.86	61022.45
584.02	61024.79
584.18	61235.44
584.34	61183.94
584.50	61020.11
584.66	60996.70
584.82	60795.42
584.98	61197.99
585.14	61165.22
585.30	61258.84
585.46	61113.73
585.62	61291.61
585.78	61293.95
585.94	61116.07
586.10	61160.54
586.26	61275.22
586.42	61219.05
586.58	61207.35
586.74	61151.18
586.90	61022.45
587.06	60985.00
587.22	61300.97
587.38	61207.35
587.54	61296.29
587.70	61441.40
587.86	61268.20
588.02	61289.27
588.18	61272.88
588.34	61123.09
588.49	61024.79
