SpectraSuite Data File
++++++++++++++++++++++++++++++++++++
Date: Fri Oct 25 11:33:34 EDT 2013
User: price-jones
Dark Spectrum Present: No
Reference Spectrum Present: No
Number of Sampled Component Spectra: 1
Spectrometers: USB2+H05261
Integration Time (usec): 100000 (USB2+H05261)
Spectra Averaged: 1 (USB2+H05261)
Boxcar Smoothing: 0 (USB2+H05261)
Correct for Electrical Dark: No (USB2+H05261)
Strobe/Lamp Enabled: No (USB2+H05261)
Correct for Detector Non-linearity: No (USB2+H05261)
Correct for Stray Light: No (USB2+H05261)
Number of Pixels in Processed Spectrum: 2048
>>>>>Begin Processed Spectral Data<<<<<
365.73	262.14
365.92	262.14
366.12	262.14
366.32	154.48
366.52	215.33
366.72	210.65
366.91	175.54
367.11	149.79
367.31	159.16
367.51	236.39
367.70	88.94
367.90	184.90
368.10	191.92
368.30	189.58
368.49	229.37
368.69	180.22
368.89	210.65
369.09	189.58
369.28	189.58
369.48	189.58
369.68	325.33
369.87	168.52
370.07	248.10
370.27	245.76
370.47	262.14
370.66	503.22
370.86	545.34
371.06	540.66
371.25	585.13
371.45	503.22
371.65	552.37
371.84	538.32
372.04	559.39
372.24	552.37
372.44	564.07
372.63	582.79
372.83	587.47
373.03	660.03
373.22	580.45
373.42	608.54
373.62	655.35
373.81	676.41
374.01	730.25
374.21	641.31
374.40	608.54
374.60	610.88
374.79	667.05
374.99	620.24
375.19	697.48
375.38	615.56
375.58	638.97
375.78	650.67
375.97	669.39
376.17	798.12
376.37	667.05
376.56	678.76
376.76	748.97
376.95	667.05
377.15	840.25
377.35	674.07
377.54	655.35
377.74	695.14
377.93	648.33
378.13	683.44
378.33	734.93
378.52	807.48
378.72	702.16
378.91	695.14
379.11	730.25
379.31	697.48
379.50	669.39
379.70	770.04
379.89	669.39
380.09	704.50
380.28	711.52
380.48	730.25
380.68	793.44
380.87	753.65
381.07	786.42
381.26	793.44
381.46	725.57
381.65	823.87
381.85	765.36
382.04	765.36
382.24	781.74
382.43	760.67
382.63	795.78
382.83	767.70
383.02	795.78
383.22	826.21
383.41	802.80
383.61	781.74
383.80	823.87
384.00	814.51
384.19	812.17
384.39	765.36
384.58	819.19
384.78	781.74
384.97	847.27
385.17	814.51
385.36	844.93
385.56	840.25
385.75	833.23
385.95	851.96
386.14	915.15
386.34	816.85
386.53	847.27
386.72	849.61
386.92	882.38
387.11	861.32
387.31	880.04
387.50	868.34
387.70	807.48
387.89	889.40
388.09	910.47
388.28	898.77
388.48	858.98
388.67	922.17
388.86	882.38
389.06	971.32
389.25	926.85
389.45	947.92
389.64	917.49
389.84	1057.92
390.03	952.60
390.22	976.00
390.42	889.40
390.61	1004.09
390.81	999.41
391.00	957.28
391.19	959.62
391.39	987.71
391.58	1008.77
391.78	1001.75
391.97	1050.90
392.16	1018.13
392.36	1146.86
392.55	1011.11
392.75	1100.05
392.94	987.71
393.13	1043.88
393.33	1093.03
393.52	1153.88
393.71	1153.88
393.91	1046.22
394.10	992.39
394.29	1046.22
394.49	1022.81
394.68	1170.27
394.88	1160.91
395.07	1167.93
395.26	1137.50
395.46	1179.63
395.65	1074.31
395.84	1102.39
396.04	1226.44
396.23	1156.22
396.42	1179.63
396.62	1170.27
396.81	1277.93
397.00	1336.45
397.19	1214.74
397.39	1263.89
397.58	1167.93
397.77	1231.12
397.97	1245.16
398.16	1284.95
398.35	1313.04
398.55	1219.42
398.74	1233.46
398.93	1277.93
399.12	1259.21
399.32	1317.72
399.51	1303.68
399.70	1380.92
399.90	1387.94
400.09	1315.38
400.28	1345.81
400.47	1385.60
400.67	1423.05
400.86	1451.13
401.05	1455.81
401.24	1544.75
401.44	1416.02
401.63	1474.54
401.82	1500.28
402.01	1483.90
402.21	1404.32
402.40	1591.56
402.59	1516.67
402.78	1467.52
402.97	1444.11
403.17	1474.54
403.36	1561.14
403.55	1626.67
403.74	1671.14
403.93	1483.90
404.13	1579.86
404.32	1523.69
404.51	1584.54
404.70	1575.18
404.89	1636.03
405.09	1699.23
405.28	1692.21
405.47	1607.95
405.66	1675.82
405.85	1760.08
406.05	1666.46
406.24	1743.70
406.43	1746.04
406.62	1764.76
406.81	1788.17
407.00	1722.63
407.20	1764.76
407.39	1706.25
407.58	1881.79
407.77	1851.36
407.96	1872.43
408.15	1886.47
408.34	1804.55
408.54	1884.13
408.73	1895.83
408.92	1959.03
409.11	1968.39
409.30	1949.67
409.49	1935.62
409.68	2052.65
409.87	2010.52
410.07	2111.16
410.26	2022.22
410.45	2101.80
410.64	1970.73
410.83	2155.63
411.02	2218.83
411.21	2249.25
411.40	2209.47
411.59	2232.87
411.78	2216.49
411.98	2230.53
412.17	2237.55
412.36	2242.23
412.55	2230.53
412.74	2347.56
412.93	2392.03
413.12	2340.54
413.31	2385.01
413.50	2401.39
413.69	2345.22
413.88	2459.90
414.07	2452.88
414.26	2443.52
414.45	2506.71
414.64	2600.34
414.83	2532.46
415.02	2581.61
415.22	2670.55
415.41	2663.53
415.60	2738.43
415.79	2644.81
415.98	2722.04
416.17	2761.83
416.36	2736.09
416.55	2771.19
416.74	2738.43
416.93	2775.88
417.12	2796.94
417.31	2853.11
417.50	2913.97
417.69	2867.16
417.88	3026.31
418.07	2991.20
418.26	2909.29
418.45	2979.50
418.64	3124.62
418.83	2925.67
419.02	3042.70
419.21	2979.50
419.39	3206.53
419.58	3141.00
419.77	3047.38
419.96	3138.66
420.15	3346.97
420.34	3129.30
420.53	3166.74
420.72	3201.85
420.91	3133.98
421.10	3328.24
421.29	3267.39
421.48	3328.24
421.67	3332.92
421.86	3258.03
422.05	3253.34
422.24	3262.71
422.43	3302.50
422.61	3356.33
422.80	3403.14
422.99	3377.39
423.18	3304.84
423.37	3365.69
423.56	3431.23
423.75	3419.52
423.94	3368.03
424.13	3204.19
424.32	3309.52
424.50	3471.01
424.69	3449.95
424.88	3393.78
425.07	3417.18
425.26	3445.27
425.45	3461.65
425.64	3368.03
425.83	3405.48
426.01	3515.48
426.20	3527.19
426.39	3412.50
426.58	3417.18
426.77	3454.63
426.96	3471.01
427.15	3590.38
427.33	3592.72
427.52	3592.72
427.71	3566.98
427.90	3686.34
428.09	3653.58
428.28	3655.92
428.46	3681.66
428.65	3733.15
428.84	3672.30
429.03	3908.69
429.22	3686.34
429.40	3761.24
429.59	3765.92
429.78	3705.07
429.97	3662.94
430.16	3873.59
430.34	3906.35
430.53	3789.33
430.72	3981.25
430.91	3859.54
431.10	3801.03
431.28	3864.22
431.47	3978.91
431.66	3957.85
431.85	4009.34
432.03	4063.17
432.22	4142.75
432.41	4163.81
432.60	4149.77
432.79	3913.38
432.97	3983.59
433.16	4105.30
433.35	3934.44
433.54	4056.15
433.72	4236.37
433.91	4170.83
434.10	4203.60
434.28	4313.61
434.47	4217.65
434.66	4170.83
434.85	4533.62
435.03	4299.56
435.22	4266.80
435.41	4542.98
435.59	4313.61
435.78	4440.00
435.97	4383.82
436.16	4404.89
436.34	4484.47
436.53	4425.95
436.72	4512.55
436.90	4425.95
437.09	4489.15
437.28	4425.95
437.46	4620.22
437.65	4517.23
437.84	4613.20
438.02	4631.92
438.21	4608.51
438.40	4542.98
438.58	4533.62
438.77	4669.37
438.96	4770.01
439.14	4767.67
439.33	4709.16
439.52	4910.44
439.70	4894.06
439.89	4931.51
440.08	4973.64
440.26	5167.90
440.45	5083.64
440.63	5046.20
440.82	5097.69
441.01	5273.23
441.19	5174.92
441.38	5132.79
441.57	5254.50
441.75	5259.18
441.94	5343.44
442.12	5282.59
442.31	5493.24
442.50	5423.02
442.68	5380.89
442.87	5479.19
443.05	5425.36
443.24	5530.69
443.43	5497.92
443.61	5528.35
443.80	5785.80
443.98	5458.13
444.17	5488.56
444.35	5619.63
444.54	5743.67
444.73	5633.67
444.91	5640.69
445.10	5502.60
445.28	5675.80
445.47	5575.16
445.65	5673.46
445.84	5926.24
446.02	5764.74
446.21	5703.89
446.39	5738.99
446.58	5746.02
446.77	5856.02
446.95	5528.35
447.14	5811.55
447.32	5792.83
447.51	5717.93
447.69	5696.86
447.88	5792.83
448.06	5715.59
448.25	5743.67
448.43	5769.42
448.62	5907.51
448.80	5661.76
448.99	5799.85
449.17	5949.64
449.36	5968.37
449.54	5944.96
449.73	5921.56
449.91	6267.95
450.10	6092.41
450.28	6202.42
450.46	6291.36
450.65	6040.92
450.83	6134.54
451.02	6265.61
451.20	6387.32
451.39	6193.06
451.57	6148.59
451.76	6078.37
451.94	6171.99
452.13	6296.04
452.31	6242.21
452.49	6195.40
452.68	6443.49
452.86	6321.79
453.05	6171.99
453.23	6387.32
453.42	6314.77
453.60	6333.49
453.78	6487.96
453.97	6417.75
454.15	6326.47
454.34	6225.82
454.52	6544.14
454.70	6487.96
454.89	6502.01
455.07	6642.44
455.26	6406.05
455.44	6604.99
455.62	6717.34
455.81	6815.64
455.99	6717.34
456.17	6675.21
456.36	6731.38
456.54	6869.47
456.73	6817.98
456.91	7129.27
457.09	7002.88
457.28	7075.44
457.46	7052.03
457.64	7035.65
457.83	7012.24
458.01	7014.59
458.19	7213.53
458.38	7143.32
458.56	7241.62
458.74	7136.29
458.93	7208.85
459.11	7143.32
459.29	7173.74
459.48	7302.47
459.66	7211.19
459.84	7332.90
460.03	7405.46
460.21	7311.83
460.39	7421.84
460.57	7342.26
460.76	7302.47
460.94	7311.83
461.12	7581.00
461.31	7372.69
461.49	7545.89
461.67	7449.93
461.85	7672.28
462.04	7501.42
462.22	8037.40
462.40	7691.00
462.59	7770.58
462.77	7707.38
462.95	7805.69
463.13	7779.94
463.32	7735.47
463.50	7826.75
463.68	7981.23
463.86	7892.29
464.05	7812.71
464.23	7866.54
464.41	7957.82
464.59	7815.05
464.78	8002.29
464.96	8016.33
465.14	8009.31
465.32	7955.48
465.50	8074.85
465.69	8102.93
465.87	8100.59
466.05	8128.68
466.23	8044.42
466.41	8297.20
466.60	8224.64
466.78	8009.31
466.96	8353.37
467.14	8116.98
467.32	8435.29
467.51	8416.57
467.69	8215.28
467.87	8217.62
468.05	8360.39
468.23	8456.36
468.41	8351.03
468.60	8557.00
468.78	8587.43
468.96	8484.44
469.14	8507.85
469.32	8561.68
469.50	8465.72
469.69	8580.40
469.87	8521.89
470.05	8667.00
470.23	8828.50
470.41	8739.56
470.59	8901.06
470.77	8795.73
470.95	8805.10
471.14	9109.36
471.32	8903.40
471.50	9083.62
471.68	9174.90
471.86	9121.07
472.04	9025.11
472.22	9289.59
472.40	9167.88
472.58	9137.45
472.77	9465.13
472.95	9345.76
473.13	9610.24
473.31	9137.45
473.49	9472.15
473.67	9383.21
473.85	9425.34
474.03	9643.01
474.21	9605.56
474.39	9891.10
474.57	9734.29
474.75	9933.23
474.93	9970.68
475.12	9851.31
475.30	9944.94
475.48	10026.86
475.66	9991.75
475.84	10029.20
476.02	10317.08
476.20	10146.22
476.38	10457.51
476.56	10511.35
476.74	10567.52
476.92	10576.88
477.10	10450.49
477.28	10607.31
477.46	10532.41
477.64	10789.87
477.82	10892.85
478.00	11105.84
478.18	11112.86
478.36	11133.93
478.54	11276.70
478.72	11346.92
478.90	11534.16
479.08	11606.72
479.26	11550.54
479.44	11552.88
479.62	11714.38
479.80	11705.02
479.98	12276.11
480.16	12198.87
480.34	12051.42
480.52	12259.73
480.70	12346.33
480.88	12025.67
481.06	12449.31
481.24	12514.84
481.41	12767.62
481.59	12746.56
481.77	12767.62
481.95	12828.48
482.13	12964.23
482.31	13015.72
482.49	13305.95
482.67	13266.16
482.85	13357.44
483.03	13600.85
483.21	13827.88
483.39	13563.40
483.57	13591.49
483.74	14015.13
483.92	13919.17
484.10	13942.57
484.28	14398.98
484.46	14300.67
484.64	14593.24
484.82	14813.25
485.00	14750.06
485.18	14965.39
485.35	15133.90
485.53	14927.94
485.71	15080.07
485.89	15545.84
486.07	15059.01
486.25	15349.23
486.43	15587.97
486.61	15840.75
486.78	15887.56
486.96	15892.24
487.14	16042.03
487.32	16166.08
487.50	16329.92
487.68	16503.12
487.85	16360.34
488.03	16676.32
488.21	17020.38
488.39	16971.22
488.57	17193.58
488.75	17266.13
488.92	17528.27
489.10	17469.76
489.28	17816.16
489.46	17680.41
489.64	17879.35
489.81	18015.10
489.99	18113.41
490.17	18305.33
490.35	18420.02
490.53	18558.11
490.70	18801.52
490.88	18637.69
491.06	18874.08
491.24	18981.74
491.41	19035.58
491.59	18972.38
491.77	18693.86
491.95	19566.88
492.13	19585.60
492.30	19555.18
492.48	19447.51
492.66	19768.16
492.84	19943.70
493.01	19988.18
493.19	20156.69
493.37	20264.36
493.54	20746.51
493.72	20870.56
493.90	20664.59
494.08	20765.23
494.25	20795.66
494.43	20915.03
494.61	20940.77
494.79	21029.71
494.96	21364.41
495.14	21493.14
495.32	21809.11
495.49	21809.11
495.67	21820.81
495.85	22043.17
496.02	22260.84
496.20	22459.78
496.38	22309.99
496.55	22352.12
496.73	22813.20
496.91	22883.42
497.09	22955.97
497.26	22895.12
497.44	22747.67
497.62	23152.58
497.79	23318.76
497.97	23459.19
498.14	23543.45
498.32	23424.08
498.50	23679.20
498.67	23988.15
498.85	24025.60
499.03	23915.59
499.20	24311.14
499.38	24432.85
499.56	24404.77
499.73	24467.96
499.91	24444.56
500.08	24807.34
500.26	24858.83
500.44	24643.50
500.61	24966.49
500.79	24816.70
500.97	25062.46
501.14	25020.33
501.32	25125.65
501.49	25415.88
501.67	25404.17
501.84	25834.83
502.02	25343.32
502.20	25612.48
502.37	25558.65
502.55	25654.61
502.72	25888.67
502.90	25965.90
503.07	25708.44
503.25	26288.90
503.43	26160.17
503.60	26761.69
503.78	26415.29
503.95	26237.41
504.13	26579.12
504.30	26644.66
504.48	26803.82
504.65	26721.90
504.83	26918.50
505.01	27325.75
505.18	27070.64
505.36	27407.67
505.53	27049.57
505.71	27309.37
505.88	27353.84
506.06	27316.39
506.23	27718.96
506.41	27461.51
506.58	27775.14
506.76	27910.89
506.93	28191.75
507.11	27711.94
507.28	28013.87
507.46	28414.10
507.63	28418.78
507.81	28865.83
507.98	28128.56
508.16	28456.23
508.33	28575.60
508.50	28678.58
508.68	28943.06
508.85	28858.81
509.03	28723.05
509.20	29060.09
509.38	29165.42
509.55	29294.14
509.73	29411.17
509.90	29481.39
510.08	29280.10
510.25	29308.19
510.42	29624.16
510.60	30008.01
510.77	29706.08
510.95	29788.00
511.12	29886.30
511.30	29912.05
511.47	30253.76
511.64	30209.29
511.82	30565.06
511.99	30448.03
512.17	30555.69
512.34	30508.88
512.51	30691.44
512.69	31063.59
512.86	30492.50
513.04	31150.19
513.21	30733.57
513.38	31143.17
513.56	31129.12
513.73	30906.77
513.90	31051.89
514.08	30991.03
514.25	31562.12
514.43	31445.10
514.60	31440.42
514.77	31824.26
514.95	31943.63
515.12	31545.74
515.29	31704.90
515.47	31868.73
515.64	32009.17
515.81	31962.36
515.99	31950.65
516.16	31957.67
516.33	32510.04
516.51	32219.81
516.68	32411.74
516.85	32823.67
517.03	32701.96
517.20	32697.28
517.37	32748.78
517.54	32926.66
517.72	32741.75
517.89	32828.35
518.06	33242.63
518.24	32940.70
518.41	33132.62
518.58	32975.81
518.75	32673.88
518.93	32903.25
519.10	32987.51
519.27	33546.90
519.45	33350.29
519.62	34029.05
519.79	33472.00
519.96	33654.56
520.14	34066.50
520.31	33968.19
520.48	33741.16
520.65	33986.92
520.83	34525.24
521.00	34408.22
521.17	34192.89
521.34	34075.86
521.52	34817.81
521.69	34452.69
521.86	34590.78
522.03	34771.00
522.20	34703.12
522.38	34925.47
522.55	35056.54
522.72	34962.92
522.89	34944.20
523.07	35381.88
523.24	34930.16
523.41	35175.91
523.58	34813.13
523.75	35658.06
523.92	35346.77
524.10	35482.52
524.27	35751.68
524.44	35789.13
524.61	35784.45
524.78	35784.45
524.96	35974.03
525.13	35948.29
525.30	35885.09
525.47	36268.94
525.64	36229.15
525.81	36238.51
525.98	36259.58
526.16	36121.49
526.33	36086.38
526.50	36678.54
526.67	36137.87
526.84	36802.58
527.01	36638.75
527.18	36683.22
527.36	36940.68
527.53	36790.88
527.70	37113.87
527.87	37099.83
528.04	37069.40
528.21	37235.58
528.38	37116.22
528.55	37762.20
528.72	37542.19
528.89	37237.92
529.07	36945.36
529.24	37340.91
529.41	37298.78
529.58	37471.98
529.75	37429.85
529.92	37626.45
530.09	37837.10
530.26	37481.34
530.43	37471.98
530.60	37230.90
530.77	37516.45
530.94	37736.46
531.11	37993.92
531.28	38064.13
531.46	38136.69
531.63	38029.02
531.80	38057.11
531.97	38249.03
532.14	38672.67
532.31	38204.56
532.48	38480.75
532.65	38864.60
532.82	38223.29
532.99	38485.43
533.16	38466.70
533.33	38717.14
533.50	38986.30
533.67	38775.66
533.84	38693.74
534.01	38752.25
534.18	38937.15
534.35	39573.78
534.52	39131.42
534.69	39423.98
534.86	39337.38
535.03	39239.08
535.20	39171.21
535.37	39590.16
535.54	39454.41
535.71	38965.24
535.88	39323.34
536.05	39372.49
536.22	39459.09
536.38	39456.75
536.55	39667.40
536.72	39920.18
536.89	39854.64
537.06	39749.32
537.23	40025.50
537.40	39742.30
537.57	39643.99
537.74	39482.50
537.91	40123.80
538.08	40067.63
538.25	39655.70
538.42	40238.49
538.59	40751.07
538.75	40044.23
538.92	40453.82
539.09	40730.00
539.26	40509.99
539.43	40322.75
539.60	40900.86
539.77	40737.02
539.94	40636.38
540.11	40966.40
540.28	41048.32
540.44	40720.64
540.61	40622.34
540.78	40744.05
540.95	40926.61
541.12	41167.68
541.29	40964.06
541.46	41275.35
541.62	40968.74
541.79	41240.24
541.96	40542.76
542.13	40959.38
542.30	41083.42
542.47	41397.06
542.63	41263.64
542.80	41921.34
542.97	41691.96
543.14	42117.94
543.31	41734.09
543.48	41769.20
543.64	42307.52
543.81	41881.55
543.98	42227.95
544.15	42064.11
544.32	42370.72
544.48	42340.29
544.65	42354.33
544.82	42216.24
544.99	41806.65
545.16	42307.52
545.32	42445.62
545.49	42693.71
545.66	42539.24
545.83	42211.56
546.00	42412.85
546.16	42368.38
546.33	42153.05
546.50	42897.34
546.67	42637.54
546.83	42183.48
547.00	42494.77
547.17	42401.14
547.34	42712.44
547.50	42869.25
547.67	42813.08
547.84	42969.90
548.00	43133.73
548.17	43550.35
548.34	43079.90
548.51	43182.88
548.67	42974.58
548.84	43070.54
549.01	43133.73
549.18	43325.66
549.34	43082.24
549.51	43601.84
549.68	43456.73
549.84	43739.93
550.01	43562.05
550.18	43150.12
550.34	43704.82
550.51	43798.44
550.68	44098.03
550.84	43133.73
551.01	43995.05
551.18	43377.15
551.34	43981.01
551.51	43880.36
551.68	43639.29
551.84	43796.10
552.01	43819.51
552.18	43833.55
552.34	44002.07
552.51	43852.28
552.68	43583.12
552.84	44081.65
553.01	44168.25
553.18	44079.31
553.34	44311.02
553.51	44140.16
553.67	44491.24
553.84	44601.25
554.01	44531.03
554.17	44505.29
554.34	44334.43
554.51	44624.65
554.67	44325.07
554.84	44737.00
555.00	44772.11
555.17	44287.62
555.33	44903.18
555.50	44472.52
555.67	44505.29
555.83	44210.38
556.00	44734.66
556.16	45315.11
556.33	45200.43
556.50	44540.39
556.66	44690.19
556.83	44868.07
556.99	45263.62
557.16	45287.03
557.32	45029.57
557.49	45373.63
557.65	44861.05
557.82	44940.63
557.98	45563.21
558.15	45319.79
558.32	45478.95
558.48	44856.37
558.65	45102.12
558.81	45148.93
558.98	45258.94
559.14	45263.62
559.31	44917.22
559.47	45106.80
559.64	45453.20
559.80	45158.30
559.97	45443.84
560.13	45364.26
560.30	45839.39
560.46	45837.05
560.63	45581.93
560.79	45322.13
560.96	45638.11
561.12	45750.45
561.29	45652.15
561.45	45916.63
561.61	45539.80
561.78	45427.46
561.94	45748.11
562.11	45682.58
562.27	45869.82
562.44	45963.44
562.60	45975.14
562.77	45844.07
562.93	45727.05
563.10	45979.82
563.26	45659.17
563.42	46679.64
563.59	45909.61
563.75	45808.96
563.92	45551.51
564.08	46153.02
564.24	46199.83
564.41	45928.33
564.57	46122.60
564.74	46096.85
564.90	46075.79
565.07	46230.26
565.23	45743.43
565.39	46162.39
565.56	46256.01
565.72	46358.99
565.88	46122.60
566.05	46337.93
566.21	46288.77
566.38	45921.31
566.54	46518.15
566.70	46003.23
566.87	46527.51
567.03	46452.61
567.19	46478.36
567.36	46237.28
567.52	46274.73
567.68	46752.20
567.85	46562.62
568.01	46461.97
568.17	46134.30
568.34	46492.40
568.50	46698.37
568.66	45766.84
568.83	46368.35
568.99	46368.35
569.15	46436.23
569.32	46349.63
569.48	46417.50
569.64	46595.38
569.81	46536.87
569.97	46602.41
570.13	46728.80
570.30	46164.73
570.46	46553.26
570.62	46436.23
570.78	46492.40
570.95	46181.11
571.11	46459.63
571.27	46726.46
571.43	46487.72
571.60	46871.57
571.76	46735.82
571.92	46197.49
572.09	46541.55
572.25	46483.04
572.41	46412.82
572.57	46665.60
572.74	47320.95
572.90	46550.91
573.06	46913.70
573.22	46878.59
573.38	46913.70
573.55	46869.23
573.71	47302.23
573.87	47026.04
574.03	46536.87
574.20	47058.81
574.36	46674.96
574.52	46997.96
574.68	46941.78
574.84	46808.37
575.01	47164.14
575.17	47096.26
575.33	46794.33
575.49	46803.69
575.65	47189.88
575.82	47217.97
575.98	46930.08
576.14	47019.02
576.30	47145.41
576.46	47016.68
576.62	47028.38
576.79	46815.40
576.95	46649.22
577.11	46485.38
577.27	47194.56
577.43	47182.86
577.59	47152.43
577.75	47126.69
577.92	46962.85
578.08	46981.57
578.24	46930.08
578.40	47171.16
578.56	47386.49
578.72	47391.17
578.88	47297.55
579.04	46852.84
579.21	47182.86
579.37	47463.72
579.53	47402.87
579.69	46850.50
579.85	47096.26
580.01	47309.25
580.17	47143.07
580.33	47491.81
580.49	47138.39
580.65	46857.52
580.82	47189.88
580.98	47217.97
581.14	46794.33
581.30	47215.63
581.46	47461.38
581.62	47016.68
581.78	46962.85
581.94	47402.87
582.10	47213.29
582.26	47540.96
582.42	46925.40
582.58	47096.26
582.74	47283.50
582.90	47224.99
583.06	47152.43
583.22	47030.72
583.38	47496.49
583.54	47288.18
583.70	47398.19
583.86	47363.08
584.02	47070.51
584.18	47690.76
584.34	47484.79
584.50	48025.45
584.66	47482.45
584.82	47786.72
584.98	47693.10
585.14	47470.75
585.30	47334.99
585.46	47337.33
585.62	47267.12
585.78	47419.25
585.94	47278.82
586.10	47398.19
586.26	47122.01
586.42	47124.35
586.58	47374.78
586.74	47440.32
586.90	47606.50
587.06	47227.33
587.22	47585.43
587.38	47543.30
587.54	47908.43
587.70	47765.65
587.86	47412.23
588.02	47349.04
588.18	47709.48
588.34	47512.88
588.49	47622.88
588.65	47365.42
588.81	47615.86
588.97	47686.07
589.13	47597.13
589.29	47555.00
589.45	47672.03
589.61	47426.28
589.77	47749.27
589.93	47657.99
590.08	47676.71
