SpectraSuite Data File
++++++++++++++++++++++++++++++++++++
Date: Fri Oct 25 11:22:52 EDT 2013
User: price-jones
Dark Spectrum Present: No
Reference Spectrum Present: No
Number of Sampled Component Spectra: 1
Spectrometers: USB2+H05261
Integration Time (usec): 100000 (USB2+H05261)
Spectra Averaged: 1 (USB2+H05261)
Boxcar Smoothing: 0 (USB2+H05261)
Correct for Electrical Dark: No (USB2+H05261)
Strobe/Lamp Enabled: No (USB2+H05261)
Correct for Detector Non-linearity: No (USB2+H05261)
Correct for Stray Light: No (USB2+H05261)
Number of Pixels in Processed Spectrum: 2048
>>>>>Begin Processed Spectral Data<<<<<
365.73	238.73
365.92	238.73
366.12	238.73
366.32	142.77
366.52	95.96
366.72	173.20
366.91	93.62
367.11	102.98
367.31	58.51
367.51	46.81
367.70	100.64
367.90	95.96
368.10	166.18
368.30	72.56
368.49	121.71
368.69	114.69
368.89	112.35
369.09	182.56
369.28	154.48
369.48	140.43
369.68	152.13
369.87	182.56
370.07	131.07
370.27	264.48
370.47	315.97
370.66	634.29
370.86	636.63
371.06	641.31
371.25	704.50
371.45	601.52
371.65	667.05
371.84	660.03
372.04	662.37
372.24	674.07
372.44	688.12
372.63	582.79
372.83	730.25
373.03	788.76
373.22	716.20
373.42	849.61
373.62	744.29
373.81	774.72
374.01	723.23
374.21	725.57
374.40	835.57
374.60	840.25
374.79	772.38
374.99	788.76
375.19	842.59
375.38	763.01
375.58	856.64
375.78	910.47
375.97	880.04
376.17	924.51
376.37	901.11
376.56	858.98
376.76	898.77
376.95	800.46
377.15	858.98
377.35	901.11
377.54	945.58
377.74	896.43
377.93	954.94
378.13	896.43
378.33	987.71
378.52	980.68
378.72	1078.99
378.91	973.66
379.11	1022.81
379.31	945.58
379.50	898.77
379.70	901.11
379.89	1036.86
380.09	971.32
380.28	947.92
380.48	950.26
380.68	983.02
380.87	936.21
381.07	968.98
381.26	1027.50
381.46	994.73
381.65	945.58
381.85	1057.92
382.04	1034.52
382.24	1039.20
382.43	1022.81
382.63	1043.88
382.83	1109.41
383.02	1041.54
383.22	1163.25
383.41	1086.01
383.61	1116.44
383.80	1111.75
384.00	1142.18
384.19	1067.28
384.39	1114.10
384.58	1135.16
384.78	1114.10
384.97	1109.41
385.17	1095.37
385.36	1132.82
385.56	1102.39
385.75	1137.50
385.95	1149.20
386.14	1160.91
386.34	1104.73
386.53	1214.74
386.72	1198.35
386.92	1291.98
387.11	1306.02
387.31	1240.48
387.50	1167.93
387.70	1240.48
387.89	1198.35
388.09	1336.45
388.28	1320.06
388.48	1350.49
388.67	1329.42
388.86	1315.38
389.06	1364.53
389.25	1385.60
389.45	1378.58
389.64	1310.70
389.84	1369.21
390.03	1369.21
390.22	1357.51
390.42	1430.07
390.61	1268.57
390.81	1364.53
391.00	1441.77
391.19	1467.52
391.39	1394.96
391.58	1460.49
391.78	1558.80
391.97	1519.01
392.16	1432.41
392.36	1544.75
392.55	1439.43
392.75	1558.80
392.94	1579.86
393.13	1593.90
393.33	1380.92
393.52	1481.56
393.71	1523.69
393.91	1643.06
394.10	1563.48
394.29	1572.84
394.49	1540.07
394.68	1614.97
394.88	1619.65
395.07	1645.40
395.26	1654.76
395.46	1593.90
395.65	1645.40
395.84	1760.08
396.04	1778.81
396.23	1701.57
396.42	1750.72
396.62	1769.44
396.81	1762.42
397.00	1809.23
397.19	1849.02
397.39	1879.45
397.58	1923.92
397.77	1816.26
397.97	1909.88
398.16	1851.36
398.35	1888.81
398.55	1846.68
398.74	1954.35
398.93	2005.84
399.12	1937.96
399.32	1870.09
399.51	1898.17
399.70	2019.88
399.90	1975.41
400.09	1959.03
400.28	2106.48
400.47	2134.57
400.67	2083.08
400.86	1966.05
401.05	2050.31
401.24	2076.06
401.44	2104.14
401.63	2181.38
401.82	2176.70
402.01	2143.93
402.21	2275.00
402.40	2225.85
402.59	2291.38
402.78	2160.31
402.97	2139.25
403.17	2303.09
403.36	2139.25
403.55	2153.29
403.74	2310.11
403.93	2260.96
404.13	2338.20
404.32	2298.41
404.51	2319.47
404.70	2300.75
404.89	2356.92
405.09	2560.55
405.28	2569.91
405.47	2527.78
405.66	2513.74
405.85	2527.78
406.05	2471.61
406.24	2492.67
406.43	2516.08
406.62	2612.04
406.81	2768.85
407.00	2616.72
407.20	2586.29
407.39	2513.74
407.58	2555.86
407.77	2782.90
407.96	2740.77
408.15	2693.96
408.34	2722.04
408.54	2700.98
408.73	2740.77
408.92	2836.73
409.11	2818.00
409.30	2855.45
409.49	2895.24
409.68	3014.61
409.87	2998.23
410.07	2993.55
410.26	3063.76
410.45	3091.85
410.64	3045.04
410.83	3105.89
411.02	3066.10
411.21	3288.45
411.40	3094.19
411.59	3201.85
411.78	3098.87
411.98	3393.78
412.17	3173.77
412.36	3353.99
412.55	3342.28
412.74	3478.04
412.93	3412.50
413.12	3386.76
413.31	3592.72
413.50	3545.91
413.69	3653.58
413.88	3604.42
414.07	3534.21
414.26	3569.32
414.45	3623.15
414.64	3602.08
414.83	3723.79
415.02	3742.52
415.22	3702.73
415.41	3803.37
415.60	3805.71
415.79	3889.97
415.98	3925.08
416.17	4053.81
416.36	4030.40
416.55	4093.60
416.74	4175.52
416.93	4070.19
417.12	4159.13
417.31	4152.11
417.50	4084.23
417.69	4248.07
417.88	4257.43
418.07	4278.50
418.26	4271.48
418.45	4421.27
418.64	4395.53
418.83	4414.25
419.02	4507.87
419.21	4561.70
419.39	4571.07
419.58	4475.10
419.77	4421.27
419.96	4589.79
420.15	4720.86
420.34	4655.33
420.53	4697.46
420.72	4552.34
420.91	4648.30
421.10	4784.06
421.29	4779.37
421.48	4828.53
421.67	4830.87
421.86	4692.77
422.05	4746.61
422.24	4875.34
422.43	4891.72
422.61	4865.97
422.80	4990.02
422.99	4924.49
423.18	4987.68
423.37	5050.88
423.56	4912.78
423.75	4966.62
423.94	4770.01
424.13	4615.54
424.32	4805.12
424.50	4931.51
424.69	5107.05
424.88	5109.39
425.07	4952.57
425.26	4971.30
425.45	5034.49
425.64	4968.96
425.83	4975.98
426.01	5022.79
426.20	5060.24
426.39	5006.41
426.58	5055.56
426.77	4894.06
426.96	5137.48
427.15	5135.14
427.33	5174.92
427.52	5057.90
427.71	5317.70
427.90	5121.09
428.09	5430.04
428.28	5460.47
428.46	5430.04
428.65	5245.14
428.84	5596.22
429.03	5633.67
429.22	5408.98
429.40	5549.41
429.59	5540.05
429.78	5263.86
429.97	5240.46
430.16	5448.77
430.34	5589.20
430.53	5762.40
430.72	5682.82
430.91	5584.52
431.10	5603.24
431.28	5809.21
431.47	5790.49
431.66	6005.81
431.85	5650.05
432.03	5933.26
432.22	5980.07
432.41	5928.58
432.60	5837.30
432.79	5923.90
432.97	6073.69
433.16	6083.05
433.35	6015.18
433.54	6033.90
433.72	6183.70
433.91	6122.84
434.10	6263.27
434.28	6104.12
434.47	6230.51
434.66	6326.47
434.85	6244.55
435.03	6408.39
435.22	6380.30
435.41	6443.49
435.59	6420.09
435.78	6462.22
435.97	6523.07
436.16	6443.49
436.34	6328.81
436.53	6609.67
436.72	6803.94
436.90	6452.86
437.09	6581.59
437.28	6527.75
437.46	6682.23
437.65	6717.34
437.84	6705.63
438.02	6705.63
438.21	6913.94
438.40	6913.94
438.58	7066.08
438.77	7070.76
438.96	7091.82
439.14	7248.64
439.33	7133.95
439.52	7368.01
439.70	7250.98
439.89	7398.43
440.08	7482.69
440.26	7403.11
440.45	7337.58
440.63	7344.60
440.82	7581.00
441.01	7634.83
441.19	7644.19
441.38	7721.43
441.57	7775.26
441.75	7728.45
441.94	8016.33
442.12	8002.29
442.31	8091.23
442.50	8173.15
442.68	8107.62
442.87	8348.69
443.05	8152.09
443.24	8226.98
443.43	8152.09
443.61	8219.96
443.80	8269.11
443.98	8098.25
444.17	7866.54
444.35	8264.43
444.54	8451.67
444.73	8379.12
444.91	8341.67
445.10	8493.80
445.28	8376.78
445.47	8351.03
445.65	8470.40
445.84	8489.12
446.02	8641.26
446.21	8336.99
446.39	8486.78
446.58	8549.98
446.77	8482.10
446.95	8437.63
447.14	8496.14
447.32	8575.72
447.51	8688.07
447.69	8493.80
447.88	8425.93
448.06	8587.43
448.25	8568.70
448.43	8465.72
448.62	8505.51
448.80	8606.15
448.99	8641.26
449.17	8741.90
449.36	8685.73
449.54	8762.97
449.73	9020.42
449.91	9053.19
450.10	9060.21
450.28	9245.12
450.46	8961.91
450.65	9109.36
450.83	9111.71
451.02	8840.20
451.20	9359.80
451.39	9107.02
451.57	9242.78
451.76	9228.73
451.94	9195.96
452.13	9453.42
452.31	9221.71
452.49	9135.11
452.68	9336.40
452.86	9240.44
453.05	9369.16
453.23	9614.92
453.42	9310.65
453.60	9469.81
453.78	9437.04
453.97	9341.08
454.15	9692.16
454.34	9617.26
454.52	9734.29
454.70	9659.39
454.89	9809.19
455.07	9968.34
455.26	10005.79
455.44	10038.56
455.62	9832.59
455.81	9940.26
455.99	10204.74
456.17	10001.11
456.36	10214.10
456.54	10246.87
456.73	10303.04
456.91	10368.57
457.09	10497.30
457.28	10431.77
457.46	10399.00
457.64	10256.23
457.83	10427.09
458.01	10471.56
458.19	10810.93
458.38	10504.32
458.56	10654.12
458.74	10604.97
458.93	10846.04
459.11	10675.18
459.29	10757.10
459.48	10712.63
459.66	10958.39
459.84	11014.56
460.03	11049.67
460.21	11096.48
460.39	11138.61
460.57	11075.42
460.76	11199.46
460.94	11154.99
461.12	11110.52
461.31	11180.74
461.49	11150.31
461.67	11234.57
461.85	11646.51
462.04	11337.56
462.22	12044.40
462.40	11351.60
462.59	11613.74
462.77	11405.43
462.95	11487.35
463.13	11618.42
463.32	11761.19
463.50	11662.89
463.68	11866.52
463.86	12142.70
464.05	11815.02
464.23	11529.48
464.41	11950.78
464.59	12039.72
464.78	12351.01
464.96	12018.65
465.14	12058.44
465.32	12116.95
465.50	12203.55
465.69	12243.34
465.87	12154.40
466.05	12203.55
466.23	12215.26
466.41	12367.39
466.60	12634.21
466.78	12290.15
466.96	12149.72
467.14	12477.40
467.32	12383.77
467.51	12538.25
467.69	12058.44
467.87	12374.41
468.05	12870.61
468.23	12311.22
468.41	12535.91
468.60	12812.09
468.78	12926.78
468.96	12718.47
469.14	12828.48
469.32	13121.04
469.50	12795.71
469.69	12961.89
469.87	12945.50
470.05	13184.24
470.23	13305.95
470.41	13198.28
470.59	13348.08
470.77	13174.88
470.95	13327.01
471.14	13523.62
471.32	13179.56
471.50	13804.48
471.68	13724.90
471.86	13692.13
472.04	13685.11
472.22	14253.86
472.40	13919.17
472.58	14008.11
472.77	14244.50
472.95	14001.08
473.13	14668.14
473.31	14265.57
473.49	14167.26
473.67	14169.60
473.85	14281.95
474.03	14806.23
474.21	14506.64
474.39	14864.74
474.57	14932.62
474.75	14965.39
474.93	15154.97
475.12	14876.44
475.30	15147.95
475.48	14979.43
475.66	15183.06
475.84	15180.71
476.02	15522.43
476.20	15461.58
476.38	15817.34
476.56	16180.12
476.74	16154.38
476.92	15920.32
477.10	15917.98
477.28	15939.05
477.46	16320.56
477.64	16524.18
477.82	16669.30
478.00	17064.85
478.18	17118.68
478.36	16851.86
478.54	17184.21
478.72	17341.03
478.90	17462.74
479.08	17678.07
479.26	17565.72
479.44	17930.84
479.62	17649.98
479.80	17977.65
479.98	18443.42
480.16	18799.18
480.34	18401.29
480.52	18843.65
480.70	18939.62
480.88	18691.52
481.06	19021.53
481.24	18822.59
481.41	19262.61
481.59	19229.84
481.77	19342.19
481.95	19627.73
482.13	19475.60
482.31	19688.59
482.49	20128.61
482.67	20135.63
482.85	20315.85
483.03	20725.44
483.21	20900.98
483.39	21081.21
483.57	21193.55
483.74	21144.40
483.92	21476.76
484.10	21331.64
484.28	21682.72
484.46	22080.61
484.64	22515.95
484.82	22221.05
485.00	22462.12
485.18	22717.24
485.35	22764.05
485.53	23260.24
485.71	22913.84
485.89	23356.21
486.07	23480.25
486.25	23590.26
486.43	23403.02
486.61	24212.84
486.78	24311.14
486.96	24318.17
487.14	24634.14
487.32	24772.23
487.50	25025.01
487.68	25254.38
487.85	25502.48
488.03	25635.89
488.21	25921.43
488.39	26047.82
488.57	26214.00
488.75	26316.98
488.92	26705.51
489.10	26899.78
489.28	27061.27
489.46	27587.89
489.64	27185.32
489.81	27957.70
489.99	27646.41
490.17	27967.06
490.35	28416.44
490.53	28121.54
490.70	28622.41
490.88	28383.68
491.06	29078.82
491.24	29125.63
491.41	29237.97
491.59	29399.47
491.77	29273.08
491.95	29610.12
492.13	30354.41
492.30	30106.31
492.48	30162.48
492.66	30293.55
492.84	30581.44
493.01	30883.37
493.19	31166.57
493.37	31456.80
493.54	31232.11
493.72	31157.21
493.90	31215.72
494.08	32329.82
494.25	31962.36
494.43	32346.20
494.61	32678.56
494.79	32961.76
494.96	32779.20
495.14	33127.94
495.32	33427.53
495.49	33350.29
495.67	33415.83
495.85	33429.87
496.02	33727.12
496.20	34087.56
496.38	34265.44
496.55	34639.93
496.73	34983.99
496.91	34754.61
497.09	34803.77
497.26	35658.06
497.44	35409.96
497.62	35445.07
497.79	36137.87
497.97	35917.86
498.14	36301.71
498.32	36446.82
498.50	36421.08
498.67	36346.18
498.85	36727.69
499.03	37144.30
499.20	37317.50
499.38	37046.00
499.56	37549.21
499.73	37048.34
499.91	37249.63
500.08	37996.26
500.26	37689.65
500.44	38146.05
500.61	38204.56
500.79	38368.40
500.97	38436.28
501.14	39147.80
501.32	38670.33
501.49	38925.45
501.67	38906.73
501.84	39164.18
502.02	38923.11
502.20	39150.14
502.37	39634.63
502.55	39910.82
502.72	39966.99
502.90	40069.97
503.07	39707.19
503.25	40254.87
503.43	39761.02
503.60	40266.58
503.78	40664.47
503.95	40280.62
504.13	40655.11
504.30	40891.50
504.48	40795.54
504.65	41214.49
504.83	41294.07
505.01	41617.07
505.18	41289.39
505.36	41820.69
505.53	41350.24
505.71	41865.16
505.88	42440.93
506.06	41621.75
506.23	42052.41
506.41	41708.35
506.58	42550.94
506.76	42731.16
506.93	42820.10
507.11	42361.36
507.28	42923.08
507.46	43438.00
507.63	43058.84
507.81	43480.13
507.98	43030.75
508.16	43449.70
508.33	43456.73
508.50	43887.39
508.68	44121.44
508.85	44245.49
509.03	43964.62
509.20	43973.98
509.38	44828.28
509.55	44154.21
509.73	44327.41
509.90	44634.02
510.08	44617.63
510.25	44952.33
510.42	45010.84
510.60	45443.84
510.77	45195.74
510.95	45617.04
511.12	45546.82
511.30	45170.00
511.47	45319.79
511.64	45797.26
511.82	46160.05
511.99	46335.59
512.17	46174.09
512.34	46106.21
512.51	46721.77
512.69	46347.29
512.86	46576.66
513.04	46808.37
513.21	47079.88
513.38	46829.44
513.56	47276.48
513.73	46883.27
513.90	47180.52
514.08	47147.75
514.25	47449.68
514.43	47433.30
514.60	47760.97
514.77	47646.29
514.95	47807.78
515.12	47796.08
515.29	47618.20
515.47	48303.98
515.64	48467.81
515.81	47882.68
515.99	48507.60
516.16	48718.25
516.33	48540.37
516.51	49198.06
516.68	48851.66
516.85	48846.98
517.03	49172.31
517.20	49045.93
517.37	48762.72
517.54	49017.84
517.72	49406.37
517.89	49418.07
518.06	49378.28
518.24	49272.96
518.41	49432.11
518.58	50054.70
518.75	49443.82
518.93	49860.43
519.10	50010.23
519.27	49827.66
519.45	49907.24
519.62	50138.96
519.79	50398.76
519.96	50358.97
520.14	50307.47
520.31	50340.24
520.48	50576.64
520.65	50574.30
520.83	50962.82
521.00	50705.37
521.17	50696.00
521.34	51028.36
521.52	50988.57
521.69	51049.42
521.86	51250.71
522.03	51437.95
522.20	51718.82
522.38	51774.99
522.55	51632.22
522.72	51643.92
522.89	51583.07
523.07	51709.46
523.24	51576.04
523.41	51854.57
523.58	51756.27
523.75	51938.83
523.92	51819.46
524.10	52184.58
524.27	52350.76
524.44	51910.74
524.61	52502.90
524.78	52547.37
524.96	52540.35
525.13	52399.91
525.30	52533.32
525.47	52795.46
525.64	52622.26
525.81	53045.90
525.98	52992.07
526.16	52947.60
526.33	52956.96
526.50	53106.76
526.67	52711.20
526.84	53345.49
527.01	53022.50
527.18	52999.09
527.36	52938.24
527.53	53404.00
527.70	53825.30
527.87	53624.01
528.04	53469.54
528.21	53478.90
528.38	53708.27
528.55	53844.02
528.72	53825.30
528.89	53474.22
529.07	53624.01
529.24	53404.00
529.41	53914.24
529.58	53815.94
529.75	54021.90
529.92	53970.41
530.09	54028.93
530.26	53900.20
530.43	53939.99
530.60	53837.00
530.77	54052.33
530.94	54522.78
531.11	54253.62
531.28	54553.21
531.46	54569.59
531.63	54567.25
531.80	54387.03
531.97	54618.74
532.14	54876.20
532.31	54805.98
532.48	54761.51
532.65	54862.16
532.82	54649.17
532.99	54691.30
533.16	54813.01
533.33	54885.56
533.50	55334.95
533.67	55180.47
533.84	55061.10
534.01	55058.76
534.18	55145.36
534.35	55576.02
534.52	55150.04
534.69	55463.67
534.86	55480.06
535.03	55229.62
535.20	55587.72
535.37	55316.22
535.54	55618.15
535.71	55306.86
535.88	55447.29
536.05	55578.36
536.22	55683.69
536.38	55987.95
536.55	55601.77
536.72	55784.33
536.89	55770.28
537.06	55444.95
537.23	56046.47
537.40	55683.69
537.57	55866.25
537.74	55868.59
537.91	56240.73
538.08	56051.15
538.25	56123.71
538.42	56109.66
538.59	56310.95
538.75	55889.65
538.92	55980.93
539.09	56313.29
539.26	56390.53
539.43	56287.54
539.60	56446.70
539.77	56310.95
539.94	56537.98
540.11	56526.28
540.28	56671.39
540.44	56718.20
540.61	56612.88
540.78	56540.32
540.95	56779.06
541.12	56650.33
541.29	56774.37
541.46	56559.05
541.62	56865.66
541.79	56900.76
541.96	56666.71
542.13	56868.00
542.30	56739.27
542.47	57027.15
542.63	56898.42
542.80	57069.28
542.97	57296.31
543.14	57350.15
543.31	57183.97
543.48	57551.43
543.64	57689.52
543.81	57539.73
543.98	57607.61
544.15	57467.17
544.32	57581.86
544.48	57586.54
544.65	57530.37
544.82	57577.18
544.99	57249.50
545.16	57738.68
545.32	57719.95
545.49	57890.81
545.66	57989.11
545.83	57829.96
546.00	57853.36
546.16	58033.58
546.33	57907.19
546.50	57558.45
546.67	57958.69
546.83	57687.18
547.00	57949.32
547.17	57832.30
547.34	57865.06
547.50	58024.22
547.67	58129.54
547.84	57939.96
548.00	58279.34
548.17	58475.94
548.34	58248.91
548.51	58227.85
548.67	58326.15
548.84	58295.72
549.01	58113.16
549.18	58230.19
549.34	58494.67
549.51	58436.16
549.68	58560.20
549.84	58417.43
550.01	58541.48
550.18	58354.24
550.34	58803.62
550.51	58794.26
550.68	58541.48
550.84	58457.22
551.01	58927.67
551.18	58827.02
551.34	58693.61
551.51	58789.58
551.68	58782.55
551.84	58752.13
552.01	58574.25
552.18	58684.25
552.34	58756.81
552.51	58873.84
552.68	58831.71
552.84	59014.27
553.01	58850.43
553.18	59028.31
553.34	59105.55
553.51	58918.31
553.67	58805.96
553.84	59021.29
554.01	59231.94
554.17	59248.32
554.34	59145.34
554.51	59264.70
554.67	59070.44
554.84	59185.13
555.00	59201.51
555.17	59114.91
555.33	59355.99
555.50	59025.97
555.67	59157.04
555.83	59344.28
556.00	59330.24
556.16	59470.67
556.33	59480.03
556.50	59618.13
556.66	59522.16
556.83	59166.40
556.99	59730.47
557.16	59557.27
557.32	59643.87
557.49	59650.89
557.65	59299.81
557.82	59526.84
557.98	59505.78
558.15	59501.10
558.32	59746.86
558.48	59597.06
558.65	59688.34
558.81	59690.68
558.98	59636.85
559.14	59704.73
559.31	59714.09
559.47	59877.93
559.64	59828.77
559.80	59920.05
559.97	60004.31
560.13	59807.71
560.30	59941.12
560.46	59941.12
560.63	59985.59
560.79	60004.31
560.96	59908.35
561.12	59976.23
561.29	59880.27
561.45	59945.80
561.61	60009.00
561.78	59866.22
561.94	59784.30
562.11	60109.64
562.27	59877.93
562.44	60069.85
562.60	60067.51
562.77	60278.16
562.93	59983.25
563.10	60161.13
563.26	60130.70
563.42	60402.21
563.59	60371.78
563.75	60081.55
563.92	60254.75
564.08	60093.25
564.24	60264.11
564.41	60219.64
564.57	60388.16
564.74	60434.97
564.90	60416.25
565.07	60189.22
565.23	60317.95
565.39	60193.90
565.56	60404.55
565.72	60322.63
565.88	60362.42
566.05	60240.71
566.21	60119.00
566.38	60348.37
566.54	60327.31
566.70	60591.79
566.87	60591.79
567.03	60240.71
567.19	60587.11
567.36	60547.32
567.52	60303.90
567.68	60580.09
567.85	60481.78
568.01	60584.77
568.17	60526.25
568.34	60369.44
568.50	60355.39
568.66	60449.02
568.83	60530.93
568.99	60577.75
569.15	60479.44
569.32	60676.05
569.48	60441.99
569.64	60701.79
569.81	60540.30
569.97	60633.92
570.13	60444.33
570.30	60472.42
570.46	60678.39
570.62	60739.24
570.78	60720.52
570.95	60662.00
571.11	60654.98
571.27	60355.39
571.43	60669.03
571.60	60788.39
571.76	60900.74
571.92	60725.20
572.09	60673.71
572.25	60938.19
572.41	60549.66
572.57	60631.58
572.74	60832.86
572.90	60856.27
573.06	60907.76
573.22	60954.57
573.38	60704.13
573.55	60809.46
573.71	60996.70
573.87	60975.64
574.03	60640.94
574.20	60788.39
574.36	60865.63
574.52	60818.82
574.68	60970.96
574.84	60797.76
575.01	61008.40
575.17	60914.78
575.33	60828.18
575.49	61010.74
575.65	60879.67
575.82	60867.97
575.98	60891.38
576.14	61137.13
576.30	61057.56
576.46	60928.83
576.62	60879.67
576.79	60898.40
576.95	60977.98
577.11	60884.36
577.27	61024.79
577.43	60860.95
577.59	60835.20
577.75	60886.70
577.92	60877.33
578.08	60795.42
578.24	61162.88
578.40	61006.06
578.56	61146.50
578.72	61097.34
578.88	61073.94
579.04	61200.33
579.21	61045.85
579.37	61216.71
579.53	61179.26
579.69	60884.36
579.85	60987.34
580.01	61116.07
580.17	61041.17
580.33	61102.03
580.49	61048.19
580.65	60884.36
580.82	61015.43
580.98	61057.56
581.14	60793.07
581.30	61200.33
581.46	61034.15
581.62	61001.38
581.78	60975.64
581.94	60975.64
582.10	60996.70
582.26	60961.59
582.42	61078.62
582.58	60842.23
582.74	61085.64
582.90	61127.77
583.06	61162.88
583.22	61083.30
583.38	61062.24
583.54	61167.56
583.70	61244.80
583.86	61188.63
584.02	60933.51
584.18	61109.05
584.34	60975.64
584.50	61123.09
584.66	61027.13
584.82	60893.72
584.98	61076.28
585.14	61123.09
585.30	60942.87
585.46	61160.54
585.62	61256.50
585.78	61366.51
585.94	61010.74
586.10	61083.30
586.26	60999.04
586.42	61027.13
586.58	61420.34
586.74	61200.33
586.90	61223.73
587.06	61130.11
587.22	61338.42
587.38	61069.26
587.54	61251.82
587.70	61361.82
587.86	61097.34
588.02	61247.14
588.18	61446.08
588.34	61104.37
588.49	61153.52
