SpectraSuite Data File
++++++++++++++++++++++++++++++++++++
Date: Fri Oct 25 11:33:09 EDT 2013
User: price-jones
Dark Spectrum Present: No
Reference Spectrum Present: No
Number of Sampled Component Spectra: 1
Spectrometers: USB2+H05261
Integration Time (usec): 100000 (USB2+H05261)
Spectra Averaged: 1 (USB2+H05261)
Boxcar Smoothing: 0 (USB2+H05261)
Correct for Electrical Dark: No (USB2+H05261)
Strobe/Lamp Enabled: No (USB2+H05261)
Correct for Detector Non-linearity: No (USB2+H05261)
Correct for Stray Light: No (USB2+H05261)
Number of Pixels in Processed Spectrum: 2048
>>>>>Begin Processed Spectral Data<<<<<
365.73	227.03
365.92	227.03
366.12	227.03
366.32	140.43
366.52	231.71
366.72	166.18
366.91	161.50
367.11	212.99
367.31	140.43
367.51	140.43
367.70	196.60
367.90	224.69
368.10	84.26
368.30	133.41
368.49	182.56
368.69	278.52
368.89	241.08
369.09	140.43
369.28	124.05
369.48	236.39
369.68	255.12
369.87	241.08
370.07	257.46
370.27	304.27
370.47	304.27
370.66	468.11
370.86	454.06
371.06	512.58
371.25	592.16
371.45	575.77
371.65	585.13
371.84	599.18
372.04	575.77
372.24	582.79
372.44	571.09
372.63	674.07
372.83	545.34
373.03	582.79
373.22	617.90
373.42	617.90
373.62	631.94
373.81	613.22
374.01	660.03
374.21	664.71
374.40	620.24
374.60	695.14
374.79	674.07
374.99	606.20
375.19	606.20
375.38	615.56
375.58	683.44
375.78	655.35
375.97	744.29
376.17	760.67
376.37	657.69
376.56	671.73
376.76	674.07
376.95	697.48
377.15	725.57
377.35	763.01
377.54	702.16
377.74	624.92
377.93	699.82
378.13	716.20
378.33	697.48
378.52	690.46
378.72	807.48
378.91	636.63
379.11	631.94
379.31	695.14
379.50	767.70
379.70	711.52
379.89	737.27
380.09	711.52
380.28	674.07
380.48	751.31
380.68	655.35
380.87	791.10
381.07	709.18
381.26	791.10
381.46	716.20
381.65	767.70
381.85	772.38
382.04	786.42
382.24	755.99
382.43	805.14
382.63	753.65
382.83	755.99
383.02	851.96
383.22	772.38
383.41	812.17
383.61	854.30
383.80	805.14
384.00	779.40
384.19	793.44
384.39	851.96
384.58	805.14
384.78	828.55
384.97	791.10
385.17	819.19
385.36	779.40
385.56	903.45
385.75	856.64
385.95	840.25
386.14	854.30
386.34	898.77
386.53	952.60
386.72	896.43
386.92	898.77
387.11	877.70
387.31	847.27
387.50	898.77
387.70	877.70
387.89	870.68
388.09	858.98
388.28	1039.20
388.48	875.36
388.67	945.58
388.86	938.55
389.06	898.77
389.25	966.64
389.45	891.74
389.64	912.81
389.84	1036.86
390.03	922.17
390.22	976.00
390.42	990.05
390.61	954.94
390.81	961.96
391.00	1020.47
391.19	1022.81
391.39	968.98
391.58	1095.37
391.78	945.58
391.97	1022.81
392.16	992.39
392.36	1078.99
392.55	1064.94
392.75	1029.84
392.94	1034.52
393.13	1064.94
393.33	1025.15
393.52	1151.54
393.71	1067.28
393.91	1013.45
394.10	1053.24
394.29	1048.56
394.49	1071.97
394.68	1102.39
394.88	1123.46
395.07	1097.71
395.26	1149.20
395.46	1172.61
395.65	1214.74
395.84	1156.22
396.04	1228.78
396.23	1214.74
396.42	1263.89
396.62	1196.01
396.81	1165.59
397.00	1224.10
397.19	1181.97
397.39	1235.80
397.58	1245.16
397.77	1186.65
397.97	1336.45
398.16	1310.70
398.35	1296.66
398.55	1207.72
398.74	1308.36
398.93	1387.94
399.12	1296.66
399.32	1329.42
399.51	1362.19
399.70	1303.68
399.90	1238.14
400.09	1343.47
400.28	1341.13
400.47	1385.60
400.67	1446.45
400.86	1397.30
401.05	1434.75
401.24	1455.81
401.44	1523.69
401.63	1462.83
401.82	1547.09
402.01	1453.47
402.21	1420.71
402.40	1542.41
402.59	1416.02
402.78	1577.52
402.97	1467.52
403.17	1619.65
403.36	1551.78
403.55	1556.46
403.74	1661.78
403.93	1692.21
404.13	1561.14
404.32	1645.40
404.51	1659.44
404.70	1629.01
404.89	1689.87
405.09	1701.57
405.28	1664.12
405.47	1666.46
405.66	1776.47
405.85	1757.74
406.05	1813.92
406.24	1717.95
406.43	1668.80
406.62	1748.38
406.81	1884.13
407.00	1865.41
407.20	1806.89
407.39	1701.57
407.58	1853.70
407.77	1909.88
407.96	1809.23
408.15	1902.86
408.34	1802.21
408.54	1879.45
408.73	1942.64
408.92	1893.49
409.11	1996.48
409.30	1947.33
409.49	2033.93
409.68	1954.35
409.87	1970.73
410.07	2104.14
410.26	2129.89
410.45	2008.18
410.64	2108.82
410.83	2127.55
411.02	2188.40
411.21	2143.93
411.40	2125.21
411.59	2174.36
411.78	2106.48
411.98	2120.53
412.17	2251.60
412.36	2221.17
412.55	2354.58
412.74	2298.41
412.93	2424.80
413.12	2342.88
413.31	2516.08
413.50	2352.24
413.69	2445.86
413.88	2614.38
414.07	2504.37
414.26	2576.93
414.45	2464.58
414.64	2516.08
414.83	2579.27
415.02	2663.53
415.22	2616.72
415.41	2675.23
415.60	2656.51
415.79	2768.85
415.98	2637.78
416.17	2736.09
416.36	2686.94
416.55	2703.32
416.74	2899.92
416.93	2883.54
417.12	2810.98
417.31	2888.22
417.50	2911.63
417.69	2911.63
417.88	2909.29
418.07	2874.18
418.26	3023.97
418.45	2988.86
418.64	3126.96
418.83	3096.53
419.02	2974.82
419.21	3124.62
419.39	3190.15
419.58	3101.21
419.77	3148.02
419.96	3180.79
420.15	3148.02
420.34	3136.32
420.53	3119.93
420.72	3239.30
420.91	3171.43
421.10	3255.69
421.29	3304.84
421.48	3124.62
421.67	3272.07
421.86	3220.58
422.05	3365.69
422.24	3302.50
422.43	3405.48
422.61	3337.60
422.80	3548.25
422.99	3356.33
423.18	3417.18
423.37	3541.23
423.56	3403.14
423.75	3386.76
423.94	3368.03
424.13	3185.47
424.32	3328.24
424.50	3377.39
424.69	3508.46
424.88	3386.76
425.07	3459.31
425.26	3356.33
425.45	3438.25
425.64	3510.80
425.83	3494.42
426.01	3557.61
426.20	3513.14
426.39	3562.30
426.58	3424.20
426.77	3545.91
426.96	3487.40
427.15	3517.83
427.33	3557.61
427.52	3536.55
427.71	3613.79
427.90	3501.44
428.09	3733.15
428.28	3684.00
428.46	3700.39
428.65	3751.88
428.84	3822.09
429.03	3812.73
429.22	3667.62
429.40	3688.68
429.59	3845.50
429.78	3688.68
429.97	3627.83
430.16	3929.76
430.34	3911.04
430.53	3829.12
430.72	3953.16
430.91	3948.48
431.10	3871.25
431.28	3999.98
431.47	4016.36
431.66	3964.87
431.85	3955.51
432.03	4138.07
432.22	4142.75
432.41	4159.13
432.60	4065.51
432.79	4135.73
432.97	4198.92
433.16	4227.01
433.35	4049.13
433.54	4128.70
433.72	4229.35
433.91	4098.28
434.10	4266.80
434.28	4180.20
434.47	4329.99
434.66	4294.88
434.85	4407.23
435.03	4290.20
435.22	4402.55
435.41	4451.70
435.59	4332.33
435.78	4416.59
435.97	4332.33
436.16	4416.59
436.34	4425.95
436.53	4409.57
436.72	4568.73
436.90	4259.78
437.09	4538.30
437.28	4418.93
437.46	4344.03
437.65	4465.74
437.84	4638.94
438.02	4592.13
438.21	4718.52
438.40	4493.83
438.58	4819.16
438.77	4676.39
438.96	4784.06
439.14	4842.57
439.33	4898.74
439.52	4858.95
439.70	4922.15
439.89	4919.81
440.08	4894.06
440.26	4992.36
440.45	5203.01
440.63	5123.43
440.82	5085.98
441.01	5144.50
441.19	5210.03
441.38	5224.08
441.57	5188.97
441.75	5387.91
441.94	5397.28
442.12	5385.57
442.31	5472.17
442.50	5598.56
442.68	5378.55
442.87	5444.09
443.05	5575.16
443.24	5631.33
443.43	5636.01
443.61	5628.99
443.80	5675.80
443.98	5502.60
444.17	5434.72
444.35	5561.11
444.54	5781.12
444.73	5565.79
444.91	5633.67
445.10	5614.95
445.28	5685.16
445.47	5636.01
445.65	5720.27
445.84	5633.67
446.02	5994.11
446.21	5771.76
446.39	5628.99
446.58	5671.12
446.77	5757.72
446.95	5514.30
447.14	5778.78
447.32	5776.44
447.51	5804.53
447.69	5682.82
447.88	5708.57
448.06	5860.70
448.25	5706.23
448.43	5830.27
448.62	5710.91
448.80	5841.98
448.99	5963.68
449.17	5994.11
449.36	5895.81
449.54	6181.35
449.73	6076.03
449.91	6132.20
450.10	6008.16
450.28	5970.71
450.46	6223.48
450.65	6169.65
450.83	6216.46
451.02	5998.79
451.20	6253.91
451.39	6216.46
451.57	6094.76
451.76	6157.95
451.94	6277.32
452.13	6272.64
452.31	6345.19
452.49	6324.13
452.68	6296.04
452.86	6214.12
453.05	6282.00
453.23	6492.65
453.42	6401.37
453.60	6387.32
453.78	6457.54
453.97	6256.25
454.15	6478.60
454.34	6494.99
454.52	6586.27
454.70	6637.76
454.89	6555.84
455.07	6637.76
455.26	6677.55
455.44	6853.09
455.62	6738.40
455.81	6656.48
455.99	6640.10
456.17	6780.53
456.36	6796.92
456.54	6815.64
456.73	7110.55
456.91	7126.93
457.09	7042.67
457.28	7035.65
457.46	6930.33
457.64	7332.90
457.83	7215.87
458.01	7042.67
458.19	7279.07
458.38	7096.50
458.56	7272.04
458.74	7290.77
458.93	7375.03
459.11	7513.12
459.29	7281.41
459.48	7459.29
459.66	7318.86
459.84	7431.20
460.03	7571.63
460.21	7520.14
460.39	7351.62
460.57	7466.31
460.76	7335.24
460.94	7616.10
461.12	7749.51
461.31	7534.18
461.49	7534.18
461.67	7545.89
461.85	7707.38
462.04	7723.77
462.22	8053.78
462.40	7892.29
462.59	7707.38
462.77	7847.82
462.95	7887.61
463.13	7850.16
463.32	7922.71
463.50	8116.98
463.68	7999.95
463.86	8294.86
464.05	7990.59
464.23	7838.45
464.41	7976.55
464.59	7819.73
464.78	8163.79
464.96	8142.72
465.14	8121.66
465.32	7913.35
465.50	8320.60
465.69	8166.13
465.87	8238.69
466.05	8114.64
466.23	8208.26
466.41	8128.68
466.60	8404.86
466.78	8224.64
466.96	8217.62
467.14	8292.52
467.32	8451.67
467.51	8451.67
467.69	8313.58
467.87	8524.23
468.05	8524.23
468.23	8315.92
468.41	8496.14
468.60	8720.84
468.78	8664.66
468.96	8589.77
469.14	8587.43
469.32	8760.63
469.50	8493.80
469.69	8901.06
469.87	8748.92
470.05	8891.70
470.23	8753.60
470.41	8992.34
470.59	8898.72
470.77	8877.65
470.95	8994.68
471.14	9174.90
471.32	8903.40
471.50	9130.43
471.68	9060.21
471.86	9149.15
472.04	9259.16
472.22	9287.25
472.40	9163.20
472.58	9399.59
472.77	9364.48
472.95	9355.12
473.13	9694.50
473.31	9507.26
473.49	9415.98
473.67	9364.48
473.85	9715.56
474.03	9729.61
474.21	9874.72
474.39	9898.13
474.57	9949.62
474.75	9949.62
474.93	10061.96
475.12	9961.32
475.30	10083.03
475.48	10111.11
475.66	10106.43
475.84	10249.21
476.02	10202.40
476.20	10368.57
476.38	10525.39
476.56	10677.52
476.74	10541.77
476.92	10485.60
477.10	10537.09
477.28	10626.03
477.46	10719.65
477.64	11009.88
477.82	11145.63
478.00	11208.83
478.18	11213.51
478.36	11384.37
478.54	11389.05
478.72	11351.60
478.90	11690.98
479.08	11721.40
479.26	11772.89
479.44	11585.65
479.62	12002.27
479.80	11880.56
479.98	11955.46
480.16	12416.54
480.34	12145.04
480.52	12339.30
480.70	12131.00
480.88	12423.56
481.06	12383.77
481.24	12704.43
481.41	12542.93
481.59	13022.74
481.77	12957.21
481.95	12936.14
482.13	13144.45
482.31	13020.40
482.49	13448.72
482.67	13298.92
482.85	13507.23
483.03	13530.64
483.21	13757.67
483.39	13874.70
483.57	13954.27
483.74	14106.41
483.92	14319.40
484.10	14181.31
484.28	14541.75
484.46	14466.85
484.64	15068.37
484.82	14611.96
485.00	14754.74
485.18	14792.19
485.35	15344.55
485.53	15166.67
485.71	15489.67
485.89	15578.61
486.07	15269.66
486.25	15620.74
486.43	15492.01
486.61	16126.29
486.78	15978.84
486.96	16023.31
487.14	16252.68
487.32	16177.78
487.50	16533.54
487.68	16678.66
487.85	16629.51
488.03	16987.61
488.21	17020.38
488.39	16800.37
488.57	17453.37
488.75	17617.21
488.92	17547.00
489.10	17797.43
489.28	17661.68
489.46	17919.14
489.64	17830.20
489.81	18288.95
489.99	18415.34
490.17	18181.28
490.35	18480.87
490.53	18518.32
490.70	18925.57
490.88	19016.85
491.06	18878.76
491.24	18878.76
491.41	19234.52
491.59	19555.18
491.77	18944.30
491.95	19480.28
492.13	19810.29
492.30	20074.77
492.48	20072.43
492.66	19896.89
492.84	20325.21
493.01	20313.51
493.19	20577.99
493.37	20514.80
493.54	20287.76
493.72	20762.89
493.90	20748.85
494.08	21179.51
494.25	21324.62
494.43	21411.22
494.61	21296.53
494.79	21308.24
494.96	21273.13
495.14	21846.56
495.32	21774.00
495.49	21970.61
495.67	21762.30
495.85	21994.01
496.02	22438.72
496.20	22487.87
496.38	22628.30
496.55	22661.07
496.73	22799.16
496.91	22733.62
497.09	23033.21
497.26	23173.64
497.44	23021.51
497.62	23463.87
497.79	23807.93
497.97	23433.44
498.14	23749.42
498.32	24053.69
498.50	24063.05
498.67	23864.10
498.85	23819.63
499.03	23939.00
499.20	24491.37
499.38	24287.74
499.56	24779.25
499.73	24606.05
499.91	24617.75
500.08	25078.84
500.26	24463.28
500.44	24936.07
500.61	25092.88
500.79	25191.19
500.97	25542.27
501.14	25671.00
501.32	25352.68
501.49	25551.63
501.67	25549.29
501.84	25956.54
502.02	25504.82
502.20	25921.43
502.37	26106.34
502.55	25666.31
502.72	25940.16
502.90	26253.79
503.07	26239.75
503.25	26237.41
503.43	26211.66
503.60	26431.67
503.78	26859.99
503.95	26403.58
504.13	26799.13
504.30	26871.69
504.48	26714.87
504.65	26848.29
504.83	27185.32
505.01	27517.68
505.18	27433.42
505.36	27658.11
505.53	27505.98
505.71	27611.30
505.88	27606.62
506.06	27112.77
506.23	27953.02
506.41	27683.86
506.58	28032.60
506.76	27873.44
506.93	28343.89
507.11	28182.39
507.28	28404.74
507.46	28077.07
507.63	28575.60
507.81	28854.12
507.98	28357.93
508.16	28739.44
508.33	28669.22
508.50	29006.26
508.68	28936.04
508.85	29179.46
509.03	28858.81
509.20	29003.92
509.38	29404.15
509.55	29720.12
509.73	29380.74
509.90	29853.53
510.08	29832.47
510.25	29844.17
510.42	29813.74
510.60	30054.82
510.77	30253.76
510.95	30398.88
511.12	30305.26
511.30	29991.62
511.47	30382.49
511.64	30143.76
511.82	30574.42
511.99	30628.25
512.17	30733.57
512.34	30689.10
512.51	31307.01
512.69	30902.09
512.86	30892.73
513.04	31204.02
513.21	31096.36
513.38	31297.64
513.56	31861.71
513.73	31023.80
513.90	31419.35
514.08	31512.97
514.25	31784.48
514.43	31611.28
514.60	31515.31
514.77	32175.34
514.95	32135.56
515.12	31927.25
515.29	32025.55
515.47	32332.16
515.64	32531.11
515.81	31997.46
515.99	32430.46
516.16	32428.12
516.33	32622.39
516.51	32910.27
516.68	32439.82
516.85	32849.42
517.03	32907.93
517.20	33251.99
517.37	32919.63
517.54	33010.92
517.72	33090.49
517.89	33198.16
518.06	33497.75
518.24	33390.08
518.41	33432.21
518.58	33116.24
518.75	33160.71
518.93	33528.17
519.10	33741.16
519.27	33596.05
519.45	34113.31
519.62	33944.79
519.79	33809.04
519.96	33876.91
520.14	34326.30
520.31	33996.28
520.48	34213.95
520.65	34426.94
520.83	34682.06
521.00	35117.40
521.17	34288.85
521.34	35065.91
521.52	34913.77
521.69	34986.33
521.86	34941.86
522.03	34785.04
522.20	35077.61
522.38	35129.10
522.55	35346.77
522.72	35241.45
522.89	35306.98
523.07	35924.88
523.24	35730.62
523.41	35449.75
523.58	35419.33
523.75	36009.14
523.92	35566.78
524.10	35728.28
524.27	36201.07
524.44	36156.60
524.61	36367.24
524.78	36119.15
524.96	36140.21
525.13	36238.51
525.30	36395.33
525.47	36315.75
525.64	36711.30
525.81	36835.35
525.98	36510.02
526.16	36563.85
526.33	36547.47
526.50	36907.91
526.67	36210.43
526.84	36715.98
527.01	36746.41
527.18	37277.71
527.36	37261.33
527.53	37060.04
527.70	37191.11
527.87	37343.25
528.04	37266.01
528.21	37598.37
528.38	37766.88
528.55	37371.33
528.72	37294.10
528.89	37376.01
529.07	37523.47
529.24	37455.59
529.41	37596.03
529.58	37771.57
529.75	37443.89
529.92	37897.95
530.09	37771.57
530.26	38342.66
530.43	38462.02
530.60	37972.85
530.77	37619.43
530.94	37876.89
531.11	38129.67
531.28	38209.25
531.46	38560.33
531.63	38384.79
531.80	38689.06
531.97	38670.33
532.14	38770.97
532.31	38717.14
532.48	38574.37
532.65	38766.29
532.82	38550.96
532.99	38630.54
533.16	38548.62
533.33	38754.59
533.50	39370.15
533.67	39255.46
533.84	39093.97
534.01	39239.08
534.18	39431.01
534.35	39416.96
534.52	39646.33
534.69	39859.32
534.86	39782.09
535.03	39636.97
535.20	39526.97
535.37	39962.31
535.54	39934.22
535.71	39915.50
535.88	40023.16
536.05	39791.45
536.22	39861.66
536.38	40231.47
536.55	39934.22
536.72	40137.85
536.89	40053.59
537.06	40137.85
537.23	40151.89
537.40	40149.55
537.57	39660.38
537.74	40449.14
537.91	40435.10
538.08	40247.85
538.25	40282.96
538.42	40704.26
538.59	41186.41
538.75	40598.93
538.92	40765.11
539.09	40889.16
539.26	40584.89
539.43	41008.53
539.60	41193.43
539.77	41146.62
539.94	41198.11
540.11	41123.21
540.28	41265.99
540.44	41076.40
540.61	41553.87
540.78	41312.80
540.95	41062.36
541.12	41301.09
541.29	40968.74
541.46	41378.33
541.62	41532.81
541.79	41684.94
541.96	41439.18
542.13	41464.93
542.30	41570.25
542.47	41743.45
542.63	41696.64
542.80	42089.85
542.97	42244.33
543.14	42059.43
543.31	42344.97
543.48	42045.38
543.64	42454.98
543.81	41991.55
543.98	42574.34
544.15	42394.12
544.32	42656.26
544.48	42756.91
544.65	42621.16
544.82	42923.08
544.99	42696.05
545.16	42642.22
545.32	42417.53
545.49	42815.42
545.66	43318.64
545.83	42689.03
546.00	42866.91
546.16	43007.34
546.33	42876.27
546.50	42932.45
546.67	43484.81
546.83	42672.65
547.00	43044.79
547.17	42864.57
547.34	43058.84
547.50	43550.35
547.67	43248.42
547.84	43201.61
548.00	43564.39
548.17	43711.84
548.34	43688.44
548.51	43562.05
548.67	43744.61
548.84	43941.22
549.01	43695.46
549.18	43615.88
549.34	43920.15
549.51	43955.26
549.68	43948.24
549.84	43627.59
550.01	43969.30
550.18	43973.98
550.34	44285.28
550.51	43831.21
550.68	43924.83
550.84	43658.01
551.01	44327.41
551.18	44261.87
551.34	43983.35
551.51	44140.16
551.68	44334.43
551.84	44025.48
552.01	44376.56
552.18	44472.52
552.34	44233.78
552.51	44519.33
552.68	44261.87
552.84	44573.16
553.01	44704.23
553.18	44460.82
553.34	44495.92
553.51	44135.48
553.67	44666.78
553.84	44669.12
554.01	45085.74
554.17	44554.44
554.34	44615.29
554.51	44769.77
554.67	45216.81
554.84	45280.00
555.00	44877.43
555.17	44758.06
555.33	44957.01
555.50	44828.28
555.67	45162.98
555.83	44996.80
556.00	45354.90
556.16	45401.71
556.33	45600.66
556.50	45041.27
556.66	45202.77
556.83	44863.39
556.99	45263.62
557.16	45750.45
557.32	45382.99
557.49	45724.71
557.65	45619.38
557.82	45705.98
557.98	45448.52
558.15	45191.06
558.32	45209.79
558.48	45186.38
558.65	45691.94
558.81	45684.92
558.98	46007.91
559.14	45827.69
559.31	45258.94
559.47	45996.21
559.64	45792.58
559.80	45469.59
559.97	45918.97
560.13	45511.72
560.30	45797.26
560.46	46028.98
560.63	45890.88
560.79	46188.13
560.96	45986.85
561.12	46085.15
561.29	45951.74
561.45	45975.14
561.61	45886.20
561.78	46178.77
561.94	46036.00
562.11	46490.06
562.27	45804.28
562.44	46218.56
562.60	46447.93
562.77	46279.41
562.93	45996.21
563.10	46391.76
563.26	46253.67
563.42	46405.80
563.59	46209.20
563.75	46541.55
563.92	45846.41
564.08	46005.57
564.24	46312.18
564.41	46576.66
564.57	46595.38
564.74	46590.70
564.90	46597.73
565.07	46504.10
565.23	46354.31
565.39	46351.97
565.56	46883.27
565.72	46396.44
565.88	46492.40
566.05	46358.99
566.21	46726.46
566.38	46639.86
566.54	47028.38
566.70	46487.72
566.87	46454.95
567.03	46534.53
567.19	46667.94
567.36	47086.90
567.52	46487.72
567.68	47016.68
567.85	47318.61
568.01	46983.91
568.17	46574.32
568.34	46698.37
568.50	46995.62
568.66	46894.97
568.83	46817.74
568.99	46869.23
569.15	47110.30
569.32	46630.49
569.48	47051.79
569.64	46986.25
569.81	46946.47
569.97	46738.16
570.13	47278.82
570.30	46398.78
570.46	47157.11
570.62	46972.21
570.78	46754.54
570.95	47014.34
571.11	47370.10
571.27	47075.19
571.43	46897.31
571.60	47122.01
571.76	46990.94
571.92	47119.66
572.09	46958.17
572.25	46967.53
572.41	46983.91
572.57	47072.85
572.74	47494.15
572.90	46967.53
573.06	47627.56
573.22	47290.52
573.38	47290.52
573.55	47253.08
573.71	47454.36
573.87	47196.90
574.03	47402.87
574.20	47606.50
574.36	47526.92
574.52	47182.86
574.68	47201.58
574.84	47533.94
575.01	47405.21
575.17	47491.81
575.33	47229.67
575.49	47189.88
575.65	47173.50
575.82	47295.21
575.98	47150.09
576.14	47358.40
576.30	47482.45
576.46	47114.98
576.62	47180.52
576.79	47440.32
576.95	46897.31
577.11	47147.75
577.27	47236.69
577.43	47243.71
577.59	47281.16
577.75	47316.27
577.92	46789.65
578.08	47430.96
578.24	47803.10
578.40	47480.11
578.56	47452.02
578.72	47461.38
578.88	47267.12
579.04	47559.69
579.21	47749.27
579.37	47627.56
579.53	47847.57
579.69	47440.32
579.85	47613.52
580.01	47672.03
580.17	47058.81
580.33	47767.99
580.49	47571.39
580.65	47688.42
580.82	47594.79
580.98	47381.80
581.14	46927.74
581.30	47753.95
581.46	47580.75
581.62	47274.14
581.78	47428.62
581.94	47693.10
582.10	47253.08
582.26	47351.38
582.42	47393.51
582.58	47821.83
582.74	47620.54
582.90	47409.89
583.06	47749.27
583.22	47437.98
583.38	47662.67
583.54	47697.78
583.70	48016.09
583.86	47990.34
584.02	47756.29
584.18	48051.20
584.34	48222.06
584.50	48055.88
584.66	47903.74
584.82	47819.49
584.98	48208.01
585.14	47882.68
585.30	47555.00
585.46	47772.67
585.62	47646.29
585.78	47985.66
585.94	47496.49
586.10	47491.81
586.26	47480.11
586.42	47475.43
586.58	47767.99
586.74	47700.12
586.90	47524.58
587.06	48172.91
587.22	47824.17
587.38	47779.70
587.54	48030.13
587.70	48430.36
587.86	47667.35
588.02	47714.16
588.18	47636.92
588.34	47962.26
588.49	47819.49
588.65	47482.45
588.81	48004.39
588.97	47952.90
589.13	47812.46
589.29	48025.45
589.45	47924.81
589.61	47753.95
589.77	47789.06
589.93	48208.01
