SpectraSuite Data File
++++++++++++++++++++++++++++++++++++
Date: Fri Oct 25 11:33:51 EDT 2013
User: price-jones
Dark Spectrum Present: No
Reference Spectrum Present: No
Number of Sampled Component Spectra: 1
Spectrometers: USB2+H05261
Integration Time (usec): 100000 (USB2+H05261)
Spectra Averaged: 1 (USB2+H05261)
Boxcar Smoothing: 0 (USB2+H05261)
Correct for Electrical Dark: No (USB2+H05261)
Strobe/Lamp Enabled: No (USB2+H05261)
Correct for Detector Non-linearity: No (USB2+H05261)
Correct for Stray Light: No (USB2+H05261)
Number of Pixels in Processed Spectrum: 2048
>>>>>Begin Processed Spectral Data<<<<<
365.73	271.50
365.92	271.50
366.12	271.50
366.32	255.12
366.52	215.33
366.72	135.75
366.91	161.50
367.11	208.31
367.31	161.50
367.51	182.56
367.70	191.92
367.90	248.10
368.10	180.22
368.30	222.35
368.49	205.97
368.69	161.50
368.89	266.82
369.09	198.95
369.28	189.58
369.48	269.16
369.68	201.29
369.87	194.26
370.07	238.73
370.27	259.80
370.47	322.99
370.66	526.62
370.86	493.85
371.06	514.92
371.25	561.73
371.45	510.24
371.65	589.82
371.84	578.11
372.04	557.05
372.24	538.32
372.44	557.05
372.63	468.11
372.83	596.84
373.03	550.03
373.22	578.11
373.42	660.03
373.62	617.90
373.81	603.86
374.01	664.71
374.21	603.86
374.40	594.50
374.60	648.33
374.79	643.65
374.99	610.88
375.19	610.88
375.38	613.22
375.58	655.35
375.78	648.33
375.97	699.82
376.17	690.46
376.37	622.58
376.56	692.80
376.76	622.58
376.95	674.07
377.15	727.91
377.35	617.90
377.54	753.65
377.74	770.04
377.93	734.93
378.13	585.13
378.33	669.39
378.52	695.14
378.72	660.03
378.91	692.80
379.11	667.05
379.31	720.88
379.50	704.50
379.70	741.95
379.89	760.67
380.09	669.39
380.28	681.10
380.48	681.10
380.68	786.42
380.87	676.41
381.07	788.76
381.26	767.70
381.46	793.44
381.65	723.23
381.85	770.04
382.04	774.72
382.24	802.80
382.43	774.72
382.63	784.08
382.83	788.76
383.02	807.48
383.22	763.01
383.41	788.76
383.61	837.91
383.80	868.34
384.00	823.87
384.19	793.44
384.39	870.68
384.58	835.57
384.78	772.38
384.97	858.98
385.17	826.21
385.36	840.25
385.56	784.08
385.75	833.23
385.95	786.42
386.14	910.47
386.34	905.79
386.53	786.42
386.72	858.98
386.92	873.02
387.11	854.30
387.31	866.00
387.50	816.85
387.70	819.19
387.89	896.43
388.09	929.19
388.28	936.21
388.48	901.11
388.67	954.94
388.86	873.02
389.06	936.21
389.25	983.02
389.45	889.40
389.64	922.17
389.84	1015.79
390.03	957.28
390.22	1034.52
390.42	933.87
390.61	917.49
390.81	954.94
391.00	976.00
391.19	1001.75
391.39	976.00
391.58	1034.52
391.78	992.39
391.97	1029.84
392.16	940.90
392.36	1090.69
392.55	1043.88
392.75	1064.94
392.94	997.07
393.13	1128.14
393.33	1093.03
393.52	1118.78
393.71	1135.16
393.91	1060.26
394.10	1083.67
394.29	1067.28
394.49	1041.54
394.68	1048.56
394.88	1121.12
395.07	1097.71
395.26	1097.71
395.46	1118.78
395.65	1200.69
395.84	1207.72
396.04	1191.33
396.23	1165.59
396.42	1125.80
396.62	1226.44
396.81	1214.74
397.00	1235.80
397.19	1196.01
397.39	1268.57
397.58	1196.01
397.77	1193.67
397.97	1224.10
398.16	1270.91
398.35	1254.53
398.55	1219.42
398.74	1270.91
398.93	1303.68
399.12	1331.76
399.32	1193.67
399.51	1231.12
399.70	1350.49
399.90	1392.62
400.09	1350.49
400.28	1350.49
400.47	1364.53
400.67	1411.34
400.86	1322.40
401.05	1465.18
401.24	1483.90
401.44	1399.64
401.63	1348.15
401.82	1441.77
402.01	1420.71
402.21	1474.54
402.40	1430.07
402.59	1430.07
402.78	1483.90
402.97	1537.73
403.17	1537.73
403.36	1554.12
403.55	1563.48
403.74	1575.18
403.93	1600.93
404.13	1636.03
404.32	1596.25
404.51	1610.29
404.70	1706.25
404.89	1568.16
405.09	1713.27
405.28	1685.19
405.47	1692.21
405.66	1659.44
405.85	1724.97
406.05	1685.19
406.24	1727.32
406.43	1708.59
406.62	1856.04
406.81	1727.32
407.00	1729.66
407.20	1776.47
407.39	1792.85
407.58	1844.34
407.77	1837.32
407.96	1849.02
408.15	1937.96
408.34	1818.60
408.54	1954.35
408.73	1874.77
408.92	2010.52
409.11	1996.48
409.30	1961.37
409.49	1994.14
409.68	1956.69
409.87	1977.75
410.07	2069.03
410.26	2003.50
410.45	2083.08
410.64	2073.71
410.83	2202.44
411.02	2127.55
411.21	2202.44
411.40	2211.81
411.59	2143.93
411.78	2172.02
411.98	2193.08
412.17	2129.89
412.36	2179.04
412.55	2338.20
412.74	2312.45
412.93	2429.48
413.12	2228.19
413.31	2441.18
413.50	2328.83
413.69	2356.92
413.88	2448.20
414.07	2420.11
414.26	2499.69
414.45	2562.89
414.64	2527.78
414.83	2612.04
415.02	2516.08
415.22	2649.49
415.41	2647.15
415.60	2724.38
415.79	2686.94
415.98	2759.49
416.17	2860.13
416.36	2698.64
416.55	2808.64
416.74	2789.92
416.93	2750.13
417.12	2860.13
417.31	2895.24
417.50	2827.37
417.69	2885.88
417.88	2974.82
418.07	2860.13
418.26	2932.69
418.45	2895.24
418.64	3066.10
418.83	2958.44
419.02	3077.80
419.21	3143.34
419.39	3061.42
419.58	2979.50
419.77	3016.95
419.96	3138.66
420.15	3246.32
420.34	3138.66
420.53	3129.30
420.72	3166.74
420.91	3173.77
421.10	3251.00
421.29	3344.63
421.48	3323.56
421.67	3239.30
421.86	3316.54
422.05	3342.28
422.24	3318.88
422.43	3335.26
422.61	3391.44
422.80	3403.14
422.99	3351.65
423.18	3393.78
423.37	3508.46
423.56	3323.56
423.75	3293.13
423.94	3356.33
424.13	3082.49
424.32	3379.73
424.50	3510.80
424.69	3639.53
424.88	3428.88
425.07	3398.46
425.26	3428.88
425.45	3456.97
425.64	3211.22
425.83	3440.59
426.01	3449.95
426.20	3396.12
426.39	3550.59
426.58	3534.21
426.77	3506.12
426.96	3492.08
427.15	3499.10
427.33	3599.74
427.52	3531.87
427.71	3557.61
427.90	3616.13
428.09	3618.47
428.28	3700.39
428.46	3667.62
428.65	3744.86
428.84	3840.82
429.03	3777.62
429.22	3644.21
429.40	3506.12
429.59	3775.28
429.78	3665.28
429.97	3559.95
430.16	3632.51
430.34	3873.59
430.53	3913.38
430.72	3775.28
430.91	3850.18
431.10	3758.90
431.28	4032.74
431.47	3861.88
431.66	4002.32
431.85	3880.61
432.03	4063.17
432.22	4149.77
432.41	4053.81
432.60	3948.48
432.79	3941.46
432.97	3939.12
433.16	4112.32
433.35	4072.53
433.54	3962.53
433.72	4156.79
433.91	4142.75
434.10	4248.07
434.28	4119.34
434.47	4245.73
434.66	4201.26
434.85	4355.74
435.03	4313.61
435.22	4290.20
435.41	4456.38
435.59	4400.21
435.78	4348.72
435.97	4337.01
436.16	4503.19
436.34	4514.89
436.53	4482.13
436.72	4535.96
436.90	4329.99
437.09	4524.26
437.28	4390.84
437.46	4507.87
437.65	4627.24
437.84	4575.75
438.02	4622.56
438.21	4505.53
438.40	4528.94
438.58	4643.62
438.77	4641.28
438.96	4627.24
439.14	4983.00
439.33	4755.97
439.52	4940.87
439.70	5043.85
439.89	4975.98
440.08	5001.72
440.26	4990.02
440.45	5011.09
440.63	5011.09
440.82	5282.59
441.01	5083.64
441.19	5071.94
441.38	5111.73
441.57	5172.58
441.75	5193.65
441.94	5317.70
442.12	5411.32
442.31	5387.91
442.50	5446.43
442.68	5305.99
442.87	5343.44
443.05	5408.98
443.24	5521.32
443.43	5418.34
443.61	5530.69
443.80	5785.80
443.98	5406.64
444.17	5383.23
444.35	5537.71
444.54	5673.46
444.73	5631.33
444.91	5467.49
445.10	5729.63
445.28	5738.99
445.47	5537.71
445.65	5554.09
445.84	5713.25
446.02	5614.95
446.21	5675.80
446.39	5577.50
446.58	5879.43
446.77	5771.76
446.95	5638.35
447.14	5771.76
447.32	5813.89
447.51	5607.92
447.69	5547.07
447.88	5675.80
448.06	5710.91
448.25	5790.49
448.43	5767.08
448.62	5837.30
448.80	5813.89
448.99	5851.34
449.17	5905.17
449.36	5696.86
449.54	5937.94
449.73	5830.27
449.91	6207.10
450.10	5849.00
450.28	6019.86
450.46	6106.46
450.65	5954.32
450.83	6174.33
451.02	6031.56
451.20	6108.80
451.39	6225.82
451.57	6076.03
451.76	5987.09
451.94	6073.69
452.13	6225.82
452.31	6197.74
452.49	6263.27
452.68	6300.72
452.86	6232.85
453.05	6242.21
453.23	6581.59
453.42	6387.32
453.60	6321.79
453.78	6289.02
453.97	6387.32
454.15	6326.47
454.34	6347.53
454.52	6656.48
454.70	6438.81
454.89	6483.28
455.07	6679.89
455.26	6658.82
455.44	6759.47
455.62	6675.21
455.81	6752.45
455.99	6684.57
456.17	6569.88
456.36	6874.15
456.54	6867.13
456.73	6932.67
456.91	7021.61
457.09	6965.43
457.28	7073.10
457.46	6991.18
457.64	7009.90
457.83	6895.22
458.01	6974.80
458.19	7250.98
458.38	6946.71
458.56	7248.64
458.74	7157.36
458.93	6993.52
459.11	7073.10
459.29	7030.97
459.48	7393.75
459.66	7204.17
459.84	7330.56
460.03	7293.11
460.21	7370.35
460.39	7426.52
460.57	7183.10
460.76	7459.29
460.94	7466.31
461.12	7410.14
461.31	7440.56
461.49	7431.20
461.67	7627.81
461.85	7651.21
462.04	7758.88
462.22	8091.23
462.40	7765.90
462.59	7674.62
462.77	7585.68
462.95	7730.79
463.13	7508.44
463.32	7932.08
463.50	7756.54
463.68	7735.47
463.86	7992.93
464.05	7901.65
464.23	7903.99
464.41	7744.83
464.59	7770.58
464.78	8114.64
464.96	7920.37
465.14	7899.31
465.32	8051.44
465.50	8032.72
465.69	8051.44
465.87	8095.91
466.05	8081.87
466.23	8065.49
466.41	8112.30
466.60	8269.11
466.78	8102.93
466.96	8135.70
467.14	7946.12
467.32	8362.73
467.51	8278.47
467.69	8170.81
467.87	8079.53
468.05	8360.39
468.23	8418.91
468.41	8201.24
468.60	8444.65
468.78	8489.12
468.96	8339.33
469.14	8393.16
469.32	8578.06
469.50	8437.63
469.69	8449.33
469.87	8674.03
470.05	8589.77
470.23	8652.96
470.41	8802.75
470.59	8706.79
470.77	8765.31
470.95	8847.22
471.14	8999.36
471.32	8664.66
471.50	8849.57
471.68	9090.64
471.86	9064.89
472.04	9116.39
472.22	9277.88
472.40	8842.54
472.58	9015.74
472.77	9191.28
472.95	9493.21
473.13	9432.36
473.31	9179.58
473.49	9322.35
473.67	9399.59
473.85	9437.04
474.03	9643.01
474.21	9554.07
474.39	9619.60
474.57	9727.27
474.75	9837.27
474.93	9844.29
475.12	9736.63
475.30	9970.68
475.48	10001.11
475.66	10188.35
475.84	10052.60
476.02	10076.01
476.20	10099.41
476.38	10272.61
476.56	10586.24
476.74	10654.12
476.92	10420.06
477.10	10314.74
477.28	10567.52
477.46	10551.14
477.64	10815.62
477.82	10885.83
478.00	10930.30
478.18	11082.44
478.36	11307.13
478.54	11232.23
478.72	11126.91
478.90	11470.97
479.08	11503.73
479.26	11433.52
479.44	11578.63
479.62	11630.12
479.80	11728.42
479.98	11908.65
480.16	11932.05
480.34	12100.57
480.52	12049.08
480.70	12205.89
480.88	11964.82
481.06	12196.53
481.24	12259.73
481.41	12496.12
481.59	12730.17
481.77	12568.68
481.95	12697.41
482.13	13071.89
482.31	12849.54
482.49	13259.13
482.67	13289.56
482.85	13429.99
483.03	13305.95
483.21	13624.26
483.39	13760.01
483.57	13565.74
483.74	13879.38
483.92	13827.88
484.10	13928.53
484.28	14270.25
484.46	14253.86
484.64	14717.29
484.82	14459.83
485.00	14637.71
485.18	14611.96
485.35	14857.72
485.53	14766.44
485.71	14813.25
485.89	15246.25
486.07	15232.21
486.25	15218.16
486.43	15667.55
486.61	15384.34
486.78	15866.49
486.96	15815.00
487.14	15964.79
487.32	15988.20
487.50	16365.03
487.68	16205.87
487.85	16542.91
488.03	16870.58
488.21	16938.46
488.39	16650.57
488.57	17055.48
488.75	17039.10
488.92	17121.02
489.10	17556.36
489.28	17469.76
489.46	17790.41
489.64	17500.19
489.81	17837.22
489.99	18064.25
490.17	18022.12
490.35	18188.30
490.53	18427.04
490.70	18572.15
490.88	18328.74
491.06	18731.31
491.24	18752.37
491.41	18888.12
491.59	19091.75
491.77	18998.13
491.95	18881.10
492.13	19552.84
492.30	19482.62
492.48	19452.19
492.66	19697.95
492.84	19737.74
493.01	20081.80
493.19	19936.68
493.37	20205.84
493.54	20194.14
493.72	20128.61
493.90	20535.86
494.08	20711.40
494.25	21043.76
494.43	20753.53
494.61	21191.21
494.79	21067.16
494.96	21118.65
495.14	21160.78
495.32	21460.37
495.49	21624.21
495.67	21935.50
495.85	21909.75
496.02	22146.15
496.20	22120.40
496.38	22464.46
496.55	22036.14
496.73	22546.38
496.91	22462.12
497.09	22544.04
497.26	22904.48
497.44	22757.03
497.62	22890.44
497.79	23183.01
497.97	23035.55
498.14	22967.68
498.32	23403.02
498.50	23388.97
498.67	23885.17
498.85	23702.61
499.03	23784.52
499.20	23896.87
499.38	23971.77
499.56	24259.65
499.73	24184.76
499.91	24355.61
500.08	24355.61
500.26	24299.44
500.44	24718.40
500.61	24765.21
500.79	24496.05
500.97	24741.80
501.14	25135.01
501.32	25448.64
501.49	25050.75
501.67	25348.00
501.84	25324.60
502.02	25495.46
502.20	25619.50
502.37	25579.71
502.55	25270.76
502.72	25518.86
502.90	25635.89
503.07	25874.62
503.25	25804.41
503.43	25834.83
503.60	26302.94
503.78	26052.50
503.95	26059.52
504.13	26031.44
504.30	26726.58
504.48	26316.98
504.65	26347.41
504.83	27040.21
505.01	26843.60
505.18	26904.46
505.36	27491.93
505.53	27063.61
505.71	27410.01
505.88	27136.17
506.06	27424.06
506.23	27229.79
506.41	27248.52
506.58	27594.92
506.76	27318.73
506.93	27777.48
507.11	27861.74
507.28	27887.48
507.46	27840.67
507.63	27728.33
507.81	28367.29
507.98	27573.85
508.16	28114.52
508.33	28549.85
508.50	28158.99
508.68	28718.37
508.85	28549.85
509.03	28512.41
509.20	28793.27
509.38	29163.08
509.55	28936.04
509.73	29209.89
509.90	29188.82
510.08	29333.93
510.25	28882.21
510.42	29439.26
510.60	29614.80
510.77	29315.21
510.95	29902.68
511.12	29596.07
511.30	29827.79
511.47	29860.55
511.64	29902.68
511.82	29930.77
511.99	29827.79
512.17	30347.39
512.34	30417.60
512.51	30658.68
512.69	30639.95
512.86	30520.59
513.04	30913.80
513.21	30843.58
513.38	30862.30
513.56	30801.45
513.73	30595.48
513.90	31044.87
514.08	31260.20
514.25	30984.01
514.43	31332.75
514.60	31512.97
514.77	31145.51
514.95	31356.16
515.12	31433.39
515.29	31386.58
515.47	31770.43
515.64	31803.20
515.81	31952.99
515.99	32196.41
516.16	31847.67
516.33	31887.46
516.51	31978.74
516.68	31960.02
516.85	32280.67
517.03	32343.86
517.20	32432.80
517.37	32315.78
517.54	32498.34
517.72	32535.79
517.89	32811.97
518.06	32706.65
518.24	32762.82
518.41	32914.95
518.58	32737.07
518.75	32716.01
518.93	33141.99
519.10	32938.36
519.27	33039.00
519.45	33305.82
519.62	33518.81
519.79	33523.49
519.96	33338.59
520.14	33443.91
520.31	33502.43
520.48	33771.59
520.65	34047.77
520.83	34436.30
521.00	34120.33
521.17	34345.02
521.34	33958.83
521.52	34485.45
521.69	34230.33
521.86	34558.01
522.03	34036.07
522.20	34625.89
522.38	34768.66
522.55	34635.25
522.72	34658.65
522.89	34801.43
523.07	35204.00
523.24	34995.69
523.41	35068.25
523.58	35122.08
523.75	35402.94
523.92	35379.54
524.10	35367.84
524.27	35487.20
524.44	35321.02
524.61	35531.67
524.78	35386.56
524.96	35646.36
525.13	35442.73
525.30	36002.12
525.47	35655.72
525.64	36343.84
525.81	35772.75
525.98	35974.03
526.16	35941.27
526.33	35875.73
526.50	36678.54
526.67	36247.88
526.84	36205.75
527.01	36498.31
527.18	36154.26
527.36	36175.32
527.53	36589.59
527.70	36453.84
527.87	36870.46
528.04	36739.39
528.21	36634.06
528.38	36620.02
528.55	36959.40
528.72	36814.29
528.89	36882.16
529.07	36659.81
529.24	36580.23
529.41	37191.11
529.58	37256.65
529.75	36935.99
529.92	37434.53
530.09	37546.87
530.26	37542.19
530.43	37539.85
530.60	37202.82
530.77	37453.25
530.94	37900.29
531.11	37436.87
531.28	37963.49
531.46	37493.04
531.63	38146.05
531.80	37823.06
531.97	38092.22
532.14	38366.06
532.31	38040.73
532.48	38181.16
532.65	38064.13
532.82	38141.37
532.99	38862.26
533.16	38213.93
533.33	38536.92
533.50	38588.41
533.67	38677.35
533.84	38181.16
534.01	38307.55
534.18	38623.52
534.35	38930.13
534.52	38890.34
534.69	39194.61
534.86	39028.43
535.03	39047.16
535.20	39304.62
535.37	39044.82
535.54	39391.22
535.71	38747.57
535.88	38967.58
536.05	39489.52
536.22	39164.18
536.38	39494.20
536.55	39889.75
536.72	39346.75
536.89	39854.64
537.06	39405.26
537.23	39782.09
537.40	39543.35
537.57	39419.30
537.74	39353.77
537.91	40126.14
538.08	39454.41
538.25	39831.24
538.42	39313.98
538.59	40322.75
538.75	39817.19
538.92	40470.20
539.09	40622.34
539.26	39440.37
539.43	40051.25
539.60	40343.81
539.77	39990.39
539.94	40505.31
540.11	40133.17
540.28	40437.44
540.44	40388.28
540.61	40388.28
540.78	40474.88
540.95	40458.50
541.12	40339.13
541.29	40289.98
541.46	40505.31
541.62	41031.93
541.79	41053.00
541.96	40620.00
542.13	40982.78
542.30	40725.32
542.47	41111.51
542.63	41036.61
542.80	40907.88
542.97	41233.22
543.14	41757.50
543.31	41544.51
543.48	41715.37
543.64	41785.58
543.81	41886.23
543.98	41696.64
544.15	41331.52
544.32	41668.56
544.48	41862.82
544.65	41691.96
544.82	42246.67
544.99	41982.19
545.16	42099.22
545.32	41539.83
545.49	42452.64
545.66	42244.33
545.83	41890.91
546.00	42438.59
546.16	42066.45
546.33	41670.90
546.50	42424.55
546.67	42412.85
546.83	42389.44
547.00	42162.41
547.17	42040.70
547.34	42321.57
547.50	42689.03
547.67	42602.43
547.84	42249.01
548.00	42707.76
548.17	43377.15
548.34	43168.84
548.51	43302.25
548.67	42721.80
548.84	42499.45
549.01	42815.42
549.18	42869.25
549.34	42941.81
549.51	43601.84
549.68	43370.13
549.84	42714.78
550.01	43215.65
550.18	43054.15
550.34	42920.74
550.51	43000.32
550.68	43503.54
550.84	43143.09
551.01	43613.54
551.18	43650.99
551.34	43269.48
551.51	43290.55
551.68	43419.28
551.84	43765.68
552.01	43313.95
552.18	43763.34
552.34	43459.07
552.51	43592.48
552.68	43753.97
552.84	43519.92
553.01	43428.64
553.18	43763.34
553.34	43892.07
553.51	43927.17
553.67	43555.03
553.84	44112.08
554.01	44013.77
554.17	44055.90
554.34	44119.10
554.51	44313.36
554.67	44680.83
554.84	44573.16
555.00	44048.88
555.17	44327.41
555.33	44158.89
555.50	44123.78
555.67	44058.24
555.83	44610.61
556.00	44641.04
556.16	44931.26
556.33	44732.32
556.50	44243.15
556.66	44690.19
556.83	44327.41
556.99	45048.29
557.16	44687.85
557.32	44762.75
557.49	44933.60
557.65	44889.13
557.82	44470.18
557.98	44409.32
558.15	44594.23
558.32	45090.42
558.48	44706.57
558.65	44879.77
558.81	45043.61
558.98	44854.03
559.14	44739.34
559.31	44854.03
559.47	44610.61
559.64	45198.09
559.80	44898.50
559.97	44947.65
560.13	44800.19
560.30	44870.41
560.46	45549.17
560.63	45125.53
560.79	45287.03
560.96	45418.10
561.12	45352.56
561.29	45364.26
561.45	45404.05
561.61	45469.59
561.78	45280.00
561.94	45357.24
562.11	45691.94
562.27	45434.48
562.44	45139.57
562.60	45235.53
562.77	45530.44
562.93	45186.38
563.10	45514.06
563.26	45404.05
563.42	45766.84
563.59	45504.70
563.75	45422.78
563.92	45797.26
564.08	45745.77
564.24	45619.38
564.41	45691.94
564.57	45855.78
564.74	45572.57
564.90	45558.53
565.07	45610.02
565.23	45481.29
565.39	46115.58
565.56	45808.96
565.72	45881.52
565.88	45790.24
566.05	45780.88
566.21	45998.55
566.38	45640.45
566.54	46050.04
566.70	46284.09
566.87	46082.81
567.03	45450.86
567.19	46099.19
567.36	46007.91
567.52	45855.78
567.68	46061.74
567.85	45539.80
568.01	46195.15
568.17	45965.78
568.34	46646.88
568.50	45673.21
568.66	45610.02
568.83	45776.20
568.99	45799.60
569.15	45785.56
569.32	46319.20
569.48	45607.68
569.64	46621.13
569.81	46279.41
569.97	46284.09
570.13	46178.77
570.30	46148.34
570.46	46321.54
570.62	46211.54
570.78	46237.28
570.95	46433.89
571.11	46330.90
571.27	46616.45
571.43	46141.32
571.60	46672.62
571.76	46391.76
571.92	46515.81
572.09	46057.06
572.25	46218.56
572.41	46036.00
572.57	46373.03
572.74	47320.95
572.90	46138.98
573.06	46686.67
573.22	46925.40
573.38	46880.93
573.55	46670.28
573.71	46660.92
573.87	46412.82
574.03	46571.98
574.20	46880.93
574.36	46754.54
574.52	46703.05
574.68	46904.34
574.84	47098.60
575.01	47105.62
575.17	46525.17
575.33	46829.44
575.49	46450.27
575.65	46756.88
575.82	46583.68
575.98	46529.85
576.14	47028.38
576.30	46871.57
576.46	46604.75
576.62	46377.72
576.79	46887.95
576.95	46539.21
577.11	46253.67
577.27	46705.39
577.43	47014.34
577.59	46511.13
577.75	46490.06
577.92	46253.67
578.08	46927.74
578.24	46855.18
578.40	46747.52
578.56	46869.23
578.72	46782.63
578.88	47323.29
579.04	46885.61
579.21	46665.60
579.37	47131.37
579.53	47241.37
579.69	46782.63
579.85	46885.61
580.01	47253.08
580.17	46883.27
580.33	47042.43
580.49	47166.48
580.65	46810.71
580.82	46848.16
580.98	47100.94
581.14	46539.21
581.30	46937.10
581.46	46635.17
581.62	46777.95
581.78	46728.80
581.94	46822.42
582.10	47082.22
582.26	47180.52
582.42	46791.99
582.58	47091.58
582.74	46700.71
582.90	47103.28
583.06	47110.30
583.22	46721.77
583.38	46918.38
583.54	46997.96
583.70	46897.31
583.86	47004.98
584.02	46593.04
584.18	47042.43
584.34	46894.97
584.50	47620.54
584.66	47152.43
584.82	47098.60
584.98	47517.56
585.14	47019.02
585.30	46738.16
585.46	47014.34
585.62	47072.85
585.78	46724.11
585.94	47208.61
586.10	47065.83
586.26	47098.60
586.42	47044.77
586.58	46993.28
586.74	46967.53
586.90	46932.42
587.06	47194.56
587.22	46803.69
587.38	47070.51
587.54	47482.45
587.70	47215.63
587.86	47442.66
588.02	46838.80
588.18	47089.24
588.34	47065.83
588.49	47365.42
588.65	47330.31
588.81	47475.43
588.97	46897.31
589.13	47224.99
589.29	47147.75
589.45	47489.47
589.61	47147.75
589.77	47377.12
589.93	47517.56
590.08	47583.09
