SpectraSuite Data File
++++++++++++++++++++++++++++++++++++
Date: Fri Oct 25 10:47:17 EDT 2013
User: price-jones
Dark Spectrum Present: No
Reference Spectrum Present: No
Number of Sampled Component Spectra: 1
Spectrometers: USB2+H05261
Integration Time (usec): 100000 (USB2+H05261)
Spectra Averaged: 1 (USB2+H05261)
Boxcar Smoothing: 0 (USB2+H05261)
Correct for Electrical Dark: No (USB2+H05261)
Strobe/Lamp Enabled: No (USB2+H05261)
Correct for Detector Non-linearity: No (USB2+H05261)
Correct for Stray Light: No (USB2+H05261)
Number of Pixels in Processed Spectrum: 2048
>>>>>Begin Processed Spectral Data<<<<<
365.73	110.01
365.92	110.01
366.12	110.01
366.32	98.30
366.52	98.30
366.72	93.62
366.91	16.38
367.11	16.38
367.31	37.45
367.51	32.77
367.70	21.06
367.90	65.54
368.10	49.15
368.30	53.83
368.49	60.85
368.69	93.62
368.89	86.60
369.09	25.75
369.28	84.26
369.48	91.28
369.68	105.32
369.87	93.62
370.07	46.81
370.27	81.92
370.47	126.39
370.66	299.59
370.86	358.10
371.06	376.83
371.25	437.68
371.45	404.91
371.65	416.62
371.84	477.47
372.04	454.06
372.24	463.43
372.44	472.79
372.63	444.70
372.83	491.51
373.03	540.66
373.22	535.98
373.42	416.62
373.62	484.49
373.81	425.98
374.01	585.13
374.21	528.96
374.40	564.07
374.60	547.69
374.79	533.64
374.99	571.09
375.19	521.94
375.38	526.62
375.58	550.03
375.78	543.00
375.97	629.60
376.17	636.63
376.37	498.53
376.56	566.41
376.76	547.69
376.95	592.16
377.15	571.09
377.35	660.03
377.54	585.13
377.74	587.47
377.93	592.16
378.13	517.26
378.33	566.41
378.52	519.60
378.72	627.26
378.91	592.16
379.11	547.69
379.31	585.13
379.50	557.05
379.70	592.16
379.89	629.60
380.09	624.92
380.28	655.35
380.48	566.41
380.68	601.52
380.87	568.75
381.07	664.71
381.26	716.20
381.46	571.09
381.65	620.24
381.85	723.23
382.04	669.39
382.24	648.33
382.43	674.07
382.63	737.27
382.83	655.35
383.02	667.05
383.22	692.80
383.41	650.67
383.61	631.94
383.80	802.80
384.00	678.76
384.19	709.18
384.39	734.93
384.58	791.10
384.78	753.65
384.97	751.31
385.17	734.93
385.36	748.97
385.56	657.69
385.75	725.57
385.95	741.95
386.14	772.38
386.34	821.53
386.53	798.12
386.72	727.91
386.92	760.67
387.11	770.04
387.31	791.10
387.50	725.57
387.70	753.65
387.89	863.66
388.09	755.99
388.28	746.63
388.48	791.10
388.67	746.63
388.86	767.70
389.06	809.83
389.25	905.79
389.45	791.10
389.64	763.01
389.84	793.44
390.03	905.79
390.22	903.45
390.42	882.38
390.61	833.23
390.81	851.96
391.00	896.43
391.19	926.85
391.39	917.49
391.58	952.60
391.78	929.19
391.97	938.55
392.16	844.93
392.36	966.64
392.55	992.39
392.75	905.79
392.94	964.30
393.13	924.51
393.33	873.02
393.52	912.81
393.71	1015.79
393.91	1001.75
394.10	1011.11
394.29	1093.03
394.49	994.73
394.68	1088.35
394.88	983.02
395.07	1048.56
395.26	1104.73
395.46	1006.43
395.65	1046.22
395.84	1027.50
396.04	1224.10
396.23	1043.88
396.42	997.07
396.62	1088.35
396.81	1158.57
397.00	1114.10
397.19	1174.95
397.39	1111.75
397.58	1207.72
397.77	1174.95
397.97	1217.08
398.16	1308.36
398.35	1172.61
398.55	1188.99
398.74	1200.69
398.93	1207.72
399.12	1193.67
399.32	1219.42
399.51	1186.65
399.70	1380.92
399.90	1254.53
400.09	1334.11
400.28	1357.51
400.47	1310.70
400.67	1357.51
400.86	1299.00
401.05	1350.49
401.24	1406.66
401.44	1390.28
401.63	1458.15
401.82	1444.11
402.01	1432.41
402.21	1441.77
402.40	1453.47
402.59	1416.02
402.78	1411.34
402.97	1430.07
403.17	1535.39
403.36	1446.45
403.55	1558.80
403.74	1577.52
403.93	1614.97
404.13	1504.96
404.32	1497.94
404.51	1537.73
404.70	1582.20
404.89	1479.22
405.09	1621.99
405.28	1701.57
405.47	1610.29
405.66	1617.31
405.85	1715.61
406.05	1788.17
406.24	1694.55
406.43	1732.00
406.62	1811.57
406.81	1818.60
407.00	1629.01
407.20	1668.80
407.39	1720.29
407.58	1755.40
407.77	1799.87
407.96	1923.92
408.15	1767.10
408.34	1879.45
408.54	1834.98
408.73	1926.26
408.92	1881.79
409.11	1947.33
409.30	1860.73
409.49	2001.16
409.68	1973.07
409.87	1923.92
410.07	2010.52
410.26	2059.67
410.45	2010.52
410.64	1987.11
410.83	2022.22
411.02	2064.35
411.21	2073.71
411.40	2129.89
411.59	2069.03
411.78	2115.84
411.98	2150.95
412.17	2162.66
412.36	2181.38
412.55	2214.15
412.74	2293.72
412.93	2293.72
413.12	2143.93
413.31	2370.96
413.50	2317.13
413.69	2424.80
413.88	2328.83
414.07	2305.43
414.26	2495.01
414.45	2567.57
414.64	2590.97
414.83	2502.03
415.02	2616.72
415.22	2583.95
415.41	2647.15
415.60	2693.96
415.79	2600.34
415.98	2771.19
416.17	2710.34
416.36	2668.21
416.55	2754.81
416.74	2747.79
416.93	2801.62
417.12	2715.02
417.31	2792.26
417.50	2890.56
417.69	3063.76
417.88	2827.37
418.07	2916.31
418.26	2909.29
418.45	2869.50
418.64	2963.12
418.83	2916.31
419.02	2991.20
419.21	3019.29
419.39	3005.25
419.58	3103.55
419.77	3049.72
419.96	3082.49
420.15	3089.51
420.34	3166.74
420.53	3316.54
420.72	3265.05
420.91	3201.85
421.10	3229.94
421.29	3426.54
421.48	3213.56
421.67	3302.50
421.86	3243.98
422.05	3222.92
422.24	3194.83
422.43	3222.92
422.61	3110.57
422.80	3433.57
422.99	3309.52
423.18	3389.10
423.37	3389.10
423.56	3229.94
423.75	3337.60
423.94	3300.16
424.13	3251.00
424.32	3180.79
424.50	3377.39
424.69	3454.63
424.88	3501.44
425.07	3421.86
425.26	3332.92
425.45	3384.41
425.64	3321.22
425.83	3438.25
426.01	3574.00
426.20	3459.31
426.39	3449.95
426.58	3361.01
426.77	3426.54
426.96	3419.52
427.15	3449.95
427.33	3475.70
427.52	3681.66
427.71	3667.62
427.90	3513.14
428.09	3541.23
428.28	3658.26
428.46	3714.43
428.65	3599.74
428.84	3730.81
429.03	3644.21
429.22	3527.19
429.40	3581.02
429.59	3634.85
429.78	3403.14
429.97	3513.14
430.16	3508.46
430.34	3749.54
430.53	3784.65
430.72	3623.15
430.91	3726.13
431.10	3698.05
431.28	3756.56
431.47	3999.98
431.66	4030.40
431.85	3798.69
432.03	4051.47
432.22	4074.87
432.41	3981.25
432.60	4021.04
432.79	3936.78
432.97	4159.13
433.16	4163.81
433.35	4053.81
433.54	4114.66
433.72	4021.04
433.91	4119.34
434.10	3943.80
434.28	3997.64
434.47	4180.20
434.66	4102.96
434.85	4138.07
435.03	4252.75
435.22	4210.62
435.41	4432.97
435.59	4273.82
435.78	4294.88
435.97	4454.04
436.16	4273.82
436.34	4369.78
436.53	4325.31
436.72	4526.60
436.90	4344.03
437.09	4418.93
437.28	4299.56
437.46	4348.72
437.65	4479.79
437.84	4617.88
438.02	4512.55
438.21	4430.63
438.40	4503.19
438.58	4444.68
438.77	4809.80
438.96	4557.02
439.14	4765.33
439.33	4865.97
439.52	4910.44
439.70	4730.22
439.89	4870.65
440.08	4891.72
440.26	4999.38
440.45	4765.33
440.63	5001.72
440.82	5064.92
441.01	5188.97
441.19	5135.14
441.38	4936.19
441.57	5254.50
441.75	5203.01
441.94	5352.81
442.12	5343.44
442.31	5591.54
442.50	5441.75
442.68	5563.45
442.87	5341.10
443.05	5434.72
443.24	5474.51
443.43	5423.02
443.61	5476.85
443.80	5584.52
443.98	5437.06
444.17	5252.16
444.35	5378.55
444.54	5652.39
444.73	5624.31
444.91	5425.36
445.10	5556.43
445.28	5603.24
445.47	5537.71
445.65	5568.13
445.84	5540.05
446.02	5680.48
446.21	5579.84
446.39	5612.60
446.58	5605.58
446.77	5713.25
446.95	5750.70
447.14	5703.89
447.32	5708.57
447.51	5654.73
447.69	5654.73
447.88	5724.95
448.06	5647.71
448.25	5544.73
448.43	5809.21
448.62	5734.31
448.80	5701.54
448.99	5900.49
449.17	5699.20
449.36	5715.59
449.54	5841.98
449.73	6026.88
449.91	6043.26
450.10	6113.48
450.28	6005.81
450.46	6122.84
450.65	5893.47
450.83	6160.29
451.02	6284.34
451.20	6106.46
451.39	6244.55
451.57	6008.16
451.76	6061.99
451.94	6202.42
452.13	6211.78
452.31	6200.08
452.49	6270.30
452.68	6370.94
452.86	6188.38
453.05	6207.10
453.23	6286.68
453.42	6277.32
453.60	6352.21
453.78	6452.86
453.97	6375.62
454.15	6218.80
454.34	6090.07
454.52	6530.09
454.70	6527.75
454.89	6258.59
455.07	6565.20
455.26	6417.75
455.44	6534.78
455.62	6541.80
455.81	6541.80
455.99	6700.95
456.17	6516.05
456.36	6597.97
456.54	6822.66
456.73	6724.36
456.91	6883.52
457.09	6902.24
457.28	7098.84
457.46	6794.58
457.64	7084.80
457.83	6848.41
458.01	6916.28
458.19	7148.00
458.38	7124.59
458.56	6979.48
458.74	6892.88
458.93	7206.51
459.11	7129.27
459.29	7117.57
459.48	7342.26
459.66	7199.49
459.84	7122.25
460.03	7353.96
460.21	7232.26
460.39	7389.07
460.57	7236.94
460.76	7384.39
460.94	7431.20
461.12	7581.00
461.31	7503.76
461.49	7396.09
461.67	7286.09
461.85	7742.49
462.04	7456.95
462.22	8042.08
462.40	7674.62
462.59	7634.83
462.77	7632.49
462.95	7578.65
463.13	7709.72
463.32	7772.92
463.50	7714.41
463.68	7777.60
463.86	7782.28
464.05	7836.11
464.23	7669.94
464.41	7705.04
464.59	7850.16
464.78	7779.94
464.96	7882.92
465.14	7920.37
465.32	8205.92
465.50	7981.23
465.69	7730.79
465.87	7920.37
466.05	8072.51
466.23	8046.76
466.41	7971.86
466.60	8210.60
466.78	8088.89
466.96	8095.91
467.14	8044.42
467.32	8224.64
467.51	8329.97
467.69	8018.68
467.87	8189.53
468.05	8292.52
468.23	7999.95
468.41	8205.92
468.60	8446.99
468.78	8280.82
468.96	8388.48
469.14	8322.94
469.32	8411.89
469.50	8269.11
469.69	8720.84
469.87	8444.65
470.05	8608.49
470.23	8552.32
470.41	8561.68
470.59	8585.08
470.77	8566.36
470.95	8805.10
471.14	8854.25
471.32	8568.70
471.50	8844.88
471.68	8978.30
471.86	8922.12
472.04	8847.22
472.22	9184.26
472.40	9036.81
472.58	9104.68
472.77	9202.99
472.95	9195.96
473.13	9366.82
473.31	9174.90
473.49	9280.22
473.67	9025.11
473.85	9158.52
474.03	9488.53
474.21	9572.79
474.39	9551.73
474.57	9666.41
474.75	9664.07
474.93	9776.42
475.12	9792.80
475.30	9661.73
475.48	9488.53
475.66	9968.34
475.84	9865.36
476.02	10040.90
476.20	10033.88
476.38	10211.76
476.56	10293.68
476.74	10270.27
476.92	10600.29
477.10	10373.25
477.28	10415.38
477.46	10487.94
477.64	10700.93
477.82	10366.23
478.00	10998.18
478.18	10862.43
478.36	11103.50
478.54	11295.43
478.72	11016.90
478.90	11527.14
479.08	11257.98
479.26	11384.37
479.44	11559.91
479.62	11414.79
479.80	11548.20
479.98	11630.12
480.16	11948.43
480.34	11658.21
480.52	11887.58
480.70	11578.63
480.88	11667.57
481.06	12180.15
481.24	12154.40
481.41	12313.56
481.59	12643.57
481.77	12552.29
481.95	12477.40
482.13	12695.07
482.31	12397.82
482.49	13085.94
482.67	13039.12
482.85	12779.32
483.03	13156.15
483.21	13071.89
483.39	13455.74
483.57	13441.70
483.74	13790.44
483.92	13797.46
484.10	13521.27
484.28	14272.59
484.46	14057.26
484.64	14415.36
484.82	14005.77
485.00	14141.52
485.18	14684.52
485.35	14806.23
485.53	14518.34
485.71	14490.26
485.89	14960.70
486.07	14590.90
486.25	15044.96
486.43	15103.48
486.61	15246.25
486.78	15433.49
486.96	15435.83
487.14	15667.55
487.32	15609.03
487.50	16035.01
487.68	15953.09
487.85	16306.51
488.03	16116.93
488.21	16465.67
488.39	16360.34
488.57	16683.34
488.75	16755.90
488.92	16781.64
489.10	16982.93
489.28	16975.91
489.46	17109.32
489.64	17226.34
489.81	17474.44
489.99	17734.24
490.17	17706.15
490.35	17762.33
490.53	17984.68
490.70	18005.74
490.88	18239.79
491.06	18618.96
491.24	18483.21
491.41	18258.52
491.59	18628.32
491.77	18845.99
491.95	18745.35
492.13	19026.21
492.30	19482.62
492.48	19178.35
492.66	19131.54
492.84	19459.21
493.01	19538.79
493.19	19482.62
493.37	19857.10
493.54	20051.37
493.72	20009.24
493.90	20030.30
494.08	20044.35
494.25	20533.52
494.43	20425.86
494.61	20486.71
494.79	20814.38
494.96	20748.85
495.14	20678.63
495.32	20931.41
495.49	21137.38
495.67	21209.93
495.85	21289.51
496.02	21331.64
496.20	21488.46
496.38	21837.20
496.55	21727.19
496.73	22012.74
496.91	21951.88
497.09	21905.07
497.26	22408.29
497.44	22328.71
497.62	22197.64
497.79	22537.02
497.97	22537.02
498.14	22728.94
498.32	22806.18
498.50	22984.06
498.67	23278.97
498.85	22986.40
499.03	23421.74
499.20	23316.42
499.38	23372.59
499.56	23620.69
499.73	23688.56
499.91	23543.45
500.08	23866.44
500.26	23690.90
500.44	24077.09
500.61	23854.74
500.79	23819.63
500.97	24114.54
501.14	24687.97
501.32	24350.93
501.49	24416.47
501.67	24133.26
501.84	24561.58
502.02	24636.48
502.20	24872.87
502.37	24776.91
502.55	25230.98
502.72	24854.15
502.90	24943.09
503.07	24945.43
503.25	25230.98
503.43	25266.08
503.60	25928.45
503.78	25598.44
503.95	25387.79
504.13	25481.41
504.30	25799.73
504.48	25542.27
504.65	25729.51
504.83	25928.45
505.01	25671.00
505.18	25881.64
505.36	26038.46
505.53	26253.79
505.71	26501.89
505.88	26691.47
506.06	26426.99
506.23	26506.57
506.41	26267.83
506.58	26520.61
506.76	26686.79
506.93	26719.56
507.11	26939.57
507.28	27117.45
507.46	27124.47
507.63	27234.47
507.81	27454.48
507.98	27243.84
508.16	27307.03
508.33	27182.98
508.50	27606.62
508.68	27524.70
508.85	27709.60
509.03	27440.44
509.20	28016.21
509.38	28041.96
509.55	28168.35
509.73	28166.01
509.90	28109.83
510.08	28325.16
510.25	28264.31
510.42	28261.97
510.60	28294.74
510.77	28641.14
510.95	28907.96
511.12	28814.34
511.30	28746.46
511.47	29214.57
511.64	29280.10
511.82	29193.50
511.99	29362.02
512.17	29193.50
512.34	29076.48
512.51	29298.83
512.69	29797.36
512.86	29972.90
513.04	29785.66
513.21	29809.06
513.38	29776.30
513.56	29612.46
513.73	29312.87
513.90	30206.95
514.08	30136.74
514.25	30185.89
514.43	30150.78
514.60	30132.06
514.77	30403.56
514.95	30644.63
515.12	30293.55
515.29	30410.58
515.47	30579.10
515.64	30756.98
515.81	30368.45
515.99	30869.33
516.16	30876.35
516.33	30810.81
516.51	30899.75
516.68	30925.50
516.85	30806.13
517.03	31077.63
517.20	31005.08
517.37	30862.30
517.54	31381.90
517.72	30991.03
517.89	31197.00
518.06	30899.75
518.24	31075.29
518.41	31562.12
518.58	31805.54
518.75	31662.77
518.93	31950.65
519.10	32208.11
519.27	32034.91
519.45	31805.54
519.62	32407.06
519.79	32180.03
519.96	32072.36
520.14	32301.73
520.31	31803.20
520.48	32151.94
520.65	32496.00
520.83	32680.90
521.00	32823.67
521.17	32851.76
521.34	32608.34
521.52	32837.72
521.69	32718.35
521.86	33193.48
522.03	33029.64
522.20	33167.73
522.38	33064.75
522.55	33823.08
522.72	33762.23
522.89	33472.00
523.07	33457.96
523.24	33233.27
523.41	33436.89
523.58	33565.62
523.75	33706.05
523.92	33818.40
524.10	33991.60
524.27	33631.16
524.44	34291.19
524.61	33954.15
524.78	34110.97
524.96	34202.25
525.13	34485.45
525.30	34672.70
525.47	34450.35
525.64	34595.46
525.81	33912.02
525.98	34508.86
526.16	34567.37
526.33	34497.16
526.50	34611.84
526.67	34508.86
526.84	34410.56
527.01	34658.65
527.18	34789.72
527.36	35051.86
527.53	35218.04
527.70	35115.06
527.87	35379.54
528.04	35152.51
528.21	35716.58
528.38	35297.62
528.55	35573.80
528.72	35400.60
528.89	35349.11
529.07	35601.89
529.24	35204.00
529.41	35901.48
529.58	35576.14
529.75	35480.18
529.92	35672.10
530.09	35917.86
530.26	35831.26
530.43	35793.81
530.60	35445.07
530.77	35660.40
530.94	35847.64
531.11	36203.41
531.28	36435.12
531.46	36435.12
531.63	36219.79
531.80	36257.24
531.97	36254.90
532.14	36360.22
532.31	36311.07
532.48	36514.70
532.65	36739.39
532.82	36430.44
532.99	37043.66
533.16	36231.49
533.33	36613.00
533.50	37013.23
533.67	36828.33
533.84	36715.98
534.01	36818.97
534.18	36554.49
534.35	37195.79
534.52	36760.45
534.69	37095.15
534.86	37549.21
535.03	37006.21
535.20	37354.95
535.37	37282.39
535.54	37380.70
535.71	37418.14
535.88	37656.88
536.05	37453.25
536.22	37380.70
536.38	37680.28
536.55	37357.29
536.72	37546.87
536.89	37708.37
537.06	37666.24
537.23	37907.32
537.40	37326.86
537.57	37851.14
537.74	38059.45
537.91	38445.64
538.08	38389.47
538.25	37841.78
538.42	38480.75
538.59	38242.01
538.75	37949.45
538.92	38356.70
539.09	38445.64
539.26	37949.45
539.43	38136.69
539.60	38335.63
539.77	37979.87
539.94	38424.57
540.11	38342.66
540.28	38160.09
540.44	38609.48
540.61	38541.60
540.78	38403.51
540.95	39140.78
541.12	38490.11
541.29	38939.49
541.46	38937.15
541.62	38630.54
541.79	39253.12
541.96	38611.82
542.13	38801.40
542.30	39419.30
542.47	38651.61
542.63	38920.77
542.80	39473.13
542.97	39601.86
543.14	39828.90
543.31	39299.94
543.48	39562.08
543.64	39929.54
543.81	39732.93
543.98	39796.13
544.15	39782.09
544.32	40231.47
544.48	39833.58
544.65	39445.05
544.82	39957.63
544.99	39545.69
545.16	40039.54
545.32	40020.82
545.49	39508.24
545.66	40191.68
545.83	39770.38
546.00	40620.00
546.16	40247.85
546.33	39803.15
546.50	39758.68
546.67	40004.44
546.83	40020.82
547.00	40362.54
547.17	39966.99
547.34	40493.61
547.50	40428.07
547.67	40491.27
547.84	40540.42
548.00	41109.17
548.17	40870.43
548.34	40367.22
548.51	40755.75
548.67	40549.78
548.84	41287.05
549.01	40521.69
549.18	40521.69
549.34	40505.31
549.51	40435.10
549.68	40980.44
549.84	40942.99
550.01	41305.77
550.18	41258.96
550.34	40793.20
550.51	41338.54
550.68	41132.57
550.84	40685.53
551.01	40858.73
551.18	41031.93
551.34	40926.61
551.51	41212.15
551.68	41207.47
551.84	41422.80
552.01	41261.30
552.18	41338.54
552.34	40973.42
552.51	41343.22
552.68	41322.16
552.84	41429.82
553.01	41801.97
553.18	41839.42
553.34	41720.05
553.51	41170.02
553.67	41881.55
553.84	41818.35
554.01	42134.32
554.17	41890.91
554.34	41823.03
554.51	42071.13
554.67	42167.09
554.84	41647.49
555.00	41947.08
555.17	42150.71
555.33	41806.65
555.50	41633.45
555.67	41834.74
555.83	42209.22
556.00	42384.76
556.16	42520.51
556.33	42335.61
556.50	41858.14
556.66	42057.09
556.83	42181.13
556.99	42457.32
557.16	42396.46
557.32	42127.30
557.49	42527.53
557.65	42003.25
557.82	42286.46
557.98	41993.89
558.15	42183.48
558.32	42684.35
558.48	42848.19
558.65	42637.54
558.81	42012.62
558.98	42344.97
559.14	42412.85
559.31	42403.49
559.47	42319.23
559.64	42932.45
559.80	42387.10
559.97	42717.12
560.13	42010.28
560.30	42735.84
560.46	42735.84
560.63	43042.45
560.79	43075.22
560.96	42864.57
561.12	42658.60
561.29	42178.79
561.45	42686.69
561.61	42609.45
561.78	42497.11
561.94	42806.06
562.11	42625.84
562.27	43040.11
562.44	42717.12
562.60	42742.86
562.77	43217.99
562.93	43026.07
563.10	42939.47
563.26	42866.91
563.42	42377.74
563.59	43037.77
563.75	42911.38
563.92	43248.42
564.08	43274.16
564.24	43655.67
564.41	43543.33
564.57	43058.84
564.74	43058.84
564.90	43381.83
565.07	43697.80
565.23	43112.67
565.39	43533.96
565.56	43140.75
565.72	43201.61
565.88	43072.88
566.05	42937.13
566.21	43484.81
566.38	42454.98
566.54	43292.89
566.70	43779.72
566.87	43819.51
567.03	43164.16
567.19	43845.26
567.36	43674.40
567.52	42775.63
567.68	43576.09
567.85	42979.26
568.01	43384.17
568.17	43215.65
568.34	43264.80
568.50	43655.67
568.66	43351.40
568.83	43262.46
568.99	43140.75
569.15	43358.42
569.32	43117.35
569.48	43140.75
569.64	43669.72
569.81	43662.69
569.97	43501.20
570.13	43653.33
570.30	43323.32
570.46	43498.86
570.62	43136.07
570.78	43370.13
570.95	43456.73
571.11	43704.82
571.27	43330.34
571.43	43353.74
571.60	43606.52
571.76	43665.03
571.92	43232.04
572.09	43391.19
572.25	43613.54
572.41	43393.53
572.57	43899.09
572.74	43894.41
572.90	43658.01
573.06	43763.34
573.22	43550.35
573.38	43440.34
573.55	43325.66
573.71	43983.35
573.87	43552.69
574.03	43175.86
574.20	43285.87
574.36	43849.94
574.52	43428.64
574.68	43126.71
574.84	43744.61
575.01	43449.70
575.17	43421.62
575.33	43814.83
575.49	43419.28
575.65	44161.23
575.82	44130.80
575.98	43721.21
576.14	43997.39
576.30	43878.02
576.46	43339.70
576.62	43576.09
576.79	43510.56
576.95	43555.03
577.11	43751.63
577.27	43770.36
577.43	43423.96
577.59	43934.20
577.75	44271.23
577.92	43779.72
578.08	43447.36
578.24	43662.69
578.40	43744.61
578.56	43957.60
578.72	44048.88
578.88	43929.51
579.04	43938.88
579.21	43824.19
579.37	43203.95
579.53	43688.44
579.69	43416.94
579.85	43765.68
580.01	44245.49
580.17	44083.99
580.33	44409.32
580.49	43997.39
580.65	43639.29
580.82	43739.93
580.98	43988.03
581.14	43672.06
581.30	44528.69
581.46	43934.20
581.62	43718.87
581.78	44273.57
581.94	44322.72
582.10	43901.43
582.26	43971.64
582.42	43943.56
582.58	43847.60
582.74	43777.38
582.90	43753.97
583.06	44151.87
583.22	43803.13
583.38	44453.79
583.54	43929.51
583.70	43445.02
583.86	43847.60
584.02	43536.30
584.18	44034.84
584.34	43842.92
584.50	44170.59
584.66	44381.24
584.82	43746.95
584.98	44198.68
585.14	43917.81
585.30	43653.33
585.46	44116.76
585.62	43880.36
585.78	43772.70
585.94	43981.01
586.10	44016.11
586.26	43753.97
586.42	44128.46
586.58	43966.96
586.74	43969.30
586.90	43276.51
587.06	43728.23
587.22	43978.67
587.38	43826.53
587.54	44229.10
587.70	44133.14
587.86	44088.67
588.02	44374.22
588.18	44304.00
588.34	44055.90
588.49	43871.00
588.65	43665.03
588.81	43915.47
588.97	43992.71
589.13	43875.68
589.29	43725.89
589.45	44144.84
589.61	43934.20
589.77	44245.49
589.93	44772.11
590.08	44442.09
590.24	44320.38
590.40	44507.63
