SpectraSuite Data File
++++++++++++++++++++++++++++++++++++
Date: Fri Oct 25 11:34:02 EDT 2013
User: price-jones
Dark Spectrum Present: No
Reference Spectrum Present: No
Number of Sampled Component Spectra: 1
Spectrometers: USB2+H05261
Integration Time (usec): 100000 (USB2+H05261)
Spectra Averaged: 1 (USB2+H05261)
Boxcar Smoothing: 0 (USB2+H05261)
Correct for Electrical Dark: No (USB2+H05261)
Strobe/Lamp Enabled: No (USB2+H05261)
Correct for Detector Non-linearity: No (USB2+H05261)
Correct for Stray Light: No (USB2+H05261)
Number of Pixels in Processed Spectrum: 2048
>>>>>Begin Processed Spectral Data<<<<<
365.73	358.10
365.92	358.10
366.12	358.10
366.32	205.97
366.52	201.29
366.72	147.45
366.91	205.97
367.11	145.11
367.31	217.67
367.51	201.29
367.70	217.67
367.90	145.11
368.10	177.88
368.30	194.26
368.49	224.69
368.69	177.88
368.89	173.20
369.09	222.35
369.28	189.58
369.48	184.90
369.68	191.92
369.87	264.48
370.07	180.22
370.27	287.89
370.47	341.72
370.66	479.81
370.86	547.69
371.06	573.43
371.25	456.40
371.45	489.17
371.65	566.41
371.84	533.64
372.04	535.98
372.24	554.71
372.44	521.94
372.63	606.20
372.83	589.82
373.03	580.45
373.22	585.13
373.42	472.79
373.62	624.92
373.81	631.94
374.01	653.01
374.21	723.23
374.40	676.41
374.60	662.37
374.79	681.10
374.99	627.26
375.19	634.29
375.38	683.44
375.58	627.26
375.78	744.29
375.97	755.99
376.17	758.33
376.37	620.24
376.56	711.52
376.76	627.26
376.95	674.07
377.15	664.71
377.35	669.39
377.54	674.07
377.74	660.03
377.93	655.35
378.13	638.97
378.33	674.07
378.52	727.91
378.72	800.46
378.91	645.99
379.11	676.41
379.31	748.97
379.50	692.80
379.70	732.59
379.89	688.12
380.09	709.18
380.28	763.01
380.48	821.53
380.68	697.48
380.87	725.57
381.07	720.88
381.26	730.25
381.46	720.88
381.65	809.83
381.85	706.84
382.04	739.61
382.24	753.65
382.43	777.06
382.63	788.76
382.83	786.42
383.02	837.91
383.22	781.74
383.41	774.72
383.61	734.93
383.80	823.87
384.00	791.10
384.19	837.91
384.39	746.63
384.58	842.59
384.78	858.98
384.97	861.32
385.17	816.85
385.36	863.66
385.56	887.06
385.75	739.61
385.95	830.89
386.14	891.74
386.34	856.64
386.53	847.27
386.72	887.06
386.92	833.23
387.11	908.13
387.31	910.47
387.50	856.64
387.70	858.98
387.89	870.68
388.09	830.89
388.28	917.49
388.48	910.47
388.67	926.85
388.86	938.55
389.06	868.34
389.25	908.13
389.45	938.55
389.64	983.02
389.84	978.34
390.03	968.98
390.22	957.28
390.42	1034.52
390.61	922.17
390.81	905.79
391.00	903.45
391.19	1008.77
391.39	1029.84
391.58	964.30
391.78	1011.11
391.97	1053.24
392.16	943.24
392.36	1088.35
392.55	1050.90
392.75	1008.77
392.94	1006.43
393.13	1062.60
393.33	940.90
393.52	1114.10
393.71	1193.67
393.91	1022.81
394.10	1036.86
394.29	1086.01
394.49	1128.14
394.68	1083.67
394.88	1071.97
395.07	1144.52
395.26	1100.05
395.46	1149.20
395.65	1170.27
395.84	1132.82
396.04	1177.29
396.23	1179.63
396.42	1217.08
396.62	1268.57
396.81	1198.35
397.00	1219.42
397.19	1254.53
397.39	1224.10
397.58	1240.48
397.77	1156.22
397.97	1303.68
398.16	1252.19
398.35	1301.34
398.55	1294.32
398.74	1294.32
398.93	1240.48
399.12	1322.40
399.32	1210.06
399.51	1313.04
399.70	1299.00
399.90	1317.72
400.09	1387.94
400.28	1338.79
400.47	1378.58
400.67	1341.13
400.86	1345.81
401.05	1434.75
401.24	1430.07
401.44	1404.32
401.63	1376.24
401.82	1404.32
402.01	1366.87
402.21	1483.90
402.40	1554.12
402.59	1519.01
402.78	1448.79
402.97	1490.92
403.17	1507.30
403.36	1462.83
403.55	1589.22
403.74	1549.43
403.93	1598.59
404.13	1514.33
404.32	1589.22
404.51	1666.46
404.70	1605.61
404.89	1666.46
405.09	1666.46
405.28	1582.20
405.47	1671.14
405.66	1715.61
405.85	1713.27
406.05	1664.12
406.24	1708.59
406.43	1746.04
406.62	1799.87
406.81	1891.15
407.00	1727.32
407.20	1708.59
407.39	1760.08
407.58	1832.64
407.77	1830.30
407.96	1863.07
408.15	1813.92
408.34	1853.70
408.54	1830.30
408.73	1942.64
408.92	1851.36
409.11	1980.09
409.30	2017.54
409.49	1954.35
409.68	1942.64
409.87	1937.96
410.07	1961.37
410.26	2031.58
410.45	2052.65
410.64	2071.37
410.83	2118.18
411.02	2174.36
411.21	2069.03
411.40	2235.21
411.59	2134.57
411.78	2153.29
411.98	2097.12
412.17	2310.11
412.36	2284.36
412.55	2321.81
412.74	2270.32
412.93	2338.20
413.12	2239.89
413.31	2450.54
413.50	2406.07
413.69	2509.05
413.88	2546.50
414.07	2387.35
414.26	2462.24
414.45	2572.25
414.64	2504.37
414.83	2609.70
415.02	2670.55
415.22	2539.48
415.41	2679.91
415.60	2619.06
415.79	2633.10
415.98	2729.06
416.17	2785.24
416.36	2626.08
416.55	2689.28
416.74	2691.62
416.93	2803.96
417.12	2949.08
417.31	2822.69
417.50	2834.39
417.69	3005.25
417.88	2892.90
418.07	2984.18
418.26	2949.08
418.45	2904.60
418.64	3019.29
418.83	3000.57
419.02	2986.52
419.21	2991.20
419.39	3026.31
419.58	3119.93
419.77	3126.96
419.96	3225.26
420.15	3187.81
420.34	3054.40
420.53	3190.15
420.72	3204.19
420.91	3253.34
421.10	3260.37
421.29	3194.83
421.48	3080.14
421.67	3222.92
421.86	3260.37
422.05	3222.92
422.24	3211.22
422.43	3386.76
422.61	3281.43
422.80	3389.10
422.99	3229.94
423.18	3407.82
423.37	3386.76
423.56	3255.69
423.75	3328.24
423.94	3178.45
424.13	3171.43
424.32	3276.75
424.50	3396.12
424.69	3581.02
424.88	3482.72
425.07	3321.22
425.26	3475.70
425.45	3248.66
425.64	3400.80
425.83	3449.95
426.01	3478.04
426.20	3417.18
426.39	3403.14
426.58	3351.65
426.77	3377.39
426.96	3421.86
427.15	3471.01
427.33	3520.17
427.52	3393.78
427.71	3562.30
427.90	3569.32
428.09	3604.42
428.28	3763.58
428.46	3672.30
428.65	3468.67
428.84	3709.75
429.03	3618.47
429.22	3597.40
429.40	3786.99
429.59	3822.09
429.78	3616.13
429.97	3510.80
430.16	3747.20
430.34	3791.67
430.53	3749.54
430.72	3726.13
430.91	3819.75
431.10	3850.18
431.28	3946.14
431.47	3918.06
431.66	4081.89
431.85	3978.91
432.03	3964.87
432.22	4196.58
432.41	3974.23
432.60	4049.13
432.79	3880.61
432.97	4133.39
433.16	3985.93
433.35	3967.21
433.54	4184.88
433.72	4086.58
433.91	4117.00
434.10	4322.97
434.28	4119.34
434.47	4170.83
434.66	4086.58
434.85	4248.07
435.03	4269.14
435.22	4245.73
435.41	4367.44
435.59	4269.14
435.78	4269.14
435.97	4297.22
436.16	4320.63
436.34	4386.16
436.53	4402.55
436.72	4533.62
436.90	4435.32
437.09	4458.72
437.28	4421.27
437.46	4418.93
437.65	4599.15
437.84	4533.62
438.02	4540.64
438.21	4582.77
438.40	4533.62
438.58	4580.43
438.77	4669.37
438.96	4671.71
439.14	4739.58
439.33	4873.00
439.52	4856.61
439.70	4880.02
439.89	5055.56
440.08	4990.02
440.26	5022.79
440.45	5036.83
440.63	5074.28
440.82	5076.62
441.01	4968.96
441.19	5137.48
441.38	5146.84
441.57	5107.05
441.75	4997.04
441.94	5261.52
442.12	5320.04
442.31	5568.13
442.50	5266.21
442.68	5383.23
442.87	5210.03
443.05	5364.51
443.24	5511.96
443.43	5481.53
443.61	5430.04
443.80	5521.32
443.98	5320.04
444.17	5362.17
444.35	5493.24
444.54	5621.97
444.73	5692.18
444.91	5425.36
445.10	5476.85
445.28	5703.89
445.47	5453.45
445.65	5593.88
445.84	5654.73
446.02	5832.62
446.21	5572.82
446.39	5717.93
446.58	5706.23
446.77	5619.63
446.95	5446.43
447.14	5530.69
447.32	5755.38
447.51	5600.90
447.69	5647.71
447.88	5783.46
448.06	5675.80
448.25	5687.50
448.43	5720.27
448.62	5750.70
448.80	5645.37
448.99	5720.27
449.17	5818.57
449.36	5853.68
449.54	5951.98
449.73	5853.68
449.91	6150.93
450.10	5919.21
450.28	6218.80
450.46	5968.37
450.65	6022.20
450.83	6029.22
451.02	5860.70
451.20	5975.39
451.39	6047.94
451.57	6190.72
451.76	5954.32
451.94	6026.88
452.13	6127.52
452.31	6197.74
452.49	6092.41
452.68	6310.08
452.86	6239.87
453.05	6331.15
453.23	6265.61
453.42	6136.88
453.60	6361.58
453.78	6427.11
453.97	6099.44
454.15	6267.95
454.34	6204.76
454.52	6345.19
454.70	6424.77
454.89	6513.71
455.07	6413.07
455.26	6459.88
455.44	6551.16
455.62	6588.61
455.81	6527.75
455.99	6626.06
456.17	6724.36
456.36	6738.40
456.54	6970.12
456.73	6890.54
456.91	6946.71
457.09	6878.83
457.28	6993.52
457.46	6892.88
457.64	6953.73
457.83	7000.54
458.01	6864.79
458.19	7030.97
458.38	7155.02
458.56	7260.34
458.74	7145.66
458.93	7019.27
459.11	7103.53
459.29	7136.29
459.48	7241.62
459.66	7150.34
459.84	7337.58
460.03	7426.52
460.21	7351.62
460.39	7382.05
460.57	7384.39
460.76	7300.13
460.94	7400.77
461.12	7517.80
461.31	7424.18
461.49	7293.11
461.67	7466.31
461.85	7691.00
462.04	7515.46
462.22	8070.17
462.40	7623.12
462.59	7625.47
462.77	7597.38
462.95	7740.15
463.13	7730.79
463.32	7768.24
463.50	7695.68
463.68	7812.71
463.86	7871.22
464.05	7616.10
464.23	7950.80
464.41	7873.56
464.59	7721.43
464.78	7925.05
464.96	7920.37
465.14	7761.22
465.32	8006.97
465.50	7976.55
465.69	8002.29
465.87	8095.91
466.05	7999.95
466.23	8028.04
466.41	7793.98
466.60	8287.84
466.78	8173.15
466.96	8355.71
467.14	7861.86
467.32	8308.90
467.51	8236.35
467.69	7967.18
467.87	8166.13
468.05	8325.29
468.23	8322.94
468.41	8269.11
468.60	8428.27
468.78	8301.88
468.96	8238.69
469.14	8238.69
469.32	8538.27
469.50	8224.64
469.69	8505.51
469.87	8465.72
470.05	8468.06
470.23	8709.13
470.41	8629.56
470.59	8751.26
470.77	8851.91
470.95	8777.01
471.14	8931.48
471.32	8695.09
471.50	8816.80
471.68	8898.72
471.86	8917.44
472.04	8999.36
472.22	9207.67
472.40	9104.68
472.58	9100.00
472.77	9011.06
472.95	9163.20
473.13	9593.86
473.31	9146.81
473.49	9331.72
473.67	9324.69
473.85	9483.85
474.03	9621.94
474.21	9643.01
474.39	10066.64
474.57	9675.77
474.75	9633.64
474.93	9699.18
475.12	9811.53
475.30	9825.57
475.48	9877.06
475.66	10043.24
475.84	9947.28
476.02	10246.87
476.20	9879.40
476.38	10298.36
476.56	10375.59
476.74	10555.82
476.92	10380.28
477.10	10274.95
477.28	10480.92
477.46	10640.08
477.64	10588.58
477.82	10569.86
478.00	11103.50
478.18	10960.73
478.36	11052.01
478.54	11117.54
478.72	11288.40
478.90	11199.46
479.08	11372.66
479.26	11477.99
479.44	11351.60
479.62	11733.11
479.80	11595.01
479.98	11653.53
480.16	11967.16
480.34	12102.91
480.52	12156.74
480.70	12121.63
480.88	12035.03
481.06	12114.61
481.24	12245.68
481.41	12503.14
481.59	12573.36
481.77	12737.20
481.95	12725.49
482.13	12901.03
482.31	12732.51
482.49	13067.21
482.67	13277.86
482.85	13200.62
483.03	13205.30
483.21	13507.23
483.39	13825.54
483.57	13624.26
483.74	13607.87
483.92	13724.90
484.10	13865.33
484.28	14225.78
484.46	14216.41
484.64	14324.08
484.82	14408.34
485.00	14448.13
485.18	14860.06
485.35	15037.94
485.53	14703.25
485.71	14892.83
485.89	15281.36
486.07	15356.25
486.25	14986.45
486.43	15587.97
486.61	15590.31
486.78	15353.91
486.96	15449.88
487.14	15707.34
487.32	15829.04
487.50	15985.86
487.68	16489.07
487.85	16053.73
488.03	16517.16
488.21	16741.85
488.39	16690.36
488.57	16840.15
488.75	17034.42
488.92	16917.39
489.10	17436.99
489.28	17488.48
489.46	17649.98
489.64	17525.93
489.81	17951.91
489.99	17860.63
490.17	17947.23
490.35	18085.32
490.53	18324.05
490.70	18356.82
490.88	18043.19
491.06	18625.98
491.24	18735.99
491.41	18743.01
491.59	19014.51
491.77	19096.43
491.95	19534.11
492.13	19339.85
492.30	19384.32
492.48	19108.13
492.66	19309.42
492.84	19702.63
493.01	19932.00
493.19	19840.72
493.37	20245.63
493.54	20032.65
493.72	20702.04
493.90	20187.12
494.08	20467.98
494.25	20781.62
494.43	20636.50
494.61	21064.82
494.79	20908.01
494.96	21055.46
495.14	21371.43
495.32	21469.73
495.49	21343.35
495.67	21458.03
495.85	21678.04
496.02	21467.39
496.20	21921.46
496.38	22380.20
496.55	22005.72
496.73	22714.90
496.91	22518.29
497.09	22408.29
497.26	22658.73
497.44	22370.84
497.62	22747.67
497.79	23012.15
497.97	22984.06
498.14	23534.09
498.32	23295.35
498.50	23398.34
498.67	23618.35
498.85	23644.09
499.03	23564.51
499.20	23695.58
499.38	23807.93
499.56	24011.56
499.73	23906.23
499.91	24292.42
500.08	24018.58
500.26	24100.50
500.44	24306.46
500.61	24463.28
500.79	24135.60
500.97	24980.54
501.14	24725.42
501.32	25083.52
501.49	24816.70
501.67	25081.18
501.84	25144.38
502.02	25074.16
502.20	25252.04
502.37	25027.35
502.55	25254.38
502.72	25202.89
502.90	25394.81
503.07	25565.67
503.25	25411.20
503.43	25617.16
503.60	25968.24
503.78	26382.52
503.95	25811.43
504.13	26082.93
504.30	26375.50
504.48	26618.91
504.65	26574.44
504.83	26686.79
505.01	26747.64
505.18	26822.54
505.36	26962.97
505.53	26679.77
505.71	27110.43
505.88	27091.70
506.06	27007.44
506.23	27426.40
506.41	26902.12
506.58	27417.04
506.76	27332.78
506.93	27728.33
507.11	27681.52
507.28	27632.36
507.46	28013.87
507.63	27585.55
507.81	28020.89
507.98	27990.47
508.16	28222.18
508.33	28142.60
508.50	28121.54
508.68	28491.34
508.85	28716.03
509.03	28350.91
509.20	28498.36
509.38	29050.73
509.55	28699.65
509.73	28842.42
509.90	28954.77
510.08	28856.46
510.25	29259.04
510.42	29195.84
510.60	29724.80
510.77	29418.19
510.95	29848.85
511.12	29212.23
511.30	29535.22
511.47	29359.68
511.64	29582.03
511.82	29848.85
511.99	29682.67
512.17	30300.58
512.34	30260.79
512.51	30272.49
512.69	30569.74
512.86	30291.21
513.04	30766.34
513.21	30443.35
513.38	30555.69
513.56	31138.49
513.73	30658.68
513.90	30843.58
514.08	30618.89
514.25	31143.17
514.43	30724.21
514.60	31194.66
514.77	31367.86
514.95	31412.33
515.12	31339.77
515.29	31061.25
515.47	31587.87
515.64	31482.55
515.81	31498.93
515.99	31768.09
516.16	32163.64
516.33	32065.34
516.51	31777.45
516.68	31957.67
516.85	31784.48
517.03	32254.92
517.20	32568.55
517.37	32109.81
517.54	32240.88
517.72	32657.49
517.89	32739.41
518.06	32870.48
518.24	32498.34
518.41	32273.65
518.58	32828.35
518.75	32383.65
518.93	32465.57
519.10	32315.78
519.27	33146.67
519.45	33237.95
519.62	33113.90
519.79	33254.33
519.96	33104.54
520.14	33207.52
520.31	33584.35
520.48	33216.88
520.65	33333.91
520.83	33818.40
521.00	33855.85
521.17	33792.65
521.34	33802.02
521.52	34047.77
521.69	34127.35
521.86	34359.06
522.03	34092.24
522.20	34794.40
522.38	34532.26
522.55	34930.16
522.72	34457.37
522.89	34394.17
523.07	34916.11
523.24	34190.55
523.41	34822.49
523.58	34602.48
523.75	35084.63
523.92	34937.18
524.10	35117.40
524.27	34749.93
524.44	35372.52
524.61	35023.78
524.78	35508.27
524.96	35522.31
525.13	35112.72
525.30	35732.96
525.47	35648.70
525.64	35463.80
525.81	35751.68
525.98	36156.60
526.16	35805.52
526.33	35723.60
526.50	35852.33
526.67	35981.06
526.84	35833.60
527.01	36088.72
527.18	36210.43
527.36	36156.60
527.53	36074.68
527.70	36694.92
527.87	36964.08
528.04	36563.85
528.21	36304.05
528.38	36636.41
528.55	36334.48
528.72	36760.45
528.89	37010.89
529.07	36601.30
529.24	36514.70
529.41	37507.08
529.58	36889.18
529.75	36954.72
529.92	36959.40
530.09	37041.32
530.26	37331.54
530.43	37036.64
530.60	37067.06
530.77	37191.11
530.94	37240.26
531.11	37471.98
531.28	37134.94
531.46	37420.48
531.63	37745.82
531.80	37577.30
531.97	37439.21
532.14	37846.46
532.31	37535.17
532.48	37933.06
532.65	37912.00
532.82	37673.26
532.99	38036.05
533.16	37741.14
533.33	37809.01
533.50	38368.40
533.67	38007.96
533.84	37717.73
534.01	38480.75
534.18	38134.35
534.35	38469.04
534.52	38508.83
534.69	39349.09
534.86	38862.26
535.03	38759.27
535.20	39131.42
535.37	39218.02
535.54	38822.47
535.71	38574.37
535.88	39126.74
536.05	38974.60
536.22	39304.62
536.38	38796.72
536.55	39112.69
536.72	39037.80
536.89	39077.58
537.06	39295.25
537.23	39686.12
537.40	39108.01
537.57	39007.37
537.74	39346.75
537.91	40091.04
538.08	39367.81
538.25	39337.38
538.42	39627.61
538.59	39988.05
538.75	39723.57
538.92	39777.40
539.09	39793.79
539.26	39746.98
539.43	39920.18
539.60	39580.80
539.77	39658.04
539.94	40322.75
540.11	40147.21
540.28	40437.44
540.44	40383.60
540.61	40114.44
540.78	40294.66
540.95	39791.45
541.12	40084.01
541.29	40100.40
541.46	40397.65
541.62	40348.50
541.79	40582.55
541.96	40191.68
542.13	40271.26
542.30	40844.69
542.47	40465.52
542.63	41071.72
542.80	41001.50
542.97	41418.12
543.14	41240.24
543.31	41223.86
543.48	41078.74
543.64	41546.85
543.81	41165.34
543.98	41270.67
544.15	41368.97
544.32	41221.52
544.48	41706.01
544.65	41890.91
544.82	41935.38
544.99	41368.97
545.16	41923.68
545.32	41570.25
545.49	41792.61
545.66	42555.62
545.83	41617.07
546.00	41853.46
546.16	41598.34
546.33	41610.04
546.50	41706.01
546.67	42057.09
546.83	41621.75
547.00	41752.82
547.17	42300.50
547.34	42300.50
547.50	42555.62
547.67	42258.37
547.84	42424.55
548.00	42260.71
548.17	42848.19
548.34	42543.92
548.51	43143.09
548.67	42639.88
548.84	42623.50
549.01	42628.18
549.18	42579.03
549.34	43065.86
549.51	42740.52
549.68	42909.04
549.84	42848.19
550.01	42941.81
550.18	42384.76
550.34	43049.47
550.51	43058.84
550.68	42913.72
550.84	43070.54
551.01	43196.93
551.18	42464.34
551.34	42993.30
551.51	42878.61
551.68	42993.30
551.84	42651.58
552.01	43051.81
552.18	43594.82
552.34	43290.55
552.51	43248.42
552.68	43250.76
552.84	43498.86
553.01	43690.78
553.18	43112.67
553.34	43779.72
553.51	43159.48
553.67	43257.78
553.84	43913.13
554.01	43702.48
554.17	43639.29
554.34	43775.04
554.51	43723.55
554.67	44243.15
554.84	43899.09
555.00	43873.34
555.17	43751.63
555.33	43887.39
555.50	44114.42
555.67	44100.37
555.83	44123.78
556.00	43852.28
556.16	44306.34
556.33	44524.01
556.50	44334.43
556.66	44212.72
556.83	44296.98
556.99	44715.93
557.16	44659.76
557.32	44542.74
557.49	44313.36
557.65	44081.65
557.82	44531.03
557.98	44371.88
558.15	44119.10
558.32	44964.03
558.48	44081.65
558.65	44261.87
558.81	45022.54
558.98	44832.96
559.14	44435.07
559.31	44603.59
559.47	44161.23
559.64	44741.68
559.80	45069.36
559.97	44903.18
560.13	44414.01
560.30	44114.42
560.46	45467.25
560.63	44945.31
560.79	45764.49
560.96	44858.71
561.12	45467.25
561.29	45102.12
561.45	45509.38
561.61	45125.53
561.78	44959.35
561.94	44919.56
562.11	45081.06
562.27	44858.71
562.44	44861.05
562.60	44987.44
562.77	45558.53
562.93	45214.47
563.10	45542.14
563.26	44779.13
563.42	45570.23
563.59	45146.59
563.75	45228.51
563.92	45188.72
564.08	45333.84
564.24	45610.02
564.41	45024.89
564.57	45481.29
564.74	45390.01
564.90	45544.48
565.07	45485.97
565.23	45471.93
565.39	45656.83
565.56	45544.48
565.72	45401.71
565.88	45551.51
566.05	45502.35
566.21	45823.01
566.38	45577.25
566.54	45839.39
566.70	45687.26
566.87	45963.44
567.03	45727.05
567.19	46103.87
567.36	45748.11
567.52	45935.35
567.68	46469.00
567.85	45553.85
568.01	45588.95
568.17	45713.00
568.34	45738.75
568.50	46052.38
568.66	45471.93
568.83	46136.64
568.99	45820.67
569.15	45839.39
569.32	45841.73
569.48	45261.28
569.64	46609.43
569.81	45823.01
569.97	46295.80
570.13	46188.13
570.30	45619.38
570.46	46150.68
570.62	46274.73
570.78	46050.04
570.95	46099.19
571.11	46501.76
571.27	45808.96
571.43	46050.04
571.60	46213.88
571.76	45666.19
571.92	45844.07
572.09	46309.84
572.25	45778.54
572.41	46124.94
572.57	46218.56
572.74	46677.30
572.90	46073.45
573.06	46291.12
573.22	46106.21
573.38	46443.25
573.55	46230.26
573.71	46686.67
573.87	46408.14
574.03	45813.65
574.20	46396.44
574.36	46679.64
574.52	46410.48
574.68	46443.25
574.84	46763.90
575.01	46405.80
575.17	46476.02
575.33	46138.98
575.49	45968.12
575.65	46583.68
575.82	46892.63
575.98	46230.26
576.14	46597.73
576.30	46955.83
576.46	46326.22
576.62	46466.66
576.79	46225.58
576.95	46146.00
577.11	45961.10
577.27	46150.68
577.43	46569.64
577.59	46660.92
577.75	46508.79
577.92	45993.87
578.08	46211.54
578.24	46677.30
578.40	46515.81
578.56	46520.49
578.72	46438.57
578.88	46920.72
579.04	46155.36
579.21	46295.80
579.37	46511.13
579.53	46700.71
579.69	46246.65
579.85	46279.41
580.01	46363.67
580.17	46148.34
580.33	47068.17
580.49	46852.84
580.65	46635.17
580.82	46541.55
580.98	46607.09
581.14	46576.66
581.30	46391.76
581.46	46305.16
581.62	46548.57
581.78	46213.88
581.94	46646.88
582.10	46738.16
582.26	46770.93
582.42	46714.75
582.58	46630.49
582.74	46857.52
582.90	46436.23
583.06	46878.59
583.22	46550.91
583.38	46918.38
583.54	46749.86
583.70	46862.21
583.86	46745.18
584.02	46120.26
584.18	46740.50
584.34	46616.45
584.50	46944.12
584.66	46911.36
584.82	47007.32
584.98	47271.80
585.14	47129.03
585.30	46450.27
585.46	46815.40
585.62	46649.22
585.78	46841.14
585.94	46569.64
586.10	46609.43
586.26	46728.80
586.42	46719.43
586.58	46712.41
586.74	46777.95
586.90	46726.46
587.06	46473.68
587.22	46724.11
587.38	46394.10
587.54	46799.01
587.70	47023.70
587.86	46740.50
588.02	46330.90
588.18	46719.43
588.34	46834.12
588.49	46813.05
588.65	46548.57
588.81	46838.80
588.97	47224.99
589.13	46883.27
589.29	46981.57
589.45	47140.73
589.61	46845.82
589.77	47122.01
589.93	47138.39
590.08	46941.78
