SpectraSuite Data File
++++++++++++++++++++++++++++++++++++
Date: Fri Oct 25 10:44:03 EDT 2013
User: price-jones
Dark Spectrum Present: No
Reference Spectrum Present: No
Number of Sampled Component Spectra: 1
Spectrometers: USB2+H05261
Integration Time (usec): 100000 (USB2+H05261)
Spectra Averaged: 1 (USB2+H05261)
Boxcar Smoothing: 0 (USB2+H05261)
Correct for Electrical Dark: No (USB2+H05261)
Strobe/Lamp Enabled: No (USB2+H05261)
Correct for Detector Non-linearity: No (USB2+H05261)
Correct for Stray Light: No (USB2+H05261)
Number of Pixels in Processed Spectrum: 2048
>>>>>Begin Processed Spectral Data<<<<<
365.73	168.52
365.92	168.52
366.12	168.52
366.32	0.00
366.52	0.00
366.72	51.49
366.91	14.04
367.11	0.00
367.31	0.00
367.51	93.62
367.70	0.00
367.90	0.00
368.10	44.47
368.30	2.34
368.49	0.00
368.69	4.68
368.89	14.04
369.09	63.19
369.28	84.26
369.48	63.19
369.68	102.98
369.87	88.94
370.07	84.26
370.27	128.73
370.47	255.12
370.66	376.83
370.86	435.34
371.06	491.51
371.25	498.53
371.45	491.51
371.65	489.17
371.84	409.59
372.04	475.13
372.24	482.15
372.44	414.27
372.63	608.54
372.83	575.77
373.03	451.72
373.22	418.96
373.42	575.77
373.62	554.71
373.81	580.45
374.01	559.39
374.21	592.16
374.40	547.69
374.60	596.84
374.79	571.09
374.99	676.41
375.19	657.69
375.38	657.69
375.58	650.67
375.78	624.92
375.97	606.20
376.17	669.39
376.37	674.07
376.56	645.99
376.76	603.86
376.95	634.29
377.15	622.58
377.35	664.71
377.54	657.69
377.74	683.44
377.93	667.05
378.13	739.61
378.33	709.18
378.52	650.67
378.72	720.88
378.91	674.07
379.11	627.26
379.31	629.60
379.50	657.69
379.70	699.82
379.89	695.14
380.09	772.38
380.28	711.52
380.48	699.82
380.68	667.05
380.87	807.48
381.07	737.27
381.26	791.10
381.46	741.95
381.65	802.80
381.85	786.42
382.04	678.76
382.24	814.51
382.43	739.61
382.63	690.46
382.83	720.88
383.02	667.05
383.22	732.59
383.41	763.01
383.61	774.72
383.80	784.08
384.00	840.25
384.19	821.53
384.39	821.53
384.58	837.91
384.78	863.66
384.97	910.47
385.17	795.78
385.36	870.68
385.56	912.81
385.75	791.10
385.95	833.23
386.14	863.66
386.34	814.51
386.53	891.74
386.72	908.13
386.92	973.66
387.11	809.83
387.31	880.04
387.50	891.74
387.70	978.34
387.89	877.70
388.09	922.17
388.28	924.51
388.48	922.17
388.67	1025.15
388.86	945.58
389.06	1006.43
389.25	992.39
389.45	1027.50
389.64	1032.18
389.84	976.00
390.03	1025.15
390.22	1032.18
390.42	971.32
390.61	1083.67
390.81	1050.90
391.00	1200.69
391.19	1107.07
391.39	1025.15
391.58	1184.31
391.78	1022.81
391.97	1071.97
392.16	1062.60
392.36	1128.14
392.55	1130.48
392.75	1032.18
392.94	1055.58
393.13	1008.77
393.33	1025.15
393.52	1062.60
393.71	1158.57
393.91	1107.07
394.10	1167.93
394.29	1242.82
394.49	1193.67
394.68	1296.66
394.88	1284.95
395.07	1242.82
395.26	1320.06
395.46	1252.19
395.65	1397.30
395.84	1261.55
396.04	1343.47
396.23	1203.04
396.42	1156.22
396.62	1170.27
396.81	1221.76
397.00	1296.66
397.19	1296.66
397.39	1399.64
397.58	1385.60
397.77	1448.79
397.97	1474.54
398.16	1460.49
398.35	1600.93
398.55	1476.88
398.74	1519.01
398.93	1577.52
399.12	1607.95
399.32	1629.01
399.51	1631.35
399.70	1757.74
399.90	1757.74
400.09	1696.89
400.28	1682.85
400.47	1771.79
400.67	1682.85
400.86	1720.29
401.05	1689.87
401.24	1703.91
401.44	1760.08
401.63	1792.85
401.82	1853.70
402.01	1886.47
402.21	1797.53
402.40	1865.41
402.59	1760.08
402.78	1832.64
402.97	1832.64
403.17	1902.86
403.36	1867.75
403.55	1954.35
403.74	1975.41
403.93	1961.37
404.13	1900.52
404.32	1877.11
404.51	2015.20
404.70	2157.97
404.89	1994.14
405.09	2078.40
405.28	2040.95
405.47	2073.71
405.66	2143.93
405.85	2050.31
406.05	1994.14
406.24	2045.63
406.43	2097.12
406.62	2190.74
406.81	2267.98
407.00	2172.02
407.20	2085.42
407.39	2256.28
407.58	2246.91
407.77	2359.26
407.96	2298.41
408.15	2277.34
408.34	2298.41
408.54	2427.14
408.73	2452.88
408.92	2441.18
409.11	2464.58
409.30	2406.07
409.49	2539.48
409.68	2427.14
409.87	2462.24
410.07	2490.33
410.26	2438.84
410.45	2448.20
410.64	2588.63
410.83	2677.57
411.02	2621.40
411.21	2785.24
411.40	2612.04
411.59	2740.77
411.78	2792.26
411.98	2661.19
412.17	2801.62
412.36	2738.43
412.55	2850.77
412.74	2916.31
412.93	2782.90
413.12	2818.00
413.31	3080.14
413.50	2942.05
413.69	3045.04
413.88	3204.19
414.07	2995.89
414.26	3112.91
414.45	3166.74
414.64	3101.21
414.83	3197.17
415.02	3171.43
415.22	3169.09
415.41	3316.54
415.60	3283.77
415.79	3346.97
415.98	3363.35
416.17	3489.74
416.36	3375.05
416.55	3515.48
416.74	3445.27
416.93	3361.01
417.12	3489.74
417.31	3538.89
417.50	3480.38
417.69	3660.60
417.88	3634.85
418.07	3503.78
418.26	3468.67
418.45	3641.87
418.64	3857.20
418.83	3854.86
419.02	3637.19
419.21	3791.67
419.39	3660.60
419.58	3609.11
419.77	3625.49
419.96	3676.98
420.15	3695.71
420.34	3882.95
420.53	3899.33
420.72	4035.08
420.91	4030.40
421.10	3941.46
421.29	4245.73
421.48	4032.74
421.67	4032.74
421.86	4007.00
422.05	4044.45
422.24	3918.06
422.43	3981.25
422.61	4007.00
422.80	4145.09
422.99	4117.00
423.18	4102.96
423.37	4168.49
423.56	4119.34
423.75	4161.47
423.94	4011.68
424.13	3786.99
424.32	3920.40
424.50	4161.47
424.69	4257.43
424.88	4070.19
425.07	4060.83
425.26	4217.65
425.45	4081.89
425.64	4131.05
425.83	4161.47
426.01	4266.80
426.20	4348.72
426.39	4163.81
426.58	4182.54
426.77	4219.99
426.96	4177.86
427.15	4173.18
427.33	4215.30
427.52	4278.50
427.71	4346.37
427.90	4306.59
428.09	4294.88
428.28	4315.95
428.46	4301.90
428.65	4379.14
428.84	4475.10
429.03	4519.57
429.22	4292.54
429.40	4212.96
429.59	4234.03
429.78	4049.13
429.97	4126.36
430.16	4117.00
430.34	4231.69
430.53	4372.12
430.72	4369.78
430.91	4320.63
431.10	4557.02
431.28	4615.54
431.47	4805.12
431.66	4851.93
431.85	4674.05
432.03	4828.53
432.22	4961.94
432.41	4734.90
432.60	4870.65
432.79	4975.98
432.97	4952.57
433.16	5057.90
433.35	4961.94
433.54	4844.91
433.72	4875.34
433.91	4877.68
434.10	4870.65
434.28	4938.53
434.47	5085.98
434.66	5238.12
434.85	5130.45
435.03	5195.99
435.22	5057.90
435.41	5317.70
435.59	5280.25
435.78	5486.22
435.97	5444.09
436.16	5383.23
436.34	5320.04
436.53	5486.22
436.72	5420.68
436.90	5446.43
437.09	5458.13
437.28	5303.65
437.46	5434.72
437.65	5380.89
437.84	5423.02
438.02	5406.64
438.21	5399.62
438.40	5416.00
438.58	5521.32
438.77	5540.05
438.96	5624.31
439.14	5837.30
439.33	5717.93
439.52	5874.74
439.70	5823.25
439.89	6001.13
440.08	6015.18
440.26	5891.13
440.45	5954.32
440.63	6162.63
440.82	6296.04
441.01	6188.38
441.19	6223.48
441.38	6525.41
441.57	6356.90
441.75	6473.92
441.94	6525.41
442.12	6459.88
442.31	6654.14
442.50	6637.76
442.68	6682.23
442.87	6754.79
443.05	6647.12
443.24	6761.81
443.43	6927.99
443.61	6803.94
443.80	6920.96
443.98	6801.60
444.17	6532.44
444.35	6663.51
444.54	6965.43
444.73	6780.53
444.91	6841.39
445.10	6759.47
445.28	6904.58
445.47	6764.15
445.65	6722.02
445.84	6651.80
446.02	6974.80
446.21	6965.43
446.39	6979.48
446.58	7035.65
446.77	7002.88
446.95	7047.35
447.14	7150.34
447.32	7110.55
447.51	7089.48
447.69	6750.10
447.88	7033.31
448.06	7070.76
448.25	7068.42
448.43	7035.65
448.62	7005.22
448.80	7194.81
448.99	7295.45
449.17	7133.95
449.36	7035.65
449.54	7290.77
449.73	7339.92
449.91	7456.95
450.10	7669.94
450.28	7552.91
450.46	7644.19
450.65	7545.89
450.83	7651.21
451.02	7485.03
451.20	7658.23
451.39	7747.17
451.57	7611.42
451.76	7571.63
451.94	7501.42
452.13	7618.44
452.31	7691.00
452.49	7344.60
452.68	7548.23
452.86	7569.29
453.05	7714.41
453.23	7618.44
453.42	7606.74
453.60	7660.57
453.78	7817.39
453.97	7599.72
454.15	7733.13
454.34	7655.89
454.52	7803.35
454.70	7976.55
454.89	7857.18
455.07	7854.84
455.26	7988.25
455.44	8023.36
455.62	8121.66
455.81	7999.95
455.99	8105.28
456.17	8259.75
456.36	8166.13
456.54	8142.72
456.73	8477.42
456.91	8430.61
457.09	8669.34
457.28	8599.13
457.46	8278.47
457.64	8578.06
457.83	8631.90
458.01	8276.13
458.19	8390.82
458.38	8571.04
458.56	8617.85
458.74	8610.83
458.93	8571.04
459.11	8924.46
459.29	8709.13
459.48	8540.61
459.66	8631.90
459.84	8645.94
460.03	8917.44
460.21	9053.19
460.39	8760.63
460.57	8898.72
460.76	8978.30
460.94	9156.18
461.12	9125.75
461.31	8973.61
461.49	8990.00
461.67	9100.00
461.85	9240.44
462.04	9242.78
462.22	9753.01
462.40	9322.35
462.59	9362.14
462.77	9343.42
462.95	9371.50
463.13	9537.68
463.32	9294.27
463.50	9535.34
463.68	9479.17
463.86	9331.72
464.05	9378.53
464.23	9327.03
464.41	9558.75
464.59	9357.46
464.78	9579.81
464.96	9717.90
465.14	9423.00
465.32	9542.36
465.50	9760.03
465.69	9645.35
465.87	9626.62
466.05	9699.18
466.23	9462.79
466.41	9540.02
466.60	9884.08
466.78	9554.07
466.96	9638.33
467.14	9703.86
467.32	9785.78
467.51	9853.66
467.69	9668.75
467.87	9944.94
468.05	9982.38
468.23	9568.11
468.41	9769.40
468.60	9951.96
468.78	9935.57
468.96	10078.35
469.14	10061.96
469.32	10221.12
469.50	10057.28
469.69	10127.50
469.87	9994.09
470.05	10047.92
470.23	10211.76
470.41	10431.77
470.59	10106.43
470.77	10207.08
470.95	10239.84
471.14	10417.72
471.32	10338.15
471.50	10778.17
471.68	10789.87
471.86	10867.11
472.04	10806.25
472.22	10988.82
472.40	10733.70
472.58	10925.62
472.77	10979.45
472.95	10839.02
473.13	11426.50
473.31	10925.62
473.49	10991.16
473.67	11140.95
473.85	11169.04
474.03	11414.79
474.21	11440.54
474.39	11599.70
474.57	11545.86
474.75	11700.34
474.93	11700.34
475.12	11808.00
475.30	11899.28
475.48	11690.98
475.66	11875.88
475.84	11918.01
476.02	12025.67
476.20	11765.87
476.38	11892.26
476.56	12355.69
476.74	12351.01
476.92	12414.20
477.10	12336.96
477.28	12620.17
477.46	12493.78
477.64	12681.02
477.82	12872.95
478.00	13039.12
478.18	12877.63
478.36	13032.10
478.54	13078.91
478.72	13259.13
478.90	13614.90
479.08	13741.29
479.26	13593.83
479.44	13624.26
479.62	13722.56
479.80	13916.83
479.98	14047.90
480.16	14122.79
480.34	13907.46
480.52	14370.89
480.70	14391.95
480.88	14239.82
481.06	14616.65
481.24	14471.53
481.41	14988.79
481.59	15033.26
481.77	15082.41
481.95	15169.01
482.13	14991.13
482.31	15204.12
482.49	15681.59
482.67	15332.85
482.85	15630.10
483.03	15765.85
483.21	15946.07
483.39	15751.81
483.57	16137.99
483.74	16060.76
483.92	16308.85
484.10	16020.97
484.28	16585.04
484.46	16734.83
484.64	17186.55
484.82	16924.41
485.00	16924.41
485.18	17095.27
485.35	17083.57
485.53	16765.26
485.71	16526.52
485.89	16821.43
486.07	17055.48
486.25	17476.78
486.43	17563.38
486.61	17504.87
486.78	17879.35
486.96	18515.98
487.14	18401.29
487.32	18677.48
487.50	18820.25
487.68	18937.27
487.85	19068.34
488.03	19056.64
488.21	19438.15
488.39	19529.43
488.57	19300.06
488.75	19751.78
488.92	20126.27
489.10	19939.02
489.28	20079.46
489.46	20388.41
489.64	20585.01
489.81	21198.23
489.99	21116.31
490.17	21170.15
490.35	21486.12
490.53	21132.70
490.70	21366.75
490.88	21298.88
491.06	21687.40
491.24	21556.33
491.41	21467.39
491.59	21605.49
491.77	21490.80
491.95	22001.04
492.13	22471.48
492.30	22295.94
492.48	22436.38
492.66	22548.72
492.84	22785.12
493.01	22918.53
493.19	23012.15
493.37	23065.98
493.54	23255.56
493.72	23112.79
493.90	23889.85
494.08	23992.83
494.25	24016.24
494.43	23908.57
494.61	24243.27
494.79	24570.94
494.96	24311.14
495.14	24760.53
495.32	24809.68
495.49	24922.02
495.67	24648.18
495.85	24931.39
496.02	25088.20
496.20	25156.08
496.38	25495.46
496.55	25514.18
496.73	26092.29
496.91	25750.57
497.09	26068.89
497.26	25989.31
497.44	25832.49
497.62	26043.14
497.79	26082.93
497.97	26223.36
498.14	26349.75
498.32	26773.39
498.50	27105.74
498.67	27220.43
498.85	27087.02
499.03	27363.20
499.20	27740.03
499.38	27503.64
499.56	27466.19
499.73	27421.72
499.91	27955.36
500.08	27819.61
500.26	27381.93
500.44	27847.69
500.61	27831.31
500.79	27431.08
500.97	27754.07
501.14	27864.08
501.32	28130.90
501.49	28053.66
501.67	28360.27
501.84	28533.47
502.02	28718.37
502.20	28533.47
502.37	29149.03
502.55	28765.18
502.72	29144.35
502.90	29130.31
503.07	28837.74
503.25	29057.75
503.43	28842.42
503.60	28858.81
503.78	29125.63
503.95	29294.14
504.13	29553.94
504.30	29544.58
504.48	29919.07
504.65	30129.72
504.83	30125.04
505.01	30321.64
505.18	30445.69
505.36	30562.72
505.53	30291.21
505.71	30955.93
505.88	30492.50
506.06	30569.74
506.23	30913.80
506.41	30504.20
506.58	31110.40
506.76	31115.08
506.93	31150.19
507.11	31339.77
507.28	31395.95
507.46	30850.60
507.63	30892.73
507.81	31110.40
507.98	31236.79
508.16	31580.85
508.33	31257.85
508.50	32037.25
508.68	31896.82
508.85	32343.86
509.03	32404.72
509.20	32215.13
509.38	31913.20
509.55	32063.00
509.73	32217.47
509.90	32783.88
510.08	32526.42
510.25	32493.66
510.42	32357.91
510.60	33216.88
510.77	32531.11
510.95	33282.42
511.12	33209.86
511.30	33638.18
511.47	33039.00
511.64	33759.89
511.82	33535.20
511.99	33553.92
512.17	33399.44
512.34	33544.56
512.51	33837.12
512.69	33778.61
512.86	33715.42
513.04	34333.32
513.21	33703.71
513.38	33708.40
513.56	34136.71
513.73	34033.73
513.90	34174.16
514.08	34412.90
514.25	34185.86
514.43	34204.59
514.60	34295.87
514.77	34607.16
514.95	34272.46
515.12	34387.15
515.29	34930.16
515.47	35363.15
515.64	35229.74
515.81	35058.88
515.99	35140.80
516.16	35105.70
516.33	34756.96
516.51	35079.95
516.68	34312.25
516.85	34328.64
517.03	34646.95
517.20	35250.81
517.37	35363.15
517.54	35400.60
517.72	35129.10
517.89	35002.71
518.06	34976.97
518.24	35283.58
518.41	35606.57
518.58	35274.21
518.75	35573.80
518.93	35833.60
519.10	35803.17
519.27	35981.06
519.45	36271.28
519.62	36357.88
519.79	36388.31
519.96	36870.46
520.14	36872.80
520.31	36697.26
520.48	36407.03
520.65	36893.86
520.83	37266.01
521.00	36699.60
521.17	37322.18
521.34	37535.17
521.52	37177.07
521.69	37493.04
521.86	37256.65
522.03	37649.86
522.20	37333.89
522.38	37146.64
522.55	37610.07
522.72	37427.51
522.89	37422.83
523.07	37862.85
523.24	37560.92
523.41	38045.41
523.58	37986.89
523.75	38377.76
523.92	38410.53
524.10	38649.27
524.27	38548.62
524.44	38422.23
524.61	38408.19
524.78	38960.56
524.96	38787.36
525.13	38682.03
525.30	39407.60
525.47	39014.39
525.64	38883.32
525.81	39042.48
525.98	38738.21
526.16	38560.33
526.33	38085.20
526.50	38438.62
526.67	38415.21
526.84	38363.72
527.01	38663.31
527.18	38775.66
527.36	39070.56
527.53	39821.87
527.70	39831.24
527.87	39892.09
528.04	39220.36
528.21	39725.91
528.38	39861.66
528.55	39922.52
528.72	39927.20
528.89	40453.82
529.07	40247.85
529.24	39702.51
529.41	40053.59
529.58	39421.64
529.75	39927.20
529.92	40311.05
530.09	40156.57
530.26	40664.47
530.43	40767.45
530.60	40470.20
530.77	40250.19
530.94	41022.57
531.11	40823.62
531.28	41006.19
531.46	40961.72
531.63	40701.92
531.80	40814.26
531.97	40727.66
532.14	40830.65
532.31	39807.83
532.48	40561.48
532.65	40896.18
532.82	40837.67
532.99	41207.47
533.16	40732.34
533.33	41165.34
533.50	41092.79
533.67	41172.36
533.84	41209.81
534.01	41207.47
534.18	40804.90
534.35	41347.90
534.52	41911.97
534.69	41287.05
534.86	42071.13
535.03	41553.87
535.20	42038.36
535.37	41933.04
535.54	42036.02
535.71	41523.44
535.88	41860.48
536.05	41717.71
536.22	42085.17
536.38	42117.94
536.55	41895.59
536.72	41916.65
536.89	41918.99
537.06	41895.59
537.23	42274.76
537.40	42171.77
537.57	42323.91
537.74	42267.73
537.91	42728.82
538.08	42494.77
538.25	41825.37
538.42	42548.60
538.59	42576.69
538.75	42520.51
538.92	42579.03
539.09	42789.67
539.26	42834.14
539.43	42609.45
539.60	42733.50
539.77	42377.74
539.94	42630.52
540.11	42429.23
540.28	42700.73
540.44	42815.42
540.61	42660.94
540.78	42953.51
540.95	42473.70
541.12	42932.45
541.29	42960.53
541.46	42834.14
541.62	43159.48
541.79	43632.27
541.96	42784.99
542.13	43042.45
542.30	43026.07
542.47	43161.82
542.63	43728.23
542.80	43604.18
542.97	43550.35
543.14	43826.53
543.31	43695.46
543.48	44023.14
543.64	44411.67
543.81	44088.67
543.98	44252.51
544.15	43915.47
544.32	44189.31
544.48	44189.31
544.65	44465.50
544.82	44357.83
544.99	43941.22
545.16	44222.08
545.32	44271.23
545.49	44879.77
545.66	44889.13
545.83	44479.54
546.00	44598.91
546.16	44011.43
546.33	44341.45
546.50	43697.80
546.67	44247.83
546.83	44142.50
547.00	44456.14
547.17	44465.50
547.34	44626.99
547.50	44069.95
547.67	44957.01
547.84	44690.19
548.00	45146.59
548.17	45244.90
548.34	44849.35
548.51	45134.89
548.67	44884.45
548.84	44912.54
549.01	45020.20
549.18	45258.94
549.34	45048.29
549.51	45429.80
549.68	45495.33
549.84	45219.15
550.01	45610.02
550.18	45088.08
550.34	45521.08
550.51	45125.53
550.68	45104.46
550.84	45240.21
551.01	45111.49
551.18	45329.16
551.34	45193.40
551.51	45724.71
551.68	45251.92
551.84	45350.22
552.01	45663.85
552.18	45490.65
552.34	45432.14
552.51	45464.91
552.68	45415.76
552.84	45443.84
553.01	45855.78
553.18	45427.46
553.34	46134.30
553.51	45366.60
553.67	45481.29
553.84	46115.58
554.01	46028.98
554.17	45841.73
554.34	46003.23
554.51	45537.46
554.67	46124.94
554.84	45820.67
555.00	45935.35
555.17	45876.84
555.33	46150.68
555.50	45516.40
555.67	45787.90
555.83	45851.09
556.00	46148.34
556.16	46492.40
556.33	46211.54
556.50	45886.20
556.66	46162.39
556.83	45682.58
556.99	45867.48
557.16	46223.24
557.32	46270.05
557.49	46277.07
557.65	46129.62
557.82	46089.83
557.98	46153.02
558.15	46153.02
558.32	46164.73
558.48	46272.39
558.65	45773.86
558.81	45972.80
558.98	46555.60
559.14	45815.99
559.31	46138.98
559.47	46536.87
559.64	46387.08
559.80	46445.59
559.97	46724.11
560.13	46064.08
560.30	46356.65
560.46	46143.66
560.63	46630.49
560.79	46651.56
560.96	46770.93
561.12	46511.13
561.29	46305.16
561.45	46223.24
561.61	45998.55
561.78	46571.98
561.94	46164.73
562.11	46099.19
562.27	46153.02
562.44	46625.81
562.60	46768.58
562.77	47082.22
562.93	46663.26
563.10	46749.86
563.26	46459.63
563.42	46990.94
563.59	46373.03
563.75	46485.38
563.92	46611.77
564.08	46894.97
564.24	46820.08
564.41	46658.58
564.57	46937.10
564.74	46894.97
564.90	46665.60
565.07	46513.47
565.23	47023.70
565.39	46923.06
565.56	46469.00
565.72	46813.05
565.88	46522.83
566.05	46370.69
566.21	46953.49
566.38	46398.78
566.54	46997.96
566.70	46759.22
566.87	46815.40
567.03	46883.27
567.19	47093.92
567.36	46850.50
567.52	46529.85
567.68	46894.97
567.85	46986.25
568.01	46925.40
568.17	46890.29
568.34	46932.42
568.50	46951.15
568.66	47072.85
568.83	47213.29
568.99	46461.97
569.15	46859.87
569.32	46696.03
569.48	46478.36
569.64	47019.02
569.81	46756.88
569.97	46904.34
570.13	46838.80
570.30	46742.84
570.46	46855.18
570.62	46780.29
570.78	46691.35
570.95	46958.17
571.11	46906.68
571.27	46768.58
571.43	46810.71
571.60	46883.27
571.76	46656.24
571.92	47037.75
572.09	47196.90
572.25	47012.00
572.41	47339.68
572.57	47136.05
572.74	47372.44
572.90	46862.21
573.06	46923.06
573.22	47138.39
573.38	47161.79
573.55	47187.54
573.71	47264.78
573.87	47175.84
574.03	46934.76
574.20	47147.75
574.36	46930.08
574.52	47119.66
574.68	47325.63
574.84	47267.12
575.01	46941.78
575.17	46960.51
575.33	46878.59
575.49	46815.40
575.65	47040.09
575.82	47040.09
575.98	47098.60
576.14	47016.68
576.30	47110.30
576.46	46918.38
576.62	46857.52
576.79	47042.43
576.95	46946.47
577.11	47168.82
577.27	46976.89
577.43	47454.36
577.59	47452.02
577.75	46693.69
577.92	46576.66
578.08	46677.30
578.24	47002.64
578.40	46909.02
578.56	47086.90
578.72	47365.42
578.88	47260.10
579.04	47217.97
579.21	47161.79
579.37	46930.08
579.53	47248.39
579.69	47210.95
579.85	46939.44
580.01	47473.09
580.17	46969.87
580.33	46995.62
580.49	47203.92
580.65	47356.06
580.82	47232.01
580.98	47302.23
581.14	47107.96
581.30	47358.40
581.46	47119.66
581.62	47126.69
581.78	46913.70
581.94	47636.92
582.10	47353.72
582.26	47304.57
582.42	47107.96
582.58	47283.50
582.74	47077.54
582.90	46965.19
583.06	47494.15
583.22	47358.40
583.38	47744.59
583.54	47393.51
583.70	47449.68
583.86	47524.58
584.02	46988.60
584.18	47625.22
584.34	47257.76
584.50	47288.18
584.66	47243.71
584.82	47086.90
584.98	46981.57
585.14	47257.76
585.30	47161.79
585.46	47407.55
585.62	46836.46
585.78	46761.56
585.94	46677.30
586.10	46735.82
586.26	47131.37
586.42	47304.57
586.58	47325.63
586.74	47145.41
586.90	46813.05
587.06	47117.32
587.22	47302.23
587.38	47072.85
587.54	47016.68
587.70	47208.61
587.86	47105.62
588.02	47037.75
588.18	47578.41
588.34	47278.82
588.49	46906.68
588.65	46138.98
588.81	46401.12
588.97	46422.19
589.13	46632.83
589.29	46784.97
589.45	47112.64
589.61	47168.82
589.77	47290.52
589.93	46831.78
