SpectraSuite Data File
++++++++++++++++++++++++++++++++++++
Date: Fri Oct 25 11:23:24 EDT 2013
User: price-jones
Dark Spectrum Present: No
Reference Spectrum Present: No
Number of Sampled Component Spectra: 1
Spectrometers: USB2+H05261
Integration Time (usec): 100000 (USB2+H05261)
Spectra Averaged: 1 (USB2+H05261)
Boxcar Smoothing: 0 (USB2+H05261)
Correct for Electrical Dark: No (USB2+H05261)
Strobe/Lamp Enabled: No (USB2+H05261)
Correct for Detector Non-linearity: No (USB2+H05261)
Correct for Stray Light: No (USB2+H05261)
Number of Pixels in Processed Spectrum: 2048
>>>>>Begin Processed Spectral Data<<<<<
365.73	187.24
365.92	187.24
366.12	187.24
366.32	234.05
366.52	201.29
366.72	119.37
366.91	65.54
367.11	112.35
367.31	105.32
367.51	49.15
367.70	133.41
367.90	147.45
368.10	93.62
368.30	98.30
368.49	88.94
368.69	131.07
368.89	189.58
369.09	140.43
369.28	191.92
369.48	124.05
369.68	215.33
369.87	294.91
370.07	126.39
370.27	280.86
370.47	276.18
370.66	566.41
370.86	599.18
371.06	636.63
371.25	739.61
371.45	657.69
371.65	720.88
371.84	674.07
372.04	636.63
372.24	650.67
372.44	730.25
372.63	725.57
372.83	779.40
373.03	744.29
373.22	685.78
373.42	774.72
373.62	748.97
373.81	854.30
374.01	723.23
374.21	748.97
374.40	800.46
374.60	821.53
374.79	781.74
374.99	814.51
375.19	903.45
375.38	814.51
375.58	828.55
375.78	798.12
375.97	891.74
376.17	835.57
376.37	837.91
376.56	760.67
376.76	828.55
376.95	784.08
377.15	940.90
377.35	896.43
377.54	912.81
377.74	873.02
377.93	938.55
378.13	908.13
378.33	833.23
378.52	887.06
378.72	915.15
378.91	819.19
379.11	936.21
379.31	903.45
379.50	929.19
379.70	1027.50
379.89	1039.20
380.09	926.85
380.28	1034.52
380.48	997.07
380.68	1025.15
380.87	1060.26
381.07	997.07
381.26	999.41
381.46	1067.28
381.65	959.62
381.85	1046.22
382.04	1076.65
382.24	1034.52
382.43	1067.28
382.63	1060.26
382.83	1076.65
383.02	1149.20
383.22	1135.16
383.41	1081.33
383.61	1083.67
383.80	1086.01
384.00	1104.73
384.19	1139.84
384.39	1158.57
384.58	1050.90
384.78	1219.42
384.97	1146.86
385.17	1088.35
385.36	1184.31
385.56	1184.31
385.75	1153.88
385.95	1233.46
386.14	1240.48
386.34	1268.57
386.53	1261.55
386.72	1071.97
386.92	1273.25
387.11	1170.27
387.31	1355.17
387.50	1266.23
387.70	1245.16
387.89	1324.74
388.09	1291.98
388.28	1263.89
388.48	1249.85
388.67	1376.24
388.86	1289.64
389.06	1369.21
389.25	1355.17
389.45	1270.91
389.64	1362.19
389.84	1359.85
390.03	1357.51
390.22	1317.72
390.42	1322.40
390.61	1355.17
390.81	1383.26
391.00	1390.28
391.19	1451.13
391.39	1448.79
391.58	1411.34
391.78	1399.64
391.97	1563.48
392.16	1502.62
392.36	1476.88
392.55	1533.05
392.75	1554.12
392.94	1446.45
393.13	1453.47
393.33	1500.28
393.52	1631.35
393.71	1703.91
393.91	1582.20
394.10	1603.27
394.29	1640.72
394.49	1636.03
394.68	1666.46
394.88	1643.06
395.07	1727.32
395.26	1748.38
395.46	1591.56
395.65	1706.25
395.84	1760.08
396.04	1720.29
396.23	1781.15
396.42	1806.89
396.62	1785.83
396.81	1802.21
397.00	1774.13
397.19	1769.44
397.39	1790.51
397.58	1884.13
397.77	1713.27
397.97	1823.28
398.16	1893.49
398.35	1926.26
398.55	1914.56
398.74	1963.71
398.93	2031.58
399.12	1970.73
399.32	1926.26
399.51	1994.14
399.70	2080.74
399.90	1844.34
400.09	2073.71
400.28	2066.69
400.47	2134.57
400.67	2134.57
400.86	2104.14
401.05	2120.53
401.24	2069.03
401.44	2076.06
401.63	2146.27
401.82	2115.84
402.01	2176.70
402.21	2209.47
402.40	2300.75
402.59	2127.55
402.78	2127.55
402.97	2209.47
403.17	2221.17
403.36	2221.17
403.55	2347.56
403.74	2352.24
403.93	2312.45
404.13	2396.71
404.32	2317.13
404.51	2282.02
404.70	2401.39
404.89	2403.73
405.09	2558.21
405.28	2499.69
405.47	2581.61
405.66	2537.14
405.85	2492.67
406.05	2495.01
406.24	2633.10
406.43	2698.64
406.62	2581.61
406.81	2731.41
407.00	2593.31
407.20	2534.80
407.39	2602.68
407.58	2679.91
407.77	2726.72
407.96	2825.03
408.15	2810.98
408.34	2722.04
408.54	2738.43
408.73	2853.11
408.92	2832.05
409.11	2951.42
409.30	2944.39
409.49	2984.18
409.68	2918.65
409.87	2918.65
410.07	3131.64
410.26	2944.39
410.45	3019.29
410.64	3040.36
410.83	3084.83
411.02	3005.25
411.21	3094.19
411.40	3131.64
411.59	3265.05
411.78	3171.43
411.98	3150.36
412.17	3234.62
412.36	3243.98
412.55	3421.86
412.74	3487.40
412.93	3435.91
413.12	3398.46
413.31	3482.72
413.50	3578.68
413.69	3438.25
413.88	3712.09
414.07	3702.73
414.26	3634.85
414.45	3639.53
414.64	3583.36
414.83	3695.71
415.02	3798.69
415.22	3899.33
415.41	3941.46
415.60	3920.40
415.79	3967.21
415.98	3990.61
416.17	4049.13
416.36	3894.65
416.55	4056.15
416.74	4149.77
416.93	4067.85
417.12	4182.54
417.31	4173.18
417.50	4107.64
417.69	4311.27
417.88	4344.03
418.07	4250.41
418.26	4315.95
418.45	4390.84
418.64	4557.02
418.83	4388.50
419.02	4325.31
419.21	4554.68
419.39	4580.43
419.58	4585.11
419.77	4397.87
419.96	4657.67
420.15	4475.10
420.34	4561.70
420.53	4596.81
420.72	4851.93
420.91	4788.74
421.10	4674.05
421.29	4758.31
421.48	4566.39
421.67	4849.59
421.86	4823.84
422.05	4760.65
422.24	4774.69
422.43	4807.46
422.61	4959.60
422.80	4877.68
422.99	4868.31
423.18	5160.88
423.37	5074.28
423.56	4758.31
423.75	4983.00
423.94	4863.63
424.13	4472.76
424.32	4767.67
424.50	5015.77
424.69	5085.98
424.88	4985.34
425.07	4929.17
425.26	4847.25
425.45	4889.38
425.64	4940.87
425.83	4959.60
426.01	5067.26
426.20	5011.09
426.39	5060.24
426.58	5214.71
426.77	5064.92
426.96	4943.21
427.15	5102.37
427.33	5315.36
427.52	5151.52
427.71	5165.56
427.90	5205.35
428.09	5336.42
428.28	5390.25
428.46	5380.89
428.65	5284.93
428.84	5547.07
429.03	5493.24
429.22	5362.17
429.40	5509.62
429.59	5556.43
429.78	5331.74
429.97	5320.04
430.16	5556.43
430.34	5549.41
430.53	5685.16
430.72	5479.19
430.91	5731.97
431.10	5715.59
431.28	5645.37
431.47	5657.07
431.66	5696.86
431.85	5764.74
432.03	5977.73
432.22	6008.16
432.41	5980.07
432.60	5961.34
432.79	5914.53
432.97	5832.62
433.16	5973.05
433.35	5951.98
433.54	6008.16
433.72	6090.07
433.91	6083.05
434.10	6235.19
434.28	6099.44
434.47	6132.20
434.66	6218.80
434.85	6340.51
435.03	6445.84
435.22	6195.40
435.41	6445.84
435.59	6223.48
435.78	6399.02
435.97	6579.25
436.16	6504.35
436.34	6459.88
436.53	6483.28
436.72	6558.18
436.90	6450.52
437.09	6619.04
437.28	6429.45
437.46	6715.00
437.65	6567.54
437.84	6722.02
438.02	6736.06
438.21	6743.08
438.40	6808.62
438.58	6981.82
438.77	7096.50
438.96	6981.82
439.14	7131.61
439.33	7084.80
439.52	7162.04
439.70	7372.69
439.89	7220.55
440.08	7403.11
440.26	7269.70
440.45	7232.26
440.63	7393.75
440.82	7618.44
441.01	7662.91
441.19	7686.32
441.38	7838.45
441.57	7894.63
441.75	7793.98
441.94	8037.40
442.12	8084.21
442.31	8006.97
442.50	7974.21
442.68	8098.25
442.87	8142.72
443.05	8138.04
443.24	8407.20
443.43	8168.47
443.61	8121.66
443.80	8458.70
443.98	8116.98
444.17	7864.20
444.35	8105.28
444.54	8526.57
444.73	8341.67
444.91	8182.51
445.10	8344.01
445.28	8418.91
445.47	8451.67
445.65	8278.47
445.84	8351.03
446.02	8592.11
446.21	8482.10
446.39	8472.74
446.58	8512.53
446.77	8533.59
446.95	8217.62
447.14	8444.65
447.32	8568.70
447.51	8592.11
447.69	8589.77
447.88	8484.44
448.06	8727.86
448.25	8526.57
448.43	8730.20
448.62	8512.53
448.80	8561.68
448.99	8807.44
449.17	8659.98
449.36	8617.85
449.54	8985.32
449.73	8975.95
449.91	9163.20
450.10	9015.74
450.28	9130.43
450.46	8938.51
450.65	9006.38
450.83	9081.28
451.02	9179.58
451.20	9252.14
451.39	9252.14
451.57	9069.58
451.76	9158.52
451.94	9399.59
452.13	9376.19
452.31	9282.56
452.49	9240.44
452.68	9415.98
452.86	9565.77
453.05	9802.16
453.23	9664.07
453.42	9277.88
453.60	9235.75
453.78	9535.34
453.97	9474.49
454.15	9586.83
454.34	9371.50
454.52	9748.33
454.70	9678.12
454.89	9767.06
455.07	9816.21
455.26	9893.44
455.44	9926.21
455.62	9874.72
455.81	9940.26
455.99	10085.37
456.17	10157.92
456.36	10033.88
456.54	10289.00
456.73	10214.10
456.91	10368.57
457.09	10490.28
457.28	10810.93
457.46	10509.01
457.64	10516.03
457.83	10710.29
458.01	10581.56
458.19	10782.85
458.38	10635.39
458.56	10714.97
458.74	10719.65
458.93	10693.91
459.11	10787.53
459.29	10738.38
459.48	10614.33
459.66	10829.66
459.84	10981.79
460.03	11293.08
460.21	10974.77
460.39	10927.96
460.57	10946.69
460.76	11248.61
460.94	11262.66
461.12	11307.13
461.31	11187.76
461.49	11105.84
461.67	11070.73
461.85	11552.88
462.04	11403.09
462.22	11606.72
462.40	11499.05
462.59	11548.20
462.77	11566.93
462.95	11665.23
463.13	11620.76
463.32	11447.56
463.50	11737.79
463.68	11817.36
463.86	12060.78
464.05	11723.74
464.23	11768.21
464.41	11836.09
464.59	11786.94
464.78	12109.93
464.96	12149.72
465.14	11672.25
465.32	12114.61
465.50	12154.40
465.69	12355.69
465.87	12255.04
466.05	12205.89
466.23	12245.68
466.41	12318.24
466.60	12496.12
466.78	12311.22
466.96	12196.53
467.14	12355.69
467.32	12470.37
467.51	12727.83
467.69	12334.62
467.87	12549.95
468.05	12744.22
468.23	12463.35
468.41	12678.68
468.60	12645.91
468.78	12650.60
468.96	12638.89
469.14	12837.84
469.32	12769.96
469.50	12954.87
469.69	13252.11
469.87	13160.83
470.05	13097.64
470.23	13249.77
470.41	13224.03
470.59	13532.98
470.77	13144.45
470.95	13394.89
471.14	13540.00
471.32	13385.52
471.50	13640.64
471.68	13666.39
471.86	13816.18
472.04	13956.61
472.22	14129.81
472.40	13631.28
472.58	14008.11
472.77	13832.57
472.95	14328.76
473.13	14427.06
473.31	14129.81
473.49	14363.87
473.67	14242.16
473.85	14597.92
474.03	14698.56
474.21	14516.00
474.39	14637.71
474.57	14635.37
474.75	15084.75
474.93	14869.42
475.12	14827.29
475.30	15173.69
475.48	15304.76
475.66	15286.04
475.84	15147.95
476.02	15616.05
476.20	15379.66
476.38	15789.25
476.56	15988.20
476.74	15803.30
476.92	15833.72
477.10	15948.41
477.28	16006.92
477.46	16533.54
477.64	16414.18
477.82	16678.66
478.00	17135.06
478.18	16535.88
478.36	17282.52
478.54	17322.30
478.72	17301.24
478.90	17411.25
479.08	17916.80
479.26	17626.57
479.44	17516.57
479.62	17811.48
479.80	18050.21
479.98	18157.88
480.16	18785.14
480.34	18326.39
480.52	18831.95
480.70	18843.65
480.88	18642.37
481.06	18719.60
481.24	18958.34
481.41	19124.52
481.59	19248.57
481.77	19861.79
481.95	19669.86
482.13	19529.43
482.31	20034.99
482.49	20383.73
482.67	20252.66
482.85	20561.61
483.03	20549.90
483.21	21104.61
483.39	21013.33
483.57	21018.01
483.74	21289.51
483.92	21507.18
484.10	21331.64
484.28	21797.41
484.46	22043.17
484.64	22401.27
484.82	22164.87
485.00	22469.14
485.18	22857.67
485.35	23037.89
485.53	23140.88
485.71	23101.09
485.89	23264.92
486.07	23536.43
486.25	23555.15
486.43	23749.42
486.61	23974.11
486.78	23939.00
486.96	24254.97
487.14	24683.29
487.32	24690.31
487.50	25076.50
487.68	25032.03
487.85	25455.67
488.03	25596.10
488.21	26136.76
488.39	26192.94
488.57	26513.59
488.75	26625.93
488.92	26864.67
489.10	26955.95
489.28	26874.03
489.46	27398.31
489.64	27300.01
489.81	27597.26
489.99	27566.83
490.17	28006.85
490.35	28243.24
490.53	28374.31
490.70	28767.52
490.88	28421.13
491.06	29046.05
491.24	28683.27
491.41	29144.35
491.59	29357.34
491.77	29184.14
491.95	29535.22
492.13	30136.74
492.30	30272.49
492.48	30618.89
492.66	30469.09
492.84	30506.54
493.01	30724.21
493.19	30731.23
493.37	30993.37
493.54	31676.81
493.72	31620.64
493.90	31339.77
494.08	32055.98
494.25	31807.88
494.43	31653.40
494.61	32418.76
494.79	32460.89
494.96	32868.14
495.14	32645.79
495.32	33345.61
495.49	33179.43
495.67	33371.36
495.85	33596.05
496.02	34054.79
496.20	34146.08
496.38	34106.29
496.55	34129.69
496.73	35267.19
496.91	35000.37
497.09	34962.92
497.26	34895.05
497.44	35274.21
497.62	35257.83
497.79	35906.16
497.97	35669.76
498.14	36119.15
498.32	36388.31
498.50	36570.87
498.67	36898.55
498.85	36524.06
499.03	36643.43
499.20	37200.47
499.38	36821.31
499.56	37125.58
499.73	37464.96
499.91	37612.41
500.08	37439.21
500.26	37567.94
500.44	37998.60
500.61	38375.42
500.79	37961.15
500.97	38251.38
501.14	38895.02
501.32	38464.36
501.49	39051.84
501.67	38574.37
501.84	39468.45
502.02	39213.34
502.20	39248.44
502.37	39316.32
502.55	39580.80
502.72	39690.80
502.90	39353.77
503.07	39639.31
503.25	40034.86
503.43	39922.52
503.60	40491.27
503.78	40512.33
503.95	40418.71
504.13	40666.81
504.30	40388.28
504.48	40844.69
504.65	41045.97
504.83	41191.09
505.01	41670.90
505.18	41441.53
505.36	41818.35
505.53	41956.44
505.71	41542.17
505.88	41893.25
506.06	41823.03
506.23	42134.32
506.41	41853.46
506.58	42443.27
506.76	42239.65
506.93	42480.72
507.11	42845.85
507.28	42850.53
507.46	42955.85
507.63	42983.94
507.81	43599.50
507.98	43302.25
508.16	43189.91
508.33	43751.63
508.50	43660.35
508.68	43985.69
508.85	44383.58
509.03	43971.64
509.20	44243.15
509.38	44919.56
509.55	44987.44
509.73	44713.59
509.90	44507.63
510.08	44315.70
510.25	44708.91
510.42	45165.32
510.60	45191.06
510.77	45130.21
510.95	45736.41
511.12	45289.37
511.30	45366.60
511.47	45528.10
511.64	45853.44
511.82	46007.91
511.99	45876.84
512.17	46358.99
512.34	46103.87
512.51	46616.45
512.69	46653.90
512.86	46431.55
513.04	47049.45
513.21	46557.94
513.38	46859.87
513.56	47344.36
513.73	46799.01
513.90	47168.82
514.08	47051.79
514.25	47365.42
514.43	47547.98
514.60	47583.09
514.77	47896.72
514.95	47861.61
515.12	47693.10
515.29	48016.09
515.47	48406.96
515.64	48140.14
515.81	47828.85
515.99	48430.36
516.16	49066.99
516.33	48502.92
516.51	48893.79
516.68	48800.17
516.85	48610.59
517.03	49160.61
517.20	48821.23
517.37	49111.46
517.54	48938.26
517.72	49085.72
517.89	49308.07
518.06	49525.74
518.24	49439.14
518.41	49535.10
518.58	49406.37
518.75	49581.91
518.93	49734.04
519.10	49610.00
519.27	50122.57
519.45	50122.57
519.62	50028.95
519.79	50148.32
519.96	50099.17
520.14	50368.33
520.31	50202.15
520.48	50340.24
520.65	50293.43
520.83	51100.92
521.00	50866.86
521.17	50937.08
521.34	50824.73
521.52	50834.10
521.69	50990.91
521.86	51384.12
522.03	51353.69
522.20	51437.95
522.38	51524.55
522.55	51133.68
522.72	51615.83
522.89	51664.99
523.07	51866.27
523.24	51608.81
523.41	51910.74
523.58	51749.24
523.75	52051.17
523.92	51934.15
524.10	52198.63
524.27	52039.47
524.44	52165.86
524.61	52301.61
524.78	51934.15
524.96	52189.27
525.13	52512.26
525.30	52692.48
525.47	52570.77
525.64	52416.30
525.81	53223.78
525.98	52837.59
526.16	52776.74
526.33	52835.25
526.50	52985.05
526.67	52746.31
526.84	53193.36
527.01	53043.56
527.18	53343.15
527.36	53017.82
527.53	53092.71
527.70	53481.24
527.87	53691.89
528.04	53118.46
528.21	53340.81
528.38	53317.40
528.55	53666.14
528.72	53413.37
528.89	53595.93
529.07	53722.32
529.24	53731.68
529.41	53731.68
529.58	53829.98
529.75	54122.55
529.92	54064.03
530.09	53778.49
530.26	53939.99
530.43	53951.69
530.60	53958.71
530.77	53895.52
530.94	54277.02
531.11	54368.30
531.28	54347.24
531.46	54656.19
531.63	54342.56
531.80	54246.60
531.97	54686.62
532.14	54752.15
532.31	54616.40
532.48	54880.88
532.65	54972.16
532.82	54890.24
532.99	54899.61
533.16	54899.61
533.33	54913.65
533.50	55199.19
533.67	54944.08
533.84	55070.46
534.01	55117.28
534.18	54775.56
534.35	55440.27
534.52	55267.07
534.69	55246.00
534.86	55545.59
535.03	54988.55
535.20	55473.04
535.37	55428.57
535.54	55524.53
535.71	55309.20
535.88	55779.65
536.05	55686.03
536.22	55934.12
536.38	55456.65
536.55	55842.84
536.72	55721.13
536.89	55842.84
537.06	55690.71
537.23	55763.26
537.40	56016.04
537.57	55894.33
537.74	55693.05
537.91	56104.98
538.08	56023.06
538.25	55920.08
538.42	56142.43
538.59	56399.89
538.75	56009.02
538.92	56355.42
539.09	56268.82
539.26	56427.98
539.43	56224.35
539.60	56425.64
539.77	56282.86
539.94	56664.37
540.11	56313.29
540.28	56779.06
540.44	56633.94
540.61	56575.43
540.78	56477.13
540.95	56753.31
541.12	56364.78
541.29	56561.39
541.46	56708.84
541.62	56521.60
541.79	56697.14
541.96	56470.11
542.13	56736.93
542.30	56769.69
542.47	56825.87
542.63	57162.90
542.80	57024.81
542.97	57144.18
543.14	57425.04
543.31	57186.31
543.48	57439.09
543.64	57509.30
543.81	57382.91
543.98	57584.20
544.15	57422.70
544.32	57553.77
544.48	57670.80
544.65	57567.82
544.82	57635.69
544.99	57558.45
545.16	57368.87
545.32	57394.62
545.49	57907.19
545.66	58017.20
545.83	57846.34
546.00	57813.57
546.16	57890.81
546.33	57626.33
546.50	57581.86
546.67	57918.90
546.83	57605.26
547.00	57888.47
547.17	57968.05
547.34	57904.85
547.50	58150.61
547.67	58169.33
547.84	58183.38
548.00	58190.40
548.17	58244.23
548.34	58195.08
548.51	58246.57
548.67	58223.17
548.84	58127.20
549.01	58131.89
549.18	58372.96
549.34	58485.31
549.51	58513.39
549.68	58492.33
549.84	58482.97
550.01	58691.27
550.18	58426.79
550.34	58387.00
550.51	58705.32
550.68	58454.88
550.84	58457.22
551.01	58656.17
551.18	58679.57
551.34	58501.69
551.51	58712.34
551.68	58770.85
551.84	58705.32
552.01	58752.13
552.18	58880.86
552.34	58798.94
552.51	58969.80
552.68	58745.11
552.84	58859.79
553.01	59213.21
553.18	59037.67
553.34	58887.88
553.51	58915.96
553.67	58983.84
553.84	58869.15
554.01	59128.95
554.17	59124.27
554.34	59281.09
554.51	59320.88
554.67	59089.16
554.84	59145.34
555.00	58962.78
555.17	59016.61
555.33	59262.36
555.50	58925.33
555.67	59016.61
555.83	59178.10
556.00	59180.45
556.16	59657.91
556.33	59428.54
556.50	59557.27
556.66	59550.25
556.83	59428.54
556.99	59561.95
557.16	59456.63
557.32	59777.28
557.49	59751.54
557.65	59529.19
557.82	59332.58
557.98	59646.21
558.15	59526.84
558.32	59856.86
558.48	59536.21
558.65	59681.32
558.81	59554.93
558.98	59833.46
559.14	59971.55
559.31	59840.48
559.47	59828.77
559.64	59690.68
559.80	59784.30
559.97	59796.01
560.13	59760.90
560.30	59831.11
560.46	59777.28
560.63	59889.63
560.79	60018.36
560.96	59938.78
561.12	60200.92
561.29	59863.88
561.45	59952.82
561.61	59934.10
561.78	59760.90
561.94	59845.16
562.11	59992.61
562.27	59992.61
562.44	60149.43
562.60	60257.09
562.77	60200.92
562.93	59983.25
563.10	60165.81
563.26	60069.85
563.42	60179.85
563.59	60023.04
563.75	60217.30
563.92	60322.63
564.08	60156.45
564.24	60126.02
564.41	60245.39
564.57	60381.14
564.74	60355.39
564.90	60278.16
565.07	60154.11
565.23	60165.81
565.39	60142.41
565.56	60437.31
565.72	60275.82
565.88	60219.64
566.05	60128.36
566.21	60097.94
566.38	60247.73
566.54	60451.36
566.70	60552.00
566.87	60427.95
567.03	60259.43
567.19	60556.68
567.36	60467.74
567.52	60512.21
567.68	60598.81
567.85	60472.42
568.01	60580.09
568.17	60500.51
568.34	60650.30
568.50	60552.00
568.66	60324.97
568.83	60521.57
568.99	60289.86
569.15	60409.23
569.32	60633.92
569.48	60451.36
569.64	60720.52
569.81	60692.43
569.97	60507.53
570.13	60549.66
570.30	60617.53
570.46	60711.16
570.62	60582.43
570.78	60547.32
570.95	60615.19
571.11	61006.06
571.27	60718.18
571.43	60633.92
571.60	60701.79
571.76	60680.73
571.92	60760.31
572.09	60662.00
572.25	60816.48
572.41	60715.84
572.57	60746.26
572.74	60886.70
572.90	60750.94
573.06	60818.82
573.22	60762.65
573.38	60793.07
573.55	60734.56
573.71	61031.81
573.87	60917.12
574.03	60591.79
574.20	60713.50
574.36	60528.59
574.52	60956.91
574.68	60846.91
574.84	60985.00
575.01	60874.99
575.17	60795.42
575.33	60783.71
575.49	60669.03
575.65	60879.67
575.82	60917.12
575.98	60921.80
576.14	60961.59
576.30	60917.12
576.46	60896.06
576.62	60776.69
576.79	60886.70
576.95	60851.59
577.11	61003.72
577.27	61008.40
577.43	60935.85
577.59	60809.46
577.75	60966.27
577.92	60797.76
578.08	60835.20
578.24	61036.49
578.40	61090.32
578.56	61022.45
578.72	60996.70
578.88	61202.67
579.04	60968.61
579.21	61097.34
579.37	60975.64
579.53	61085.64
579.69	60858.61
579.85	60825.84
580.01	61034.15
580.17	61097.34
580.33	61041.17
580.49	61202.67
580.65	61109.05
580.82	61024.79
580.98	61062.24
581.14	60732.22
581.30	61071.60
581.46	61073.94
581.62	61064.58
581.78	60886.70
581.94	61132.45
582.10	60924.14
582.26	60905.42
582.42	60907.76
582.58	61275.22
582.74	60814.14
582.90	61090.32
583.06	61085.64
583.22	60795.42
583.38	60966.27
583.54	61190.97
583.70	61282.25
583.86	61130.11
584.02	61055.21
584.18	61303.31
584.34	61092.66
584.50	61048.19
584.66	61062.24
584.82	61031.81
584.98	61296.29
585.14	61085.64
585.30	60954.57
585.46	61029.47
585.62	61162.88
585.78	61083.30
585.94	60921.80
586.10	61027.13
586.26	61130.11
586.42	61300.97
586.58	61333.74
586.74	61268.20
586.90	61205.01
587.06	61097.34
587.22	61249.48
587.38	60926.49
587.54	61371.19
587.70	61324.38
587.86	61289.27
588.02	61109.05
588.18	61336.08
588.34	61183.94
588.49	61219.05
