SpectraSuite Data File
++++++++++++++++++++++++++++++++++++
Date: Fri Oct 25 10:48:03 EDT 2013
User: price-jones
Dark Spectrum Present: No
Reference Spectrum Present: No
Number of Sampled Component Spectra: 1
Spectrometers: USB2+H05261
Integration Time (usec): 100000 (USB2+H05261)
Spectra Averaged: 1 (USB2+H05261)
Boxcar Smoothing: 0 (USB2+H05261)
Correct for Electrical Dark: No (USB2+H05261)
Strobe/Lamp Enabled: No (USB2+H05261)
Correct for Detector Non-linearity: No (USB2+H05261)
Correct for Stray Light: No (USB2+H05261)
Number of Pixels in Processed Spectrum: 2048
>>>>>Begin Processed Spectral Data<<<<<
365.73	112.35
365.92	112.35
366.12	112.35
366.32	121.71
366.52	63.19
366.72	95.96
366.91	9.36
367.11	42.13
367.31	0.00
367.51	9.36
367.70	81.92
367.90	0.00
368.10	44.47
368.30	16.38
368.49	58.51
368.69	102.98
368.89	30.43
369.09	35.11
369.28	70.22
369.48	88.94
369.68	88.94
369.87	138.09
370.07	175.54
370.27	126.39
370.47	131.07
370.66	416.62
370.86	440.02
371.06	468.11
371.25	493.85
371.45	400.23
371.65	493.85
371.84	491.51
372.04	440.02
372.24	447.04
372.44	477.47
372.63	507.90
372.83	489.17
373.03	472.79
373.22	454.06
373.42	507.90
373.62	552.37
373.81	519.60
374.01	552.37
374.21	514.92
374.40	566.41
374.60	550.03
374.79	482.15
374.99	456.40
375.19	491.51
375.38	566.41
375.58	580.45
375.78	643.65
375.97	617.90
376.17	657.69
376.37	543.00
376.56	603.86
376.76	519.60
376.95	613.22
377.15	557.05
377.35	601.52
377.54	657.69
377.74	610.88
377.93	613.22
378.13	620.24
378.33	627.26
378.52	716.20
378.72	620.24
378.91	568.75
379.11	631.94
379.31	587.47
379.50	648.33
379.70	690.46
379.89	685.78
380.09	699.82
380.28	622.58
380.48	634.29
380.68	592.16
380.87	676.41
381.07	643.65
381.26	697.48
381.46	622.58
381.65	704.50
381.85	674.07
382.04	662.37
382.24	622.58
382.43	720.88
382.63	674.07
382.83	660.03
383.02	751.31
383.22	685.78
383.41	678.76
383.61	648.33
383.80	765.36
384.00	732.59
384.19	702.16
384.39	706.84
384.58	627.26
384.78	847.27
384.97	774.72
385.17	791.10
385.36	730.25
385.56	737.27
385.75	734.93
385.95	779.40
386.14	788.76
386.34	774.72
386.53	774.72
386.72	739.61
386.92	828.55
387.11	741.95
387.31	842.59
387.50	821.53
387.70	833.23
387.89	781.74
388.09	788.76
388.28	858.98
388.48	905.79
388.67	833.23
388.86	866.00
389.06	858.98
389.25	919.83
389.45	828.55
389.64	915.15
389.84	877.70
390.03	854.30
390.22	903.45
390.42	877.70
390.61	861.32
390.81	912.81
391.00	929.19
391.19	1036.86
391.39	912.81
391.58	1015.79
391.78	961.96
391.97	887.06
392.16	973.66
392.36	999.41
392.55	936.21
392.75	968.98
392.94	999.41
393.13	905.79
393.33	1011.11
393.52	1050.90
393.71	990.05
393.91	1053.24
394.10	1001.75
394.29	1004.09
394.49	1046.22
394.68	1048.56
394.88	1144.52
395.07	1181.97
395.26	1128.14
395.46	1107.07
395.65	1172.61
395.84	1107.07
396.04	1095.37
396.23	1034.52
396.42	1109.41
396.62	1128.14
396.81	1130.48
397.00	1090.69
397.19	1104.73
397.39	1125.80
397.58	1217.08
397.77	1240.48
397.97	1289.64
398.16	1184.31
398.35	1240.48
398.55	1277.93
398.74	1268.57
398.93	1373.89
399.12	1238.14
399.32	1301.34
399.51	1341.13
399.70	1401.98
399.90	1348.15
400.09	1303.68
400.28	1425.39
400.47	1416.02
400.67	1448.79
400.86	1409.00
401.05	1481.56
401.24	1362.19
401.44	1397.30
401.63	1397.30
401.82	1430.07
402.01	1521.35
402.21	1420.71
402.40	1500.28
402.59	1423.05
402.78	1544.75
402.97	1502.62
403.17	1586.88
403.36	1528.37
403.55	1535.39
403.74	1636.03
403.93	1610.29
404.13	1558.80
404.32	1596.25
404.51	1591.56
404.70	1755.40
404.89	1652.42
405.09	1701.57
405.28	1657.10
405.47	1671.14
405.66	1668.80
405.85	1778.81
406.05	1633.69
406.24	1717.95
406.43	1792.85
406.62	1764.76
406.81	1886.47
407.00	1776.47
407.20	1699.23
407.39	1884.13
407.58	1792.85
407.77	1952.01
407.96	1842.00
408.15	1928.60
408.34	1827.96
408.54	1959.03
408.73	1989.46
408.92	1961.37
409.11	1968.39
409.30	2106.48
409.49	1987.11
409.68	1982.43
409.87	2010.52
410.07	2022.22
410.26	2031.58
410.45	2080.74
410.64	2045.63
410.83	2216.49
411.02	2167.34
411.21	2235.21
411.40	2197.76
411.59	2221.17
411.78	2197.76
411.98	2209.47
412.17	2319.47
412.36	2455.22
412.55	2466.92
412.74	2352.24
412.93	2340.54
413.12	2377.98
413.31	2452.88
413.50	2469.27
413.69	2473.95
413.88	2436.50
414.07	2492.67
414.26	2541.82
414.45	2581.61
414.64	2609.70
414.83	2605.02
415.02	2747.79
415.22	2693.96
415.41	2708.00
415.60	2677.57
415.79	2738.43
415.98	2766.51
416.17	2881.20
416.36	2869.50
416.55	2745.45
416.74	2862.48
416.93	2888.22
417.12	2876.52
417.31	2904.60
417.50	2935.03
417.69	2965.46
417.88	2984.18
418.07	2970.14
418.26	2897.58
418.45	3077.80
418.64	3155.04
418.83	3091.85
419.02	3073.12
419.21	3143.34
419.39	3087.17
419.58	3115.25
419.77	3108.23
419.96	3101.21
420.15	3246.32
420.34	3279.09
420.53	3190.15
420.72	3314.20
420.91	3389.10
421.10	3353.99
421.29	3375.05
421.48	3300.16
421.67	3433.57
421.86	3424.20
422.05	3400.80
422.24	3300.16
422.43	3480.38
422.61	3358.67
422.80	3391.44
422.99	3452.29
423.18	3417.18
423.37	3538.89
423.56	3435.91
423.75	3536.55
423.94	3410.16
424.13	3297.81
424.32	3410.16
424.50	3335.26
424.69	3424.20
424.88	3581.02
425.07	3454.63
425.26	3295.47
425.45	3541.23
425.64	3644.21
425.83	3529.53
426.01	3583.36
426.20	3541.23
426.39	3566.98
426.58	3485.06
426.77	3440.59
426.96	3538.89
427.15	3620.81
427.33	3576.34
427.52	3531.87
427.71	3674.64
427.90	3592.72
428.09	3648.90
428.28	3634.85
428.46	3623.15
428.65	3763.58
428.84	3782.31
429.03	3815.07
429.22	3639.53
429.40	3782.31
429.59	3714.43
429.78	3840.82
429.97	3660.60
430.16	3705.07
430.34	3655.92
430.53	3763.58
430.72	3896.99
430.91	3749.54
431.10	3983.59
431.28	3976.57
431.47	4079.55
431.66	4049.13
431.85	3978.91
432.03	4037.42
432.22	4149.77
432.41	3845.50
432.60	4124.02
432.79	4079.55
432.97	4187.22
433.16	4098.28
433.35	3971.89
433.54	4098.28
433.72	4126.36
433.91	4182.54
434.10	4217.65
434.28	4337.01
434.47	4194.24
434.66	4432.97
434.85	4400.21
435.03	4313.61
435.22	4306.59
435.41	4402.55
435.59	4454.04
435.78	4496.17
435.97	4477.44
436.16	4468.08
436.34	4540.64
436.53	4454.04
436.72	4734.90
436.90	4496.17
437.09	4496.17
437.28	4578.09
437.46	4580.43
437.65	4606.17
437.84	4784.06
438.02	4554.68
438.21	4566.39
438.40	4575.75
438.58	4671.71
438.77	4828.53
438.96	4774.69
439.14	4851.93
439.33	4795.76
439.52	5128.11
439.70	5048.54
439.89	5090.67
440.08	4994.70
440.26	5078.96
440.45	4992.36
440.63	5165.56
440.82	5172.58
441.01	5210.03
441.19	5210.03
441.38	5327.06
441.57	5338.76
441.75	5481.53
441.94	5640.69
442.12	5533.03
442.31	5593.88
442.50	5497.92
442.68	5610.26
442.87	5483.88
443.05	5605.58
443.24	5591.54
443.43	5593.88
443.61	5769.42
443.80	5776.44
443.98	5504.94
444.17	5469.83
444.35	5678.14
444.54	5774.10
444.73	5781.12
444.91	5827.93
445.10	5738.99
445.28	5762.40
445.47	5633.67
445.65	5865.38
445.84	5668.78
446.02	5851.34
446.21	5680.48
446.39	5781.12
446.58	5884.11
446.77	5767.08
446.95	5804.53
447.14	5837.30
447.32	6015.18
447.51	5886.45
447.69	5893.47
447.88	5741.33
448.06	5912.19
448.25	5909.85
448.43	5987.09
448.62	6038.58
448.80	5947.30
448.99	6083.05
449.17	6008.16
449.36	5984.75
449.54	6150.93
449.73	6202.42
449.91	6148.59
450.10	6218.80
450.28	6258.59
450.46	6267.95
450.65	6392.00
450.83	6279.66
451.02	6209.44
451.20	6270.30
451.39	6190.72
451.57	6176.67
451.76	6253.91
451.94	6314.77
452.13	6593.29
452.31	6487.96
452.49	6373.28
452.68	6366.26
452.86	6356.90
453.05	6413.07
453.23	6480.94
453.42	6361.58
453.60	6499.67
453.78	6689.25
453.97	6361.58
454.15	6740.74
454.34	6558.18
454.52	6544.14
454.70	6649.46
454.89	6609.67
455.07	6579.25
455.26	6686.91
455.44	6925.65
455.62	6710.32
455.81	6691.59
455.99	6832.02
456.17	6897.56
456.36	6984.16
456.54	7094.16
456.73	6935.01
456.91	7138.63
457.09	6906.92
457.28	7190.13
457.46	7145.66
457.64	7204.17
457.83	7187.79
458.01	7143.32
458.19	7309.49
458.38	7115.23
458.56	7131.61
458.74	7234.60
458.93	7309.49
459.11	7262.68
459.29	7330.56
459.48	7424.18
459.66	7297.79
459.84	7393.75
460.03	7520.14
460.21	7550.57
460.39	7543.55
460.57	7424.18
460.76	7550.57
460.94	7564.61
461.12	7368.01
461.31	7555.25
461.49	7463.97
461.67	7578.65
461.85	7756.54
462.04	7751.85
462.22	8140.38
462.40	7971.86
462.59	7737.81
462.77	7836.11
462.95	8091.23
463.13	7777.60
463.32	7885.26
463.50	7978.89
463.68	7960.16
463.86	7955.48
464.05	7903.99
464.23	8056.12
464.41	8046.76
464.59	7779.94
464.78	7971.86
464.96	8198.90
465.14	7950.80
465.32	8257.41
465.50	8329.97
465.69	8444.65
465.87	8018.68
466.05	8219.96
466.23	8243.37
466.41	8131.02
466.60	8372.10
466.78	8336.99
466.96	8205.92
467.14	8212.94
467.32	8170.81
467.51	8505.51
467.69	8180.17
467.87	8388.48
468.05	8329.97
468.23	8461.04
468.41	8388.48
468.60	8484.44
468.78	8498.49
468.96	8498.49
469.14	8727.86
469.32	8683.39
469.50	8552.32
469.69	8685.73
469.87	8655.30
470.05	8882.33
470.23	8938.51
470.41	8894.04
470.59	8678.71
470.77	8887.01
470.95	8887.01
471.14	8872.97
471.32	8945.53
471.50	9123.41
471.68	9135.11
471.86	8978.30
472.04	9217.03
472.22	9394.91
472.40	9107.02
472.58	9249.80
472.77	9348.10
472.95	9460.45
473.13	9579.81
473.31	9446.40
473.49	9547.05
473.67	9418.32
473.85	9589.17
474.03	9741.31
474.21	9846.63
474.39	10008.13
474.57	9860.68
474.75	9863.02
474.93	9860.68
475.12	9886.42
475.30	10068.98
475.48	9937.91
475.66	10171.97
475.84	10073.67
476.02	10373.25
476.20	10207.08
476.38	10408.36
476.56	10836.68
476.74	10633.05
476.92	10670.50
477.10	10396.66
477.28	10778.17
477.46	10750.08
477.64	10998.18
477.82	11171.38
478.00	11407.77
478.18	11019.24
478.36	11293.08
478.54	11571.61
478.72	11269.68
478.90	11515.44
479.08	11775.24
479.26	11859.49
479.44	11871.20
479.62	11901.62
479.80	12276.11
479.98	12081.85
480.16	12339.30
480.34	12163.76
480.52	12343.99
480.70	12182.49
480.88	12208.23
481.06	12383.77
481.24	12411.86
481.41	12662.30
481.59	12739.54
481.77	12975.93
481.95	12973.59
482.13	13029.76
482.31	12903.37
482.49	13242.75
482.67	13362.12
482.85	13469.78
483.03	13699.16
483.21	13661.71
483.39	13706.18
483.57	13685.11
483.74	13916.83
483.92	14036.19
484.10	14122.79
484.28	14581.54
484.46	14162.58
484.64	14513.66
484.82	14508.98
485.00	14780.48
485.18	14808.57
485.35	15066.03
485.53	14895.17
485.71	14883.47
485.89	15360.94
486.07	15075.39
486.25	15154.97
486.43	15227.53
486.61	15510.73
486.78	15487.32
486.96	15903.94
487.14	15995.22
487.32	16187.14
487.50	16100.55
487.68	16315.87
487.85	16477.37
488.03	16568.65
488.21	16802.71
488.39	16737.17
488.57	16730.15
488.75	16950.16
488.92	17554.02
489.10	17238.05
489.28	17745.94
489.46	17804.46
489.64	17603.17
489.81	18087.66
489.99	17862.97
490.17	18183.62
490.35	18267.88
490.53	18148.51
490.70	18415.34
490.88	18501.93
491.06	18995.79
491.24	18618.96
491.41	18911.53
491.59	18916.21
491.77	18801.52
491.95	19204.10
492.13	19407.72
492.30	19433.47
492.48	19543.47
492.66	19686.25
492.84	19594.96
493.01	19845.40
493.19	19688.59
493.37	20259.68
493.54	20243.29
493.72	20727.78
493.90	20336.91
494.08	20636.50
494.25	20774.60
494.43	21202.91
494.61	21151.42
494.79	21284.83
494.96	20816.72
495.14	21062.48
495.32	21331.64
495.49	21488.46
495.67	21649.96
495.85	21738.90
496.02	21972.95
496.20	21926.14
496.38	22246.79
496.55	21839.54
496.73	22799.16
496.91	22307.65
497.09	22326.37
497.26	22747.67
497.44	22714.90
497.62	22869.37
497.79	23007.47
497.97	23077.68
498.14	22944.27
498.32	23358.55
498.50	23667.50
498.67	23637.07
498.85	23608.98
499.03	23957.72
499.20	23697.92
499.38	23899.21
499.56	23718.99
499.73	24250.29
499.91	24615.41
500.08	24559.24
500.26	24451.58
500.44	24264.33
500.61	24486.68
500.79	24470.30
500.97	24877.55
501.14	24980.54
501.32	24840.11
501.49	24931.39
501.67	25130.33
501.84	25102.25
502.02	25411.20
502.20	25355.02
502.37	25731.85
502.55	25308.21
502.72	25383.11
502.90	25832.49
503.07	25633.55
503.25	25757.60
503.43	25935.48
503.60	25907.39
503.78	26026.76
503.95	25851.22
504.13	26263.15
504.30	26096.97
504.48	26015.05
504.65	26394.22
504.83	26551.04
505.01	26967.65
505.18	26597.85
505.36	27044.89
505.53	27028.51
505.71	26979.36
505.88	27159.58
506.06	26897.44
506.23	27171.28
506.41	27197.02
506.58	27360.86
506.76	27508.32
506.93	27590.24
507.11	27686.20
507.28	27658.11
507.46	27391.29
507.63	27529.38
507.81	27854.72
507.98	27615.98
508.16	27480.23
508.33	27885.14
508.50	28240.90
508.68	28151.96
508.85	28278.35
509.03	28404.74
509.20	28889.23
509.38	28685.61
509.55	28783.91
509.73	28629.43
509.90	28685.61
510.08	28802.63
510.25	28926.68
510.42	28896.25
510.60	29137.33
510.77	29113.92
510.95	29633.52
511.12	29268.40
511.30	29132.65
511.47	29553.94
511.64	29783.32
511.82	29926.09
511.99	29694.38
512.17	30003.33
512.34	29736.51
512.51	30085.25
512.69	30249.08
512.86	30398.88
513.04	30281.85
513.21	30206.95
513.38	30185.89
513.56	30441.01
513.73	30462.07
513.90	30387.18
514.08	29869.92
514.25	30590.80
514.43	30937.20
514.60	30415.26
514.77	30792.09
514.95	31054.23
515.12	30668.04
515.29	30869.33
515.47	31239.13
515.64	31166.57
515.81	31482.55
515.99	31365.52
516.16	31468.50
516.33	31503.61
516.51	31637.02
516.68	30946.56
516.85	31264.88
517.03	31482.55
517.20	31707.24
517.37	31749.37
517.54	32077.04
517.72	31938.95
517.89	31941.29
518.06	31981.08
518.24	32458.55
518.41	32322.80
518.58	32676.22
518.75	32297.05
518.93	32708.99
519.10	32535.79
519.27	32624.73
519.45	32973.47
519.62	32758.14
519.79	33104.54
519.96	32987.51
520.14	32994.53
520.31	32964.10
520.48	33261.35
520.65	33158.37
520.83	33380.72
521.00	33319.87
521.17	33563.28
521.34	33408.81
521.52	33528.17
521.69	33841.81
521.86	33605.41
522.03	33624.14
522.20	33848.83
522.38	34263.10
522.55	33825.42
522.72	33907.34
522.89	33897.98
523.07	34162.46
523.24	34143.74
523.41	34506.52
523.58	33930.75
523.75	34548.65
523.92	34389.49
524.10	34569.71
524.27	34944.20
524.44	34665.67
524.61	34724.19
524.78	34621.20
524.96	34803.77
525.13	35241.45
525.30	35180.59
525.47	35164.21
525.64	35079.95
525.81	35119.74
525.98	35098.67
526.16	35072.93
526.33	34925.47
526.50	35246.13
526.67	34780.36
526.84	35126.76
527.01	35332.73
527.18	35133.78
527.36	35763.39
527.53	35515.29
527.70	36091.06
527.87	35964.67
528.04	35672.10
528.21	35686.15
528.38	36077.02
528.55	36327.45
528.72	35306.98
528.89	36460.87
529.07	36180.00
529.24	36095.74
529.41	36552.15
529.58	36170.64
529.75	36313.41
529.92	36542.78
530.09	36524.06
530.26	36397.67
530.43	36678.54
530.60	36512.36
530.77	36591.94
530.94	36931.31
531.11	36587.25
531.28	36802.58
531.46	37160.69
531.63	36589.59
531.80	36884.50
531.97	36629.38
532.14	36828.33
532.31	36507.68
532.48	37020.25
532.65	37343.25
532.82	37340.91
532.99	37532.83
533.16	37095.15
533.33	37221.54
533.50	37773.91
533.67	37551.56
533.84	37443.89
534.01	37481.34
534.18	37413.46
534.35	38052.43
534.52	37867.53
534.69	37722.41
534.86	37895.61
535.03	37546.87
535.20	38040.73
535.37	38377.76
535.54	38197.54
535.71	38014.98
535.88	38106.26
536.05	37916.68
536.22	38026.68
536.38	38239.67
536.55	38239.67
536.72	38593.09
536.89	38658.63
537.06	38447.98
537.23	38686.71
537.40	38639.90
537.57	38595.43
537.74	38455.00
537.91	38710.12
538.08	39189.93
538.25	38447.98
538.42	38745.23
538.59	38895.02
538.75	38644.59
538.92	38944.17
539.09	39248.44
539.26	39051.84
539.43	38745.23
539.60	38623.52
539.77	38670.33
539.94	39133.76
540.11	38934.81
540.28	38918.43
540.44	39117.37
540.61	39124.40
540.78	39084.61
540.95	39171.21
541.12	39276.53
541.29	39285.89
541.46	39454.41
541.62	39398.24
541.79	40062.95
541.96	39049.50
542.13	39772.72
542.30	39536.33
542.47	39856.98
542.63	39819.53
542.80	39957.63
542.97	40147.21
543.14	40458.50
543.31	40044.23
543.48	40046.57
543.64	40364.88
543.81	40512.33
543.98	40538.08
544.15	40025.50
544.32	40594.25
544.48	40217.43
544.65	40493.61
544.82	40615.32
544.99	40348.50
545.16	41031.93
545.32	40587.23
545.49	40662.13
545.66	40748.73
545.83	40484.25
546.00	41263.64
546.16	40893.84
546.33	40912.56
546.50	40390.62
546.67	41048.32
546.83	40446.80
547.00	40788.52
547.17	40844.69
547.34	41141.94
547.50	40524.04
547.67	41209.81
547.84	41067.04
548.00	41294.07
548.17	41383.01
548.34	41289.39
548.51	41347.90
548.67	41404.08
548.84	41354.93
549.01	41357.27
549.18	41017.89
549.34	41434.50
549.51	41993.89
549.68	41818.35
549.84	41766.86
550.01	41890.91
550.18	41588.98
550.34	41584.30
550.51	41200.45
550.68	41294.07
550.84	41645.15
551.01	42103.90
551.18	41521.10
551.34	41563.23
551.51	41949.42
551.68	42167.09
551.84	42010.28
552.01	41661.54
552.18	41954.10
552.34	41588.98
552.51	42476.04
552.68	41989.21
552.84	42405.83
553.01	42560.30
553.18	42155.39
553.34	42284.12
553.51	42146.03
553.67	42197.52
553.84	42590.73
554.01	42724.14
554.17	42614.13
554.34	42384.76
554.51	42373.06
554.67	42628.18
554.84	42618.81
555.00	42206.88
555.17	42728.82
555.33	42731.16
555.50	42431.57
555.67	42911.38
555.83	42581.37
556.00	42906.70
556.16	42953.51
556.33	42710.10
556.50	43110.33
556.66	43049.47
556.83	42763.93
556.99	42649.24
557.16	43295.23
557.32	43037.77
557.49	42726.48
557.65	42689.03
557.82	42555.62
557.98	42740.52
558.15	42803.72
558.32	43201.61
558.48	42759.25
558.65	43140.75
558.81	42728.82
558.98	43084.58
559.14	43049.47
559.31	43332.68
559.47	43503.54
559.64	43941.22
559.80	43587.80
559.97	43330.34
560.13	42995.64
560.30	43449.70
560.46	43381.83
560.63	42918.40
560.79	43393.53
560.96	43751.63
561.12	43250.76
561.29	43494.18
561.45	43548.01
561.61	43620.56
561.78	43285.87
561.94	43449.70
562.11	43622.90
562.27	43089.26
562.44	42899.68
562.60	43988.03
562.77	43463.75
562.93	43739.93
563.10	43587.80
563.26	43442.68
563.42	43943.56
563.59	43606.52
563.75	43744.61
563.92	43316.29
564.08	44130.80
564.24	43856.96
564.41	43775.04
564.57	43517.58
564.74	43632.27
564.90	43620.56
565.07	43962.28
565.23	43791.42
565.39	43885.04
565.56	43995.05
565.72	43402.89
565.88	43576.09
566.05	43927.17
566.21	43796.10
566.38	43622.90
566.54	43613.54
566.70	44488.90
566.87	44252.51
567.03	43959.94
567.19	44346.13
567.36	43985.69
567.52	43456.73
567.68	44231.44
567.85	44009.09
568.01	43885.04
568.17	43711.84
568.34	44423.37
568.50	44130.80
568.66	44067.61
568.83	44067.61
568.99	43320.98
569.15	44088.67
569.32	43929.51
569.48	43990.37
569.64	43901.43
569.81	44315.70
569.97	43950.58
570.13	43833.55
570.30	44030.16
570.46	43768.02
570.62	44044.20
570.78	44100.37
570.95	44151.87
571.11	44397.62
571.27	43899.09
571.43	43707.16
571.60	44584.86
571.76	43927.17
571.92	44011.43
572.09	43751.63
572.25	43938.88
572.41	44123.78
572.57	44081.65
572.74	44793.17
572.90	44552.10
573.06	44233.78
573.22	44556.78
573.38	44046.54
573.55	43955.26
573.71	44498.26
573.87	44013.77
574.03	44280.60
574.20	44027.82
574.36	44203.36
574.52	44247.83
574.68	44346.13
574.84	44280.60
575.01	44388.26
575.17	44432.73
575.33	44261.87
575.49	44629.34
575.65	44299.32
575.82	44617.63
575.98	44418.69
576.14	44381.24
576.30	44226.76
576.46	44083.99
576.62	44568.48
576.79	44362.51
576.95	44006.75
577.11	44545.08
577.27	44069.95
577.43	44081.65
577.59	44488.90
577.75	44107.40
577.92	44383.58
578.08	43817.17
578.24	44215.06
578.40	44151.87
578.56	44456.14
578.72	44397.62
578.88	44421.03
579.04	44271.23
579.21	44151.87
579.37	44268.89
579.53	44304.00
579.69	43943.56
579.85	44238.47
580.01	44626.99
580.17	44552.10
580.33	44626.99
580.49	44528.69
580.65	44666.78
580.82	44685.51
580.98	44421.03
581.14	44542.74
581.30	44830.62
581.46	44245.49
581.62	44619.97
581.78	44556.78
581.94	44514.65
582.10	44453.79
582.26	44636.36
582.42	44271.23
582.58	44404.64
582.74	44409.32
582.90	44762.75
583.06	44619.97
583.22	44598.91
583.38	44933.60
583.54	44374.22
583.70	44250.17
583.86	44430.39
584.02	44364.85
584.18	44624.65
584.34	44762.75
584.50	44397.62
584.66	44456.14
584.82	44313.36
584.98	44779.13
585.14	44942.97
585.30	44816.58
585.46	44369.54
585.62	44399.96
585.78	44470.18
585.94	44554.44
586.10	44591.89
586.26	44140.16
586.42	44439.75
586.58	44699.55
586.74	44521.67
586.90	44701.89
587.06	44030.16
587.22	44949.99
587.38	44357.83
587.54	45036.59
587.70	44788.49
587.86	45008.50
588.02	44744.02
588.18	45001.48
588.34	44589.55
588.49	44575.50
588.65	44545.08
588.81	44390.60
588.97	44498.26
589.13	44641.04
589.29	44367.20
589.45	44470.18
589.61	44886.79
589.77	45001.48
589.93	44704.23
590.08	44531.03
590.24	45020.20
