SpectraSuite Data File
++++++++++++++++++++++++++++++++++++
Date: Fri Oct 25 10:43:36 EDT 2013
User: price-jones
Dark Spectrum Present: No
Reference Spectrum Present: No
Number of Sampled Component Spectra: 1
Spectrometers: USB2+H05261
Integration Time (usec): 100000 (USB2+H05261)
Spectra Averaged: 1 (USB2+H05261)
Boxcar Smoothing: 0 (USB2+H05261)
Correct for Electrical Dark: No (USB2+H05261)
Strobe/Lamp Enabled: No (USB2+H05261)
Correct for Detector Non-linearity: No (USB2+H05261)
Correct for Stray Light: No (USB2+H05261)
Number of Pixels in Processed Spectrum: 2048
>>>>>Begin Processed Spectral Data<<<<<
365.73	142.77
365.92	142.77
366.12	142.77
366.32	98.30
366.52	21.06
366.72	63.19
366.91	35.11
367.11	51.49
367.31	7.02
367.51	7.02
367.70	25.75
367.90	14.04
368.10	28.09
368.30	46.81
368.49	16.38
368.69	0.00
368.89	72.56
369.09	65.54
369.28	16.38
369.48	58.51
369.68	63.19
369.87	72.56
370.07	46.81
370.27	128.73
370.47	166.18
370.66	351.08
370.86	421.30
371.06	505.56
371.25	535.98
371.45	397.89
371.65	479.81
371.84	557.05
372.04	496.19
372.24	486.83
372.44	454.06
372.63	571.09
372.83	465.77
373.03	512.58
373.22	524.28
373.42	514.92
373.62	543.00
373.81	580.45
374.01	599.18
374.21	557.05
374.40	510.24
374.60	545.34
374.79	636.63
374.99	535.98
375.19	622.58
375.38	599.18
375.58	606.20
375.78	599.18
375.97	526.62
376.17	636.63
376.37	606.20
376.56	631.94
376.76	610.88
376.95	566.41
377.15	669.39
377.35	688.12
377.54	704.50
377.74	678.76
377.93	627.26
378.13	655.35
378.33	706.84
378.52	709.18
378.72	664.71
378.91	688.12
379.11	610.88
379.31	681.10
379.50	702.16
379.70	763.01
379.89	718.54
380.09	643.65
380.28	755.99
380.48	758.33
380.68	709.18
380.87	662.37
381.07	730.25
381.26	688.12
381.46	716.20
381.65	699.82
381.85	697.48
382.04	791.10
382.24	751.31
382.43	774.72
382.63	767.70
382.83	725.57
383.02	744.29
383.22	648.33
383.41	681.10
383.61	746.63
383.80	774.72
384.00	800.46
384.19	753.65
384.39	798.12
384.58	807.48
384.78	830.89
384.97	842.59
385.17	798.12
385.36	781.74
385.56	858.98
385.75	779.40
385.95	755.99
386.14	905.79
386.34	809.83
386.53	779.40
386.72	868.34
386.92	976.00
387.11	837.91
387.31	903.45
387.50	945.58
387.70	950.26
387.89	964.30
388.09	924.51
388.28	851.96
388.48	861.32
388.67	966.64
388.86	980.68
389.06	1013.45
389.25	940.90
389.45	919.83
389.64	952.60
389.84	1029.84
390.03	931.53
390.22	1022.81
390.42	966.64
390.61	990.05
390.81	1086.01
391.00	1137.50
391.19	1041.54
391.39	1076.65
391.58	1167.93
391.78	983.02
391.97	1048.56
392.16	971.32
392.36	1004.09
392.55	1041.54
392.75	1055.58
392.94	1081.33
393.13	1015.79
393.33	997.07
393.52	1050.90
393.71	1081.33
393.91	1188.99
394.10	1149.20
394.29	1069.62
394.49	1181.97
394.68	1191.33
394.88	1308.36
395.07	1308.36
395.26	1174.95
395.46	1277.93
395.65	1240.48
395.84	1306.02
396.04	1233.46
396.23	1198.35
396.42	1210.06
396.62	1177.29
396.81	1252.19
397.00	1261.55
397.19	1284.95
397.39	1310.70
397.58	1401.98
397.77	1406.66
397.97	1439.43
398.16	1420.71
398.35	1490.92
398.55	1514.33
398.74	1593.90
398.93	1577.52
399.12	1540.07
399.32	1598.59
399.51	1537.73
399.70	1692.21
399.90	1617.31
400.09	1584.54
400.28	1563.48
400.47	1624.33
400.67	1717.95
400.86	1717.95
401.05	1774.13
401.24	1666.46
401.44	1842.00
401.63	1713.27
401.82	1675.82
402.01	1652.42
402.21	1830.30
402.40	1717.95
402.59	1769.44
402.78	1837.32
402.97	1729.66
403.17	1844.34
403.36	1865.41
403.55	1944.99
403.74	2033.93
403.93	1872.43
404.13	1846.68
404.32	1842.00
404.51	1886.47
404.70	1959.03
404.89	2054.99
405.09	1984.77
405.28	2080.74
405.47	1959.03
405.66	2045.63
405.85	2052.65
406.05	1984.77
406.24	2113.50
406.43	2047.97
406.62	2097.12
406.81	2246.91
407.00	2069.03
407.20	2010.52
407.39	2165.00
407.58	2172.02
407.77	2172.02
407.96	2305.43
408.15	2237.55
408.34	2319.47
408.54	2321.81
408.73	2338.20
408.92	2237.55
409.11	2354.58
409.30	2333.51
409.49	2354.58
409.68	2319.47
409.87	2342.88
410.07	2417.77
410.26	2286.70
410.45	2380.32
410.64	2450.54
410.83	2520.76
411.02	2464.58
411.21	2658.85
411.40	2579.27
411.59	2616.72
411.78	2586.29
411.98	2649.49
412.17	2607.36
412.36	2597.99
412.55	2644.81
412.74	2871.84
412.93	2712.68
413.12	2808.64
413.31	2916.31
413.50	2918.65
413.69	2834.39
413.88	3054.40
414.07	2993.55
414.26	2984.18
414.45	3016.95
414.64	2972.48
414.83	3094.19
415.02	3110.57
415.22	3236.96
415.41	3358.67
415.60	3293.13
415.79	3269.73
415.98	3351.65
416.17	3300.16
416.36	3356.33
416.55	3321.22
416.74	3426.54
416.93	3309.52
417.12	3288.45
417.31	3321.22
417.50	3309.52
417.69	3571.66
417.88	3550.59
418.07	3466.33
418.26	3557.61
418.45	3557.61
418.64	3758.90
418.83	3602.08
419.02	3576.34
419.21	3627.83
419.39	3679.32
419.58	3571.66
419.77	3595.06
419.96	3688.68
420.15	3742.52
420.34	3693.37
420.53	3751.88
420.72	3971.89
420.91	3929.76
421.10	3934.44
421.29	3911.04
421.48	3955.51
421.67	4149.77
421.86	3843.16
422.05	3882.95
422.24	3812.73
422.43	3829.12
422.61	3906.35
422.80	4060.83
422.99	3925.08
423.18	3960.19
423.37	4070.19
423.56	3946.14
423.75	3927.42
423.94	3950.82
424.13	3679.32
424.32	3850.18
424.50	4032.74
424.69	4149.77
424.88	4025.72
425.07	3934.44
425.26	4007.00
425.45	3992.95
425.64	3995.29
425.83	3892.31
426.01	4093.60
426.20	4056.15
426.39	4086.58
426.58	4060.83
426.77	4042.11
426.96	4046.79
427.15	3978.91
427.33	4072.53
427.52	4084.23
427.71	4311.27
427.90	4294.88
428.09	4166.15
428.28	4290.20
428.46	4278.50
428.65	4318.29
428.84	4180.20
429.03	4292.54
429.22	4063.17
429.40	4121.68
429.59	4168.49
429.78	4037.42
429.97	4074.87
430.16	4091.26
430.34	4152.11
430.53	4229.35
430.72	4088.92
430.91	4168.49
431.10	4402.55
431.28	4638.94
431.47	4622.56
431.66	4732.56
431.85	4671.71
432.03	4702.14
432.22	4660.01
432.41	4667.03
432.60	4784.06
432.79	4718.52
432.97	4936.19
433.16	4737.24
433.35	4809.80
433.54	4585.11
433.72	4737.24
433.91	4688.09
434.10	4725.54
434.28	4826.18
434.47	4868.31
434.66	4919.81
434.85	5050.88
435.03	5095.35
435.22	4973.64
435.41	5118.75
435.59	5123.43
435.78	5172.58
435.97	5380.89
436.16	5146.84
436.34	5043.85
436.53	5163.22
436.72	5289.61
436.90	5107.05
437.09	5221.74
437.28	5254.50
437.46	5289.61
437.65	5186.63
437.84	5298.97
438.02	5029.81
438.21	5160.88
438.40	5153.86
438.58	5516.64
438.77	5451.11
438.96	5465.15
439.14	5535.37
439.33	5757.72
439.52	5849.00
439.70	5664.10
439.89	5713.25
440.08	5727.29
440.26	5755.38
440.45	5783.46
440.63	5919.21
440.82	6043.26
441.01	6033.90
441.19	6101.78
441.38	6069.01
441.57	6054.97
441.75	6375.62
441.94	6480.94
442.12	6516.05
442.31	6640.10
442.50	6401.37
442.68	6469.24
442.87	6291.36
443.05	6583.93
443.24	6579.25
443.43	6551.16
443.61	6551.16
443.80	6707.98
443.98	6555.84
444.17	6401.37
444.35	6602.65
444.54	6670.53
444.73	6757.13
444.91	6604.99
445.10	6422.43
445.28	6462.22
445.47	6513.71
445.65	6607.33
445.84	6597.97
446.02	6848.41
446.21	6829.68
446.39	6513.71
446.58	6965.43
446.77	6850.75
446.95	6736.06
447.14	6902.24
447.32	6829.68
447.51	6766.49
447.69	6691.59
447.88	6658.82
448.06	6729.04
448.25	6881.18
448.43	6836.70
448.62	6810.96
448.80	6787.55
448.99	6902.24
449.17	6890.54
449.36	6974.80
449.54	7185.44
449.73	7117.57
449.91	7180.76
450.10	7300.13
450.28	7531.84
450.46	7178.42
450.65	7396.09
450.83	7213.53
451.02	7328.22
451.20	7428.86
451.39	7227.57
451.57	7421.84
451.76	7169.06
451.94	7485.03
452.13	7506.10
452.31	7379.71
452.49	7115.23
452.68	7248.64
452.86	7360.98
453.05	7417.16
453.23	7445.24
453.42	7358.64
453.60	7407.80
453.78	7489.71
453.97	7211.19
454.15	7545.89
454.34	7513.12
454.52	7602.06
454.70	7658.23
454.89	7602.06
455.07	7637.17
455.26	7754.19
455.44	8009.31
455.62	7976.55
455.81	7981.23
455.99	7962.50
456.17	7969.52
456.36	7962.50
456.54	8201.24
456.73	8243.37
456.91	8222.30
457.09	8358.05
457.28	8531.25
457.46	8109.96
457.64	8266.77
457.83	8102.93
458.01	8276.13
458.19	8524.23
458.38	8407.20
458.56	8411.89
458.74	8271.45
458.93	8135.70
459.11	8505.51
459.29	8416.57
459.48	8315.92
459.66	8505.51
459.84	8379.12
460.03	8720.84
460.21	8465.72
460.39	8746.58
460.57	8793.39
460.76	8568.70
460.94	8945.53
461.12	8882.33
461.31	8966.59
461.49	8769.99
461.67	8936.17
461.85	9041.49
462.04	8980.64
462.22	9523.64
462.40	8945.53
462.59	8933.82
462.77	9022.77
462.95	9160.86
463.13	8982.98
463.32	8929.14
463.50	8971.27
463.68	9202.99
463.86	9025.11
464.05	9029.79
464.23	9273.20
464.41	9366.82
464.59	8936.17
464.78	9521.30
464.96	9224.05
465.14	9006.38
465.32	9511.94
465.50	9144.47
465.69	9455.76
465.87	9558.75
466.05	9294.27
466.23	9322.35
466.41	9362.14
466.60	9757.69
466.78	9355.12
466.96	9317.67
467.14	9338.74
467.32	9596.20
467.51	9518.96
467.69	9401.93
467.87	9404.27
468.05	9514.28
468.23	9467.47
468.41	9715.56
468.60	9572.79
468.78	9710.88
468.96	9582.15
469.14	9881.74
469.32	9753.01
469.50	9671.09
469.69	9809.19
469.87	9781.10
470.05	9820.89
470.23	9914.51
470.41	9856.00
470.59	10092.39
470.77	10019.83
470.95	10200.05
471.14	10228.14
471.32	10169.63
471.50	10256.23
471.68	10513.69
471.86	10731.36
472.04	10733.70
472.22	10644.76
472.40	10305.38
472.58	10485.60
472.77	10441.13
472.95	10768.80
473.13	10993.50
473.31	10672.84
473.49	10546.45
473.67	11002.86
473.85	10972.43
474.03	10967.75
474.21	11236.91
474.39	10972.43
474.57	11234.57
474.75	11522.46
474.93	11246.27
475.12	11496.71
475.30	11323.51
475.48	11311.81
475.66	11461.60
475.84	11480.33
476.02	11681.61
476.20	11646.51
476.38	11831.41
476.56	11889.92
476.74	12163.76
476.92	11941.41
477.10	12173.13
477.28	12264.41
477.46	12201.21
477.64	12262.07
477.82	12341.64
478.00	12805.07
478.18	12381.43
478.36	12636.55
478.54	12622.51
478.72	12926.78
478.90	13050.83
479.08	13205.30
479.26	13465.10
479.44	13287.22
479.62	13329.35
479.80	13657.03
479.98	13500.21
480.16	13867.67
480.34	13802.14
480.52	13947.25
480.70	14029.17
480.88	13792.78
481.06	13975.34
481.24	14321.74
481.41	14506.64
481.59	14686.86
481.77	14752.40
481.95	14806.23
482.13	14771.12
482.31	14965.39
482.49	15328.17
482.67	15124.54
482.85	15290.72
483.03	15414.77
483.21	15712.02
483.39	15742.44
483.57	15592.65
483.74	15573.92
483.92	15969.48
484.10	15651.16
484.28	15899.26
484.46	16606.10
484.64	16758.24
484.82	16217.57
485.00	16180.12
485.18	16741.85
485.35	16716.11
485.53	16236.30
485.71	16318.22
485.89	16425.88
486.07	16697.38
486.25	16802.71
486.43	16968.88
486.61	17376.14
486.78	17673.39
486.96	17607.85
487.14	17799.77
487.32	17837.22
487.50	18162.56
487.68	18305.33
487.85	18761.73
488.03	18689.18
488.21	18918.55
488.39	18803.86
488.57	18881.10
488.75	19005.15
488.92	19082.39
489.10	19620.71
489.28	19655.82
489.46	19864.13
489.64	19822.00
489.81	20365.00
489.99	20325.21
490.17	20592.03
490.35	20622.46
490.53	20606.08
490.70	20828.43
490.88	20863.54
491.06	21207.59
491.24	21060.14
491.41	20648.21
491.59	21041.42
491.77	21158.44
491.95	21605.49
492.13	21584.42
492.30	21888.69
492.48	21584.42
492.66	22366.16
492.84	22036.14
493.01	22621.28
493.19	22342.75
493.37	22174.24
493.54	22590.85
493.72	22693.83
493.90	22930.23
494.08	23426.42
494.25	23496.64
494.43	23173.64
494.61	23520.04
494.79	23730.69
494.96	23672.18
495.14	23810.27
495.32	24170.71
495.49	24009.22
495.67	24067.73
495.85	24283.06
496.02	24622.44
496.20	24512.43
496.38	24559.24
496.55	24809.68
496.73	25673.34
496.91	25060.12
497.09	24978.20
497.26	25156.08
497.44	25202.89
497.62	25483.75
497.79	25783.34
497.97	25575.03
498.14	25490.77
498.32	25879.30
498.50	26251.45
498.67	26279.54
498.85	26244.43
499.03	26504.23
499.20	26506.57
499.38	26494.86
499.56	26752.32
499.73	26534.65
499.91	26675.09
500.08	26881.05
500.26	26469.12
500.44	27215.75
500.61	27105.74
500.79	27154.90
500.97	27152.55
501.14	27412.35
501.32	27314.05
501.49	27505.98
501.67	27751.73
501.84	27847.69
502.02	27791.52
502.20	27892.16
502.37	28187.07
502.55	28048.98
502.72	28280.69
502.90	28636.45
503.07	28252.61
503.25	28683.27
503.43	28379.00
503.60	28430.49
503.78	28648.16
503.95	28566.24
504.13	28629.43
504.30	28910.30
504.48	28889.23
504.65	29336.27
504.83	29275.42
505.01	29759.91
505.18	29165.42
505.36	29926.09
505.53	29783.32
505.71	30246.74
505.88	29862.90
506.06	29792.68
506.23	30340.36
506.41	29867.58
506.58	30012.69
506.76	30258.45
506.93	30321.64
507.11	30450.37
507.28	30096.95
507.46	30663.36
507.63	30618.89
507.81	30103.97
507.98	30588.46
508.16	30808.47
508.33	31199.34
508.50	30771.02
508.68	31236.79
508.85	31349.14
509.03	31096.36
509.20	31372.54
509.38	31847.67
509.55	31424.03
509.73	31630.00
509.90	31564.46
510.08	31721.28
510.25	31768.09
510.42	32037.25
510.60	32198.75
510.77	32275.99
510.95	32140.24
511.12	32266.63
511.30	32163.64
511.47	32793.25
511.64	33029.64
511.82	32847.08
511.99	32624.73
512.17	32800.27
512.34	32723.03
512.51	32659.84
512.69	33219.22
512.86	33062.41
513.04	32959.42
513.21	33397.10
513.38	33095.18
513.56	33251.99
513.73	33106.88
513.90	33736.48
514.08	32978.15
514.25	33432.21
514.43	33502.43
514.60	33635.84
514.77	33825.42
514.95	33776.27
515.12	34064.16
515.29	33722.44
515.47	33989.26
515.64	34635.25
515.81	34235.02
515.99	34380.13
516.16	34300.55
516.33	33387.74
516.51	34047.77
516.68	33701.37
516.85	33841.81
517.03	33701.37
517.20	34279.49
517.37	34902.07
517.54	34787.38
517.72	34649.29
517.89	34209.27
518.06	34043.09
518.24	34419.92
518.41	34529.92
518.58	35002.71
518.75	35119.74
518.93	35070.59
519.10	35409.96
519.27	35145.48
519.45	35604.23
519.62	35690.83
519.79	35608.91
519.96	35688.49
520.14	35779.77
520.31	35758.70
520.48	35505.93
520.65	35503.59
520.83	36425.76
521.00	36474.91
521.17	36105.10
521.34	36034.89
521.52	36627.04
521.69	36140.21
521.86	36720.66
522.03	36313.41
522.20	37008.55
522.38	36278.30
522.55	36636.41
522.72	36858.76
522.89	36870.46
523.07	37027.28
523.24	36957.06
523.41	37174.73
523.58	37530.49
523.75	37755.18
523.92	37404.10
524.10	37202.82
524.27	37710.71
524.44	37460.27
524.61	38272.44
524.78	37694.33
524.96	37469.64
525.13	37776.25
525.30	37553.90
525.47	37668.58
525.64	38101.58
525.81	37989.24
525.98	37818.38
526.16	37567.94
526.33	37598.37
526.50	38040.73
526.67	37359.63
526.84	37706.03
527.01	37654.54
527.18	37935.40
527.36	38143.71
527.53	38242.01
527.70	38841.19
527.87	38288.82
528.04	38899.70
528.21	39129.08
528.38	38876.30
528.55	39194.61
528.72	39711.87
528.89	39423.98
529.07	38983.96
529.24	38946.51
529.41	39363.13
529.58	39117.37
529.75	39491.86
529.92	39470.79
530.09	39482.50
530.26	39304.62
530.43	39653.36
530.60	39419.30
530.77	39356.11
530.94	39833.58
531.11	39548.03
531.28	39704.85
531.46	39969.33
531.63	40062.95
531.80	39819.53
531.97	40500.63
532.14	39931.88
532.31	39433.35
532.48	39690.80
532.65	40266.58
532.82	40109.76
532.99	40325.09
533.16	39817.19
533.33	40212.74
533.50	40271.26
533.67	40067.63
533.84	40275.94
534.01	40446.80
534.18	40477.22
534.35	40264.24
534.52	40402.33
534.69	40498.29
534.86	40961.72
535.03	40715.96
535.20	40999.16
535.37	41041.29
535.54	41497.70
535.71	40467.86
535.88	41050.66
536.05	40582.55
536.22	41322.16
536.38	41373.65
536.55	41174.70
536.72	41188.75
536.89	41010.87
537.06	41127.89
537.23	41188.75
537.40	41333.86
537.57	41263.64
537.74	41343.22
537.91	41951.76
538.08	41558.55
538.25	41261.30
538.42	41511.74
538.59	41759.84
538.75	40804.90
538.92	41368.97
539.09	41588.98
539.26	41354.93
539.43	41832.39
539.60	41827.71
539.77	41223.86
539.94	41453.23
540.11	41804.31
540.28	41811.33
540.44	42178.79
540.61	41914.31
540.78	41579.62
540.95	41670.90
541.12	41738.77
541.29	41895.59
541.46	41923.68
541.62	42309.86
541.79	42490.09
541.96	41855.80
542.13	42277.10
542.30	42440.93
542.47	42244.33
542.63	42693.71
542.80	42721.80
542.97	42951.17
543.14	43051.81
543.31	42834.14
543.48	43115.01
543.64	43365.45
543.81	43351.40
543.98	43400.55
544.15	42930.11
544.32	43189.91
544.48	43515.24
544.65	43276.51
544.82	43346.72
544.99	43157.14
545.16	42944.15
545.32	42937.13
545.49	43496.52
545.66	43894.41
545.83	43229.69
546.00	43363.11
546.16	43496.52
546.33	43395.87
546.50	43152.46
546.67	43966.96
546.83	43030.75
547.00	43732.91
547.17	43655.67
547.34	43323.32
547.50	43732.91
547.67	44020.80
547.84	43344.38
548.00	43772.70
548.17	44268.89
548.34	43784.40
548.51	43971.64
548.67	44172.93
548.84	43901.43
549.01	44355.49
549.18	44168.25
549.34	43583.12
549.51	43709.50
549.68	43922.49
549.84	44549.76
550.01	43988.03
550.18	44378.90
550.34	44308.68
550.51	44378.90
550.68	44285.28
550.84	44109.74
551.01	44414.01
551.18	44404.64
551.34	44236.12
551.51	44879.77
551.68	44624.65
551.84	44692.53
552.01	44304.00
552.18	44484.22
552.34	44224.42
552.51	44608.27
552.68	44624.65
552.84	44797.85
553.01	45052.97
553.18	44926.58
553.34	44685.51
553.51	44797.85
553.67	44685.51
553.84	45558.53
554.01	45382.99
554.17	45153.62
554.34	45008.50
554.51	45595.98
554.67	45352.56
554.84	45059.99
555.00	44701.89
555.17	45008.50
555.33	45165.32
555.50	44947.65
555.67	44732.32
555.83	45013.18
556.00	45303.41
556.16	45336.18
556.33	45326.81
556.50	45031.91
556.66	45141.91
556.83	44875.09
556.99	45455.54
557.16	45488.31
557.32	45155.96
557.49	45832.37
557.65	45188.72
557.82	45441.50
557.98	45111.49
558.15	45558.53
558.32	45418.10
558.48	44964.03
558.65	45429.80
558.81	45347.88
558.98	45247.24
559.14	45333.84
559.31	44996.80
559.47	45649.81
559.64	45481.29
559.80	45057.65
559.97	45277.66
560.13	45422.78
560.30	45862.80
560.46	45565.55
560.63	45535.12
560.79	46178.77
560.96	46043.02
561.12	45687.26
561.29	45492.99
561.45	45284.68
561.61	45734.07
561.78	45588.95
561.94	45649.81
562.11	45134.89
562.27	45677.90
562.44	45895.56
562.60	45755.13
562.77	45689.60
562.93	45895.56
563.10	45778.54
563.26	45848.75
563.42	46333.24
563.59	46181.11
563.75	46178.77
563.92	46211.54
564.08	45869.82
564.24	45853.44
564.41	45488.31
564.57	45963.44
564.74	45291.71
564.90	46057.06
565.07	45977.48
565.23	45834.71
565.39	45933.01
565.56	45954.08
565.72	45642.79
565.88	45872.16
566.05	45778.54
566.21	46316.86
566.38	46073.45
566.54	46227.92
566.70	46213.88
566.87	46227.92
567.03	45846.41
567.19	46721.77
567.36	46272.39
567.52	46759.22
567.68	46188.13
567.85	45621.72
568.01	46089.83
568.17	46106.21
568.34	46089.83
568.50	46270.05
568.66	46237.28
568.83	46183.45
568.99	45951.74
569.15	46216.22
569.32	45745.77
569.48	46021.95
569.64	46319.20
569.81	46588.36
569.97	45773.86
570.13	45663.85
570.30	45762.15
570.46	45633.42
570.62	45598.32
570.78	45713.00
570.95	45713.00
571.11	46113.23
571.27	45670.87
571.43	46054.72
571.60	45848.75
571.76	46117.92
571.92	46349.63
572.09	46309.84
572.25	46237.28
572.41	46415.16
572.57	46595.38
572.74	46777.95
572.90	46450.27
573.06	46373.03
573.22	46131.96
573.38	45998.55
573.55	46078.13
573.71	46550.91
573.87	46178.77
574.03	46021.95
574.20	46368.35
574.36	46337.93
574.52	46394.10
574.68	46148.34
574.84	45907.27
575.01	45949.40
575.17	46436.23
575.33	46082.81
575.49	45827.69
575.65	46415.16
575.82	46508.79
575.98	45830.03
576.14	46253.67
576.30	46085.15
576.46	46248.99
576.62	46394.10
576.79	46251.33
576.95	45851.09
577.11	46522.83
577.27	45841.73
577.43	46082.81
577.59	45713.00
577.75	46106.21
577.92	45820.67
578.08	45701.30
578.24	46096.85
578.40	45928.33
578.56	46007.91
578.72	46579.00
578.88	46134.30
579.04	46312.18
579.21	46099.19
579.37	46096.85
579.53	46330.90
579.69	46447.93
579.85	45909.61
580.01	45977.48
580.17	46366.01
580.33	46106.21
580.49	46204.52
580.65	46197.49
580.82	46309.84
580.98	46092.17
581.14	46391.76
581.30	46136.64
581.46	46248.99
581.62	46766.24
581.78	46251.33
581.94	46663.26
582.10	46274.73
582.26	46508.79
582.42	46422.19
582.58	46492.40
582.74	46155.36
582.90	46653.90
583.06	46768.58
583.22	46230.26
583.38	46555.60
583.54	46576.66
583.70	46433.89
583.86	46686.67
584.02	46108.55
584.18	46459.63
584.34	46256.01
584.50	46625.81
584.66	46763.90
584.82	46438.57
584.98	46515.81
585.14	46286.43
585.30	46131.96
585.46	46473.68
585.62	46206.86
585.78	46153.02
585.94	45495.33
586.10	46213.88
586.26	45911.95
586.42	46279.41
586.58	46581.34
586.74	45993.87
586.90	46529.85
587.06	46366.01
587.22	46473.68
587.38	46436.23
587.54	46579.00
587.70	46377.72
587.86	46487.72
588.02	46164.73
588.18	46419.84
588.34	46368.35
588.49	45823.01
588.65	46244.30
588.81	45996.21
588.97	46026.63
589.13	45642.79
589.29	45881.52
589.45	46265.37
589.61	46319.20
589.77	46756.88
589.93	46277.07
