SpectraSuite Data File
++++++++++++++++++++++++++++++++++++
Date: Fri Oct 25 11:22:37 EDT 2013
User: price-jones
Dark Spectrum Present: No
Reference Spectrum Present: No
Number of Sampled Component Spectra: 1
Spectrometers: USB2+H05261
Integration Time (usec): 100000 (USB2+H05261)
Spectra Averaged: 1 (USB2+H05261)
Boxcar Smoothing: 0 (USB2+H05261)
Correct for Electrical Dark: No (USB2+H05261)
Strobe/Lamp Enabled: No (USB2+H05261)
Correct for Detector Non-linearity: No (USB2+H05261)
Correct for Stray Light: No (USB2+H05261)
Number of Pixels in Processed Spectrum: 2048
>>>>>Begin Processed Spectral Data<<<<<
365.73	196.60
365.92	196.60
366.12	196.60
366.32	191.92
366.52	147.45
366.72	154.48
366.91	156.82
367.11	180.22
367.31	131.07
367.51	124.05
367.70	140.43
367.90	128.73
368.10	112.35
368.30	135.75
368.49	63.19
368.69	133.41
368.89	93.62
369.09	117.03
369.28	131.07
369.48	140.43
369.68	168.52
369.87	205.97
370.07	152.13
370.27	234.05
370.47	334.70
370.66	559.39
370.86	617.90
371.06	603.86
371.25	624.92
371.45	650.67
371.65	683.44
371.84	627.26
372.04	594.50
372.24	678.76
372.44	702.16
372.63	734.93
372.83	711.52
373.03	774.72
373.22	629.60
373.42	767.70
373.62	725.57
373.81	833.23
374.01	786.42
374.21	844.93
374.40	873.02
374.60	858.98
374.79	777.06
374.99	828.55
375.19	896.43
375.38	802.80
375.58	854.30
375.78	835.57
375.97	880.04
376.17	896.43
376.37	812.17
376.56	835.57
376.76	856.64
376.95	880.04
377.15	854.30
377.35	924.51
377.54	875.36
377.74	866.00
377.93	870.68
378.13	936.21
378.33	964.30
378.52	992.39
378.72	959.62
378.91	952.60
379.11	987.71
379.31	985.37
379.50	938.55
379.70	966.64
379.89	1013.45
380.09	931.53
380.28	950.26
380.48	1008.77
380.68	938.55
380.87	1008.77
381.07	978.34
381.26	1048.56
381.46	961.96
381.65	1008.77
381.85	999.41
382.04	1053.24
382.24	1041.54
382.43	1111.75
382.63	1041.54
382.83	1100.05
383.02	1095.37
383.22	1123.46
383.41	1149.20
383.61	1039.20
383.80	1172.61
384.00	1071.97
384.19	1057.92
384.39	1146.86
384.58	1167.93
384.78	1191.33
384.97	1121.12
385.17	1158.57
385.36	1095.37
385.56	1184.31
385.75	1121.12
385.95	1114.10
386.14	1205.38
386.34	1146.86
386.53	1207.72
386.72	1277.93
386.92	1322.40
387.11	1259.21
387.31	1188.99
387.50	1196.01
387.70	1280.27
387.89	1270.91
388.09	1226.44
388.28	1177.29
388.48	1420.71
388.67	1336.45
388.86	1299.00
389.06	1320.06
389.25	1362.19
389.45	1301.34
389.64	1397.30
389.84	1444.11
390.03	1387.94
390.22	1404.32
390.42	1284.95
390.61	1320.06
390.81	1380.92
391.00	1397.30
391.19	1441.77
391.39	1322.40
391.58	1472.20
391.78	1472.20
391.97	1542.41
392.16	1434.75
392.36	1493.26
392.55	1483.90
392.75	1607.95
392.94	1533.05
393.13	1584.54
393.33	1526.03
393.52	1589.22
393.71	1528.37
393.91	1519.01
394.10	1528.37
394.29	1579.86
394.49	1610.29
394.68	1584.54
394.88	1645.40
395.07	1654.76
395.26	1668.80
395.46	1666.46
395.65	1792.85
395.84	1771.79
396.04	1748.38
396.23	1853.70
396.42	1760.08
396.62	1727.32
396.81	1776.47
397.00	1853.70
397.19	1739.02
397.39	1867.75
397.58	1860.73
397.77	1877.11
397.97	1762.42
398.16	1851.36
398.35	1980.09
398.55	1856.04
398.74	1919.24
398.93	1963.71
399.12	1980.09
399.32	1900.52
399.51	1919.24
399.70	1987.11
399.90	2045.63
400.09	1952.01
400.28	2087.76
400.47	1994.14
400.67	2097.12
400.86	2085.42
401.05	2054.99
401.24	2132.23
401.44	2169.68
401.63	2115.84
401.82	2155.63
402.01	2101.80
402.21	2160.31
402.40	2197.76
402.59	2263.30
402.78	2200.10
402.97	2143.93
403.17	2286.70
403.36	2214.15
403.55	2321.81
403.74	2377.98
403.93	2260.96
404.13	2363.94
404.32	2438.84
404.51	2319.47
404.70	2373.30
404.89	2525.44
405.09	2492.67
405.28	2457.56
405.47	2623.74
405.66	2506.71
405.85	2513.74
406.05	2408.41
406.24	2499.69
406.43	2630.76
406.62	2682.25
406.81	2630.76
407.00	2597.99
407.20	2548.84
407.39	2698.64
407.58	2715.02
407.77	2843.75
407.96	2747.79
408.15	2794.60
408.34	2743.11
408.54	2876.52
408.73	2862.48
408.92	2796.94
409.11	2911.63
409.30	2782.90
409.49	2949.08
409.68	2958.44
409.87	2958.44
410.07	3059.08
410.26	3063.76
410.45	3087.17
410.64	2949.08
410.83	3155.04
411.02	3234.62
411.21	3229.94
411.40	3260.37
411.59	3232.28
411.78	3157.38
411.98	3239.30
412.17	3323.56
412.36	3176.11
412.55	3412.50
412.74	3452.29
412.93	3384.41
413.12	3248.66
413.31	3681.66
413.50	3492.08
413.69	3482.72
413.88	3648.90
414.07	3660.60
414.26	3588.04
414.45	3779.97
414.64	3829.12
414.83	3922.74
415.02	3885.29
415.22	3894.65
415.41	3894.65
415.60	3868.91
415.79	3817.41
415.98	3981.25
416.17	4053.81
416.36	3997.64
416.55	3990.61
416.74	4063.17
416.93	4205.94
417.12	4126.36
417.31	4140.41
417.50	4355.74
417.69	4486.81
417.88	4369.78
418.07	4337.01
418.26	4397.87
418.45	4409.57
418.64	4550.00
418.83	4475.10
419.02	4477.44
419.21	4461.06
419.39	4561.70
419.58	4650.64
419.77	4531.28
419.96	4615.54
420.15	4557.02
420.34	4723.20
420.53	4720.86
420.72	4772.35
420.91	4734.90
421.10	4784.06
421.29	4875.34
421.48	4758.31
421.67	4814.48
421.86	4727.88
422.05	4835.55
422.24	4793.42
422.43	4945.55
422.61	4898.74
422.80	5111.73
422.99	4905.76
423.18	4877.68
423.37	5078.96
423.56	5107.05
423.75	5015.77
423.94	4816.82
424.13	4652.98
424.32	4765.33
424.50	5074.28
424.69	5149.18
424.88	5041.51
425.07	5111.73
425.26	5069.60
425.45	4968.96
425.64	4978.32
425.83	5022.79
426.01	5109.39
426.20	5109.39
426.39	5011.09
426.58	5015.77
426.77	5060.24
426.96	5100.03
427.15	5053.22
427.33	5275.57
427.52	5085.98
427.71	5378.55
427.90	5376.21
428.09	5411.32
428.28	5423.02
428.46	5303.65
428.65	5362.17
428.84	5345.78
429.03	5418.34
429.22	5371.53
429.40	5657.07
429.59	5563.45
429.78	5331.74
429.97	5266.21
430.16	5617.29
430.34	5621.97
430.53	5659.42
430.72	5621.97
430.91	5490.90
431.10	5769.42
431.28	5743.67
431.47	5806.87
431.66	5771.76
431.85	5923.90
432.03	5956.66
432.22	6106.46
432.41	5914.53
432.60	5921.56
432.79	5998.79
432.97	5991.77
433.16	6164.97
433.35	5930.92
433.54	6087.73
433.72	6235.19
433.91	6167.31
434.10	6150.93
434.28	6169.65
434.47	6244.55
434.66	6307.74
434.85	6258.59
435.03	6321.79
435.22	6349.87
435.41	6555.84
435.59	6583.93
435.78	6317.11
435.97	6509.03
436.16	6476.26
436.34	6520.73
436.53	6607.33
436.72	6548.82
436.90	6303.06
437.09	6778.19
437.28	6523.07
437.46	6693.93
437.65	6621.38
437.84	6736.06
438.02	6722.02
438.21	6792.23
438.40	6665.85
438.58	7021.61
438.77	7066.08
438.96	7077.78
439.14	7286.09
439.33	7405.46
439.52	7192.47
439.70	7321.20
439.89	7447.58
440.08	7559.93
440.26	7644.19
440.45	7475.67
440.63	7375.03
440.82	7606.74
441.01	7524.82
441.19	7667.60
441.38	7906.33
441.57	7847.82
441.75	7953.14
441.94	7992.93
442.12	8109.96
442.31	7985.91
442.50	8147.40
442.68	8028.04
442.87	8255.07
443.05	8116.98
443.24	8351.03
443.43	8208.26
443.61	8173.15
443.80	8503.17
443.98	8187.19
444.17	7817.39
444.35	8152.09
444.54	8306.56
444.73	8325.29
444.91	8346.35
445.10	8388.48
445.28	8498.49
445.47	8468.06
445.65	8505.51
445.84	8437.63
446.02	8524.23
446.21	8372.10
446.39	8442.31
446.58	8528.91
446.77	8652.96
446.95	8264.43
447.14	8503.17
447.32	8603.81
447.51	8549.98
447.69	8578.06
447.88	8606.15
448.06	8564.02
448.25	8610.83
448.43	8669.34
448.62	8788.71
448.80	8744.24
448.99	8681.05
449.17	8856.59
449.36	8683.39
449.54	8865.95
449.73	9076.60
449.91	9207.67
450.10	9226.39
450.28	9053.19
450.46	9006.38
450.65	9235.75
450.83	9018.08
451.02	9338.74
451.20	9060.21
451.39	9170.22
451.57	9160.86
451.76	9172.56
451.94	9233.41
452.13	9338.74
452.31	9324.69
452.49	9048.51
452.68	9385.55
452.86	9469.81
453.05	9638.33
453.23	9556.41
453.42	9659.39
453.60	9376.19
453.78	9944.94
453.97	9799.82
454.15	9509.60
454.34	9488.53
454.52	9816.21
454.70	9724.93
454.89	9760.03
455.07	9708.54
455.26	9930.89
455.44	10068.98
455.62	9900.47
455.81	10012.81
455.99	9987.07
456.17	9966.00
456.36	10225.80
456.54	10104.09
456.73	10387.30
456.91	10588.58
457.09	10462.19
457.28	10684.55
457.46	10291.34
457.64	10548.79
457.83	10714.97
458.01	10387.30
458.19	10717.31
458.38	10651.78
458.56	10614.33
458.74	10824.98
458.93	10853.06
459.11	10874.13
459.29	10532.41
459.48	10712.63
459.66	10689.23
459.84	11028.60
460.03	11089.46
460.21	10930.30
460.39	11363.30
460.57	11197.12
460.76	11328.19
460.94	11241.59
461.12	11290.74
461.31	11190.10
461.49	11370.32
461.67	11365.64
461.85	11658.21
462.04	11325.85
462.22	11932.05
462.40	11536.50
462.59	11733.11
462.77	11506.07
462.95	11625.44
463.13	11595.01
463.32	11728.42
463.50	11742.47
463.68	11805.66
463.86	12077.16
464.05	11730.76
464.23	11936.73
464.41	12046.74
464.59	11630.12
464.78	12243.34
464.96	12432.93
465.14	11868.86
465.32	12236.32
465.50	12318.24
465.69	11976.52
465.87	12149.72
466.05	12290.15
466.23	12388.46
466.41	12444.63
466.60	12439.95
466.78	12201.21
466.96	12271.43
467.14	12388.46
467.32	12596.76
467.51	12596.76
467.69	12182.49
467.87	12533.57
468.05	12765.28
468.23	12599.10
468.41	12903.37
468.60	12545.27
468.78	12769.96
468.96	12517.18
469.14	13055.51
469.32	13233.39
469.50	12830.82
469.69	13015.72
469.87	13181.90
470.05	13022.74
470.23	13060.19
470.41	13289.56
470.59	13509.57
470.77	13209.98
470.95	13486.17
471.14	13626.60
471.32	13249.77
471.50	13682.77
471.68	13640.64
471.86	13736.60
472.04	13816.18
472.22	14218.75
472.40	13926.19
472.58	13930.87
472.77	14162.58
472.95	14031.51
473.13	14998.15
473.31	14204.71
473.49	14139.18
473.67	14452.81
473.85	14434.08
474.03	14794.53
474.21	14506.64
474.39	14920.92
474.57	14785.16
474.75	15040.28
474.93	15080.07
475.12	15171.35
475.30	15096.46
475.48	15014.54
475.66	15124.54
475.84	15438.17
476.02	15803.30
476.20	15356.25
476.38	16002.24
476.56	16231.62
476.74	16318.22
476.92	16013.95
477.10	16053.73
477.28	16187.14
477.46	16184.80
477.64	16421.20
477.82	16589.72
478.00	17238.05
478.18	16793.34
478.36	16943.14
478.54	17268.47
478.72	17282.52
478.90	17425.29
479.08	17666.36
479.26	17776.37
479.44	17898.08
479.62	18075.96
479.80	18335.76
479.98	18380.23
480.16	18817.91
480.34	18590.88
480.52	18614.28
480.70	18761.73
480.88	18794.50
481.06	18717.26
481.24	19187.71
481.41	19342.19
481.59	19566.88
481.77	19779.87
481.95	19639.44
482.13	20109.88
482.31	19609.01
482.49	20491.39
482.67	20470.33
482.85	20510.11
483.03	20685.65
483.21	20814.38
483.39	21188.87
483.57	21156.10
483.74	21331.64
483.92	21944.86
484.10	21900.39
484.28	21986.99
484.46	22403.61
484.64	22445.74
484.82	22324.03
485.00	22647.02
485.18	22785.12
485.35	23307.05
485.53	22986.40
485.71	23297.69
485.89	23646.43
486.07	23620.69
486.25	23414.72
486.43	23850.06
486.61	24477.32
486.78	24004.53
486.96	24685.63
487.14	24807.34
487.32	25013.31
487.50	24985.22
487.68	25453.33
487.85	25539.93
488.03	25883.98
488.21	26122.72
488.39	26223.36
488.57	26696.15
488.75	26717.22
488.92	26773.39
489.10	27009.78
489.28	27180.64
489.46	27494.27
489.64	27395.97
489.81	27999.83
489.99	27889.82
490.17	28196.43
490.35	28624.75
490.53	28547.51
490.70	28608.37
490.88	28409.42
491.06	29277.76
491.24	29223.93
491.41	29455.64
491.59	29633.52
491.77	29771.61
491.95	29944.81
492.13	30066.52
492.30	30237.38
492.48	30211.64
492.66	30169.51
492.84	30600.16
493.01	30843.58
493.19	31154.87
493.37	31489.57
493.54	31644.04
493.72	31740.00
493.90	31414.67
494.08	32051.30
494.25	32320.46
494.43	32322.80
494.61	32746.44
494.79	32924.32
494.96	32987.51
495.14	32774.52
495.32	33476.68
495.49	33125.60
495.67	33654.56
495.85	33818.40
496.02	34017.35
496.20	34099.26
496.38	34487.79
496.55	34632.91
496.73	35318.68
496.91	35419.33
497.09	34993.35
497.26	35098.67
497.44	35318.68
497.62	35662.74
497.79	35978.72
497.97	35622.95
498.14	36292.35
498.32	36376.61
498.50	36367.24
498.67	37118.56
498.85	36634.06
499.03	37060.04
499.20	37263.67
499.38	37275.37
499.56	37165.37
499.73	37488.36
499.91	37837.10
500.08	38230.31
500.26	37640.50
500.44	37787.95
500.61	38223.29
500.79	38040.73
500.97	38993.32
501.14	38532.24
501.32	38714.80
501.49	39377.17
501.67	39061.20
501.84	39129.08
502.02	39005.03
502.20	39098.65
502.37	39524.63
502.55	39321.00
502.72	39590.16
502.90	39959.97
503.07	39763.36
503.25	40142.53
503.43	40107.42
503.60	40739.36
503.78	40608.29
503.95	40383.60
504.13	40509.99
504.30	41071.72
504.48	40971.08
504.65	40804.90
504.83	41537.49
505.01	42344.97
505.18	41785.58
505.36	42113.26
505.53	41830.05
505.71	42344.97
505.88	42127.30
506.06	41900.27
506.23	42351.99
506.41	41918.99
506.58	42740.52
506.76	42473.70
506.93	42780.31
507.11	42293.48
507.28	42576.69
507.46	42866.91
507.63	43206.29
507.81	43423.96
507.98	43185.22
508.16	43646.31
508.33	43716.53
508.50	43826.53
508.68	43957.60
508.85	44655.08
509.03	44491.24
509.20	44334.43
509.38	44484.22
509.55	44729.98
509.73	45092.76
509.90	44980.42
510.08	44692.53
510.25	44961.69
510.42	45048.29
510.60	45390.01
510.77	45397.03
510.95	45333.84
511.12	45605.34
511.30	45724.71
511.47	45933.01
511.64	45935.35
511.82	46267.71
511.99	45881.52
512.17	46272.39
512.34	45986.85
512.51	46497.08
512.69	46586.02
512.86	46794.33
513.04	46965.19
513.21	47215.63
513.38	47199.24
513.56	47330.31
513.73	46988.60
513.90	47611.18
514.08	46981.57
514.25	47349.04
514.43	47842.89
514.60	47629.90
514.77	47971.62
514.95	48156.52
515.12	47894.38
515.29	47959.92
515.47	48325.04
515.64	48633.99
515.81	48163.54
515.99	48699.53
516.16	48633.99
516.33	48935.92
516.51	48938.26
516.68	48809.53
516.85	48671.44
517.03	49219.13
517.20	49298.70
517.37	49104.44
517.54	49289.34
517.72	49399.35
517.89	49507.01
518.06	49556.16
518.24	49645.10
518.41	49757.45
518.58	49818.30
518.75	49631.06
518.93	49846.39
519.10	49420.41
519.27	50213.85
519.45	50092.15
519.62	50082.78
519.79	50160.02
519.96	50239.60
520.14	50255.98
520.31	50192.79
520.48	50691.32
520.65	50693.66
520.83	51147.73
521.00	51004.95
521.17	50756.86
521.34	50576.64
521.52	50864.52
521.69	51124.32
521.86	51208.58
522.03	51650.94
522.20	51381.78
522.38	51480.08
522.55	51297.52
522.72	51452.00
522.89	51805.42
523.07	52294.59
523.24	51784.35
523.41	51814.78
523.58	52046.49
523.75	52161.18
523.92	52289.91
524.10	52229.05
524.27	52168.20
524.44	52418.64
524.61	52406.94
524.78	52439.70
524.96	52603.54
525.13	52624.60
525.30	52790.78
525.47	52980.37
525.64	52683.12
525.81	52999.09
525.98	53045.90
526.16	52938.24
526.33	52959.30
526.50	53422.73
526.67	53219.10
526.84	53371.24
527.01	53020.16
527.18	53263.57
527.36	53256.55
527.53	53198.04
527.70	53588.91
527.87	53652.10
528.04	53492.94
528.21	53717.64
528.38	53354.85
528.55	53759.76
528.72	53661.46
528.89	53476.56
529.07	53724.66
529.24	53872.11
529.41	54169.36
529.58	53790.19
529.75	54073.40
529.92	54195.10
530.09	54274.68
530.26	54113.19
530.43	54461.93
530.60	54101.48
530.77	54141.27
530.94	54513.42
531.11	54277.02
531.28	54431.50
531.46	54452.56
531.63	54656.19
531.80	54405.75
531.97	54546.18
532.14	54710.02
532.31	54845.77
532.48	54583.63
532.65	54930.03
532.82	54775.56
532.99	54923.01
533.16	54918.33
533.33	54899.61
533.50	55182.81
533.67	55028.34
533.84	55007.27
534.01	55372.39
534.18	55360.69
534.35	55365.37
534.52	55243.66
534.69	55327.92
534.86	55561.98
535.03	55311.54
535.20	55526.87
535.37	55679.00
535.54	55561.98
535.71	55433.25
535.88	55718.79
536.05	55693.05
536.22	55899.01
536.38	56030.08
536.55	55810.07
536.72	55852.20
536.89	55781.99
537.06	55870.93
537.23	55971.57
537.40	56030.08
537.57	55882.63
537.74	56116.68
537.91	56346.06
538.08	56308.61
538.25	55959.87
538.42	56179.88
538.59	56245.41
538.75	56231.37
538.92	56252.44
539.09	56229.03
539.26	56233.71
539.43	56238.39
539.60	56662.03
539.77	56233.71
539.94	56910.13
540.11	56493.51
540.28	56664.37
540.44	56381.16
540.61	56741.61
540.78	56615.22
540.95	56683.09
541.12	56505.21
541.29	56856.29
541.46	56458.40
541.62	57003.75
541.79	56933.53
541.96	56692.46
542.13	56879.70
542.30	56900.76
542.47	56980.34
542.63	57198.01
542.80	57071.62
542.97	57331.42
543.14	57464.83
543.31	57502.28
543.48	57389.94
543.64	57827.62
543.81	57539.73
543.98	57605.26
544.15	57530.37
544.32	57647.39
544.48	57677.82
544.65	57345.47
544.82	57748.04
544.99	57577.18
545.16	57476.54
545.32	57558.45
545.49	57951.66
545.66	57904.85
545.83	57872.09
546.00	57750.38
546.16	58024.22
546.33	57822.93
546.50	57801.87
546.67	58059.33
546.83	57513.98
547.00	57879.11
547.17	58136.57
547.34	57963.37
547.50	58206.78
547.67	58389.34
547.84	58307.43
548.00	58241.89
548.17	58394.03
548.34	58316.79
548.51	58515.73
548.67	58305.09
548.84	58468.92
549.01	58113.16
549.18	58384.66
549.34	58424.45
549.51	58670.21
549.68	58546.16
549.84	58337.85
550.01	58602.33
550.18	58445.52
550.34	58838.73
550.51	58752.13
550.68	58805.96
550.84	58546.16
551.01	58726.38
551.18	58733.40
551.34	58625.74
551.51	58801.28
551.68	58911.28
551.84	58876.18
552.01	58707.66
552.18	58990.86
552.34	58759.15
552.51	59194.49
552.68	59002.56
552.84	58824.68
553.01	59114.91
553.18	59126.61
553.34	58899.58
553.51	59119.59
553.67	59011.93
553.84	59231.94
554.01	59114.91
554.17	59433.22
554.34	59276.41
554.51	59196.83
554.67	59339.60
554.84	59412.16
555.00	59255.34
555.17	59089.16
555.33	59407.48
555.50	59093.85
555.67	59196.83
555.83	59327.90
556.00	59367.69
556.16	59681.32
556.33	59470.67
556.50	59367.69
556.66	59573.66
556.83	59365.35
556.99	59615.79
557.16	59646.21
557.32	59606.42
557.49	59831.11
557.65	59641.53
557.82	59515.14
557.98	59655.57
558.15	59704.73
558.32	59639.19
558.48	59606.42
558.65	59786.64
558.81	59896.65
558.98	59753.88
559.14	59817.07
559.31	59791.33
559.47	59791.33
559.64	59973.89
559.80	60027.72
559.97	59903.67
560.13	59943.46
560.30	59913.03
560.46	59887.29
560.63	60013.68
560.79	60018.36
560.96	60034.74
561.12	60027.72
561.29	60095.60
561.45	59976.23
561.61	60032.40
561.78	60163.47
561.94	59952.82
562.11	59824.09
562.27	59866.22
562.44	60170.49
562.60	60217.30
562.77	60121.34
562.93	59812.39
563.10	60285.18
563.26	60226.66
563.42	60385.82
563.59	60296.88
563.75	60259.43
563.92	60350.71
564.08	60327.31
564.24	60385.82
564.41	60214.96
564.57	60278.16
564.74	60224.32
564.90	60406.89
565.07	60308.58
565.23	60240.71
565.39	60385.82
565.56	60458.38
565.72	60587.11
565.88	60622.22
566.05	60441.99
566.21	60540.30
566.38	60427.95
566.54	60577.75
566.70	60542.64
566.87	60692.43
567.03	60313.26
567.19	60643.28
567.36	60692.43
567.52	60570.72
567.68	60720.52
567.85	60687.75
568.01	60917.12
568.17	60481.78
568.34	60530.93
568.50	60577.75
568.66	60542.64
568.83	60683.07
568.99	60535.62
569.15	60561.36
569.32	60544.98
569.48	60563.70
569.64	60802.44
569.81	60893.72
569.97	60650.30
570.13	60563.70
570.30	60563.70
570.46	60772.01
570.62	60720.52
570.78	60853.93
570.95	60762.65
571.11	60858.61
571.27	60856.27
571.43	60809.46
571.60	61006.06
571.76	60893.72
571.92	60757.97
572.09	60839.89
572.25	60818.82
572.41	60788.39
572.57	60764.99
572.74	60973.30
572.90	60746.26
573.06	60949.89
573.22	60779.03
573.38	60959.25
573.55	60755.63
573.71	61024.79
573.87	60994.36
574.03	60760.31
574.20	60835.20
574.36	61020.11
574.52	60989.68
574.68	60807.12
574.84	61087.98
575.01	60924.14
575.17	61043.51
575.33	60783.71
575.49	60713.50
575.65	61010.74
575.82	61087.98
575.98	61010.74
576.14	61097.34
576.30	61120.75
576.46	61029.47
576.62	60846.91
576.79	60893.72
576.95	60804.78
577.11	60992.02
577.27	60884.36
577.43	61106.71
577.59	60917.12
577.75	61031.81
577.92	61006.06
578.08	60940.53
578.24	61017.77
578.40	61233.10
578.56	61254.16
578.72	60980.32
578.88	61226.07
579.04	61071.60
579.21	61062.24
579.37	61162.88
579.53	61275.22
579.69	60872.65
579.85	60889.04
580.01	61125.43
580.17	61031.81
580.33	61118.41
580.49	61305.65
580.65	61106.71
580.82	61062.24
580.98	60907.76
581.14	60987.34
581.30	61167.56
581.46	60973.30
581.62	60940.53
581.78	61071.60
581.94	61172.24
582.10	61242.46
582.26	61275.22
582.42	61109.05
582.58	61221.39
582.74	61127.77
582.90	61179.26
583.06	61099.68
583.22	61057.56
583.38	61024.79
583.54	61303.31
583.70	61268.20
583.86	61420.34
584.02	61158.20
584.18	61188.63
584.34	61193.31
584.50	60989.68
584.66	60980.32
584.82	61003.72
584.98	61305.65
585.14	61123.09
585.30	61008.40
585.46	61242.46
585.62	61286.93
585.78	61389.91
585.94	61151.18
586.10	61345.44
586.26	61347.78
586.42	61233.10
586.58	61406.30
586.74	61286.93
586.90	61270.54
587.06	61197.99
587.22	61307.99
587.38	61361.82
587.54	61385.23
587.70	61427.36
587.86	61200.33
588.02	61333.74
588.18	61464.81
588.34	61403.95
588.49	61303.31
