SpectraSuite Data File
++++++++++++++++++++++++++++++++++++
Date: Fri Oct 25 11:34:43 EDT 2013
User: price-jones
Dark Spectrum Present: No
Reference Spectrum Present: No
Number of Sampled Component Spectra: 1
Spectrometers: USB2+H05261
Integration Time (usec): 100000 (USB2+H05261)
Spectra Averaged: 1 (USB2+H05261)
Boxcar Smoothing: 0 (USB2+H05261)
Correct for Electrical Dark: No (USB2+H05261)
Strobe/Lamp Enabled: No (USB2+H05261)
Correct for Detector Non-linearity: No (USB2+H05261)
Correct for Stray Light: No (USB2+H05261)
Number of Pixels in Processed Spectrum: 2048
>>>>>Begin Processed Spectral Data<<<<<
365.73	311.29
365.92	311.29
366.12	311.29
366.32	215.33
366.52	149.79
366.72	229.37
366.91	147.45
367.11	191.92
367.31	196.60
367.51	177.88
367.70	212.99
367.90	203.63
368.10	159.16
368.30	126.39
368.49	133.41
368.69	184.90
368.89	149.79
369.09	173.20
369.28	241.08
369.48	166.18
369.68	262.14
369.87	189.58
370.07	220.01
370.27	262.14
370.47	325.33
370.66	463.43
370.86	521.94
371.06	514.92
371.25	554.71
371.45	507.90
371.65	479.81
371.84	545.34
372.04	580.45
372.24	547.69
372.44	667.05
372.63	552.37
372.83	610.88
373.03	601.52
373.22	552.37
373.42	564.07
373.62	582.79
373.81	608.54
374.01	606.20
374.21	638.97
374.40	664.71
374.60	667.05
374.79	716.20
374.99	641.31
375.19	629.60
375.38	617.90
375.58	624.92
375.78	739.61
375.97	622.58
376.17	697.48
376.37	699.82
376.56	638.97
376.76	601.52
376.95	709.18
377.15	683.44
377.35	798.12
377.54	634.29
377.74	695.14
377.93	683.44
378.13	695.14
378.33	763.01
378.52	617.90
378.72	653.01
378.91	653.01
379.11	657.69
379.31	615.56
379.50	727.91
379.70	791.10
379.89	751.31
380.09	674.07
380.28	830.89
380.48	725.57
380.68	809.83
380.87	716.20
381.07	718.54
381.26	704.50
381.46	709.18
381.65	786.42
381.85	777.06
382.04	784.08
382.24	777.06
382.43	772.38
382.63	821.53
382.83	772.38
383.02	774.72
383.22	837.91
383.41	753.65
383.61	760.67
383.80	793.44
384.00	835.57
384.19	858.98
384.39	828.55
384.58	777.06
384.78	873.02
384.97	861.32
385.17	753.65
385.36	805.14
385.56	819.19
385.75	784.08
385.95	917.49
386.14	863.66
386.34	753.65
386.53	837.91
386.72	758.33
386.92	828.55
387.11	873.02
387.31	849.61
387.50	805.14
387.70	875.36
387.89	908.13
388.09	807.48
388.28	903.45
388.48	875.36
388.67	964.30
388.86	931.53
389.06	863.66
389.25	1013.45
389.45	957.28
389.64	847.27
389.84	903.45
390.03	922.17
390.22	1001.75
390.42	952.60
390.61	933.87
390.81	959.62
391.00	1022.81
391.19	997.07
391.39	964.30
391.58	971.32
391.78	964.30
391.97	917.49
392.16	987.71
392.36	1022.81
392.55	1067.28
392.75	1015.79
392.94	1078.99
393.13	1062.60
393.33	1057.92
393.52	1025.15
393.71	1076.65
393.91	1069.62
394.10	1083.67
394.29	1053.24
394.49	1086.01
394.68	1057.92
394.88	1156.22
395.07	1083.67
395.26	1128.14
395.46	1069.62
395.65	1111.75
395.84	1128.14
396.04	1240.48
396.23	1186.65
396.42	1100.05
396.62	1249.85
396.81	1181.97
397.00	1153.88
397.19	1167.93
397.39	1177.29
397.58	1221.76
397.77	1212.40
397.97	1137.50
398.16	1254.53
398.35	1291.98
398.55	1341.13
398.74	1233.46
398.93	1296.66
399.12	1221.76
399.32	1273.25
399.51	1371.55
399.70	1310.70
399.90	1364.53
400.09	1362.19
400.28	1350.49
400.47	1345.81
400.67	1404.32
400.86	1277.93
401.05	1306.02
401.24	1352.83
401.44	1327.08
401.63	1306.02
401.82	1441.77
402.01	1355.17
402.21	1425.39
402.40	1451.13
402.59	1453.47
402.78	1432.41
402.97	1437.09
403.17	1521.35
403.36	1490.92
403.55	1437.09
403.74	1556.46
403.93	1481.56
404.13	1540.07
404.32	1521.35
404.51	1528.37
404.70	1619.65
404.89	1493.26
405.09	1694.55
405.28	1610.29
405.47	1605.61
405.66	1603.27
405.85	1734.34
406.05	1582.20
406.24	1710.93
406.43	1624.33
406.62	1610.29
406.81	1781.15
407.00	1661.78
407.20	1746.04
407.39	1666.46
407.58	1769.44
407.77	1771.79
407.96	1785.83
408.15	1849.02
408.34	1748.38
408.54	1799.87
408.73	1881.79
408.92	1778.81
409.11	1956.69
409.30	1909.88
409.49	1916.90
409.68	1893.49
409.87	1930.94
410.07	2045.63
410.26	1973.07
410.45	1966.05
410.64	1935.62
410.83	1956.69
411.02	2033.93
411.21	2024.56
411.40	2094.78
411.59	2108.82
411.78	2033.93
411.98	2090.10
412.17	2150.95
412.36	2111.16
412.55	2176.70
412.74	2162.66
412.93	2317.13
413.12	2143.93
413.31	2392.03
413.50	2335.85
413.69	2270.32
413.88	2359.26
414.07	2340.54
414.26	2424.80
414.45	2291.38
414.64	2342.88
414.83	2359.26
415.02	2448.20
415.22	2523.10
415.41	2506.71
415.60	2532.46
415.79	2586.29
415.98	2600.34
416.17	2607.36
416.36	2607.36
416.55	2635.44
416.74	2682.25
416.93	2665.87
417.12	2686.94
417.31	2675.23
417.50	2766.51
417.69	2785.24
417.88	2780.56
418.07	2579.27
418.26	2719.70
418.45	2768.85
418.64	2906.95
418.83	2902.26
419.02	2810.98
419.21	2876.52
419.39	3026.31
419.58	2960.78
419.77	2993.55
419.96	2984.18
420.15	3054.40
420.34	2935.03
420.53	3082.49
420.72	3129.30
420.91	3016.95
421.10	3185.47
421.29	3157.38
421.48	3030.99
421.67	3061.42
421.86	3035.67
422.05	3110.57
422.24	3162.06
422.43	3262.71
422.61	3213.56
422.80	3281.43
422.99	3260.37
423.18	3162.06
423.37	3426.54
423.56	3442.93
423.75	3204.19
423.94	3272.07
424.13	3124.62
424.32	3260.37
424.50	3258.03
424.69	3396.12
424.88	3323.56
425.07	3262.71
425.26	3164.40
425.45	3297.81
425.64	3386.76
425.83	3276.75
426.01	3300.16
426.20	3405.48
426.39	3246.32
426.58	3351.65
426.77	3251.00
426.96	3370.37
427.15	3356.33
427.33	3482.72
427.52	3417.18
427.71	3478.04
427.90	3471.01
428.09	3356.33
428.28	3384.41
428.46	3494.42
428.65	3370.37
428.84	3691.02
429.03	3623.15
429.22	3513.14
429.40	3552.93
429.59	3574.00
429.78	3447.61
429.97	3557.61
430.16	3627.83
430.34	3714.43
430.53	3702.73
430.72	3705.07
430.91	3796.35
431.10	3634.85
431.28	3751.88
431.47	3801.03
431.66	3803.37
431.85	3733.15
432.03	3932.10
432.22	3934.44
432.41	3974.23
432.60	3824.44
432.79	3974.23
432.97	3995.29
433.16	3957.85
433.35	3967.21
433.54	3985.93
433.72	3941.46
433.91	3911.04
434.10	3971.89
434.28	3964.87
434.47	4025.72
434.66	3999.98
434.85	4086.58
435.03	4065.51
435.22	4065.51
435.41	4191.90
435.59	4088.92
435.78	4124.02
435.97	4187.22
436.16	4241.05
436.34	4107.64
436.53	4140.41
436.72	4320.63
436.90	4290.20
437.09	4187.22
437.28	4301.90
437.46	4322.97
437.65	4430.63
437.84	4381.48
438.02	4407.23
438.21	4425.95
438.40	4273.82
438.58	4578.09
438.77	4592.13
438.96	4500.85
439.14	4608.51
439.33	4587.45
439.52	4606.17
439.70	4671.71
439.89	4840.23
440.08	4767.67
440.26	4645.96
440.45	4690.43
440.63	4929.17
440.82	4849.59
441.01	4915.12
441.19	4781.71
441.38	4919.81
441.57	5032.15
441.75	4936.19
441.94	5217.05
442.12	5102.37
442.31	5167.90
442.50	5015.77
442.68	4987.68
442.87	5268.55
443.05	5210.03
443.24	5341.10
443.43	5151.52
443.61	5331.74
443.80	5385.57
443.98	5240.46
444.17	5064.92
444.35	5303.65
444.54	5294.29
444.73	5366.85
444.91	5345.78
445.10	5357.49
445.28	5416.00
445.47	5364.51
445.65	5387.91
445.84	5320.04
446.02	5437.06
446.21	5338.76
446.39	5345.78
446.58	5397.28
446.77	5408.98
446.95	5364.51
447.14	5408.98
447.32	5518.98
447.51	5584.52
447.69	5404.30
447.88	5369.19
448.06	5586.86
448.25	5495.58
448.43	5650.05
448.62	5460.47
448.80	5563.45
448.99	5577.50
449.17	5685.16
449.36	5586.86
449.54	5741.33
449.73	5795.17
449.91	5781.12
450.10	5891.13
450.28	5900.49
450.46	5888.79
450.65	5907.51
450.83	5991.77
451.02	5703.89
451.20	5841.98
451.39	5823.25
451.57	5804.53
451.76	5891.13
451.94	6033.90
452.13	6125.18
452.31	5816.23
452.49	5982.41
452.68	5888.79
452.86	5970.71
453.05	6017.52
453.23	6052.63
453.42	6010.50
453.60	5935.60
453.78	6164.97
453.97	6204.76
454.15	6024.54
454.34	6073.69
454.52	6146.25
454.70	6209.44
454.89	6111.14
455.07	6169.65
455.26	6249.23
455.44	6314.77
455.62	6314.77
455.81	6303.06
455.99	6384.98
456.17	6445.84
456.36	6544.14
456.54	6642.44
456.73	6480.94
456.91	6700.95
457.09	6541.80
457.28	6745.42
457.46	6417.75
457.64	6724.36
457.83	6764.15
458.01	6619.04
458.19	6722.02
458.38	6621.38
458.56	6825.00
458.74	6740.74
458.93	6729.04
459.11	6621.38
459.29	6773.51
459.48	6958.41
459.66	6958.41
459.84	6829.68
460.03	7143.32
460.21	6953.73
460.39	7026.29
460.57	7037.99
460.76	7091.82
460.94	7112.89
461.12	7269.70
461.31	7005.22
461.49	7117.57
461.67	7201.83
461.85	7297.79
462.04	7194.81
462.22	7353.96
462.40	7384.39
462.59	7379.71
462.77	7258.00
462.95	7452.27
463.13	7414.82
463.32	7492.05
463.50	7595.04
463.68	7548.23
463.86	7625.47
464.05	7279.07
464.23	7349.28
464.41	7492.05
464.59	7468.65
464.78	7840.79
464.96	7597.38
465.14	7592.70
465.32	7508.44
465.50	7644.19
465.69	7686.32
465.87	7744.83
466.05	7955.48
466.23	7861.86
466.41	7641.85
466.60	7772.92
466.78	7501.42
466.96	7836.11
467.14	7866.54
467.32	8037.40
467.51	7969.52
467.69	7763.56
467.87	7887.61
468.05	8098.25
468.23	7744.83
468.41	7913.35
468.60	8018.68
468.78	8056.12
468.96	8121.66
469.14	8187.19
469.32	8046.76
469.50	7896.97
469.69	8327.63
469.87	8203.58
470.05	8348.69
470.23	8475.08
470.41	8374.44
470.59	8477.42
470.77	8376.78
470.95	8477.42
471.14	8327.63
471.32	8203.58
471.50	8638.92
471.68	8664.66
471.86	8655.30
472.04	8575.72
472.22	8727.86
472.40	8737.22
472.58	8659.98
472.77	8891.70
472.95	8908.08
473.13	9167.88
473.31	8894.04
473.49	8908.08
473.67	9015.74
473.85	9128.09
474.03	9312.99
474.21	9202.99
474.39	9273.20
474.57	9130.43
474.75	9369.16
474.93	9231.07
475.12	9345.76
475.30	9444.06
475.48	9310.65
475.66	9624.28
475.84	9577.47
476.02	9631.30
476.20	9598.54
476.38	10071.33
476.56	9951.96
476.74	9879.40
476.92	9881.74
477.10	10031.54
477.28	10160.27
477.46	10076.01
477.64	10207.08
477.82	10300.70
478.00	10476.24
478.18	10668.16
478.36	10532.41
478.54	10562.84
478.72	10773.49
478.90	10860.09
479.08	10834.34
479.26	10946.69
479.44	11030.94
479.62	11014.56
479.80	11346.92
479.98	11382.03
480.16	11529.48
480.34	11309.47
480.52	11595.01
480.70	11630.12
480.88	11475.65
481.06	11700.34
481.24	11882.90
481.41	11875.88
481.59	12063.12
481.77	12559.31
481.95	12018.65
482.13	12273.77
482.31	12383.77
482.49	12355.69
482.67	12552.29
482.85	12973.59
483.03	12690.38
483.21	12816.77
483.39	13200.62
483.57	12952.52
483.74	13076.57
483.92	13352.76
484.10	13116.36
484.28	13441.70
484.46	13511.91
484.64	13722.56
484.82	13823.20
485.00	13799.80
485.18	14176.62
485.35	14195.35
485.53	14324.08
485.71	14253.86
485.89	14398.98
486.07	14443.45
486.25	14293.65
486.43	14569.83
486.61	14773.46
486.78	14927.94
486.96	15005.17
487.14	15119.86
487.32	15262.63
487.50	15279.02
487.68	15419.45
487.85	15618.39
488.03	15899.26
488.21	15948.41
488.39	15957.77
488.57	16248.00
488.75	16194.17
488.92	16570.99
489.10	16638.87
489.28	16432.90
489.46	17050.80
489.64	16690.36
489.81	17116.34
489.99	17252.09
490.17	17104.64
490.35	17708.49
490.53	17348.05
490.70	17724.88
490.88	17497.84
491.06	17961.27
491.24	18078.30
491.41	18071.28
491.59	18174.26
491.77	17956.59
491.95	18185.96
492.13	18581.51
492.30	18679.82
492.48	18541.72
492.66	18668.11
492.84	18700.88
493.01	18925.57
493.19	18939.62
493.37	19227.50
493.54	19197.07
493.72	19323.46
493.90	19484.96
494.08	19679.22
494.25	19679.22
494.43	20123.93
494.61	19838.38
494.79	20215.21
494.96	20219.89
495.14	20187.12
495.32	20594.37
495.49	20374.36
495.67	20720.76
495.85	21055.46
496.02	21013.33
496.20	20870.56
496.38	21055.46
496.55	21109.29
496.73	21516.54
496.91	21364.41
497.09	21720.17
497.26	21635.91
497.44	21546.97
497.62	21572.72
497.79	22251.47
497.97	21914.44
498.14	22305.31
498.32	22342.75
498.50	22221.05
498.67	22508.93
498.85	22511.27
499.03	22675.11
499.20	22724.26
499.38	22642.34
499.56	22829.59
499.73	22726.60
499.91	22932.57
500.08	23290.67
500.26	23178.33
500.44	23442.81
500.61	23447.49
500.79	23206.41
500.97	23608.98
501.14	23927.30
501.32	23920.28
501.49	24196.46
501.67	23995.17
501.84	24292.42
502.02	23775.16
502.20	24140.29
502.37	24020.92
502.55	24357.96
502.72	24360.30
502.90	24472.64
503.07	24697.33
503.25	24657.54
503.43	24526.47
503.60	24856.49
503.78	24952.45
503.95	24774.57
504.13	24996.92
504.30	25371.41
504.48	25043.73
504.65	25537.59
504.83	25493.12
505.01	25390.13
505.18	25525.88
505.36	26089.95
505.53	26003.35
505.71	25621.84
505.88	25872.28
506.06	25797.38
506.23	26082.93
506.41	25671.00
506.58	26054.84
506.76	26466.78
506.93	26265.49
507.11	26422.31
507.28	26806.16
507.46	26651.68
507.63	26693.81
507.81	27026.17
507.98	26478.48
508.16	26981.70
508.33	26785.09
508.50	27337.46
508.68	26927.86
508.85	27072.98
509.03	27372.57
509.20	27534.06
509.38	27426.40
509.55	27608.96
509.73	27840.67
509.90	27798.54
510.08	27576.19
510.25	27646.41
510.42	27981.10
510.60	28423.47
510.77	28421.13
510.95	28292.40
511.12	27667.47
511.30	28292.40
511.47	28353.25
511.64	28620.07
511.82	28334.53
511.99	28620.07
512.17	28584.96
512.34	28744.12
512.51	29308.19
512.69	29069.45
512.86	28919.66
513.04	29106.90
513.21	29221.59
513.38	29364.36
513.56	29682.67
513.73	29322.23
513.90	29333.93
514.08	29158.39
514.25	30162.48
514.43	29589.05
514.60	29853.53
514.77	29565.65
514.95	30169.51
515.12	29954.18
515.29	29820.77
515.47	30398.88
515.64	30043.12
515.81	30143.76
515.99	30316.96
516.16	30780.39
516.33	30431.65
516.51	30548.67
516.68	30649.32
516.85	30518.25
517.03	30426.96
517.20	30918.48
517.37	30611.87
517.54	30293.55
517.72	30735.92
517.89	30909.11
518.06	31283.60
518.24	31421.69
518.41	30932.52
518.58	31358.50
518.75	31480.21
518.93	31587.87
519.10	31461.48
519.27	31522.34
519.45	31578.51
519.62	31999.80
519.79	32004.49
519.96	31641.70
520.14	31782.13
520.31	31475.52
520.48	32414.08
520.65	31896.82
520.83	32184.71
521.00	32575.58
521.17	32453.87
521.34	32357.91
521.52	32095.77
521.69	32161.30
521.86	32542.81
522.03	32676.22
522.20	33249.65
522.38	32893.89
522.55	33127.94
522.72	32739.41
522.89	32570.90
523.07	33221.56
523.24	33240.29
523.41	33441.57
523.58	33118.58
523.75	33322.21
523.92	32947.72
524.10	33837.12
524.27	33717.76
524.44	33495.41
524.61	33598.39
524.78	33745.84
524.96	33787.97
525.13	33963.51
525.30	33977.56
525.47	33956.49
525.64	34015.01
525.81	34017.35
525.98	34288.85
526.16	34349.70
526.33	34143.74
526.50	34621.20
526.67	34125.01
526.84	34644.61
527.01	34541.63
527.18	34347.36
527.36	34677.38
527.53	34906.75
527.70	35070.59
527.87	34644.61
528.04	34848.24
528.21	35002.71
528.38	34829.51
528.55	35400.60
528.72	35236.77
528.89	34953.56
529.07	34822.49
529.24	34955.90
529.41	35442.73
529.58	35702.53
529.75	35456.78
529.92	35421.67
530.09	35431.03
530.26	35311.66
530.43	35512.95
530.60	35594.87
530.77	35489.54
530.94	35660.40
531.11	35747.00
531.28	35608.91
531.46	36109.78
531.63	36088.72
531.80	35915.52
531.97	35910.84
532.14	36098.08
532.31	36123.83
532.48	36453.84
532.65	36594.28
532.82	36088.72
532.99	35903.82
533.16	36409.37
533.33	36503.00
533.50	36662.15
533.67	36512.36
533.84	36444.48
534.01	36802.58
534.18	36685.56
534.35	37570.28
534.52	36882.16
534.69	36928.97
534.86	37174.73
535.03	36999.19
535.20	37275.37
535.37	37233.24
535.54	37298.78
535.71	37317.50
535.88	37139.62
536.05	37610.07
536.22	37935.40
536.38	37806.67
536.55	37848.80
536.72	37865.19
536.89	37223.88
537.06	37748.16
537.23	37881.57
537.40	37493.04
537.57	37696.67
537.74	37373.67
537.91	37556.24
538.08	38019.66
538.25	37919.02
538.42	38094.56
538.59	38117.96
538.75	38026.68
538.92	38398.83
539.09	38117.96
539.26	38377.76
539.43	38155.41
539.60	38213.93
539.77	38359.04
539.94	38590.75
540.11	38263.08
540.28	38443.30
540.44	38897.36
540.61	38244.35
540.78	38698.42
540.95	38675.01
541.12	38293.50
541.29	38665.65
541.46	38698.42
541.62	38693.74
541.79	38883.32
541.96	38246.69
542.13	38878.64
542.30	38948.85
542.47	39119.71
542.63	39108.01
542.80	39187.59
542.97	39058.86
543.14	39840.60
543.31	39290.57
543.48	39559.73
543.64	40018.48
543.81	39786.77
543.98	39629.95
544.15	39686.12
544.32	39861.66
544.48	40140.19
544.65	39838.26
544.82	40105.08
544.99	39693.15
545.16	39992.73
545.32	40044.23
545.49	40121.46
545.66	40304.02
545.83	40112.10
546.00	40123.80
546.16	39950.60
546.33	40168.27
546.50	40467.86
546.67	40275.94
546.83	40229.13
547.00	39751.66
547.17	40210.40
547.34	40259.55
547.50	40730.00
547.67	40732.34
547.84	39966.99
548.00	40811.92
548.17	40952.35
548.34	40938.31
548.51	40781.49
548.67	41193.43
548.84	41001.50
549.01	40933.63
549.18	40795.54
549.34	41172.36
549.51	41036.61
549.68	41207.47
549.84	41102.15
550.01	41153.64
550.18	40809.58
550.34	41134.92
550.51	40966.40
550.68	40816.60
550.84	41109.17
551.01	41708.35
551.18	41361.95
551.34	41228.54
551.51	41340.88
551.68	41460.25
551.84	41284.71
552.01	41212.15
552.18	41338.54
552.34	41165.34
552.51	41453.23
552.68	41476.63
552.84	41736.43
553.01	41986.87
553.18	41354.93
553.34	41745.80
553.51	41263.64
553.67	41893.25
553.84	41991.55
554.01	42139.00
554.17	41638.13
554.34	42131.98
554.51	41818.35
554.67	42464.34
554.84	42040.70
555.00	42160.07
555.17	41750.48
555.33	42351.99
555.50	41804.31
555.67	42171.77
555.83	42473.70
556.00	42597.75
556.16	42766.27
556.33	42630.52
556.50	42183.48
556.66	42511.15
556.83	42335.61
556.99	42735.84
557.16	42213.90
557.32	42532.22
557.49	42986.28
557.65	42745.20
557.82	42415.19
557.98	42567.32
558.15	42674.99
558.32	42768.61
558.48	42541.58
558.65	42635.20
558.81	43019.05
558.98	42768.61
559.14	42658.60
559.31	42937.13
559.47	42691.37
559.64	42845.85
559.80	42696.05
559.97	43159.48
560.13	42522.85
560.30	43269.48
560.46	43086.92
560.63	43285.87
560.79	43068.20
560.96	43573.75
561.12	43508.22
561.29	43136.07
561.45	43421.62
561.61	42880.95
561.78	43154.80
561.94	43496.52
562.11	43192.25
562.27	42951.17
562.44	42628.18
562.60	43391.19
562.77	43328.00
562.93	43161.82
563.10	43573.75
563.26	43894.41
563.42	44247.83
563.59	43571.41
563.75	43271.82
563.92	43328.00
564.08	43269.48
564.24	43562.05
564.41	43529.28
564.57	43328.00
564.74	43920.15
564.90	43627.59
565.07	43540.99
565.23	43732.91
565.39	43878.02
565.56	43924.83
565.72	43611.20
565.88	43597.16
566.05	43725.89
566.21	44037.18
566.38	44299.32
566.54	43950.58
566.70	43840.57
566.87	43709.50
567.03	43482.47
567.19	44170.59
567.36	43814.83
567.52	43587.80
567.68	44690.19
567.85	43704.82
568.01	44095.69
568.17	43856.96
568.34	44065.27
568.50	43721.21
568.66	43828.87
568.83	43924.83
568.99	44102.71
569.15	43845.26
569.32	43959.94
569.48	43353.74
569.64	44032.50
569.81	43957.60
569.97	44086.33
570.13	44273.57
570.30	43835.89
570.46	44289.96
570.62	44154.21
570.78	44301.66
570.95	44060.58
571.11	44776.79
571.27	43910.79
571.43	44266.55
571.60	43906.11
571.76	44378.90
571.92	44041.86
572.09	44093.35
572.25	44142.50
572.41	43924.83
572.57	44414.01
572.74	44725.30
572.90	44477.20
573.06	43988.03
573.22	44254.85
573.38	44425.71
573.55	44800.19
573.71	44861.05
573.87	44264.21
574.03	44315.70
574.20	44708.91
574.36	43938.88
574.52	44570.82
574.68	44554.44
574.84	44690.19
575.01	44414.01
575.17	44737.00
575.33	44282.94
575.49	44563.80
575.65	44807.22
575.82	45111.49
575.98	44027.82
576.14	44837.64
576.30	44631.68
576.46	44474.86
576.62	44252.51
576.79	44271.23
576.95	43957.60
577.11	44732.32
577.27	44315.70
577.43	44596.57
577.59	44680.83
577.75	44388.26
577.92	43828.87
578.08	44619.97
578.24	44514.65
578.40	44556.78
578.56	44774.45
578.72	45015.52
578.88	44435.07
579.04	44435.07
579.21	44467.84
579.37	44575.50
579.53	44896.16
579.69	44395.28
579.85	44406.98
580.01	44898.50
580.17	44542.74
580.33	44961.69
580.49	44807.22
580.65	44582.52
580.82	44790.83
580.98	44718.28
581.14	44699.55
581.30	44545.08
581.46	44395.28
581.62	44439.75
581.78	44601.25
581.94	44622.31
582.10	45242.56
582.26	44959.35
582.42	44746.36
582.58	44608.27
582.74	44570.82
582.90	44816.58
583.06	44837.64
583.22	44304.00
583.38	45237.87
583.54	44683.17
583.70	44755.72
583.86	45027.23
584.02	44573.16
584.18	45247.24
584.34	45041.27
584.50	44666.78
584.66	44760.40
584.82	44861.05
584.98	44893.82
585.14	44708.91
585.30	44655.08
585.46	45024.89
585.62	44748.70
585.78	44978.07
585.94	44446.77
586.10	44994.46
586.26	44685.51
586.42	44381.24
586.58	45151.27
586.74	44966.37
586.90	44765.09
587.06	45034.25
587.22	45500.01
587.38	44800.19
587.54	45092.76
587.70	44957.01
587.86	44971.05
588.02	44994.46
588.18	45034.25
588.34	44701.89
588.49	45155.96
588.65	44591.89
588.81	44729.98
588.97	44971.05
589.13	45212.13
589.29	45338.52
589.45	45469.59
589.61	45139.57
589.77	45048.29
589.93	44952.33
590.08	44854.03
