SpectraSuite Data File
++++++++++++++++++++++++++++++++++++
Date: Fri Oct 25 11:25:11 EDT 2013
User: price-jones
Dark Spectrum Present: No
Reference Spectrum Present: No
Number of Sampled Component Spectra: 1
Spectrometers: USB2+H05261
Integration Time (usec): 100000 (USB2+H05261)
Spectra Averaged: 1 (USB2+H05261)
Boxcar Smoothing: 0 (USB2+H05261)
Correct for Electrical Dark: No (USB2+H05261)
Strobe/Lamp Enabled: No (USB2+H05261)
Correct for Detector Non-linearity: No (USB2+H05261)
Correct for Stray Light: No (USB2+H05261)
Number of Pixels in Processed Spectrum: 2048
>>>>>Begin Processed Spectral Data<<<<<
365.73	187.24
365.92	187.24
366.12	187.24
366.32	159.16
366.52	149.79
366.72	159.16
366.91	138.09
367.11	205.97
367.31	119.37
367.51	110.01
367.70	205.97
367.90	191.92
368.10	114.69
368.30	168.52
368.49	84.26
368.69	166.18
368.89	173.20
369.09	140.43
369.28	189.58
369.48	145.11
369.68	147.45
369.87	138.09
370.07	149.79
370.27	238.73
370.47	308.95
370.66	528.96
370.86	624.92
371.06	690.46
371.25	716.20
371.45	690.46
371.65	716.20
371.84	622.58
372.04	664.71
372.24	760.67
372.44	732.59
372.63	709.18
372.83	755.99
373.03	730.25
373.22	739.61
373.42	716.20
373.62	793.44
373.81	751.31
374.01	765.36
374.21	777.06
374.40	800.46
374.60	833.23
374.79	760.67
374.99	809.83
375.19	805.14
375.38	851.96
375.58	748.97
375.78	882.38
375.97	887.06
376.17	840.25
376.37	950.26
376.56	807.48
376.76	903.45
376.95	840.25
377.15	924.51
377.35	870.68
377.54	884.72
377.74	873.02
377.93	908.13
378.13	940.90
378.33	840.25
378.52	826.21
378.72	903.45
378.91	908.13
379.11	947.92
379.31	973.66
379.50	957.28
379.70	1001.75
379.89	1006.43
380.09	999.41
380.28	929.19
380.48	924.51
380.68	950.26
380.87	966.64
381.07	1041.54
381.26	1025.15
381.46	1015.79
381.65	1006.43
381.85	990.05
382.04	1053.24
382.24	1053.24
382.43	1093.03
382.63	1090.69
382.83	1069.62
383.02	1088.35
383.22	1081.33
383.41	1097.71
383.61	1081.33
383.80	1142.18
384.00	1153.88
384.19	1074.31
384.39	1076.65
384.58	1064.94
384.78	1153.88
384.97	1128.14
385.17	1111.75
385.36	1160.91
385.56	1135.16
385.75	1174.95
385.95	1153.88
386.14	1221.76
386.34	1193.67
386.53	1135.16
386.72	1043.88
386.92	1228.78
387.11	1256.87
387.31	1240.48
387.50	1273.25
387.70	1252.19
387.89	1261.55
388.09	1266.23
388.28	1245.16
388.48	1345.81
388.67	1317.72
388.86	1282.61
389.06	1261.55
389.25	1310.70
389.45	1322.40
389.64	1322.40
389.84	1315.38
390.03	1409.00
390.22	1348.15
390.42	1380.92
390.61	1334.11
390.81	1418.36
391.00	1373.89
391.19	1390.28
391.39	1540.07
391.58	1451.13
391.78	1357.51
391.97	1376.24
392.16	1500.28
392.36	1561.14
392.55	1502.62
392.75	1481.56
392.94	1551.78
393.13	1657.10
393.33	1610.29
393.52	1593.90
393.71	1572.84
393.91	1577.52
394.10	1610.29
394.29	1526.03
394.49	1565.82
394.68	1526.03
394.88	1661.78
395.07	1563.48
395.26	1603.27
395.46	1694.55
395.65	1720.29
395.84	1743.70
396.04	1785.83
396.23	1689.87
396.42	1629.01
396.62	1764.76
396.81	1732.00
397.00	1781.15
397.19	1781.15
397.39	1816.26
397.58	1804.55
397.77	1685.19
397.97	1823.28
398.16	1771.79
398.35	1944.99
398.55	1785.83
398.74	1980.09
398.93	1991.80
399.12	1895.83
399.32	1846.68
399.51	1830.30
399.70	2083.08
399.90	1963.71
400.09	1923.92
400.28	1937.96
400.47	2038.61
400.67	2069.03
400.86	2064.35
401.05	2141.59
401.24	2139.25
401.44	2050.31
401.63	2176.70
401.82	2076.06
402.01	2111.16
402.21	2101.80
402.40	2108.82
402.59	2200.10
402.78	2258.62
402.97	2190.74
403.17	2298.41
403.36	2181.38
403.55	2305.43
403.74	2408.41
403.93	2420.11
404.13	2342.88
404.32	2375.64
404.51	2188.40
404.70	2375.64
404.89	2321.81
405.09	2413.09
405.28	2424.80
405.47	2401.39
405.66	2452.88
405.85	2530.12
406.05	2640.12
406.24	2544.16
406.43	2513.74
406.62	2628.42
406.81	2640.12
407.00	2616.72
407.20	2534.80
407.39	2532.46
407.58	2656.51
407.77	2656.51
407.96	2717.36
408.15	2764.17
408.34	2747.79
408.54	2668.21
408.73	2750.13
408.92	2792.26
409.11	2860.13
409.30	2902.26
409.49	2949.08
409.68	2925.67
409.87	3049.72
410.07	2981.84
410.26	2956.10
410.45	2928.01
410.64	2984.18
410.83	3131.64
411.02	3023.97
411.21	3129.30
411.40	3112.91
411.59	3293.13
411.78	3087.17
411.98	3180.79
412.17	3213.56
412.36	3389.10
412.55	3396.12
412.74	3379.73
412.93	3452.29
413.12	3293.13
413.31	3435.91
413.50	3405.48
413.69	3314.20
413.88	3452.29
414.07	3552.93
414.26	3590.38
414.45	3583.36
414.64	3686.34
414.83	3655.92
415.02	3716.77
415.22	3786.99
415.41	3922.74
415.60	3852.52
415.79	3803.37
415.98	3974.23
416.17	3960.19
416.36	4011.68
416.55	3904.01
416.74	4009.34
416.93	3988.27
417.12	3997.64
417.31	3990.61
417.50	4180.20
417.69	4243.39
417.88	4266.80
418.07	4294.88
418.26	4365.10
418.45	4266.80
418.64	4358.08
418.83	4432.97
419.02	4344.03
419.21	4386.16
419.39	4500.85
419.58	4491.49
419.77	4540.64
419.96	4624.90
420.15	4561.70
420.34	4332.33
420.53	4580.43
420.72	4720.86
420.91	4568.73
421.10	4767.67
421.29	4702.14
421.48	4613.20
421.67	4713.84
421.86	4819.16
422.05	4629.58
422.24	4676.39
422.43	4847.25
422.61	5018.11
422.80	4957.25
422.99	4819.16
423.18	4990.02
423.37	4975.98
423.56	4983.00
423.75	4896.40
423.94	4884.70
424.13	4561.70
424.32	4772.35
424.50	5025.13
424.69	4952.57
424.88	4961.94
425.07	4896.40
425.26	4917.47
425.45	4882.36
425.64	4919.81
425.83	5004.07
426.01	5046.20
426.20	5048.54
426.39	4971.30
426.58	5001.72
426.77	5001.72
426.96	5093.01
427.15	5116.41
427.33	5088.32
427.52	5046.20
427.71	5167.90
427.90	5289.61
428.09	5228.76
428.28	5334.08
428.46	5404.30
428.65	5273.23
428.84	5217.05
429.03	5427.70
429.22	5404.30
429.40	5416.00
429.59	5441.75
429.78	5294.29
429.97	5195.99
430.16	5418.34
430.34	5654.73
430.53	5533.03
430.72	5701.54
430.91	5776.44
431.10	5657.07
431.28	5652.39
431.47	5715.59
431.66	5746.02
431.85	5654.73
432.03	5792.83
432.22	5982.41
432.41	5942.62
432.60	5792.83
432.79	5870.06
432.97	5973.05
433.16	5994.11
433.35	5762.40
433.54	5884.11
433.72	5963.68
433.91	5987.09
434.10	6069.01
434.28	6148.59
434.47	6312.42
434.66	6197.74
434.85	6359.24
435.03	6310.08
435.22	6258.59
435.41	6272.64
435.59	6335.83
435.78	6387.32
435.97	6445.84
436.16	6244.55
436.34	6530.09
436.53	6321.79
436.72	6569.88
436.90	6321.79
437.09	6473.92
437.28	6569.88
437.46	6597.97
437.65	6745.42
437.84	6787.55
438.02	6612.01
438.21	6691.59
438.40	6724.36
438.58	7052.03
438.77	6939.69
438.96	6909.26
439.14	6977.14
439.33	7019.27
439.52	7218.21
439.70	7143.32
439.89	7372.69
440.08	7424.18
440.26	7531.84
440.45	7314.17
440.63	7391.41
440.82	7592.70
441.01	7571.63
441.19	7634.83
441.38	7653.55
441.57	7667.60
441.75	7716.75
441.94	7925.05
442.12	7936.76
442.31	7791.64
442.50	7873.56
442.68	7871.22
442.87	8044.42
443.05	8032.72
443.24	8170.81
443.43	8182.51
443.61	8194.22
443.80	8400.18
443.98	8025.70
444.17	7686.32
444.35	8252.73
444.54	8170.81
444.73	8269.11
444.91	8229.32
445.10	8238.69
445.28	8386.14
445.47	8266.77
445.65	8226.98
445.84	8243.37
446.02	8351.03
446.21	8299.54
446.39	8219.96
446.58	8465.72
446.77	8510.19
446.95	8131.02
447.14	8454.02
447.32	8465.72
447.51	8444.65
447.69	8561.68
447.88	8416.57
448.06	8231.66
448.25	8470.40
448.43	8482.10
448.62	8472.74
448.80	8564.02
448.99	8697.43
449.17	8674.03
449.36	8519.55
449.54	8758.28
449.73	8877.65
449.91	8973.61
450.10	8755.94
450.28	8959.57
450.46	9078.94
450.65	8847.22
450.83	9064.89
451.02	8823.82
451.20	9205.33
451.39	9025.11
451.57	9029.79
451.76	9151.49
451.94	9036.81
452.13	9242.78
452.31	9184.26
452.49	8943.19
452.68	9486.19
452.86	9226.39
453.05	9399.59
453.23	9544.70
453.42	9240.44
453.60	9472.15
453.78	9404.27
453.97	9394.91
454.15	9305.97
454.34	9502.58
454.52	9556.41
454.70	9614.92
454.89	9748.33
455.07	9827.91
455.26	9731.95
455.44	9846.63
455.62	9781.10
455.81	9848.97
455.99	10097.07
456.17	10026.86
456.36	9944.94
456.54	10242.18
456.73	10146.22
456.91	10382.62
457.09	10090.05
457.28	10523.05
457.46	10335.81
457.64	10541.77
457.83	10438.79
458.01	10300.70
458.19	10555.82
458.38	10420.06
458.56	10714.97
458.74	10590.92
458.93	10513.69
459.11	10499.64
459.29	10874.13
459.48	10761.78
459.66	10736.04
459.84	10860.09
460.03	10972.43
460.21	10810.93
460.39	10808.59
460.57	10885.83
460.76	10970.09
460.94	11309.47
461.12	11091.80
461.31	11211.17
461.49	10864.77
461.67	11016.90
461.85	11384.37
462.04	11323.51
462.22	11747.15
462.40	11721.40
462.59	11288.40
462.77	11358.62
462.95	11587.99
463.13	11634.80
463.32	11482.67
463.50	11616.08
463.68	11777.58
463.86	11878.22
464.05	11625.44
464.23	11749.49
464.41	11892.26
464.59	11604.38
464.78	12013.97
464.96	12142.70
465.14	11667.57
465.32	11810.34
465.50	12105.25
465.69	12058.44
465.87	12273.77
466.05	11918.01
466.23	12088.87
466.41	12301.86
466.60	12451.65
466.78	11906.31
466.96	12175.47
467.14	12060.78
467.32	12086.53
467.51	12446.97
467.69	12046.74
467.87	12456.33
468.05	12437.61
468.23	12365.05
468.41	12233.98
468.60	12458.67
468.78	12699.75
468.96	12390.80
469.14	12840.18
469.32	13008.70
469.50	12545.27
469.69	12828.48
469.87	12905.71
470.05	12915.08
470.23	12882.31
470.41	13341.05
470.59	13050.83
470.77	12891.67
470.95	12889.33
471.14	13511.91
471.32	13167.85
471.50	13659.37
471.68	13668.73
471.86	13507.23
472.04	13462.76
472.22	13741.29
472.40	13755.33
472.58	13703.84
472.77	13895.76
472.95	14005.77
473.13	14523.02
473.31	14162.58
473.49	13944.91
473.67	14038.53
473.85	14097.05
474.03	14413.02
474.21	14480.89
474.39	14714.95
474.57	14583.88
474.75	14876.44
474.93	15115.18
475.12	14899.85
475.30	14970.07
475.48	14773.46
475.66	15021.56
475.84	14801.55
476.02	15548.18
476.20	15365.62
476.38	15681.59
476.56	15920.32
476.74	15807.98
476.92	15721.38
477.10	15721.38
477.28	16006.92
477.46	16255.02
477.64	16145.02
477.82	16418.86
478.00	16936.12
478.18	16706.74
478.36	16849.52
478.54	16903.35
478.72	16959.52
478.90	17025.06
479.08	17385.50
479.26	17659.34
479.44	17619.55
479.62	17802.11
479.80	17825.52
479.98	18012.76
480.16	18359.16
480.34	18361.50
480.52	18574.49
480.70	18471.51
480.88	18197.67
481.06	18637.69
481.24	18717.26
481.41	18860.04
481.59	19325.80
481.77	19140.90
481.95	19318.78
482.13	19702.63
482.31	19847.74
482.49	20027.96
482.67	20341.60
482.85	20477.35
483.03	20334.57
483.21	20531.18
483.39	20769.91
483.57	20692.68
483.74	21294.19
483.92	21083.55
484.10	21062.48
484.28	21635.91
484.46	21928.48
484.64	22108.70
484.82	21558.67
485.00	22157.85
485.18	22607.23
485.35	22537.02
485.53	22862.35
485.71	22960.66
485.89	23040.23
486.07	23147.90
486.25	23129.17
486.43	23466.21
486.61	23388.97
486.78	24170.71
486.96	24084.11
487.14	24449.24
487.32	24510.09
487.50	24739.46
487.68	24922.02
487.85	25078.84
488.03	25525.88
488.21	25635.89
488.39	25504.82
488.57	25872.28
488.75	26277.19
488.92	25923.77
489.10	26691.47
489.28	26693.81
489.46	27035.53
489.64	26623.59
489.81	27473.21
489.99	27342.14
490.17	27805.56
490.35	27948.34
490.53	28208.14
490.70	28428.15
490.88	27943.66
491.06	28599.01
491.24	28369.63
491.41	28582.62
491.59	29205.20
491.77	29165.42
491.95	29254.36
492.13	29488.41
492.30	29837.15
492.48	29682.67
492.66	30033.75
492.84	29656.93
493.01	30766.34
493.19	30417.60
493.37	30625.91
493.54	30726.55
493.72	31178.28
493.90	31290.62
494.08	31449.78
494.25	31564.46
494.43	31835.97
494.61	32243.22
494.79	31945.97
494.96	32577.92
495.14	32283.01
495.32	33039.00
495.49	33053.05
495.67	33081.13
495.85	33109.22
496.02	33727.12
496.20	33645.20
496.38	33476.68
496.55	33872.23
496.73	34401.19
496.91	34532.26
497.09	34550.99
497.26	34621.20
497.44	34756.96
497.62	34855.26
497.79	35763.39
497.97	35180.59
498.14	36002.12
498.32	36020.84
498.50	35859.35
498.67	36095.74
498.85	36264.26
499.03	36404.69
499.20	36182.34
499.38	37069.40
499.56	36847.05
499.73	37413.46
499.91	37235.58
500.08	37132.60
500.26	36980.46
500.44	37301.12
500.61	37628.79
500.79	37556.24
500.97	37556.24
501.14	38621.18
501.32	38438.62
501.49	38487.77
501.67	38162.43
501.84	38445.64
502.02	38389.47
502.20	38609.48
502.37	38836.51
502.55	38731.18
502.72	38958.22
502.90	39243.76
503.07	39168.87
503.25	39330.36
503.43	39548.03
503.60	39608.89
503.78	39639.31
503.95	39906.13
504.13	40011.46
504.30	40404.67
504.48	40460.84
504.65	40575.53
504.83	40416.37
505.01	40849.37
505.18	40945.33
505.36	41404.08
505.53	40666.81
505.71	41308.11
505.88	41504.72
506.06	41200.45
506.23	41659.20
506.41	41450.89
506.58	41977.51
506.76	42139.00
506.93	42183.48
507.11	41670.90
507.28	42300.50
507.46	41965.81
507.63	42401.14
507.81	42876.27
507.98	42265.39
508.16	42539.24
508.33	43435.66
508.50	43161.82
508.68	43049.47
508.85	43618.22
509.03	43756.32
509.20	43650.99
509.38	44315.70
509.55	43936.54
509.73	44528.69
509.90	44060.58
510.08	44399.96
510.25	44299.32
510.42	44493.58
510.60	44741.68
510.77	45495.33
510.95	44648.06
511.12	44949.99
511.30	44734.66
511.47	45254.26
511.64	45406.39
511.82	45177.02
511.99	44935.95
512.17	45645.13
512.34	45846.41
512.51	45970.46
512.69	46436.23
512.86	45811.31
513.04	46745.18
513.21	46443.25
513.38	46806.03
513.56	46597.73
513.73	46623.47
513.90	46483.04
514.08	46974.55
514.25	46621.13
514.43	46953.49
514.60	47023.70
514.77	47093.92
514.95	47384.15
515.12	47437.98
515.29	47129.03
515.47	47299.89
515.64	47590.11
515.81	47779.70
515.99	47330.31
516.16	48271.21
516.33	48149.50
516.51	48622.29
516.68	47910.77
516.85	48296.95
517.03	48346.11
517.20	48360.15
517.37	48027.79
517.54	48205.67
517.72	48641.01
517.89	48807.19
518.06	49029.54
518.24	48900.81
518.41	48542.71
518.58	49099.76
518.75	48966.35
518.93	49436.80
519.10	49497.65
519.27	49265.94
519.45	49347.86
519.62	49642.76
519.79	49844.05
519.96	49787.88
520.14	49846.39
520.31	49951.71
520.48	50061.72
520.65	49907.24
520.83	50319.18
521.00	50539.19
521.17	50101.51
521.34	50265.34
521.52	50401.10
521.69	50756.86
521.86	50576.64
522.03	50747.50
522.20	51140.71
522.38	50916.01
522.55	50955.80
522.72	51220.28
522.89	51182.84
523.07	51288.16
523.24	51372.42
523.41	51571.36
523.58	51213.26
523.75	51407.53
523.92	51421.57
524.10	51466.04
524.27	51648.60
524.44	51800.74
524.61	51915.42
524.78	51484.76
524.96	51929.47
525.13	51896.70
525.30	52090.96
525.47	52055.85
525.64	52486.51
525.81	52435.02
525.98	52261.82
526.16	52088.62
526.33	52355.44
526.50	52687.80
526.67	52470.13
526.84	52687.80
527.01	52598.86
527.18	52603.54
527.36	52666.73
527.53	52692.48
527.70	53308.04
527.87	53174.63
528.04	52879.72
528.21	53155.91
528.38	53394.64
528.55	53539.75
528.72	53263.57
528.89	53200.38
529.07	52989.73
529.24	53113.78
529.41	53427.41
529.58	53312.72
529.75	53450.81
529.92	53532.73
530.09	53839.34
530.26	53853.39
530.43	53645.08
530.60	53591.25
530.77	53371.24
530.94	53914.24
531.11	53757.42
531.28	53593.59
531.46	53944.67
531.63	54131.91
531.80	54099.14
531.97	54064.03
532.14	54239.57
532.31	54094.46
532.48	54328.52
532.65	54384.69
532.82	54089.78
532.99	54401.07
533.16	54340.22
533.33	54396.39
533.50	54459.58
533.67	54628.10
533.84	54616.40
534.01	54536.82
534.18	54878.54
534.35	55168.77
534.52	55014.29
534.69	54941.74
534.86	54955.78
535.03	54873.86
535.20	54777.90
535.37	55175.79
535.54	54915.99
535.71	55007.27
535.88	55241.32
536.05	55318.56
536.22	55426.23
536.38	55299.84
536.55	55278.77
536.72	55208.56
536.89	55260.05
537.06	55407.50
537.23	55334.95
537.40	55763.26
537.57	55365.37
537.74	55547.93
537.91	55725.81
538.08	55735.18
538.25	55512.83
538.42	55669.64
538.59	55868.59
538.75	55573.68
538.92	55524.53
539.09	56060.51
539.26	55835.82
539.43	55774.97
539.60	56025.40
539.77	56095.62
539.94	56296.91
540.11	56044.13
540.28	56144.77
540.44	56252.44
540.61	56453.72
540.78	56154.13
540.95	56210.31
541.12	56238.39
541.29	56156.47
541.46	56275.84
541.62	56336.69
541.79	56367.12
541.96	56479.47
542.13	56516.92
542.30	56238.39
542.47	56575.43
542.63	56877.36
542.80	56582.45
542.97	56919.49
543.14	56903.10
543.31	56982.68
543.48	56900.76
543.64	57312.70
543.81	57298.65
543.98	57286.95
544.15	57195.67
544.32	57188.65
544.48	57345.47
544.65	57071.62
544.82	57176.95
544.99	57169.93
545.16	57076.30
545.32	57043.54
545.49	57249.50
545.66	57535.05
545.83	57530.37
546.00	57530.37
546.16	57563.14
546.33	57453.13
546.50	56933.53
546.67	57446.11
546.83	57195.67
547.00	57642.71
547.17	57546.75
547.34	57509.30
547.50	57834.64
547.67	57911.88
547.84	57855.70
548.00	57930.60
548.17	58071.03
548.34	58019.54
548.51	58124.86
548.67	58010.18
548.84	57907.19
549.01	57741.02
549.18	58071.03
549.34	57961.03
549.51	58127.20
549.68	58216.14
549.84	58188.06
550.01	58096.78
550.18	57998.48
550.34	58391.68
550.51	58286.36
550.68	58169.33
550.84	58237.21
551.01	58071.03
551.18	58319.13
551.34	58419.77
551.51	58300.40
551.68	58478.28
551.84	58328.49
552.01	58234.87
552.18	58555.52
552.34	58394.03
552.51	58384.66
552.68	58541.48
552.84	58384.66
553.01	58726.38
553.18	58522.76
553.34	58663.19
553.51	58466.58
553.67	58611.70
553.84	58775.53
554.01	58787.24
554.17	58829.37
554.34	58820.00
554.51	58773.19
554.67	58796.60
554.84	58803.62
555.00	58578.93
555.17	58618.72
555.33	58852.77
555.50	58820.00
555.67	58904.26
555.83	58773.19
556.00	58775.53
556.16	59311.52
556.33	59159.38
556.50	58962.78
556.66	59168.74
556.83	59042.35
556.99	59274.07
557.16	59147.68
557.32	59185.13
557.49	59414.50
557.65	58974.48
557.82	59227.26
557.98	59220.23
558.15	59316.20
558.32	59152.36
558.48	59269.39
558.65	59248.32
558.81	59215.55
558.98	59363.01
559.14	59405.14
559.31	59451.95
559.47	59487.06
559.64	59391.09
559.80	59519.82
559.97	59463.65
560.13	59423.86
560.30	59611.10
560.46	59437.90
560.63	59550.25
560.79	59449.61
560.96	59728.13
561.12	59524.50
561.29	59531.53
561.45	59571.32
561.61	59660.26
561.78	59709.41
561.94	59681.32
562.11	59709.41
562.27	59634.51
562.44	59807.71
562.60	59793.67
562.77	59690.68
562.93	59641.53
563.10	59922.40
563.26	59700.04
563.42	59936.44
563.59	59877.93
563.75	59767.92
563.92	59896.65
564.08	59842.82
564.24	60247.73
564.41	59934.10
564.57	59770.26
564.74	59779.62
564.90	59948.14
565.07	60149.43
565.23	60097.94
565.39	59962.18
565.56	60074.53
565.72	60034.74
565.88	59859.20
566.05	59955.16
566.21	59852.18
566.38	59983.25
566.54	60004.31
566.70	60158.79
566.87	60158.79
567.03	59924.74
567.19	60090.91
567.36	60060.49
567.52	60453.70
567.68	60526.25
567.85	60299.22
568.01	60207.94
568.17	60156.45
568.34	60140.07
568.50	60041.76
568.66	60182.19
568.83	60097.94
568.99	60193.90
569.15	60238.37
569.32	60259.43
569.48	60214.96
569.64	60292.20
569.81	60371.78
569.97	60121.34
570.13	60135.38
570.30	60086.23
570.46	60200.92
570.62	60189.22
570.78	60231.35
570.95	60280.50
571.11	60467.74
571.27	60214.96
571.43	60388.16
571.60	60549.66
571.76	60210.28
571.92	60460.72
572.09	60383.48
572.25	60353.05
572.41	60399.86
572.57	60516.89
572.74	60495.83
572.90	60479.44
573.06	60484.12
573.22	60388.16
573.38	60444.33
573.55	60554.34
573.71	60446.68
573.87	60449.02
574.03	60324.97
574.20	60467.74
574.36	60317.95
574.52	60636.26
574.68	60533.28
574.84	60530.93
575.01	60420.93
575.17	60713.50
575.33	60629.24
575.49	60580.09
575.65	60470.08
575.82	60687.75
575.98	60479.44
576.14	60739.24
576.30	60729.88
576.46	60420.93
576.62	60467.74
576.79	60493.49
576.95	60544.98
577.11	60685.41
577.27	60591.79
577.43	60636.26
577.59	60640.94
577.75	60477.10
577.92	60577.75
578.08	60692.43
578.24	60617.53
578.40	60879.67
578.56	60685.41
578.72	60816.48
578.88	60849.25
579.04	60814.14
579.21	60795.42
579.37	60687.75
579.53	60837.54
579.69	60409.23
579.85	60652.64
580.01	60636.26
580.17	60736.90
580.33	60879.67
580.49	60715.84
580.65	60582.43
580.82	60654.98
580.98	60811.80
581.14	60573.06
581.30	60874.99
581.46	60664.35
581.62	60793.07
581.78	60451.36
581.94	60678.39
582.10	60814.14
582.26	60736.90
582.42	60842.23
582.58	60734.56
582.74	60764.99
582.90	60645.62
583.06	60755.63
583.22	60664.35
583.38	60755.63
583.54	60764.99
583.70	60739.24
583.86	60956.91
584.02	60776.69
584.18	60769.67
584.34	60835.20
584.50	60776.69
584.66	60523.91
584.82	60584.77
584.98	61111.39
585.14	60956.91
585.30	60732.22
585.46	60884.36
585.62	60743.92
585.78	61132.45
585.94	60734.56
586.10	60821.16
586.26	60678.39
586.42	60977.98
586.58	60945.21
586.74	60917.12
586.90	60835.20
587.06	60692.43
587.22	61141.81
587.38	60839.89
587.54	60872.65
587.70	61155.86
587.86	61020.11
588.02	60982.66
588.18	61102.03
588.34	60919.46
588.49	60989.68
