SpectraSuite Data File
++++++++++++++++++++++++++++++++++++
Date: Fri Oct 25 11:26:02 EDT 2013
User: price-jones
Dark Spectrum Present: No
Reference Spectrum Present: No
Number of Sampled Component Spectra: 1
Spectrometers: USB2+H05261
Integration Time (usec): 100000 (USB2+H05261)
Spectra Averaged: 1 (USB2+H05261)
Boxcar Smoothing: 0 (USB2+H05261)
Correct for Electrical Dark: No (USB2+H05261)
Strobe/Lamp Enabled: No (USB2+H05261)
Correct for Detector Non-linearity: No (USB2+H05261)
Correct for Stray Light: No (USB2+H05261)
Number of Pixels in Processed Spectrum: 2048
>>>>>Begin Processed Spectral Data<<<<<
365.73	264.48
365.92	264.48
366.12	264.48
366.32	159.16
366.52	159.16
366.72	180.22
366.91	149.79
367.11	65.54
367.31	238.73
367.51	128.73
367.70	70.22
367.90	100.64
368.10	170.86
368.30	124.05
368.49	229.37
368.69	180.22
368.89	135.75
369.09	149.79
369.28	170.86
369.48	131.07
369.68	133.41
369.87	227.03
370.07	168.52
370.27	264.48
370.47	376.83
370.66	587.47
370.86	594.50
371.06	617.90
371.25	688.12
371.45	543.00
371.65	678.76
371.84	631.94
372.04	774.72
372.24	732.59
372.44	667.05
372.63	823.87
372.83	786.42
373.03	723.23
373.22	746.63
373.42	748.97
373.62	814.51
373.81	770.04
374.01	884.72
374.21	779.40
374.40	802.80
374.60	828.55
374.79	777.06
374.99	922.17
375.19	903.45
375.38	814.51
375.58	910.47
375.78	938.55
375.97	856.64
376.17	947.92
376.37	866.00
376.56	791.10
376.76	842.59
376.95	844.93
377.15	915.15
377.35	868.34
377.54	889.40
377.74	896.43
377.93	835.57
378.13	950.26
378.33	891.74
378.52	940.90
378.72	887.06
378.91	915.15
379.11	947.92
379.31	856.64
379.50	929.19
379.70	1008.77
379.89	947.92
380.09	968.98
380.28	945.58
380.48	964.30
380.68	1022.81
380.87	898.77
381.07	1123.46
381.26	1064.94
381.46	1046.22
381.65	1032.18
381.85	1076.65
382.04	1088.35
382.24	1102.39
382.43	1123.46
382.63	1036.86
382.83	1036.86
383.02	1203.04
383.22	1149.20
383.41	1121.12
383.61	1100.05
383.80	1163.25
384.00	1088.35
384.19	1050.90
384.39	1076.65
384.58	1174.95
384.78	1118.78
384.97	1167.93
385.17	1158.57
385.36	1100.05
385.56	1200.69
385.75	1142.18
385.95	1160.91
386.14	1203.04
386.34	1210.06
386.53	1174.95
386.72	1188.99
386.92	1270.91
387.11	1263.89
387.31	1299.00
387.50	1231.12
387.70	1299.00
387.89	1191.33
388.09	1313.04
388.28	1263.89
388.48	1259.21
388.67	1338.79
388.86	1350.49
389.06	1238.14
389.25	1310.70
389.45	1301.34
389.64	1289.64
389.84	1345.81
390.03	1425.39
390.22	1378.58
390.42	1465.18
390.61	1359.85
390.81	1329.42
391.00	1364.53
391.19	1495.60
391.39	1528.37
391.58	1542.41
391.78	1420.71
391.97	1488.58
392.16	1596.25
392.36	1516.67
392.55	1495.60
392.75	1483.90
392.94	1441.77
393.13	1465.18
393.33	1586.88
393.52	1521.35
393.71	1612.63
393.91	1535.39
394.10	1582.20
394.29	1565.82
394.49	1556.46
394.68	1586.88
394.88	1659.44
395.07	1689.87
395.26	1640.72
395.46	1584.54
395.65	1706.25
395.84	1664.12
396.04	1858.39
396.23	1724.97
396.42	1729.66
396.62	1713.27
396.81	1837.32
397.00	1813.92
397.19	1767.10
397.39	1799.87
397.58	1863.07
397.77	1928.60
397.97	1834.98
398.16	1867.75
398.35	1916.90
398.55	1909.88
398.74	1909.88
398.93	2005.84
399.12	1921.58
399.32	1867.75
399.51	1937.96
399.70	1949.67
399.90	1944.99
400.09	1893.49
400.28	2071.37
400.47	2052.65
400.67	2031.58
400.86	2076.06
401.05	2108.82
401.24	2139.25
401.44	2087.76
401.63	2188.40
401.82	2017.54
402.01	2169.68
402.21	2169.68
402.40	2165.00
402.59	2165.00
402.78	2216.49
402.97	2223.51
403.17	2312.45
403.36	2286.70
403.55	2286.70
403.74	2420.11
403.93	2331.17
404.13	2356.92
404.32	2314.79
404.51	2450.54
404.70	2375.64
404.89	2324.15
405.09	2483.31
405.28	2401.39
405.47	2495.01
405.66	2555.86
405.85	2462.24
406.05	2492.67
406.24	2740.77
406.43	2630.76
406.62	2413.09
406.81	2530.12
407.00	2492.67
407.20	2548.84
407.39	2691.62
407.58	2693.96
407.77	2738.43
407.96	2881.20
408.15	2679.91
408.34	2768.85
408.54	2843.75
408.73	2827.37
408.92	2715.02
409.11	2822.69
409.30	2832.05
409.49	2841.41
409.68	2729.06
409.87	2775.88
410.07	2963.12
410.26	2986.52
410.45	3028.65
410.64	2853.11
410.83	3133.98
411.02	2981.84
411.21	3197.17
411.40	3204.19
411.59	3248.66
411.78	3143.34
411.98	3150.36
412.17	3251.00
412.36	3379.73
412.55	3213.56
412.74	3424.20
412.93	3339.94
413.12	3201.85
413.31	3473.36
413.50	3471.01
413.69	3496.76
413.88	3566.98
414.07	3569.32
414.26	3693.37
414.45	3726.13
414.64	3501.44
414.83	3770.60
415.02	3709.75
415.22	3831.46
415.41	3850.18
415.60	3817.41
415.79	3871.25
415.98	3969.55
416.17	3906.35
416.36	4009.34
416.55	3936.78
416.74	4084.23
416.93	4196.58
417.12	4131.05
417.31	4194.24
417.50	4318.29
417.69	4297.22
417.88	4159.13
418.07	4243.39
418.26	4320.63
418.45	4393.19
418.64	4397.87
418.83	4390.84
419.02	4447.02
419.21	4482.13
419.39	4470.42
419.58	4386.16
419.77	4393.19
419.96	4432.97
420.15	4432.97
420.34	4566.39
420.53	4643.62
420.72	4617.88
420.91	4620.22
421.10	4753.63
421.29	4840.23
421.48	4645.96
421.67	4877.68
421.86	4744.27
422.05	4814.48
422.24	4851.93
422.43	4802.78
422.61	4908.10
422.80	4931.51
422.99	5050.88
423.18	5071.94
423.37	4844.91
423.56	4889.38
423.75	4889.38
423.94	4905.76
424.13	4545.32
424.32	4697.46
424.50	5078.96
424.69	5109.39
424.88	5034.49
425.07	5057.90
425.26	4908.10
425.45	4947.89
425.64	4898.74
425.83	5029.81
426.01	5104.71
426.20	5132.79
426.39	5081.30
426.58	5069.60
426.77	5022.79
426.96	5116.41
427.15	5043.85
427.33	5060.24
427.52	5036.83
427.71	5158.54
427.90	5163.22
428.09	5268.55
428.28	5254.50
428.46	5334.08
428.65	5207.69
428.84	5455.79
429.03	5493.24
429.22	5401.96
429.40	5444.09
429.59	5324.72
429.78	5247.48
429.97	5277.91
430.16	5621.97
430.34	5762.40
430.53	5671.12
430.72	5614.95
430.91	5694.52
431.10	5558.77
431.28	5746.02
431.47	5846.66
431.66	5738.99
431.85	5703.89
432.03	5951.98
432.22	5956.66
432.41	5905.17
432.60	5984.75
432.79	5984.75
432.97	6040.92
433.16	6118.16
433.35	5823.25
433.54	6169.65
433.72	6106.46
433.91	5977.73
434.10	6033.90
434.28	6230.51
434.47	5933.26
434.66	6221.14
434.85	6345.19
435.03	6403.71
435.22	6356.90
435.41	6438.81
435.59	6359.24
435.78	6424.77
435.97	6389.66
436.16	6277.32
436.34	6513.71
436.53	6382.64
436.72	6651.80
436.90	6392.00
437.09	6698.61
437.28	6464.56
437.46	6616.69
437.65	6630.74
437.84	6679.89
438.02	6724.36
438.21	6712.66
438.40	6604.99
438.58	6817.98
438.77	7005.22
438.96	6998.20
439.14	7042.67
439.33	7103.53
439.52	7143.32
439.70	7262.68
439.89	7351.62
440.08	7377.37
440.26	7344.60
440.45	7265.02
440.63	7321.20
440.82	7529.50
441.01	7634.83
441.19	7538.87
441.38	7676.96
441.57	7522.48
441.75	7606.74
441.94	8147.40
442.12	7920.37
442.31	8035.06
442.50	8021.02
442.68	8131.02
442.87	7784.62
443.05	7906.33
443.24	8194.22
443.43	8023.36
443.61	8046.76
443.80	8236.35
443.98	8184.85
444.17	7789.30
444.35	8060.80
444.54	8404.86
444.73	8538.27
444.91	8276.13
445.10	8355.71
445.28	8184.85
445.47	8273.79
445.65	8194.22
445.84	8468.06
446.02	8278.47
446.21	8348.69
446.39	8411.89
446.58	8437.63
446.77	8329.97
446.95	8180.17
447.14	8521.89
447.32	8477.42
447.51	8552.32
447.69	8465.72
447.88	8549.98
448.06	8421.25
448.25	8437.63
448.43	8580.40
448.62	8650.62
448.80	8472.74
448.99	8685.73
449.17	8678.71
449.36	8564.02
449.54	8929.14
449.73	8702.11
449.91	8919.78
450.10	8982.98
450.28	9011.06
450.46	9011.06
450.65	8985.32
450.83	8994.68
451.02	8997.02
451.20	9275.54
451.39	9118.73
451.57	9088.30
451.76	9195.96
451.94	9179.58
452.13	9167.88
452.31	9200.65
452.49	9123.41
452.68	9518.96
452.86	9275.54
453.05	9305.97
453.23	9331.72
453.42	9467.47
453.60	9432.36
453.78	9397.25
453.97	9455.76
454.15	9404.27
454.34	9493.21
454.52	9589.17
454.70	9514.28
454.89	9652.37
455.07	9699.18
455.26	9661.73
455.44	9909.83
455.62	9809.19
455.81	9837.27
455.99	9958.98
456.17	9916.85
456.36	9977.70
456.54	10178.99
456.73	10024.51
456.91	10361.55
457.09	10298.36
457.28	10441.13
457.46	10256.23
457.64	10583.90
457.83	10492.62
458.01	10111.11
458.19	10609.65
458.38	10623.69
458.56	10590.92
458.74	10494.96
458.93	10738.38
459.11	10654.12
459.29	10661.14
459.48	10733.70
459.66	10841.36
459.84	10801.57
460.03	11026.26
460.21	11098.82
460.39	10808.59
460.57	11164.36
460.76	11000.52
460.94	11328.19
461.12	11044.99
461.31	11108.18
461.49	11028.60
461.67	11234.57
461.85	11236.91
462.04	11255.64
462.22	11868.86
462.40	11396.07
462.59	11438.20
462.77	11375.00
462.95	11655.87
463.13	11583.31
463.32	11470.97
463.50	11843.11
463.68	11733.11
463.86	11667.57
464.05	11616.08
464.23	11662.89
464.41	11957.80
464.59	11690.98
464.78	12128.66
464.96	11880.56
465.14	11690.98
465.32	11990.56
465.50	12397.82
465.69	12079.50
465.87	12107.59
466.05	12355.69
466.23	11932.05
466.41	12177.81
466.60	12528.89
466.78	12315.90
466.96	12133.34
467.14	12383.77
467.32	12177.81
467.51	12610.81
467.69	11981.20
467.87	12442.29
468.05	12585.06
468.23	12390.80
468.41	12479.74
468.60	12458.67
468.78	12793.37
468.96	12568.68
469.14	12697.41
469.32	13083.59
469.50	12765.28
469.69	12987.63
469.87	12872.95
470.05	13174.88
470.23	12889.33
470.41	13055.51
470.59	13392.55
470.77	13071.89
470.95	13242.75
471.14	13582.13
471.32	13097.64
471.50	13502.55
471.68	13699.16
471.86	13528.30
472.04	13699.16
472.22	13865.33
472.40	13858.31
472.58	14040.87
472.77	14129.81
472.95	14171.94
473.13	14494.94
473.31	14106.41
473.49	14293.65
473.67	14246.84
473.85	14178.97
474.03	14448.13
474.21	14527.71
474.39	14569.83
474.57	14726.65
474.75	14679.84
474.93	15059.01
475.12	14782.82
475.30	14902.19
475.48	15084.75
475.66	15112.84
475.84	14993.47
476.02	15414.77
476.20	15131.56
476.38	15454.56
476.56	16018.63
476.74	15737.76
476.92	15976.50
477.10	15639.46
477.28	15679.25
477.46	16009.26
477.64	16072.46
477.82	16306.51
478.00	16716.11
478.18	16592.06
478.36	16781.64
478.54	17102.29
478.72	17238.05
478.90	17245.07
479.08	17277.83
479.26	17497.84
479.44	17596.15
479.62	17745.94
479.80	17951.91
479.98	18064.25
480.16	18361.50
480.34	18188.30
480.52	18595.56
480.70	18523.00
480.88	18258.52
481.06	18824.93
481.24	18663.43
481.41	18998.13
481.59	19328.14
481.77	19194.73
481.95	19489.64
482.13	19838.38
482.31	19613.69
482.49	19866.47
482.67	20027.96
482.85	20231.59
483.03	20240.95
483.21	20680.97
483.39	20978.22
483.57	20664.59
483.74	20919.71
483.92	21495.48
484.10	21116.31
484.28	21947.20
484.46	21797.41
484.64	22174.24
484.82	21841.88
485.00	22277.22
485.18	22923.21
485.35	22836.61
485.53	22665.75
485.71	23180.67
485.89	23550.47
486.07	23138.54
486.25	23274.29
486.43	23372.59
486.61	23688.56
486.78	23660.48
486.96	24041.98
487.14	24308.80
487.32	24261.99
487.50	24744.14
487.68	24896.28
487.85	24954.79
488.03	25261.40
488.21	25490.77
488.39	25509.50
488.57	25902.71
488.75	26546.36
488.92	26157.83
489.10	26436.35
489.28	26785.09
489.46	27101.06
489.64	27044.89
489.81	27651.09
489.99	27374.91
490.17	27658.11
490.35	27704.92
490.53	27779.82
490.70	28477.30
490.88	28091.11
491.06	28376.66
491.24	28723.05
491.41	29048.39
491.59	29303.51
491.77	29514.16
491.95	29448.62
492.13	29404.15
492.30	30122.69
492.48	29947.15
492.66	30164.82
492.84	30457.39
493.01	30607.19
493.19	30448.03
493.37	30691.44
493.54	31150.19
493.72	31482.55
493.90	31229.77
494.08	31255.51
494.25	31704.90
494.43	31569.15
494.61	32201.09
494.79	32580.26
494.96	32397.70
495.14	32512.38
495.32	33230.93
495.49	32936.02
495.67	33006.23
495.85	33399.44
496.02	33757.55
496.20	34029.05
496.38	34031.39
496.55	33862.87
496.73	34644.61
496.91	34604.82
497.09	34801.43
497.26	35267.19
497.44	34749.93
497.62	35484.86
497.79	35468.48
497.97	35168.89
498.14	36006.80
498.32	36341.50
498.50	36109.78
498.67	36187.02
498.85	36140.21
499.03	36470.23
499.20	36697.26
499.38	36580.23
499.56	36943.02
499.73	36737.05
499.91	37041.32
500.08	37148.98
500.26	36964.08
500.44	37460.27
500.61	37902.64
500.79	37963.49
500.97	37801.99
501.14	38366.06
501.32	38546.28
501.49	38225.63
501.67	38745.23
501.84	38691.40
502.02	38951.20
502.20	38883.32
502.37	38955.88
502.55	38972.26
502.72	39557.39
502.90	39239.08
503.07	39449.73
503.25	39477.82
503.43	39718.89
503.60	39828.90
503.78	40039.54
503.95	40177.64
504.13	40566.16
504.30	40404.67
504.48	40311.05
504.65	40329.77
504.83	41048.32
505.01	40802.56
505.18	41202.79
505.36	41558.55
505.53	41350.24
505.71	41294.07
505.88	41666.22
506.06	41336.20
506.23	41596.00
506.41	41666.22
506.58	42045.38
506.76	41703.67
506.93	42438.59
507.11	41972.83
507.28	42216.24
507.46	42572.00
507.63	42572.00
507.81	43093.94
507.98	42892.66
508.16	42824.78
508.33	43117.35
508.50	43077.56
508.68	43618.22
508.85	43873.34
509.03	43782.06
509.20	43875.68
509.38	43756.32
509.55	44161.23
509.73	44189.31
509.90	44399.96
510.08	44315.70
510.25	44533.37
510.42	44795.51
510.60	44617.63
510.77	45071.70
510.95	45382.99
511.12	44715.93
511.30	44821.26
511.47	44994.46
511.64	45287.03
511.82	45631.08
511.99	45223.83
512.17	45500.01
512.34	45539.80
512.51	46078.13
512.69	46494.74
512.86	46321.54
513.04	46429.21
513.21	46230.26
513.38	46529.85
513.56	46983.91
513.73	46485.38
513.90	46817.74
514.08	46553.26
514.25	46951.15
514.43	47309.25
514.60	47524.58
514.77	47309.25
514.95	47578.41
515.12	47061.15
515.29	47519.90
515.47	47915.45
515.64	48039.50
515.81	47920.13
515.99	48023.11
516.16	48343.77
516.33	48264.19
516.51	48624.63
516.68	48210.35
516.85	48633.99
517.03	48821.23
517.20	48652.72
517.37	48573.14
517.54	48545.05
517.72	48767.40
517.89	48996.77
518.06	49256.57
518.24	49455.52
518.41	48956.99
518.58	49502.33
518.75	49151.25
518.93	49085.72
519.10	49633.40
519.27	49635.74
519.45	49755.11
519.62	49785.54
519.79	49947.03
519.96	49539.78
520.14	50211.51
520.31	50012.57
520.48	50473.65
520.65	49975.12
520.83	50241.94
521.00	50478.33
521.17	50494.72
521.34	50595.36
521.52	50784.94
521.69	50815.37
521.86	50901.97
522.03	50759.20
522.20	51367.74
522.38	51657.96
522.55	51463.70
522.72	51110.28
522.89	51379.44
523.07	51388.80
523.24	51339.65
523.41	51840.53
523.58	51629.88
523.75	51840.53
523.92	51433.27
524.10	51739.88
524.27	51943.51
524.44	51770.31
524.61	52081.60
524.78	52135.43
524.96	51920.10
525.13	51835.84
525.30	52395.23
525.47	52385.87
525.64	52044.15
525.81	52470.13
525.98	52320.34
526.16	52449.06
526.33	52446.72
526.50	52968.66
526.67	52491.19
526.84	52907.81
527.01	52750.99
527.18	52631.63
527.36	52933.56
527.53	53059.94
527.70	53219.10
527.87	53090.37
528.04	53123.14
528.21	53179.31
528.38	53382.94
528.55	53420.39
528.72	53188.67
528.89	53586.57
529.07	53352.51
529.24	53432.09
529.41	53600.61
529.58	53485.92
529.75	53715.29
529.92	53645.08
530.09	53509.33
530.26	53930.62
530.43	53621.67
530.60	53544.44
530.77	53586.57
530.94	54160.00
531.11	54045.31
531.28	54176.38
531.46	54110.85
531.63	54387.03
531.80	53916.58
531.97	54024.25
532.14	54464.27
532.31	54487.67
532.48	54508.74
532.65	54738.11
532.82	54307.45
532.99	54513.42
533.16	54513.42
533.33	54539.16
533.50	54983.86
533.67	54813.01
533.84	54384.69
534.01	54660.87
534.18	54850.45
534.35	55171.11
534.52	55105.57
534.69	55011.95
534.86	55341.97
535.03	55037.70
535.20	55058.76
535.37	55407.50
535.54	55557.30
535.71	55302.18
535.88	55189.83
536.05	55344.31
536.22	55496.44
536.38	55442.61
536.55	55784.33
536.72	55426.23
536.89	55281.11
537.06	55608.79
537.23	55702.41
537.40	55674.32
537.57	55510.49
537.74	55592.40
537.91	55910.72
538.08	55826.46
538.25	55442.61
538.42	55990.30
538.59	55880.29
538.75	55924.76
538.92	55842.84
539.09	55999.66
539.26	55997.32
539.43	56086.26
539.60	56058.17
539.77	56329.67
539.94	56360.10
540.11	56214.99
540.28	56409.25
540.44	56299.25
540.61	56360.10
540.78	56266.48
540.95	56282.86
541.12	56500.53
541.29	56463.08
541.46	56357.76
541.62	56474.79
541.79	56456.06
541.96	56348.40
542.13	56491.17
542.30	56545.00
542.47	56563.73
542.63	56708.84
542.80	56884.38
542.97	57001.41
543.14	56947.57
543.31	57097.37
543.48	57324.40
543.64	57286.95
543.81	57141.84
543.98	57242.48
544.15	57097.37
544.32	57293.97
544.48	57399.30
544.65	57254.18
544.82	57235.46
544.99	57340.78
545.16	57441.43
545.32	57186.31
545.49	57584.20
545.66	57467.17
545.83	57352.49
546.00	57593.56
546.16	57598.24
546.33	57471.85
546.50	57556.11
546.67	57586.54
546.83	57331.42
547.00	57544.41
547.17	57719.95
547.34	57778.46
547.50	58014.86
547.67	58122.52
547.84	57860.38
548.00	58131.89
548.17	58136.57
548.34	57752.72
548.51	58052.31
548.67	57916.56
548.84	57916.56
549.01	58024.22
549.18	58042.95
549.34	58277.00
549.51	57954.00
549.68	58457.22
549.84	58117.84
550.01	58401.05
550.18	58166.99
550.34	58246.57
550.51	58405.73
550.68	58225.51
550.84	58103.80
551.01	58555.52
551.18	58253.59
551.34	58497.01
551.51	58438.50
551.68	58412.75
551.84	58628.08
552.01	58272.32
552.18	58597.65
552.34	58450.20
552.51	58611.70
552.68	58375.30
552.84	58642.12
553.01	58838.73
553.18	58618.72
553.34	58820.00
553.51	58721.70
553.67	58733.40
553.84	58920.65
554.01	58857.45
554.17	58937.03
554.34	58892.56
554.51	58918.31
554.67	59063.42
554.84	58908.94
555.00	58894.90
555.17	58829.37
555.33	58944.05
555.50	58841.07
555.67	58726.38
555.83	59070.44
556.00	58932.35
556.16	59131.29
556.33	58995.54
556.50	59189.81
556.66	59234.28
556.83	58946.39
556.99	59433.22
557.16	59524.50
557.32	59309.18
557.49	59510.46
557.65	59044.69
557.82	59124.27
557.98	59327.90
558.15	59421.52
558.32	59421.52
558.48	59203.85
558.65	59250.66
558.81	59557.27
558.98	59107.89
559.14	59576.00
559.31	59487.06
559.47	59639.19
559.64	59625.15
559.80	59613.44
559.97	59606.42
560.13	59426.20
560.30	59444.93
560.46	59449.61
560.63	59824.09
560.79	59779.62
560.96	59805.37
561.12	59746.86
561.29	59852.18
561.45	59842.82
561.61	59840.48
561.78	59723.45
561.94	59629.83
562.11	59877.93
562.27	59718.77
562.44	59920.05
562.60	60006.65
562.77	59922.40
562.93	59676.64
563.10	60046.44
563.26	59718.77
563.42	60116.66
563.59	59882.61
563.75	59856.86
563.92	59945.80
564.08	60011.34
564.24	60238.37
564.41	59962.18
564.57	60041.76
564.74	59922.40
564.90	60074.53
565.07	60009.00
565.23	60020.70
565.39	60081.55
565.56	60163.47
565.72	60065.17
565.88	60027.72
566.05	59980.91
566.21	60123.68
566.38	60331.99
566.54	59999.63
566.70	60362.42
566.87	60296.88
567.03	60039.42
567.19	60346.03
567.36	60156.45
567.52	60072.19
567.68	60329.65
567.85	60182.19
568.01	60374.12
568.17	60252.41
568.34	60196.24
568.50	60292.20
568.66	60519.23
568.83	60392.84
568.99	60182.19
569.15	60423.27
569.32	60189.22
569.48	60149.43
569.64	60652.64
569.81	60413.91
569.97	60224.32
570.13	60397.52
570.30	60301.56
570.46	60369.44
570.62	60399.86
570.78	60280.50
570.95	60336.67
571.11	60512.21
571.27	60477.10
571.43	60523.91
571.60	60498.17
571.76	60339.01
571.92	60598.81
572.09	60547.32
572.25	60313.26
572.41	60303.90
572.57	60495.83
572.74	60666.69
572.90	60430.29
573.06	60561.36
573.22	60348.37
573.38	60465.40
573.55	60507.53
573.71	60678.39
573.87	60657.32
574.03	60640.94
574.20	60530.93
574.36	60423.27
574.52	60535.62
574.68	60678.39
574.84	60498.17
575.01	60580.09
575.17	60587.11
575.33	60856.27
575.49	60320.29
575.65	60774.35
575.82	60729.88
575.98	60865.63
576.14	60804.78
576.30	60687.75
576.46	60596.47
576.62	60725.20
576.79	60624.56
576.95	60521.57
577.11	60673.71
577.27	60711.16
577.43	60849.25
577.59	60617.53
577.75	60692.43
577.92	60741.58
578.08	60584.77
578.24	60743.92
578.40	60959.25
578.56	60912.44
578.72	60725.20
578.88	60900.74
579.04	60968.61
579.21	60615.19
579.37	60825.84
579.53	61003.72
579.69	60701.79
579.85	60708.82
580.01	60577.75
580.17	60547.32
580.33	60825.84
580.49	60800.10
580.65	60790.73
580.82	60764.99
580.98	60657.32
581.14	60683.07
581.30	60980.32
581.46	60905.42
581.62	60935.85
581.78	60704.13
581.94	60828.18
582.10	60701.79
582.26	60828.18
582.42	60776.69
582.58	60804.78
582.74	60690.09
582.90	60886.70
583.06	60956.91
583.22	60790.73
583.38	60870.31
583.54	60839.89
583.70	60947.55
583.86	61097.34
584.02	60804.78
584.18	60867.97
584.34	60898.40
584.50	60835.20
584.66	60741.58
584.82	60760.31
584.98	60985.00
585.14	60956.91
585.30	60793.07
585.46	61050.53
585.62	60992.02
585.78	61062.24
585.94	60683.07
586.10	60816.48
586.26	60907.76
586.42	60945.21
586.58	61095.00
586.74	60877.33
586.90	60982.66
587.06	60956.91
587.22	60961.59
587.38	60750.94
587.54	61071.60
587.70	60952.23
587.86	60977.98
588.02	60889.04
588.18	61045.85
588.34	60825.84
588.49	61013.08
