SpectraSuite Data File
++++++++++++++++++++++++++++++++++++
Date: Fri Oct 25 11:26:18 EDT 2013
User: price-jones
Dark Spectrum Present: No
Reference Spectrum Present: No
Number of Sampled Component Spectra: 1
Spectrometers: USB2+H05261
Integration Time (usec): 100000 (USB2+H05261)
Spectra Averaged: 1 (USB2+H05261)
Boxcar Smoothing: 0 (USB2+H05261)
Correct for Electrical Dark: No (USB2+H05261)
Strobe/Lamp Enabled: No (USB2+H05261)
Correct for Detector Non-linearity: No (USB2+H05261)
Correct for Stray Light: No (USB2+H05261)
Number of Pixels in Processed Spectrum: 2048
>>>>>Begin Processed Spectral Data<<<<<
365.73	215.33
365.92	215.33
366.12	215.33
366.32	175.54
366.52	147.45
366.72	119.37
366.91	156.82
367.11	203.63
367.31	126.39
367.51	154.48
367.70	60.85
367.90	84.26
368.10	126.39
368.30	145.11
368.49	126.39
368.69	227.03
368.89	175.54
369.09	100.64
369.28	180.22
369.48	236.39
369.68	229.37
369.87	245.76
370.07	250.44
370.27	278.52
370.47	306.61
370.66	538.32
370.86	643.65
371.06	655.35
371.25	678.76
371.45	587.47
371.65	713.86
371.84	617.90
372.04	657.69
372.24	711.52
372.44	758.33
372.63	681.10
372.83	748.97
373.03	842.59
373.22	681.10
373.42	706.84
373.62	795.78
373.81	798.12
374.01	858.98
374.21	849.61
374.40	795.78
374.60	795.78
374.79	770.04
374.99	809.83
375.19	819.19
375.38	912.81
375.58	814.51
375.78	863.66
375.97	854.30
376.17	847.27
376.37	875.36
376.56	814.51
376.76	976.00
376.95	873.02
377.15	875.36
377.35	915.15
377.54	922.17
377.74	840.25
377.93	880.04
378.13	903.45
378.33	898.77
378.52	940.90
378.72	952.60
378.91	983.02
379.11	912.81
379.31	938.55
379.50	844.93
379.70	1067.28
379.89	987.71
380.09	1025.15
380.28	954.94
380.48	990.05
380.68	978.34
380.87	1001.75
381.07	1001.75
381.26	1015.79
381.46	964.30
381.65	1004.09
381.85	1008.77
382.04	1139.84
382.24	1053.24
382.43	1097.71
382.63	1067.28
382.83	1076.65
383.02	1057.92
383.22	1090.69
383.41	1151.54
383.61	1088.35
383.80	1184.31
384.00	1104.73
384.19	1130.48
384.39	1207.72
384.58	1130.48
384.78	1116.44
384.97	1109.41
385.17	1156.22
385.36	1153.88
385.56	1212.40
385.75	1249.85
385.95	1167.93
386.14	1242.82
386.34	1224.10
386.53	1266.23
386.72	1270.91
386.92	1219.42
387.11	1336.45
387.31	1289.64
387.50	1308.36
387.70	1249.85
387.89	1287.29
388.09	1228.78
388.28	1256.87
388.48	1331.76
388.67	1266.23
388.86	1315.38
389.06	1289.64
389.25	1245.16
389.45	1301.34
389.64	1289.64
389.84	1306.02
390.03	1406.66
390.22	1437.09
390.42	1371.55
390.61	1399.64
390.81	1418.36
391.00	1493.26
391.19	1425.39
391.39	1441.77
391.58	1423.05
391.78	1425.39
391.97	1519.01
392.16	1472.20
392.36	1479.22
392.55	1521.35
392.75	1544.75
392.94	1430.07
393.13	1589.22
393.33	1537.73
393.52	1596.25
393.71	1668.80
393.91	1579.86
394.10	1598.59
394.29	1530.71
394.49	1558.80
394.68	1638.38
394.88	1605.61
395.07	1715.61
395.26	1668.80
395.46	1696.89
395.65	1743.70
395.84	1673.48
396.04	1713.27
396.23	1678.16
396.42	1757.74
396.62	1783.49
396.81	1776.47
397.00	1748.38
397.19	1834.98
397.39	1837.32
397.58	1865.41
397.77	1891.15
397.97	1919.24
398.16	1860.73
398.35	1832.64
398.55	1856.04
398.74	1916.90
398.93	1966.05
399.12	1914.56
399.32	1973.07
399.51	1893.49
399.70	1998.82
399.90	1984.77
400.09	1970.73
400.28	2062.01
400.47	2045.63
400.67	2054.99
400.86	2092.44
401.05	2087.76
401.24	2122.87
401.44	2244.57
401.63	2120.53
401.82	2099.46
402.01	2083.08
402.21	2275.00
402.40	2148.61
402.59	2167.34
402.78	2113.50
402.97	2209.47
403.17	2214.15
403.36	2216.49
403.55	2352.24
403.74	2356.92
403.93	2396.71
404.13	2300.75
404.32	2445.86
404.51	2443.52
404.70	2370.96
404.89	2495.01
405.09	2417.77
405.28	2459.90
405.47	2537.14
405.66	2422.45
405.85	2551.18
406.05	2396.71
406.24	2546.50
406.43	2605.02
406.62	2614.38
406.81	2628.42
407.00	2511.39
407.20	2537.14
407.39	2619.06
407.58	2689.28
407.77	2574.59
407.96	2691.62
408.15	2724.38
408.34	2771.19
408.54	2827.37
408.73	2708.00
408.92	2764.17
409.11	2726.72
409.30	2890.56
409.49	2871.84
409.68	2974.82
409.87	2871.84
410.07	3009.93
410.26	2899.92
410.45	2960.78
410.64	3091.85
410.83	2984.18
411.02	3056.74
411.21	3098.87
411.40	3129.30
411.59	3220.58
411.78	3162.06
411.98	3267.39
412.17	3300.16
412.36	3227.60
412.55	3229.94
412.74	3372.71
412.93	3435.91
413.12	3283.77
413.31	3389.10
413.50	3515.48
413.69	3478.04
413.88	3517.83
414.07	3527.19
414.26	3627.83
414.45	3665.28
414.64	3639.53
414.83	3845.50
415.02	3716.77
415.22	3712.09
415.41	3737.84
415.60	3929.76
415.79	3866.56
415.98	3887.63
416.17	4002.32
416.36	3922.74
416.55	3922.74
416.74	3913.38
416.93	4032.74
417.12	4086.58
417.31	3983.59
417.50	4025.72
417.69	4219.99
417.88	4266.80
418.07	4149.77
418.26	4376.80
418.45	4365.10
418.64	4266.80
418.83	4456.38
419.02	4535.96
419.21	4484.47
419.39	4526.60
419.58	4337.01
419.77	4456.38
419.96	4383.82
420.15	4636.60
420.34	4589.79
420.53	4624.90
420.72	4582.77
420.91	4648.30
421.10	4741.93
421.29	4816.82
421.48	4657.67
421.67	4648.30
421.86	4833.21
422.05	4830.87
422.24	4779.37
422.43	4652.98
422.61	4936.19
422.80	4891.72
422.99	4905.76
423.18	4968.96
423.37	5004.07
423.56	5067.26
423.75	4936.19
423.94	4739.58
424.13	4568.73
424.32	4660.01
424.50	5025.13
424.69	4971.30
424.88	5050.88
425.07	4861.29
425.26	4905.76
425.45	5036.83
425.64	4992.36
425.83	4884.70
426.01	5041.51
426.20	5022.79
426.39	4905.76
426.58	5167.90
426.77	5088.32
426.96	5102.37
427.15	5135.14
427.33	5327.06
427.52	4978.32
427.71	5212.37
427.90	5195.99
428.09	5364.51
428.28	5284.93
428.46	5160.88
428.65	5397.28
428.84	5530.69
429.03	5547.07
429.22	5329.40
429.40	5315.36
429.59	5570.48
429.78	5121.09
429.97	5320.04
430.16	5444.09
430.34	5549.41
430.53	5668.78
430.72	5427.70
430.91	5631.33
431.10	5603.24
431.28	5736.65
431.47	5715.59
431.66	5678.14
431.85	5802.19
432.03	5851.34
432.22	5907.51
432.41	5858.36
432.60	6045.60
432.79	5954.32
432.97	5975.39
433.16	5884.11
433.35	5820.91
433.54	6008.16
433.72	6244.55
433.91	6108.80
434.10	6260.93
434.28	6033.90
434.47	6106.46
434.66	6225.82
434.85	6249.23
435.03	6263.27
435.22	6157.95
435.41	6555.84
435.59	6424.77
435.78	6410.73
435.97	6370.94
436.16	6324.13
436.34	6354.55
436.53	6464.56
436.72	6614.35
436.90	6373.28
437.09	6565.20
437.28	6420.09
437.46	6518.39
437.65	6689.25
437.84	6675.21
438.02	6813.30
438.21	6864.79
438.40	6633.08
438.58	6937.35
438.77	6869.47
438.96	6972.46
439.14	7045.01
439.33	7115.23
439.52	7061.40
439.70	7035.65
439.89	7274.38
440.08	7206.51
440.26	7461.63
440.45	7360.98
440.63	7379.71
440.82	7517.80
441.01	7318.86
441.19	7559.93
441.38	7754.19
441.57	7756.54
441.75	7662.91
441.94	7873.56
442.12	7847.82
442.31	7829.09
442.50	8060.80
442.68	7824.41
442.87	8049.10
443.05	7981.23
443.24	8212.94
443.43	8124.00
443.61	8107.62
443.80	8315.92
443.98	7749.51
444.17	7716.75
444.35	8210.60
444.54	8372.10
444.73	8402.52
444.91	8395.50
445.10	8362.73
445.28	8163.79
445.47	8292.52
445.65	8205.92
445.84	8290.18
446.02	8388.48
446.21	8421.25
446.39	8374.44
446.58	8568.70
446.77	8390.82
446.95	8351.03
447.14	8437.63
447.32	8571.04
447.51	8446.99
447.69	8423.59
447.88	8489.12
448.06	8416.57
448.25	8418.91
448.43	8517.21
448.62	8542.96
448.80	8449.33
448.99	8535.93
449.17	8671.68
449.36	8549.98
449.54	8837.86
449.73	9060.21
449.91	8952.55
450.10	8894.04
450.28	8968.93
450.46	9233.41
450.65	8922.12
450.83	9123.41
451.02	9055.53
451.20	9254.48
451.39	8952.55
451.57	9034.47
451.76	9050.85
451.94	9172.56
452.13	9296.61
452.31	9212.35
452.49	8952.55
452.68	9282.56
452.86	9020.42
453.05	9357.46
453.23	9376.19
453.42	9233.41
453.60	9205.33
453.78	9554.07
453.97	9413.63
454.15	9383.21
454.34	9359.80
454.52	9617.26
454.70	9643.01
454.89	9741.31
455.07	9734.29
455.26	9776.42
455.44	9827.91
455.62	9846.63
455.81	9973.02
455.99	9926.21
456.17	10171.97
456.36	10031.54
456.54	10174.31
456.73	10010.47
456.91	10246.87
457.09	10499.64
457.28	10457.51
457.46	10260.91
457.64	10672.84
457.83	10352.19
458.01	10349.85
458.19	10494.96
458.38	10328.78
458.56	10675.18
458.74	10476.24
458.93	10799.23
459.11	10827.32
459.29	10590.92
459.48	10789.87
459.66	10579.22
459.84	10817.96
460.03	10906.90
460.21	10757.10
460.39	10899.87
460.57	11035.63
460.76	11197.12
460.94	11363.30
461.12	11267.34
461.31	11208.83
461.49	11260.32
461.67	11122.23
461.85	11447.56
462.04	11094.14
462.22	11742.47
462.40	11548.20
462.59	11452.24
462.77	11606.72
462.95	11616.08
463.13	11445.22
463.32	11459.26
463.50	11740.13
463.68	11496.71
463.86	11524.80
464.05	11609.06
464.23	11494.37
464.41	11625.44
464.59	11569.27
464.78	12058.44
464.96	11859.49
465.14	11800.98
465.32	11824.39
465.50	12126.32
465.69	11946.09
465.87	12219.94
466.05	12053.76
466.23	12060.78
466.41	11992.90
466.60	12430.59
466.78	11950.78
466.96	12241.00
467.14	12182.49
467.32	12145.04
467.51	12496.12
467.69	12072.48
467.87	12276.11
468.05	12472.71
468.23	12320.58
468.41	12128.66
468.60	12627.19
468.78	12760.60
468.96	12622.51
469.14	12559.31
469.32	12980.61
469.50	12676.34
469.69	12847.20
469.87	13156.15
470.05	13209.98
470.23	13057.85
470.41	13092.96
470.59	13282.54
470.77	13008.70
470.95	13198.28
471.14	13572.77
471.32	13369.14
471.50	13207.64
471.68	13352.76
471.86	13682.77
472.04	13572.77
472.22	13965.98
472.40	13631.28
472.58	13549.36
472.77	14026.83
472.95	13968.32
473.13	14539.41
473.31	14078.32
473.49	14005.77
473.67	14033.85
473.85	14185.99
474.03	14602.60
474.21	14719.63
474.39	14558.13
474.57	14792.19
474.75	14736.01
474.93	15105.82
475.12	14810.91
475.30	15180.71
475.48	14745.38
475.66	15183.06
475.84	15042.62
476.02	15054.33
476.20	15534.14
476.38	15508.39
476.56	15903.94
476.74	15529.45
476.92	15810.32
477.10	15728.40
477.28	16018.63
477.46	16116.93
477.64	16100.55
477.82	16315.87
478.00	16926.75
478.18	16638.87
478.36	16809.73
478.54	16893.99
478.72	16912.71
478.90	17146.76
479.08	17633.60
479.26	17523.59
479.44	17462.74
479.62	17521.25
479.80	17678.07
479.98	17832.54
480.16	18284.26
480.34	18099.36
480.52	18242.14
480.70	18525.34
480.88	18059.57
481.06	18478.53
481.24	18724.29
481.41	18946.64
481.59	19236.86
481.77	19288.35
481.95	19440.49
482.13	19894.55
482.31	19515.39
482.49	20196.48
482.67	19887.53
482.85	20510.11
483.03	20627.14
483.21	20589.69
483.39	20802.68
483.57	20402.45
483.74	20748.85
483.92	21242.70
484.10	21228.66
484.28	21703.79
484.46	21816.13
484.64	22043.17
484.82	21984.65
485.00	22045.51
485.18	22628.30
485.35	22806.18
485.53	22726.60
485.71	22792.14
485.89	23309.40
486.07	23337.48
486.25	23285.99
486.43	23342.16
486.61	23875.80
486.78	23630.05
486.96	24196.46
487.14	24568.60
487.32	24355.61
487.50	24706.70
487.68	24458.60
487.85	25340.98
488.03	25170.12
488.21	25516.52
488.39	25486.09
488.57	25694.40
488.75	25844.20
488.92	26345.07
489.10	26419.97
489.28	26363.79
489.46	26747.64
489.64	26658.70
489.81	27494.27
489.99	27648.75
490.17	27508.32
490.35	28334.53
490.53	27878.12
490.70	28538.15
490.88	28376.66
491.06	28709.01
491.24	28723.05
491.41	28891.57
491.59	29146.69
491.77	28922.00
491.95	29598.41
492.13	29439.26
492.30	29539.90
492.48	29694.38
492.66	30230.36
492.84	30115.67
493.01	30569.74
493.19	30338.02
493.37	30621.23
493.54	30911.46
493.72	31166.57
493.90	31424.03
494.08	31498.93
494.25	31527.02
494.43	32013.85
494.61	31992.78
494.79	32318.12
494.96	32268.97
495.14	32491.32
495.32	32964.10
495.49	32994.53
495.67	33083.47
495.85	33406.47
496.02	33523.49
496.20	33584.35
496.38	33652.22
496.55	34087.56
496.73	34789.72
496.91	34487.79
497.09	34487.79
497.26	34883.34
497.44	34916.11
497.62	34995.69
497.79	35508.27
497.97	35133.78
498.14	35526.99
498.32	35569.12
498.50	35959.99
498.67	36114.47
498.85	35882.75
499.03	36231.49
499.20	36442.14
499.38	36711.30
499.56	36811.95
499.73	37048.34
499.91	37523.47
500.08	37364.31
500.26	37221.54
500.44	37481.34
500.61	37691.99
500.79	37593.68
500.97	37867.53
501.14	38019.66
501.32	38103.92
501.49	38377.76
501.67	38417.55
501.84	38719.48
502.02	38953.54
502.20	38878.64
502.37	39026.09
502.55	38916.09
502.72	38831.83
502.90	39353.77
503.07	39269.51
503.25	39445.05
503.43	39370.15
503.60	39562.08
503.78	40528.72
503.95	39789.11
504.13	40547.44
504.30	40364.88
504.48	40540.42
504.65	40217.43
504.83	41081.08
505.01	40910.22
505.18	40774.47
505.36	41160.66
505.53	40772.13
505.71	40959.38
505.88	41776.22
506.06	41567.91
506.23	41701.32
506.41	41525.78
506.58	41897.93
506.76	42110.92
506.93	42110.92
507.11	42021.98
507.28	42305.18
507.46	42169.43
507.63	42454.98
507.81	42843.51
507.98	42707.76
508.16	42855.21
508.33	42773.29
508.50	43091.60
508.68	43285.87
508.85	43721.21
509.03	43180.54
509.20	43739.93
509.38	44289.96
509.55	44229.10
509.73	44261.87
509.90	44184.63
510.08	43892.07
510.25	44137.82
510.42	44598.91
510.60	44896.16
510.77	44734.66
510.95	45223.83
511.12	45027.23
511.30	44839.98
511.47	45289.37
511.64	45062.33
511.82	45626.40
511.99	45359.58
512.17	45277.66
512.34	45883.86
512.51	46298.14
512.69	46288.77
512.86	45787.90
513.04	46571.98
513.21	46323.88
513.38	46216.22
513.56	46583.68
513.73	46398.78
513.90	46735.82
514.08	46686.67
514.25	46887.95
514.43	46962.85
514.60	47342.02
514.77	46775.61
514.95	47461.38
515.12	47222.65
515.29	47203.92
515.47	47491.81
515.64	47845.23
515.81	47239.03
515.99	47892.04
516.16	48151.84
516.33	48215.04
516.51	48587.18
516.68	47796.08
516.85	48093.33
517.03	48446.75
517.20	48626.97
517.37	48676.12
517.54	48079.28
517.72	48947.62
517.89	49181.68
518.06	48870.39
518.24	49214.44
518.41	49010.82
518.58	49336.15
518.75	49240.19
518.93	49359.56
519.10	48938.26
519.27	49755.11
519.45	49565.52
519.62	49731.70
519.79	49654.47
519.96	49876.82
520.14	50202.15
520.31	49883.84
520.48	50040.65
520.65	49839.37
520.83	50148.32
521.00	50628.13
521.17	50487.70
521.34	50569.61
521.52	50831.75
521.69	50649.19
521.86	50279.39
522.03	50967.51
522.20	50871.54
522.38	51428.59
522.55	51044.74
522.72	51047.08
522.89	51007.29
523.07	51452.00
523.24	51372.42
523.41	51463.70
523.58	51166.45
523.75	51679.03
523.92	51543.28
524.10	51789.03
524.27	51906.06
524.44	51622.86
524.61	51950.53
524.78	51922.44
524.96	51674.35
525.13	52282.89
525.30	51997.34
525.47	52430.34
525.64	52013.73
525.81	52444.38
525.98	52371.83
526.16	52102.67
526.33	52554.39
526.50	52781.42
526.67	52765.04
526.84	52652.69
527.01	52753.33
527.18	52500.56
527.36	52849.30
527.53	52772.06
527.70	53399.32
527.87	53062.29
528.04	52912.49
528.21	53146.54
528.38	53228.46
528.55	53244.85
528.72	53176.97
528.89	53432.09
529.07	52971.00
529.24	53446.13
529.41	53684.87
529.58	53483.58
529.75	53609.97
529.92	53448.47
530.09	53666.14
530.26	53724.66
530.43	53743.38
530.60	53661.46
530.77	53689.55
530.94	54000.84
531.11	53591.25
531.28	54164.68
531.46	54199.79
531.63	54000.84
531.80	54160.00
531.97	53907.22
532.14	54372.99
532.31	54014.88
532.48	54354.26
532.65	54595.34
532.82	54211.49
532.99	54717.04
533.16	54447.88
533.33	54543.84
533.50	54770.88
533.67	54574.27
533.84	54536.82
534.01	54600.02
534.18	54536.82
534.35	54843.43
534.52	54899.61
534.69	54913.65
534.86	54972.16
535.03	54939.39
535.20	54838.75
535.37	55051.74
535.54	55065.78
535.71	54927.69
535.88	55433.25
536.05	55248.35
536.22	55180.47
536.38	55498.78
536.55	55487.08
536.72	55334.95
536.89	55423.89
537.06	55571.34
537.23	55683.69
537.40	55426.23
537.57	55611.13
537.74	55578.36
537.91	55749.22
538.08	55664.96
538.25	55505.80
538.42	55662.62
538.59	55962.21
538.75	55730.50
538.92	55903.70
539.09	56046.47
539.26	56044.13
539.43	55901.36
539.60	55917.74
539.77	56023.06
539.94	56205.62
540.11	56179.88
540.28	56130.73
540.44	56280.52
540.61	56313.29
540.78	56142.43
540.95	56072.21
541.12	56095.62
541.29	56243.07
541.46	56444.36
541.62	56392.87
541.79	56477.13
541.96	56184.56
542.13	56303.93
542.30	56374.14
542.47	56655.01
542.63	56781.40
542.80	56942.89
542.97	56839.91
543.14	57193.33
543.31	56907.79
543.48	57034.17
543.64	57099.71
543.81	57160.56
543.98	57158.22
544.15	57132.48
544.32	56968.64
544.48	57558.45
544.65	57258.87
544.82	57291.63
544.99	57233.12
545.16	57226.10
545.32	57193.33
545.49	57532.71
545.66	57680.16
545.83	57256.53
546.00	57504.62
546.16	57394.62
546.33	57125.46
546.50	57324.40
546.67	57492.92
546.83	57343.12
547.00	57336.10
547.17	57626.33
547.34	57495.26
547.50	57778.46
547.67	57766.76
547.84	57949.32
548.00	57986.77
548.17	58110.82
548.34	57954.00
548.51	58101.46
548.67	58124.86
548.84	57829.96
549.01	57942.30
549.18	57860.38
549.34	58183.38
549.51	58197.42
549.68	58309.77
549.84	58059.33
550.01	58269.98
550.18	58003.16
550.34	58199.76
550.51	58117.84
550.68	58117.84
550.84	57893.15
551.01	58253.59
551.18	58391.68
551.34	58251.25
551.51	58319.13
551.68	58288.70
551.84	58457.22
552.01	58251.25
552.18	58478.28
552.34	58272.32
552.51	58768.51
552.68	58286.36
552.84	58679.57
553.01	58693.61
553.18	58527.44
553.34	58576.59
553.51	58585.95
553.67	58677.23
553.84	58883.20
554.01	58747.45
554.17	58841.07
554.34	58850.43
554.51	58663.19
554.67	58983.84
554.84	58805.96
555.00	58850.43
555.17	58873.84
555.33	58925.33
555.50	58651.48
555.67	58791.92
555.83	58658.51
556.00	58983.84
556.16	59086.82
556.33	58932.35
556.50	59154.70
556.66	59337.26
556.83	59014.27
556.99	59173.42
557.16	59285.77
557.32	59341.94
557.49	59355.99
557.65	59049.38
557.82	59121.93
557.98	59234.28
558.15	59164.06
558.32	59515.14
558.48	59126.61
558.65	59241.30
558.81	59220.23
558.98	59358.33
559.14	59395.77
559.31	59414.50
559.47	59402.80
559.64	59618.13
559.80	59547.91
559.97	59419.18
560.13	59587.70
560.30	59437.90
560.46	59468.33
560.63	59573.66
560.79	59606.42
560.96	59662.60
561.12	59774.94
561.29	59686.00
561.45	59611.10
561.61	59758.56
561.78	59686.00
561.94	59683.66
562.11	59758.56
562.27	59742.17
562.44	59730.47
562.60	59788.98
562.77	59863.88
562.93	59730.47
563.10	60046.44
563.26	59767.92
563.42	59634.51
563.59	59896.65
563.75	59835.80
563.92	59763.24
564.08	59910.69
564.24	60044.10
564.41	59934.10
564.57	59826.43
564.74	59927.08
564.90	60079.21
565.07	59952.82
565.23	59847.50
565.39	59952.82
565.56	59973.89
565.72	60018.36
565.88	60144.75
566.05	59964.52
566.21	59931.76
566.38	60205.60
566.54	60081.55
566.70	60121.34
566.87	60151.77
567.03	59966.87
567.19	60294.54
567.36	60175.17
567.52	60205.60
567.68	60339.01
567.85	60383.48
568.01	60236.03
568.17	60221.98
568.34	60322.63
568.50	60175.17
568.66	60226.66
568.83	60245.39
568.99	60142.41
569.15	60299.22
569.32	60322.63
569.48	60343.69
569.64	60247.73
569.81	60336.67
569.97	60186.88
570.13	60299.22
570.30	60292.20
570.46	60479.44
570.62	60083.89
570.78	60535.62
570.95	60388.16
571.11	60392.84
571.27	60275.82
571.43	60413.91
571.60	60537.96
571.76	60292.20
571.92	60671.37
572.09	60343.69
572.25	60214.96
572.41	60320.29
572.57	60434.97
572.74	60734.56
572.90	60254.75
573.06	60505.19
573.22	60275.82
573.38	60427.95
573.55	60537.96
573.71	60624.56
573.87	60519.23
574.03	60505.19
574.20	60654.98
574.36	60420.93
574.52	60725.20
574.68	60568.38
574.84	60589.45
575.01	60594.13
575.17	60479.44
575.33	60505.19
575.49	60563.70
575.65	60601.15
575.82	60619.88
575.98	60659.66
576.14	60711.16
576.30	60636.26
576.46	60477.10
576.62	60547.32
576.79	60587.11
576.95	60378.80
577.11	60741.58
577.27	60645.62
577.43	60505.19
577.59	60617.53
577.75	60587.11
577.92	60392.84
578.08	60638.60
578.24	60809.46
578.40	60652.64
578.56	60931.17
578.72	60640.94
578.88	60755.63
579.04	60830.52
579.21	60734.56
579.37	60863.29
579.53	60865.63
579.69	60617.53
579.85	60680.73
580.01	60666.69
580.17	60498.17
580.33	60559.02
580.49	60860.95
580.65	60748.60
580.82	60727.54
580.98	60711.16
581.14	60643.28
581.30	60809.46
581.46	60823.50
581.62	60882.02
581.78	60563.70
581.94	60676.05
582.10	60818.82
582.26	60867.97
582.42	60755.63
582.58	61041.17
582.74	60769.67
582.90	60849.25
583.06	60750.94
583.22	60552.00
583.38	60814.14
583.54	60828.18
583.70	60835.20
583.86	60828.18
584.02	60556.68
584.18	60882.02
584.34	60996.70
584.50	60985.00
584.66	60800.10
584.82	60615.19
584.98	61125.43
585.14	60945.21
585.30	60713.50
585.46	60921.80
585.62	60973.30
585.78	61069.26
585.94	60573.06
586.10	60795.42
586.26	60985.00
586.42	60952.23
586.58	61024.79
586.74	60931.17
586.90	61125.43
587.06	60809.46
587.22	61029.47
587.38	61146.50
587.54	61045.85
587.70	61200.33
587.86	60863.29
588.02	61052.87
588.18	61043.51
588.34	61017.77
588.49	60926.49
