SpectraSuite Data File
++++++++++++++++++++++++++++++++++++
Date: Fri Oct 25 11:25:42 EDT 2013
User: price-jones
Dark Spectrum Present: No
Reference Spectrum Present: No
Number of Sampled Component Spectra: 1
Spectrometers: USB2+H05261
Integration Time (usec): 100000 (USB2+H05261)
Spectra Averaged: 1 (USB2+H05261)
Boxcar Smoothing: 0 (USB2+H05261)
Correct for Electrical Dark: No (USB2+H05261)
Strobe/Lamp Enabled: No (USB2+H05261)
Correct for Detector Non-linearity: No (USB2+H05261)
Correct for Stray Light: No (USB2+H05261)
Number of Pixels in Processed Spectrum: 2048
>>>>>Begin Processed Spectral Data<<<<<
365.73	168.52
365.92	168.52
366.12	168.52
366.32	191.92
366.52	173.20
366.72	133.41
366.91	140.43
367.11	98.30
367.31	121.71
367.51	124.05
367.70	147.45
367.90	201.29
368.10	107.66
368.30	114.69
368.49	140.43
368.69	138.09
368.89	147.45
369.09	187.24
369.28	220.01
369.48	187.24
369.68	152.13
369.87	280.86
370.07	301.93
370.27	198.95
370.47	290.23
370.66	573.43
370.86	622.58
371.06	674.07
371.25	643.65
371.45	739.61
371.65	678.76
371.84	678.76
372.04	669.39
372.24	711.52
372.44	732.59
372.63	678.76
372.83	716.20
373.03	732.59
373.22	737.27
373.42	753.65
373.62	760.67
373.81	807.48
374.01	842.59
374.21	741.95
374.40	739.61
374.60	849.61
374.79	807.48
374.99	873.02
375.19	746.63
375.38	786.42
375.58	866.00
375.78	894.08
375.97	807.48
376.17	985.37
376.37	898.77
376.56	910.47
376.76	819.19
376.95	884.72
377.15	858.98
377.35	861.32
377.54	894.08
377.74	851.96
377.93	917.49
378.13	851.96
378.33	968.98
378.52	999.41
378.72	924.51
378.91	973.66
379.11	950.26
379.31	1001.75
379.50	936.21
379.70	933.87
379.89	1032.18
380.09	985.37
380.28	924.51
380.48	943.24
380.68	978.34
380.87	1053.24
381.07	954.94
381.26	987.71
381.46	994.73
381.65	1053.24
381.85	1071.97
382.04	1116.44
382.24	1053.24
382.43	1041.54
382.63	985.37
382.83	1081.33
383.02	1039.20
383.22	1153.88
383.41	1083.67
383.61	1114.10
383.80	1060.26
384.00	1160.91
384.19	1167.93
384.39	1088.35
384.58	1102.39
384.78	1144.52
384.97	1149.20
385.17	1177.29
385.36	1109.41
385.56	1235.80
385.75	1102.39
385.95	1188.99
386.14	1259.21
386.34	1198.35
386.53	1198.35
386.72	1156.22
386.92	1294.32
387.11	1270.91
387.31	1226.44
387.50	1186.65
387.70	1226.44
387.89	1291.98
388.09	1306.02
388.28	1266.23
388.48	1217.08
388.67	1315.38
388.86	1275.59
389.06	1282.61
389.25	1451.13
389.45	1352.83
389.64	1273.25
389.84	1313.04
390.03	1287.29
390.22	1416.02
390.42	1331.76
390.61	1411.34
390.81	1343.47
391.00	1441.77
391.19	1453.47
391.39	1420.71
391.58	1378.58
391.78	1401.98
391.97	1528.37
392.16	1511.99
392.36	1617.31
392.55	1418.36
392.75	1500.28
392.94	1519.01
393.13	1511.99
393.33	1530.71
393.52	1558.80
393.71	1551.78
393.91	1458.15
394.10	1526.03
394.29	1612.63
394.49	1547.09
394.68	1654.76
394.88	1605.61
395.07	1596.25
395.26	1643.06
395.46	1699.23
395.65	1699.23
395.84	1769.44
396.04	1750.72
396.23	1694.55
396.42	1715.61
396.62	1912.22
396.81	1788.17
397.00	1785.83
397.19	1788.17
397.39	1764.76
397.58	1853.70
397.77	1804.55
397.97	1713.27
398.16	1802.21
398.35	1923.92
398.55	1776.47
398.74	1872.43
398.93	1956.69
399.12	1912.22
399.32	1902.86
399.51	1865.41
399.70	2005.84
399.90	1942.64
400.09	1940.30
400.28	1987.11
400.47	2052.65
400.67	2090.10
400.86	2083.08
401.05	1994.14
401.24	2031.58
401.44	2087.76
401.63	2115.84
401.82	2141.59
402.01	2125.21
402.21	2108.82
402.40	2141.59
402.59	2146.27
402.78	2092.44
402.97	2125.21
403.17	2293.72
403.36	2279.68
403.55	2277.34
403.74	2338.20
403.93	2317.13
404.13	2382.67
404.32	2382.67
404.51	2312.45
404.70	2445.86
404.89	2415.43
405.09	2380.32
405.28	2548.84
405.47	2490.33
405.66	2579.27
405.85	2537.14
406.05	2452.88
406.24	2555.86
406.43	2520.76
406.62	2605.02
406.81	2567.57
407.00	2565.23
407.20	2555.86
407.39	2668.21
407.58	2661.19
407.77	2665.87
407.96	2757.15
408.15	2750.13
408.34	2733.75
408.54	2829.71
408.73	2789.92
408.92	2878.86
409.11	2794.60
409.30	2813.32
409.49	2855.45
409.68	2974.82
409.87	3028.65
410.07	2946.73
410.26	2986.52
410.45	2885.88
410.64	3045.04
410.83	3042.70
411.02	3056.74
411.21	3068.44
411.40	3279.09
411.59	3091.85
411.78	3155.04
411.98	3157.38
412.17	3157.38
412.36	3229.94
412.55	3248.66
412.74	3473.36
412.93	3365.69
413.12	3391.44
413.31	3571.66
413.50	3475.70
413.69	3506.12
413.88	3494.42
414.07	3578.68
414.26	3588.04
414.45	3672.30
414.64	3695.71
414.83	3744.86
415.02	3583.36
415.22	3845.50
415.41	3908.69
415.60	3749.54
415.79	3873.59
415.98	3976.57
416.17	3995.29
416.36	3882.95
416.55	4198.92
416.74	4053.81
416.93	4170.83
417.12	4163.81
417.31	4180.20
417.50	4259.78
417.69	4215.30
417.88	4231.69
418.07	4255.09
418.26	4292.54
418.45	4341.69
418.64	4468.08
418.83	4505.53
419.02	4440.00
419.21	4404.89
419.39	4458.72
419.58	4484.47
419.77	4524.26
419.96	4482.13
420.15	4636.60
420.34	4454.04
420.53	4550.00
420.72	4739.58
420.91	4706.82
421.10	4711.50
421.29	4643.62
421.48	4510.21
421.67	4718.52
421.86	4678.73
422.05	4737.24
422.24	4753.63
422.43	4980.66
422.61	4915.12
422.80	4830.87
422.99	4842.57
423.18	4891.72
423.37	5004.07
423.56	4781.71
423.75	4814.48
423.94	4755.97
424.13	4475.10
424.32	4760.65
424.50	4880.02
424.69	5088.32
424.88	5097.69
425.07	4931.51
425.26	4802.78
425.45	5020.45
425.64	4901.08
425.83	4821.50
426.01	4880.02
426.20	4975.98
426.39	5050.88
426.58	4983.00
426.77	5062.58
426.96	5083.64
427.15	5053.22
427.33	5064.92
427.52	5013.43
427.71	5102.37
427.90	5224.08
428.09	5327.06
428.28	5348.12
428.46	5338.76
428.65	5130.45
428.84	5385.57
429.03	5474.51
429.22	5387.91
429.40	5462.81
429.59	5570.48
429.78	5203.01
429.97	5282.59
430.16	5481.53
430.34	5638.35
430.53	5455.79
430.72	5713.25
430.91	5544.73
431.10	5593.88
431.28	5729.63
431.47	5734.31
431.66	5884.11
431.85	5837.30
432.03	5760.06
432.22	5834.96
432.41	5603.24
432.60	5856.02
432.79	5966.03
432.97	5951.98
433.16	5951.98
433.35	5944.96
433.54	5928.58
433.72	6012.84
433.91	5980.07
434.10	6033.90
434.28	5982.41
434.47	6097.10
434.66	6176.67
434.85	6345.19
435.03	6359.24
435.22	6200.08
435.41	6413.07
435.59	6324.13
435.78	6310.08
435.97	6293.70
436.16	6450.52
436.34	6359.24
436.53	6312.42
436.72	6595.63
436.90	6448.18
437.09	6581.59
437.28	6380.30
437.46	6551.16
437.65	6651.80
437.84	6731.38
438.02	6682.23
438.21	6890.54
438.40	6555.84
438.58	6972.46
438.77	7075.44
438.96	6942.03
439.14	6927.99
439.33	7091.82
439.52	7117.57
439.70	7225.23
439.89	7234.60
440.08	7241.62
440.26	7183.10
440.45	7183.10
440.63	7412.48
440.82	7531.84
441.01	7478.01
441.19	7576.31
441.38	7583.34
441.57	7702.70
441.75	7772.92
441.94	7962.50
442.12	7829.09
442.31	7908.67
442.50	8037.40
442.68	7929.74
442.87	7903.99
443.05	7981.23
443.24	8241.03
443.43	8049.10
443.61	8226.98
443.80	8311.24
443.98	7999.95
444.17	7754.19
444.35	8234.00
444.54	8372.10
444.73	8198.90
444.91	8320.60
445.10	8301.88
445.28	8175.49
445.47	8248.05
445.65	8315.92
445.84	8386.14
446.02	8404.86
446.21	8318.26
446.39	8297.20
446.58	8486.78
446.77	8348.69
446.95	8222.30
447.14	8376.78
447.32	8664.66
447.51	8362.73
447.69	8315.92
447.88	8629.56
448.06	8404.86
448.25	8339.33
448.43	8435.29
448.62	8461.04
448.80	8594.45
448.99	8549.98
449.17	8643.60
449.36	8493.80
449.54	8931.48
449.73	8795.73
449.91	8842.54
450.10	8894.04
450.28	8936.17
450.46	8947.87
450.65	8966.59
450.83	8952.55
451.02	8840.20
451.20	9121.07
451.39	9083.62
451.57	8966.59
451.76	8985.32
451.94	9160.86
452.13	9289.59
452.31	9345.76
452.49	9025.11
452.68	9275.54
452.86	9439.38
453.05	9383.21
453.23	9355.12
453.42	9495.55
453.60	9249.80
453.78	9427.68
453.97	9214.69
454.15	9493.21
454.34	9179.58
454.52	9607.90
454.70	9558.75
454.89	9584.49
455.07	9720.24
455.26	9795.14
455.44	9687.48
455.62	9872.38
455.81	9841.95
455.99	9891.10
456.17	10064.30
456.36	10057.28
456.54	9977.70
456.73	10005.79
456.91	10279.63
457.09	10366.23
457.28	10401.34
457.46	10473.90
457.64	10286.65
457.83	10317.08
458.01	10546.45
458.19	10794.55
458.38	10340.49
458.56	10621.35
458.74	10663.48
458.93	10658.80
459.11	10642.42
459.29	10457.51
459.48	10785.19
459.66	10729.02
459.84	10888.17
460.03	11012.22
460.21	10778.17
460.39	10958.39
460.57	10740.72
460.76	11087.12
460.94	11028.60
461.12	11232.23
461.31	11194.78
461.49	11171.38
461.67	11213.51
461.85	11276.70
462.04	11337.56
462.22	11637.14
462.40	11506.07
462.59	11290.74
462.77	11461.60
462.95	11475.65
463.13	11321.17
463.32	11346.92
463.50	11534.16
463.68	11529.48
463.86	11751.83
464.05	11473.31
464.23	11646.51
464.41	11744.81
464.59	11590.33
464.78	12042.06
464.96	11857.15
465.14	11859.49
465.32	11758.85
465.50	12123.98
465.69	12006.95
465.87	12032.69
466.05	11974.18
466.23	11957.80
466.41	11929.71
466.60	12383.77
466.78	12091.21
466.96	12168.45
467.14	12248.02
467.32	12355.69
467.51	12376.75
467.69	12042.06
467.87	12287.81
468.05	12297.17
468.23	12255.04
468.41	12355.69
468.60	12409.52
468.78	12592.08
468.96	12320.58
469.14	12830.82
469.32	12833.16
469.50	12449.31
469.69	12800.39
469.87	12894.01
470.05	12650.60
470.23	12994.65
470.41	12992.31
470.59	13172.54
470.77	12996.99
470.95	12975.93
471.14	13378.50
471.32	13078.91
471.50	13535.32
471.68	13504.89
471.86	13568.09
472.04	13891.08
472.22	13816.18
472.40	13706.18
472.58	13717.88
472.77	13839.59
472.95	14094.71
473.13	14492.60
473.31	13996.40
473.49	13977.68
473.67	14036.19
473.85	14080.66
474.03	14462.17
474.21	14494.94
474.39	14684.52
474.57	14640.05
474.75	14801.55
474.93	14885.81
475.12	14721.97
475.30	14743.03
475.48	15030.92
475.66	15267.31
475.84	15342.21
476.02	15236.89
476.20	15208.80
476.38	15484.98
476.56	15957.77
476.74	15929.69
476.92	15831.38
477.10	15688.61
477.28	15981.18
477.46	16128.63
477.64	16271.40
477.82	16365.03
478.00	16718.45
478.18	16624.83
478.36	16748.87
478.54	16755.90
478.72	17128.04
478.90	17289.54
479.08	17362.09
479.26	17664.02
479.44	17432.31
479.62	17603.17
479.80	18019.78
479.98	17970.63
480.16	18595.56
480.34	18326.39
480.52	18530.02
480.70	18661.09
480.88	18480.87
481.06	18789.82
481.24	18820.25
481.41	18785.14
481.59	18991.11
481.77	19178.35
481.95	19260.27
482.13	19548.15
482.31	19435.81
482.49	20177.76
482.67	19887.53
482.85	20009.24
483.03	20299.47
483.21	20428.20
483.39	20655.23
483.57	20624.80
483.74	20996.95
483.92	21109.29
484.10	21287.17
484.28	21507.18
484.46	21687.40
484.64	22309.99
484.82	21888.69
485.00	22319.35
485.18	22618.94
485.35	22764.05
485.53	22707.88
485.71	22616.60
485.89	23449.83
486.07	23311.74
486.25	23431.10
486.43	23452.17
486.61	23814.95
486.78	23850.06
486.96	24023.26
487.14	24460.94
487.32	24360.30
487.50	24723.08
487.68	24762.87
487.85	24978.20
488.03	25174.80
488.21	25568.01
488.39	25542.27
488.57	26176.55
488.75	26192.94
488.92	26370.82
489.10	26691.47
489.28	27023.83
489.46	26934.88
489.64	26710.19
489.81	27213.41
489.99	27477.89
490.17	27644.07
490.35	27967.06
490.53	27981.10
490.70	28210.48
490.88	28053.66
491.06	28772.21
491.24	28526.45
491.41	28755.82
491.59	29015.62
491.77	29034.35
491.95	29434.58
492.13	29280.10
492.30	29919.07
492.48	29556.28
492.66	29982.26
492.84	30265.47
493.01	30752.30
493.19	30412.92
493.37	30588.46
493.54	30536.97
493.72	31042.53
493.90	30991.03
494.08	31653.40
494.25	31850.01
494.43	31662.77
494.61	31707.24
494.79	32320.46
494.96	32154.28
495.14	31997.46
495.32	32793.25
495.49	32669.20
495.67	32568.55
495.85	33282.42
496.02	33362.00
496.20	33748.18
496.38	33418.17
496.55	33811.38
496.73	34473.75
496.91	34410.56
497.09	34146.08
497.26	34801.43
497.44	34628.23
497.62	35309.32
497.79	35529.33
497.97	35442.73
498.14	35906.16
498.32	35744.66
498.50	35931.90
498.67	36299.37
498.85	36196.38
499.03	36198.73
499.20	36587.25
499.38	36297.03
499.56	36889.18
499.73	36875.14
499.91	36849.39
500.08	37511.77
500.26	36847.05
500.44	37441.55
500.61	37415.80
500.79	37202.82
500.97	38206.90
501.14	38253.72
501.32	38412.87
501.49	38368.40
501.67	38202.22
501.84	38712.46
502.02	38658.63
502.20	38373.08
502.37	39063.54
502.55	39063.54
502.72	39325.68
502.90	39641.65
503.07	39138.44
503.25	39218.02
503.43	38883.32
503.60	40002.10
503.78	39983.37
503.95	39454.41
504.13	40065.29
504.30	40287.64
504.48	40133.17
504.65	40350.84
504.83	40779.15
505.01	41170.02
505.18	40734.68
505.36	41354.93
505.53	41001.50
505.71	40964.06
505.88	41387.69
506.06	41453.23
506.23	41462.59
506.41	41588.98
506.58	41949.42
506.76	42258.37
506.93	41867.50
507.11	42068.79
507.28	42473.70
507.46	42230.29
507.63	42557.96
507.81	42787.33
507.98	42843.51
508.16	42859.89
508.33	43070.54
508.50	42752.23
508.68	43292.89
508.85	43615.88
509.03	43566.73
509.20	43728.23
509.38	44341.45
509.55	44140.16
509.73	44402.30
509.90	44311.02
510.08	44435.07
510.25	44509.97
510.42	44671.46
510.60	44844.66
510.77	44612.95
510.95	45317.45
511.12	44498.26
511.30	44769.77
511.47	45095.10
511.64	45495.33
511.82	45418.10
511.99	45209.79
512.17	45399.37
512.34	45518.74
512.51	46431.55
512.69	45865.14
512.86	46124.94
513.04	46178.77
513.21	46501.76
513.38	46471.34
513.56	46747.52
513.73	46485.38
513.90	46639.86
514.08	46351.97
514.25	46749.86
514.43	47114.98
514.60	46993.28
514.77	47014.34
514.95	47224.99
515.12	47054.13
515.29	47124.35
515.47	47838.21
515.64	47571.39
515.81	47569.05
515.99	47819.49
516.16	47990.34
516.33	47861.61
516.51	48137.80
516.68	48397.60
516.85	48219.72
517.03	48399.94
517.20	48575.48
517.37	48364.83
517.54	48610.59
517.72	48507.60
517.89	48535.69
518.06	49015.50
518.24	48800.17
518.41	49162.95
518.58	49036.56
518.75	49120.82
518.93	49226.15
519.10	48917.20
519.27	49200.40
519.45	49399.35
519.62	49860.43
519.79	49668.51
519.96	49708.30
520.14	49949.37
520.31	49595.95
520.48	50075.76
520.65	50220.87
520.83	50204.49
521.00	50263.00
521.17	50202.15
521.34	50513.44
521.52	50614.08
521.69	50590.68
521.86	50923.04
522.03	51239.01
522.20	51096.24
522.38	51250.71
522.55	51299.86
522.72	50944.10
522.89	51091.55
523.07	51271.78
523.24	51187.52
523.41	51604.13
523.58	51150.07
523.75	51679.03
523.92	51414.55
524.10	51805.42
524.27	51892.02
524.44	51772.65
524.61	51826.48
524.78	51793.71
524.96	51856.91
525.13	52041.81
525.30	52381.19
525.47	51936.49
525.64	52231.40
525.81	52261.82
525.98	52364.81
526.16	52231.40
526.33	52203.31
526.50	52924.19
526.67	52629.29
526.84	52664.39
527.01	52853.98
527.18	52713.55
527.36	52956.96
527.53	52680.78
527.70	53064.63
527.87	52940.58
528.04	52987.39
528.21	53329.11
528.38	52907.81
528.55	53226.12
528.72	53478.90
528.89	53064.63
529.07	52952.28
529.24	53375.92
529.41	53439.11
529.58	53556.14
529.75	53406.34
529.92	53570.18
530.09	53701.25
530.26	53708.27
530.43	53441.45
530.60	53490.60
530.77	53649.76
530.94	53949.35
531.11	53897.86
531.28	53736.36
531.46	54227.87
531.63	54241.92
531.80	53949.35
531.97	54113.19
532.14	54251.28
532.31	54003.18
532.48	54335.54
532.65	54274.68
532.82	54054.67
532.99	54382.35
533.16	54473.63
533.33	54614.06
533.50	54560.23
533.67	54534.48
533.84	54536.82
534.01	54553.21
534.18	54841.09
534.35	54873.86
534.52	55028.34
534.69	55166.43
534.86	54850.45
535.03	54873.86
535.20	55000.25
535.37	54986.21
535.54	55140.68
535.71	54899.61
535.88	55360.69
536.05	55117.28
536.22	55466.02
536.38	55435.59
536.55	55381.76
536.72	55248.35
536.89	55210.90
537.06	55145.36
537.23	55332.60
537.40	55332.60
537.57	55643.90
537.74	55470.70
537.91	55657.94
538.08	55510.49
538.25	55573.68
538.42	55461.33
538.59	56034.77
538.75	55824.12
538.92	55938.80
539.09	55922.42
539.26	55770.28
539.43	55920.08
539.60	55784.33
539.77	56086.26
539.94	56261.80
540.11	56154.13
540.28	56163.50
540.44	56161.15
540.61	56357.76
540.78	56493.51
540.95	56175.20
541.12	56100.30
541.29	56168.18
541.46	56376.48
541.62	56250.09
541.79	56446.70
541.96	56083.92
542.13	56296.91
542.30	56327.33
542.47	56617.56
542.63	56559.05
542.80	56732.25
542.97	56832.89
543.14	57003.75
543.31	56931.19
543.48	56903.10
543.64	57064.60
543.81	57230.78
543.98	57137.16
544.15	57013.11
544.32	57354.83
544.48	57219.08
544.65	57373.55
544.82	57216.74
544.99	57027.15
545.16	57347.81
545.32	57085.67
545.49	57542.07
545.66	57469.51
545.83	57322.06
546.00	57595.90
546.16	57497.60
546.33	57549.09
546.50	57216.74
546.67	57605.26
546.83	57296.31
547.00	57406.32
547.17	57591.22
547.34	57455.47
547.50	57738.68
547.67	57888.47
547.84	57640.37
548.00	57787.83
548.17	57972.73
548.34	57705.91
548.51	58014.86
548.67	58239.55
548.84	57848.68
549.01	57918.90
549.18	57925.92
549.34	58054.65
549.51	58225.51
549.68	58085.07
549.84	58145.93
550.01	58136.57
550.18	58068.69
550.34	58288.70
550.51	58300.40
550.68	58197.42
550.84	57993.79
551.01	58162.31
551.18	58241.89
551.34	58255.93
551.51	58279.34
551.68	58298.06
551.84	58445.52
552.01	58300.40
552.18	58464.24
552.34	58415.09
552.51	58403.39
552.68	58450.20
552.84	58375.30
553.01	58721.70
553.18	58644.46
553.34	58862.13
553.51	58482.97
553.67	58735.74
553.84	58588.29
554.01	58848.09
554.17	58827.02
554.34	58883.20
554.51	58614.04
554.67	58848.09
554.84	58869.15
555.00	58965.12
555.17	58815.32
555.33	58773.19
555.50	58756.81
555.67	58728.72
555.83	59065.76
556.00	58857.45
556.16	59370.03
556.33	58951.07
556.50	59180.45
556.66	59267.05
556.83	58878.52
556.99	59206.19
557.16	59433.22
557.32	59283.43
557.49	59573.66
557.65	59112.57
557.82	59103.21
557.98	59175.76
558.15	59210.87
558.32	59187.47
558.48	59180.45
558.65	59054.06
558.81	59262.36
558.98	59220.23
559.14	59498.76
559.31	59409.82
559.47	59554.93
559.64	59477.69
559.80	59477.69
559.97	59484.72
560.13	59121.93
560.30	59758.56
560.46	59547.91
560.63	59590.04
560.79	59489.40
560.96	59796.01
561.12	59711.75
561.29	59688.34
561.45	59840.48
561.61	59657.91
561.78	59533.87
561.94	59723.45
562.11	59770.26
562.27	59728.13
562.44	59831.11
562.60	59978.57
562.77	60006.65
562.93	59875.58
563.10	59943.46
563.26	59807.71
563.42	59955.16
563.59	59852.18
563.75	59831.11
563.92	59826.43
564.08	59922.40
564.24	60069.85
564.41	60048.78
564.57	59763.24
564.74	60069.85
564.90	59964.52
565.07	59824.09
565.23	60130.70
565.39	60020.70
565.56	60154.11
565.72	59927.08
565.88	60058.15
566.05	59976.23
566.21	60081.55
566.38	60044.10
566.54	59992.61
566.70	60299.22
566.87	60205.60
567.03	59831.11
567.19	60226.66
567.36	59962.18
567.52	60147.09
567.68	60336.67
567.85	60079.21
568.01	60294.54
568.17	60163.47
568.34	60210.28
568.50	60093.25
568.66	60250.07
568.83	60116.66
568.99	60189.22
569.15	60289.86
569.32	60271.14
569.48	60147.09
569.64	60299.22
569.81	60229.01
569.97	60179.85
570.13	60299.22
570.30	60158.79
570.46	60245.39
570.62	60331.99
570.78	60322.63
570.95	60189.22
571.11	60516.89
571.27	60362.42
571.43	60355.39
571.60	60334.33
571.76	60383.48
571.92	60399.86
572.09	60509.87
572.25	60420.93
572.41	60285.18
572.57	60472.42
572.74	60458.38
572.90	60470.08
573.06	60507.53
573.22	60626.90
573.38	60413.91
573.55	60432.63
573.71	60718.18
573.87	60552.00
574.03	60378.80
574.20	60573.06
574.36	60308.58
574.52	60563.70
574.68	60493.49
574.84	60664.35
575.01	60566.04
575.17	60416.25
575.33	60472.42
575.49	60535.62
575.65	60659.66
575.82	60612.85
575.98	60767.33
576.14	60706.47
576.30	60533.28
576.46	60556.68
576.62	60657.32
576.79	60561.36
576.95	60477.10
577.11	60601.15
577.27	60743.92
577.43	60626.90
577.59	60516.89
577.75	60647.96
577.92	60615.19
578.08	60673.71
578.24	60643.28
578.40	60736.90
578.56	60877.33
578.72	60699.45
578.88	60912.44
579.04	60743.92
579.21	60872.65
579.37	60622.22
579.53	60860.95
579.69	60315.61
579.85	60299.22
580.01	60650.30
580.17	60640.94
580.33	60699.45
580.49	60928.83
580.65	60821.16
580.82	60750.94
580.98	60505.19
581.14	60521.57
581.30	60874.99
581.46	60942.87
581.62	60774.35
581.78	60638.60
581.94	60701.79
582.10	60893.72
582.26	60662.00
582.42	60612.85
582.58	60769.67
582.74	60601.15
582.90	60739.24
583.06	60767.33
583.22	60659.66
583.38	60671.37
583.54	60816.48
583.70	60764.99
583.86	60795.42
584.02	60654.98
584.18	61022.45
584.34	60900.74
584.50	60818.82
584.66	60671.37
584.82	60552.00
584.98	60938.19
585.14	60968.61
585.30	60793.07
585.46	60839.89
585.62	60711.16
585.78	60959.25
585.94	60629.24
586.10	60786.05
586.26	60807.12
586.42	60853.93
586.58	60982.66
586.74	60645.62
586.90	60921.80
587.06	60844.57
587.22	61066.92
587.38	60867.97
587.54	61010.74
587.70	61160.54
587.86	60907.76
588.02	60860.95
588.18	60987.34
588.34	60832.86
588.49	60741.58
