SpectraSuite Data File
++++++++++++++++++++++++++++++++++++
Date: Fri Oct 25 10:44:42 EDT 2013
User: price-jones
Dark Spectrum Present: No
Reference Spectrum Present: No
Number of Sampled Component Spectra: 1
Spectrometers: USB2+H05261
Integration Time (usec): 100000 (USB2+H05261)
Spectra Averaged: 1 (USB2+H05261)
Boxcar Smoothing: 0 (USB2+H05261)
Correct for Electrical Dark: No (USB2+H05261)
Strobe/Lamp Enabled: No (USB2+H05261)
Correct for Detector Non-linearity: No (USB2+H05261)
Correct for Stray Light: No (USB2+H05261)
Number of Pixels in Processed Spectrum: 2048
>>>>>Begin Processed Spectral Data<<<<<
365.73	177.88
365.92	177.88
366.12	177.88
366.32	35.11
366.52	4.68
366.72	37.45
366.91	35.11
367.11	77.24
367.31	0.00
367.51	16.38
367.70	88.94
367.90	84.26
368.10	16.38
368.30	18.72
368.49	16.38
368.69	25.75
368.89	53.83
369.09	0.00
369.28	18.72
369.48	32.77
369.68	86.60
369.87	126.39
370.07	93.62
370.27	119.37
370.47	203.63
370.66	374.49
370.86	411.93
371.06	423.64
371.25	430.66
371.45	479.81
371.65	393.21
371.84	425.98
372.04	479.81
372.24	493.85
372.44	489.17
372.63	514.92
372.83	491.51
373.03	456.40
373.22	440.02
373.42	505.56
373.62	526.62
373.81	519.60
374.01	566.41
374.21	512.58
374.40	580.45
374.60	608.54
374.79	484.49
374.99	566.41
375.19	540.66
375.38	550.03
375.58	573.43
375.78	535.98
375.97	634.29
376.17	610.88
376.37	489.17
376.56	557.05
376.76	638.97
376.95	512.58
377.15	608.54
377.35	568.75
377.54	543.00
377.74	636.63
377.93	596.84
378.13	622.58
378.33	653.01
378.52	608.54
378.72	697.48
378.91	601.52
379.11	594.50
379.31	554.71
379.50	575.77
379.70	667.05
379.89	566.41
380.09	610.88
380.28	594.50
380.48	638.97
380.68	699.82
380.87	660.03
381.07	730.25
381.26	697.48
381.46	634.29
381.65	755.99
381.85	643.65
382.04	634.29
382.24	709.18
382.43	617.90
382.63	629.60
382.83	674.07
383.02	697.48
383.22	660.03
383.41	697.48
383.61	643.65
383.80	739.61
384.00	711.52
384.19	683.44
384.39	706.84
384.58	727.91
384.78	802.80
384.97	798.12
385.17	753.65
385.36	809.83
385.56	788.76
385.75	746.63
385.95	748.97
386.14	884.72
386.34	802.80
386.53	727.91
386.72	755.99
386.92	746.63
387.11	847.27
387.31	858.98
387.50	767.70
387.70	837.91
387.89	802.80
388.09	718.54
388.28	755.99
388.48	777.06
388.67	917.49
388.86	788.76
389.06	858.98
389.25	854.30
389.45	887.06
389.64	823.87
389.84	929.19
390.03	1001.75
390.22	898.77
390.42	863.66
390.61	863.66
390.81	905.79
391.00	915.15
391.19	875.36
391.39	908.13
391.58	973.66
391.78	943.24
391.97	976.00
392.16	957.28
392.36	1043.88
392.55	976.00
392.75	910.47
392.94	919.83
393.13	945.58
393.33	903.45
393.52	999.41
393.71	957.28
393.91	919.83
394.10	1050.90
394.29	1022.81
394.49	1090.69
394.68	1086.01
394.88	1074.31
395.07	1055.58
395.26	1027.50
395.46	1114.10
395.65	1090.69
395.84	1193.67
396.04	1203.04
396.23	1050.90
396.42	1053.24
396.62	1064.94
396.81	1095.37
397.00	1191.33
397.19	1245.16
397.39	1221.76
397.58	1224.10
397.77	1210.06
397.97	1210.06
398.16	1362.19
398.35	1322.40
398.55	1301.34
398.74	1282.61
398.93	1411.34
399.12	1277.93
399.32	1380.92
399.51	1275.59
399.70	1394.96
399.90	1331.76
400.09	1432.41
400.28	1451.13
400.47	1401.98
400.67	1448.79
400.86	1380.92
401.05	1387.94
401.24	1465.18
401.44	1434.75
401.63	1598.59
401.82	1526.03
402.01	1497.94
402.21	1516.67
402.40	1605.61
402.59	1696.89
402.78	1575.18
402.97	1533.05
403.17	1549.43
403.36	1500.28
403.55	1678.16
403.74	1706.25
403.93	1715.61
404.13	1570.50
404.32	1661.78
404.51	1701.57
404.70	1687.53
404.89	1544.75
405.09	1703.91
405.28	1729.66
405.47	1776.47
405.66	1795.19
405.85	1769.44
406.05	1701.57
406.24	1760.08
406.43	1879.45
406.62	1790.51
406.81	1902.86
407.00	1895.83
407.20	1832.64
407.39	1874.77
407.58	1940.30
407.77	1879.45
407.96	2008.18
408.15	1921.58
408.34	1959.03
408.54	1942.64
408.73	2008.18
408.92	2029.24
409.11	2122.87
409.30	2115.84
409.49	2031.58
409.68	2038.61
409.87	1968.39
410.07	2202.44
410.26	2099.46
410.45	2172.02
410.64	2108.82
410.83	2209.47
411.02	2277.34
411.21	2272.66
411.40	2277.34
411.59	2256.28
411.78	2387.35
411.98	2338.20
412.17	2300.75
412.36	2469.27
412.55	2394.37
412.74	2452.88
412.93	2476.29
413.12	2314.79
413.31	2520.76
413.50	2520.76
413.69	2551.18
413.88	2612.04
414.07	2551.18
414.26	2562.89
414.45	2626.08
414.64	2656.51
414.83	2745.45
415.02	2757.15
415.22	2663.53
415.41	2825.03
415.60	2815.66
415.79	2775.88
415.98	2789.92
416.17	2946.73
416.36	2918.65
416.55	2803.96
416.74	2953.76
416.93	2836.73
417.12	3045.04
417.31	2977.16
417.50	2925.67
417.69	3052.06
417.88	3091.85
418.07	3030.99
418.26	3108.23
418.45	3084.83
418.64	3213.56
418.83	3246.32
419.02	3117.59
419.21	3192.49
419.39	3185.47
419.58	3131.64
419.77	3180.79
419.96	3325.90
420.15	3281.43
420.34	3225.26
420.53	3300.16
420.72	3506.12
420.91	3349.31
421.10	3391.44
421.29	3468.67
421.48	3297.81
421.67	3559.95
421.86	3468.67
422.05	3468.67
422.24	3487.40
422.43	3480.38
422.61	3499.10
422.80	3536.55
422.99	3555.27
423.18	3503.78
423.37	3487.40
423.56	3583.36
423.75	3534.21
423.94	3335.26
424.13	3349.31
424.32	3368.03
424.50	3604.42
424.69	3529.53
424.88	3658.26
425.07	3454.63
425.26	3361.01
425.45	3627.83
425.64	3552.93
425.83	3433.57
426.01	3672.30
426.20	3566.98
426.39	3630.17
426.58	3585.70
426.77	3541.23
426.96	3665.28
427.15	3595.06
427.33	3695.71
427.52	3634.85
427.71	3597.40
427.90	3655.92
428.09	3758.90
428.28	3836.14
428.46	3770.60
428.65	3826.78
428.84	3871.25
429.03	3887.63
429.22	3798.69
429.40	3815.07
429.59	3723.79
429.78	3576.34
429.97	3562.30
430.16	3655.92
430.34	3889.97
430.53	3899.33
430.72	3904.01
430.91	3932.10
431.10	3985.93
431.28	4114.66
431.47	4077.21
431.66	4194.24
431.85	4091.26
432.03	4161.47
432.22	4348.72
432.41	4114.66
432.60	4152.11
432.79	4018.70
432.97	4327.65
433.16	4337.01
433.35	4292.54
433.54	4180.20
433.72	4168.49
433.91	4304.25
434.10	4215.30
434.28	4297.22
434.47	4358.08
434.66	4564.04
434.85	4601.49
435.03	4468.08
435.22	4414.25
435.41	4517.23
435.59	4519.57
435.78	4746.61
435.97	4643.62
436.16	4704.48
436.34	4531.28
436.53	4631.92
436.72	4748.95
436.90	4531.28
437.09	4575.75
437.28	4547.66
437.46	4592.13
437.65	4725.54
437.84	4641.28
438.02	4559.36
438.21	4770.01
438.40	4643.62
438.58	4978.32
438.77	4720.86
438.96	4814.48
439.14	5116.41
439.33	5069.60
439.52	5043.85
439.70	4980.66
439.89	5268.55
440.08	5177.26
440.26	5160.88
440.45	4978.32
440.63	5263.86
440.82	5408.98
441.01	5397.28
441.19	5366.85
441.38	5479.19
441.57	5469.83
441.75	5479.19
441.94	5654.73
442.12	5607.92
442.31	5619.63
442.50	5626.65
442.68	5643.03
442.87	5687.50
443.05	5762.40
443.24	5846.66
443.43	6045.60
443.61	5720.27
443.80	5928.58
443.98	5724.95
444.17	5755.38
444.35	5816.23
444.54	6087.73
444.73	5888.79
444.91	5790.49
445.10	5778.78
445.28	5741.33
445.47	5870.06
445.65	5715.59
445.84	5813.89
446.02	5769.42
446.21	5856.02
446.39	5891.13
446.58	6115.82
446.77	6038.58
446.95	5902.83
447.14	5961.34
447.32	6106.46
447.51	5991.77
447.69	5998.79
447.88	6092.41
448.06	6036.24
448.25	5926.24
448.43	6118.16
448.62	6153.27
448.80	5935.60
448.99	6235.19
449.17	6127.52
449.36	6033.90
449.54	6214.12
449.73	6235.19
449.91	6331.15
450.10	6342.85
450.28	6356.90
450.46	6516.05
450.65	6370.94
450.83	6480.94
451.02	6427.11
451.20	6408.39
451.39	6356.90
451.57	6408.39
451.76	6396.68
451.94	6516.05
452.13	6541.80
452.31	6448.18
452.49	6272.64
452.68	6427.11
452.86	6502.01
453.05	6661.16
453.23	6677.55
453.42	6581.59
453.60	6546.48
453.78	6642.44
453.97	6630.74
454.15	6637.76
454.34	6747.76
454.52	6981.82
454.70	6925.65
454.89	6703.29
455.07	6953.73
455.26	6808.62
455.44	6883.52
455.62	6927.99
455.81	6729.04
455.99	7033.31
456.17	7138.63
456.36	7103.53
456.54	7183.10
456.73	7183.10
456.91	7157.36
457.09	7178.42
457.28	7454.61
457.46	7169.06
457.64	7304.81
457.83	7131.61
458.01	7190.13
458.19	7368.01
458.38	7421.84
458.56	7344.60
458.74	7576.31
458.93	7414.82
459.11	7506.10
459.29	7419.50
459.48	7501.42
459.66	7602.06
459.84	7592.70
460.03	7693.34
460.21	7721.43
460.39	7691.00
460.57	7693.34
460.76	7702.70
460.94	7815.05
461.12	7859.52
461.31	7737.81
461.49	7620.78
461.67	7782.28
461.85	8030.38
462.04	7899.31
462.22	8021.02
462.40	8011.65
462.59	7971.86
462.77	7953.14
462.95	7997.61
463.13	7988.25
463.32	7981.23
463.50	8257.41
463.68	7978.89
463.86	8109.96
464.05	7978.89
464.23	8046.76
464.41	8383.80
464.59	7892.29
464.78	8320.60
464.96	8161.45
465.14	8067.83
465.32	8098.25
465.50	8360.39
465.69	8395.50
465.87	8126.34
466.05	8393.16
466.23	8271.45
466.41	8486.78
466.60	8592.11
466.78	8297.20
466.96	8444.65
467.14	8271.45
467.32	8475.08
467.51	8458.70
467.69	8362.73
467.87	8697.43
468.05	8652.96
468.23	8472.74
468.41	8674.03
468.60	8599.13
468.78	8842.54
468.96	8634.24
469.14	8868.29
469.32	8999.36
469.50	8706.79
469.69	8779.35
469.87	8718.50
470.05	8929.14
470.23	8999.36
470.41	9071.92
470.59	9090.64
470.77	9245.12
470.95	9228.73
471.14	9032.13
471.32	8910.42
471.50	9415.98
471.68	9446.40
471.86	9184.26
472.04	9322.35
472.22	9380.87
472.40	9315.33
472.58	9509.60
472.77	9511.94
472.95	9731.95
473.13	9907.49
473.31	9643.01
473.49	9607.90
473.67	9818.55
473.85	9879.40
474.03	10106.43
474.21	9968.34
474.39	10181.33
474.57	9832.59
474.75	10068.98
474.93	10106.43
475.12	10031.54
475.30	10153.24
475.48	10162.61
475.66	10265.59
475.84	10157.92
476.02	10541.77
476.20	10438.79
476.38	10551.14
476.56	10665.82
476.74	10736.04
476.92	10630.71
477.10	10832.00
477.28	11014.56
477.46	10883.49
477.64	11002.86
477.82	11225.21
478.00	11517.78
478.18	11506.07
478.36	11091.80
478.54	11414.79
478.72	11648.85
478.90	11578.63
479.08	11922.69
479.26	11859.49
479.44	12264.41
479.62	11990.56
479.80	12091.21
479.98	12149.72
480.16	12479.74
480.34	12358.03
480.52	12554.63
480.70	12559.31
480.88	12187.17
481.06	12765.28
481.24	12601.44
481.41	12847.20
481.59	12915.08
481.77	13160.83
481.95	13111.68
482.13	13284.88
482.31	13415.95
482.49	13678.09
482.67	13743.63
482.85	13762.35
483.03	14008.11
483.21	14047.90
483.39	13977.68
483.57	14038.53
483.74	14188.33
483.92	14352.16
484.10	14298.33
484.28	14310.04
484.46	14787.50
484.64	15087.09
484.82	14466.85
485.00	14911.55
485.18	15040.28
485.35	15279.02
485.53	14967.73
485.71	15007.52
485.89	15236.89
486.07	15075.39
486.25	15449.88
486.43	15611.37
486.61	15754.15
486.78	15798.62
486.96	15868.83
487.14	16163.74
487.32	16538.23
487.50	16631.85
487.68	16615.46
487.85	16905.69
488.03	16938.46
488.21	17039.10
488.39	17268.47
488.57	17184.21
488.75	17565.72
488.92	17479.12
489.10	18125.11
489.28	17898.08
489.46	17963.61
489.64	17963.61
489.81	18380.23
489.99	18501.93
490.17	18312.35
490.35	18616.62
490.53	18693.86
490.70	19194.73
490.88	18558.11
491.06	18916.21
491.24	18951.32
491.41	18876.42
491.59	19239.20
491.77	19066.00
491.95	19681.56
492.13	19634.75
492.30	19948.39
492.48	19847.74
492.66	20154.35
492.84	20088.82
493.01	20123.93
493.19	20182.44
493.37	20521.82
493.54	20346.28
493.72	21022.69
493.90	20940.77
494.08	20535.86
494.25	21392.50
494.43	21593.78
494.61	21446.33
494.79	21359.73
494.96	21451.01
495.14	21603.14
495.32	21909.75
495.49	21685.06
495.67	21743.58
495.85	22092.32
496.02	21975.29
496.20	22225.73
496.38	22324.03
496.55	22501.91
496.73	23271.95
496.91	23108.11
497.09	23190.03
497.26	22841.29
497.44	22822.56
497.62	22803.84
497.79	23555.15
497.97	23679.20
498.14	23484.94
498.32	23328.12
498.50	23449.83
498.67	24002.19
498.85	23814.95
499.03	24037.30
499.20	24034.96
499.38	24416.47
499.56	23721.33
499.73	24568.60
499.91	24493.71
500.08	24360.30
500.26	24276.04
500.44	24772.23
500.61	24676.27
500.79	24620.10
500.97	24781.59
501.14	25015.65
501.32	25041.39
501.49	24952.45
501.67	25373.75
501.84	25319.92
502.02	25600.78
502.20	25399.49
502.37	25675.68
502.55	25748.23
502.72	25565.67
502.90	26197.62
503.07	25610.14
503.25	26010.37
503.43	25781.00
503.60	26096.97
503.78	26380.18
503.95	26345.07
504.13	26342.73
504.30	26426.99
504.48	26448.05
504.65	26405.92
504.83	26803.82
505.01	27075.32
505.18	26738.28
505.36	27253.20
505.53	27140.85
505.71	27276.60
505.88	27433.42
506.06	27103.40
506.23	27534.06
506.41	27346.82
506.58	27653.43
506.76	27648.75
506.93	27681.52
507.11	28058.34
507.28	27903.87
507.46	27889.82
507.63	27674.49
507.81	28084.09
507.98	27892.16
508.16	27880.46
508.33	28421.13
508.50	28872.85
508.68	28751.14
508.85	29008.60
509.03	28741.78
509.20	28929.02
509.38	28844.76
509.55	29043.71
509.73	29071.79
509.90	29125.63
510.08	28980.51
510.25	29249.67
510.42	29355.00
510.60	29315.21
510.77	29560.97
510.95	29872.26
511.12	29420.53
511.30	29692.04
511.47	29886.30
511.64	30249.08
511.82	30274.83
511.99	29977.58
512.17	30026.73
512.34	29872.26
512.51	30164.82
512.69	30621.23
512.86	30710.17
513.04	30747.62
513.21	30319.30
513.38	30424.62
513.56	30394.20
513.73	30335.68
513.90	30993.37
514.08	30747.62
514.25	30778.04
514.43	30787.41
514.60	30792.09
514.77	31199.34
514.95	31206.36
515.12	31431.05
515.29	30998.06
515.47	31564.46
515.64	31800.86
515.81	31349.14
515.99	31515.31
516.16	31974.06
516.33	31482.55
516.51	31487.23
516.68	31627.66
516.85	31440.42
517.03	31957.67
517.20	32163.64
517.37	31941.29
517.54	32201.09
517.72	31725.96
517.89	31971.72
518.06	31548.08
518.24	31910.86
518.41	32217.47
518.58	32341.52
518.75	32339.18
518.93	32797.93
519.10	32615.37
519.27	32224.50
519.45	32723.03
519.62	32704.31
519.79	33069.43
519.96	32952.40
520.14	33701.37
520.31	33130.28
520.48	33144.33
520.65	33111.56
520.83	33415.83
521.00	33282.42
521.17	33846.49
521.34	33633.50
521.52	33872.23
521.69	33684.99
521.86	33766.91
522.03	33734.14
522.20	33837.12
522.38	34274.80
522.55	34005.64
522.72	34326.30
522.89	34026.71
523.07	34284.17
523.24	34181.18
523.41	34953.56
523.58	34724.19
523.75	34848.24
523.92	34761.64
524.10	34677.38
524.27	35302.30
524.44	34710.14
524.61	34792.06
524.78	35505.93
524.96	35512.95
525.13	35714.23
525.30	35070.59
525.47	35775.09
525.64	35487.20
525.81	35309.32
525.98	35213.36
526.16	35519.97
526.33	35297.62
526.50	35400.60
526.67	35262.51
526.84	35786.79
527.01	35110.38
527.18	35833.60
527.36	35594.87
527.53	35847.64
527.70	36046.59
527.87	36287.67
528.04	36070.00
528.21	36287.67
528.38	36161.28
528.55	36814.29
528.72	36327.45
528.89	36825.99
529.07	36060.63
529.24	36163.62
529.41	36828.33
529.58	36685.56
529.75	36306.39
529.92	36507.68
530.09	37078.77
530.26	36980.46
530.43	37022.59
530.60	36837.69
530.77	36821.31
530.94	36563.85
531.11	36872.80
531.28	36680.88
531.46	36978.12
531.63	37263.67
531.80	36893.86
531.97	37275.37
532.14	37261.33
532.31	37111.53
532.48	37226.22
532.65	37464.96
532.82	37418.14
532.99	37469.64
533.16	37116.22
533.33	37448.57
533.50	38192.86
533.67	38019.66
533.84	37961.15
534.01	38047.75
534.18	37865.19
534.35	37809.01
534.52	37713.05
534.69	37790.29
534.86	38183.50
535.03	38225.63
535.20	38309.89
535.37	38398.83
535.54	38733.53
535.71	38869.28
535.88	38918.43
536.05	38663.31
536.22	38284.14
536.38	38607.14
536.55	38260.74
536.72	38373.08
536.89	38920.77
537.06	38281.80
537.23	38911.41
537.40	38532.24
537.57	38831.83
537.74	38904.38
537.91	39030.77
538.08	39049.50
538.25	38841.19
538.42	38480.75
538.59	39122.05
538.75	38513.52
538.92	39084.61
539.09	39133.76
539.26	39201.63
539.43	39377.17
539.60	39379.51
539.77	38955.88
539.94	39227.38
540.11	39009.71
540.28	38969.92
540.44	39330.36
540.61	39173.55
540.78	39538.67
540.95	39304.62
541.12	39227.38
541.29	39419.30
541.46	39594.84
541.62	39676.76
541.79	39548.03
541.96	38965.24
542.13	39805.49
542.30	39807.83
542.47	39676.76
542.63	40168.27
542.80	40343.81
542.97	40238.49
543.14	40491.27
543.31	40594.25
543.48	40449.14
543.64	41455.57
543.81	40645.74
543.98	40416.37
544.15	40617.66
544.32	40945.33
544.48	40811.92
544.65	40968.74
544.82	40638.72
544.99	40233.81
545.16	40811.92
545.32	41045.97
545.49	40964.06
545.66	41347.90
545.83	41036.61
546.00	41315.14
546.16	41184.07
546.33	40788.52
546.50	40708.94
546.67	40783.83
546.83	40748.73
547.00	41277.69
547.17	40898.52
547.34	40807.24
547.50	41537.49
547.67	41617.07
547.84	41507.06
548.00	41731.75
548.17	41855.80
548.34	41577.28
548.51	41270.67
548.67	41258.96
548.84	41439.18
549.01	41261.30
549.18	41270.67
549.34	41633.45
549.51	41453.23
549.68	41607.70
549.84	41673.24
550.01	41462.59
550.18	41668.56
550.34	41886.23
550.51	41855.80
550.68	41495.36
550.84	41698.98
551.01	41801.97
551.18	42064.11
551.34	41820.69
551.51	42040.70
551.68	42082.83
551.84	42195.18
552.01	41823.03
552.18	42433.91
552.34	42064.11
552.51	41933.04
552.68	41911.97
552.84	42426.89
553.01	42586.05
553.18	42483.06
553.34	42462.00
553.51	42155.39
553.67	41750.48
553.84	42492.43
554.01	42424.55
554.17	42682.01
554.34	42590.73
554.51	42466.68
554.67	42480.72
554.84	42682.01
555.00	42382.42
555.17	42777.97
555.33	42450.30
555.50	42763.93
555.67	43051.81
555.83	42646.90
556.00	43075.22
556.16	42981.60
556.33	42698.39
556.50	42873.93
556.66	42958.19
556.83	42335.61
556.99	43264.80
557.16	42965.21
557.32	42887.98
557.49	43241.40
557.65	42801.38
557.82	42930.11
557.98	42972.24
558.15	42834.14
558.32	43281.19
558.48	43283.53
558.65	43674.40
558.81	42649.24
558.98	43208.63
559.14	43208.63
559.31	43049.47
559.47	43540.99
559.64	43594.82
559.80	43232.04
559.97	43213.31
560.13	43199.27
560.30	43115.01
560.46	43571.41
560.63	43639.29
560.79	43702.48
560.96	43742.27
561.12	43335.02
561.29	44112.08
561.45	43405.23
561.61	43447.36
561.78	43306.93
561.94	43454.39
562.11	43316.29
562.27	43274.16
562.44	43330.34
562.60	43306.93
562.77	43819.51
562.93	43370.13
563.10	43309.27
563.26	43580.78
563.42	43531.62
563.59	43337.36
563.75	43524.60
563.92	43889.73
564.08	43744.61
564.24	43608.86
564.41	43889.73
564.57	43936.54
564.74	43775.04
564.90	43636.95
565.07	43629.93
565.23	43470.77
565.39	43910.79
565.56	43828.87
565.72	43828.87
565.88	44112.08
566.05	43627.59
566.21	44034.84
566.38	43835.89
566.54	44055.90
566.70	44062.93
566.87	44128.46
567.03	43924.83
567.19	44184.63
567.36	44325.07
567.52	43838.23
567.68	44404.64
567.85	43873.34
568.01	44034.84
568.17	43777.38
568.34	44002.07
568.50	43962.28
568.66	44147.18
568.83	43868.66
568.99	43871.00
569.15	43587.80
569.32	43966.96
569.48	43789.08
569.64	44542.74
569.81	43924.83
569.97	44135.48
570.13	44233.78
570.30	44238.47
570.46	43676.74
570.62	43934.20
570.78	43833.55
570.95	44154.21
571.11	44299.32
571.27	44318.04
571.43	44079.31
571.60	44051.22
571.76	43564.39
571.92	43840.57
572.09	44011.43
572.25	43831.21
572.41	44116.76
572.57	44123.78
572.74	44547.42
572.90	44165.91
573.06	43973.98
573.22	44327.41
573.38	43959.94
573.55	44046.54
573.71	44439.75
573.87	44011.43
574.03	44107.40
574.20	43971.64
574.36	44346.13
574.52	43814.83
574.68	43716.53
574.84	44205.70
575.01	44161.23
575.17	43892.07
575.33	43985.69
575.49	43896.75
575.65	44477.20
575.82	44339.11
575.98	44030.16
576.14	44524.01
576.30	44470.18
576.46	44123.78
576.62	44133.14
576.79	44081.65
576.95	43821.85
577.11	44273.57
577.27	44210.38
577.43	44191.65
577.59	44313.36
577.75	44144.84
577.92	44201.02
578.08	44055.90
578.24	44144.84
578.40	43988.03
578.56	44332.09
578.72	44095.69
578.88	44729.98
579.04	44491.24
579.21	44301.66
579.37	44587.21
579.53	44460.82
579.69	44240.81
579.85	44488.90
580.01	44755.72
580.17	43922.49
580.33	44210.38
580.49	44488.90
580.65	44016.11
580.82	44154.21
580.98	44512.31
581.14	44219.74
581.30	44701.89
581.46	44098.03
581.62	44289.96
581.78	44430.39
581.94	44589.55
582.10	44098.03
582.26	44467.84
582.42	43934.20
582.58	44577.84
582.74	43880.36
582.90	44725.30
583.06	44502.95
583.22	44460.82
583.38	44507.63
583.54	44369.54
583.70	44524.01
583.86	44556.78
584.02	43983.35
584.18	44229.10
584.34	44212.72
584.50	44484.22
584.66	44313.36
584.82	44273.57
584.98	44725.30
585.14	44626.99
585.30	44514.65
585.46	44786.15
585.62	44605.93
585.78	44355.49
585.94	44079.31
586.10	44634.02
586.26	44591.89
586.42	44996.80
586.58	44652.74
586.74	44528.69
586.90	44671.46
587.06	44250.17
587.22	44519.33
587.38	44458.48
587.54	44648.06
587.70	44772.11
587.86	44456.14
588.02	44673.81
588.18	44729.98
588.34	44460.82
588.49	44425.71
588.65	44109.74
588.81	43997.39
588.97	44421.03
589.13	44526.35
589.29	44612.95
589.45	44554.44
589.61	44720.62
589.77	44531.03
589.93	44601.25
590.08	44940.63
590.24	45137.23
