SpectraSuite Data File
++++++++++++++++++++++++++++++++++++
Date: Fri Oct 25 11:26:38 EDT 2013
User: price-jones
Dark Spectrum Present: No
Reference Spectrum Present: No
Number of Sampled Component Spectra: 1
Spectrometers: USB2+H05261
Integration Time (usec): 100000 (USB2+H05261)
Spectra Averaged: 1 (USB2+H05261)
Boxcar Smoothing: 0 (USB2+H05261)
Correct for Electrical Dark: No (USB2+H05261)
Strobe/Lamp Enabled: No (USB2+H05261)
Correct for Detector Non-linearity: No (USB2+H05261)
Correct for Stray Light: No (USB2+H05261)
Number of Pixels in Processed Spectrum: 2048
>>>>>Begin Processed Spectral Data<<<<<
365.73	201.29
365.92	201.29
366.12	201.29
366.32	149.79
366.52	154.48
366.72	175.54
366.91	121.71
367.11	133.41
367.31	114.69
367.51	126.39
367.70	187.24
367.90	175.54
368.10	135.75
368.30	135.75
368.49	105.32
368.69	154.48
368.89	175.54
369.09	163.84
369.28	234.05
369.48	227.03
369.68	131.07
369.87	208.31
370.07	215.33
370.27	184.90
370.47	346.40
370.66	634.29
370.86	638.97
371.06	610.88
371.25	676.41
371.45	739.61
371.65	709.18
371.84	692.80
372.04	664.71
372.24	739.61
372.44	765.36
372.63	755.99
372.83	732.59
373.03	737.27
373.22	795.78
373.42	734.93
373.62	791.10
373.81	725.57
374.01	875.36
374.21	870.68
374.40	894.08
374.60	875.36
374.79	791.10
374.99	823.87
375.19	791.10
375.38	910.47
375.58	856.64
375.78	905.79
375.97	809.83
376.17	870.68
376.37	861.32
376.56	903.45
376.76	802.80
376.95	905.79
377.15	931.53
377.35	922.17
377.54	950.26
377.74	910.47
377.93	936.21
378.13	882.38
378.33	961.96
378.52	837.91
378.72	973.66
378.91	1029.84
379.11	964.30
379.31	1032.18
379.50	966.64
379.70	980.68
379.89	1053.24
380.09	943.24
380.28	915.15
380.48	1036.86
380.68	1069.62
380.87	961.96
381.07	1006.43
381.26	1050.90
381.46	1043.88
381.65	978.34
381.85	1095.37
382.04	994.73
382.24	1104.73
382.43	1156.22
382.63	1067.28
382.83	1104.73
383.02	1132.82
383.22	1177.29
383.41	1083.67
383.61	1142.18
383.80	1184.31
384.00	1071.97
384.19	1135.16
384.39	1221.76
384.58	1188.99
384.78	1240.48
384.97	1205.38
385.17	1142.18
385.36	1102.39
385.56	1205.38
385.75	1151.54
385.95	1207.72
386.14	1193.67
386.34	1212.40
386.53	1221.76
386.72	1193.67
386.92	1179.63
387.11	1261.55
387.31	1217.08
387.50	1289.64
387.70	1238.14
387.89	1233.46
388.09	1205.38
388.28	1308.36
388.48	1266.23
388.67	1289.64
388.86	1266.23
389.06	1217.08
389.25	1373.89
389.45	1308.36
389.64	1397.30
389.84	1383.26
390.03	1439.43
390.22	1521.35
390.42	1322.40
390.61	1390.28
390.81	1451.13
391.00	1462.83
391.19	1490.92
391.39	1423.05
391.58	1481.56
391.78	1453.47
391.97	1451.13
392.16	1493.26
392.36	1533.05
392.55	1584.54
392.75	1603.27
392.94	1575.18
393.13	1474.54
393.33	1504.96
393.52	1633.69
393.71	1614.97
393.91	1692.21
394.10	1465.18
394.29	1540.07
394.49	1575.18
394.68	1558.80
394.88	1631.35
395.07	1703.91
395.26	1584.54
395.46	1708.59
395.65	1732.00
395.84	1720.29
396.04	1783.49
396.23	1706.25
396.42	1785.83
396.62	1750.72
396.81	1748.38
397.00	1785.83
397.19	1736.68
397.39	1720.29
397.58	1823.28
397.77	1839.66
397.97	1895.83
398.16	1769.44
398.35	1809.23
398.55	1933.28
398.74	1893.49
398.93	1987.11
399.12	1975.41
399.32	1902.86
399.51	1935.62
399.70	2069.03
399.90	1937.96
400.09	2052.65
400.28	2045.63
400.47	2066.69
400.67	2150.95
400.86	2050.31
401.05	2024.56
401.24	2038.61
401.44	2104.14
401.63	2174.36
401.82	2120.53
402.01	2101.80
402.21	2094.78
402.40	2244.57
402.59	2267.98
402.78	2256.28
402.97	2169.68
403.17	2333.51
403.36	2200.10
403.55	2319.47
403.74	2326.49
403.93	2389.69
404.13	2377.98
404.32	2373.30
404.51	2382.67
404.70	2413.09
404.89	2434.16
405.09	2511.39
405.28	2490.33
405.47	2485.65
405.66	2506.71
405.85	2605.02
406.05	2499.69
406.24	2658.85
406.43	2609.70
406.62	2569.91
406.81	2705.66
407.00	2597.99
407.20	2656.51
407.39	2609.70
407.58	2740.77
407.77	2710.34
407.96	2750.13
408.15	2775.88
408.34	2745.45
408.54	2759.49
408.73	2799.28
408.92	2792.26
409.11	2834.39
409.30	2848.43
409.49	2939.71
409.68	2911.63
409.87	3063.76
410.07	2979.50
410.26	3084.83
410.45	2979.50
410.64	3005.25
410.83	3112.91
411.02	3101.21
411.21	3199.51
411.40	3119.93
411.59	3162.06
411.78	3178.45
411.98	3272.07
412.17	3173.77
412.36	3243.98
412.55	3356.33
412.74	3379.73
412.93	3529.53
413.12	3344.63
413.31	3637.19
413.50	3555.27
413.69	3482.72
413.88	3515.48
414.07	3719.11
414.26	3667.62
414.45	3763.58
414.64	3620.81
414.83	3744.86
415.02	3808.05
415.22	3798.69
415.41	4058.49
415.60	3754.22
415.79	3899.33
415.98	3941.46
416.17	4058.49
416.36	4070.19
416.55	3941.46
416.74	4072.53
416.93	4067.85
417.12	4215.30
417.31	4138.07
417.50	4184.88
417.69	4215.30
417.88	4259.78
418.07	4423.61
418.26	4255.09
418.45	4248.07
418.64	4526.60
418.83	4484.47
419.02	4442.34
419.21	4503.19
419.39	4498.51
419.58	4531.28
419.77	4507.87
419.96	4561.70
420.15	4622.56
420.34	4557.02
420.53	4615.54
420.72	4657.67
420.91	4755.97
421.10	4798.10
421.29	4931.51
421.48	4685.75
421.67	4753.63
421.86	4793.42
422.05	4720.86
422.24	4753.63
422.43	4870.65
422.61	5048.54
422.80	4971.30
422.99	4980.66
423.18	4835.55
423.37	5095.35
423.56	4957.25
423.75	4926.83
423.94	4795.76
424.13	4599.15
424.32	4652.98
424.50	4915.12
424.69	5085.98
424.88	5013.43
425.07	4875.34
425.26	4870.65
425.45	5025.13
425.64	5032.15
425.83	4910.44
426.01	5036.83
426.20	5039.17
426.39	5137.48
426.58	5015.77
426.77	5097.69
426.96	5184.29
427.15	5109.39
427.33	5195.99
427.52	5114.07
427.71	5308.34
427.90	5240.46
428.09	5313.02
428.28	5518.98
428.46	5224.08
428.65	5476.85
428.84	5603.24
429.03	5558.77
429.22	5397.28
429.40	5495.58
429.59	5619.63
429.78	5217.05
429.97	5336.42
430.16	5486.22
430.34	5483.88
430.53	5671.12
430.72	5703.89
430.91	5621.97
431.10	5628.99
431.28	5891.13
431.47	5701.54
431.66	5884.11
431.85	5769.42
432.03	5907.51
432.22	5954.32
432.41	5996.45
432.60	6031.56
432.79	6012.84
432.97	6054.97
433.16	5949.64
433.35	6019.86
433.54	6274.98
433.72	6197.74
433.91	6136.88
434.10	6232.85
434.28	5982.41
434.47	6230.51
434.66	6352.21
434.85	6286.68
435.03	6347.53
435.22	6040.92
435.41	6560.52
435.59	6249.23
435.78	6455.20
435.97	6457.54
436.16	6478.60
436.34	6499.67
436.53	6623.72
436.72	6509.03
436.90	6408.39
437.09	6654.14
437.28	6682.23
437.46	6466.90
437.65	6642.44
437.84	6684.57
438.02	6825.00
438.21	6820.32
438.40	6712.66
438.58	7012.24
438.77	7119.91
438.96	6984.16
439.14	6890.54
439.33	7126.93
439.52	7129.27
439.70	7337.58
439.89	7424.18
440.08	7470.99
440.26	7290.77
440.45	7330.56
440.63	7562.27
440.82	7857.18
441.01	7548.23
441.19	7681.64
441.38	7602.06
441.57	7793.98
441.75	7925.05
441.94	7990.59
442.12	7829.09
442.31	7969.52
442.50	8119.32
442.68	7889.95
442.87	8065.49
443.05	8035.06
443.24	8273.79
443.43	8002.29
443.61	8175.49
443.80	8500.83
443.98	8102.93
444.17	7742.49
444.35	8138.04
444.54	8386.14
444.73	8203.58
444.91	8070.17
445.10	8257.41
445.28	8344.01
445.47	8386.14
445.65	8271.45
445.84	8589.77
446.02	8542.96
446.21	8451.67
446.39	8454.02
446.58	8454.02
446.77	8470.40
446.95	8306.56
447.14	8451.67
447.32	8631.90
447.51	8615.51
447.69	8395.50
447.88	8557.00
448.06	8629.56
448.25	8655.30
448.43	8477.42
448.62	8636.58
448.80	8491.46
448.99	8718.50
449.17	8875.31
449.36	8650.62
449.54	8718.50
449.73	8990.00
449.91	9032.13
450.10	9043.83
450.28	9156.18
450.46	8994.68
450.65	9046.17
450.83	9392.57
451.02	9111.71
451.20	9217.03
451.39	9273.20
451.57	9378.53
451.76	8999.36
451.94	9226.39
452.13	9392.57
452.31	9350.44
452.49	9163.20
452.68	9240.44
452.86	9483.85
453.05	9259.16
453.23	9425.34
453.42	9488.53
453.60	9336.40
453.78	9610.24
453.97	9678.12
454.15	9558.75
454.34	9469.81
454.52	9816.21
454.70	9757.69
454.89	9933.23
455.07	9825.57
455.26	9928.55
455.44	9982.38
455.62	9951.96
455.81	10003.45
455.99	10054.94
456.17	10120.48
456.36	10090.05
456.54	10171.97
456.73	10368.57
456.91	10576.88
457.09	10466.88
457.28	10710.29
457.46	10324.10
457.64	10672.84
457.83	10583.90
458.01	10455.17
458.19	10878.81
458.38	10443.47
458.56	10721.99
458.74	10736.04
458.93	10672.84
459.11	10682.20
459.29	10918.60
459.48	10981.79
459.66	10780.51
459.84	10906.90
460.03	11005.20
460.21	11061.37
460.39	11101.16
460.57	11070.73
460.76	11194.78
460.94	11243.93
461.12	11162.01
461.31	11297.77
461.49	11307.13
461.67	11187.76
461.85	11321.17
462.04	11494.37
462.22	11330.53
462.40	11641.82
462.59	11412.45
462.77	11477.99
462.95	11693.32
463.13	11686.29
463.32	11421.81
463.50	11735.45
463.68	11960.14
463.86	11864.18
464.05	11637.14
464.23	11698.00
464.41	12159.08
464.59	11784.60
464.78	12219.94
464.96	12184.83
465.14	11730.76
465.32	12037.38
465.50	12105.25
465.69	12360.37
465.87	12156.74
466.05	12156.74
466.23	12229.30
466.41	12191.85
466.60	12599.10
466.78	12294.83
466.96	12250.36
467.14	12245.68
467.32	12386.12
467.51	12645.91
467.69	12327.60
467.87	12510.16
468.05	12606.13
468.23	12554.63
468.41	12594.42
468.60	12671.66
468.78	12762.94
468.96	12465.69
469.14	12992.31
469.32	12959.55
469.50	12582.72
469.69	12875.29
469.87	13092.96
470.05	13191.26
470.23	13130.41
470.41	13252.11
470.59	13198.28
470.77	13181.90
470.95	13099.98
471.14	13437.02
471.32	13404.25
471.50	13652.34
471.68	13652.34
471.86	13743.63
472.04	13549.36
472.22	14045.55
472.40	13701.50
472.58	14012.79
472.77	13930.87
472.95	14139.18
473.13	14754.74
473.31	14183.65
473.49	14190.67
473.67	14349.82
473.85	14413.02
474.03	14640.05
474.21	14740.69
474.39	14768.78
474.57	14951.34
474.75	14827.29
474.93	14995.81
475.12	14820.27
475.30	15328.17
475.48	15049.64
475.66	15288.38
475.84	15154.97
476.02	15442.85
476.20	15157.31
476.38	15566.90
476.56	16063.10
476.74	15873.51
476.92	15843.09
477.10	15807.98
477.28	16339.28
477.46	16159.06
477.64	16376.73
477.82	16500.78
478.00	16858.88
478.18	17132.72
478.36	16805.05
478.54	17074.21
478.72	16779.30
478.90	17465.08
479.08	17579.76
479.26	17692.11
479.44	17748.28
479.62	18075.96
479.80	17996.38
479.98	18195.32
480.16	18590.88
480.34	18326.39
480.52	18611.94
480.70	18625.98
480.88	18473.85
481.06	18782.80
481.24	18658.75
481.41	18977.06
481.59	19286.01
481.77	19398.36
481.95	19555.18
482.13	19934.34
482.31	19709.65
482.49	20332.23
482.67	20332.23
482.85	20442.24
483.03	20657.57
483.21	20933.75
483.39	20802.68
483.57	20999.29
483.74	21263.77
483.92	21294.19
484.10	20868.22
484.28	21535.27
484.46	22120.40
484.64	22352.12
484.82	21912.10
485.00	22733.62
485.18	22757.03
485.35	22963.00
485.53	22721.92
485.71	22878.74
485.89	23503.66
486.07	23335.14
486.25	23592.60
486.43	23669.84
486.61	23939.00
486.78	24025.60
486.96	24053.69
487.14	24657.54
487.32	25048.41
487.50	25219.27
487.68	25137.35
487.85	25399.49
488.03	25741.21
488.21	25881.64
488.39	25802.07
488.57	26373.16
488.75	26356.77
488.92	26422.31
489.10	26962.97
489.28	26801.47
489.46	27250.86
489.64	27241.50
489.81	27573.85
489.99	28100.47
490.17	27634.71
490.35	28428.15
490.53	28261.97
490.70	28381.34
490.88	28554.54
491.06	28650.50
491.24	28786.25
491.41	29244.99
491.59	29420.53
491.77	29294.14
491.95	29872.26
492.13	29776.30
492.30	30024.39
492.48	30209.29
492.66	30190.57
492.84	30228.02
493.01	30806.13
493.19	30937.20
493.37	31232.11
493.54	31248.49
493.72	31199.34
493.90	31405.31
494.08	31828.95
494.25	32037.25
494.43	32182.37
494.61	32430.46
494.79	32453.87
494.96	32774.52
495.14	32591.96
495.32	33481.36
495.49	33198.16
495.67	33607.75
495.85	33418.17
496.02	34136.71
496.20	34410.56
496.38	34305.23
496.55	34239.70
496.73	34689.08
496.91	34419.92
497.09	34740.57
497.26	34962.92
497.44	34962.92
497.62	35002.71
497.79	35761.05
497.97	35498.91
498.14	35871.05
498.32	36287.67
498.50	35988.08
498.67	36711.30
498.85	36776.84
499.03	36645.77
499.20	36594.28
499.38	36776.84
499.56	36896.20
499.73	37275.37
499.91	37689.65
500.08	37794.97
500.26	37312.82
500.44	37500.06
500.61	38019.66
500.79	38019.66
500.97	38085.20
501.14	39016.73
501.32	38525.22
501.49	38679.69
501.67	38698.42
501.84	39105.67
502.02	38829.49
502.20	39082.27
502.37	39201.63
502.55	39501.22
502.72	39463.77
502.90	39892.09
503.07	39613.57
503.25	39512.92
503.43	39805.49
503.60	39910.82
503.78	40320.41
503.95	40194.02
504.13	40374.24
504.30	41340.88
504.48	40332.11
504.65	41008.53
504.83	40645.74
505.01	41347.90
505.18	40973.42
505.36	41469.61
505.53	41343.22
505.71	41542.17
505.88	41949.42
506.06	41825.37
506.23	41694.30
506.41	41574.94
506.58	42387.10
506.76	42274.76
506.93	42909.04
507.11	42260.71
507.28	42836.48
507.46	42658.60
507.63	43072.88
507.81	43372.47
507.98	43253.10
508.16	43363.11
508.33	43765.68
508.50	43320.98
508.68	43510.56
508.85	44032.50
509.03	43634.61
509.20	43807.81
509.38	44353.15
509.55	44458.48
509.73	44376.56
509.90	44854.03
510.08	44982.76
510.25	44486.56
510.42	44699.55
510.60	45057.65
510.77	45345.54
510.95	45518.74
511.12	45069.36
511.30	45483.63
511.47	45055.31
511.64	45682.58
511.82	45865.14
511.99	45546.82
512.17	45820.67
512.34	45923.65
512.51	46433.89
512.69	46600.07
512.86	46270.05
513.04	46789.65
513.21	46628.15
513.38	46738.16
513.56	46848.16
513.73	47136.05
513.90	47028.38
514.08	47175.84
514.25	47613.52
514.43	47552.66
514.60	47601.82
514.77	47304.57
514.95	47646.29
515.12	47669.69
515.29	47765.65
515.47	47854.59
515.64	48287.59
515.81	47941.19
515.99	48486.54
516.16	48683.14
516.33	48362.49
516.51	48722.93
516.68	48842.30
516.85	48540.37
517.03	48961.67
517.20	48849.32
517.37	48905.49
517.54	48727.61
517.72	49249.55
517.89	49247.21
518.06	49497.65
518.24	49471.90
518.41	49062.31
518.58	49043.59
518.75	49532.76
518.93	49443.82
519.10	49411.05
519.27	49935.33
519.45	49902.56
519.62	49986.82
519.79	50239.60
519.96	50028.95
520.14	50522.80
520.31	50241.94
520.48	50756.86
520.65	50459.61
520.83	50578.98
521.00	50883.25
521.17	50564.93
521.34	50595.36
521.52	51091.55
521.69	50724.09
521.86	51433.27
522.03	51253.05
522.20	51384.12
522.38	51538.60
522.55	51386.46
522.72	51262.41
522.89	51152.41
523.07	51693.07
523.24	51370.08
523.41	51786.69
523.58	51648.60
523.75	51929.47
523.92	51576.04
524.10	52069.90
524.27	52191.61
524.44	52121.39
524.61	52392.89
524.78	52182.24
524.96	52371.83
525.13	52458.43
525.30	52175.22
525.47	52442.04
525.64	52479.49
525.81	52626.95
525.98	52481.83
526.16	52615.24
526.33	52673.76
526.50	53111.44
526.67	52891.43
526.84	52741.63
527.01	53066.97
527.18	52933.56
527.36	53015.47
527.53	53045.90
527.70	53633.38
527.87	53364.21
528.04	53146.54
528.21	53485.92
528.38	53125.48
528.55	53539.75
528.72	53502.31
528.89	53551.46
529.07	53364.21
529.24	53654.44
529.41	53907.22
529.58	53560.82
529.75	53698.91
529.92	53790.19
530.09	54068.72
530.26	54134.25
530.43	53961.05
530.60	53841.68
530.77	54129.57
530.94	54096.80
531.11	53972.75
531.28	54073.40
531.46	54220.85
531.63	54468.95
531.80	54085.10
531.97	54527.46
532.14	54585.97
532.31	54358.94
532.48	54653.85
532.65	54794.28
532.82	54490.01
532.99	54478.31
533.16	54632.78
533.33	54836.41
533.50	55227.28
533.67	54632.78
533.84	54714.70
534.01	54967.48
534.18	54864.50
534.35	55243.66
534.52	54894.92
534.69	55150.04
534.86	55320.90
535.03	55077.49
535.20	55339.63
535.37	55473.04
535.54	55428.57
535.71	55187.49
535.88	55554.96
536.05	55599.43
536.22	55597.09
536.38	55774.97
536.55	55372.39
536.72	55604.11
536.89	55931.78
537.06	55484.74
537.23	56032.42
537.40	55655.60
537.57	55899.01
537.74	55924.76
537.91	55908.38
538.08	56006.68
538.25	55852.20
538.42	55899.01
538.59	56074.55
538.75	55833.48
538.92	56133.07
539.09	56329.67
539.26	56172.86
539.43	56109.66
539.60	56275.84
539.77	56046.47
539.94	56481.81
540.11	56245.41
540.28	56449.04
540.44	56423.29
540.61	56545.00
540.78	56322.65
540.95	56505.21
541.12	56690.12
541.29	56554.36
541.46	56526.28
541.62	56741.61
541.79	56673.73
541.96	56451.38
542.13	56720.54
542.30	56666.71
542.47	56959.28
542.63	56774.37
542.80	57038.86
542.97	57240.14
543.14	57312.70
543.31	57069.28
543.48	57373.55
543.64	57315.04
543.81	57467.17
543.98	57251.84
544.15	57403.98
544.32	57296.31
544.48	57602.92
544.65	57593.56
544.82	57691.86
544.99	57216.74
545.16	57593.56
545.32	57354.83
545.49	57804.21
545.66	57785.49
545.83	57689.52
546.00	57649.74
546.16	57553.77
546.33	57691.86
546.50	57537.39
546.67	57836.98
546.83	57528.03
547.00	57942.30
547.17	57698.89
547.34	58014.86
547.50	58127.20
547.67	58099.12
547.84	57879.11
548.00	58106.14
548.17	58157.63
548.34	58192.74
548.51	58134.23
548.67	58195.08
548.84	58227.85
549.01	58087.42
549.18	58150.61
549.34	58305.09
549.51	58230.19
549.68	58410.41
549.84	58288.70
550.01	58576.59
550.18	58347.21
550.34	58433.81
550.51	58328.49
550.68	58291.04
550.84	58237.21
551.01	58728.72
551.18	58316.79
551.34	58571.91
551.51	58553.18
551.68	58508.71
551.84	58625.74
552.01	58466.58
552.18	58590.63
552.34	58504.03
552.51	58665.53
552.68	58607.01
552.84	58492.33
553.01	59049.38
553.18	58780.21
553.34	59175.76
553.51	58850.43
553.67	58899.58
553.84	59065.76
554.01	58939.37
554.17	59047.04
554.34	59082.14
554.51	59128.95
554.67	59105.55
554.84	59157.04
555.00	59007.25
555.17	59135.98
555.33	59215.55
555.50	59009.59
555.67	59044.69
555.83	59168.74
556.00	59236.62
556.16	59274.07
556.33	59318.54
556.50	59082.14
556.66	59241.30
556.83	59180.45
556.99	59260.02
557.16	59695.36
557.32	59374.71
557.49	59639.19
557.65	59281.09
557.82	59451.95
557.98	59468.33
558.15	59377.05
558.32	59571.32
558.48	59222.58
558.65	59491.74
558.81	59435.56
558.98	59590.04
559.14	59421.52
559.31	59693.02
559.47	59760.90
559.64	59613.44
559.80	59536.21
559.97	59662.60
560.13	59576.00
560.30	59688.34
560.46	59910.69
560.63	59807.71
560.79	59753.88
560.96	60140.07
561.12	59854.52
561.29	59765.58
561.45	59955.16
561.61	59948.14
561.78	59655.57
561.94	59880.27
562.11	59695.36
562.27	59891.97
562.44	59950.48
562.60	60224.32
562.77	59994.95
562.93	59985.59
563.10	60128.36
563.26	60299.22
563.42	60210.28
563.59	60090.91
563.75	60128.36
563.92	59891.97
564.08	59805.37
564.24	60126.02
564.41	60088.57
564.57	60133.04
564.74	60165.81
564.90	60044.10
565.07	60233.69
565.23	60168.15
565.39	60107.30
565.56	60205.60
565.72	60161.13
565.88	60341.35
566.05	60093.25
566.21	60266.45
566.38	60107.30
566.54	60275.82
566.70	60413.91
566.87	60425.61
567.03	60137.72
567.19	60336.67
567.36	60266.45
567.52	60294.54
567.68	60584.77
567.85	60437.31
568.01	60491.15
568.17	60280.50
568.34	60547.32
568.50	60402.21
568.66	60374.12
568.83	60355.39
568.99	60226.66
569.15	60329.65
569.32	60654.98
569.48	60390.50
569.64	60584.77
569.81	60418.59
569.97	60434.97
570.13	60477.10
570.30	60542.64
570.46	60437.31
570.62	60509.87
570.78	60671.37
570.95	60746.26
571.11	60601.15
571.27	60486.46
571.43	60533.28
571.60	60542.64
571.76	60729.88
571.92	60837.54
572.09	60631.58
572.25	60701.79
572.41	60619.88
572.57	60769.67
572.74	60772.01
572.90	60652.64
573.06	60369.44
573.22	60690.09
573.38	60725.20
573.55	60809.46
573.71	60987.34
573.87	60823.50
574.03	60530.93
574.20	60767.33
574.36	60692.43
574.52	60842.23
574.68	60725.20
574.84	60865.63
575.01	60601.15
575.17	60748.60
575.33	60814.14
575.49	60612.85
575.65	60797.76
575.82	60961.59
575.98	60853.93
576.14	60811.80
576.30	60935.85
576.46	60711.16
576.62	60821.16
576.79	60793.07
576.95	60561.36
577.11	60732.22
577.27	60851.59
577.43	60825.84
577.59	60750.94
577.75	60755.63
577.92	60762.65
578.08	60715.84
578.24	60921.80
578.40	60924.14
578.56	61031.81
578.72	60774.35
578.88	61261.18
579.04	61181.60
579.21	60837.54
579.37	60949.89
579.53	61022.45
579.69	60842.23
579.85	60694.77
580.01	60889.04
580.17	60821.16
580.33	60879.67
580.49	61036.49
580.65	60889.04
580.82	60874.99
580.98	60722.86
581.14	60973.30
581.30	61113.73
581.46	60844.57
581.62	61010.74
581.78	60800.10
581.94	60945.21
582.10	60910.10
582.26	61080.96
582.42	60844.57
582.58	60900.74
582.74	60729.88
582.90	60884.36
583.06	60884.36
583.22	60835.20
583.38	60975.64
583.54	60900.74
583.70	60823.50
583.86	60942.87
584.02	60973.30
584.18	61095.00
584.34	61020.11
584.50	61066.92
584.66	60896.06
584.82	60865.63
584.98	61169.90
585.14	61008.40
585.30	60865.63
585.46	61104.37
585.62	60846.91
585.78	61106.71
585.94	60896.06
586.10	61010.74
586.26	61132.45
586.42	61132.45
586.58	61043.51
586.74	61123.09
586.90	61125.43
587.06	61003.72
587.22	61148.84
587.38	61080.96
587.54	61050.53
587.70	61368.85
587.86	61216.71
588.02	61228.41
588.18	61296.29
588.34	60870.31
