SpectraSuite Data File
++++++++++++++++++++++++++++++++++++
Date: Fri Oct 25 11:33:47 EDT 2013
User: price-jones
Dark Spectrum Present: No
Reference Spectrum Present: No
Number of Sampled Component Spectra: 1
Spectrometers: USB2+H05261
Integration Time (usec): 100000 (USB2+H05261)
Spectra Averaged: 1 (USB2+H05261)
Boxcar Smoothing: 0 (USB2+H05261)
Correct for Electrical Dark: No (USB2+H05261)
Strobe/Lamp Enabled: No (USB2+H05261)
Correct for Detector Non-linearity: No (USB2+H05261)
Correct for Stray Light: No (USB2+H05261)
Number of Pixels in Processed Spectrum: 2048
>>>>>Begin Processed Spectral Data<<<<<
365.73	266.82
365.92	266.82
366.12	266.82
366.32	177.88
366.52	222.35
366.72	215.33
366.91	138.09
367.11	105.32
367.31	227.03
367.51	170.86
367.70	145.11
367.90	177.88
368.10	135.75
368.30	236.39
368.49	177.88
368.69	175.54
368.89	184.90
369.09	222.35
369.28	266.82
369.48	259.80
369.68	280.86
369.87	287.89
370.07	285.55
370.27	257.46
370.47	355.76
370.66	451.72
370.86	531.30
371.06	543.00
371.25	645.99
371.45	550.03
371.65	535.98
371.84	561.73
372.04	580.45
372.24	524.28
372.44	599.18
372.63	564.07
372.83	622.58
373.03	594.50
373.22	561.73
373.42	634.29
373.62	603.86
373.81	688.12
374.01	678.76
374.21	627.26
374.40	610.88
374.60	669.39
374.79	566.41
374.99	660.03
375.19	627.26
375.38	669.39
375.58	692.80
375.78	758.33
375.97	716.20
376.17	676.41
376.37	657.69
376.56	615.56
376.76	737.27
376.95	624.92
377.15	709.18
377.35	678.76
377.54	685.78
377.74	681.10
377.93	737.27
378.13	683.44
378.33	746.63
378.52	667.05
378.72	678.76
378.91	695.14
379.11	737.27
379.31	732.59
379.50	697.48
379.70	716.20
379.89	739.61
380.09	746.63
380.28	793.44
380.48	676.41
380.68	734.93
380.87	788.76
381.07	734.93
381.26	826.21
381.46	704.50
381.65	758.33
381.85	819.19
382.04	814.51
382.24	812.17
382.43	706.84
382.63	786.42
382.83	819.19
383.02	758.33
383.22	760.67
383.41	793.44
383.61	830.89
383.80	882.38
384.00	807.48
384.19	837.91
384.39	823.87
384.58	791.10
384.78	875.36
384.97	854.30
385.17	891.74
385.36	840.25
385.56	753.65
385.75	842.59
385.95	856.64
386.14	823.87
386.34	877.70
386.53	837.91
386.72	844.93
386.92	908.13
387.11	882.38
387.31	863.66
387.50	809.83
387.70	896.43
387.89	898.77
388.09	875.36
388.28	910.47
388.48	833.23
388.67	994.73
388.86	903.45
389.06	866.00
389.25	976.00
389.45	896.43
389.64	980.68
389.84	990.05
390.03	971.32
390.22	976.00
390.42	950.26
390.61	915.15
390.81	954.94
391.00	1048.56
391.19	1004.09
391.39	940.90
391.58	1043.88
391.78	997.07
391.97	973.66
392.16	1018.13
392.36	1001.75
392.55	1062.60
392.75	1067.28
392.94	1046.22
393.13	1060.26
393.33	1076.65
393.52	1116.44
393.71	1053.24
393.91	1053.24
394.10	1086.01
394.29	1132.82
394.49	1093.03
394.68	1179.63
394.88	1111.75
395.07	1191.33
395.26	1156.22
395.46	1188.99
395.65	1165.59
395.84	1284.95
396.04	1125.80
396.23	1226.44
396.42	1273.25
396.62	1348.15
396.81	1254.53
397.00	1200.69
397.19	1163.25
397.39	1200.69
397.58	1301.34
397.77	1303.68
397.97	1259.21
398.16	1249.85
398.35	1345.81
398.55	1184.31
398.74	1247.51
398.93	1327.08
399.12	1336.45
399.32	1303.68
399.51	1338.79
399.70	1245.16
399.90	1315.38
400.09	1423.05
400.28	1291.98
400.47	1362.19
400.67	1418.36
400.86	1504.96
401.05	1413.68
401.24	1455.81
401.44	1502.62
401.63	1469.86
401.82	1554.12
402.01	1458.15
402.21	1544.75
402.40	1434.75
402.59	1502.62
402.78	1462.83
402.97	1554.12
403.17	1528.37
403.36	1657.10
403.55	1561.14
403.74	1570.50
403.93	1621.99
404.13	1636.03
404.32	1521.35
404.51	1605.61
404.70	1724.97
404.89	1600.93
405.09	1827.96
405.28	1682.85
405.47	1776.47
405.66	1776.47
405.85	1701.57
406.05	1739.02
406.24	1654.76
406.43	1764.76
406.62	1844.34
406.81	1846.68
407.00	1750.72
407.20	1816.26
407.39	1753.06
407.58	1741.36
407.77	1783.49
407.96	1764.76
408.15	1818.60
408.34	1907.54
408.54	1937.96
408.73	1881.79
408.92	1947.33
409.11	1926.26
409.30	1975.41
409.49	1959.03
409.68	1984.77
409.87	2001.16
410.07	2129.89
410.26	2129.89
410.45	2022.22
410.64	2097.12
410.83	2066.69
411.02	2026.90
411.21	2165.00
411.40	2134.57
411.59	2143.93
411.78	2246.91
411.98	2267.98
412.17	2197.76
412.36	2237.55
412.55	2385.01
412.74	2415.43
412.93	2326.49
413.12	2420.11
413.31	2422.45
413.50	2363.94
413.69	2469.27
413.88	2459.90
414.07	2462.24
414.26	2410.75
414.45	2654.17
414.64	2565.23
414.83	2574.59
415.02	2642.46
415.22	2682.25
415.41	2754.81
415.60	2560.55
415.79	2661.19
415.98	2745.45
416.17	2799.28
416.36	2818.00
416.55	2876.52
416.74	2850.77
416.93	2818.00
417.12	2787.58
417.31	2857.79
417.50	2951.42
417.69	3080.14
417.88	2925.67
418.07	2972.48
418.26	2963.12
418.45	2995.89
418.64	3054.40
418.83	3052.06
419.02	3143.34
419.21	3124.62
419.39	3108.23
419.58	3009.93
419.77	3068.44
419.96	3166.74
420.15	3239.30
420.34	3110.57
420.53	3126.96
420.72	3304.84
420.91	3318.88
421.10	3297.81
421.29	3393.78
421.48	3274.41
421.67	3316.54
421.86	3211.22
422.05	3405.48
422.24	3239.30
422.43	3363.35
422.61	3407.82
422.80	3368.03
422.99	3328.24
423.18	3382.07
423.37	3382.07
423.56	3384.41
423.75	3428.88
423.94	3351.65
424.13	3049.72
424.32	3248.66
424.50	3562.30
424.69	3606.77
424.88	3445.27
425.07	3442.93
425.26	3566.98
425.45	3513.14
425.64	3337.60
425.83	3478.04
426.01	3606.77
426.20	3449.95
426.39	3630.17
426.58	3410.16
426.77	3426.54
426.96	3550.59
427.15	3480.38
427.33	3557.61
427.52	3590.38
427.71	3618.47
427.90	3721.45
428.09	3777.62
428.28	3684.00
428.46	3784.65
428.65	3660.60
428.84	3840.82
429.03	3815.07
429.22	3756.56
429.40	3932.10
429.59	3906.35
429.78	3681.66
429.97	3695.71
430.16	3894.65
430.34	3948.48
430.53	3962.53
430.72	3875.93
430.91	3983.59
431.10	3803.37
431.28	3953.16
431.47	3969.55
431.66	4081.89
431.85	3936.78
432.03	4049.13
432.22	4154.45
432.41	4175.52
432.60	4032.74
432.79	4018.70
432.97	4007.00
433.16	4105.30
433.35	4023.38
433.54	4259.78
433.72	4203.60
433.91	4147.43
434.10	4344.03
434.28	4283.18
434.47	4332.33
434.66	4250.41
434.85	4367.44
435.03	4269.14
435.22	4372.12
435.41	4432.97
435.59	4400.21
435.78	4283.18
435.97	4351.06
436.16	4222.33
436.34	4416.59
436.53	4409.57
436.72	4521.92
436.90	4411.91
437.09	4528.94
437.28	4421.27
437.46	4526.60
437.65	4479.79
437.84	4678.73
438.02	4566.39
438.21	4594.47
438.40	4559.36
438.58	4809.80
438.77	4716.18
438.96	4755.97
439.14	4753.63
439.33	4798.10
439.52	4861.29
439.70	4999.38
439.89	5083.64
440.08	4971.30
440.26	5135.14
440.45	5057.90
440.63	5165.56
440.82	5001.72
441.01	5263.86
441.19	5205.35
441.38	5301.31
441.57	5404.30
441.75	5289.61
441.94	5397.28
442.12	5277.91
442.31	5336.42
442.50	5408.98
442.68	5327.06
442.87	5533.03
443.05	5537.71
443.24	5621.97
443.43	5664.10
443.61	5614.95
443.80	5771.76
443.98	5380.89
444.17	5362.17
444.35	5556.43
444.54	5722.61
444.73	5643.03
444.91	5565.79
445.10	5795.17
445.28	5643.03
445.47	5600.90
445.65	5448.77
445.84	5743.67
446.02	5708.57
446.21	5614.95
446.39	5746.02
446.58	5900.49
446.77	5792.83
446.95	5624.31
447.14	5734.31
447.32	5856.02
447.51	5771.76
447.69	5724.95
447.88	5809.21
448.06	5816.23
448.25	5877.09
448.43	5685.16
448.62	5799.85
448.80	5849.00
448.99	5802.19
449.17	5858.36
449.36	5991.77
449.54	6017.52
449.73	6125.18
449.91	6305.40
450.10	6078.37
450.28	6246.89
450.46	6211.78
450.65	6153.27
450.83	6083.05
451.02	6148.59
451.20	6235.19
451.39	6249.23
451.57	6253.91
451.76	6071.35
451.94	6146.25
452.13	6375.62
452.31	6328.81
452.49	6162.63
452.68	6216.46
452.86	6392.00
453.05	6518.39
453.23	6403.71
453.42	6377.96
453.60	6286.68
453.78	6569.88
453.97	6361.58
454.15	6506.69
454.34	6326.47
454.52	6420.09
454.70	6502.01
454.89	6609.67
455.07	6511.37
455.26	6530.09
455.44	6923.30
455.62	6663.51
455.81	6623.72
455.99	6696.27
456.17	6787.55
456.36	6846.07
456.54	6906.92
456.73	7103.53
456.91	7016.93
457.09	6977.14
457.28	6942.03
457.46	6913.94
457.64	7061.40
457.83	7042.67
458.01	7119.91
458.19	7255.66
458.38	6977.14
458.56	7068.42
458.74	7089.48
458.93	7290.77
459.11	7208.85
459.29	7208.85
459.48	7262.68
459.66	7227.57
459.84	7304.81
460.03	7396.09
460.21	7414.82
460.39	7407.80
460.57	7618.44
460.76	7536.52
460.94	7683.98
461.12	7637.17
461.31	7562.27
461.49	7573.97
461.67	7543.55
461.85	7763.56
462.04	7571.63
462.22	7981.23
462.40	7840.79
462.59	7939.10
462.77	7775.26
462.95	7751.85
463.13	7660.57
463.32	7779.94
463.50	7845.48
463.68	8004.63
463.86	7885.26
464.05	7836.11
464.23	7822.07
464.41	8079.53
464.59	7749.51
464.78	8224.64
464.96	7936.76
465.14	8013.99
465.32	8112.30
465.50	8095.91
465.69	8018.68
465.87	8336.99
466.05	8318.26
466.23	8154.43
466.41	8152.09
466.60	8428.27
466.78	8156.77
466.96	8243.37
467.14	8252.73
467.32	8362.73
467.51	8461.04
467.69	8299.54
467.87	8341.67
468.05	8423.59
468.23	8355.71
468.41	8472.74
468.60	8379.12
468.78	8404.86
468.96	8564.02
469.14	8540.61
469.32	8606.15
469.50	8664.66
469.69	8631.90
469.87	8531.25
470.05	8779.35
470.23	8905.74
470.41	8725.52
470.59	8945.53
470.77	9043.83
470.95	8994.68
471.14	9046.17
471.32	8844.88
471.50	9104.68
471.68	9006.38
471.86	9151.49
472.04	9020.42
472.22	9432.36
472.40	9191.28
472.58	9034.47
472.77	9235.75
472.95	9397.25
473.13	9764.72
473.31	9521.30
473.49	9741.31
473.67	9448.74
473.85	9530.66
474.03	9790.46
474.21	9701.52
474.39	9898.13
474.57	9942.60
474.75	9832.59
474.93	9947.28
475.12	9987.07
475.30	10092.39
475.48	9944.94
475.66	10122.82
475.84	10183.67
476.02	10296.02
476.20	10331.12
476.38	10602.63
476.56	10649.44
476.74	10785.19
476.92	10658.80
477.10	10499.64
477.28	10820.30
477.46	10539.43
477.64	10967.75
477.82	10878.81
478.00	11213.51
478.18	11157.33
478.36	11147.97
478.54	11108.18
478.72	11513.10
478.90	11522.46
479.08	11630.12
479.26	11604.38
479.44	11714.38
479.62	11592.67
479.80	12023.33
479.98	12063.12
480.16	12250.36
480.34	12243.34
480.52	12470.37
480.70	12245.68
480.88	12116.95
481.06	12542.93
481.24	12638.89
481.41	12500.80
481.59	12809.75
481.77	12760.60
481.95	12886.99
482.13	13011.04
482.31	13144.45
482.49	13397.23
482.67	13392.55
482.85	13547.02
483.03	13619.58
483.21	13675.75
483.39	13771.71
483.57	13675.75
483.74	13916.83
483.92	14305.35
484.10	14197.69
484.28	14310.04
484.46	14387.27
484.64	14759.42
484.82	14773.46
485.00	14389.61
485.18	15131.56
485.35	15000.49
485.53	15019.22
485.71	15370.30
485.89	15367.96
486.07	15339.87
486.25	15435.83
486.43	15484.98
486.61	15775.21
486.78	15747.12
486.96	15997.56
487.14	16009.26
487.32	15948.41
487.50	16348.64
487.68	16402.47
487.85	16968.88
488.03	16870.58
488.21	17025.06
488.39	16737.17
488.57	17158.47
488.75	17151.45
488.92	17352.73
489.10	17652.32
489.28	17434.65
489.46	17680.41
489.64	17745.94
489.81	18256.18
489.99	18120.43
490.17	18443.42
490.35	18504.28
490.53	18574.49
490.70	18633.00
490.88	18717.26
491.06	18981.74
491.24	18974.72
491.41	19082.39
491.59	19028.56
491.77	19248.57
491.95	19466.24
492.13	19559.86
492.30	19847.74
492.48	19843.06
492.66	19934.34
492.84	19845.40
493.01	20210.53
493.19	19999.88
493.37	20343.94
493.54	20322.87
493.72	20662.25
493.90	20748.85
494.08	20858.85
494.25	21209.93
494.43	21008.65
494.61	21413.56
494.79	21362.07
494.96	21399.52
495.14	21397.18
495.32	21958.91
495.49	21965.93
495.67	21869.97
495.85	21989.33
496.02	22108.70
496.20	22511.27
496.38	22530.00
496.55	22642.34
496.73	22920.87
496.91	22869.37
497.09	22892.78
497.26	23222.80
497.44	22717.24
497.62	23124.49
497.79	23557.49
497.97	23440.47
498.14	23529.41
498.32	23821.97
498.50	23910.91
498.67	23868.78
498.85	23920.28
499.03	24058.37
499.20	24044.32
499.38	23810.27
499.56	24257.31
499.73	24678.61
499.91	24589.67
500.08	24608.39
500.26	24648.18
500.44	25043.73
500.61	24816.70
500.79	24732.44
500.97	25453.33
501.14	24994.58
501.32	25247.36
501.49	25446.30
501.67	25397.15
501.84	25722.49
502.02	25340.98
502.20	25577.37
502.37	25888.67
502.55	25750.57
502.72	25876.96
502.90	26101.65
503.07	26033.78
503.25	26174.21
503.43	26019.74
503.60	26754.66
503.78	26661.04
503.95	26324.01
504.13	26492.52
504.30	26878.71
504.48	26593.17
504.65	26799.13
504.83	27197.02
505.01	27225.11
505.18	27122.13
505.36	27379.59
505.53	27461.51
505.71	27658.11
505.88	27583.21
506.06	27653.43
506.23	27482.57
506.41	27302.35
506.58	27896.85
506.76	27548.11
506.93	27690.88
507.11	27901.53
507.28	28072.39
507.46	27946.00
507.63	28418.78
507.81	28840.08
507.98	28587.30
508.16	28776.89
508.33	28584.96
508.50	28463.25
508.68	29053.07
508.85	29013.28
509.03	29041.37
509.20	29151.37
509.38	29186.48
509.55	29329.25
509.73	29289.46
509.90	29469.69
510.08	29539.90
510.25	29446.28
510.42	29610.12
510.60	29673.31
510.77	29872.26
510.95	30148.44
511.12	30000.99
511.30	30157.80
511.47	30176.53
511.64	30183.55
511.82	30551.01
511.99	30567.40
512.17	30230.36
512.34	30347.39
512.51	30771.02
512.69	30850.60
512.86	30902.09
513.04	31061.25
513.21	30937.20
513.38	31175.94
513.56	31087.00
513.73	31384.24
513.90	31379.56
514.08	31187.64
514.25	31463.82
514.43	31583.19
514.60	31585.53
514.77	31976.40
514.95	31828.95
515.12	31683.83
515.29	31901.50
515.47	31990.44
515.64	31878.10
515.81	32163.64
515.99	32203.43
516.16	32683.24
516.33	32184.71
516.51	32594.30
516.68	32505.36
516.85	32561.53
517.03	32863.46
517.20	32701.96
517.37	32496.00
517.54	32989.85
517.72	33362.00
517.89	32985.17
518.06	32835.38
518.24	33219.22
518.41	33226.24
518.58	33113.90
518.75	33060.07
518.93	33565.62
519.10	33486.04
519.27	33404.13
519.45	33626.48
519.62	33560.94
519.79	33684.99
519.96	33654.56
520.14	33577.33
520.31	33713.08
520.48	34122.67
520.65	34277.15
520.83	34504.18
521.00	34436.30
521.17	34515.88
521.34	34162.46
521.52	34611.84
521.69	34572.05
521.86	34969.94
522.03	35019.10
522.20	34787.38
522.38	35234.42
522.55	35274.21
522.72	35030.80
522.89	35204.00
523.07	35543.38
523.24	35311.66
523.41	35466.14
523.58	35072.93
523.75	35658.06
523.92	35477.84
524.10	35749.34
524.27	35573.80
524.44	35658.06
524.61	35747.00
524.78	36077.02
524.96	35943.61
525.13	36006.80
525.30	36247.88
525.47	36006.80
525.64	36453.84
525.81	36720.66
525.98	36486.61
526.16	36783.86
526.33	36903.23
526.50	36676.19
526.67	36643.43
526.84	36605.98
527.01	36694.92
527.18	36566.19
527.36	37057.70
527.53	37048.34
527.70	36966.42
527.87	37010.89
528.04	36882.16
528.21	37020.25
528.38	37263.67
528.55	37687.31
528.72	37558.58
528.89	36891.52
529.07	37219.20
529.24	37109.19
529.41	37736.46
529.58	37434.53
529.75	37649.86
529.92	38038.39
530.09	37949.45
530.26	37881.57
530.43	38136.69
530.60	37757.52
530.77	37621.77
530.94	38117.96
531.11	37991.58
531.28	38019.66
531.46	38108.60
531.63	38167.12
531.80	38047.75
531.97	38438.62
532.14	38326.27
532.31	38431.60
532.48	38649.27
532.65	38611.82
532.82	38181.16
532.99	38773.31
533.16	38167.12
533.33	38635.22
533.50	39079.92
533.67	38649.27
533.84	38529.90
534.01	39030.77
534.18	38829.49
534.35	39346.75
534.52	39175.89
534.69	39871.03
534.86	39763.36
535.03	39182.91
535.20	39150.14
535.37	39182.91
535.54	39613.57
535.71	39433.35
535.88	39772.72
536.05	39463.77
536.22	39873.37
536.38	39950.60
536.55	39573.78
536.72	39557.39
536.89	39817.19
537.06	39592.50
537.23	40517.01
537.40	40030.18
537.57	39601.86
537.74	39868.69
537.91	39948.26
538.08	40692.55
538.25	39950.60
538.42	40067.63
538.59	40711.28
538.75	40545.10
538.92	40603.61
539.09	40612.98
539.26	40603.61
539.43	40563.82
539.60	40947.67
539.77	40612.98
539.94	40629.36
540.11	40636.38
540.28	40615.32
540.44	40896.18
540.61	40854.05
540.78	40786.18
540.95	41151.30
541.12	41067.04
541.29	41163.00
541.46	41216.83
541.62	40823.62
541.79	41104.49
541.96	41071.72
542.13	40814.26
542.30	40959.38
542.47	41399.40
542.63	41668.56
542.80	41654.51
542.97	41488.34
543.14	41806.65
543.31	41783.24
543.48	41556.21
543.64	42813.08
543.81	42267.73
543.98	41965.81
544.15	42150.71
544.32	42415.19
544.48	42689.03
544.65	42150.71
544.82	42457.32
544.99	41970.49
545.16	42012.62
545.32	42211.56
545.49	42738.18
545.66	42560.30
545.83	42761.59
546.00	42890.32
546.16	42508.81
546.33	42572.00
546.50	42483.06
546.67	42955.85
546.83	41968.15
547.00	42691.37
547.17	43140.75
547.34	42937.13
547.50	43028.41
547.67	43257.78
547.84	43112.67
548.00	43339.70
548.17	43199.27
548.34	42988.62
548.51	43562.05
548.67	43271.82
548.84	43278.85
549.01	42923.08
549.18	43178.20
549.34	43751.63
549.51	43477.79
549.68	43379.49
549.84	43463.75
550.01	43999.73
550.18	43730.57
550.34	43899.09
550.51	43917.81
550.68	43796.10
550.84	43342.04
551.01	44105.06
551.18	43796.10
551.34	43714.19
551.51	43763.34
551.68	43779.72
551.84	43995.05
552.01	43620.56
552.18	43852.28
552.34	43756.32
552.51	43863.98
552.68	43903.77
552.84	44320.38
553.01	44292.30
553.18	43828.87
553.34	44411.67
553.51	44385.92
553.67	43913.13
553.84	44348.47
554.01	44711.25
554.17	44465.50
554.34	44704.23
554.51	44666.78
554.67	45282.34
554.84	44729.98
555.00	44659.76
555.17	44610.61
555.33	44556.78
555.50	44652.74
555.67	44762.75
555.83	44858.71
556.00	45181.70
556.16	45532.78
556.33	45071.70
556.50	44741.68
556.66	45413.41
556.83	44737.00
556.99	45015.52
557.16	45312.77
557.32	45062.33
557.49	44821.26
557.65	44804.88
557.82	44964.03
557.98	45076.38
558.15	44872.75
558.32	45116.17
558.48	45228.51
558.65	45043.61
558.81	45256.60
558.98	45085.74
559.14	45303.41
559.31	45563.21
559.47	45125.53
559.64	45371.28
559.80	45617.04
559.97	45626.40
560.13	45373.63
560.30	45387.67
560.46	45977.48
560.63	45598.32
560.79	45546.82
560.96	46115.58
561.12	45883.86
561.29	45574.91
561.45	45874.50
561.61	45684.92
561.78	45408.73
561.94	45525.76
562.11	45801.94
562.27	46038.34
562.44	45642.79
562.60	46050.04
562.77	45638.11
562.93	45661.51
563.10	46450.27
563.26	45560.87
563.42	46319.20
563.59	45483.63
563.75	45839.39
563.92	46148.34
564.08	45815.99
564.24	46305.16
564.41	46026.63
564.57	46167.07
564.74	46171.75
564.90	45921.31
565.07	46223.24
565.23	46017.27
565.39	46258.35
565.56	46380.06
565.72	46085.15
565.88	46557.94
566.05	46050.04
566.21	46417.50
566.38	45776.20
566.54	46679.64
566.70	46351.97
566.87	46351.97
567.03	46328.56
567.19	46342.61
567.36	46260.69
567.52	46127.28
567.68	46644.54
567.85	46607.09
568.01	46775.61
568.17	46319.20
568.34	46471.34
568.50	46527.51
568.66	46330.90
568.83	46541.55
568.99	46658.58
569.15	46560.28
569.32	46122.60
569.48	46623.47
569.64	46934.76
569.81	46674.96
569.97	46698.37
570.13	46761.56
570.30	46227.92
570.46	47021.36
570.62	46494.74
570.78	46663.26
570.95	46370.69
571.11	46768.58
571.27	46588.36
571.43	46410.48
571.60	46862.21
571.76	46583.68
571.92	46887.95
572.09	46689.01
572.25	46838.80
572.41	46902.00
572.57	46504.10
572.74	47122.01
572.90	46677.30
573.06	46567.30
573.22	46887.95
573.38	46958.17
573.55	47203.92
573.71	47201.58
573.87	47227.33
574.03	47072.85
574.20	47117.32
574.36	46976.89
574.52	47016.68
574.68	46796.67
574.84	47215.63
575.01	47084.56
575.17	47206.26
575.33	47047.11
575.49	47096.26
575.65	46904.34
575.82	47068.17
575.98	46801.35
576.14	47224.99
576.30	47306.91
576.46	47016.68
576.62	47257.76
576.79	46799.01
576.95	46761.56
577.11	46309.84
577.27	46799.01
577.43	47313.93
577.59	47161.79
577.75	47049.45
577.92	47044.77
578.08	46944.12
578.24	47033.07
578.40	47461.38
578.56	47126.69
578.72	47564.37
578.88	47058.81
579.04	47381.80
579.21	47028.38
579.37	47288.18
579.53	47346.70
579.69	47122.01
579.85	46923.06
580.01	47054.13
580.17	47075.19
580.33	47440.32
580.49	47650.97
580.65	47400.53
580.82	47012.00
580.98	47098.60
581.14	46667.94
581.30	47232.01
581.46	46887.95
581.62	47154.77
581.78	46965.19
581.94	47236.69
582.10	46862.21
582.26	47412.23
582.42	47297.55
582.58	47566.71
582.74	47690.76
582.90	47309.25
583.06	47646.29
583.22	47098.60
583.38	47559.69
583.54	47512.88
583.70	47672.03
583.86	47276.48
584.02	47295.21
584.18	47798.42
584.34	47538.62
584.50	47480.11
584.66	47346.70
584.82	47522.24
584.98	47648.63
585.14	47433.30
585.30	47154.77
585.46	47608.84
585.62	46993.28
585.78	47363.08
585.94	47030.72
586.10	47360.74
586.26	47208.61
586.42	47103.28
586.58	47381.80
586.74	47498.83
586.90	46880.93
587.06	47653.31
587.22	47608.84
587.38	47152.43
587.54	47810.12
587.70	47650.97
587.86	48023.11
588.02	47260.10
588.18	47845.23
588.34	47496.49
588.49	47679.05
588.65	47601.82
588.81	47807.78
588.97	47672.03
589.13	47562.03
589.29	47414.57
589.45	48027.79
589.61	47674.37
589.77	47941.19
589.93	47662.67
590.08	47592.45
