SpectraSuite Data File
++++++++++++++++++++++++++++++++++++
Date: Fri Oct 25 11:33:35 EDT 2013
User: price-jones
Dark Spectrum Present: No
Reference Spectrum Present: No
Number of Sampled Component Spectra: 1
Spectrometers: USB2+H05261
Integration Time (usec): 100000 (USB2+H05261)
Spectra Averaged: 1 (USB2+H05261)
Boxcar Smoothing: 0 (USB2+H05261)
Correct for Electrical Dark: No (USB2+H05261)
Strobe/Lamp Enabled: No (USB2+H05261)
Correct for Detector Non-linearity: No (USB2+H05261)
Correct for Stray Light: No (USB2+H05261)
Number of Pixels in Processed Spectrum: 2048
>>>>>Begin Processed Spectral Data<<<<<
365.73	304.27
365.92	304.27
366.12	304.27
366.32	234.05
366.52	147.45
366.72	168.52
366.91	145.11
367.11	163.84
367.31	168.52
367.51	173.20
367.70	138.09
367.90	182.56
368.10	147.45
368.30	196.60
368.49	138.09
368.69	198.95
368.89	170.86
369.09	170.86
369.28	177.88
369.48	187.24
369.68	224.69
369.87	236.39
370.07	224.69
370.27	372.15
370.47	367.46
370.66	512.58
370.86	528.96
371.06	573.43
371.25	599.18
371.45	559.39
371.65	552.37
371.84	526.62
372.04	538.32
372.24	617.90
372.44	533.64
372.63	559.39
372.83	540.66
373.03	631.94
373.22	533.64
373.42	585.13
373.62	624.92
373.81	587.47
374.01	634.29
374.21	662.37
374.40	540.66
374.60	692.80
374.79	664.71
374.99	704.50
375.19	582.79
375.38	723.23
375.58	664.71
375.78	622.58
375.97	660.03
376.17	683.44
376.37	695.14
376.56	702.16
376.76	711.52
376.95	688.12
377.15	683.44
377.35	685.78
377.54	725.57
377.74	634.29
377.93	629.60
378.13	671.73
378.33	758.33
378.52	767.70
378.72	650.67
378.91	674.07
379.11	744.29
379.31	671.73
379.50	770.04
379.70	730.25
379.89	690.46
380.09	770.04
380.28	786.42
380.48	765.36
380.68	690.46
380.87	723.23
381.07	760.67
381.26	734.93
381.46	842.59
381.65	692.80
381.85	744.29
382.04	786.42
382.24	786.42
382.43	760.67
382.63	770.04
382.83	767.70
383.02	802.80
383.22	833.23
383.41	774.72
383.61	812.17
383.80	901.11
384.00	833.23
384.19	870.68
384.39	809.83
384.58	814.51
384.78	800.46
384.97	772.38
385.17	835.57
385.36	816.85
385.56	870.68
385.75	835.57
385.95	929.19
386.14	880.04
386.34	800.46
386.53	873.02
386.72	868.34
386.92	844.93
387.11	910.47
387.31	903.45
387.50	954.94
387.70	943.24
387.89	844.93
388.09	856.64
388.28	931.53
388.48	954.94
388.67	1013.45
388.86	887.06
389.06	880.04
389.25	894.08
389.45	936.21
389.64	990.05
389.84	933.87
390.03	959.62
390.22	903.45
390.42	959.62
390.61	898.77
390.81	976.00
391.00	1025.15
391.19	994.73
391.39	945.58
391.58	999.41
391.78	1048.56
391.97	1041.54
392.16	1022.81
392.36	1100.05
392.55	1057.92
392.75	1153.88
392.94	1041.54
393.13	1027.50
393.33	1050.90
393.52	1041.54
393.71	1132.82
393.91	1174.95
394.10	1179.63
394.29	1104.73
394.49	1083.67
394.68	1193.67
394.88	1109.41
395.07	1221.76
395.26	1071.97
395.46	1219.42
395.65	1196.01
395.84	1207.72
396.04	1207.72
396.23	1177.29
396.42	1130.48
396.62	1156.22
396.81	1231.12
397.00	1196.01
397.19	1231.12
397.39	1259.21
397.58	1252.19
397.77	1228.78
397.97	1224.10
398.16	1303.68
398.35	1273.25
398.55	1210.06
398.74	1287.29
398.93	1282.61
399.12	1341.13
399.32	1355.17
399.51	1228.78
399.70	1380.92
399.90	1331.76
400.09	1306.02
400.28	1394.96
400.47	1343.47
400.67	1462.83
400.86	1357.51
401.05	1500.28
401.24	1425.39
401.44	1420.71
401.63	1549.43
401.82	1509.65
402.01	1336.45
402.21	1535.39
402.40	1474.54
402.59	1390.28
402.78	1561.14
402.97	1528.37
403.17	1558.80
403.36	1591.56
403.55	1474.54
403.74	1523.69
403.93	1469.86
404.13	1582.20
404.32	1605.61
404.51	1600.93
404.70	1652.42
404.89	1621.99
405.09	1724.97
405.28	1717.95
405.47	1645.40
405.66	1629.01
405.85	1736.68
406.05	1732.00
406.24	1795.19
406.43	1783.49
406.62	1804.55
406.81	1820.94
407.00	1762.42
407.20	1732.00
407.39	1664.12
407.58	1842.00
407.77	1760.08
407.96	1806.89
408.15	1902.86
408.34	1926.26
408.54	1900.52
408.73	1879.45
408.92	1851.36
409.11	2054.99
409.30	2022.22
409.49	2143.93
409.68	1888.81
409.87	1928.60
410.07	2022.22
410.26	1905.20
410.45	2066.69
410.64	2019.88
410.83	2129.89
411.02	2115.84
411.21	2132.23
411.40	2139.25
411.59	2218.83
411.78	2113.50
411.98	2153.29
412.17	2251.60
412.36	2293.72
412.55	2279.68
412.74	2363.94
412.93	2434.16
413.12	2361.60
413.31	2513.74
413.50	2427.14
413.69	2279.68
413.88	2457.56
414.07	2382.67
414.26	2387.35
414.45	2525.44
414.64	2548.84
414.83	2485.65
415.02	2490.33
415.22	2717.36
415.41	2700.98
415.60	2539.48
415.79	2644.81
415.98	2715.02
416.17	2705.66
416.36	2679.91
416.55	2663.53
416.74	2726.72
416.93	2785.24
417.12	2888.22
417.31	2890.56
417.50	2808.64
417.69	3059.08
417.88	2906.95
418.07	2937.37
418.26	2909.29
418.45	3038.02
418.64	3115.25
418.83	3150.36
419.02	3038.02
419.21	3143.34
419.39	3171.43
419.58	3070.78
419.77	3014.61
419.96	3105.89
420.15	3185.47
420.34	3148.02
420.53	3115.25
420.72	3297.81
420.91	3208.87
421.10	3218.24
421.29	3377.39
421.48	3323.56
421.67	3246.32
421.86	3143.34
422.05	3178.45
422.24	3382.07
422.43	3286.11
422.61	3431.23
422.80	3316.54
422.99	3344.63
423.18	3478.04
423.37	3461.65
423.56	3386.76
423.75	3353.99
423.94	3258.03
424.13	3169.09
424.32	3300.16
424.50	3517.83
424.69	3510.80
424.88	3417.18
425.07	3325.90
425.26	3229.94
425.45	3353.99
425.64	3463.99
425.83	3414.84
426.01	3346.97
426.20	3414.84
426.39	3510.80
426.58	3414.84
426.77	3461.65
426.96	3569.32
427.15	3592.72
427.33	3478.04
427.52	3669.96
427.71	3609.11
427.90	3569.32
428.09	3660.60
428.28	3676.98
428.46	3700.39
428.65	3709.75
428.84	3845.50
429.03	3730.81
429.22	3634.85
429.40	3644.21
429.59	3735.50
429.78	3620.81
429.97	3583.36
430.16	3840.82
430.34	3658.26
430.53	3836.14
430.72	3885.29
430.91	3824.44
431.10	4002.32
431.28	3985.93
431.47	4032.74
431.66	3878.27
431.85	3962.53
432.03	3999.98
432.22	4007.00
432.41	4086.58
432.60	4028.06
432.79	4037.42
432.97	3978.91
433.16	4102.96
433.35	4140.41
433.54	4149.77
433.72	4170.83
433.91	4135.73
434.10	4159.13
434.28	4156.79
434.47	4287.86
434.66	4318.29
434.85	4334.67
435.03	4348.72
435.22	4367.44
435.41	4397.87
435.59	4337.01
435.78	4318.29
435.97	4442.34
436.16	4463.40
436.34	4447.02
436.53	4421.27
436.72	4500.85
436.90	4397.87
437.09	4540.64
437.28	4552.34
437.46	4505.53
437.65	4477.44
437.84	4627.24
438.02	4664.69
438.21	4739.58
438.40	4568.73
438.58	4685.75
438.77	4788.74
438.96	4795.76
439.14	4819.16
439.33	4833.21
439.52	4943.21
439.70	4973.64
439.89	5076.62
440.08	5004.07
440.26	5015.77
440.45	5071.94
440.63	5102.37
440.82	5111.73
441.01	4926.83
441.19	5249.82
441.38	5434.72
441.57	5373.87
441.75	5401.96
441.94	5383.23
442.12	5366.85
442.31	5493.24
442.50	5509.62
442.68	5514.30
442.87	5509.62
443.05	5535.37
443.24	5526.00
443.43	5350.46
443.61	5591.54
443.80	5722.61
443.98	5366.85
444.17	5376.21
444.35	5486.22
444.54	5638.35
444.73	5558.77
444.91	5647.71
445.10	5699.20
445.28	5554.09
445.47	5495.58
445.65	5722.61
445.84	5874.74
446.02	5682.82
446.21	5666.44
446.39	5795.17
446.58	5738.99
446.77	5767.08
446.95	5643.03
447.14	5799.85
447.32	5830.27
447.51	5755.38
447.69	5729.63
447.88	5680.48
448.06	5717.93
448.25	5841.98
448.43	5708.57
448.62	5762.40
448.80	5837.30
448.99	5870.06
449.17	5877.09
449.36	5870.06
449.54	5935.60
449.73	6104.12
449.91	6083.05
450.10	6026.88
450.28	6221.14
450.46	5982.41
450.65	6153.27
450.83	6197.74
451.02	6115.82
451.20	6134.54
451.39	6265.61
451.57	6127.52
451.76	6195.40
451.94	6211.78
452.13	6188.38
452.31	6399.02
452.49	6218.80
452.68	6394.34
452.86	6370.94
453.05	6434.13
453.23	6450.52
453.42	6307.74
453.60	6317.11
453.78	6506.69
453.97	6284.34
454.15	6434.13
454.34	6321.79
454.52	6462.22
454.70	6551.16
454.89	6637.76
455.07	6429.45
455.26	6595.63
455.44	6621.38
455.62	6607.33
455.81	6707.98
455.99	6935.01
456.17	6698.61
456.36	6661.16
456.54	6778.19
456.73	6904.58
456.91	6958.41
457.09	7105.87
457.28	7026.29
457.46	7012.24
457.64	7105.87
457.83	7030.97
458.01	6984.16
458.19	7094.16
458.38	7129.27
458.56	7075.44
458.74	7166.72
458.93	7124.59
459.11	7279.07
459.29	7201.83
459.48	7370.35
459.66	7239.28
459.84	7328.22
460.03	7520.14
460.21	7506.10
460.39	7330.56
460.57	7527.16
460.76	7417.16
460.94	7384.39
461.12	7669.94
461.31	7314.17
461.49	7456.95
461.67	7393.75
461.85	7627.81
462.04	7723.77
462.22	7878.24
462.40	7616.10
462.59	7625.47
462.77	7733.13
462.95	7974.21
463.13	7744.83
463.32	7819.73
463.50	7822.07
463.68	7583.34
463.86	8046.76
464.05	7801.01
464.23	7770.58
464.41	7875.90
464.59	7793.98
464.78	8114.64
464.96	8131.02
465.14	7925.05
465.32	8184.85
465.50	8025.70
465.69	8194.22
465.87	8128.68
466.05	8116.98
466.23	8201.24
466.41	8290.18
466.60	8276.13
466.78	8191.88
466.96	8248.05
467.14	8163.79
467.32	8290.18
467.51	8425.93
467.69	8004.63
467.87	8198.90
468.05	8482.10
468.23	8568.70
468.41	8362.73
468.60	8266.77
468.78	8594.45
468.96	8454.02
469.14	8449.33
469.32	8741.90
469.50	8727.86
469.69	8725.52
469.87	8828.50
470.05	8662.32
470.23	8947.87
470.41	8851.91
470.59	8959.57
470.77	8812.12
470.95	8830.84
471.14	8982.98
471.32	8847.22
471.50	9132.77
471.68	8961.91
471.86	9214.69
472.04	9308.31
472.22	9195.96
472.40	9210.01
472.58	9228.73
472.77	9408.95
472.95	9469.81
473.13	9856.00
473.31	9193.62
473.49	9355.12
473.67	9439.38
473.85	9486.19
474.03	9671.09
474.21	9830.25
474.39	9657.05
474.57	9666.41
474.75	9748.33
474.93	9951.96
475.12	9933.23
475.30	10019.83
475.48	9998.77
475.66	9914.51
475.84	10038.56
476.02	10209.42
476.20	10377.94
476.38	10249.21
476.56	10499.64
476.74	10520.71
476.92	10710.29
477.10	10546.45
477.28	10647.10
477.46	10602.63
477.64	10965.41
477.82	11192.44
478.00	11367.98
478.18	10977.11
478.36	11438.20
478.54	11246.27
478.72	11208.83
478.90	11435.86
479.08	11332.87
479.26	11690.98
479.44	11459.26
479.62	11915.67
479.80	11999.93
479.98	12013.97
480.16	12133.34
480.34	12013.97
480.52	12166.10
480.70	12390.80
480.88	12004.61
481.06	12463.35
481.24	12512.50
481.41	12699.75
481.59	12734.85
481.77	12886.99
481.95	12971.25
482.13	13139.77
482.31	13008.70
482.49	13238.07
482.67	13184.24
482.85	13523.62
483.03	13469.78
483.21	13720.22
483.39	13806.82
483.57	13713.20
483.74	14017.47
483.92	13970.66
484.10	13961.30
484.28	14265.57
484.46	14452.81
484.64	14558.13
484.82	14539.41
485.00	14843.68
485.18	14675.16
485.35	15232.21
485.53	14829.63
485.71	15049.64
485.89	15431.15
486.07	15358.60
486.25	15356.25
486.43	15704.99
486.61	15716.70
486.78	15733.08
486.96	15845.43
487.14	16238.64
487.32	15969.48
487.50	16327.58
487.68	16437.58
487.85	16699.72
488.03	17048.46
488.21	17121.02
488.39	16924.41
488.57	17245.07
488.75	17401.88
488.92	17418.27
489.10	17547.00
489.28	17678.07
489.46	17895.74
489.64	17495.50
489.81	18178.94
489.99	18225.75
490.17	18267.88
490.35	18412.99
490.53	18555.77
490.70	18871.74
490.88	18747.69
491.06	18953.66
491.24	18927.91
491.41	19009.83
491.59	19405.38
491.77	19173.67
491.95	19374.95
492.13	19328.14
492.30	19646.46
492.48	19634.75
492.66	19786.89
492.84	20016.26
493.01	20212.87
493.19	20119.24
493.37	20215.21
493.54	20226.91
493.72	20711.40
493.90	20765.23
494.08	20821.41
494.25	21027.37
494.43	21132.70
494.61	21266.11
494.79	21472.07
494.96	21198.23
495.14	21504.84
495.32	21743.58
495.49	21394.84
495.67	21979.97
495.85	21769.32
496.02	22047.85
496.20	22466.80
496.38	22490.21
496.55	22405.95
496.73	23030.87
496.91	22860.01
497.09	23124.49
497.26	23175.98
497.44	23178.33
497.62	23185.35
497.79	23625.37
497.97	23585.58
498.14	23943.68
498.32	23679.20
498.50	23873.46
498.67	24002.19
498.85	23618.35
499.03	24198.80
499.20	24374.34
499.38	24521.79
499.56	24428.17
499.73	24322.85
499.91	24737.12
500.08	24861.17
500.26	24549.88
500.44	25032.03
500.61	24964.15
500.79	24802.66
500.97	25142.03
501.14	25383.11
501.32	25542.27
501.49	25401.83
501.67	25195.87
501.84	25610.14
502.02	25535.24
502.20	25631.21
502.37	25764.62
502.55	25860.58
502.72	25930.80
502.90	26059.52
503.07	25986.97
503.25	26008.03
503.43	25883.98
503.60	26363.79
503.78	26487.84
503.95	26237.41
504.13	26429.33
504.30	26815.52
504.48	26738.28
504.65	26639.98
504.83	26625.93
505.01	27096.38
505.18	26934.88
505.36	27077.66
505.53	27204.05
505.71	27538.74
505.88	27538.74
506.06	27648.75
506.23	28002.17
506.41	27304.69
506.58	27742.37
506.76	28067.70
506.93	27924.93
507.11	27899.19
507.28	27644.07
507.46	28512.41
507.63	28276.01
507.81	28421.13
507.98	28264.31
508.16	28531.13
508.33	28629.43
508.50	29010.94
508.68	29036.69
508.85	28952.43
509.03	29006.26
509.20	28896.25
509.38	29420.53
509.55	29474.37
509.73	29223.93
509.90	29582.03
510.08	29589.05
510.25	29631.18
510.42	29504.79
510.60	29907.37
510.77	29600.76
510.95	30265.47
511.12	29687.36
511.30	30232.70
511.47	30057.16
511.64	30061.84
511.82	30529.95
511.99	30050.14
512.17	30771.02
512.34	30754.64
512.51	30345.05
512.69	31005.08
512.86	31065.93
513.04	31105.72
513.21	31058.91
513.38	30918.48
513.56	31393.61
513.73	30799.11
513.90	31147.85
514.08	31344.45
514.25	31428.71
514.43	31407.65
514.60	31648.72
514.77	31707.24
514.95	32100.45
515.12	32004.49
515.29	31751.71
515.47	32341.52
515.64	32231.52
515.81	31903.84
515.99	32222.16
516.16	32802.61
516.33	32304.07
516.51	32730.05
516.68	32603.66
516.85	32823.67
517.03	33017.94
517.20	32699.62
517.37	32872.82
517.54	32875.16
517.72	32416.42
517.89	32907.93
518.06	33212.20
518.24	33291.78
518.41	33074.11
518.58	33074.11
518.75	33202.84
518.93	33338.59
519.10	33684.99
519.27	33680.31
519.45	33256.67
519.62	33387.74
519.79	33642.86
519.96	33841.81
520.14	34148.42
520.31	33612.43
520.48	34089.90
520.65	34078.20
520.83	34536.94
521.00	34022.03
521.17	33937.77
521.34	34658.65
521.52	34288.85
521.69	34469.07
521.86	34904.41
522.03	35213.36
522.20	34731.21
522.38	35196.98
522.55	35489.54
522.72	35204.00
522.89	35187.61
523.07	35604.23
523.24	35459.12
523.41	35143.14
523.58	35271.87
523.75	35662.74
523.92	35632.32
524.10	35761.05
524.27	35615.93
524.44	35646.36
524.61	35812.54
524.78	36044.25
524.96	36488.95
525.13	36271.28
525.30	36273.62
525.47	36112.13
525.64	36364.90
525.81	36327.45
525.98	36212.77
526.16	36531.08
526.33	36229.15
526.50	36737.05
526.67	36488.95
526.84	36854.08
527.01	36346.18
527.18	36802.58
527.36	36685.56
527.53	36828.33
527.70	36786.20
527.87	37104.51
528.04	36975.78
528.21	37001.53
528.38	37022.59
528.55	37406.44
528.72	37078.77
528.89	37158.34
529.07	37186.43
529.24	36854.08
529.41	37558.58
529.58	37429.85
529.75	37523.47
529.92	37621.77
530.09	37570.28
530.26	37993.92
530.43	37780.93
530.60	37661.56
530.77	37897.95
530.94	37876.89
531.11	37975.19
531.28	38155.41
531.46	38117.96
531.63	37989.24
531.80	38146.05
531.97	38962.90
532.14	37984.55
532.31	37977.53
532.48	38473.73
532.65	38576.71
532.82	38602.46
532.99	38644.59
533.16	38703.10
533.33	38705.44
533.50	38508.83
533.67	38529.90
533.84	38415.21
534.01	38848.21
534.18	38836.51
534.35	38925.45
534.52	39412.28
534.69	39281.21
534.86	39826.56
535.03	39466.11
535.20	39283.55
535.37	39367.81
535.54	39388.88
535.71	39351.43
535.88	39648.68
536.05	40030.18
536.22	39777.40
536.38	39894.43
536.55	39697.83
536.72	40184.66
536.89	39562.08
537.06	39978.69
537.23	40020.82
537.40	39810.17
537.57	39648.68
537.74	40069.97
537.91	40229.13
538.08	40130.83
538.25	40069.97
538.42	40346.15
538.59	40418.71
538.75	40376.58
538.92	40870.43
539.09	40795.54
539.26	40596.59
539.43	40818.94
539.60	40985.12
539.77	40151.89
539.94	41085.76
540.11	40730.00
540.28	40718.30
540.44	40657.45
540.61	40509.99
540.78	40903.20
540.95	40580.21
541.12	40795.54
541.29	40875.12
541.46	41254.28
541.62	41078.74
541.79	41045.97
541.96	41111.51
542.13	41191.09
542.30	40737.02
542.47	41268.33
542.63	41600.68
542.80	41663.88
542.97	42160.07
543.14	42139.00
543.31	41675.58
543.48	41729.41
543.64	42384.76
543.81	41904.95
543.98	41837.08
544.15	42174.11
544.32	41907.29
544.48	42562.64
544.65	42377.74
544.82	42494.77
544.99	42101.56
545.16	42368.38
545.32	42059.43
545.49	43037.77
545.66	42756.91
545.83	43070.54
546.00	42560.30
546.16	42361.36
546.33	42478.38
546.50	42253.69
546.67	42557.96
546.83	42335.61
547.00	42380.08
547.17	42642.22
547.34	42768.61
547.50	42997.98
547.67	43229.69
547.84	42639.88
548.00	43016.71
548.17	43505.88
548.34	43110.33
548.51	43491.83
548.67	43473.11
548.84	43199.27
549.01	43428.64
549.18	43475.45
549.34	43435.66
549.51	43103.31
549.68	43398.21
549.84	43828.87
550.01	43875.68
550.18	43012.02
550.34	43562.05
550.51	43646.31
550.68	43885.04
550.84	43674.40
551.01	43920.15
551.18	43501.20
551.34	43751.63
551.51	43973.98
551.68	44072.29
551.84	43782.06
552.01	43672.06
552.18	44119.10
552.34	43480.13
552.51	43917.81
552.68	44126.12
552.84	44112.08
553.01	44385.92
553.18	44018.46
553.34	44594.23
553.51	44172.93
553.67	44259.53
553.84	44587.21
554.01	44329.75
554.17	44645.72
554.34	44858.71
554.51	44425.71
554.67	44858.71
554.84	44128.46
555.00	44835.30
555.17	44790.83
555.33	44697.21
555.50	44697.21
555.67	44521.67
555.83	44968.71
556.00	44926.58
556.16	45319.79
556.33	45041.27
556.50	44858.71
556.66	44570.82
556.83	44755.72
556.99	44982.76
557.16	45280.00
557.32	45139.57
557.49	45624.06
557.65	44959.35
557.82	45134.89
557.98	44877.43
558.15	45418.10
558.32	45134.89
558.48	45125.53
558.65	45324.47
558.81	45359.58
558.98	45057.65
559.14	45626.40
559.31	45301.07
559.47	45544.48
559.64	45385.33
559.80	45567.89
559.97	45464.91
560.13	45223.83
560.30	45717.68
560.46	45773.86
560.63	45631.08
560.79	45848.75
560.96	45694.28
561.12	45815.99
561.29	45481.29
561.45	45673.21
561.61	45579.59
561.78	45804.28
561.94	45865.14
562.11	45502.35
562.27	45902.59
562.44	45633.42
562.60	46036.00
562.77	45684.92
562.93	45743.43
563.10	45677.90
563.26	46138.98
563.42	45998.55
563.59	45734.07
563.75	45886.20
563.92	45930.67
564.08	46064.08
564.24	46314.52
564.41	45605.34
564.57	46146.00
564.74	45846.41
564.90	45867.48
565.07	45904.93
565.23	46094.51
565.39	45942.38
565.56	46375.37
565.72	46230.26
565.88	46260.69
566.05	46319.20
566.21	46036.00
566.38	46021.95
566.54	46314.52
566.70	46384.74
566.87	46403.46
567.03	46078.13
567.19	46256.01
567.36	46291.12
567.52	46628.15
567.68	46873.91
567.85	46637.51
568.01	46527.51
568.17	46000.89
568.34	46623.47
568.50	46471.34
568.66	46656.24
568.83	46567.30
568.99	46340.27
569.15	47147.75
569.32	46525.17
569.48	46384.74
569.64	46724.11
569.81	46625.81
569.97	46672.62
570.13	46546.23
570.30	46272.39
570.46	46738.16
570.62	47082.22
570.78	47356.06
570.95	46529.85
571.11	46866.89
571.27	46717.09
571.43	46513.47
571.60	46988.60
571.76	46787.31
571.92	46483.04
572.09	46674.96
572.25	46452.61
572.41	46700.71
572.57	46892.63
572.74	47154.77
572.90	46899.65
573.06	47086.90
573.22	47175.84
573.38	47014.34
573.55	46508.79
573.71	47180.52
573.87	47150.09
574.03	46941.78
574.20	46916.04
574.36	46960.51
574.52	47133.71
574.68	46850.50
574.84	47332.65
575.01	47562.03
575.17	46965.19
575.33	47292.86
575.49	46440.91
575.65	47398.19
575.82	47182.86
575.98	46806.03
576.14	47222.65
576.30	47157.11
576.46	46696.03
576.62	46969.87
576.79	47065.83
576.95	46892.63
577.11	46871.57
577.27	47159.45
577.43	46714.75
577.59	47166.48
577.75	47072.85
577.92	46862.21
578.08	47030.72
578.24	46944.12
578.40	47494.15
578.56	47257.76
578.72	47122.01
578.88	47061.15
579.04	46974.55
579.21	46955.83
579.37	47302.23
579.53	47611.18
579.69	47037.75
579.85	46960.51
580.01	47435.64
580.17	46862.21
580.33	47274.14
580.49	47126.69
580.65	47562.03
580.82	47000.30
580.98	47030.72
581.14	46555.60
581.30	47077.54
581.46	47117.32
581.62	47133.71
581.78	47063.49
581.94	47395.85
582.10	47517.56
582.26	47318.61
582.42	47456.70
582.58	47337.33
582.74	47426.28
582.90	47229.67
583.06	47938.85
583.22	47182.86
583.38	47065.83
583.54	47746.93
583.70	47604.16
583.86	47421.59
584.02	46911.36
584.18	47489.47
584.34	47339.68
584.50	47393.51
584.66	47494.15
584.82	47566.71
584.98	47674.37
585.14	47880.34
585.30	47540.96
585.46	47503.51
585.62	47110.30
585.78	47562.03
585.94	46976.89
586.10	47587.77
586.26	47007.32
586.42	47295.21
586.58	47412.23
586.74	47037.75
586.90	47543.30
587.06	47445.00
587.22	47873.32
587.38	47552.66
587.54	47519.90
587.70	47931.83
587.86	47304.57
588.02	47264.78
588.18	47672.03
588.34	47615.86
588.49	47363.08
588.65	47489.47
588.81	47316.27
588.97	47709.48
589.13	47707.14
589.29	47367.76
589.45	47915.45
589.61	47423.93
589.77	47269.46
589.93	48039.50
590.08	47604.16
