SpectraSuite Data File
++++++++++++++++++++++++++++++++++++
Date: Fri Oct 25 11:23:17 EDT 2013
User: price-jones
Dark Spectrum Present: No
Reference Spectrum Present: No
Number of Sampled Component Spectra: 1
Spectrometers: USB2+H05261
Integration Time (usec): 100000 (USB2+H05261)
Spectra Averaged: 1 (USB2+H05261)
Boxcar Smoothing: 0 (USB2+H05261)
Correct for Electrical Dark: No (USB2+H05261)
Strobe/Lamp Enabled: No (USB2+H05261)
Correct for Detector Non-linearity: No (USB2+H05261)
Correct for Stray Light: No (USB2+H05261)
Number of Pixels in Processed Spectrum: 2048
>>>>>Begin Processed Spectral Data<<<<<
365.73	287.89
365.92	287.89
366.12	287.89
366.32	140.43
366.52	201.29
366.72	142.77
366.91	2.34
367.11	184.90
367.31	107.66
367.51	117.03
367.70	117.03
367.90	180.22
368.10	88.94
368.30	159.16
368.49	112.35
368.69	86.60
368.89	121.71
369.09	91.28
369.28	128.73
369.48	159.16
369.68	250.44
369.87	166.18
370.07	184.90
370.27	250.44
370.47	332.36
370.66	540.66
370.86	596.84
371.06	692.80
371.25	678.76
371.45	592.16
371.65	613.22
371.84	718.54
372.04	676.41
372.24	732.59
372.44	741.95
372.63	805.14
372.83	784.08
373.03	706.84
373.22	746.63
373.42	732.59
373.62	723.23
373.81	793.44
374.01	828.55
374.21	856.64
374.40	840.25
374.60	849.61
374.79	833.23
374.99	842.59
375.19	837.91
375.38	819.19
375.58	851.96
375.78	926.85
375.97	866.00
376.17	877.70
376.37	931.53
376.56	882.38
376.76	919.83
376.95	833.23
377.15	924.51
377.35	880.04
377.54	882.38
377.74	929.19
377.93	922.17
378.13	880.04
378.33	863.66
378.52	866.00
378.72	903.45
378.91	919.83
379.11	919.83
379.31	936.21
379.50	917.49
379.70	931.53
379.89	999.41
380.09	1043.88
380.28	983.02
380.48	954.94
380.68	950.26
380.87	952.60
381.07	1043.88
381.26	1062.60
381.46	957.28
381.65	973.66
381.85	987.71
382.04	999.41
382.24	1041.54
382.43	1053.24
382.63	1025.15
382.83	1025.15
383.02	1097.71
383.22	1104.73
383.41	1146.86
383.61	1132.82
383.80	1144.52
384.00	1123.46
384.19	1116.44
384.39	1160.91
384.58	1118.78
384.78	1174.95
384.97	1186.65
385.17	1165.59
385.36	1186.65
385.56	1149.20
385.75	1128.14
385.95	1137.50
386.14	1240.48
386.34	1193.67
386.53	1144.52
386.72	1226.44
386.92	1289.64
387.11	1320.06
387.31	1329.42
387.50	1181.97
387.70	1224.10
387.89	1240.48
388.09	1275.59
388.28	1266.23
388.48	1334.11
388.67	1406.66
388.86	1322.40
389.06	1310.70
389.25	1390.28
389.45	1308.36
389.64	1294.32
389.84	1373.89
390.03	1331.76
390.22	1336.45
390.42	1287.29
390.61	1390.28
390.81	1329.42
391.00	1432.41
391.19	1465.18
391.39	1401.98
391.58	1416.02
391.78	1446.45
391.97	1486.24
392.16	1460.49
392.36	1526.03
392.55	1460.49
392.75	1514.33
392.94	1479.22
393.13	1652.42
393.33	1474.54
393.52	1481.56
393.71	1673.48
393.91	1617.31
394.10	1535.39
394.29	1610.29
394.49	1626.67
394.68	1706.25
394.88	1680.50
395.07	1739.02
395.26	1640.72
395.46	1654.76
395.65	1678.16
395.84	1675.82
396.04	1804.55
396.23	1643.06
396.42	1820.94
396.62	1647.74
396.81	1844.34
397.00	1743.70
397.19	1762.42
397.39	1837.32
397.58	1858.39
397.77	1886.47
397.97	2005.84
398.16	1832.64
398.35	1926.26
398.55	1858.39
398.74	1898.17
398.93	1839.66
399.12	1982.43
399.32	1949.67
399.51	1895.83
399.70	2024.56
399.90	1961.37
400.09	2083.08
400.28	2076.06
400.47	2033.93
400.67	2050.31
400.86	2202.44
401.05	2139.25
401.24	2122.87
401.44	2207.13
401.63	2165.00
401.82	2214.15
402.01	2148.61
402.21	2153.29
402.40	2169.68
402.59	2120.53
402.78	2279.68
402.97	2190.74
403.17	2284.36
403.36	2284.36
403.55	2303.09
403.74	2497.35
403.93	2366.28
404.13	2296.07
404.32	2469.27
404.51	2396.71
404.70	2396.71
404.89	2438.84
405.09	2504.37
405.28	2527.78
405.47	2434.16
405.66	2509.05
405.85	2497.35
406.05	2466.92
406.24	2635.44
406.43	2579.27
406.62	2635.44
406.81	2764.17
407.00	2560.55
407.20	2590.97
407.39	2665.87
407.58	2808.64
407.77	2724.38
407.96	2775.88
408.15	2761.83
408.34	2743.11
408.54	2813.32
408.73	2853.11
408.92	2878.86
409.11	2855.45
409.30	2885.88
409.49	3009.93
409.68	3019.29
409.87	2981.84
410.07	2979.50
410.26	2932.69
410.45	3075.46
410.64	3255.69
410.83	3110.57
411.02	3112.91
411.21	3185.47
411.40	3213.56
411.59	3232.28
411.78	3215.90
411.98	3342.28
412.17	3370.37
412.36	3346.97
412.55	3424.20
412.74	3454.63
412.93	3370.37
413.12	3316.54
413.31	3630.17
413.50	3559.95
413.69	3545.91
413.88	3499.10
414.07	3646.55
414.26	3527.19
414.45	3794.01
414.64	3749.54
414.83	3721.45
415.02	3932.10
415.22	3920.40
415.41	3957.85
415.60	3953.16
415.79	3838.48
415.98	4119.34
416.17	4063.17
416.36	4077.21
416.55	3988.27
416.74	4023.38
416.93	4142.75
417.12	4081.89
417.31	4229.35
417.50	4173.18
417.69	4318.29
417.88	4369.78
418.07	4444.68
418.26	4297.22
418.45	4367.44
418.64	4531.28
418.83	4456.38
419.02	4425.95
419.21	4496.17
419.39	4526.60
419.58	4533.62
419.77	4533.62
419.96	4718.52
420.15	4603.83
420.34	4608.51
420.53	4678.73
420.72	4828.53
420.91	4800.44
421.10	4894.06
421.29	4882.36
421.48	4861.29
421.67	4713.84
421.86	4681.07
422.05	4912.78
422.24	4807.46
422.43	4922.15
422.61	4901.08
422.80	4994.70
422.99	4994.70
423.18	4973.64
423.37	5116.41
423.56	4961.94
423.75	5020.45
423.94	4908.10
424.13	4634.26
424.32	4849.59
424.50	5006.41
424.69	5315.36
424.88	5165.56
425.07	5078.96
425.26	5060.24
425.45	4945.55
425.64	4945.55
425.83	5121.09
426.01	5160.88
426.20	5036.83
426.39	5053.22
426.58	5029.81
426.77	5212.37
426.96	5083.64
427.15	5085.98
427.33	5380.89
427.52	5317.70
427.71	5153.86
427.90	5261.52
428.09	5401.96
428.28	5352.81
428.46	5378.55
428.65	5462.81
428.84	5617.29
429.03	5479.19
429.22	5465.15
429.40	5586.86
429.59	5589.20
429.78	5341.10
429.97	5401.96
430.16	5511.96
430.34	5809.21
430.53	5614.95
430.72	5818.57
430.91	5724.95
431.10	5643.03
431.28	5792.83
431.47	5778.78
431.66	5944.96
431.85	5919.21
432.03	5823.25
432.22	6057.31
432.41	6052.63
432.60	6047.94
432.79	6040.92
432.97	6054.97
433.16	6202.42
433.35	5973.05
433.54	6146.25
433.72	6190.72
433.91	6202.42
434.10	6195.40
434.28	6195.40
434.47	6101.78
434.66	6384.98
434.85	6434.13
435.03	6342.85
435.22	6221.14
435.41	6406.05
435.59	6452.86
435.78	6438.81
435.97	6581.59
436.16	6438.81
436.34	6567.54
436.53	6665.85
436.72	6698.61
436.90	6684.57
437.09	6499.67
437.28	6513.71
437.46	6651.80
437.65	6658.82
437.84	6965.43
438.02	6775.85
438.21	6949.05
438.40	6930.33
438.58	7115.23
438.77	7129.27
438.96	7016.93
439.14	7082.46
439.33	7414.82
439.52	7190.13
439.70	7183.10
439.89	7318.86
440.08	7499.08
440.26	7372.69
440.45	7508.44
440.63	7637.17
440.82	7761.22
441.01	7660.57
441.19	7756.54
441.38	7894.63
441.57	7805.69
441.75	7957.82
441.94	8147.40
442.12	8121.66
442.31	8107.62
442.50	8201.24
442.68	8173.15
442.87	8109.96
443.05	8168.47
443.24	8285.50
443.43	8320.60
443.61	8479.76
443.80	8496.14
443.98	8126.34
444.17	7976.55
444.35	8362.73
444.54	8468.06
444.73	8479.76
444.91	8262.09
445.10	8606.15
445.28	8510.19
445.47	8255.07
445.65	8468.06
445.84	8571.04
446.02	8772.33
446.21	8566.36
446.39	8369.76
446.58	8856.59
446.77	8751.26
446.95	8322.94
447.14	8533.59
447.32	8692.75
447.51	8594.45
447.69	8589.77
447.88	8627.21
448.06	8601.47
448.25	8837.86
448.43	8624.87
448.62	8748.92
448.80	8727.86
448.99	8980.64
449.17	8884.67
449.36	8674.03
449.54	8826.16
449.73	8947.87
449.91	9217.03
450.10	9022.77
450.28	9252.14
450.46	9320.01
450.65	9153.84
450.83	9172.56
451.02	9085.96
451.20	9069.58
451.39	9107.02
451.57	9254.48
451.76	9181.92
451.94	9207.67
452.13	9359.80
452.31	9465.13
452.49	9331.72
452.68	9469.81
452.86	9521.30
453.05	9572.79
453.23	9586.83
453.42	9437.04
453.60	9390.23
453.78	9582.15
453.97	9486.19
454.15	9479.17
454.34	9689.82
454.52	9844.29
454.70	9823.23
454.89	9870.04
455.07	9783.44
455.26	10024.51
455.44	9870.04
455.62	10022.17
455.81	9991.75
455.99	10068.98
456.17	10125.16
456.36	10174.31
456.54	10174.31
456.73	10214.10
456.91	10537.09
457.09	10534.75
457.28	10782.85
457.46	10406.02
457.64	10761.78
457.83	10714.97
458.01	10490.28
458.19	10817.96
458.38	10745.40
458.56	10991.16
458.74	10799.23
458.93	10967.75
459.11	11007.54
459.29	11059.03
459.48	11089.46
459.66	10815.62
459.84	10970.09
460.03	10981.79
460.21	11012.22
460.39	11178.40
460.57	11236.91
460.76	11330.53
460.94	11501.39
461.12	11410.11
461.31	11222.87
461.49	11183.08
461.67	11494.37
461.85	11700.34
462.04	11599.70
462.22	11557.57
462.40	11805.66
462.59	11733.11
462.77	11470.97
462.95	11857.15
463.13	11873.54
463.32	11974.18
463.50	11721.40
463.68	11910.99
463.86	12140.36
464.05	11836.09
464.23	11819.71
464.41	12013.97
464.59	11756.51
464.78	12147.38
464.96	12142.70
465.14	12004.61
465.32	12409.52
465.50	12318.24
465.69	12142.70
465.87	12308.88
466.05	12453.99
466.23	12280.79
466.41	12624.85
466.60	12629.53
466.78	12432.93
466.96	12287.81
467.14	12538.25
467.32	12376.75
467.51	12517.18
467.69	12245.68
467.87	12706.77
468.05	12872.95
468.23	12585.06
468.41	12674.00
468.60	12648.26
468.78	12851.88
468.96	12657.62
469.14	12947.84
469.32	13121.04
469.50	12695.07
469.69	13385.52
469.87	13329.35
470.05	13420.63
470.23	13350.42
470.41	13532.98
470.59	13593.83
470.77	13027.42
470.95	13380.84
471.14	13724.90
471.32	13378.50
471.50	13701.50
471.68	13661.71
471.86	13811.50
472.04	13926.19
472.22	14092.37
472.40	13734.26
472.58	14106.41
472.77	14087.68
472.95	14373.23
473.13	14864.74
473.31	14146.20
473.49	14307.69
473.67	14363.87
473.85	14403.66
474.03	14679.84
474.21	14920.92
474.39	14916.23
474.57	15042.62
474.75	15279.02
474.93	15288.38
475.12	15176.03
475.30	15152.63
475.48	15140.93
475.66	15459.24
475.84	15431.15
476.02	15707.34
476.20	15667.55
476.38	16100.55
476.56	16336.94
476.74	16112.25
476.92	16182.46
477.10	16009.26
477.28	16503.12
477.46	16514.82
477.64	16486.73
477.82	16484.39
478.00	17261.45
478.18	17193.58
478.36	17205.28
478.54	17399.54
478.72	17371.46
478.90	17547.00
479.08	17893.40
479.26	17914.46
479.44	17750.62
479.62	18125.11
479.80	18188.30
479.98	18558.11
480.16	18897.49
480.34	18794.50
480.52	18960.68
480.70	18773.44
480.88	18904.51
481.06	19030.90
481.24	19314.10
481.41	19332.82
481.59	19531.77
481.77	19899.23
481.95	19763.48
482.13	20306.49
482.31	19709.65
482.49	20702.04
482.67	20482.03
482.85	20720.76
483.03	21078.86
483.21	21106.95
483.39	21401.86
483.57	21493.14
483.74	21282.49
483.92	21841.88
484.10	21652.30
484.28	22101.68
484.46	22251.47
484.64	22993.42
484.82	22059.55
485.00	22345.09
485.18	23253.22
485.35	23094.07
485.53	23201.73
485.71	23253.22
485.89	23686.22
486.07	23606.64
486.25	23655.79
486.43	23903.89
486.61	24109.86
486.78	24233.91
486.96	24414.13
487.14	24858.83
487.32	25214.59
487.50	25429.92
487.68	25371.41
487.85	25675.68
488.03	26061.87
488.21	26438.69
488.39	25977.61
488.57	26445.71
488.75	26469.12
488.92	26960.63
489.10	27124.47
489.28	26881.05
489.46	27431.08
489.64	27328.10
489.81	28144.94
489.99	28091.11
490.17	28381.34
490.35	28898.59
490.53	28713.69
490.70	28655.18
490.88	28577.94
491.06	29366.70
491.24	29235.63
491.41	29092.86
491.59	29865.24
491.77	29680.33
491.95	30202.27
492.13	30403.56
492.30	30621.23
492.48	30597.82
492.66	30927.84
492.84	30794.43
493.01	31248.49
493.19	30745.28
493.37	31618.30
493.54	31309.35
493.72	32268.97
493.90	31810.22
494.08	32084.06
494.25	32409.40
494.43	32807.29
494.61	32802.61
494.79	32903.25
494.96	33081.13
495.14	32982.83
495.32	33670.95
495.49	33095.18
495.67	33500.09
495.85	34026.71
496.02	34377.79
496.20	34384.81
496.38	34340.34
496.55	34679.72
496.73	35136.12
496.91	34906.75
497.09	35269.53
497.26	35264.85
497.44	35519.97
497.62	35697.85
497.79	36498.31
497.97	35800.83
498.14	36549.81
498.32	36416.40
498.50	36964.08
498.67	36879.82
498.85	36641.09
499.03	37212.18
499.20	37228.56
499.38	37425.17
499.56	37226.22
499.73	37879.23
499.91	37811.35
500.08	38293.50
500.26	37731.78
500.44	38019.66
500.61	38342.66
500.79	38096.90
500.97	38595.43
501.14	38972.26
501.32	39145.46
501.49	39412.28
501.67	39274.19
501.84	39604.20
502.02	39419.30
502.20	39676.76
502.37	40067.63
502.55	39665.06
502.72	40327.43
502.90	40294.66
503.07	40194.02
503.25	40392.97
503.43	40205.72
503.60	40746.39
503.78	40891.50
503.95	40861.07
504.13	41078.74
504.30	41315.14
504.48	40687.87
504.65	41404.08
504.83	41399.40
505.01	41666.22
505.18	41361.95
505.36	42466.68
505.53	41757.50
505.71	41895.59
505.88	42660.94
506.06	41696.64
506.23	42632.86
506.41	42698.39
506.58	42597.75
506.76	42850.53
506.93	43075.22
507.11	43131.39
507.28	43037.77
507.46	43524.60
507.63	43381.83
507.81	43889.73
507.98	43318.64
508.16	43840.57
508.33	43896.75
508.50	43875.68
508.68	44126.12
508.85	44582.52
509.03	44306.34
509.20	44762.75
509.38	45228.51
509.55	45230.85
509.73	45111.49
509.90	45294.05
510.08	45038.93
510.25	45181.70
510.42	44849.35
510.60	45427.46
510.77	45769.18
510.95	46220.90
511.12	45432.14
511.30	45631.08
511.47	46101.53
511.64	45869.82
511.82	46426.87
511.99	46174.09
512.17	46429.21
512.34	46417.50
512.51	47033.07
512.69	46941.78
512.86	47033.07
513.04	47416.91
513.21	47033.07
513.38	47419.25
513.56	47239.03
513.73	47332.65
513.90	47552.66
514.08	47215.63
514.25	47894.38
514.43	47824.17
514.60	47901.40
514.77	47936.51
514.95	48619.95
515.12	48046.52
515.29	47913.11
515.47	48900.81
515.64	48123.75
515.81	48435.05
515.99	48619.95
516.16	48898.47
516.33	49001.46
516.51	48921.88
516.68	49057.63
516.85	49083.37
517.03	49380.62
517.20	49467.22
517.37	49059.97
517.54	49315.09
517.72	49509.35
517.89	49670.85
518.06	49539.78
518.24	49595.95
518.41	49490.63
518.58	49914.26
518.75	49963.42
518.93	49942.35
519.10	49984.48
519.27	50382.37
519.45	50288.75
519.62	50438.54
519.79	50607.06
519.96	50548.55
520.14	50583.66
520.31	50651.53
520.48	50700.68
520.65	50651.53
520.83	51255.39
521.00	51370.08
521.17	51026.02
521.34	50993.25
521.52	51243.69
521.69	51267.09
521.86	51292.84
522.03	51330.29
522.20	51880.31
522.38	51915.42
522.55	51444.98
522.72	51779.67
522.89	51814.78
523.07	52313.31
523.24	51906.06
523.41	52034.79
523.58	52002.02
523.75	52310.97
523.92	52105.01
524.10	52540.35
524.27	52413.96
524.44	52526.30
524.61	52514.60
524.78	52685.46
524.96	52678.44
525.13	52718.23
525.30	52650.35
525.47	52954.62
525.64	52882.06
525.81	53083.35
525.98	53284.64
526.16	53146.54
526.33	52898.45
526.50	53565.50
526.67	53071.65
526.84	53750.40
527.01	53172.29
527.18	53207.40
527.36	53408.68
527.53	53446.13
527.70	53834.66
527.87	53621.67
528.04	53558.48
528.21	53778.49
528.38	53712.95
528.55	53872.11
528.72	53563.16
528.89	53790.19
529.07	53829.98
529.24	53977.43
529.41	53844.02
529.58	54080.42
529.75	53986.80
529.92	54057.01
530.09	54031.27
530.26	54443.20
530.43	54368.30
530.60	54246.60
530.77	54387.03
530.94	54623.42
531.11	54429.16
531.28	54478.31
531.46	54607.04
531.63	54761.51
531.80	54801.30
531.97	54616.40
532.14	54838.75
532.31	54899.61
532.48	54915.99
532.65	55140.68
532.82	55000.25
532.99	55037.70
533.16	55040.04
533.33	55327.92
533.50	55444.95
533.67	55147.70
533.84	55288.13
534.01	55114.94
534.18	55475.38
534.35	55856.88
534.52	55444.95
534.69	55573.68
534.86	55791.35
535.03	55655.60
535.20	55524.53
535.37	55519.85
535.54	55721.13
535.71	55435.59
535.88	55952.85
536.05	55714.11
536.22	56018.38
536.38	56109.66
536.55	56074.55
536.72	55955.19
536.89	55800.71
537.06	55910.72
537.23	56060.51
537.40	55973.91
537.57	56193.92
537.74	56313.29
537.91	56376.48
538.08	56355.42
538.25	56062.85
538.42	56189.24
538.59	56573.09
538.75	56603.52
538.92	56200.94
539.09	56430.32
539.26	56598.83
539.43	56470.11
539.60	56669.05
539.77	56423.29
539.94	56718.20
540.11	56776.72
540.28	56896.08
540.44	56640.96
540.61	56690.12
540.78	56666.71
540.95	56676.07
541.12	56706.50
541.29	56933.53
541.46	56992.04
541.62	56992.04
541.79	57038.86
541.96	56989.70
542.13	56921.83
542.30	56846.93
542.47	57258.87
542.63	57055.24
542.80	57279.93
542.97	57329.08
543.14	57434.41
543.31	57544.41
543.48	57593.56
543.64	57822.93
543.81	57619.31
543.98	57675.48
544.15	57921.24
544.32	57825.28
544.48	57935.28
544.65	57790.17
544.82	57893.15
544.99	57661.44
545.16	57808.89
545.32	57467.17
545.49	58190.40
545.66	58075.71
545.83	58190.40
546.00	57972.73
546.16	57851.02
546.33	57844.00
546.50	57853.36
546.67	58047.63
546.83	57778.46
547.00	58157.63
547.17	57956.35
547.34	58017.20
547.50	58361.26
547.67	58466.58
547.84	58494.67
548.00	58471.26
548.17	58389.34
548.34	58520.41
548.51	58529.78
548.67	58492.33
548.84	58443.18
549.01	58417.43
549.18	58588.29
549.34	58518.07
549.51	58707.66
549.68	58749.79
549.84	58632.76
550.01	58625.74
550.18	58583.61
550.34	58541.48
550.51	58941.71
550.68	58796.60
550.84	58543.82
551.01	59021.29
551.18	58908.94
551.34	58794.26
551.51	58876.18
551.68	58993.20
551.84	58897.24
552.01	58665.53
552.18	59068.10
552.34	58843.41
552.51	58979.16
552.68	58922.99
552.84	58981.50
553.01	59313.86
553.18	59044.69
553.34	59135.98
553.51	58962.78
553.67	59278.75
553.84	59241.30
554.01	59250.66
554.17	59238.96
554.34	59327.90
554.51	59473.01
554.67	59517.48
554.84	59161.72
555.00	59147.68
555.17	59168.74
555.33	59325.56
555.50	59386.41
555.67	59377.05
555.83	59353.65
556.00	59416.84
556.16	59650.89
556.33	59791.33
556.50	59531.53
556.66	59587.70
556.83	59568.97
556.99	59856.86
557.16	59971.55
557.32	59976.23
557.49	60126.02
557.65	59524.50
557.82	59491.74
557.98	59688.34
558.15	59749.20
558.32	59889.63
558.48	59845.16
558.65	59831.11
558.81	59887.29
558.98	59800.69
559.14	59908.35
559.31	59936.44
559.47	60037.08
559.64	59948.14
559.80	59821.75
559.97	60048.78
560.13	59948.14
560.30	60011.34
560.46	60191.56
560.63	60210.28
560.79	60079.21
560.96	60207.94
561.12	59910.69
561.29	60177.51
561.45	60182.19
561.61	60147.09
561.78	60170.49
561.94	60023.04
562.11	60147.09
562.27	60243.05
562.44	60083.89
562.60	60294.54
562.77	60369.44
562.93	60121.34
563.10	60238.37
563.26	60250.07
563.42	60411.57
563.59	60079.21
563.75	60172.83
563.92	60360.08
564.08	60231.35
564.24	60474.76
564.41	60339.01
564.57	60437.31
564.74	60437.31
564.90	60488.80
565.07	60453.70
565.23	60556.68
565.39	60441.99
565.56	60456.04
565.72	60348.37
565.88	60636.26
566.05	60449.02
566.21	60486.46
566.38	60622.22
566.54	60654.98
566.70	60615.19
566.87	60591.79
567.03	60355.39
567.19	60580.09
567.36	60669.03
567.52	60587.11
567.68	60900.74
567.85	60647.96
568.01	60779.03
568.17	60584.77
568.34	60739.24
568.50	60772.01
568.66	60465.40
568.83	60807.12
568.99	60683.07
569.15	60699.45
569.32	60762.65
569.48	60757.97
569.64	60870.31
569.81	60856.27
569.97	60781.37
570.13	60893.72
570.30	60814.14
570.46	60753.29
570.62	60680.73
570.78	60814.14
570.95	60664.35
571.11	60802.44
571.27	60891.38
571.43	61017.77
571.60	60896.06
571.76	60935.85
571.92	60886.70
572.09	60886.70
572.25	60851.59
572.41	60846.91
572.57	60818.82
572.74	61141.81
572.90	60851.59
573.06	60811.80
573.22	60879.67
573.38	60727.54
573.55	60931.17
573.71	61144.16
573.87	60907.76
574.03	61048.19
574.20	60849.25
574.36	60697.11
574.52	61186.28
574.68	61057.56
574.84	61146.50
575.01	60980.32
575.17	61062.24
575.33	60900.74
575.49	60938.19
575.65	61041.17
575.82	61118.41
575.98	61059.90
576.14	61066.92
576.30	61167.56
576.46	60949.89
576.62	61010.74
576.79	61087.98
576.95	60966.27
577.11	61132.45
577.27	61134.79
577.43	61188.63
577.59	61017.77
577.75	61162.88
577.92	61036.49
578.08	60980.32
578.24	61183.94
578.40	61347.78
578.56	61158.20
578.72	61062.24
578.88	61300.97
579.04	61352.46
579.21	61176.92
579.37	61312.67
579.53	61422.68
579.69	60879.67
579.85	61092.66
580.01	61073.94
580.17	61111.39
580.33	61305.65
580.49	61333.74
580.65	61244.80
580.82	61015.43
580.98	61008.40
581.14	61127.77
581.30	61212.03
581.46	61141.81
581.62	61375.87
581.78	61247.14
581.94	61205.01
582.10	61230.75
582.26	61333.74
582.42	61244.80
582.58	61244.80
582.74	61181.60
582.90	61174.58
583.06	61237.78
583.22	60947.55
583.38	61387.57
583.54	61315.01
583.70	61258.84
583.86	61317.35
584.02	61071.60
584.18	61352.46
584.34	61235.44
584.50	61284.59
584.66	61223.73
584.82	61038.83
584.98	61219.05
585.14	61410.98
585.30	61329.06
585.46	61350.12
585.62	61151.18
585.78	61396.93
585.94	61076.28
586.10	61268.20
586.26	61394.59
586.42	61532.68
586.58	61190.97
586.74	61382.89
586.90	61275.22
587.06	61403.95
587.22	61403.95
587.38	61322.04
587.54	61544.39
587.70	61518.64
587.86	61242.46
588.02	61207.35
588.18	61443.74
588.34	61141.81
588.49	61418.00
