SpectraSuite Data File
++++++++++++++++++++++++++++++++++++
Date: Fri Oct 25 11:34:02 EDT 2013
User: price-jones
Dark Spectrum Present: No
Reference Spectrum Present: No
Number of Sampled Component Spectra: 1
Spectrometers: USB2+H05261
Integration Time (usec): 100000 (USB2+H05261)
Spectra Averaged: 1 (USB2+H05261)
Boxcar Smoothing: 0 (USB2+H05261)
Correct for Electrical Dark: No (USB2+H05261)
Strobe/Lamp Enabled: No (USB2+H05261)
Correct for Detector Non-linearity: No (USB2+H05261)
Correct for Stray Light: No (USB2+H05261)
Number of Pixels in Processed Spectrum: 2048
>>>>>Begin Processed Spectral Data<<<<<
365.73	276.18
365.92	276.18
366.12	276.18
366.32	112.35
366.52	276.18
366.72	152.13
366.91	227.03
367.11	201.29
367.31	166.18
367.51	168.52
367.70	173.20
367.90	110.01
368.10	147.45
368.30	191.92
368.49	198.95
368.69	201.29
368.89	215.33
369.09	168.52
369.28	255.12
369.48	201.29
369.68	180.22
369.87	210.65
370.07	252.78
370.27	278.52
370.47	304.27
370.66	491.51
370.86	503.22
371.06	573.43
371.25	580.45
371.45	582.79
371.65	524.28
371.84	510.24
372.04	559.39
372.24	550.03
372.44	608.54
372.63	603.86
372.83	564.07
373.03	624.92
373.22	636.63
373.42	578.11
373.62	622.58
373.81	613.22
374.01	627.26
374.21	620.24
374.40	634.29
374.60	585.13
374.79	653.01
374.99	706.84
375.19	655.35
375.38	685.78
375.58	582.79
375.78	706.84
375.97	746.63
376.17	706.84
376.37	683.44
376.56	650.67
376.76	690.46
376.95	690.46
377.15	662.37
377.35	777.06
377.54	688.12
377.74	699.82
377.93	716.20
378.13	662.37
378.33	688.12
378.52	716.20
378.72	695.14
378.91	720.88
379.11	716.20
379.31	760.67
379.50	702.16
379.70	781.74
379.89	798.12
380.09	725.57
380.28	688.12
380.48	716.20
380.68	713.86
380.87	631.94
381.07	851.96
381.26	781.74
381.46	800.46
381.65	699.82
381.85	676.41
382.04	753.65
382.24	784.08
382.43	760.67
382.63	819.19
382.83	767.70
383.02	793.44
383.22	765.36
383.41	795.78
383.61	805.14
383.80	826.21
384.00	835.57
384.19	880.04
384.39	744.29
384.58	713.86
384.78	894.08
384.97	744.29
385.17	851.96
385.36	802.80
385.56	786.42
385.75	786.42
385.95	849.61
386.14	833.23
386.34	898.77
386.53	828.55
386.72	798.12
386.92	880.04
387.11	866.00
387.31	884.72
387.50	870.68
387.70	844.93
387.89	856.64
388.09	917.49
388.28	917.49
388.48	905.79
388.67	924.51
388.86	947.92
389.06	917.49
389.25	880.04
389.45	856.64
389.64	971.32
389.84	994.73
390.03	910.47
390.22	976.00
390.42	947.92
390.61	1076.65
390.81	964.30
391.00	1064.94
391.19	1001.75
391.39	1043.88
391.58	1034.52
391.78	1015.79
391.97	1027.50
392.16	987.71
392.36	961.96
392.55	1100.05
392.75	1008.77
392.94	1008.77
393.13	1008.77
393.33	1060.26
393.52	1181.97
393.71	1097.71
393.91	1172.61
394.10	1090.69
394.29	1142.18
394.49	1123.46
394.68	1041.54
394.88	1125.80
395.07	1053.24
395.26	1139.84
395.46	1102.39
395.65	1181.97
395.84	1128.14
396.04	1130.48
396.23	1090.69
396.42	1259.21
396.62	1242.82
396.81	1135.16
397.00	1188.99
397.19	1226.44
397.39	1256.87
397.58	1212.40
397.77	1247.51
397.97	1200.69
398.16	1198.35
398.35	1270.91
398.55	1277.93
398.74	1327.08
398.93	1303.68
399.12	1308.36
399.32	1301.34
399.51	1266.23
399.70	1348.15
399.90	1383.26
400.09	1380.92
400.28	1359.85
400.47	1362.19
400.67	1409.00
400.86	1446.45
401.05	1392.62
401.24	1432.41
401.44	1364.53
401.63	1451.13
401.82	1504.96
402.01	1369.21
402.21	1486.24
402.40	1439.43
402.59	1483.90
402.78	1521.35
402.97	1540.07
403.17	1551.78
403.36	1439.43
403.55	1645.40
403.74	1577.52
403.93	1612.63
404.13	1556.46
404.32	1544.75
404.51	1607.95
404.70	1549.43
404.89	1647.74
405.09	1748.38
405.28	1535.39
405.47	1603.27
405.66	1764.76
405.85	1755.40
406.05	1720.29
406.24	1746.04
406.43	1813.92
406.62	1755.40
406.81	1764.76
407.00	1724.97
407.20	1722.63
407.39	1769.44
407.58	1811.57
407.77	1919.24
407.96	1870.09
408.15	1884.13
408.34	1877.11
408.54	1837.32
408.73	1827.96
408.92	1921.58
409.11	2031.58
409.30	1952.01
409.49	1947.33
409.68	1877.11
409.87	1980.09
410.07	1984.77
410.26	2003.50
410.45	1968.39
410.64	2111.16
410.83	2099.46
411.02	2129.89
411.21	2134.57
411.40	2029.24
411.59	2148.61
411.78	2162.66
411.98	2108.82
412.17	2242.23
412.36	2235.21
412.55	2293.72
412.74	2417.77
412.93	2326.49
413.12	2221.17
413.31	2438.84
413.50	2415.43
413.69	2303.09
413.88	2466.92
414.07	2335.85
414.26	2525.44
414.45	2476.29
414.64	2490.33
414.83	2530.12
415.02	2483.31
415.22	2663.53
415.41	2539.48
415.60	2705.66
415.79	2722.04
415.98	2724.38
416.17	2705.66
416.36	2724.38
416.55	2761.83
416.74	2808.64
416.93	2808.64
417.12	2773.53
417.31	2883.54
417.50	2743.11
417.69	2874.18
417.88	2928.01
418.07	2888.22
418.26	2993.55
418.45	2899.92
418.64	3180.79
418.83	3052.06
419.02	3096.53
419.21	3185.47
419.39	3023.97
419.58	3023.97
419.77	2972.48
419.96	3005.25
420.15	3164.40
420.34	3112.91
420.53	3288.45
420.72	3176.11
420.91	3030.99
421.10	3295.47
421.29	3314.20
421.48	3260.37
421.67	3208.87
421.86	3234.62
422.05	3260.37
422.24	3309.52
422.43	3389.10
422.61	3272.07
422.80	3290.79
422.99	3262.71
423.18	3361.01
423.37	3480.38
423.56	3302.50
423.75	3370.37
423.94	3379.73
424.13	3262.71
424.32	3265.05
424.50	3496.76
424.69	3501.44
424.88	3581.02
425.07	3328.24
425.26	3307.18
425.45	3449.95
425.64	3433.57
425.83	3330.58
426.01	3480.38
426.20	3478.04
426.39	3581.02
426.58	3421.86
426.77	3485.06
426.96	3358.67
427.15	3531.87
427.33	3566.98
427.52	3410.16
427.71	3534.21
427.90	3620.81
428.09	3501.44
428.28	3609.11
428.46	3674.64
428.65	3576.34
428.84	3655.92
429.03	3763.58
429.22	3616.13
429.40	3609.11
429.59	3627.83
429.78	3552.93
429.97	3702.73
430.16	3679.32
430.34	3707.41
430.53	3819.75
430.72	3770.60
430.91	3817.41
431.10	3775.28
431.28	3859.54
431.47	3878.27
431.66	3953.16
431.85	3927.42
432.03	4070.19
432.22	4072.53
432.41	4002.32
432.60	4046.79
432.79	4093.60
432.97	4105.30
433.16	4004.66
433.35	4028.06
433.54	4145.09
433.72	4105.30
433.91	4088.92
434.10	4177.86
434.28	4337.01
434.47	4163.81
434.66	4297.22
434.85	4196.58
435.03	4510.21
435.22	4236.37
435.41	4465.74
435.59	4283.18
435.78	4447.02
435.97	4404.89
436.16	4334.67
436.34	4402.55
436.53	4234.03
436.72	4566.39
436.90	4376.80
437.09	4430.63
437.28	4292.54
437.46	4505.53
437.65	4615.54
437.84	4685.75
438.02	4585.11
438.21	4468.08
438.40	4538.30
438.58	4753.63
438.77	4734.90
438.96	4748.95
439.14	4657.67
439.33	4737.24
439.52	4830.87
439.70	4891.72
439.89	4945.55
440.08	4844.91
440.26	5015.77
440.45	4858.95
440.63	4945.55
440.82	5097.69
441.01	4954.91
441.19	5048.54
441.38	5053.22
441.57	5172.58
441.75	5226.42
441.94	5224.08
442.12	5327.06
442.31	5385.57
442.50	5479.19
442.68	5476.85
442.87	5439.40
443.05	5390.25
443.24	5455.79
443.43	5472.17
443.61	5495.58
443.80	5607.92
443.98	5387.91
444.17	5394.93
444.35	5596.22
444.54	5673.46
444.73	5640.69
444.91	5544.73
445.10	5542.39
445.28	5542.39
445.47	5437.06
445.65	5444.09
445.84	5788.14
446.02	5582.18
446.21	5659.42
446.39	5654.73
446.58	5591.54
446.77	5556.43
446.95	5612.60
447.14	5682.82
447.32	5734.31
447.51	5729.63
447.69	5774.10
447.88	5792.83
448.06	5692.18
448.25	5762.40
448.43	5799.85
448.62	5802.19
448.80	5809.21
448.99	5783.46
449.17	5865.38
449.36	5785.80
449.54	5834.96
449.73	5987.09
449.91	5989.43
450.10	6076.03
450.28	5881.77
450.46	5975.39
450.65	6061.99
450.83	6246.89
451.02	5970.71
451.20	6127.52
451.39	6228.17
451.57	6040.92
451.76	6078.37
451.94	5921.56
452.13	6134.54
452.31	6193.06
452.49	6305.40
452.68	6200.08
452.86	6190.72
453.05	6363.92
453.23	6380.30
453.42	6207.10
453.60	6176.67
453.78	6326.47
453.97	6441.15
454.15	6282.00
454.34	6399.02
454.52	6408.39
454.70	6480.94
454.89	6471.58
455.07	6457.54
455.26	6602.65
455.44	6583.93
455.62	6668.19
455.81	6693.93
455.99	6768.83
456.17	6647.12
456.36	6754.79
456.54	6691.59
456.73	6862.45
456.91	6911.60
457.09	6932.67
457.28	6963.09
457.46	6974.80
457.64	7005.22
457.83	7033.31
458.01	6935.01
458.19	7108.21
458.38	7201.83
458.56	6979.48
458.74	7124.59
458.93	6965.43
459.11	7227.57
459.29	7117.57
459.48	7117.57
459.66	7215.87
459.84	7185.44
460.03	7143.32
460.21	7295.45
460.39	7236.94
460.57	7325.88
460.76	7368.01
460.94	7475.67
461.12	7494.40
461.31	7452.27
461.49	7494.40
461.67	7368.01
461.85	7454.61
462.04	7447.58
462.22	7922.71
462.40	7667.60
462.59	7702.70
462.77	7737.81
462.95	7578.65
463.13	7672.28
463.32	7709.72
463.50	7681.64
463.68	7843.14
463.86	7852.50
464.05	7634.83
464.23	7805.69
464.41	7789.30
464.59	7688.66
464.78	8023.36
464.96	7969.52
465.14	7976.55
465.32	7903.99
465.50	7943.78
465.69	8011.65
465.87	8074.85
466.05	7960.16
466.23	8002.29
466.41	7974.21
466.60	8168.47
466.78	8056.12
466.96	8063.15
467.14	8243.37
467.32	8184.85
467.51	8212.94
467.69	8030.38
467.87	8091.23
468.05	8430.61
468.23	8194.22
468.41	8224.64
468.60	8351.03
468.78	8360.39
468.96	8154.43
469.14	8446.99
469.32	8475.08
469.50	8217.62
469.69	8659.98
469.87	8648.28
470.05	8575.72
470.23	8645.94
470.41	8798.07
470.59	8641.26
470.77	8657.64
470.95	8730.20
471.14	8830.84
471.32	8606.15
471.50	8809.78
471.68	8833.18
471.86	9160.86
472.04	9128.09
472.22	9254.48
472.40	8912.76
472.58	9231.07
472.77	9057.87
472.95	9268.52
473.13	9643.01
473.31	9228.73
473.49	9156.18
473.67	9387.89
473.85	9362.14
474.03	9446.40
474.21	9710.88
474.39	9537.68
474.57	9652.37
474.75	9689.82
474.93	9926.21
475.12	9851.31
475.30	9837.27
475.48	9933.23
475.66	10127.50
475.84	9989.41
476.02	10178.99
476.20	10200.05
476.38	10197.71
476.56	10499.64
476.74	10338.15
476.92	10406.02
477.10	10387.30
477.28	10434.11
477.46	10530.07
477.64	10569.86
477.82	10836.68
478.00	10974.77
478.18	10979.45
478.36	11154.99
478.54	11220.53
478.72	11150.31
478.90	11438.20
479.08	11229.89
479.26	11349.26
479.44	11552.88
479.62	11674.59
479.80	11515.44
479.98	12058.44
480.16	12180.15
480.34	11934.39
480.52	12203.55
480.70	12002.27
480.88	11915.67
481.06	11946.09
481.24	12315.90
481.41	12519.53
481.59	12683.36
481.77	12610.81
481.95	12599.10
482.13	12875.29
482.31	12938.48
482.49	13298.92
482.67	13364.46
482.85	13338.71
483.03	13717.88
483.21	13514.25
483.39	13504.89
483.57	13476.80
483.74	13692.13
483.92	14066.62
484.10	13624.26
484.28	14244.50
484.46	14288.97
484.64	14431.74
484.82	14122.79
485.00	14361.53
485.18	14649.41
485.35	14890.49
485.53	14895.17
485.71	14977.09
485.89	15206.46
486.07	15176.03
486.25	15253.27
486.43	15220.50
486.61	15496.69
486.78	15721.38
486.96	15803.30
487.14	16107.57
487.32	15964.79
487.50	15618.39
487.68	16285.45
487.85	16521.84
488.03	16603.76
488.21	16746.53
488.39	16437.58
488.57	16730.15
488.75	17015.69
488.92	17282.52
489.10	17184.21
489.28	17064.85
489.46	17752.96
489.64	17455.72
489.81	17872.33
489.99	17888.71
490.17	18120.43
490.35	18310.01
490.53	18146.17
490.70	18237.45
490.88	18492.57
491.06	18712.58
491.24	18761.73
491.41	18682.16
491.59	18867.06
491.77	18972.38
491.95	19105.79
492.13	19351.55
492.30	19154.94
492.48	19447.51
492.66	19407.72
492.84	19667.52
493.01	19981.15
493.19	19737.74
493.37	20004.56
493.54	20222.23
493.72	20355.64
493.90	20283.08
494.08	20348.62
494.25	20650.55
494.43	20695.02
494.61	20554.58
494.79	21069.50
494.96	21125.68
495.14	21130.36
495.32	21715.49
495.49	21282.49
495.67	21474.42
495.85	21654.64
496.02	21764.64
496.20	22436.38
496.38	22267.86
496.55	22274.88
496.73	22738.30
496.91	22197.64
497.09	22724.26
497.26	22403.61
497.44	22651.70
497.62	22761.71
497.79	22934.91
497.97	22661.07
498.14	23278.97
498.32	23403.02
498.50	23482.59
498.67	23583.24
498.85	23379.61
499.03	23854.74
499.20	23922.62
499.38	24004.53
499.56	23875.80
499.73	24259.65
499.91	24327.53
500.08	24203.48
500.26	24159.01
500.44	24350.93
500.61	24566.26
500.79	24627.12
500.97	24875.21
501.14	25099.90
501.32	24940.75
501.49	25230.98
501.67	25043.73
501.84	25301.19
502.02	25525.88
502.20	25273.10
502.37	25006.28
502.55	25420.56
502.72	25544.61
502.90	25270.76
503.07	25088.20
503.25	25680.36
503.43	25626.53
503.60	25671.00
503.78	26167.19
503.95	26181.23
504.13	26244.43
504.30	26300.60
504.48	26230.38
504.65	26492.52
504.83	26544.02
505.01	26836.58
505.18	26843.60
505.36	26993.40
505.53	26544.02
505.71	27042.55
505.88	27410.01
506.06	27077.66
506.23	27372.57
506.41	27182.98
506.58	27346.82
506.76	27407.67
506.93	27929.61
507.11	27503.64
507.28	27562.15
507.46	28009.19
507.63	27789.18
507.81	28046.64
507.98	27660.45
508.16	28053.66
508.33	28205.80
508.50	28428.15
508.68	28498.36
508.85	28474.96
509.03	28357.93
509.20	28580.28
509.38	28875.19
509.55	28762.84
509.73	28985.19
509.90	29022.64
510.08	28636.45
510.25	29156.05
510.42	28678.58
510.60	29759.91
510.77	29411.17
510.95	29462.66
511.12	29029.66
511.30	29635.86
511.47	29954.18
511.64	29575.01
511.82	30047.80
511.99	29734.17
512.17	30188.23
512.34	30431.65
512.51	30345.05
512.69	30202.27
512.86	30370.79
513.04	30508.88
513.21	30651.66
513.38	30019.71
513.56	30859.96
513.73	30513.56
513.90	30876.35
514.08	30761.66
514.25	30745.28
514.43	31342.11
514.60	31363.18
514.77	30845.92
514.95	31632.34
515.12	30951.24
515.29	31182.96
515.47	31590.21
515.64	31892.14
515.81	31477.86
515.99	31995.12
516.16	31786.82
516.33	31945.97
516.51	32243.22
516.68	31786.82
516.85	32133.21
517.03	32156.62
517.20	32142.58
517.37	31997.46
517.54	32582.60
517.72	32229.18
517.89	32524.08
518.06	32650.47
518.24	32634.09
518.41	32503.02
518.58	32510.04
518.75	32673.88
518.93	32680.90
519.10	33221.56
519.27	32924.32
519.45	32769.84
519.62	33476.68
519.79	33048.36
519.96	33039.00
520.14	33425.19
520.31	33577.33
520.48	33523.49
520.65	33338.59
520.83	33773.93
521.00	33956.49
521.17	33511.79
521.34	33780.95
521.52	34223.31
521.69	34298.21
521.86	34403.53
522.03	34274.80
522.20	34050.11
522.38	34040.75
522.55	34707.80
522.72	34485.45
522.89	34469.07
523.07	34831.85
523.24	35124.42
523.41	35353.79
523.58	34710.14
523.75	35161.87
523.92	34850.58
524.10	34635.25
524.27	35115.06
524.44	35384.22
524.61	35278.89
524.78	35402.94
524.96	35426.35
525.13	35637.00
525.30	35676.79
525.47	35913.18
525.64	35564.44
525.81	35592.53
525.98	36020.84
526.16	35564.44
526.33	35686.15
526.50	36325.11
526.67	35885.09
526.84	35974.03
527.01	35889.77
527.18	36282.98
527.36	36245.54
527.53	36130.85
527.70	36755.77
527.87	36870.46
528.04	36439.80
528.21	36849.39
528.38	36381.29
528.55	36673.85
528.72	36662.15
528.89	36528.74
529.07	36683.22
529.24	36430.44
529.41	37312.82
529.58	36730.03
529.75	37109.19
529.92	37329.20
530.09	37207.50
530.26	37078.77
530.43	37556.24
530.60	37205.16
530.77	37511.77
530.94	37160.69
531.11	37085.79
531.28	37347.93
531.46	37354.95
531.63	37504.74
531.80	37729.44
531.97	37596.03
532.14	38218.61
532.31	37244.94
532.48	38068.81
532.65	38239.67
532.82	37816.04
532.99	37457.93
533.16	37825.40
533.33	38239.67
533.50	38089.88
533.67	37930.72
533.84	38043.07
534.01	38143.71
534.18	38349.68
534.35	38581.39
534.52	38181.16
534.69	39061.20
534.86	38616.50
535.03	38728.84
535.20	38878.64
535.37	39009.71
535.54	39110.35
535.71	38794.38
535.88	39115.03
536.05	38972.26
536.22	39002.69
536.38	39056.52
536.55	39264.83
536.72	39026.09
536.89	38946.51
537.06	39260.15
537.23	39763.36
537.40	39234.40
537.57	39304.62
537.74	39108.01
537.91	39761.02
538.08	39718.89
538.25	39196.95
538.42	39550.37
538.59	39908.47
538.75	39583.14
538.92	39894.43
539.09	40116.78
539.26	39646.33
539.43	39735.27
539.60	39849.96
539.77	39786.77
539.94	40622.34
540.11	40271.26
540.28	40322.75
540.44	40114.44
540.61	40177.64
540.78	40091.04
540.95	40392.97
541.12	40135.51
541.29	40201.04
541.46	40725.32
541.62	40737.02
541.79	40538.08
541.96	40149.55
542.13	40383.60
542.30	40882.14
542.47	40299.34
542.63	40282.96
542.80	40832.99
542.97	41219.17
543.14	41345.56
543.31	41216.83
543.48	41277.69
543.64	41448.55
543.81	41567.91
543.98	41434.50
544.15	41729.41
544.32	41846.44
544.48	41942.40
544.65	41411.10
544.82	41862.82
544.99	40903.20
545.16	41776.22
545.32	41535.15
545.49	42117.94
545.66	42351.99
545.83	41743.45
546.00	42321.57
546.16	41888.57
546.33	41759.84
546.50	41371.31
546.67	42391.78
546.83	41429.82
547.00	42146.03
547.17	42031.34
547.34	42253.69
547.50	42658.60
547.67	42953.51
547.84	42239.65
548.00	42651.58
548.17	42983.94
548.34	42614.13
548.51	42988.62
548.67	42721.80
548.84	42747.54
549.01	42611.79
549.18	43140.75
549.34	42717.12
549.51	42731.16
549.68	42983.94
549.84	42663.28
550.01	42761.59
550.18	42948.83
550.34	43388.85
550.51	43145.44
550.68	43269.48
550.84	42806.06
551.01	43232.04
551.18	43206.29
551.34	43311.61
551.51	43136.07
551.68	42862.23
551.84	43292.89
552.01	43000.32
552.18	43349.06
552.34	42810.74
552.51	43438.00
552.68	43075.22
552.84	43229.69
553.01	43868.66
553.18	43426.30
553.34	43264.80
553.51	43461.41
553.67	43753.97
553.84	43510.56
554.01	43903.77
554.17	43903.77
554.34	43969.30
554.51	43613.54
554.67	44189.31
554.84	43828.87
555.00	44123.78
555.17	43835.89
555.33	44149.53
555.50	44034.84
555.67	43976.33
555.83	44179.95
556.00	44154.21
556.16	44563.80
556.33	44528.69
556.50	44538.05
556.66	44449.11
556.83	43817.17
556.99	44416.35
557.16	44439.75
557.32	44800.19
557.49	44409.32
557.65	44212.72
557.82	44194.00
557.98	44720.62
558.15	44402.30
558.32	44381.24
558.48	44807.22
558.65	44545.08
558.81	44622.31
558.98	44315.70
559.14	44671.46
559.31	44470.18
559.47	44404.64
559.64	44779.13
559.80	44737.00
559.97	45041.27
560.13	44638.70
560.30	44825.94
560.46	44973.39
560.63	44830.62
560.79	45071.70
560.96	45516.40
561.12	45015.52
561.29	45099.78
561.45	45570.23
561.61	45230.85
561.78	44917.22
561.94	45347.88
562.11	45078.72
562.27	45490.65
562.44	45284.68
562.60	45242.56
562.77	45134.89
562.93	45284.68
563.10	45399.37
563.26	45034.25
563.42	45787.90
563.59	45275.32
563.75	45186.38
563.92	45518.74
564.08	45200.43
564.24	45595.98
564.41	45546.82
564.57	45588.95
564.74	45488.31
564.90	45256.60
565.07	45537.46
565.23	45347.88
565.39	45193.40
565.56	45392.35
565.72	45675.55
565.88	45626.40
566.05	45209.79
566.21	45797.26
566.38	45696.62
566.54	45902.59
566.70	45488.31
566.87	45944.72
567.03	45481.29
567.19	45413.41
567.36	46092.17
567.52	45633.42
567.68	45720.02
567.85	45773.86
568.01	45432.14
568.17	46110.89
568.34	45378.31
568.50	45729.39
568.66	45588.95
568.83	45888.54
568.99	45961.10
569.15	45928.33
569.32	45535.12
569.48	45804.28
569.64	46225.58
569.81	46330.90
569.97	46225.58
570.13	46052.38
570.30	45773.86
570.46	45921.31
570.62	46239.62
570.78	46014.93
570.95	46129.62
571.11	46202.18
571.27	45977.48
571.43	46052.38
571.60	46052.38
571.76	45741.09
571.92	45876.84
572.09	45961.10
572.25	45785.56
572.41	46195.15
572.57	46309.84
572.74	46749.86
572.90	45881.52
573.06	46429.21
573.22	45979.82
573.38	46555.60
573.55	46604.75
573.71	46630.49
573.87	46286.43
574.03	46007.91
574.20	46579.00
574.36	46490.06
574.52	46176.43
574.68	45996.21
574.84	46497.08
575.01	46504.10
575.17	46515.81
575.33	46447.93
575.49	46295.80
575.65	46508.79
575.82	46745.18
575.98	46099.19
576.14	46789.65
576.30	46700.71
576.46	46429.21
576.62	46529.85
576.79	46721.77
576.95	46138.98
577.11	46113.23
577.27	46131.96
577.43	46691.35
577.59	46438.57
577.75	46272.39
577.92	46082.81
578.08	46700.71
578.24	46635.17
578.40	47112.64
578.56	46387.08
578.72	46628.15
578.88	46555.60
579.04	46560.28
579.21	46380.06
579.37	46749.86
579.53	46588.36
579.69	46628.15
579.85	46302.82
580.01	46344.95
580.17	46532.19
580.33	46958.17
580.49	46471.34
580.65	46658.58
580.82	46628.15
580.98	46138.98
581.14	46616.45
581.30	46464.32
581.46	46576.66
581.62	46424.53
581.78	46225.58
581.94	46557.94
582.10	46586.02
582.26	46883.27
582.42	46433.89
582.58	46347.29
582.74	46466.66
582.90	46761.56
583.06	47126.69
583.22	46742.84
583.38	46487.72
583.54	46909.02
583.70	46728.80
583.86	47140.73
584.02	46773.27
584.18	46878.59
584.34	47019.02
584.50	46862.21
584.66	47398.19
584.82	46995.62
584.98	47093.92
585.14	46581.34
585.30	46328.56
585.46	46705.39
585.62	46808.37
585.78	46941.78
585.94	46464.32
586.10	46616.45
586.26	46571.98
586.42	46653.90
586.58	46909.02
586.74	46607.09
586.90	46569.64
587.06	46719.43
587.22	47026.04
587.38	46894.97
587.54	46913.70
587.70	47409.89
587.86	46604.75
588.02	46967.53
588.18	46789.65
588.34	46887.95
588.49	47030.72
588.65	46904.34
588.81	47086.90
588.97	47152.43
589.13	46794.33
589.29	46724.11
589.45	46932.42
589.61	46911.36
589.77	47269.46
589.93	47054.13
590.08	46906.68
