SpectraSuite Data File
++++++++++++++++++++++++++++++++++++
Date: Fri Oct 25 10:44:24 EDT 2013
User: price-jones
Dark Spectrum Present: No
Reference Spectrum Present: No
Number of Sampled Component Spectra: 1
Spectrometers: USB2+H05261
Integration Time (usec): 100000 (USB2+H05261)
Spectra Averaged: 1 (USB2+H05261)
Boxcar Smoothing: 0 (USB2+H05261)
Correct for Electrical Dark: No (USB2+H05261)
Strobe/Lamp Enabled: No (USB2+H05261)
Correct for Detector Non-linearity: No (USB2+H05261)
Correct for Stray Light: No (USB2+H05261)
Number of Pixels in Processed Spectrum: 2048
>>>>>Begin Processed Spectral Data<<<<<
365.73	121.71
365.92	121.71
366.12	121.71
366.32	42.13
366.52	0.00
366.72	74.90
366.91	74.90
367.11	0.00
367.31	18.72
367.51	7.02
367.70	0.00
367.90	60.85
368.10	0.00
368.30	32.77
368.49	0.00
368.69	56.17
368.89	70.22
369.09	70.22
369.28	91.28
369.48	11.70
369.68	72.56
369.87	84.26
370.07	53.83
370.27	210.65
370.47	187.24
370.66	451.72
370.86	482.15
371.06	531.30
371.25	475.13
371.45	491.51
371.65	503.22
371.84	416.62
372.04	456.40
372.24	507.90
372.44	543.00
372.63	524.28
372.83	578.11
373.03	491.51
373.22	517.26
373.42	564.07
373.62	517.26
373.81	599.18
374.01	603.86
374.21	582.79
374.40	514.92
374.60	662.37
374.79	561.73
374.99	599.18
375.19	566.41
375.38	580.45
375.58	559.39
375.78	603.86
375.97	552.37
376.17	638.97
376.37	624.92
376.56	650.67
376.76	641.31
376.95	681.10
377.15	678.76
377.35	676.41
377.54	650.67
377.74	629.60
377.93	676.41
378.13	657.69
378.33	674.07
378.52	702.16
378.72	730.25
378.91	681.10
379.11	610.88
379.31	631.94
379.50	671.73
379.70	671.73
379.89	674.07
380.09	662.37
380.28	638.97
380.48	788.76
380.68	709.18
380.87	692.80
381.07	772.38
381.26	791.10
381.46	674.07
381.65	692.80
381.85	699.82
382.04	685.78
382.24	718.54
382.43	760.67
382.63	734.93
382.83	699.82
383.02	706.84
383.22	793.44
383.41	746.63
383.61	732.59
383.80	795.78
384.00	830.89
384.19	807.48
384.39	828.55
384.58	788.76
384.78	891.74
384.97	814.51
385.17	784.08
385.36	798.12
385.56	777.06
385.75	823.87
385.95	854.30
386.14	835.57
386.34	793.44
386.53	835.57
386.72	875.36
386.92	863.66
387.11	901.11
387.31	826.21
387.50	873.02
387.70	889.40
387.89	847.27
388.09	936.21
388.28	880.04
388.48	854.30
388.67	1001.75
388.86	915.15
389.06	1011.11
389.25	1013.45
389.45	912.81
389.64	987.71
389.84	1095.37
390.03	1102.39
390.22	1001.75
390.42	1013.45
390.61	1036.86
390.81	1067.28
391.00	1104.73
391.19	1139.84
391.39	1055.58
391.58	1083.67
391.78	1064.94
391.97	1093.03
392.16	1118.78
392.36	1144.52
392.55	1064.94
392.75	1008.77
392.94	1015.79
393.13	966.64
393.33	1022.81
393.52	1100.05
393.71	1078.99
393.91	1144.52
394.10	1097.71
394.29	1212.40
394.49	1221.76
394.68	1249.85
394.88	1135.16
395.07	1235.80
395.26	1301.34
395.46	1280.27
395.65	1259.21
395.84	1268.57
396.04	1235.80
396.23	1132.82
396.42	1174.95
396.62	1188.99
396.81	1200.69
397.00	1341.13
397.19	1270.91
397.39	1383.26
397.58	1385.60
397.77	1362.19
397.97	1509.65
398.16	1444.11
398.35	1455.81
398.55	1385.60
398.74	1462.83
398.93	1575.18
399.12	1535.39
399.32	1561.14
399.51	1500.28
399.70	1568.16
399.90	1514.33
400.09	1645.40
400.28	1640.72
400.47	1680.50
400.67	1734.34
400.86	1720.29
401.05	1629.01
401.24	1736.68
401.44	1776.47
401.63	1715.61
401.82	1748.38
402.01	1804.55
402.21	1863.07
402.40	1888.81
402.59	1809.23
402.78	1790.51
402.97	1849.02
403.17	1811.57
403.36	1849.02
403.55	1909.88
403.74	1998.82
403.93	1961.37
404.13	1893.49
404.32	1893.49
404.51	1909.88
404.70	2017.54
404.89	1930.94
405.09	1968.39
405.28	2017.54
405.47	1959.03
405.66	2022.22
405.85	2012.86
406.05	2064.35
406.24	2059.67
406.43	2062.01
406.62	2087.76
406.81	2200.10
407.00	2207.13
407.20	2031.58
407.39	2111.16
407.58	2197.76
407.77	2190.74
407.96	2246.91
408.15	2253.94
408.34	2335.85
408.54	2347.56
408.73	2338.20
408.92	2455.22
409.11	2324.15
409.30	2417.77
409.49	2373.30
409.68	2326.49
409.87	2272.66
410.07	2495.01
410.26	2406.07
410.45	2562.89
410.64	2499.69
410.83	2605.02
411.02	2590.97
411.21	2586.29
411.40	2719.70
411.59	2806.30
411.78	2579.27
411.98	2752.47
412.17	2719.70
412.36	2719.70
412.55	2789.92
412.74	2796.94
412.93	2939.71
413.12	2869.50
413.31	2932.69
413.50	2794.60
413.69	2911.63
413.88	2977.16
414.07	3000.57
414.26	2967.80
414.45	3098.87
414.64	2979.50
414.83	3129.30
415.02	3108.23
415.22	3227.60
415.41	3211.22
415.60	3176.11
415.79	3204.19
415.98	3417.18
416.17	3370.37
416.36	3323.56
416.55	3332.92
416.74	3398.46
416.93	3276.75
417.12	3330.58
417.31	3361.01
417.50	3384.41
417.69	3456.97
417.88	3564.64
418.07	3421.86
418.26	3478.04
418.45	3468.67
418.64	3791.67
418.83	3709.75
419.02	3625.49
419.21	3716.77
419.39	3709.75
419.58	3658.26
419.77	3676.98
419.96	3796.35
420.15	3695.71
420.34	3768.26
420.53	3770.60
420.72	3992.95
420.91	3962.53
421.10	3896.99
421.29	3957.85
421.48	3882.95
421.67	3974.23
421.86	3927.42
422.05	3981.25
422.24	3861.88
422.43	3878.27
422.61	3915.72
422.80	4119.34
422.99	3988.27
423.18	4042.11
423.37	4180.20
423.56	4063.17
423.75	4109.98
423.94	3969.55
424.13	3896.99
424.32	3831.46
424.50	4058.49
424.69	4224.67
424.88	4187.22
425.07	3992.95
425.26	3948.48
425.45	4021.04
425.64	4056.15
425.83	3981.25
426.01	4180.20
426.20	3999.98
426.39	4107.64
426.58	4037.42
426.77	4107.64
426.96	4147.43
427.15	3974.23
427.33	4156.79
427.52	4119.34
427.71	4248.07
427.90	4205.94
428.09	4259.78
428.28	4184.88
428.46	4262.12
428.65	4257.43
428.84	4411.91
429.03	4241.05
429.22	4112.32
429.40	4269.14
429.59	4285.52
429.78	3995.29
429.97	4018.70
430.16	4112.32
430.34	4243.39
430.53	4315.95
430.72	4367.44
430.91	4315.95
431.10	4521.92
431.28	4603.83
431.47	4723.20
431.66	4770.01
431.85	4582.77
432.03	4716.18
432.22	4601.49
432.41	4858.95
432.60	4868.31
432.79	4961.94
432.97	4788.74
433.16	4990.02
433.35	4746.61
433.54	4798.10
433.72	4765.33
433.91	4924.49
434.10	4800.44
434.28	4842.57
434.47	4887.04
434.66	5004.07
434.85	5102.37
435.03	5027.47
435.22	5149.18
435.41	5268.55
435.59	5207.69
435.78	5158.54
435.97	5394.93
436.16	5303.65
436.34	5268.55
436.53	5210.03
436.72	5439.40
436.90	5233.44
437.09	5298.97
437.28	5298.97
437.46	5378.55
437.65	5458.13
437.84	5305.99
438.02	5416.00
438.21	5338.76
438.40	5397.28
438.58	5359.83
438.77	5701.54
438.96	5565.79
439.14	5708.57
439.33	5694.52
439.52	5689.84
439.70	5762.40
439.89	5891.13
440.08	5851.34
440.26	5895.81
440.45	5930.92
440.63	6099.44
440.82	6204.76
441.01	6104.12
441.19	6132.20
441.38	6176.67
441.57	6246.89
441.75	6284.34
441.94	6518.39
442.12	6438.81
442.31	6513.71
442.50	6581.59
442.68	6487.96
442.87	6478.60
443.05	6476.26
443.24	6499.67
443.43	6485.62
443.61	6724.36
443.80	6712.66
443.98	6581.59
444.17	6356.90
444.35	6700.95
444.54	6775.85
444.73	6705.63
444.91	6668.19
445.10	6675.21
445.28	6764.15
445.47	6551.16
445.65	6335.83
445.84	6672.87
446.02	6839.05
446.21	6574.56
446.39	6787.55
446.58	6888.20
446.77	6780.53
446.95	6707.98
447.14	6867.13
447.32	7157.36
447.51	6899.90
447.69	6913.94
447.88	6806.28
448.06	6986.50
448.25	6895.22
448.43	6960.75
448.62	6967.77
448.80	6850.75
448.99	6942.03
449.17	7063.74
449.36	7054.37
449.54	7272.04
449.73	7382.05
449.91	7227.57
450.10	7428.86
450.28	7396.09
450.46	7356.30
450.65	7410.14
450.83	7595.04
451.02	7440.56
451.20	7515.46
451.39	7403.11
451.57	7328.22
451.76	7508.44
451.94	7515.46
452.13	7330.56
452.31	7480.35
452.49	7293.11
452.68	7576.31
452.86	7372.69
453.05	7508.44
453.23	7625.47
453.42	7215.87
453.60	7637.17
453.78	7616.10
453.97	7609.08
454.15	7583.34
454.34	7463.97
454.52	7784.62
454.70	7866.54
454.89	7674.62
455.07	7700.36
455.26	7983.57
455.44	7908.67
455.62	7976.55
455.81	8114.64
455.99	8180.17
456.17	8093.57
456.36	7997.61
456.54	8056.12
456.73	8109.96
456.91	8329.97
457.09	8381.46
457.28	8580.40
457.46	8147.40
457.64	8496.14
457.83	8301.88
458.01	8166.13
458.19	8549.98
458.38	8472.74
458.56	8503.17
458.74	8339.33
458.93	8416.57
459.11	8344.01
459.29	8423.59
459.48	8751.26
459.66	8500.83
459.84	8641.26
460.03	8919.78
460.21	8678.71
460.39	8837.86
460.57	8692.75
460.76	8762.97
460.94	8999.36
461.12	8816.80
461.31	8856.59
461.49	8940.85
461.67	8999.36
461.85	8959.57
462.04	8999.36
462.22	9376.19
462.40	8952.55
462.59	9224.05
462.77	9111.71
462.95	9305.97
463.13	9088.30
463.32	9135.11
463.50	9308.31
463.68	9291.93
463.86	9123.41
464.05	9200.65
464.23	9177.24
464.41	9252.14
464.59	9259.16
464.78	9348.10
464.96	9289.59
465.14	9345.76
465.32	9647.69
465.50	9570.45
465.69	9497.89
465.87	9624.28
466.05	9423.00
466.23	9523.64
466.41	9490.87
466.60	9898.13
466.78	9528.32
466.96	9472.15
467.14	9504.92
467.32	9731.95
467.51	9767.06
467.69	9355.12
467.87	9785.78
468.05	9764.72
468.23	9792.80
468.41	9675.77
468.60	9736.63
468.78	9764.72
468.96	9919.19
469.14	9944.94
469.32	10209.42
469.50	9795.14
469.69	9937.91
469.87	10001.11
470.05	10195.37
470.23	10190.69
470.41	10143.88
470.59	10218.78
470.77	10122.82
470.95	10111.11
471.14	10312.40
471.32	10218.78
471.50	10509.01
471.68	10626.03
471.86	10630.71
472.04	10513.69
472.22	10710.29
472.40	10455.17
472.58	10574.54
472.77	10644.76
472.95	10736.04
473.13	11033.29
473.31	10773.49
473.49	11007.54
473.67	10995.84
473.85	10939.66
474.03	11194.78
474.21	11211.17
474.39	11325.85
474.57	11515.44
474.75	11358.62
474.93	11564.59
475.12	11646.51
475.30	11489.69
475.48	11573.95
475.66	11655.87
475.84	11658.21
476.02	11662.89
476.20	11796.30
476.38	11946.09
476.56	12257.39
476.74	12119.29
476.92	12248.02
477.10	12011.63
477.28	12273.77
477.46	12472.71
477.64	12587.40
477.82	12868.27
478.00	13160.83
478.18	13041.46
478.36	12858.90
478.54	13104.66
478.72	13050.83
478.90	13167.85
479.08	13397.23
479.26	13584.47
479.44	13235.73
479.62	13495.53
479.80	13685.11
479.98	13823.20
480.16	13935.55
480.34	13834.91
480.52	14223.44
480.70	14122.79
480.88	13994.06
481.06	14190.67
481.24	14260.88
481.41	14366.21
481.59	14864.74
481.77	14949.00
481.95	14906.87
482.13	14977.09
482.31	15110.50
482.49	15384.34
482.67	15323.49
482.85	15234.55
483.03	15641.80
483.21	15850.11
483.39	15756.49
483.57	15613.71
483.74	16016.29
483.92	16273.74
484.10	16091.18
484.28	16156.72
484.46	16535.88
484.64	16727.81
484.82	16460.99
485.00	16783.98
485.18	16718.45
485.35	16875.26
485.53	16493.76
485.71	16421.20
485.89	16968.88
486.07	16552.27
486.25	16968.88
486.43	17355.07
486.61	17406.56
486.78	17528.27
486.96	17893.40
487.14	18176.60
487.32	18647.05
487.50	18370.86
487.68	18658.75
487.85	18977.06
488.03	19143.24
488.21	19061.32
488.39	18951.32
488.57	19157.28
488.75	19236.86
488.92	19569.22
489.10	20020.94
489.28	19854.76
489.46	19983.49
489.64	20421.17
489.81	20711.40
489.99	20844.81
490.17	20648.21
490.35	20610.76
490.53	20856.51
490.70	20950.14
490.88	21025.03
491.06	21357.39
491.24	21427.60
491.41	21156.10
491.59	21184.19
491.77	21341.00
491.95	21881.67
492.13	21825.50
492.30	22153.17
492.48	22480.85
492.66	22164.87
492.84	22162.53
493.01	22817.88
493.19	22511.27
493.37	22827.24
493.54	23009.81
493.72	22864.69
493.90	23138.54
494.08	23264.92
494.25	23564.51
494.43	24098.16
494.61	23857.08
494.79	24123.90
494.96	23941.34
495.14	24140.29
495.32	24271.36
495.49	24320.51
495.67	24503.07
495.85	24650.52
496.02	24830.74
496.20	25085.86
496.38	25120.97
496.55	24978.20
496.73	25614.82
496.91	25525.88
497.09	25715.47
497.26	25951.86
497.44	25659.29
497.62	26033.78
497.79	25818.45
497.97	25528.22
498.14	26441.03
498.32	26087.61
498.50	26291.24
498.67	26644.66
498.85	26574.44
499.03	26555.72
499.20	26757.00
499.38	26930.20
499.56	27260.22
499.73	27201.71
499.91	27531.72
500.08	27030.85
500.26	27145.53
500.44	27019.14
500.61	27351.50
500.79	27318.73
500.97	27426.40
501.14	27723.65
501.32	27594.92
501.49	27543.42
501.67	28196.43
501.84	28140.26
502.02	28084.09
502.20	28339.21
502.37	28517.09
502.55	28547.51
502.72	28617.73
502.90	28671.56
503.07	28723.05
503.25	28748.80
503.43	28758.16
503.60	28650.50
503.78	28760.50
503.95	28694.97
504.13	29186.48
504.30	29186.48
504.48	29247.33
504.65	29352.66
504.83	29839.49
505.01	29584.37
505.18	29544.58
505.36	30174.19
505.53	30192.91
505.71	30541.65
505.88	30628.25
506.06	29989.28
506.23	30319.30
506.41	30335.68
506.58	30953.58
506.76	30637.61
506.93	30881.03
507.11	30881.03
507.28	30705.49
507.46	30749.96
507.63	30890.39
507.81	30628.25
507.98	30768.68
508.16	30822.51
508.33	31131.47
508.50	31421.69
508.68	31262.54
508.85	31990.44
509.03	31761.07
509.20	31990.44
509.38	31857.03
509.55	32306.41
509.73	32212.79
509.90	32191.73
510.08	32119.17
510.25	31962.36
510.42	31957.67
510.60	32470.25
510.77	32418.76
510.95	32760.48
511.12	32697.28
511.30	33092.83
511.47	33357.32
511.64	33090.49
511.82	33174.75
511.99	32758.14
512.17	33490.73
512.34	33085.81
512.51	33127.94
512.69	33502.43
512.86	33535.20
513.04	33621.80
513.21	33785.63
513.38	33729.46
513.56	33394.76
513.73	33404.13
513.90	33631.16
514.08	33696.69
514.25	33905.00
514.43	33757.55
514.60	33722.44
514.77	34249.06
514.95	34277.15
515.12	34300.55
515.29	34799.08
515.47	34445.66
515.64	34862.28
515.81	34684.40
515.99	34408.22
516.16	34941.86
516.33	33738.82
516.51	34246.72
516.68	34082.88
516.85	34085.22
517.03	34050.11
517.20	34546.31
517.37	35028.46
517.54	35335.07
517.72	34850.58
517.89	34735.89
518.06	34518.22
518.24	34499.50
518.41	35346.77
518.58	35143.14
518.75	35161.87
518.93	35452.09
519.10	35704.87
519.27	35583.16
519.45	35861.69
519.62	35859.35
519.79	36168.30
519.96	35849.99
520.14	36451.50
520.31	35964.67
520.48	36126.17
520.65	36212.77
520.83	37111.53
521.00	36964.08
521.17	36664.49
521.34	37024.93
521.52	36996.85
521.69	36844.71
521.86	37111.53
522.03	37216.86
522.20	37022.59
522.38	36940.68
522.55	37368.99
522.72	37228.56
522.89	36973.44
523.07	37429.85
523.24	37163.03
523.41	37476.66
523.58	37577.30
523.75	38253.72
523.92	37780.93
524.10	37970.51
524.27	38412.87
524.44	37940.08
524.61	38099.24
524.78	38293.50
524.96	38410.53
525.13	38667.99
525.30	38787.36
525.47	38349.68
525.64	37923.70
525.81	38263.08
525.98	38417.55
526.16	38047.75
526.33	37687.31
526.50	38314.57
526.67	38038.39
526.84	38080.52
527.01	38204.56
527.18	38667.99
527.36	38651.61
527.53	39199.29
527.70	39531.65
527.87	39173.55
528.04	38792.04
528.21	39232.06
528.38	39218.02
528.55	39262.49
528.72	40020.82
528.89	40086.36
529.07	39590.16
529.24	39438.03
529.41	39910.82
529.58	39896.77
529.75	39440.37
529.92	40016.14
530.09	39674.42
530.26	39519.95
530.43	40058.27
530.60	40273.60
530.77	40179.98
530.94	40385.94
531.11	40177.64
531.28	39985.71
531.46	40252.53
531.63	40720.64
531.80	40409.35
531.97	40154.23
532.14	40627.02
532.31	40048.91
532.48	40238.49
532.65	40999.16
532.82	40402.33
532.99	40748.73
533.16	40816.60
533.33	40500.63
533.50	40975.76
533.67	40793.20
533.84	40725.32
534.01	40793.20
534.18	40793.20
534.35	41127.89
534.52	41083.42
534.69	41944.74
534.86	41261.30
535.03	40652.76
535.20	41483.66
535.37	41514.08
535.54	41762.18
535.71	41698.98
535.88	42033.68
536.05	41209.81
536.22	41570.25
536.38	41228.54
536.55	41490.68
536.72	41574.94
536.89	41200.45
537.06	41380.67
537.23	41701.32
537.40	41598.34
537.57	42099.22
537.74	41844.10
537.91	42225.60
538.08	42005.59
538.25	41722.39
538.42	41984.53
538.59	42476.04
538.75	41874.52
538.92	41787.92
539.09	42396.46
539.26	41926.02
539.43	42328.59
539.60	42387.10
539.77	41825.37
539.94	42366.04
540.11	42120.28
540.28	42295.82
540.44	42092.19
540.61	42202.20
540.78	42328.59
540.95	42131.98
541.12	42588.39
541.29	42494.77
541.46	42831.80
541.62	42422.21
541.79	42876.27
541.96	42696.05
542.13	43232.04
542.30	43100.97
542.47	43065.86
542.63	42721.80
542.80	42904.36
542.97	43192.25
543.14	43580.78
543.31	43292.89
543.48	43842.92
543.64	43978.67
543.81	43496.52
543.98	43461.41
544.15	43501.20
544.32	43679.08
544.48	44023.14
544.65	43688.44
544.82	43831.21
544.99	43482.47
545.16	43604.18
545.32	43658.01
545.49	44158.89
545.66	44402.30
545.83	43653.33
546.00	44336.77
546.16	44168.25
546.33	44308.68
546.50	43475.45
546.67	44226.76
546.83	44067.61
547.00	43660.35
547.17	43463.75
547.34	44170.59
547.50	44142.50
547.67	44381.24
547.84	44383.58
548.00	44849.35
548.17	44926.58
548.34	44715.93
548.51	44814.24
548.67	44556.78
548.84	44268.89
549.01	44451.45
549.18	44282.94
549.34	44479.54
549.51	44343.79
549.68	44964.03
549.84	44870.41
550.01	44926.58
550.18	44577.84
550.34	44634.02
550.51	44868.07
550.68	44481.88
550.84	44306.34
551.01	44641.04
551.18	44774.45
551.34	44847.00
551.51	45251.92
551.68	44856.37
551.84	45235.53
552.01	45099.78
552.18	45064.67
552.34	44650.40
552.51	45111.49
552.68	44921.90
552.84	45340.86
553.01	45560.87
553.18	45200.43
553.34	45294.05
553.51	45045.95
553.67	45481.29
553.84	45867.48
554.01	45535.12
554.17	45593.64
554.34	45570.23
554.51	45647.47
554.67	45673.21
554.84	45378.31
555.00	44987.44
555.17	45743.43
555.33	45551.51
555.50	45514.06
555.67	45766.84
555.83	45394.69
556.00	45752.79
556.16	45778.54
556.33	45565.55
556.50	45710.66
556.66	45787.90
556.83	45565.55
556.99	45825.35
557.16	46117.92
557.32	45827.69
557.49	46323.88
557.65	45668.53
557.82	45666.19
557.98	45778.54
558.15	46040.68
558.32	45762.15
558.48	45846.41
558.65	45982.16
558.81	45628.74
558.98	45947.06
559.14	45713.00
559.31	45256.60
559.47	45895.56
559.64	46110.89
559.80	45808.96
559.97	46267.71
560.13	46038.34
560.30	46333.24
560.46	46227.92
560.63	46258.35
560.79	46483.04
560.96	46419.84
561.12	45970.46
561.29	46344.95
561.45	46043.02
561.61	46361.33
561.78	46316.86
561.94	45794.92
562.11	46368.35
562.27	46178.77
562.44	46232.60
562.60	46153.02
562.77	46433.89
562.93	46277.07
563.10	46698.37
563.26	45897.91
563.42	46410.48
563.59	46045.36
563.75	46220.90
563.92	46576.66
564.08	46213.88
564.24	46522.83
564.41	46513.47
564.57	46527.51
564.74	46707.73
564.90	46265.37
565.07	46197.49
565.23	46651.56
565.39	46358.99
565.56	46527.51
565.72	46284.09
565.88	46361.33
566.05	46244.30
566.21	46387.08
566.38	46616.45
566.54	46480.70
566.70	46230.26
566.87	46663.26
567.03	46726.46
567.19	46988.60
567.36	46604.75
567.52	46693.69
567.68	46574.32
567.85	46298.14
568.01	46494.74
568.17	46471.34
568.34	46590.70
568.50	46113.23
568.66	46403.46
568.83	46906.68
568.99	46454.95
569.15	46153.02
569.32	46469.00
569.48	46394.10
569.64	47068.17
569.81	46777.95
569.97	46356.65
570.13	46525.17
570.30	46054.72
570.46	46518.15
570.62	46681.98
570.78	46583.68
570.95	46136.64
571.11	46527.51
571.27	46307.50
571.43	46284.09
571.60	46948.81
571.76	46440.91
571.92	46948.81
572.09	46550.91
572.25	46850.50
572.41	46735.82
572.57	47061.15
572.74	47133.71
572.90	46574.32
573.06	46880.93
573.22	46534.53
573.38	47194.56
573.55	46560.28
573.71	46756.88
573.87	46756.88
574.03	46335.59
574.20	47016.68
574.36	46461.97
574.52	46897.31
574.68	46993.28
574.84	46670.28
575.01	46625.81
575.17	46799.01
575.33	46684.33
575.49	47030.72
575.65	46794.33
575.82	46735.82
575.98	46515.81
576.14	46913.70
576.30	46667.94
576.46	46373.03
576.62	46710.07
576.79	46791.99
576.95	46560.28
577.11	46749.86
577.27	46663.26
577.43	46887.95
577.59	47257.76
577.75	46614.11
577.92	46457.29
578.08	46469.00
578.24	46698.37
578.40	46571.98
578.56	46705.39
578.72	46705.39
578.88	47267.12
579.04	46951.15
579.21	46831.78
579.37	46820.08
579.53	46897.31
579.69	46995.62
579.85	47175.84
580.01	46855.18
580.17	46518.15
580.33	46925.40
580.49	46911.36
580.65	47051.79
580.82	46913.70
580.98	46567.30
581.14	46873.91
581.30	47033.07
581.46	47028.38
581.62	46859.87
581.78	47028.38
581.94	47388.83
582.10	46543.89
582.26	46513.47
582.42	46813.05
582.58	46691.35
582.74	46719.43
582.90	46855.18
583.06	47098.60
583.22	47550.32
583.38	46791.99
583.54	47140.73
583.70	46909.02
583.86	46993.28
584.02	46506.44
584.18	46784.97
584.34	46848.16
584.50	47122.01
584.66	46667.94
584.82	46813.05
584.98	47175.84
585.14	46609.43
585.30	46939.44
585.46	46824.76
585.62	47051.79
585.78	47138.39
585.94	46494.74
586.10	46834.12
586.26	46927.74
586.42	47084.56
586.58	46820.08
586.74	46927.74
586.90	46632.83
587.06	46775.61
587.22	46916.04
587.38	46728.80
587.54	46965.19
587.70	46770.93
587.86	46768.58
588.02	46665.60
588.18	46930.08
588.34	46672.62
588.49	46483.04
588.65	45832.37
588.81	46454.95
588.97	46141.32
589.13	46012.59
589.29	46342.61
589.45	46836.46
589.61	46784.97
589.77	47201.58
589.93	47124.35
