SpectraSuite Data File
++++++++++++++++++++++++++++++++++++
Date: Fri Oct 25 10:44:51 EDT 2013
User: price-jones
Dark Spectrum Present: No
Reference Spectrum Present: No
Number of Sampled Component Spectra: 1
Spectrometers: USB2+H05261
Integration Time (usec): 100000 (USB2+H05261)
Spectra Averaged: 1 (USB2+H05261)
Boxcar Smoothing: 0 (USB2+H05261)
Correct for Electrical Dark: No (USB2+H05261)
Strobe/Lamp Enabled: No (USB2+H05261)
Correct for Detector Non-linearity: No (USB2+H05261)
Correct for Stray Light: No (USB2+H05261)
Number of Pixels in Processed Spectrum: 2048
>>>>>Begin Processed Spectral Data<<<<<
365.73	124.05
365.92	124.05
366.12	124.05
366.32	70.22
366.52	77.24
366.72	0.00
366.91	0.00
367.11	30.43
367.31	23.41
367.51	0.00
367.70	30.43
367.90	74.90
368.10	44.47
368.30	0.00
368.49	0.00
368.69	0.00
368.89	0.00
369.09	23.41
369.28	81.92
369.48	63.19
369.68	53.83
369.87	105.32
370.07	91.28
370.27	124.05
370.47	173.20
370.66	376.83
370.86	482.15
371.06	372.15
371.25	421.30
371.45	379.17
371.65	376.83
371.84	393.21
372.04	454.06
372.24	463.43
372.44	521.94
372.63	507.90
372.83	442.36
373.03	454.06
373.22	517.26
373.42	437.68
373.62	517.26
373.81	458.74
374.01	561.73
374.21	472.79
374.40	545.34
374.60	538.32
374.79	514.92
374.99	573.43
375.19	531.30
375.38	545.34
375.58	571.09
375.78	592.16
375.97	552.37
376.17	617.90
376.37	535.98
376.56	580.45
376.76	510.24
376.95	589.82
377.15	615.56
377.35	610.88
377.54	620.24
377.74	589.82
377.93	533.64
378.13	657.69
378.33	622.58
378.52	538.32
378.72	634.29
378.91	601.52
379.11	585.13
379.31	578.11
379.50	589.82
379.70	641.31
379.89	624.92
380.09	585.13
380.28	709.18
380.48	669.39
380.68	657.69
380.87	561.73
381.07	641.31
381.26	732.59
381.46	634.29
381.65	627.26
381.85	650.67
382.04	655.35
382.24	695.14
382.43	662.37
382.63	655.35
382.83	727.91
383.02	678.76
383.22	716.20
383.41	674.07
383.61	718.54
383.80	788.76
384.00	725.57
384.19	688.12
384.39	788.76
384.58	704.50
384.78	648.33
384.97	662.37
385.17	725.57
385.36	795.78
385.56	842.59
385.75	809.83
385.95	713.86
386.14	786.42
386.34	753.65
386.53	760.67
386.72	821.53
386.92	830.89
387.11	819.19
387.31	851.96
387.50	793.44
387.70	821.53
387.89	866.00
388.09	786.42
388.28	798.12
388.48	851.96
388.67	800.46
388.86	793.44
389.06	819.19
389.25	898.77
389.45	910.47
389.64	849.61
389.84	936.21
390.03	1011.11
390.22	959.62
390.42	1022.81
390.61	854.30
390.81	943.24
391.00	863.66
391.19	945.58
391.39	1046.22
391.58	1036.86
391.78	908.13
391.97	1025.15
392.16	978.34
392.36	973.66
392.55	1057.92
392.75	947.92
392.94	938.55
393.13	901.11
393.33	1046.22
393.52	1043.88
393.71	1043.88
393.91	1020.47
394.10	1015.79
394.29	1022.81
394.49	1107.07
394.68	1174.95
394.88	1102.39
395.07	1071.97
395.26	1132.82
395.46	1069.62
395.65	1165.59
395.84	1107.07
396.04	1102.39
396.23	1078.99
396.42	1139.84
396.62	1093.03
396.81	1165.59
397.00	1095.37
397.19	1083.67
397.39	1163.25
397.58	1224.10
397.77	1287.29
397.97	1287.29
398.16	1252.19
398.35	1303.68
398.55	1249.85
398.74	1359.85
398.93	1409.00
399.12	1240.48
399.32	1364.53
399.51	1296.66
399.70	1401.98
399.90	1329.42
400.09	1357.51
400.28	1373.89
400.47	1469.86
400.67	1465.18
400.86	1495.60
401.05	1446.45
401.24	1441.77
401.44	1516.67
401.63	1537.73
401.82	1465.18
402.01	1490.92
402.21	1481.56
402.40	1476.88
402.59	1474.54
402.78	1568.16
402.97	1607.95
403.17	1593.90
403.36	1612.63
403.55	1537.73
403.74	1736.68
403.93	1549.43
404.13	1692.21
404.32	1631.35
404.51	1563.48
404.70	1771.79
404.89	1757.74
405.09	1664.12
405.28	1696.89
405.47	1673.48
405.66	1717.95
405.85	1816.26
406.05	1834.98
406.24	1753.06
406.43	1888.81
406.62	1928.60
406.81	1893.49
407.00	1863.07
407.20	1689.87
407.39	1811.57
407.58	2001.16
407.77	1944.99
407.96	2040.95
408.15	1926.26
408.34	1895.83
408.54	1966.05
408.73	1989.46
408.92	2045.63
409.11	2101.80
409.30	1977.75
409.49	2036.27
409.68	1959.03
409.87	2080.74
410.07	2010.52
410.26	2132.23
410.45	2153.29
410.64	2155.63
410.83	2139.25
411.02	2279.68
411.21	2324.15
411.40	2284.36
411.59	2284.36
411.78	2352.24
411.98	2340.54
412.17	2359.26
412.36	2438.84
412.55	2473.95
412.74	2487.99
412.93	2321.81
413.12	2387.35
413.31	2583.95
413.50	2469.27
413.69	2427.14
413.88	2567.57
414.07	2612.04
414.26	2644.81
414.45	2761.83
414.64	2825.03
414.83	2630.76
415.02	2588.63
415.22	2787.58
415.41	2775.88
415.60	2715.02
415.79	2883.54
415.98	2883.54
416.17	2909.29
416.36	3014.61
416.55	2930.35
416.74	2904.60
416.93	2925.67
417.12	2888.22
417.31	3075.46
417.50	3035.67
417.69	3194.83
417.88	3239.30
418.07	3014.61
418.26	3126.96
418.45	3066.10
418.64	3248.66
418.83	3145.68
419.02	3138.66
419.21	3171.43
419.39	3194.83
419.58	3218.24
419.77	3302.50
419.96	3346.97
420.15	3265.05
420.34	3342.28
420.53	3431.23
420.72	3307.18
420.91	3337.60
421.10	3433.57
421.29	3463.99
421.48	3417.18
421.67	3382.07
421.86	3442.93
422.05	3311.86
422.24	3632.51
422.43	3421.86
422.61	3407.82
422.80	3363.35
422.99	3552.93
423.18	3597.40
423.37	3520.17
423.56	3569.32
423.75	3538.89
423.94	3487.40
424.13	3403.14
424.32	3377.39
424.50	3552.93
424.69	3618.47
424.88	3639.53
425.07	3562.30
425.26	3597.40
425.45	3445.27
425.64	3613.79
425.83	3613.79
426.01	3707.41
426.20	3669.96
426.39	3705.07
426.58	3536.55
426.77	3630.17
426.96	3613.79
427.15	3543.57
427.33	3679.32
427.52	3712.09
427.71	3625.49
427.90	3679.32
428.09	3833.80
428.28	3737.84
428.46	3761.24
428.65	3665.28
428.84	3817.41
429.03	3873.59
429.22	3805.71
429.40	3700.39
429.59	3730.81
429.78	3770.60
429.97	3632.51
430.16	3618.47
430.34	3810.39
430.53	3810.39
430.72	3969.55
430.91	4049.13
431.10	4032.74
431.28	4196.58
431.47	4088.92
431.66	4187.22
431.85	4198.92
432.03	4276.16
432.22	4308.93
432.41	4152.11
432.60	4191.90
432.79	4163.81
432.97	4217.65
433.16	4217.65
433.35	4166.15
433.54	4273.82
433.72	4229.35
433.91	4257.43
434.10	4236.37
434.28	4299.56
434.47	4280.84
434.66	4337.01
434.85	4437.66
435.03	4454.04
435.22	4505.53
435.41	4622.56
435.59	4596.81
435.78	4601.49
435.97	4526.60
436.16	4472.76
436.34	4571.07
436.53	4613.20
436.72	4667.03
436.90	4615.54
437.09	4702.14
437.28	4699.80
437.46	4746.61
437.65	4823.84
437.84	4601.49
438.02	4615.54
438.21	4688.09
438.40	4713.84
438.58	4809.80
438.77	5020.45
438.96	4975.98
439.14	5034.49
439.33	4971.30
439.52	5139.82
439.70	5093.01
439.89	5170.24
440.08	5191.31
440.26	5263.86
440.45	5221.74
440.63	5369.19
440.82	5423.02
441.01	5289.61
441.19	5348.12
441.38	5448.77
441.57	5420.68
441.75	5420.68
441.94	5465.15
442.12	5490.90
442.31	5680.48
442.50	5668.78
442.68	5600.90
442.87	5650.05
443.05	5584.52
443.24	5956.66
443.43	5738.99
443.61	5738.99
443.80	6064.33
443.98	5614.95
444.17	5577.50
444.35	5914.53
444.54	5970.71
444.73	5703.89
444.91	5912.19
445.10	5891.13
445.28	5830.27
445.47	5767.08
445.65	5675.80
445.84	5961.34
446.02	5973.05
446.21	6071.35
446.39	5844.32
446.58	5874.74
446.77	6113.48
446.95	5956.66
447.14	6040.92
447.32	5933.26
447.51	6129.86
447.69	5980.07
447.88	6150.93
448.06	6061.99
448.25	5982.41
448.43	6104.12
448.62	5973.05
448.80	6038.58
448.99	6230.51
449.17	6120.50
449.36	6078.37
449.54	6242.21
449.73	6375.62
449.91	6497.33
450.10	6415.41
450.28	6471.58
450.46	6427.11
450.65	6319.45
450.83	6403.71
451.02	6420.09
451.20	6478.60
451.39	6527.75
451.57	6417.75
451.76	6502.01
451.94	6530.09
452.13	6597.97
452.31	6527.75
452.49	6368.60
452.68	6520.73
452.86	6466.90
453.05	6651.80
453.23	6541.80
453.42	6551.16
453.60	6705.63
453.78	6637.76
453.97	6825.00
454.15	6583.93
454.34	6792.23
454.52	6780.53
454.70	6750.10
454.89	6981.82
455.07	6717.34
455.26	6857.77
455.44	6953.73
455.62	7021.61
455.81	6906.92
455.99	6810.96
456.17	7049.69
456.36	7012.24
456.54	7152.68
456.73	7241.62
456.91	7201.83
457.09	7166.72
457.28	7412.48
457.46	7316.51
457.64	7286.09
457.83	7225.23
458.01	7269.70
458.19	7637.17
458.38	7393.75
458.56	7510.78
458.74	7428.86
458.93	7414.82
459.11	7442.90
459.29	7517.80
459.48	7620.78
459.66	7447.58
459.84	7332.90
460.03	7978.89
460.21	7754.19
460.39	7744.83
460.57	7810.37
460.76	7887.61
460.94	7911.01
461.12	7667.60
461.31	7637.17
461.49	7712.07
461.67	7805.69
461.85	8198.90
462.04	7857.18
462.22	8224.64
462.40	8105.28
462.59	8109.96
462.77	7892.29
462.95	8215.28
463.13	7957.82
463.32	7817.39
463.50	8138.04
463.68	8257.41
463.86	8280.82
464.05	8131.02
464.23	8166.13
464.41	8175.49
464.59	8004.63
464.78	8454.02
464.96	8374.44
465.14	8271.45
465.32	8449.33
465.50	8608.49
465.69	8554.66
465.87	8264.43
466.05	8297.20
466.23	8409.54
466.41	8280.82
466.60	8629.56
466.78	8250.39
466.96	8425.93
467.14	8484.44
467.32	8533.59
467.51	8664.66
467.69	8224.64
467.87	8533.59
468.05	8842.54
468.23	8702.11
468.41	8823.82
468.60	8695.09
468.78	8821.48
468.96	8545.30
469.14	8767.65
469.32	8711.47
469.50	8580.40
469.69	8931.48
469.87	9104.68
470.05	8952.55
470.23	9029.79
470.41	8980.64
470.59	8978.30
470.77	8994.68
470.95	9041.49
471.14	9210.01
471.32	8999.36
471.50	9301.29
471.68	9331.72
471.86	9296.61
472.04	9551.73
472.22	9631.30
472.40	9427.68
472.58	9427.68
472.77	9427.68
472.95	9593.86
473.13	9750.67
473.31	9717.90
473.49	9577.47
473.67	9771.74
473.85	9774.08
474.03	10073.67
474.21	9970.68
474.39	10132.18
474.57	10008.13
474.75	10045.58
474.93	10111.11
475.12	10068.98
475.30	10139.20
475.48	10029.20
475.66	10391.98
475.84	10202.40
476.02	10403.68
476.20	10555.82
476.38	10703.27
476.56	10860.09
476.74	10817.96
476.92	10656.46
477.10	10799.23
477.28	11201.80
477.46	10745.40
477.64	11293.08
477.82	11295.43
478.00	11372.66
478.18	11456.92
478.36	11351.60
478.54	11566.93
478.72	11548.20
478.90	11852.47
479.08	11674.59
479.26	11861.84
479.44	12180.15
479.62	12086.53
479.80	12025.67
479.98	12187.17
480.16	12564.00
480.34	12264.41
480.52	12552.29
480.70	12479.74
480.88	12381.43
481.06	12671.66
481.24	12737.20
481.41	12751.24
481.59	13008.70
481.77	13146.79
481.95	13198.28
482.13	13352.76
482.31	13334.03
482.49	13654.69
482.67	13788.10
482.85	13720.22
483.03	13802.14
483.21	13944.91
483.39	14155.56
483.57	13928.53
483.74	14235.14
483.92	14633.03
484.10	14214.07
484.28	14483.24
484.46	14721.97
484.64	14995.81
484.82	14623.67
485.00	14850.70
485.18	15269.66
485.35	15101.14
485.53	15005.17
485.71	15021.56
485.89	15248.59
486.07	15456.90
486.25	15356.25
486.43	15264.97
486.61	15606.69
486.78	15932.03
486.96	15866.49
487.14	16182.46
487.32	16154.38
487.50	16236.30
487.68	16439.92
487.85	16830.79
488.03	16943.14
488.21	17135.06
488.39	17137.40
488.57	17202.94
488.75	17137.40
488.92	17635.94
489.10	17408.90
489.28	17727.22
489.46	18001.06
489.64	18001.06
489.81	18389.59
489.99	18097.02
490.17	18455.12
490.35	19000.47
490.53	18735.99
490.70	18899.83
490.88	18984.09
491.06	19168.99
491.24	19241.54
491.41	19073.03
491.59	19267.29
491.77	18974.72
491.95	19438.15
492.13	19728.38
492.30	19887.53
492.48	20114.56
492.66	20065.41
492.84	20276.06
493.01	19969.45
493.19	20130.95
493.37	20730.12
493.54	20739.49
493.72	20915.03
493.90	20680.97
494.08	21252.06
494.25	21481.44
494.43	21137.38
494.61	21401.86
494.79	21493.14
494.96	21462.71
495.14	21633.57
495.32	21827.84
495.49	22008.06
495.67	22043.17
495.85	21996.35
496.02	22352.12
496.20	22258.49
496.38	22534.68
496.55	22471.48
496.73	23178.33
496.91	22890.44
497.09	22944.27
497.26	23349.18
497.44	23260.24
497.62	23342.16
497.79	23459.19
497.97	23590.26
498.14	23367.91
498.32	23616.01
498.50	23527.06
498.67	23974.11
498.85	23955.38
499.03	24381.36
499.20	24142.63
499.38	24297.10
499.56	24098.16
499.73	24638.82
499.91	24898.62
500.08	24891.60
500.26	24531.15
500.44	24458.60
500.61	24844.79
500.79	24400.08
500.97	25036.71
501.14	25486.09
501.32	25003.94
501.49	25123.31
501.67	25209.91
501.84	25373.75
502.02	25743.55
502.20	25448.64
502.37	25909.73
502.55	25727.17
502.72	25715.47
502.90	26169.53
503.07	26080.59
503.25	25874.62
503.43	25919.09
503.60	26319.32
503.78	26111.02
503.95	26106.34
504.13	26384.86
504.30	26347.41
504.48	26555.72
504.65	26904.46
504.83	26822.54
505.01	27164.26
505.18	27080.00
505.36	27164.26
505.53	27204.05
505.71	27522.36
505.88	27559.81
506.06	27339.80
506.23	27676.83
506.41	27578.53
506.58	27854.72
506.76	27833.65
506.93	27983.44
507.11	27828.97
507.28	27957.70
507.46	27538.74
507.63	28173.03
507.81	28283.03
507.98	28154.30
508.16	28334.53
508.33	28606.03
508.50	28383.68
508.68	28683.27
508.85	29205.20
509.03	28711.35
509.20	28781.57
509.38	29242.65
509.55	28961.79
509.73	28985.19
509.90	29373.72
510.08	28879.87
510.25	29338.62
510.42	29610.12
510.60	29465.00
510.77	29495.43
510.95	29867.58
511.12	29717.78
511.30	29961.20
511.47	30487.82
511.64	30092.27
511.82	29965.88
511.99	29682.67
512.17	29930.77
512.34	30178.87
512.51	30314.62
512.69	30529.95
512.86	30717.19
513.04	30918.48
513.21	30707.83
513.38	30380.15
513.56	31061.25
513.73	30581.44
513.90	30883.37
514.08	31040.18
514.25	31260.20
514.43	31211.04
514.60	31016.78
514.77	31257.85
514.95	31225.09
515.12	31358.50
515.29	31566.81
515.47	31651.06
515.64	31744.69
515.81	31524.68
515.99	31704.90
516.16	31857.03
516.33	31786.82
516.51	31442.76
516.68	31608.93
516.85	31426.37
517.03	31873.42
517.20	32121.51
517.37	32128.53
517.54	32077.04
517.72	32325.14
517.89	32123.85
518.06	32027.89
518.24	32306.41
518.41	32297.05
518.58	32701.96
518.75	32748.78
518.93	32966.45
519.10	32706.65
519.27	32730.05
519.45	32711.33
519.62	33181.77
519.79	33151.35
519.96	33163.05
520.14	33427.53
520.31	33345.61
520.48	33546.90
520.65	33448.60
520.83	33476.68
521.00	33717.76
521.17	33598.39
521.34	33949.47
521.52	33792.65
521.69	33584.35
521.86	33752.87
522.03	33930.75
522.20	34206.93
522.38	34312.25
522.55	34536.94
522.72	33666.27
522.89	34307.57
523.07	34843.56
523.24	34490.13
523.41	34426.94
523.58	34890.37
523.75	35033.14
523.92	34548.65
524.10	35150.17
524.27	35126.76
524.44	34866.96
524.61	35304.64
524.78	35288.26
524.96	35431.03
525.13	35325.71
525.30	35683.81
525.47	35821.90
525.64	35269.53
525.81	35351.45
525.98	35379.54
526.16	35468.48
526.33	35480.18
526.50	35477.84
526.67	35072.93
526.84	35597.21
527.01	35786.79
527.18	35646.36
527.36	35861.69
527.53	35892.12
527.70	35924.88
527.87	36292.35
528.04	36196.38
528.21	36329.80
528.38	36460.87
528.55	36868.12
528.72	36449.16
528.89	36676.19
529.07	36446.82
529.24	35894.46
529.41	36568.53
529.58	36460.87
529.75	36676.19
529.92	37043.66
530.09	36512.36
530.26	37053.02
530.43	37120.90
530.60	36877.48
530.77	36779.18
530.94	37368.99
531.11	36985.15
531.28	36875.14
531.46	37352.61
531.63	37305.80
531.80	37652.20
531.97	37130.26
532.14	37268.35
532.31	37514.11
532.48	37577.30
532.65	37586.66
532.82	37502.40
532.99	37666.24
533.16	37394.74
533.33	37572.62
533.50	37919.02
533.67	37434.53
533.84	38106.26
534.01	37713.05
534.18	37741.14
534.35	37858.17
534.52	37804.33
534.69	38520.54
534.86	38071.15
535.03	37872.21
535.20	38630.54
535.37	38883.32
535.54	38939.49
535.71	38328.61
535.88	38600.12
536.05	38326.27
536.22	38398.83
536.38	38433.94
536.55	38698.42
536.72	38260.74
536.89	38417.55
537.06	39042.48
537.23	38691.40
537.40	38684.37
537.57	38660.97
537.74	38724.16
537.91	38756.93
538.08	39014.39
538.25	38845.87
538.42	39019.07
538.59	38855.23
538.75	38946.51
538.92	39166.52
539.09	39175.89
539.26	39442.71
539.43	39330.36
539.60	38990.98
539.77	39313.98
539.94	39012.05
540.11	39159.50
540.28	39487.18
540.44	39349.09
540.61	39508.24
540.78	39117.37
540.95	39583.14
541.12	39908.47
541.29	39370.15
541.46	39313.98
541.62	39608.89
541.79	39955.29
541.96	39351.43
542.13	39648.68
542.30	39737.62
542.47	39908.47
542.63	40219.77
542.80	39976.35
542.97	40528.72
543.14	40514.67
543.31	40666.81
543.48	40568.51
543.64	41284.71
543.81	40418.71
543.98	40783.83
544.15	40495.95
544.32	40790.86
544.48	40713.62
544.65	40889.16
544.82	41043.63
544.99	40966.40
545.16	40933.63
545.32	40938.31
545.49	41338.54
545.66	41130.23
545.83	41181.73
546.00	41731.75
546.16	41148.96
546.33	41099.81
546.50	40751.07
546.67	41106.83
546.83	40741.71
547.00	41223.86
547.17	41422.80
547.34	41296.41
547.50	41287.05
547.67	41748.14
547.84	41228.54
548.00	41710.69
548.17	42019.64
548.34	41963.46
548.51	41586.64
548.67	41488.34
548.84	41804.31
549.01	41530.47
549.18	41619.41
549.34	41680.26
549.51	41895.59
549.68	41635.79
549.84	41635.79
550.01	41785.58
550.18	42134.32
550.34	41483.66
550.51	42209.22
550.68	42007.94
550.84	41790.27
551.01	42232.63
551.18	41827.71
551.34	42162.41
551.51	42122.62
551.68	42349.65
551.84	42087.51
552.01	41984.53
552.18	41911.97
552.34	42064.11
552.51	42263.05
552.68	42139.00
552.84	42784.99
553.01	42490.09
553.18	42412.85
553.34	42321.57
553.51	42199.86
553.67	42335.61
553.84	42298.16
554.01	42969.90
554.17	43105.65
554.34	42593.07
554.51	42974.58
554.67	43115.01
554.84	42618.81
555.00	42707.76
555.17	42614.13
555.33	42492.43
555.50	42569.66
555.67	43112.67
555.83	42932.45
556.00	42911.38
556.16	43426.30
556.33	42782.65
556.50	42728.82
556.66	43253.10
556.83	42745.20
556.99	43239.06
557.16	43365.45
557.32	43152.46
557.49	43419.28
557.65	43100.97
557.82	42873.93
557.98	43798.44
558.15	43515.24
558.32	43615.88
558.48	42965.21
558.65	43185.22
558.81	42738.18
558.98	42955.85
559.14	43407.58
559.31	43246.08
559.47	43533.96
559.64	43566.73
559.80	43236.72
559.97	43416.94
560.13	43550.35
560.30	43213.31
560.46	43480.13
560.63	43683.76
560.79	43718.87
560.96	43995.05
561.12	44009.09
561.29	43770.36
561.45	43782.06
561.61	43545.67
561.78	43459.07
561.94	43463.75
562.11	43548.01
562.27	43517.58
562.44	43505.88
562.60	43824.19
562.77	43693.12
562.93	43569.07
563.10	43707.16
563.26	43124.37
563.42	43536.30
563.59	43686.10
563.75	43791.42
563.92	43681.42
564.08	43491.83
564.24	44121.44
564.41	43833.55
564.57	43807.81
564.74	43906.11
564.90	43756.32
565.07	44177.61
565.23	44133.14
565.39	43999.73
565.56	44133.14
565.72	43477.79
565.88	44156.55
566.05	43988.03
566.21	43784.40
566.38	44083.99
566.54	44182.29
566.70	44498.26
566.87	44332.09
567.03	43952.92
567.19	44540.39
567.36	44072.29
567.52	44257.19
567.68	44062.93
567.85	44100.37
568.01	44121.44
568.17	44119.10
568.34	44278.25
568.50	44196.34
568.66	44069.95
568.83	44491.24
568.99	43508.22
569.15	44013.77
569.32	44261.87
569.48	44030.16
569.64	44402.30
569.81	44208.04
569.97	44626.99
570.13	44275.91
570.30	43969.30
570.46	43744.61
570.62	43714.19
570.78	43807.81
570.95	44201.02
571.11	44594.23
571.27	43959.94
571.43	44231.44
571.60	44332.09
571.76	44037.18
571.92	44233.78
572.09	44280.60
572.25	44318.04
572.41	44002.07
572.57	44184.63
572.74	44861.05
572.90	44477.20
573.06	44243.15
573.22	44133.14
573.38	44383.58
573.55	44182.29
573.71	44275.91
573.87	44095.69
574.03	44325.07
574.20	44308.68
574.36	44488.90
574.52	44208.04
574.68	44128.46
574.84	44495.92
575.01	44715.93
575.17	44397.62
575.33	43887.39
575.49	44404.64
575.65	44521.67
575.82	44769.77
575.98	44414.01
576.14	44594.23
576.30	44257.19
576.46	44451.45
576.62	44561.46
576.79	44133.14
576.95	44030.16
577.11	44098.03
577.27	44493.58
577.43	44463.16
577.59	44706.57
577.75	44236.12
577.92	43971.64
578.08	44257.19
578.24	44289.96
578.40	44474.86
578.56	44411.67
578.72	44453.79
578.88	44811.90
579.04	44542.74
579.21	44664.44
579.37	44531.03
579.53	43976.33
579.69	44053.56
579.85	44659.76
580.01	44542.74
580.17	44626.99
580.33	44903.18
580.49	44294.64
580.65	44521.67
580.82	44659.76
580.98	44626.99
581.14	44931.26
581.30	44807.22
581.46	44776.79
581.62	44825.94
581.78	44341.45
581.94	44624.65
582.10	44268.89
582.26	44762.75
582.42	44776.79
582.58	44456.14
582.74	44390.60
582.90	44676.15
583.06	44849.35
583.22	45024.89
583.38	44470.18
583.54	44919.56
583.70	44636.36
583.86	44786.15
584.02	44673.81
584.18	44811.90
584.34	44683.17
584.50	44603.59
584.66	44545.08
584.82	44275.91
584.98	44933.60
585.14	44545.08
585.30	44575.50
585.46	44638.70
585.62	44053.56
585.78	44458.48
585.94	44458.48
586.10	44285.28
586.26	44442.09
586.42	44495.92
586.58	44865.73
586.74	44722.96
586.90	44678.49
587.06	44598.91
587.22	44591.89
587.38	44498.26
587.54	44666.78
587.70	45109.14
587.86	44924.24
588.02	44652.74
588.18	44722.96
588.34	44603.59
588.49	44254.85
588.65	44060.58
588.81	44619.97
588.97	44355.49
589.13	44619.97
589.29	44376.56
589.45	44947.65
589.61	44795.51
589.77	45006.16
589.93	44374.22
590.08	44900.84
590.24	44680.83
