SpectraSuite Data File
++++++++++++++++++++++++++++++++++++
Date: Fri Oct 25 11:33:46 EDT 2013
User: price-jones
Dark Spectrum Present: No
Reference Spectrum Present: No
Number of Sampled Component Spectra: 1
Spectrometers: USB2+H05261
Integration Time (usec): 100000 (USB2+H05261)
Spectra Averaged: 1 (USB2+H05261)
Boxcar Smoothing: 0 (USB2+H05261)
Correct for Electrical Dark: No (USB2+H05261)
Strobe/Lamp Enabled: No (USB2+H05261)
Correct for Detector Non-linearity: No (USB2+H05261)
Correct for Stray Light: No (USB2+H05261)
Number of Pixels in Processed Spectrum: 2048
>>>>>Begin Processed Spectral Data<<<<<
365.73	248.10
365.92	248.10
366.12	248.10
366.32	210.65
366.52	161.50
366.72	269.16
366.91	128.73
367.11	152.13
367.31	220.01
367.51	107.66
367.70	140.43
367.90	117.03
368.10	194.26
368.30	156.82
368.49	170.86
368.69	149.79
368.89	215.33
369.09	161.50
369.28	182.56
369.48	210.65
369.68	194.26
369.87	241.08
370.07	234.05
370.27	283.20
370.47	318.31
370.66	454.06
370.86	594.50
371.06	533.64
371.25	580.45
371.45	533.64
371.65	540.66
371.84	573.43
372.04	608.54
372.24	571.09
372.44	519.60
372.63	554.71
372.83	631.94
373.03	624.92
373.22	596.84
373.42	629.60
373.62	545.34
373.81	636.63
374.01	667.05
374.21	683.44
374.40	622.58
374.60	622.58
374.79	685.78
374.99	660.03
375.19	695.14
375.38	655.35
375.58	706.84
375.78	636.63
375.97	648.33
376.17	645.99
376.37	641.31
376.56	713.86
376.76	688.12
376.95	674.07
377.15	709.18
377.35	631.94
377.54	753.65
377.74	596.84
377.93	690.46
378.13	697.48
378.33	713.86
378.52	718.54
378.72	730.25
378.91	671.73
379.11	655.35
379.31	739.61
379.50	760.67
379.70	784.08
379.89	685.78
380.09	725.57
380.28	667.05
380.48	709.18
380.68	748.97
380.87	660.03
381.07	798.12
381.26	734.93
381.46	774.72
381.65	856.64
381.85	690.46
382.04	763.01
382.24	779.40
382.43	795.78
382.63	866.00
382.83	748.97
383.02	784.08
383.22	828.55
383.41	812.17
383.61	816.85
383.80	802.80
384.00	819.19
384.19	844.93
384.39	805.14
384.58	842.59
384.78	802.80
384.97	908.13
385.17	800.46
385.36	840.25
385.56	828.55
385.75	802.80
385.95	779.40
386.14	842.59
386.34	894.08
386.53	868.34
386.72	844.93
386.92	915.15
387.11	894.08
387.31	903.45
387.50	931.53
387.70	884.72
387.89	978.34
388.09	807.48
388.28	908.13
388.48	863.66
388.67	933.87
388.86	973.66
389.06	987.71
389.25	990.05
389.45	959.62
389.64	994.73
389.84	891.74
390.03	976.00
390.22	976.00
390.42	926.85
390.61	978.34
390.81	919.83
391.00	1060.26
391.19	990.05
391.39	947.92
391.58	990.05
391.78	1057.92
391.97	1018.13
392.16	964.30
392.36	1076.65
392.55	1067.28
392.75	1027.50
392.94	1011.11
393.13	1004.09
393.33	1160.91
393.52	1137.50
393.71	1076.65
393.91	1132.82
394.10	1048.56
394.29	957.28
394.49	1104.73
394.68	1114.10
394.88	1081.33
395.07	1095.37
395.26	1137.50
395.46	1167.93
395.65	1142.18
395.84	1203.04
396.04	1235.80
396.23	1107.07
396.42	1130.48
396.62	1163.25
396.81	1231.12
397.00	1240.48
397.19	1193.67
397.39	1245.16
397.58	1306.02
397.77	1221.76
397.97	1350.49
398.16	1345.81
398.35	1266.23
398.55	1256.87
398.74	1217.08
398.93	1282.61
399.12	1345.81
399.32	1299.00
399.51	1320.06
399.70	1401.98
399.90	1345.81
400.09	1420.71
400.28	1387.94
400.47	1394.96
400.67	1504.96
400.86	1406.66
401.05	1416.02
401.24	1514.33
401.44	1409.00
401.63	1448.79
401.82	1511.99
402.01	1357.51
402.21	1474.54
402.40	1535.39
402.59	1497.94
402.78	1458.15
402.97	1511.99
403.17	1537.73
403.36	1551.78
403.55	1572.84
403.74	1659.44
403.93	1671.14
404.13	1664.12
404.32	1577.52
404.51	1575.18
404.70	1638.38
404.89	1537.73
405.09	1708.59
405.28	1680.50
405.47	1636.03
405.66	1734.34
405.85	1778.81
406.05	1729.66
406.24	1802.21
406.43	1687.53
406.62	1844.34
406.81	1884.13
407.00	1799.87
407.20	1750.72
407.39	1830.30
407.58	1825.62
407.77	1806.89
407.96	1839.66
408.15	1942.64
408.34	1867.75
408.54	1895.83
408.73	1886.47
408.92	2029.24
409.11	1982.43
409.30	1980.09
409.49	1870.09
409.68	1966.05
409.87	1921.58
410.07	2047.97
410.26	2019.88
410.45	2083.08
410.64	2094.78
410.83	2169.68
411.02	2111.16
411.21	2094.78
411.40	2076.06
411.59	2204.78
411.78	2165.00
411.98	2197.76
412.17	2150.95
412.36	2303.09
412.55	2312.45
412.74	2380.32
412.93	2385.01
413.12	2408.41
413.31	2478.63
413.50	2296.07
413.69	2317.13
413.88	2466.92
414.07	2476.29
414.26	2495.01
414.45	2530.12
414.64	2562.89
414.83	2572.25
415.02	2539.48
415.22	2609.70
415.41	2623.74
415.60	2731.41
415.79	2651.83
415.98	2696.30
416.17	2691.62
416.36	2719.70
416.55	2661.19
416.74	2785.24
416.93	2836.73
417.12	2843.75
417.31	2895.24
417.50	2829.71
417.69	2960.78
417.88	3014.61
418.07	2967.80
418.26	2991.20
418.45	2834.39
418.64	2956.10
418.83	3084.83
419.02	3178.45
419.21	3126.96
419.39	3080.14
419.58	3000.57
419.77	3012.27
419.96	3208.87
420.15	3269.73
420.34	3094.19
420.53	3241.64
420.72	3353.99
420.91	3286.11
421.10	3356.33
421.29	3173.77
421.48	3180.79
421.67	3335.26
421.86	3265.05
422.05	3229.94
422.24	3300.16
422.43	3236.96
422.61	3456.97
422.80	3304.84
422.99	3456.97
423.18	3323.56
423.37	3398.46
423.56	3489.74
423.75	3417.18
423.94	3255.69
424.13	3197.17
424.32	3349.31
424.50	3400.80
424.69	3494.42
424.88	3461.65
425.07	3372.71
425.26	3349.31
425.45	3433.57
425.64	3482.72
425.83	3398.46
426.01	3506.12
426.20	3379.73
426.39	3452.29
426.58	3555.27
426.77	3531.87
426.96	3662.94
427.15	3473.36
427.33	3679.32
427.52	3595.06
427.71	3515.48
427.90	3536.55
428.09	3672.30
428.28	3566.98
428.46	3651.24
428.65	3648.90
428.84	3714.43
429.03	3794.01
429.22	3667.62
429.40	3637.19
429.59	3899.33
429.78	3775.28
429.97	3625.49
430.16	3817.41
430.34	3714.43
430.53	3857.20
430.72	3674.64
430.91	3894.65
431.10	3927.42
431.28	3920.40
431.47	4039.76
431.66	4042.11
431.85	3861.88
432.03	4037.42
432.22	4081.89
432.41	4138.07
432.60	4095.94
432.79	3988.27
432.97	4112.32
433.16	4217.65
433.35	4044.45
433.54	4222.33
433.72	4271.48
433.91	4264.46
434.10	4133.39
434.28	4095.94
434.47	4250.41
434.66	4198.92
434.85	4227.01
435.03	4358.08
435.22	4362.76
435.41	4273.82
435.59	4355.74
435.78	4447.02
435.97	4418.93
436.16	4451.70
436.34	4301.90
436.53	4477.44
436.72	4498.51
436.90	4393.19
437.09	4550.00
437.28	4528.94
437.46	4568.73
437.65	4498.51
437.84	4535.96
438.02	4599.15
438.21	4566.39
438.40	4479.79
438.58	4847.25
438.77	4830.87
438.96	4683.41
439.14	4795.76
439.33	4851.93
439.52	4924.49
439.70	4889.38
439.89	5039.17
440.08	5069.60
440.26	4936.19
440.45	4957.25
440.63	5006.41
440.82	5238.12
441.01	4959.60
441.19	5081.30
441.38	5217.05
441.57	5352.81
441.75	5383.23
441.94	5378.55
442.12	5376.21
442.31	5586.86
442.50	5458.13
442.68	5481.53
442.87	5458.13
443.05	5420.68
443.24	5472.17
443.43	5460.47
443.61	5603.24
443.80	5605.58
443.98	5444.09
444.17	5420.68
444.35	5509.62
444.54	5769.42
444.73	5554.09
444.91	5563.45
445.10	5750.70
445.28	5631.33
445.47	5692.18
445.65	5572.82
445.84	5694.52
446.02	5851.34
446.21	5930.92
446.39	5708.57
446.58	5900.49
446.77	5827.93
446.95	5633.67
447.14	5696.86
447.32	5795.17
447.51	5907.51
447.69	5774.10
447.88	5792.83
448.06	5825.59
448.25	5753.04
448.43	5874.74
448.62	5678.14
448.80	5769.42
448.99	5863.04
449.17	5816.23
449.36	5778.78
449.54	6001.13
449.73	6097.10
449.91	6127.52
450.10	5970.71
450.28	6197.74
450.46	6080.71
450.65	6040.92
450.83	5991.77
451.02	6181.35
451.20	6223.48
451.39	6218.80
451.57	6188.38
451.76	6148.59
451.94	6256.25
452.13	6333.49
452.31	6321.79
452.49	6274.98
452.68	6340.51
452.86	6319.45
453.05	6363.92
453.23	6270.30
453.42	6298.38
453.60	6312.42
453.78	6366.26
453.97	6366.26
454.15	6413.07
454.34	6352.21
454.52	6576.91
454.70	6490.31
454.89	6502.01
455.07	6609.67
455.26	6665.85
455.44	6530.09
455.62	6602.65
455.81	6527.75
455.99	6759.47
456.17	6867.13
456.36	6920.96
456.54	6726.70
456.73	6820.32
456.91	6956.07
457.09	7026.29
457.28	7136.29
457.46	6836.70
457.64	7133.95
457.83	7103.53
458.01	6925.65
458.19	7290.77
458.38	7218.21
458.56	7133.95
458.74	7047.35
458.93	7180.76
459.11	7302.47
459.29	7389.07
459.48	7211.19
459.66	7234.60
459.84	7365.67
460.03	7391.41
460.21	7342.26
460.39	7524.82
460.57	7314.17
460.76	7339.92
460.94	7569.29
461.12	7669.94
461.31	7576.31
461.49	7646.53
461.67	7396.09
461.85	7611.42
462.04	7524.82
462.22	8163.79
462.40	7929.74
462.59	7709.72
462.77	7747.17
462.95	7840.79
463.13	7637.17
463.32	7789.30
463.50	8056.12
463.68	7744.83
463.86	7918.03
464.05	7833.77
464.23	7957.82
464.41	7943.78
464.59	7854.84
464.78	8201.24
464.96	7960.16
465.14	8042.08
465.32	8006.97
465.50	8074.85
465.69	8128.68
465.87	7985.91
466.05	8252.73
466.23	8245.71
466.41	8222.30
466.60	8299.54
466.78	8032.72
466.96	8119.32
467.14	8039.74
467.32	8400.18
467.51	8365.07
467.69	8259.75
467.87	8278.47
468.05	8383.80
468.23	8142.72
468.41	8360.39
468.60	8421.25
468.78	8571.04
468.96	8386.14
469.14	8641.26
469.32	8755.94
469.50	8381.46
469.69	8425.93
469.87	8753.60
470.05	8847.22
470.23	8732.54
470.41	8681.05
470.59	8772.33
470.77	8795.73
470.95	8748.92
471.14	8966.59
471.32	9032.13
471.50	9160.86
471.68	9036.81
471.86	9231.07
472.04	9144.47
472.22	9153.84
472.40	8837.86
472.58	9142.13
472.77	9228.73
472.95	9584.49
473.13	9596.20
473.31	9423.00
473.49	9303.63
473.67	9345.76
473.85	9516.62
474.03	9556.41
474.21	9682.80
474.39	9884.08
474.57	9837.27
474.75	10029.20
474.93	9820.89
475.12	10052.60
475.30	10036.22
475.48	10118.14
475.66	10457.51
475.84	10169.63
476.02	10228.14
476.20	10200.05
476.38	10406.02
476.56	10480.92
476.74	10611.99
476.92	10417.72
477.10	10478.58
477.28	10572.20
477.46	10677.52
477.64	10665.82
477.82	10857.75
478.00	11061.37
478.18	11187.76
478.36	11309.47
478.54	11400.75
478.72	11445.22
478.90	11527.14
479.08	11480.33
479.26	11648.85
479.44	11552.88
479.62	11733.11
479.80	12084.19
479.98	12037.38
480.16	12243.34
480.34	12018.65
480.52	12245.68
480.70	12451.65
480.88	12095.89
481.06	12393.14
481.24	12517.18
481.41	12573.36
481.59	12765.28
481.77	12821.45
481.95	12856.56
482.13	12847.20
482.31	12940.82
482.49	13427.65
482.67	13322.33
482.85	13392.55
483.03	13799.80
483.21	13568.09
483.39	13659.37
483.57	13855.97
483.74	14036.19
483.92	14015.13
484.10	13989.38
484.28	14398.98
484.46	14401.32
484.64	14553.45
484.82	14738.35
485.00	14789.85
485.18	14909.21
485.35	15051.99
485.53	14764.10
485.71	15080.07
485.89	15625.42
486.07	15250.93
486.25	15211.14
486.43	15679.25
486.61	15599.67
486.78	15978.84
486.96	15908.62
487.14	16173.10
487.32	16250.34
487.50	16479.71
487.68	16421.20
487.85	16695.04
488.03	16861.22
488.21	17034.42
488.39	17219.32
488.57	17214.64
488.75	17069.53
488.92	17256.77
489.10	17537.63
489.28	17572.74
489.46	17659.34
489.64	17483.80
489.81	17994.04
489.99	18146.17
490.17	18111.07
490.35	18553.43
490.53	18511.30
490.70	18787.48
490.88	18539.38
491.06	18792.16
491.24	18948.98
491.41	19012.17
491.59	19002.81
491.77	19037.92
491.95	19267.29
492.13	19293.04
492.30	19484.96
492.48	19660.50
492.66	19882.85
492.84	19782.21
493.01	19948.39
493.19	20088.82
493.37	20336.91
493.54	20280.74
493.72	20615.44
493.90	20716.08
494.08	20512.46
494.25	20938.43
494.43	20917.37
494.61	21116.31
494.79	21104.61
494.96	21284.83
495.14	21235.68
495.32	21813.79
495.49	21579.74
495.67	21853.58
495.85	21816.13
496.02	22312.33
496.20	22192.96
496.38	22270.20
496.55	22338.07
496.73	23019.17
496.91	22731.28
497.09	22862.35
497.26	22677.45
497.44	22904.48
497.62	23087.04
497.79	23335.14
497.97	23274.29
498.14	23506.00
498.32	23564.51
498.50	23740.05
498.67	23953.04
498.85	23735.37
499.03	23960.06
499.20	23936.66
499.38	24142.63
499.56	24236.25
499.73	24336.89
499.91	24489.03
500.08	24826.06
500.26	24795.64
500.44	24861.17
500.61	24915.00
500.79	24542.86
500.97	24926.71
501.14	25448.64
501.32	25521.20
501.49	25048.41
501.67	25509.50
501.84	25647.59
502.02	25486.09
502.20	25680.36
502.37	25715.47
502.55	25610.14
502.72	25886.32
502.90	25970.58
503.07	25844.20
503.25	25935.48
503.43	25809.09
503.60	26321.66
503.78	26398.90
503.95	26480.82
504.13	26583.80
504.30	26459.76
504.48	26934.88
504.65	26759.34
504.83	26852.97
505.01	27145.53
505.18	27087.02
505.36	27342.14
505.53	27370.22
505.71	27260.22
505.88	27896.85
506.06	27124.47
506.23	27620.66
506.41	27290.65
506.58	27913.23
506.76	27604.28
506.93	28283.03
507.11	27566.83
507.28	28058.34
507.46	28091.11
507.63	28229.20
507.81	28694.97
507.98	28297.08
508.16	28311.12
508.33	28802.63
508.50	28524.11
508.68	28755.82
508.85	28802.63
509.03	28648.16
509.20	29151.37
509.38	29479.05
509.55	29146.69
509.73	29544.58
509.90	29296.49
510.08	29223.93
510.25	29298.83
510.42	29736.51
510.60	29511.81
510.77	29982.26
510.95	30508.88
511.12	30029.07
511.30	30017.37
511.47	29682.67
511.64	30120.35
511.82	30106.31
511.99	30057.16
512.17	30218.66
512.34	30607.19
512.51	30909.11
512.69	31094.02
512.86	31002.74
513.04	31033.16
513.21	30682.08
513.38	31386.58
513.56	31152.53
513.73	30831.88
513.90	31417.01
514.08	30911.46
514.25	31899.16
514.43	31445.10
514.60	31494.25
514.77	31618.30
514.95	31838.31
515.12	31604.25
515.29	32055.98
515.47	31948.31
515.64	31955.33
515.81	31985.76
515.99	31744.69
516.16	32325.14
516.33	32063.00
516.51	32058.32
516.68	32360.25
516.85	32465.57
517.03	32467.91
517.20	33036.66
517.37	32484.30
517.54	32662.18
517.72	32760.48
517.89	33046.02
518.06	32809.63
518.24	33170.07
518.41	32837.72
518.58	33326.89
518.75	33057.73
518.93	33329.23
519.10	33497.75
519.27	33343.27
519.45	33251.99
519.62	33347.95
519.79	33614.77
519.96	33919.04
520.14	33795.00
520.31	34015.01
520.48	33680.31
520.65	33982.24
520.83	34733.55
521.00	34574.39
521.17	34398.85
521.34	34604.82
521.52	34073.52
521.69	34333.32
521.86	34731.21
522.03	34415.24
522.20	34834.19
522.38	34885.68
522.55	34967.60
522.72	35260.17
522.89	34808.45
523.07	34986.33
523.24	35274.21
523.41	35239.11
523.58	34803.77
523.75	35550.40
523.92	35342.09
524.10	35604.23
524.27	35526.99
524.44	35761.05
524.61	35875.73
524.78	35716.58
524.96	36011.48
525.13	36039.57
525.30	36219.79
525.47	36149.57
525.64	35988.08
525.81	36322.77
525.98	36074.68
526.16	36451.50
526.33	36161.28
526.50	36364.90
526.67	36130.85
526.84	36332.14
527.01	36287.67
527.18	36444.48
527.36	36512.36
527.53	37031.96
527.70	37184.09
527.87	36971.10
528.04	36641.09
528.21	36739.39
528.38	37268.35
528.55	37024.93
528.72	36973.44
528.89	37261.33
529.07	37188.77
529.24	37198.13
529.41	37626.45
529.58	37570.28
529.75	37380.70
529.92	37521.13
530.09	37666.24
530.26	37563.26
530.43	38330.95
530.60	37626.45
530.77	37600.71
530.94	38139.03
531.11	37294.10
531.28	37762.20
531.46	37904.98
531.63	37942.42
531.80	38113.28
531.97	38253.72
532.14	38323.93
532.31	38096.90
532.48	38677.35
532.65	38941.83
532.82	37993.92
532.99	38307.55
533.16	38466.70
533.33	39063.54
533.50	39093.97
533.67	38799.06
533.84	38593.09
534.01	38895.02
534.18	38876.30
534.35	39105.67
534.52	39409.94
534.69	39199.29
534.86	39187.59
535.03	39208.65
535.20	39269.51
535.37	39246.10
535.54	39463.77
535.71	39356.11
535.88	39885.07
536.05	39873.37
536.22	39423.98
536.38	40032.52
536.55	39686.12
536.72	39564.42
536.89	39285.89
537.06	39573.78
537.23	39938.90
537.40	39608.89
537.57	39842.94
537.74	39557.39
537.91	40271.26
538.08	40126.14
538.25	39510.58
538.42	40093.38
538.59	40418.71
538.75	40280.62
538.92	40315.73
539.09	40559.14
539.26	40739.36
539.43	40528.72
539.60	40694.89
539.77	40620.00
539.94	40673.83
540.11	40687.87
540.28	40570.85
540.44	40421.05
540.61	40346.15
540.78	40783.83
540.95	41193.43
541.12	40816.60
541.29	41144.28
541.46	40910.22
541.62	41263.64
541.79	41312.80
541.96	40856.39
542.13	40748.73
542.30	40987.46
542.47	41113.85
542.63	41333.86
542.80	41378.33
542.97	41914.31
543.14	41333.86
543.31	41621.75
543.48	41724.73
543.64	42029.00
543.81	41951.76
543.98	41972.83
544.15	41614.72
544.32	42122.62
544.48	42614.13
544.65	42237.31
544.82	42209.22
544.99	41914.31
545.16	42806.06
545.32	42143.69
545.49	42623.50
545.66	43028.41
545.83	42749.88
546.00	42518.17
546.16	42543.92
546.33	42307.52
546.50	42136.66
546.67	42590.73
546.83	42316.89
547.00	42366.04
547.17	42520.51
547.34	42904.36
547.50	42902.02
547.67	43143.09
547.84	43012.02
548.00	42836.48
548.17	43484.81
548.34	43311.61
548.51	43676.74
548.67	42939.47
548.84	42784.99
549.01	42986.28
549.18	43208.63
549.34	43292.89
549.51	43643.97
549.68	43643.97
549.84	43445.02
550.01	43494.18
550.18	42920.74
550.34	43494.18
550.51	43803.13
550.68	43786.74
550.84	43056.50
551.01	43761.00
551.18	43449.70
551.34	43739.93
551.51	44044.20
551.68	43597.16
551.84	43683.76
552.01	43779.72
552.18	43952.92
552.34	43718.87
552.51	44093.35
552.68	43723.55
552.84	43627.59
553.01	44109.74
553.18	43835.89
553.34	44201.02
553.51	44002.07
553.67	44095.69
553.84	44568.48
554.01	44133.14
554.17	44598.91
554.34	44425.71
554.51	44395.28
554.67	44605.93
554.84	44985.10
555.00	44657.42
555.17	44240.81
555.33	44748.70
555.50	44629.34
555.67	44341.45
555.83	44678.49
556.00	44809.56
556.16	45158.30
556.33	44814.24
556.50	45052.97
556.66	44629.34
556.83	44575.50
556.99	45375.97
557.16	45017.86
557.32	45151.27
557.49	45188.72
557.65	44877.43
557.82	44818.92
557.98	45097.44
558.15	45170.00
558.32	45015.52
558.48	44561.46
558.65	45237.87
558.81	45177.02
558.98	45361.92
559.14	45284.68
559.31	45116.17
559.47	45106.80
559.64	45130.21
559.80	45574.91
559.97	45462.57
560.13	45048.29
560.30	45085.74
560.46	45265.96
560.63	45818.33
560.79	45366.60
560.96	45680.24
561.12	45991.53
561.29	45666.19
561.45	45698.96
561.61	45961.10
561.78	45738.75
561.94	45823.01
562.11	45350.22
562.27	45558.53
562.44	45422.78
562.60	45783.22
562.77	45584.27
562.93	45457.88
563.10	45811.31
563.26	45579.59
563.42	46433.89
563.59	45862.80
563.75	45649.81
563.92	46064.08
564.08	45757.47
564.24	45815.99
564.41	45961.10
564.57	46291.12
564.74	45827.69
564.90	46068.76
565.07	46174.09
565.23	46155.36
565.39	46183.45
565.56	45766.84
565.72	46021.95
565.88	46136.64
566.05	45874.50
566.21	45844.07
566.38	46532.19
566.54	45881.52
566.70	46101.53
566.87	46499.42
567.03	46073.45
567.19	46529.85
567.36	46213.88
567.52	46218.56
567.68	46660.92
567.85	45687.26
568.01	46660.92
568.17	46050.04
568.34	46211.54
568.50	46714.75
568.66	46326.22
568.83	46305.16
568.99	46581.34
569.15	46663.26
569.32	46305.16
569.48	46190.47
569.64	46614.11
569.81	46464.32
569.97	46829.44
570.13	46483.04
570.30	46466.66
570.46	46167.07
570.62	46499.42
570.78	46581.34
570.95	46461.97
571.11	46883.27
571.27	46248.99
571.43	46422.19
571.60	46934.76
571.76	46356.65
571.92	46471.34
572.09	46714.75
572.25	46452.61
572.41	46635.17
572.57	46674.96
572.74	47423.93
572.90	46635.17
573.06	47313.93
573.22	47171.16
573.38	47288.18
573.55	46768.58
573.71	47707.14
573.87	46911.36
574.03	47093.92
574.20	47040.09
574.36	46590.70
574.52	46946.47
574.68	46560.28
574.84	47089.24
575.01	47180.52
575.17	47047.11
575.33	46951.15
575.49	46824.76
575.65	47075.19
575.82	46803.69
575.98	46508.79
576.14	47072.85
576.30	47173.50
576.46	46974.55
576.62	46663.26
576.79	46876.25
576.95	46976.89
577.11	46677.30
577.27	46843.48
577.43	47126.69
577.59	47353.72
577.75	47082.22
577.92	46829.44
578.08	47157.11
578.24	47346.70
578.40	47140.73
578.56	47281.16
578.72	47112.64
578.88	47084.56
579.04	47334.99
579.21	47224.99
579.37	47028.38
579.53	46855.18
579.69	47145.41
579.85	46934.76
580.01	47285.84
580.17	47014.34
580.33	47599.47
580.49	46916.04
580.65	47257.76
580.82	47475.43
580.98	47187.54
581.14	47098.60
581.30	47262.44
581.46	46770.93
581.62	47213.29
581.78	46829.44
581.94	47423.93
582.10	46995.62
582.26	47264.78
582.42	46997.96
582.58	46983.91
582.74	47114.98
582.90	47253.08
583.06	47480.11
583.22	47229.67
583.38	47746.93
583.54	47019.02
583.70	47274.14
583.86	47739.91
584.02	47580.75
584.18	47838.21
584.34	47543.30
584.50	47264.78
584.66	47536.28
584.82	47377.12
584.98	47576.07
585.14	47578.41
585.30	47344.36
585.46	47388.83
585.62	47089.24
585.78	47349.04
585.94	47033.07
586.10	46958.17
586.26	46911.36
586.42	47049.45
586.58	47463.72
586.74	47445.00
586.90	47201.58
587.06	47112.64
587.22	47742.25
587.38	47402.87
587.54	47351.38
587.70	47814.80
587.86	47203.92
588.02	47391.17
588.18	47239.03
588.34	47641.60
588.49	47384.15
588.65	47161.79
588.81	47618.20
588.97	47679.05
589.13	47517.56
589.29	47217.97
589.45	47775.02
589.61	47597.13
589.77	47601.82
589.93	47227.33
590.08	47627.56
