SpectraSuite Data File
++++++++++++++++++++++++++++++++++++
Date: Fri Oct 25 11:34:29 EDT 2013
User: price-jones
Dark Spectrum Present: No
Reference Spectrum Present: No
Number of Sampled Component Spectra: 1
Spectrometers: USB2+H05261
Integration Time (usec): 100000 (USB2+H05261)
Spectra Averaged: 1 (USB2+H05261)
Boxcar Smoothing: 0 (USB2+H05261)
Correct for Electrical Dark: No (USB2+H05261)
Strobe/Lamp Enabled: No (USB2+H05261)
Correct for Detector Non-linearity: No (USB2+H05261)
Correct for Stray Light: No (USB2+H05261)
Number of Pixels in Processed Spectrum: 2048
>>>>>Begin Processed Spectral Data<<<<<
365.73	292.57
365.92	292.57
366.12	292.57
366.32	238.73
366.52	180.22
366.72	208.31
366.91	147.45
367.11	205.97
367.31	173.20
367.51	182.56
367.70	208.31
367.90	220.01
368.10	117.03
368.30	194.26
368.49	131.07
368.69	227.03
368.89	229.37
369.09	273.84
369.28	299.59
369.48	189.58
369.68	201.29
369.87	231.71
370.07	234.05
370.27	278.52
370.47	304.27
370.66	393.21
370.86	521.94
371.06	545.34
371.25	514.92
371.45	475.13
371.65	573.43
371.84	533.64
372.04	524.28
372.24	592.16
372.44	580.45
372.63	594.50
372.83	575.77
373.03	589.82
373.22	610.88
373.42	547.69
373.62	528.96
373.81	620.24
374.01	634.29
374.21	678.76
374.40	683.44
374.60	660.03
374.79	662.37
374.99	746.63
375.19	657.69
375.38	713.86
375.58	662.37
375.78	685.78
375.97	606.20
376.17	683.44
376.37	709.18
376.56	662.37
376.76	681.10
376.95	667.05
377.15	692.80
377.35	706.84
377.54	704.50
377.74	660.03
377.93	741.95
378.13	737.27
378.33	676.41
378.52	645.99
378.72	664.71
378.91	760.67
379.11	671.73
379.31	681.10
379.50	664.71
379.70	718.54
379.89	678.76
380.09	760.67
380.28	777.06
380.48	716.20
380.68	711.52
380.87	716.20
381.07	716.20
381.26	760.67
381.46	851.96
381.65	746.63
381.85	774.72
382.04	777.06
382.24	812.17
382.43	791.10
382.63	704.50
382.83	704.50
383.02	760.67
383.22	758.33
383.41	751.31
383.61	861.32
383.80	784.08
384.00	805.14
384.19	821.53
384.39	781.74
384.58	800.46
384.78	903.45
384.97	858.98
385.17	788.76
385.36	784.08
385.56	739.61
385.75	875.36
385.95	821.53
386.14	835.57
386.34	744.29
386.53	868.34
386.72	805.14
386.92	889.40
387.11	926.85
387.31	842.59
387.50	809.83
387.70	880.04
387.89	828.55
388.09	823.87
388.28	781.74
388.48	901.11
388.67	910.47
388.86	926.85
389.06	924.51
389.25	947.92
389.45	954.94
389.64	978.34
389.84	1034.52
390.03	943.24
390.22	922.17
390.42	910.47
390.61	961.96
390.81	896.43
391.00	924.51
391.19	957.28
391.39	915.15
391.58	1001.75
391.78	994.73
391.97	983.02
392.16	1018.13
392.36	1001.75
392.55	891.74
392.75	1001.75
392.94	983.02
393.13	1013.45
393.33	1064.94
393.52	987.71
393.71	1055.58
393.91	1118.78
394.10	1018.13
394.29	1055.58
394.49	1078.99
394.68	1100.05
394.88	1132.82
395.07	1146.86
395.26	1095.37
395.46	1043.88
395.65	1029.84
395.84	1179.63
396.04	1188.99
396.23	1174.95
396.42	1132.82
396.62	1203.04
396.81	1184.31
397.00	1228.78
397.19	1205.38
397.39	1156.22
397.58	1249.85
397.77	1214.74
397.97	1254.53
398.16	1205.38
398.35	1261.55
398.55	1207.72
398.74	1249.85
398.93	1263.89
399.12	1296.66
399.32	1275.59
399.51	1203.04
399.70	1324.74
399.90	1399.64
400.09	1280.27
400.28	1317.72
400.47	1301.34
400.67	1338.79
400.86	1345.81
401.05	1350.49
401.24	1327.08
401.44	1371.55
401.63	1430.07
401.82	1313.04
402.01	1425.39
402.21	1392.62
402.40	1425.39
402.59	1460.49
402.78	1523.69
402.97	1460.49
403.17	1427.73
403.36	1516.67
403.55	1563.48
403.74	1514.33
403.93	1458.15
404.13	1579.86
404.32	1537.73
404.51	1523.69
404.70	1547.09
404.89	1500.28
405.09	1572.84
405.28	1549.43
405.47	1614.97
405.66	1643.06
405.85	1680.50
406.05	1682.85
406.24	1659.44
406.43	1610.29
406.62	1736.68
406.81	1755.40
407.00	1675.82
407.20	1689.87
407.39	1750.72
407.58	1863.07
407.77	1804.55
407.96	1820.94
408.15	1879.45
408.34	1832.64
408.54	1940.30
408.73	1806.89
408.92	1895.83
409.11	1944.99
409.30	1809.23
409.49	1935.62
409.68	1893.49
409.87	1895.83
410.07	1923.92
410.26	1968.39
410.45	1956.69
410.64	1886.47
410.83	2038.61
411.02	2012.86
411.21	2054.99
411.40	2062.01
411.59	2073.71
411.78	2012.86
411.98	2064.35
412.17	2120.53
412.36	2141.59
412.55	2211.81
412.74	2167.34
412.93	2237.55
413.12	2277.34
413.31	2361.60
413.50	2235.21
413.69	2307.77
413.88	2424.80
414.07	2312.45
414.26	2389.69
414.45	2377.98
414.64	2413.09
414.83	2417.77
415.02	2506.71
415.22	2516.08
415.41	2597.99
415.60	2569.91
415.79	2602.68
415.98	2462.24
416.17	2647.15
416.36	2609.70
416.55	2640.12
416.74	2689.28
416.93	2708.00
417.12	2644.81
417.31	2759.49
417.50	2874.18
417.69	2878.86
417.88	2745.45
418.07	2787.58
418.26	2855.45
418.45	2857.79
418.64	2935.03
418.83	2869.50
419.02	2995.89
419.21	2984.18
419.39	2871.84
419.58	3063.76
419.77	3052.06
419.96	3009.93
420.15	3070.78
420.34	3061.42
420.53	3023.97
420.72	3131.64
420.91	3096.53
421.10	3232.28
421.29	3192.49
421.48	3229.94
421.67	3098.87
421.86	3026.31
422.05	3229.94
422.24	3183.13
422.43	3166.74
422.61	3173.77
422.80	3232.28
422.99	3321.22
423.18	3269.73
423.37	3293.13
423.56	3176.11
423.75	3215.90
423.94	3084.83
424.13	2995.89
424.32	3150.36
424.50	3267.39
424.69	3349.31
424.88	3288.45
425.07	3290.79
425.26	3227.60
425.45	3321.22
425.64	3178.45
425.83	3384.41
426.01	3468.67
426.20	3272.07
426.39	3318.88
426.58	3337.60
426.77	3314.20
426.96	3531.87
427.15	3431.23
427.33	3281.43
427.52	3405.48
427.71	3592.72
427.90	3487.40
428.09	3431.23
428.28	3623.15
428.46	3496.76
428.65	3384.41
428.84	3667.62
429.03	3686.34
429.22	3552.93
429.40	3709.75
429.59	3536.55
429.78	3557.61
429.97	3449.95
430.16	3625.49
430.34	3658.26
430.53	3681.66
430.72	3779.97
430.91	3623.15
431.10	3653.58
431.28	3719.11
431.47	3847.84
431.66	3857.20
431.85	3772.94
432.03	3887.63
432.22	4002.32
432.41	3794.01
432.60	3908.69
432.79	3871.25
432.97	3889.97
433.16	4025.72
433.35	3899.33
433.54	3922.74
433.72	3999.98
433.91	3906.35
434.10	4093.60
434.28	4072.53
434.47	4044.45
434.66	4032.74
434.85	4168.49
435.03	4276.16
435.22	4142.75
435.41	4339.35
435.59	4269.14
435.78	4205.94
435.97	4241.05
436.16	4208.28
436.34	4304.25
436.53	4313.61
436.72	4346.37
436.90	4084.23
437.09	4308.93
437.28	4315.95
437.46	4325.31
437.65	4432.97
437.84	4418.93
438.02	4449.36
438.21	4325.31
438.40	4294.88
438.58	4568.73
438.77	4643.62
438.96	4599.15
439.14	4669.37
439.33	4610.86
439.52	4767.67
439.70	4812.14
439.89	4788.74
440.08	4819.16
440.26	4805.12
440.45	4746.61
440.63	4894.06
440.82	4943.21
441.01	4903.42
441.19	4983.00
441.38	5029.81
441.57	5055.56
441.75	5153.86
441.94	5210.03
442.12	5071.94
442.31	5270.89
442.50	5200.67
442.68	5144.50
442.87	4858.95
443.05	5303.65
443.24	5275.57
443.43	5153.86
443.61	5350.46
443.80	5221.74
443.98	5186.63
444.17	5039.17
444.35	5387.91
444.54	5385.57
444.73	5371.53
444.91	5362.17
445.10	5413.66
445.28	5453.45
445.47	5338.76
445.65	5327.06
445.84	5584.52
446.02	5610.26
446.21	5277.91
446.39	5474.51
446.58	5476.85
446.77	5530.69
446.95	5469.83
447.14	5650.05
447.32	5598.56
447.51	5547.07
447.69	5446.43
447.88	5516.64
448.06	5383.23
448.25	5631.33
448.43	5577.50
448.62	5603.24
448.80	5568.13
448.99	5654.73
449.17	5535.37
449.36	5544.73
449.54	5825.59
449.73	5802.19
449.91	5839.64
450.10	5664.10
450.28	5802.19
450.46	5811.55
450.65	6015.18
450.83	6001.13
451.02	5753.04
451.20	5905.17
451.39	5825.59
451.57	5872.40
451.76	5877.09
451.94	5991.77
452.13	5980.07
452.31	6143.91
452.49	6092.41
452.68	5963.68
452.86	6050.28
453.05	6083.05
453.23	6122.84
453.42	6146.25
453.60	6101.78
453.78	6153.27
453.97	6153.27
454.15	5987.09
454.34	6012.84
454.52	6258.59
454.70	6263.27
454.89	6225.82
455.07	6396.68
455.26	6366.26
455.44	6408.39
455.62	6232.85
455.81	6347.53
455.99	6389.66
456.17	6476.26
456.36	6544.14
456.54	6516.05
456.73	6607.33
456.91	6679.89
457.09	6658.82
457.28	6855.43
457.46	6647.12
457.64	6881.18
457.83	6759.47
458.01	6736.06
458.19	6740.74
458.38	6712.66
458.56	6972.46
458.74	6883.52
458.93	6960.75
459.11	6864.79
459.29	6864.79
459.48	6906.92
459.66	6822.66
459.84	7033.31
460.03	7117.57
460.21	6970.12
460.39	6944.37
460.57	7068.42
460.76	7075.44
460.94	7103.53
461.12	7239.28
461.31	7330.56
461.49	7143.32
461.67	7129.27
461.85	7253.32
462.04	7190.13
462.22	7712.07
462.40	7503.76
462.59	7363.33
462.77	7520.14
462.95	7468.65
463.13	7459.29
463.32	7419.50
463.50	7513.12
463.68	7559.93
463.86	7466.31
464.05	7456.95
464.23	7492.05
464.41	7655.89
464.59	7559.93
464.78	7592.70
464.96	7597.38
465.14	7562.27
465.32	7719.09
465.50	7693.34
465.69	7768.24
465.87	7686.32
466.05	7808.03
466.23	7815.05
466.41	7896.97
466.60	8002.29
466.78	7786.96
466.96	7852.50
467.14	7896.97
467.32	7789.30
467.51	8042.08
467.69	7810.37
467.87	7985.91
468.05	7985.91
468.23	7922.71
468.41	8102.93
468.60	7985.91
468.78	8262.09
468.96	8145.06
469.14	8095.91
469.32	8163.79
469.50	8025.70
469.69	8250.39
469.87	8430.61
470.05	8105.28
470.23	8454.02
470.41	8285.50
470.59	8329.97
470.77	8318.26
470.95	8320.60
471.14	8512.53
471.32	8439.97
471.50	8531.25
471.68	8725.52
471.86	8648.28
472.04	8622.53
472.22	8910.42
472.40	8535.93
472.58	8877.65
472.77	8826.16
472.95	8943.19
473.13	9217.03
473.31	8917.44
473.49	9008.72
473.67	9090.64
473.85	9085.96
474.03	9404.27
474.21	9448.74
474.39	9408.95
474.57	9394.91
474.75	9446.40
474.93	9357.46
475.12	9465.13
475.30	9635.99
475.48	9650.03
475.66	9565.77
475.84	9628.96
476.02	9657.05
476.20	9785.78
476.38	9951.96
476.56	10129.84
476.74	10003.45
476.92	10017.49
477.10	9916.85
477.28	10019.83
477.46	10263.25
477.64	10331.12
477.82	10408.36
478.00	10764.12
478.18	10649.44
478.36	11044.99
478.54	10595.61
478.72	10913.92
478.90	11012.22
479.08	10988.82
479.26	11089.46
479.44	10981.79
479.62	11566.93
479.80	11318.83
479.98	11250.96
480.16	11805.66
480.34	11620.76
480.52	11852.47
480.70	11489.69
480.88	11421.81
481.06	11810.34
481.24	11901.62
481.41	12039.72
481.59	11910.99
481.77	12343.99
481.95	12374.41
482.13	12341.64
482.31	12205.89
482.49	12793.37
482.67	12582.72
482.85	12753.58
483.03	13128.06
483.21	13114.02
483.39	13240.41
483.57	13025.08
483.74	13371.48
483.92	13458.08
484.10	13287.22
484.28	13544.68
484.46	13865.33
484.64	14132.15
484.82	13895.76
485.00	13954.27
485.18	14176.62
485.35	14462.17
485.53	14530.05
485.71	14244.50
485.89	14476.21
486.07	14544.09
486.25	14736.01
486.43	15049.64
486.61	14717.29
486.78	15213.48
486.96	15234.55
487.14	15398.38
487.32	15702.65
487.50	15545.84
487.68	15571.58
487.85	15847.77
488.03	16102.89
488.21	16264.38
488.39	16219.91
488.57	16156.72
488.75	16072.46
488.92	16720.79
489.10	16610.78
489.28	16776.96
489.46	16786.32
489.64	16891.65
489.81	17331.67
489.99	17380.82
490.17	17268.47
490.35	17568.06
490.53	17713.17
490.70	17888.71
490.88	17603.17
491.06	17851.27
491.24	17877.01
491.41	18129.79
491.59	18387.25
491.77	18164.90
491.95	18401.29
492.13	18518.32
492.30	18831.95
492.48	18747.69
492.66	19030.90
492.84	19150.26
493.01	19342.19
493.19	19197.07
493.37	19534.11
493.54	19452.19
493.72	19597.31
493.90	19983.49
494.08	19632.41
494.25	19995.20
494.43	19964.77
494.61	19976.47
494.79	20678.63
494.96	20460.96
495.14	20327.55
495.32	20741.83
495.49	20844.81
495.67	20830.77
495.85	20924.39
496.02	21041.42
496.20	21181.85
496.38	21451.01
496.55	21170.15
496.73	21900.39
496.91	21324.62
497.09	21839.54
497.26	21972.95
497.44	21710.81
497.62	22239.77
497.79	22436.38
497.97	22389.56
498.14	22480.85
498.32	22572.13
498.50	22705.54
498.67	22787.46
498.85	22480.85
499.03	22923.21
499.20	23098.75
499.38	22970.02
499.56	23173.64
499.73	23489.62
499.91	23419.40
500.08	23477.91
500.26	23290.67
500.44	23431.10
500.61	23641.75
500.79	23557.49
500.97	24013.90
501.14	23831.33
501.32	23995.17
501.49	24130.92
501.67	24137.94
501.84	24416.47
502.02	24463.28
502.20	24128.58
502.37	24826.06
502.55	24482.00
502.72	24826.06
502.90	25137.35
503.07	24685.63
503.25	24673.93
503.43	24676.27
503.60	24999.26
503.78	25516.52
503.95	25209.91
504.13	25429.92
504.30	25465.03
504.48	25355.02
504.65	25369.07
504.83	25764.62
505.01	26047.82
505.18	26305.28
505.36	26412.95
505.53	25479.07
505.71	25886.32
505.88	25862.92
506.06	25923.77
506.23	26363.79
506.41	26387.20
506.58	26415.29
506.76	26473.80
506.93	26508.91
507.11	26925.52
507.28	26656.36
507.46	26834.24
507.63	27091.70
507.81	26881.05
507.98	27023.83
508.16	27030.85
508.33	27218.09
508.50	27435.76
508.68	27407.67
508.85	27576.19
509.03	27817.27
509.20	27618.32
509.38	27833.65
509.55	27988.13
509.73	28020.89
509.90	27908.55
510.08	28030.26
510.25	27878.12
510.42	27728.33
510.60	28329.84
510.77	28257.29
510.95	28741.78
511.12	28393.04
511.30	28432.83
511.47	28987.53
511.64	28739.44
511.82	29137.33
511.99	28694.97
512.17	29074.13
512.34	28889.23
512.51	29048.39
512.69	29593.73
512.86	29516.50
513.04	29535.22
513.21	29589.05
513.38	29495.43
513.56	29322.23
513.73	29465.00
513.90	29827.79
514.08	29713.10
514.25	29806.72
514.43	29916.73
514.60	30082.91
514.77	30150.78
514.95	30490.16
515.12	30314.62
515.29	30377.81
515.47	30607.19
515.64	30595.48
515.81	30579.10
515.99	30576.76
516.16	31204.02
516.33	30904.43
516.51	30775.70
516.68	30995.71
516.85	30806.13
517.03	30829.54
517.20	31447.44
517.37	31000.40
517.54	31065.93
517.72	31536.38
517.89	31054.23
518.06	31321.05
518.24	31578.51
518.41	31805.54
518.58	31597.23
518.75	31728.30
518.93	31824.26
519.10	31819.58
519.27	32109.81
519.45	31892.14
519.62	32219.81
519.79	31861.71
519.96	31988.10
520.14	31885.12
520.31	32334.50
520.48	32290.03
520.65	32507.70
520.83	32669.20
521.00	32879.85
521.17	32395.35
521.34	33013.26
521.52	33029.64
521.69	32830.69
521.86	32821.33
522.03	32711.33
522.20	33488.38
522.38	33411.15
522.55	33383.06
522.72	33488.38
522.89	33352.63
523.07	33670.95
523.24	33521.15
523.41	33675.63
523.58	33483.70
523.75	33975.22
523.92	33422.85
524.10	33940.11
524.27	33977.56
524.44	34274.80
524.61	34192.89
524.78	34361.40
524.96	34494.82
525.13	34160.12
525.30	34319.28
525.47	34546.31
525.64	34466.73
525.81	34817.81
525.98	34436.30
526.16	34677.38
526.33	34160.12
526.50	35159.53
526.67	34529.92
526.84	34873.98
527.01	34817.81
527.18	35042.50
527.36	35206.34
527.53	35171.23
527.70	35402.94
527.87	35215.70
528.04	35143.14
528.21	35367.84
528.38	35409.96
528.55	35555.08
528.72	35590.19
528.89	35115.06
529.07	35271.87
529.24	35353.79
529.41	35885.09
529.58	35381.88
529.75	35812.54
529.92	36077.02
530.09	35819.56
530.26	36156.60
530.43	36149.57
530.60	36020.84
530.77	35824.24
530.94	36074.68
531.11	35751.68
531.28	36362.56
531.46	36165.96
531.63	36655.13
531.80	36144.89
531.97	36685.56
532.14	36350.86
532.31	36608.32
532.48	36463.21
532.65	36847.05
532.82	36868.12
532.99	36641.09
533.16	36561.51
533.33	37034.30
533.50	37422.83
533.67	36950.04
533.84	36935.99
534.01	37017.91
534.18	36898.55
534.35	36971.10
534.52	37097.49
534.69	37652.20
534.86	37401.76
535.03	37336.23
535.20	37390.06
535.37	37933.06
535.54	37663.90
535.71	36914.93
535.88	37991.58
536.05	37731.78
536.22	38094.56
536.38	37738.80
536.55	37876.89
536.72	37317.50
536.89	38026.68
537.06	37467.30
537.23	38195.20
537.40	38239.67
537.57	38040.73
537.74	37972.85
537.91	38281.80
538.08	38368.40
538.25	38213.93
538.42	38190.52
538.59	38731.18
538.75	38513.52
538.92	38501.81
539.09	38660.97
539.26	38363.72
539.43	38480.75
539.60	38710.12
539.77	38775.66
539.94	38780.34
540.11	38939.49
540.28	39138.44
540.44	38473.73
540.61	38705.44
540.78	38843.53
540.95	39227.38
541.12	39049.50
541.29	38920.77
541.46	38976.94
541.62	38890.34
541.79	39241.42
541.96	38871.62
542.13	38927.79
542.30	39484.84
542.47	39431.01
542.63	39353.77
542.80	39255.46
542.97	39856.98
543.14	39948.26
543.31	40053.59
543.48	39517.60
543.64	40023.16
543.81	40229.13
543.98	40311.05
544.15	40620.00
544.32	40191.68
544.48	40498.29
544.65	40329.77
544.82	40325.09
544.99	40477.22
545.16	40509.99
545.32	40161.25
545.49	40772.13
545.66	41013.21
545.83	40198.70
546.00	41106.83
546.16	40713.62
546.33	40879.80
546.50	40437.44
546.67	40968.74
546.83	40212.74
547.00	40437.44
547.17	40573.19
547.34	40722.98
547.50	40961.72
547.67	41170.02
547.84	40467.86
548.00	41167.68
548.17	41029.59
548.34	41256.62
548.51	41741.11
548.67	40914.90
548.84	41418.12
549.01	41123.21
549.18	41280.03
549.34	41446.21
549.51	41375.99
549.68	41467.27
549.84	41474.29
550.01	42026.66
550.18	41471.95
550.34	41275.35
550.51	41715.37
550.68	41600.68
550.84	41383.01
551.01	41853.46
551.18	41916.65
551.34	41780.90
551.51	41998.57
551.68	42010.28
551.84	41790.27
552.01	41928.36
552.18	41834.74
552.34	41776.22
552.51	41855.80
552.68	41759.84
552.84	42050.06
553.01	42373.06
553.18	41806.65
553.34	41757.50
553.51	42300.50
553.67	42686.69
553.84	42693.71
554.01	42822.44
554.17	42707.76
554.34	42651.58
554.51	42256.03
554.67	42630.52
554.84	42728.82
555.00	42696.05
555.17	42529.87
555.33	42384.76
555.50	42761.59
555.67	42726.48
555.83	42536.90
556.00	42424.55
556.16	43241.40
556.33	42939.47
556.50	42588.39
556.66	42962.87
556.83	42754.57
556.99	43049.47
557.16	42932.45
557.32	43150.12
557.49	42859.89
557.65	42974.58
557.82	43229.69
557.98	43206.29
558.15	43112.67
558.32	43674.40
558.48	43096.28
558.65	43351.40
558.81	43318.64
558.98	42843.51
559.14	43201.61
559.31	42930.11
559.47	43246.08
559.64	43203.95
559.80	43538.65
559.97	43697.80
560.13	43173.52
560.30	43311.61
560.46	43559.71
560.63	43601.84
560.79	43709.50
560.96	43742.27
561.12	43650.99
561.29	43922.49
561.45	43686.10
561.61	43463.75
561.78	43496.52
561.94	43943.56
562.11	43480.13
562.27	43791.42
562.44	43819.51
562.60	44030.16
562.77	44018.46
562.93	43597.16
563.10	43941.22
563.26	43613.54
563.42	44109.74
563.59	43711.84
563.75	43398.21
563.92	43997.39
564.08	43861.64
564.24	44100.37
564.41	43618.22
564.57	43957.60
564.74	44177.61
564.90	43873.34
565.07	43908.45
565.23	43735.25
565.39	44107.40
565.56	44467.84
565.72	43995.05
565.88	44098.03
566.05	44322.72
566.21	44112.08
566.38	44350.81
566.54	44313.36
566.70	44619.97
566.87	44254.85
567.03	43964.62
567.19	44027.82
567.36	44421.03
567.52	43842.92
567.68	44694.87
567.85	44512.31
568.01	44636.36
568.17	44304.00
568.34	44715.93
568.50	44404.64
568.66	44374.22
568.83	44619.97
568.99	44158.89
569.15	44732.32
569.32	44151.87
569.48	44126.12
569.64	44720.62
569.81	44374.22
569.97	44573.16
570.13	44802.53
570.30	44257.19
570.46	44734.66
570.62	44748.70
570.78	44729.98
570.95	44446.77
571.11	44769.77
571.27	44774.45
571.43	44788.49
571.60	44690.19
571.76	44325.07
571.92	44868.07
572.09	44729.98
572.25	44224.42
572.41	44793.17
572.57	44739.34
572.74	45102.12
572.90	44987.44
573.06	44561.46
573.22	45041.27
573.38	44900.84
573.55	44720.62
573.71	45546.82
573.87	44898.50
574.03	44758.06
574.20	45127.87
574.36	44847.00
574.52	44994.46
574.68	45113.83
574.84	45027.23
575.01	45347.88
575.17	45010.84
575.33	45235.53
575.49	44594.23
575.65	44928.92
575.82	45474.27
575.98	45069.36
576.14	45256.60
576.30	45378.31
576.46	45141.91
576.62	44779.13
576.79	44861.05
576.95	44715.93
577.11	44467.84
577.27	44903.18
577.43	44861.05
577.59	45289.37
577.75	44978.07
577.92	44882.11
578.08	45123.19
578.24	45167.66
578.40	45212.13
578.56	45514.06
578.72	44858.71
578.88	45017.86
579.04	44879.77
579.21	44898.50
579.37	45081.06
579.53	45364.26
579.69	44825.94
579.85	44980.42
580.01	44800.19
580.17	45057.65
580.33	45179.36
580.49	44903.18
580.65	45308.09
580.82	45090.42
580.98	45109.14
581.14	44545.08
581.30	45336.18
581.46	45064.67
581.62	44910.20
581.78	45148.93
581.94	45113.83
582.10	45099.78
582.26	45750.45
582.42	45277.66
582.58	45296.39
582.74	45310.43
582.90	45111.49
583.06	45380.65
583.22	45141.91
583.38	45418.10
583.54	45322.13
583.70	45689.60
583.86	45099.78
584.02	45310.43
584.18	45532.78
584.34	45771.52
584.50	45511.72
584.66	45621.72
584.82	45507.04
584.98	45441.50
585.14	45549.17
585.30	45031.91
585.46	45223.83
585.62	44917.22
585.78	45724.71
585.94	45198.09
586.10	45219.15
586.26	45371.28
586.42	45186.38
586.58	45207.45
586.74	45382.99
586.90	45404.05
587.06	45305.75
587.22	45516.40
587.38	45272.98
587.54	45509.38
587.70	45668.53
587.86	45502.35
588.02	45284.68
588.18	45141.91
588.34	45308.09
588.49	45741.09
588.65	45329.16
588.81	45834.71
588.97	45226.17
589.13	44772.11
589.29	45212.13
589.45	45420.44
589.61	45666.19
589.77	45701.30
589.93	45518.74
590.08	45925.99
