SpectraSuite Data File
++++++++++++++++++++++++++++++++++++
Date: Fri Oct 25 11:23:07 EDT 2013
User: price-jones
Dark Spectrum Present: No
Reference Spectrum Present: No
Number of Sampled Component Spectra: 1
Spectrometers: USB2+H05261
Integration Time (usec): 100000 (USB2+H05261)
Spectra Averaged: 1 (USB2+H05261)
Boxcar Smoothing: 0 (USB2+H05261)
Correct for Electrical Dark: No (USB2+H05261)
Strobe/Lamp Enabled: No (USB2+H05261)
Correct for Detector Non-linearity: No (USB2+H05261)
Correct for Stray Light: No (USB2+H05261)
Number of Pixels in Processed Spectrum: 2048
>>>>>Begin Processed Spectral Data<<<<<
365.73	245.76
365.92	245.76
366.12	245.76
366.32	187.24
366.52	105.32
366.72	91.28
366.91	72.56
367.11	84.26
367.31	100.64
367.51	170.86
367.70	168.52
367.90	65.54
368.10	154.48
368.30	117.03
368.49	142.77
368.69	198.95
368.89	163.84
369.09	81.92
369.28	154.48
369.48	156.82
369.68	163.84
369.87	175.54
370.07	142.77
370.27	236.39
370.47	390.87
370.66	580.45
370.86	638.97
371.06	636.63
371.25	641.31
371.45	638.97
371.65	695.14
371.84	718.54
372.04	741.95
372.24	732.59
372.44	697.48
372.63	763.01
372.83	681.10
373.03	727.91
373.22	741.95
373.42	755.99
373.62	746.63
373.81	676.41
374.01	795.78
374.21	830.89
374.40	774.72
374.60	830.89
374.79	805.14
374.99	863.66
375.19	844.93
375.38	826.21
375.58	863.66
375.78	842.59
375.97	835.57
376.17	898.77
376.37	891.74
376.56	833.23
376.76	931.53
376.95	849.61
377.15	858.98
377.35	866.00
377.54	938.55
377.74	877.70
377.93	922.17
378.13	968.98
378.33	950.26
378.52	910.47
378.72	901.11
378.91	936.21
379.11	924.51
379.31	884.72
379.50	952.60
379.70	1013.45
379.89	1001.75
380.09	1001.75
380.28	990.05
380.48	1004.09
380.68	957.28
380.87	966.64
381.07	973.66
381.26	1081.33
381.46	999.41
381.65	1039.20
381.85	1018.13
382.04	1041.54
382.24	1086.01
382.43	1132.82
382.63	1102.39
382.83	1097.71
383.02	1116.44
383.22	1163.25
383.41	1121.12
383.61	1090.69
383.80	1128.14
384.00	1132.82
384.19	1170.27
384.39	1174.95
384.58	1177.29
384.78	1177.29
384.97	1270.91
385.17	1184.31
385.36	1235.80
385.56	1156.22
385.75	1135.16
385.95	1198.35
386.14	1247.51
386.34	1270.91
386.53	1249.85
386.72	1221.76
386.92	1270.91
387.11	1287.29
387.31	1273.25
387.50	1268.57
387.70	1355.17
387.89	1277.93
388.09	1249.85
388.28	1320.06
388.48	1233.46
388.67	1287.29
388.86	1287.29
389.06	1228.78
389.25	1359.85
389.45	1348.15
389.64	1373.89
389.84	1387.94
390.03	1380.92
390.22	1427.73
390.42	1444.11
390.61	1427.73
390.81	1399.64
391.00	1327.08
391.19	1465.18
391.39	1413.68
391.58	1423.05
391.78	1479.22
391.97	1535.39
392.16	1497.94
392.36	1523.69
392.55	1497.94
392.75	1526.03
392.94	1465.18
393.13	1558.80
393.33	1556.46
393.52	1563.48
393.71	1551.78
393.91	1572.84
394.10	1619.65
394.29	1563.48
394.49	1720.29
394.68	1561.14
394.88	1614.97
395.07	1638.38
395.26	1556.46
395.46	1804.55
395.65	1764.76
395.84	1710.93
396.04	1741.36
396.23	1799.87
396.42	1739.02
396.62	1830.30
396.81	1771.79
397.00	1650.08
397.19	1795.19
397.39	1907.54
397.58	1755.40
397.77	1837.32
397.97	1884.13
398.16	1863.07
398.35	1940.30
398.55	1933.28
398.74	1980.09
398.93	2029.24
399.12	1987.11
399.32	1870.09
399.51	1914.56
399.70	2097.12
399.90	2019.88
400.09	2026.90
400.28	2022.22
400.47	2033.93
400.67	2150.95
400.86	2125.21
401.05	2148.61
401.24	2139.25
401.44	2118.18
401.63	2183.72
401.82	2190.74
402.01	2132.23
402.21	2221.17
402.40	2256.28
402.59	2335.85
402.78	2202.44
402.97	2214.15
403.17	2359.26
403.36	2083.08
403.55	2312.45
403.74	2289.04
403.93	2450.54
404.13	2331.17
404.32	2319.47
404.51	2420.11
404.70	2532.46
404.89	2422.45
405.09	2626.08
405.28	2464.58
405.47	2548.84
405.66	2588.63
405.85	2506.71
406.05	2502.03
406.24	2436.50
406.43	2628.42
406.62	2583.95
406.81	2747.79
407.00	2626.08
407.20	2579.27
407.39	2689.28
407.58	2782.90
407.77	2764.17
407.96	2785.24
408.15	2803.96
408.34	2738.43
408.54	2862.48
408.73	2843.75
408.92	2736.09
409.11	2906.95
409.30	2839.07
409.49	2939.71
409.68	2906.95
409.87	3033.33
410.07	3021.63
410.26	2951.42
410.45	2951.42
410.64	2995.89
410.83	3087.17
411.02	3016.95
411.21	3215.90
411.40	3229.94
411.59	3176.11
411.78	3286.11
411.98	3103.55
412.17	3267.39
412.36	3349.31
412.55	3393.78
412.74	3447.61
412.93	3473.36
413.12	3361.01
413.31	3522.51
413.50	3433.57
413.69	3492.08
413.88	3679.32
414.07	3754.22
414.26	3571.66
414.45	3754.22
414.64	3861.88
414.83	3779.97
415.02	3805.71
415.22	3882.95
415.41	3929.76
415.60	3906.35
415.79	3950.82
415.98	3983.59
416.17	4032.74
416.36	4023.38
416.55	4051.47
416.74	4032.74
416.93	4140.41
417.12	4161.47
417.31	4301.90
417.50	4250.41
417.69	4245.73
417.88	4374.46
418.07	4257.43
418.26	4278.50
418.45	4470.42
418.64	4505.53
418.83	4454.04
419.02	4519.57
419.21	4491.49
419.39	4461.06
419.58	4493.83
419.77	4454.04
419.96	4620.22
420.15	4561.70
420.34	4643.62
420.53	4566.39
420.72	4765.33
420.91	4638.94
421.10	4798.10
421.29	4819.16
421.48	4669.37
421.67	4926.83
421.86	4805.12
422.05	4868.31
422.24	4889.38
422.43	4833.21
422.61	4894.06
422.80	5088.32
422.99	4922.15
423.18	4940.87
423.37	5156.20
423.56	5004.07
423.75	4985.34
423.94	4882.36
424.13	4697.46
424.32	4854.27
424.50	5018.11
424.69	5041.51
424.88	5172.58
425.07	4964.28
425.26	5081.30
425.45	5104.71
425.64	4957.25
425.83	5090.67
426.01	5116.41
426.20	5116.41
426.39	5181.95
426.58	5210.03
426.77	5125.77
426.96	5142.16
427.15	5249.82
427.33	5163.22
427.52	5177.26
427.71	5294.29
427.90	5387.91
428.09	5441.75
428.28	5451.11
428.46	5479.19
428.65	5427.70
428.84	5394.93
429.03	5584.52
429.22	5575.16
429.40	5549.41
429.59	5451.11
429.78	5228.76
429.97	5348.12
430.16	5526.00
430.34	5797.51
430.53	5682.82
430.72	5518.98
430.91	5621.97
431.10	5631.33
431.28	5865.38
431.47	6026.88
431.66	6019.86
431.85	5895.81
432.03	5914.53
432.22	6001.13
432.41	5947.30
432.60	6054.97
432.79	6036.24
432.97	6214.12
433.16	6003.47
433.35	5998.79
433.54	6050.28
433.72	6186.04
433.91	6087.73
434.10	6113.48
434.28	6214.12
434.47	6197.74
434.66	6272.64
434.85	6485.62
435.03	6221.14
435.22	6459.88
435.41	6548.82
435.59	6487.96
435.78	6509.03
435.97	6553.50
436.16	6551.16
436.34	6417.75
436.53	6590.95
436.72	6719.68
436.90	6436.47
437.09	6656.48
437.28	6530.09
437.46	6656.48
437.65	6726.70
437.84	6810.96
438.02	6930.33
438.21	6927.99
438.40	6731.38
438.58	6963.09
438.77	7129.27
438.96	7059.06
439.14	7225.23
439.33	7297.79
439.52	7365.67
439.70	7384.39
439.89	7452.27
440.08	7508.44
440.26	7389.07
440.45	7346.94
440.63	7550.57
440.82	7742.49
441.01	7613.76
441.19	7714.41
441.38	7833.77
441.57	7728.45
441.75	7847.82
441.94	7946.12
442.12	8056.12
442.31	8100.59
442.50	8032.72
442.68	8079.53
442.87	8156.77
443.05	8264.43
443.24	8383.80
443.43	8245.71
443.61	8184.85
443.80	8545.30
443.98	8002.29
444.17	8002.29
444.35	8194.22
444.54	8444.65
444.73	8390.82
444.91	8425.93
445.10	8465.72
445.28	8477.42
445.47	8252.73
445.65	8484.44
445.84	8564.02
446.02	8425.93
446.21	8575.72
446.39	8411.89
446.58	8435.29
446.77	8271.45
446.95	8276.13
447.14	8582.74
447.32	8629.56
447.51	8456.36
447.69	8442.31
447.88	8732.54
448.06	8411.89
448.25	8711.47
448.43	8868.29
448.62	8659.98
448.80	8629.56
448.99	8922.12
449.17	8641.26
449.36	8723.18
449.54	8847.22
449.73	9102.34
449.91	9083.62
450.10	9020.42
450.28	9022.77
450.46	9111.71
450.65	9011.06
450.83	9053.19
451.02	9212.35
451.20	9355.12
451.39	8945.53
451.57	9163.20
451.76	8987.66
451.94	9291.93
452.13	9441.72
452.31	9345.76
452.49	9240.44
452.68	9308.31
452.86	9600.88
453.05	9500.23
453.23	9488.53
453.42	9224.05
453.60	9434.70
453.78	9600.88
453.97	9455.76
454.15	9689.82
454.34	9626.62
454.52	9879.40
454.70	9706.20
454.89	9923.87
455.07	9886.42
455.26	10064.30
455.44	10057.28
455.62	10169.63
455.81	10076.01
455.99	10068.98
456.17	10031.54
456.36	10347.51
456.54	10216.44
456.73	10298.36
456.91	10448.15
457.09	10621.35
457.28	10726.68
457.46	10384.96
457.64	10476.24
457.83	10459.85
458.01	10604.97
458.19	10942.00
458.38	10642.42
458.56	10799.23
458.74	10883.49
458.93	10829.66
459.11	10714.97
459.29	10864.77
459.48	11052.01
459.66	10806.25
459.84	10991.16
460.03	11096.48
460.21	11087.12
460.39	11068.39
460.57	10881.15
460.76	11147.97
460.94	11222.87
461.12	11396.07
461.31	11466.28
461.49	11286.06
461.67	11311.81
461.85	11496.71
462.04	11346.92
462.22	11702.68
462.40	11580.97
462.59	11543.52
462.77	11543.52
462.95	11908.65
463.13	11700.34
463.32	11503.73
463.50	11936.73
463.68	11723.74
463.86	11810.34
464.05	11735.45
464.23	11756.51
464.41	12201.21
464.59	11716.72
464.78	12203.55
464.96	11845.45
465.14	11903.96
465.32	12102.91
465.50	12081.85
465.69	12250.36
465.87	12341.64
466.05	12168.45
466.23	12308.88
466.41	12348.67
466.60	12697.41
466.78	12198.87
466.96	12189.51
467.14	12421.22
467.32	12545.27
467.51	12709.11
467.69	12341.64
467.87	12599.10
468.05	12645.91
468.23	12657.62
468.41	12683.36
468.60	12823.80
468.78	12943.16
468.96	12601.44
469.14	12685.70
469.32	13125.72
469.50	12758.26
469.69	12875.29
469.87	13296.58
470.05	13294.24
470.23	13432.33
470.41	13247.43
470.59	13556.38
470.77	13528.30
470.95	13462.76
471.14	13745.97
471.32	13603.19
471.50	13797.46
471.68	13855.97
471.86	13954.27
472.04	13837.25
472.22	14223.44
472.40	13844.27
472.58	14031.51
472.77	14118.11
472.95	14244.50
473.13	14623.67
473.31	14298.33
473.49	14256.20
473.67	14281.95
473.85	14443.45
474.03	14806.23
474.21	14537.07
474.39	14736.01
474.57	14806.23
474.75	14977.09
474.93	15028.58
475.12	15042.62
475.30	15407.75
475.48	15215.82
475.66	15232.21
475.84	15166.67
476.02	15384.34
476.20	15623.08
476.38	15697.97
476.56	16252.68
476.74	16255.02
476.92	16051.39
477.10	16016.29
477.28	16334.60
477.46	16128.63
477.64	16631.85
477.82	16599.08
478.00	17432.31
478.18	17034.42
478.36	17132.72
478.54	17839.56
478.72	17149.11
478.90	17584.44
479.08	17483.80
479.26	17951.91
479.44	17696.79
479.62	17956.59
479.80	18412.99
479.98	18366.18
480.16	18806.20
480.34	18574.49
480.52	19089.41
480.70	18937.27
480.88	18815.57
481.06	18831.95
481.24	19229.84
481.41	19571.56
481.59	19335.17
481.77	19564.54
481.95	19693.27
482.13	19992.86
482.31	19716.67
482.49	20231.59
482.67	20453.94
482.85	20545.22
483.03	20975.88
483.21	21249.72
483.39	21336.32
483.57	21177.17
483.74	21493.14
483.92	21656.98
484.10	21387.82
484.28	22033.80
484.46	22321.69
484.64	22295.94
484.82	21975.29
485.00	22497.23
485.18	22878.74
485.35	23503.66
485.53	23101.09
485.71	23201.73
485.89	23697.92
486.07	23433.44
486.25	23803.25
486.43	23711.97
486.61	24112.20
486.78	24491.37
486.96	24645.84
487.14	24872.87
487.32	24865.85
487.50	25266.08
487.68	25343.32
487.85	25619.50
488.03	25844.20
488.21	26157.83
488.39	26253.79
488.57	26192.94
488.75	26618.91
488.92	27026.17
489.10	26731.26
489.28	26892.76
489.46	27171.28
489.64	27325.75
489.81	27786.84
489.99	27922.59
490.17	28030.26
490.35	28390.70
490.53	28470.28
490.70	28730.08
490.88	28840.08
491.06	28718.37
491.24	28854.12
491.41	29366.70
491.59	29621.82
491.77	29682.67
491.95	30249.08
492.13	29916.73
492.30	30335.68
492.48	30223.34
492.66	30059.50
492.84	30569.74
493.01	30656.34
493.19	30923.16
493.37	31328.07
493.54	31178.28
493.72	31660.43
493.90	31824.26
494.08	32060.66
494.25	32308.76
494.43	32156.62
494.61	32315.78
494.79	32980.49
494.96	32769.84
495.14	32989.85
495.32	33324.55
495.49	33778.61
495.67	33642.86
495.85	33872.23
496.02	34178.84
496.20	34260.76
496.38	34618.86
496.55	34242.04
496.73	35637.00
496.91	34813.13
497.09	35232.08
497.26	35377.20
497.44	35395.92
497.62	35412.31
497.79	36233.83
497.97	36053.61
498.14	36229.15
498.32	36519.38
498.50	36348.52
498.67	36723.01
498.85	37085.79
499.03	36856.42
499.20	37006.21
499.38	37443.89
499.56	37296.44
499.73	37376.01
499.91	37806.67
500.08	37799.65
500.26	37722.41
500.44	38246.69
500.61	37975.19
500.79	38052.43
500.97	38157.75
501.14	39016.73
501.32	38773.31
501.49	38923.11
501.67	38878.64
501.84	39281.21
502.02	39063.54
502.20	39276.53
502.37	39629.95
502.55	39435.69
502.72	39915.50
502.90	39866.34
503.07	39620.59
503.25	40339.13
503.43	40149.55
503.60	40432.75
503.78	40498.29
503.95	40704.26
504.13	40718.30
504.30	41095.13
504.48	40746.39
504.65	40945.33
504.83	41560.89
505.01	41787.92
505.18	41673.24
505.36	42167.09
505.53	41652.17
505.71	42073.47
505.88	42162.41
506.06	42354.33
506.23	42555.62
506.41	42129.64
506.58	42562.64
506.76	42218.58
506.93	42899.68
507.11	43021.39
507.28	42649.24
507.46	42792.01
507.63	43082.24
507.81	43536.30
507.98	43512.90
508.16	43590.14
508.33	43880.36
508.50	44154.21
508.68	44460.82
508.85	44341.45
509.03	44100.37
509.20	44535.71
509.38	44650.40
509.55	44706.57
509.73	45123.19
509.90	45170.00
510.08	45001.48
510.25	44945.31
510.42	44935.95
510.60	45338.52
510.77	45411.07
510.95	45741.09
511.12	45567.89
511.30	45855.78
511.47	46263.03
511.64	45975.14
511.82	46021.95
511.99	46227.92
512.17	46368.35
512.34	46450.27
512.51	46796.67
512.69	46483.04
512.86	46766.24
513.04	47037.75
513.21	46951.15
513.38	47564.37
513.56	47077.54
513.73	47077.54
513.90	47531.60
514.08	47342.02
514.25	47599.47
514.43	47683.73
514.60	47814.80
514.77	47775.02
514.95	47840.55
515.12	48081.63
515.29	48114.39
515.47	48243.12
515.64	48498.24
515.81	48348.45
515.99	48933.58
516.16	48992.09
516.33	48699.53
516.51	48973.37
516.68	49013.16
516.85	48734.63
517.03	49055.29
517.20	49397.01
517.37	49371.26
517.54	49277.64
517.72	49532.76
517.89	49354.88
518.06	49462.54
518.24	49303.38
518.41	49902.56
518.58	50014.91
518.75	49778.51
518.93	49993.84
519.10	49947.03
519.27	50131.93
519.45	49932.99
519.62	50438.54
519.79	50590.68
519.96	50394.07
520.14	50373.01
520.31	50073.42
520.48	50742.81
520.65	50480.67
520.83	50866.86
521.00	51304.54
521.17	51044.74
521.34	50843.46
521.52	51398.16
521.69	51437.95
521.86	51288.16
522.03	51882.66
522.20	51543.28
522.38	51664.99
522.55	51608.81
522.72	51749.24
522.89	51613.49
523.07	52355.44
523.24	51622.86
523.41	51976.28
523.58	52060.54
523.75	52041.81
523.92	52030.11
524.10	52477.15
524.27	52212.67
524.44	52385.87
524.61	52376.51
524.78	52584.82
524.96	52212.67
525.13	52662.05
525.30	53010.79
525.47	52851.64
525.64	53123.14
525.81	52963.98
525.98	53106.76
526.16	53106.76
526.33	52905.47
526.50	53223.78
526.67	53064.63
526.84	53205.06
527.01	53073.99
527.18	52978.03
527.36	53251.87
527.53	53474.22
527.70	53614.65
527.87	53691.89
528.04	53420.39
528.21	53813.60
528.38	53757.42
528.55	53652.10
528.72	53675.51
528.89	54066.38
529.07	53799.55
529.24	53806.58
529.41	54033.61
529.58	54075.74
529.75	53984.46
529.92	54021.90
530.09	54124.89
530.26	54246.60
530.43	54302.77
530.60	53893.18
530.77	54234.89
530.94	54064.03
531.11	54152.97
531.28	54525.12
531.46	54628.10
531.63	54550.87
531.80	54478.31
531.97	54597.68
532.14	54843.43
532.31	54585.97
532.48	54848.11
532.65	54773.22
532.82	54721.72
532.99	54960.46
533.16	54988.55
533.33	55000.25
533.50	54944.08
533.67	55192.17
533.84	54934.71
534.01	55313.88
534.18	55103.23
534.35	55533.89
534.52	55461.33
534.69	55325.58
534.86	55304.52
535.03	55168.77
535.20	55639.22
535.37	55786.67
535.54	55744.54
535.71	55674.32
535.88	55976.25
536.05	55796.03
536.22	55683.69
536.38	55695.39
536.55	55664.96
536.72	56133.07
536.89	55744.54
537.06	55938.80
537.23	56086.26
537.40	55976.25
537.57	56058.17
537.74	56044.13
537.91	56432.66
538.08	55826.46
538.25	55997.32
538.42	56039.45
538.59	56559.05
538.75	56231.37
538.92	56278.18
539.09	56657.35
539.26	56353.08
539.43	56275.84
539.60	56444.36
539.77	56549.68
539.94	56877.36
540.11	56554.36
540.28	56486.49
540.44	56708.84
540.61	56774.37
540.78	56664.37
540.95	56655.01
541.12	56556.70
541.29	56664.37
541.46	56664.37
541.62	56619.90
541.79	57174.61
541.96	56664.37
542.13	56846.93
542.30	56940.55
542.47	57291.63
542.63	56985.02
542.80	57123.11
542.97	57205.03
543.14	57633.35
543.31	57336.10
543.48	57516.32
543.64	57797.19
543.81	57691.86
543.98	57565.48
544.15	57616.97
544.32	57579.52
544.48	58071.03
544.65	57368.87
544.82	57848.68
544.99	57492.92
545.16	57764.42
545.32	57673.14
545.49	58033.58
545.66	57790.17
545.83	57956.35
546.00	57975.07
546.16	58040.60
546.33	57771.44
546.50	57862.72
546.67	58094.44
546.83	57661.44
547.00	57909.53
547.17	58124.86
547.34	58171.67
547.50	58164.65
547.67	58424.45
547.84	58213.80
548.00	58410.41
548.17	58599.99
548.34	58248.91
548.51	58330.83
548.67	58501.69
548.84	58637.44
549.01	58438.50
549.18	58515.73
549.34	58340.19
549.51	58564.88
549.68	58693.61
549.84	58630.42
550.01	58759.15
550.18	58571.91
550.34	58796.60
550.51	58686.59
550.68	58803.62
550.84	58349.56
551.01	58702.98
551.18	58698.30
551.34	58656.17
551.51	58721.70
551.68	58836.39
551.84	58871.49
552.01	58773.19
552.18	59245.98
552.34	58798.94
552.51	58841.07
552.68	58918.31
552.84	58972.14
553.01	59255.34
553.18	59168.74
553.34	58972.14
553.51	58995.54
553.67	59264.70
553.84	59203.85
554.01	59150.02
554.17	59140.66
554.34	59217.89
554.51	59210.87
554.67	59222.58
554.84	59283.43
555.00	59260.02
555.17	59241.30
555.33	59175.76
555.50	59365.35
555.67	59419.18
555.83	59196.83
556.00	59468.33
556.16	59632.17
556.33	59634.51
556.50	59531.53
556.66	59423.86
556.83	59517.48
556.99	59545.57
557.16	59854.52
557.32	59547.91
557.49	59695.36
557.65	59653.23
557.82	59487.06
557.98	59578.34
558.15	59571.32
558.32	59786.64
558.48	59662.60
558.65	59606.42
558.81	59686.00
558.98	59688.34
559.14	59812.39
559.31	59868.56
559.47	59934.10
559.64	60020.70
559.80	59997.29
559.97	59826.43
560.13	59891.97
560.30	60067.51
560.46	60175.17
560.63	60058.15
560.79	59964.52
560.96	60114.32
561.12	60025.38
561.29	60037.08
561.45	60154.11
561.61	60128.36
561.78	60076.87
561.94	60060.49
562.11	60027.72
562.27	60275.82
562.44	60116.66
562.60	60399.86
562.77	60186.88
562.93	60151.77
563.10	60221.98
563.26	60074.53
563.42	60465.40
563.59	60282.84
563.75	60219.64
563.92	60416.25
564.08	60282.84
564.24	60353.05
564.41	60360.08
564.57	60285.18
564.74	60280.50
564.90	60402.21
565.07	60261.77
565.23	60434.97
565.39	60346.03
565.56	60399.86
565.72	60355.39
565.88	60339.01
566.05	60303.90
566.21	60449.02
566.38	60441.99
566.54	60601.15
566.70	60521.57
566.87	60514.55
567.03	60374.12
567.19	60617.53
567.36	60528.59
567.52	60512.21
567.68	60851.59
567.85	60552.00
568.01	60673.71
568.17	60608.17
568.34	60844.57
568.50	60662.00
568.66	60554.34
568.83	60580.09
568.99	60434.97
569.15	60523.91
569.32	60610.51
569.48	60842.23
569.64	60734.56
569.81	60617.53
569.97	60608.17
570.13	60711.16
570.30	60509.87
570.46	60591.79
570.62	60823.50
570.78	60832.86
570.95	60542.64
571.11	60842.23
571.27	60879.67
571.43	60755.63
571.60	60825.84
571.76	60750.94
571.92	60814.14
572.09	60856.27
572.25	60863.29
572.41	60767.33
572.57	60872.65
572.74	61034.15
572.90	60818.82
573.06	60867.97
573.22	60818.82
573.38	60952.23
573.55	61029.47
573.71	61235.44
573.87	60919.46
574.03	60882.02
574.20	60750.94
574.36	60938.19
574.52	60940.53
574.68	60996.70
574.84	61151.18
575.01	60994.36
575.17	61172.24
575.33	60804.78
575.49	60743.92
575.65	60954.57
575.82	60996.70
575.98	61034.15
576.14	60947.55
576.30	60917.12
576.46	60931.17
576.62	60816.48
576.79	60762.65
576.95	60858.61
577.11	60886.70
577.27	61024.79
577.43	61073.94
577.59	60814.14
577.75	60999.04
577.92	60926.49
578.08	61134.79
578.24	61024.79
578.40	61130.11
578.56	61169.90
578.72	61024.79
578.88	61366.51
579.04	61364.17
579.21	61057.56
579.37	61118.41
579.53	61207.35
579.69	60970.96
579.85	61057.56
580.01	60994.36
580.17	61017.77
580.33	61207.35
580.49	61118.41
580.65	61193.31
580.82	61001.38
580.98	61006.06
581.14	61111.39
581.30	61209.69
581.46	61076.28
581.62	61120.75
581.78	61214.37
581.94	61265.86
582.10	61071.60
582.26	60994.36
582.42	61251.82
582.58	61069.26
582.74	61174.58
582.90	61188.63
583.06	61242.46
583.22	61130.11
583.38	61104.37
583.54	61410.98
583.70	61141.81
583.86	61258.84
584.02	61193.31
584.18	61474.17
584.34	61155.86
584.50	61247.14
584.66	61059.90
584.82	60956.91
584.98	61422.68
585.14	61279.91
585.30	61036.49
585.46	61176.92
585.62	61375.87
585.78	61572.47
585.94	61013.08
586.10	61307.99
586.26	61216.71
586.42	61202.67
586.58	61174.58
586.74	61263.52
586.90	60966.27
587.06	61176.92
587.22	61277.57
587.38	61432.04
587.54	61418.00
587.70	61535.02
587.86	61324.38
588.02	61310.33
588.18	61502.26
588.34	61289.27
588.49	61284.59
