SpectraSuite Data File
++++++++++++++++++++++++++++++++++++
Date: Fri Oct 25 10:44:21 EDT 2013
User: price-jones
Dark Spectrum Present: No
Reference Spectrum Present: No
Number of Sampled Component Spectra: 1
Spectrometers: USB2+H05261
Integration Time (usec): 100000 (USB2+H05261)
Spectra Averaged: 1 (USB2+H05261)
Boxcar Smoothing: 0 (USB2+H05261)
Correct for Electrical Dark: No (USB2+H05261)
Strobe/Lamp Enabled: No (USB2+H05261)
Correct for Detector Non-linearity: No (USB2+H05261)
Correct for Stray Light: No (USB2+H05261)
Number of Pixels in Processed Spectrum: 2048
>>>>>Begin Processed Spectral Data<<<<<
365.73	88.94
365.92	88.94
366.12	88.94
366.32	0.00
366.52	37.45
366.72	21.06
366.91	65.54
367.11	39.79
367.31	28.09
367.51	11.70
367.70	117.03
367.90	65.54
368.10	18.72
368.30	79.58
368.49	18.72
368.69	93.62
368.89	25.75
369.09	53.83
369.28	95.96
369.48	30.43
369.68	23.41
369.87	84.26
370.07	93.62
370.27	131.07
370.47	156.82
370.66	418.96
370.86	397.89
371.06	449.38
371.25	526.62
371.45	472.79
371.65	498.53
371.84	376.83
372.04	418.96
372.24	489.17
372.44	444.70
372.63	482.15
372.83	433.00
373.03	517.26
373.22	557.05
373.42	489.17
373.62	587.47
373.81	472.79
374.01	608.54
374.21	564.07
374.40	561.73
374.60	547.69
374.79	503.22
374.99	587.47
375.19	533.64
375.38	650.67
375.58	631.94
375.78	716.20
375.97	608.54
376.17	641.31
376.37	629.60
376.56	662.37
376.76	662.37
376.95	620.24
377.15	603.86
377.35	528.96
377.54	664.71
377.74	660.03
377.93	655.35
378.13	648.33
378.33	645.99
378.52	669.39
378.72	737.27
378.91	737.27
379.11	594.50
379.31	641.31
379.50	650.67
379.70	730.25
379.89	716.20
380.09	669.39
380.28	695.14
380.48	763.01
380.68	716.20
380.87	720.88
381.07	674.07
381.26	760.67
381.46	748.97
381.65	765.36
381.85	723.23
382.04	671.73
382.24	805.14
382.43	725.57
382.63	674.07
382.83	641.31
383.02	706.84
383.22	777.06
383.41	823.87
383.61	732.59
383.80	716.20
384.00	727.91
384.19	744.29
384.39	809.83
384.58	802.80
384.78	828.55
384.97	875.36
385.17	908.13
385.36	779.40
385.56	856.64
385.75	786.42
385.95	753.65
386.14	880.04
386.34	847.27
386.53	889.40
386.72	819.19
386.92	929.19
387.11	891.74
387.31	901.11
387.50	905.79
387.70	915.15
387.89	884.72
388.09	866.00
388.28	891.74
388.48	947.92
388.67	1041.54
388.86	1055.58
389.06	1067.28
389.25	938.55
389.45	1081.33
389.64	1022.81
389.84	1020.47
390.03	1027.50
390.22	1022.81
390.42	1076.65
390.61	1071.97
390.81	1078.99
391.00	1053.24
391.19	1055.58
391.39	1036.86
391.58	1090.69
391.78	1062.60
391.97	1071.97
392.16	1107.07
392.36	1102.39
392.55	1034.52
392.75	999.41
392.94	933.87
393.13	1008.77
393.33	994.73
393.52	1109.41
393.71	1142.18
393.91	1137.50
394.10	1200.69
394.29	1191.33
394.49	1139.84
394.68	1254.53
394.88	1282.61
395.07	1308.36
395.26	1224.10
395.46	1266.23
395.65	1394.96
395.84	1238.14
396.04	1263.89
396.23	1170.27
396.42	1181.97
396.62	1207.72
396.81	1233.46
397.00	1231.12
397.19	1268.57
397.39	1376.24
397.58	1441.77
397.77	1380.92
397.97	1490.92
398.16	1460.49
398.35	1579.86
398.55	1495.60
398.74	1462.83
398.93	1551.78
399.12	1598.59
399.32	1572.84
399.51	1593.90
399.70	1689.87
399.90	1650.08
400.09	1600.93
400.28	1631.35
400.47	1739.02
400.67	1659.44
400.86	1657.10
401.05	1802.21
401.24	1748.38
401.44	1706.25
401.63	1783.49
401.82	1689.87
402.01	1872.43
402.21	1827.96
402.40	1792.85
402.59	1909.88
402.78	1809.23
402.97	1905.20
403.17	1877.11
403.36	1914.56
403.55	1935.62
403.74	1905.20
403.93	1881.79
404.13	1982.43
404.32	1926.26
404.51	1928.60
404.70	1996.48
404.89	1996.48
405.09	1998.82
405.28	2092.44
405.47	1984.77
405.66	1867.75
405.85	2036.27
406.05	2052.65
406.24	2036.27
406.43	2136.91
406.62	2120.53
406.81	2207.13
407.00	2106.48
407.20	1977.75
407.39	2127.55
407.58	2193.08
407.77	2165.00
407.96	2265.64
408.15	2223.51
408.34	2392.03
408.54	2328.83
408.73	2445.86
408.92	2380.32
409.11	2401.39
409.30	2331.17
409.49	2333.51
409.68	2349.90
409.87	2387.35
410.07	2387.35
410.26	2527.78
410.45	2616.72
410.64	2647.15
410.83	2649.49
411.02	2722.04
411.21	2712.68
411.40	2691.62
411.59	2663.53
411.78	2715.02
411.98	2675.23
412.17	2710.34
412.36	2743.11
412.55	2815.66
412.74	2944.39
412.93	2958.44
413.12	2808.64
413.31	2937.37
413.50	2911.63
413.69	2984.18
413.88	3061.42
414.07	3045.04
414.26	2986.52
414.45	2970.14
414.64	3122.27
414.83	3180.79
415.02	3131.64
415.22	3211.22
415.41	3239.30
415.60	3222.92
415.79	3318.88
415.98	3431.23
416.17	3468.67
416.36	3351.65
416.55	3356.33
416.74	3426.54
416.93	3531.87
417.12	3349.31
417.31	3419.52
417.50	3424.20
417.69	3672.30
417.88	3658.26
418.07	3653.58
418.26	3693.37
418.45	3714.43
418.64	3707.41
418.83	3590.38
419.02	3676.98
419.21	3843.16
419.39	3794.01
419.58	3665.28
419.77	3674.64
419.96	3770.60
420.15	3817.41
420.34	3868.91
420.53	3871.25
420.72	3999.98
420.91	3889.97
421.10	3974.23
421.29	3955.51
421.48	3882.95
421.67	4037.42
421.86	4072.53
422.05	3908.69
422.24	4086.58
422.43	3845.50
422.61	3964.87
422.80	4044.45
422.99	4056.15
423.18	4189.56
423.37	4098.28
423.56	4065.51
423.75	4205.94
423.94	4124.02
424.13	3859.54
424.32	3995.29
424.50	4009.34
424.69	4292.54
424.88	4142.75
425.07	4049.13
425.26	4037.42
425.45	3988.27
425.64	4053.81
425.83	4173.18
426.01	4287.86
426.20	4175.52
426.39	4250.41
426.58	4145.09
426.77	4161.47
426.96	4149.77
427.15	4194.24
427.33	4210.62
427.52	4234.03
427.71	4264.46
427.90	4337.01
428.09	4358.08
428.28	4437.66
428.46	4252.75
428.65	4180.20
428.84	4465.74
429.03	4365.10
429.22	4334.67
429.40	4425.95
429.59	4189.56
429.78	4163.81
429.97	3995.29
430.16	4285.52
430.34	4222.33
430.53	4306.59
430.72	4297.22
430.91	4322.97
431.10	4447.02
431.28	4681.07
431.47	4849.59
431.66	4800.44
431.85	4587.45
432.03	4851.93
432.22	4819.16
432.41	4919.81
432.60	4901.08
432.79	4873.00
432.97	4936.19
433.16	5081.30
433.35	4819.16
433.54	4954.91
433.72	4765.33
433.91	4891.72
434.10	4917.47
434.28	4821.50
434.47	5121.09
434.66	5212.37
434.85	5184.29
435.03	5217.05
435.22	5027.47
435.41	5317.70
435.59	5167.90
435.78	5181.95
435.97	5359.83
436.16	5359.83
436.34	5327.06
436.53	5303.65
436.72	5207.69
436.90	5329.40
437.09	5453.45
437.28	5261.52
437.46	5329.40
437.65	5303.65
437.84	5221.74
438.02	5430.04
438.21	5469.83
438.40	5235.78
438.58	5593.88
438.77	5661.76
438.96	5526.00
439.14	5856.02
439.33	5738.99
439.52	5834.96
439.70	5788.14
439.89	5930.92
440.08	6005.81
440.26	5914.53
440.45	5886.45
440.63	6043.26
440.82	6129.86
441.01	6183.70
441.19	6267.95
441.38	6188.38
441.57	6375.62
441.75	6347.53
441.94	6579.25
442.12	6490.31
442.31	6532.44
442.50	6764.15
442.68	6619.04
442.87	6424.77
443.05	6651.80
443.24	6773.51
443.43	6705.63
443.61	6534.78
443.80	6911.60
443.98	6675.21
444.17	6300.72
444.35	6736.06
444.54	6988.84
444.73	6909.26
444.91	6927.99
445.10	6820.32
445.28	6679.89
445.47	6607.33
445.65	6668.19
445.84	6635.42
446.02	6539.46
446.21	6693.93
446.39	6555.84
446.58	6953.73
446.77	6806.28
446.95	6668.19
447.14	6867.13
447.32	6951.39
447.51	7019.27
447.69	6942.03
447.88	7089.48
448.06	6988.84
448.25	6871.81
448.43	6967.77
448.62	7009.90
448.80	6913.94
448.99	7070.76
449.17	7080.12
449.36	7178.42
449.54	7307.15
449.73	7358.64
449.91	7248.64
450.10	7426.52
450.28	7527.16
450.46	7463.97
450.65	7410.14
450.83	7353.96
451.02	7576.31
451.20	7625.47
451.39	7569.29
451.57	7473.33
451.76	7634.83
451.94	7548.23
452.13	7651.21
452.31	7440.56
452.49	7358.64
452.68	7480.35
452.86	7339.92
453.05	7559.93
453.23	7524.82
453.42	7576.31
453.60	7791.64
453.78	7810.37
453.97	7550.57
454.15	7721.43
454.34	7588.02
454.52	7726.11
454.70	7885.26
454.89	7772.92
455.07	7784.62
455.26	8105.28
455.44	8037.40
455.62	7885.26
455.81	8168.47
455.99	7911.01
456.17	8065.49
456.36	8170.81
456.54	8257.41
456.73	8423.59
456.91	8479.76
457.09	8287.84
457.28	8428.27
457.46	8376.78
457.64	8512.53
457.83	8250.39
458.01	8355.71
458.19	8603.81
458.38	8400.18
458.56	8622.53
458.74	8720.84
458.93	8554.66
459.11	8372.10
459.29	8634.24
459.48	8791.05
459.66	8713.81
459.84	9006.38
460.03	8821.48
460.21	8908.08
460.39	8938.51
460.57	8865.95
460.76	8830.84
460.94	9100.00
461.12	8971.27
461.31	9057.87
461.49	9085.96
461.67	8875.31
461.85	9163.20
462.04	9116.39
462.22	9158.52
462.40	9390.23
462.59	9163.20
462.77	9263.84
462.95	9408.95
463.13	9343.42
463.32	9135.11
463.50	9275.54
463.68	9188.94
463.86	9359.80
464.05	9399.59
464.23	9493.21
464.41	9334.06
464.59	9071.92
464.78	9638.33
464.96	9418.32
465.14	9305.97
465.32	9654.71
465.50	9570.45
465.69	9521.30
465.87	9626.62
466.05	9502.58
466.23	9458.10
466.41	9640.67
466.60	9722.59
466.78	9427.68
466.96	9568.11
467.14	9661.73
467.32	9799.82
467.51	9804.50
467.69	9706.20
467.87	9818.55
468.05	9975.36
468.23	9830.25
468.41	9750.67
468.60	9991.75
468.78	9839.61
468.96	9947.28
469.14	10132.18
469.32	10176.65
469.50	9853.66
469.69	10038.56
469.87	10235.16
470.05	10134.52
470.23	10218.78
470.41	10230.48
470.59	10391.98
470.77	10347.51
470.95	10361.55
471.14	10459.85
471.32	10434.11
471.50	10796.89
471.68	10593.26
471.86	10719.65
472.04	10881.15
472.22	10923.28
472.40	10696.25
472.58	10675.18
472.77	10778.17
472.95	10820.30
473.13	11384.37
473.31	10796.89
473.49	10773.49
473.67	11021.58
473.85	11122.23
474.03	11367.98
474.21	11243.93
474.39	11819.71
474.57	11571.61
474.75	11545.86
474.93	11545.86
475.12	11297.77
475.30	11648.85
475.48	11393.73
475.66	11744.81
475.84	11683.95
476.02	11995.25
476.20	11791.62
476.38	11889.92
476.56	12294.83
476.74	12210.57
476.92	12210.57
477.10	12353.35
477.28	12409.52
477.46	12594.42
477.64	12695.07
477.82	13036.78
478.00	12919.76
478.18	12798.05
478.36	12957.21
478.54	12982.95
478.72	13202.96
478.90	13394.89
479.08	13472.12
479.26	13743.63
479.44	13610.22
479.62	13565.74
479.80	14003.43
479.98	14120.45
480.16	14303.01
480.34	13977.68
480.52	14279.61
480.70	14129.81
480.88	14202.37
481.06	14539.41
481.24	14546.43
481.41	14691.54
481.59	14846.02
481.77	14902.19
481.95	14998.15
482.13	15122.20
482.31	14977.09
482.49	15323.49
482.67	15351.57
482.85	15503.71
483.03	15665.21
483.21	15646.48
483.39	15920.32
483.57	15995.22
483.74	16173.10
483.92	16037.35
484.10	15800.96
484.28	16369.71
484.46	16709.08
484.64	16940.80
484.82	16690.36
485.00	16886.97
485.18	17067.19
485.35	16966.54
485.53	16699.72
485.71	16699.72
485.89	17029.74
486.07	16791.00
486.25	17420.61
486.43	17446.35
486.61	17633.60
486.78	17699.13
486.96	17804.46
487.14	18164.90
487.32	18298.31
487.50	18469.17
487.68	18745.35
487.85	19201.76
488.03	18963.02
488.21	19379.64
488.39	19250.91
488.57	19484.96
488.75	19201.76
488.92	19812.63
489.10	20004.56
489.28	20243.29
489.46	20285.42
489.64	20388.41
489.81	20744.17
489.99	20961.84
490.17	21064.82
490.35	21167.80
490.53	21221.64
490.70	21097.59
490.88	21170.15
491.06	21593.78
491.24	21668.68
491.41	21357.39
491.59	21717.83
491.77	21617.19
491.95	22157.85
492.13	22190.62
492.30	22181.26
492.48	22398.93
492.66	22581.49
492.84	22752.35
493.01	22712.56
493.19	22555.74
493.37	23133.86
493.54	23098.75
493.72	23372.59
493.90	23262.58
494.08	23470.89
494.25	24154.33
494.43	24020.92
494.61	24095.82
494.79	24421.15
494.96	24177.73
495.14	24142.63
495.32	24278.38
495.49	24254.97
495.67	24697.33
495.85	25036.71
496.02	24978.20
496.20	25565.67
496.38	25195.87
496.55	25483.75
496.73	25841.85
496.91	25507.16
497.09	25771.64
497.26	25970.58
497.44	25912.07
497.62	25757.60
497.79	26246.77
497.97	25951.86
498.14	26199.96
498.32	26583.80
498.50	26649.34
498.67	26801.47
498.85	27143.19
499.03	26836.58
499.20	27374.91
499.38	27154.90
499.56	27180.64
499.73	27180.64
499.91	27580.87
500.08	27520.02
500.26	27122.13
500.44	27391.29
500.61	27520.02
500.79	27730.67
500.97	27707.26
501.14	27800.88
501.32	27744.71
501.49	27723.65
501.67	27978.76
501.84	28287.71
502.02	28435.17
502.20	28606.03
502.37	28596.67
502.55	28353.25
502.72	29181.80
502.90	28973.49
503.07	28765.18
503.25	29259.04
503.43	29116.26
503.60	28966.47
503.78	29118.60
503.95	28982.85
504.13	29134.99
504.30	29710.76
504.48	29284.78
504.65	29986.94
504.83	30022.05
505.01	30160.14
505.18	30178.87
505.36	30532.29
505.53	30321.64
505.71	30679.74
505.88	30656.34
506.06	30260.79
506.23	30916.14
506.41	30401.22
506.58	30661.02
506.76	30689.10
506.93	31241.47
507.11	30852.94
507.28	30628.25
507.46	31007.42
507.63	30822.51
507.81	30967.63
507.98	30930.18
508.16	31330.41
508.33	31693.19
508.50	31585.53
508.68	32067.68
508.85	32180.03
509.03	32074.70
509.20	31906.18
509.38	32259.60
509.55	32676.22
509.73	32388.33
509.90	32343.86
510.08	32341.52
510.25	32336.84
510.42	32460.89
510.60	32620.05
510.77	33013.26
510.95	33125.60
511.12	32730.05
511.30	33228.59
511.47	33551.58
511.64	33202.84
511.82	33462.64
511.99	33326.89
512.17	33434.55
512.34	33130.28
512.51	33811.38
512.69	33530.51
512.86	33703.71
513.04	33940.11
513.21	33792.65
513.38	33876.91
513.56	33890.96
513.73	33333.91
513.90	33858.19
514.08	34176.50
514.25	34216.29
514.43	34274.80
514.60	34555.67
514.77	34408.22
514.95	34873.98
515.12	34370.77
515.29	34897.39
515.47	35180.59
515.64	35077.61
515.81	34981.65
515.99	34864.62
516.16	34644.61
516.33	34246.72
516.51	34087.56
516.68	33556.26
516.85	33743.50
517.03	34422.26
517.20	34642.27
517.37	35143.14
517.54	35412.31
517.72	35063.57
517.89	35056.54
518.06	34775.68
518.24	35105.70
518.41	35459.12
518.58	35573.80
518.75	35604.23
518.93	35868.71
519.10	35732.96
519.27	36381.29
519.45	36004.46
519.62	35967.01
519.79	36315.75
519.96	36250.22
520.14	36587.25
520.31	36025.53
520.48	36378.95
520.65	36388.31
520.83	36636.41
521.00	37015.57
521.17	37132.60
521.34	36950.04
521.52	37127.92
521.69	37191.11
521.86	37663.90
522.03	37401.76
522.20	37385.38
522.38	37670.92
522.55	37577.30
522.72	37270.69
522.89	37383.04
523.07	37514.11
523.24	37146.64
523.41	38078.18
523.58	38150.73
523.75	38625.86
523.92	38033.71
524.10	37986.89
524.27	38569.69
524.44	38447.98
524.61	38007.96
524.78	38581.39
524.96	38550.96
525.13	38925.45
525.30	38497.13
525.47	39328.02
525.64	38817.78
525.81	38951.20
525.98	38576.71
526.16	38223.29
526.33	38480.75
526.50	38426.92
526.67	38630.54
526.84	38447.98
527.01	38424.57
527.18	38785.02
527.36	39051.84
527.53	39559.73
527.70	39817.19
527.87	39370.15
528.04	38829.49
528.21	39775.06
528.38	39606.55
528.55	40205.72
528.72	39470.79
528.89	40154.23
529.07	39765.70
529.24	39505.90
529.41	40254.87
529.58	39739.96
529.75	39426.32
529.92	40275.94
530.09	40275.94
530.26	40217.43
530.43	40425.73
530.60	40268.92
530.77	40224.45
530.94	40694.89
531.11	40397.65
531.28	40458.50
531.46	41144.28
531.63	41090.44
531.80	40509.99
531.97	40734.68
532.14	40690.21
532.31	40009.12
532.48	40533.40
532.65	40774.47
532.82	40521.69
532.99	40882.14
533.16	40821.28
533.33	41097.47
533.50	41057.68
533.67	41006.19
533.84	40999.16
534.01	41083.42
534.18	40811.92
534.35	41546.85
534.52	41273.01
534.69	41265.99
534.86	41617.07
535.03	41352.58
535.20	41794.95
535.37	41944.74
535.54	42192.84
535.71	41940.06
535.88	41832.39
536.05	41612.38
536.22	41525.78
536.38	41860.48
536.55	41769.20
536.72	41991.55
536.89	41542.17
537.06	41921.34
537.23	41867.50
537.40	42361.36
537.57	42260.71
537.74	41963.46
537.91	42536.90
538.08	41961.12
538.25	42351.99
538.42	42398.80
538.59	42925.42
538.75	41743.45
538.92	42209.22
539.09	42108.58
539.26	42225.60
539.43	42356.67
539.60	42691.37
539.77	42646.90
539.94	42520.51
540.11	42588.39
540.28	43037.77
540.44	42312.20
540.61	42398.80
540.78	42298.16
540.95	42632.86
541.12	42548.60
541.29	42658.60
541.46	42806.06
541.62	43145.44
541.79	43246.08
541.96	42436.25
542.13	42899.68
542.30	43075.22
542.47	43164.16
542.63	42890.32
542.80	43283.53
542.97	43861.64
543.14	43515.24
543.31	43508.22
543.48	43304.59
543.64	44238.47
543.81	44233.78
543.98	44119.10
544.15	43679.08
544.32	44254.85
544.48	44257.19
544.65	44203.36
544.82	44233.78
544.99	43814.83
545.16	43866.32
545.32	44217.40
545.49	44238.47
545.66	44680.83
545.83	44135.48
546.00	44177.61
546.16	44240.81
546.33	44257.19
546.50	43791.42
546.67	44203.36
546.83	43945.90
547.00	44477.20
547.17	44189.31
547.34	44048.88
547.50	44566.14
547.67	44282.94
547.84	44194.00
548.00	45202.77
548.17	44753.38
548.34	44713.59
548.51	44502.95
548.67	44636.36
548.84	44797.85
549.01	44879.77
549.18	44645.72
549.34	45237.87
549.51	44624.65
549.68	45275.32
549.84	44900.84
550.01	45174.68
550.18	44807.22
550.34	44737.00
550.51	45134.89
550.68	45165.32
550.84	44879.77
551.01	45380.65
551.18	44884.45
551.34	45209.79
551.51	45062.33
551.68	45427.46
551.84	45450.86
552.01	45020.20
552.18	45364.26
552.34	45001.48
552.51	45322.13
552.68	45050.63
552.84	45390.01
553.01	45399.37
553.18	45345.54
553.34	45701.30
553.51	45177.02
553.67	45404.05
553.84	45869.82
554.01	46134.30
554.17	45869.82
554.34	45848.75
554.51	45631.08
554.67	46129.62
554.84	45925.99
555.00	45427.46
555.17	45628.74
555.33	46206.86
555.50	45624.06
555.67	45595.98
555.83	46021.95
556.00	46047.70
556.16	45815.99
556.33	45801.94
556.50	46078.13
556.66	46190.47
556.83	45483.63
556.99	46256.01
557.16	46265.37
557.32	46541.55
557.49	46003.23
557.65	45949.40
557.82	45883.86
557.98	46218.56
558.15	45668.53
558.32	46134.30
558.48	45792.58
558.65	46073.45
558.81	45792.58
558.98	46064.08
559.14	45696.62
559.31	45881.52
559.47	46206.86
559.64	46389.42
559.80	46068.76
559.97	46251.33
560.13	46129.62
560.30	46071.10
560.46	46508.79
560.63	46206.86
560.79	46588.36
560.96	46529.85
561.12	46188.13
561.29	46625.81
561.45	46256.01
561.61	46167.07
561.78	46185.79
561.94	46337.93
562.11	46389.42
562.27	46012.59
562.44	46649.22
562.60	46660.92
562.77	46347.29
562.93	46384.74
563.10	46469.00
563.26	46258.35
563.42	46630.49
563.59	46532.19
563.75	46368.35
563.92	46171.75
564.08	46642.20
564.24	46864.55
564.41	46607.09
564.57	46756.88
564.74	46384.74
564.90	46768.58
565.07	46705.39
565.23	46878.59
565.39	46293.46
565.56	46604.75
565.72	46344.95
565.88	46548.57
566.05	46440.91
566.21	46824.76
566.38	46829.44
566.54	46380.06
566.70	47196.90
566.87	47353.72
567.03	46632.83
567.19	46894.97
567.36	46993.28
567.52	46681.98
567.68	47288.18
567.85	46784.97
568.01	46700.71
568.17	46480.70
568.34	47248.39
568.50	47269.46
568.66	46700.71
568.83	46850.50
568.99	46366.01
569.15	46934.76
569.32	46227.92
569.48	46459.63
569.64	46756.88
569.81	46885.61
569.97	46686.67
570.13	47105.62
570.30	46267.71
570.46	46639.86
570.62	46436.23
570.78	46459.63
570.95	46438.57
571.11	46997.96
571.27	46712.41
571.43	46483.04
571.60	46543.89
571.76	46740.50
571.92	47028.38
572.09	46738.16
572.25	46990.94
572.41	47056.47
572.57	47145.41
572.74	47423.93
572.90	47009.66
573.06	46995.62
573.22	46838.80
573.38	46897.31
573.55	46845.82
573.71	47168.82
573.87	46649.22
574.03	47082.22
574.20	47288.18
574.36	46993.28
574.52	46780.29
574.68	46738.16
574.84	46873.91
575.01	46742.84
575.17	46948.81
575.33	46986.25
575.49	47323.29
575.65	47033.07
575.82	46969.87
575.98	46876.25
576.14	47592.45
576.30	47154.77
576.46	46761.56
576.62	46703.05
576.79	46813.05
576.95	46628.15
577.11	47009.66
577.27	46817.74
577.43	46967.53
577.59	47035.41
577.75	46916.04
577.92	46628.15
578.08	46665.60
578.24	46630.49
578.40	47166.48
578.56	47339.68
578.72	47075.19
578.88	46939.44
579.04	47168.82
579.21	47175.84
579.37	46803.69
579.53	46827.10
579.69	46894.97
579.85	46815.40
580.01	47056.47
580.17	47433.30
580.33	46768.58
580.49	46684.33
580.65	46979.23
580.82	47430.96
580.98	46976.89
581.14	47126.69
581.30	47136.05
581.46	47004.98
581.62	47075.19
581.78	47171.16
581.94	47030.72
582.10	47042.43
582.26	46689.01
582.42	47016.68
582.58	47433.30
582.74	47150.09
582.90	47496.49
583.06	46852.84
583.22	47271.80
583.38	47203.92
583.54	47377.12
583.70	47379.46
583.86	46997.96
584.02	46974.55
584.18	47224.99
584.34	47042.43
584.50	47140.73
584.66	47065.83
584.82	46827.10
584.98	47309.25
585.14	47428.62
585.30	46873.91
585.46	46892.63
585.62	47047.11
585.78	47009.66
585.94	46864.55
586.10	47096.26
586.26	46791.99
586.42	47075.19
586.58	47201.58
586.74	47194.56
586.90	47075.19
587.06	47234.35
587.22	47173.50
587.38	46831.78
587.54	47388.83
587.70	46962.85
587.86	47098.60
588.02	46827.10
588.18	47241.37
588.34	46827.10
588.49	46539.21
588.65	46543.89
588.81	46349.63
588.97	46614.11
589.13	46143.66
589.29	46808.37
589.45	46738.16
589.61	46902.00
589.77	47194.56
