SpectraSuite Data File
++++++++++++++++++++++++++++++++++++
Date: Fri Oct 25 11:22:57 EDT 2013
User: price-jones
Dark Spectrum Present: No
Reference Spectrum Present: No
Number of Sampled Component Spectra: 1
Spectrometers: USB2+H05261
Integration Time (usec): 100000 (USB2+H05261)
Spectra Averaged: 1 (USB2+H05261)
Boxcar Smoothing: 0 (USB2+H05261)
Correct for Electrical Dark: No (USB2+H05261)
Strobe/Lamp Enabled: No (USB2+H05261)
Correct for Detector Non-linearity: No (USB2+H05261)
Correct for Stray Light: No (USB2+H05261)
Number of Pixels in Processed Spectrum: 2048
>>>>>Begin Processed Spectral Data<<<<<
365.73	215.33
365.92	215.33
366.12	215.33
366.32	201.29
366.52	142.77
366.72	131.07
366.91	126.39
367.11	128.73
367.31	152.13
367.51	149.79
367.70	112.35
367.90	140.43
368.10	107.66
368.30	93.62
368.49	95.96
368.69	142.77
368.89	166.18
369.09	135.75
369.28	212.99
369.48	119.37
369.68	173.20
369.87	128.73
370.07	173.20
370.27	248.10
370.47	297.25
370.66	505.56
370.86	599.18
371.06	547.69
371.25	702.16
371.45	653.01
371.65	657.69
371.84	725.57
372.04	725.57
372.24	697.48
372.44	716.20
372.63	753.65
372.83	774.72
373.03	676.41
373.22	760.67
373.42	713.86
373.62	763.01
373.81	744.29
374.01	819.19
374.21	788.76
374.40	798.12
374.60	870.68
374.79	842.59
374.99	765.36
375.19	807.48
375.38	842.59
375.58	784.08
375.78	891.74
375.97	861.32
376.17	968.98
376.37	858.98
376.56	889.40
376.76	877.70
376.95	966.64
377.15	875.36
377.35	875.36
377.54	882.38
377.74	889.40
377.93	877.70
378.13	870.68
378.33	931.53
378.52	896.43
378.72	847.27
378.91	933.87
379.11	931.53
379.31	873.02
379.50	912.81
379.70	1039.20
379.89	983.02
380.09	947.92
380.28	957.28
380.48	945.58
380.68	919.83
380.87	943.24
381.07	1011.11
381.26	1029.84
381.46	980.68
381.65	1015.79
381.85	990.05
382.04	1114.10
382.24	1039.20
382.43	968.98
382.63	1104.73
382.83	1188.99
383.02	1069.62
383.22	1142.18
383.41	1097.71
383.61	1022.81
383.80	1090.69
384.00	1071.97
384.19	1090.69
384.39	1118.78
384.58	1186.65
384.78	1172.61
384.97	1226.44
385.17	1196.01
385.36	1109.41
385.56	1181.97
385.75	1179.63
385.95	1179.63
386.14	1247.51
386.34	1144.52
386.53	1116.44
386.72	1158.57
386.92	1308.36
387.11	1329.42
387.31	1275.59
387.50	1231.12
387.70	1270.91
387.89	1261.55
388.09	1282.61
388.28	1259.21
388.48	1343.47
388.67	1214.74
388.86	1341.13
389.06	1287.29
389.25	1350.49
389.45	1387.94
389.64	1350.49
389.84	1336.45
390.03	1425.39
390.22	1371.55
390.42	1420.71
390.61	1254.53
390.81	1371.55
391.00	1460.49
391.19	1467.52
391.39	1488.58
391.58	1469.86
391.78	1458.15
391.97	1483.90
392.16	1509.65
392.36	1472.20
392.55	1481.56
392.75	1556.46
392.94	1448.79
393.13	1504.96
393.33	1472.20
393.52	1593.90
393.71	1504.96
393.91	1479.22
394.10	1582.20
394.29	1624.33
394.49	1652.42
394.68	1661.78
394.88	1621.99
395.07	1629.01
395.26	1650.08
395.46	1657.10
395.65	1675.82
395.84	1783.49
396.04	1760.08
396.23	1771.79
396.42	1699.23
396.62	1816.26
396.81	1781.15
397.00	1722.63
397.19	1769.44
397.39	1771.79
397.58	1783.49
397.77	1802.21
397.97	1860.73
398.16	1832.64
398.35	1879.45
398.55	1928.60
398.74	1898.17
398.93	1895.83
399.12	1942.64
399.32	1853.70
399.51	1933.28
399.70	1982.43
399.90	1952.01
400.09	2043.29
400.28	2127.55
400.47	2087.76
400.67	2052.65
400.86	2186.06
401.05	2069.03
401.24	2008.18
401.44	2136.91
401.63	2263.30
401.82	2139.25
402.01	2230.53
402.21	2232.87
402.40	2132.23
402.59	2218.83
402.78	2165.00
402.97	2190.74
403.17	2265.64
403.36	2282.02
403.55	2277.34
403.74	2422.45
403.93	2363.94
404.13	2298.41
404.32	2406.07
404.51	2373.30
404.70	2326.49
404.89	2431.82
405.09	2558.21
405.28	2478.63
405.47	2562.89
405.66	2509.05
405.85	2483.31
406.05	2614.38
406.24	2665.87
406.43	2614.38
406.62	2651.83
406.81	2626.08
407.00	2588.63
407.20	2551.18
407.39	2698.64
407.58	2712.68
407.77	2705.66
407.96	2825.03
408.15	2864.82
408.34	2668.21
408.54	2801.62
408.73	2871.84
408.92	2736.09
409.11	2888.22
409.30	2909.29
409.49	2988.86
409.68	2918.65
409.87	2841.41
410.07	2998.23
410.26	3000.57
410.45	3002.91
410.64	2960.78
410.83	3162.06
411.02	3068.44
411.21	3115.25
411.40	3232.28
411.59	3089.51
411.78	3272.07
411.98	3176.11
412.17	3248.66
412.36	3274.41
412.55	3286.11
412.74	3379.73
412.93	3459.31
413.12	3382.07
413.31	3627.83
413.50	3496.76
413.69	3459.31
413.88	3627.83
414.07	3660.60
414.26	3691.02
414.45	3688.68
414.64	3747.20
414.83	3705.07
415.02	3714.43
415.22	3826.78
415.41	3955.51
415.60	3892.31
415.79	3957.85
415.98	4072.53
416.17	4004.66
416.36	4011.68
416.55	4016.36
416.74	4187.22
416.93	3971.89
417.12	4124.02
417.31	4266.80
417.50	4133.39
417.69	4170.83
417.88	4348.72
418.07	4255.09
418.26	4180.20
418.45	4292.54
418.64	4468.08
418.83	4571.07
419.02	4465.74
419.21	4622.56
419.39	4603.83
419.58	4425.95
419.77	4463.40
419.96	4685.75
420.15	4770.01
420.34	4582.77
420.53	4748.95
420.72	4798.10
420.91	4767.67
421.10	4774.69
421.29	4800.44
421.48	4826.18
421.67	4802.78
421.86	4915.12
422.05	4887.04
422.24	4959.60
422.43	4821.50
422.61	4987.68
422.80	4978.32
422.99	5008.75
423.18	5011.09
423.37	5076.62
423.56	4856.61
423.75	4947.89
423.94	4774.69
424.13	4596.81
424.32	4706.82
424.50	4903.42
424.69	5181.95
424.88	5025.13
425.07	4856.61
425.26	4917.47
425.45	4889.38
425.64	4901.08
425.83	4971.30
426.01	5104.71
426.20	5090.67
426.39	4992.36
426.58	5029.81
426.77	5233.44
426.96	5195.99
427.15	5041.51
427.33	5301.31
427.52	5200.67
427.71	5355.15
427.90	5296.63
428.09	5317.70
428.28	5453.45
428.46	5378.55
428.65	5399.62
428.84	5371.53
429.03	5411.32
429.22	5413.66
429.40	5423.02
429.59	5668.78
429.78	5355.15
429.97	5296.63
430.16	5542.39
430.34	5476.85
430.53	5678.14
430.72	5643.03
430.91	5631.33
431.10	5610.26
431.28	5760.06
431.47	5926.24
431.66	5895.81
431.85	5799.85
432.03	5830.27
432.22	6066.67
432.41	6036.24
432.60	6164.97
432.79	5991.77
432.97	6125.18
433.16	6181.35
433.35	5968.37
433.54	5998.79
433.72	6263.27
433.91	6017.52
434.10	6111.14
434.28	6235.19
434.47	6267.95
434.66	6289.02
434.85	6473.92
435.03	6370.94
435.22	6260.93
435.41	6583.93
435.59	6506.69
435.78	6431.79
435.97	6387.32
436.16	6492.65
436.34	6532.44
436.53	6389.66
436.72	6759.47
436.90	6363.92
437.09	6843.73
437.28	6497.33
437.46	6644.78
437.65	6785.21
437.84	6684.57
438.02	6738.40
438.21	6750.10
438.40	6843.73
438.58	7117.57
438.77	7070.76
438.96	7080.12
439.14	7250.98
439.33	7108.21
439.52	7286.09
439.70	7246.30
439.89	7360.98
440.08	7431.20
440.26	7353.96
440.45	7323.54
440.63	7538.87
440.82	7627.81
441.01	7679.30
441.19	7768.24
441.38	7660.57
441.57	7559.93
441.75	7772.92
441.94	8121.66
442.12	7969.52
442.31	8009.31
442.50	8180.17
442.68	7850.16
442.87	8297.20
443.05	8142.72
443.24	8313.58
443.43	8138.04
443.61	8133.36
443.80	8397.84
443.98	7962.50
444.17	7990.59
444.35	8327.63
444.54	8262.09
444.73	8327.63
444.91	8320.60
445.10	8327.63
445.28	8252.73
445.47	8315.92
445.65	8514.87
445.84	8482.10
446.02	8451.67
446.21	8683.39
446.39	8425.93
446.58	8568.70
446.77	8779.35
446.95	8397.84
447.14	8395.50
447.32	8549.98
447.51	8638.92
447.69	8519.55
447.88	8655.30
448.06	8533.59
448.25	8706.79
448.43	8596.79
448.62	8667.00
448.80	8617.85
448.99	8706.79
449.17	8620.19
449.36	8545.30
449.54	8891.70
449.73	8908.08
449.91	9088.30
450.10	9076.60
450.28	8908.08
450.46	9214.69
450.65	9013.40
450.83	9212.35
451.02	8987.66
451.20	9338.74
451.39	9490.87
451.57	9015.74
451.76	9053.19
451.94	9322.35
452.13	9472.15
452.31	9270.86
452.49	9268.52
452.68	9383.21
452.86	9350.44
453.05	9554.07
453.23	9437.04
453.42	9380.87
453.60	9294.27
453.78	9600.88
453.97	9589.17
454.15	9460.45
454.34	9432.36
454.52	9928.55
454.70	9727.27
454.89	9799.82
455.07	9816.21
455.26	9771.74
455.44	9860.68
455.62	9905.15
455.81	10008.13
455.99	10125.16
456.17	10209.42
456.36	10122.82
456.54	10008.13
456.73	10256.23
456.91	10569.86
457.09	10455.17
457.28	10462.19
457.46	10452.83
457.64	10518.37
457.83	10675.18
458.01	10602.63
458.19	10740.72
458.38	10588.58
458.56	10850.72
458.74	10738.38
458.93	10771.15
459.11	10888.17
459.29	10721.99
459.48	10876.47
459.66	10860.09
459.84	10958.39
460.03	10953.71
460.21	11019.24
460.39	11009.88
460.57	11190.10
460.76	11169.04
460.94	11545.86
461.12	11351.60
461.31	11192.44
461.49	11281.38
461.67	11485.01
461.85	11627.78
462.04	11358.62
462.22	11913.33
462.40	11557.57
462.59	11662.89
462.77	11730.76
462.95	11796.30
463.13	11723.74
463.32	11782.26
463.50	11974.18
463.68	11992.90
463.86	11721.40
464.05	11702.68
464.23	11939.07
464.41	11833.75
464.59	11744.81
464.78	12393.14
464.96	12020.99
465.14	11845.45
465.32	12166.10
465.50	12259.73
465.69	12229.30
465.87	12145.04
466.05	12175.47
466.23	12170.79
466.41	12393.14
466.60	12592.08
466.78	12236.32
466.96	12332.28
467.14	12395.48
467.32	12482.08
467.51	12556.97
467.69	12599.10
467.87	12376.75
468.05	12915.08
468.23	12367.39
468.41	12592.08
468.60	12664.64
468.78	12744.22
468.96	12564.00
469.14	13069.55
469.32	13034.44
469.50	12500.80
469.69	13029.76
469.87	13156.15
470.05	13212.32
470.23	13488.51
470.41	13165.51
470.59	13217.01
470.77	13123.38
470.95	13336.37
471.14	13696.82
471.32	13249.77
471.50	13722.56
471.68	13633.62
471.86	13593.83
472.04	13834.91
472.22	14087.68
472.40	13635.96
472.58	14176.62
472.77	14024.49
472.95	14352.16
473.13	14445.79
473.31	14272.59
473.49	14221.10
473.67	14267.91
473.85	14050.24
474.03	14609.62
474.21	14810.91
474.39	14848.36
474.57	14691.54
474.75	14904.53
474.93	14888.15
475.12	14965.39
475.30	15311.78
475.48	15147.95
475.66	15405.41
475.84	15098.80
476.02	15477.96
476.20	15407.75
476.38	15496.69
476.56	16236.30
476.74	16107.57
476.92	15875.85
477.10	15885.22
477.28	16248.00
477.46	16531.20
477.64	16435.24
477.82	16503.12
478.00	17020.38
478.18	17130.38
478.36	16912.71
478.54	17083.57
478.72	17238.05
478.90	17488.48
479.08	17862.97
479.26	17872.33
479.44	17874.67
479.62	17998.72
479.80	18462.15
479.98	18246.82
480.16	18583.85
480.34	18125.11
480.52	18843.65
480.70	18682.16
480.88	18979.40
481.06	18883.44
481.24	19138.56
481.41	19300.06
481.59	19461.55
481.77	19573.90
481.95	19569.22
482.13	20020.94
482.31	19721.35
482.49	20706.72
482.67	20563.95
482.85	20725.44
483.03	20812.04
483.21	21055.46
483.39	21125.68
483.57	21062.48
483.74	21579.74
483.92	21722.51
484.10	21415.90
484.28	21884.01
484.46	21991.67
484.64	22483.19
484.82	21996.35
485.00	22436.38
485.18	22831.93
485.35	23035.55
485.53	22920.87
485.71	23065.98
485.89	23552.81
486.07	23498.98
486.25	23702.61
486.43	23922.62
486.61	24128.58
486.78	24432.85
486.96	24327.53
487.14	24699.67
487.32	24748.82
487.50	24950.11
487.68	25221.61
487.85	25298.85
488.03	25446.30
488.21	26188.25
488.39	25886.32
488.57	26307.62
488.75	26277.19
488.92	26522.95
489.10	26677.43
489.28	27119.79
489.46	27246.18
489.64	27346.82
489.81	27878.12
489.99	27835.99
490.17	27938.97
490.35	28268.99
490.53	28397.72
490.70	28790.93
490.88	28240.90
491.06	29060.09
491.24	29158.39
491.41	29752.89
491.59	29436.92
491.77	29305.85
491.95	29457.98
492.13	29958.86
492.30	30335.68
492.48	30291.21
492.66	30450.37
492.84	30817.83
493.01	30801.45
493.19	30735.92
493.37	31239.13
493.54	31606.59
493.72	31316.37
493.90	31498.93
494.08	31882.78
494.25	32481.95
494.43	32430.46
494.61	32484.30
494.79	32428.12
494.96	32601.32
495.14	32975.81
495.32	33619.46
495.49	33633.50
495.67	33450.94
495.85	34040.75
496.02	34279.49
496.20	33720.10
496.38	34403.53
496.55	34899.73
496.73	34473.75
496.91	34686.74
497.09	34976.97
497.26	35185.27
497.44	35409.96
497.62	35798.49
497.79	36006.80
497.97	36130.85
498.14	36177.66
498.32	36369.58
498.50	36470.23
498.67	36620.02
498.85	36472.57
499.03	37146.64
499.20	36952.38
499.38	36739.39
499.56	37200.47
499.73	37097.49
499.91	37373.67
500.08	37544.53
500.26	37689.65
500.44	37886.25
500.61	38281.80
500.79	38349.68
500.97	38445.64
501.14	38981.62
501.32	38637.56
501.49	39086.95
501.67	38909.07
501.84	38815.44
502.02	38972.26
502.20	39229.72
502.37	39377.17
502.55	39470.79
502.72	40123.80
502.90	39803.15
503.07	40009.12
503.25	39704.85
503.43	40411.69
503.60	40329.77
503.78	40725.32
503.95	40451.48
504.13	40982.78
504.30	40973.42
504.48	40783.83
504.65	41315.14
504.83	41364.29
505.01	41509.40
505.18	41614.72
505.36	41841.76
505.53	41432.16
505.71	42356.67
505.88	42267.73
506.06	41696.64
506.23	42227.95
506.41	42183.48
506.58	42501.79
506.76	42419.87
506.93	43161.82
507.11	42351.99
507.28	42579.03
507.46	42960.53
507.63	43215.65
507.81	43440.34
507.98	42958.19
508.16	43105.65
508.33	44058.24
508.50	43854.62
508.68	43786.74
508.85	44369.54
509.03	43793.76
509.20	44456.14
509.38	44790.83
509.55	44648.06
509.73	45029.57
509.90	44629.34
510.08	44818.92
510.25	44886.79
510.42	44978.07
510.60	44657.42
510.77	45731.73
510.95	45787.90
511.12	45160.64
511.30	45504.70
511.47	45764.49
511.64	46113.23
511.82	46749.86
511.99	46080.47
512.17	46593.04
512.34	46108.55
512.51	46784.97
512.69	46660.92
512.86	46625.81
513.04	46820.08
513.21	47004.98
513.38	47058.81
513.56	47503.51
513.73	47056.47
513.90	47271.80
514.08	46616.45
514.25	47526.92
514.43	47475.43
514.60	48222.06
514.77	47793.74
514.95	47863.96
515.12	47330.31
515.29	48212.70
515.47	48217.38
515.64	48371.85
515.81	48282.91
515.99	48526.33
516.16	48690.16
516.33	48559.09
516.51	49272.96
516.68	48774.42
516.85	48917.20
517.03	48952.30
517.20	49137.21
517.37	49008.48
517.54	49413.39
517.72	49310.41
517.89	49357.22
518.06	49546.80
518.24	49638.08
518.41	49689.57
518.58	49687.23
518.75	49605.31
518.93	49916.61
519.10	49656.81
519.27	50101.51
519.45	50237.26
519.62	50389.39
519.79	50373.01
519.96	50153.00
520.14	50628.13
520.31	50197.47
520.48	50600.04
520.65	50639.83
520.83	51047.08
521.00	50618.77
521.17	50820.05
521.34	50890.27
521.52	50897.29
521.69	51236.67
521.86	51199.22
522.03	51241.35
522.20	51852.23
522.38	51870.95
522.55	51739.88
522.72	51435.61
522.89	51459.02
523.07	51735.20
523.24	51756.27
523.41	51826.48
523.58	51664.99
523.75	52030.11
523.92	52175.22
524.10	52271.18
524.27	52306.29
524.44	52493.54
524.61	52542.69
524.78	52507.58
524.96	52477.15
525.13	52561.41
525.30	52758.02
525.47	52594.18
525.64	52631.63
525.81	52910.15
525.98	53031.86
526.16	52711.20
526.33	53251.87
526.50	53106.76
526.67	52809.51
526.84	53095.05
527.01	53361.87
527.18	52846.96
527.36	53188.67
527.53	53244.85
527.70	53691.89
527.87	53516.35
528.04	53343.15
528.21	53535.07
528.38	53364.21
528.55	53542.10
528.72	53396.98
528.89	54026.59
529.07	53581.88
529.24	53666.14
529.41	54096.80
529.58	53792.53
529.75	53666.14
529.92	53961.05
530.09	54021.90
530.26	54272.34
530.43	54216.17
530.60	53717.64
530.77	54057.01
530.94	54637.47
531.11	54382.35
531.28	54562.57
531.46	54342.56
531.63	54368.30
531.80	54600.02
531.97	54717.04
532.14	54597.68
532.31	54698.32
532.48	54707.68
532.65	54784.92
532.82	54815.35
532.99	54801.30
533.16	54754.49
533.33	55124.30
533.50	55119.62
533.67	55004.93
533.84	54937.05
534.01	55121.96
534.18	55147.70
534.35	55529.21
534.52	55098.55
534.69	55185.15
534.86	55470.70
535.03	55246.00
535.20	55241.32
535.37	55505.80
535.54	55625.17
535.71	55442.61
535.88	55611.13
536.05	55449.63
536.22	55812.41
536.38	55943.48
536.55	55721.13
536.72	56048.81
536.89	55760.92
537.06	55962.21
537.23	56055.83
537.40	55948.17
537.57	56039.45
537.74	56048.81
537.91	56212.65
538.08	56002.00
538.25	55777.31
538.42	55983.27
538.59	56329.67
538.75	56037.11
538.92	56278.18
539.09	56484.15
539.26	56348.40
539.43	56268.82
539.60	56193.92
539.77	56383.51
539.94	56905.44
540.11	56446.70
540.28	56816.50
540.44	56451.38
540.61	56828.21
540.78	56568.41
540.95	56647.99
541.12	56699.48
541.29	56622.24
541.46	56713.52
541.62	56697.14
541.79	56886.72
541.96	56626.92
542.13	56762.67
542.30	56853.95
542.47	56999.07
542.63	56982.68
542.80	57249.50
542.97	57188.65
543.14	57345.47
543.31	57298.65
543.48	57546.75
543.64	57432.07
543.81	57474.20
543.98	57523.35
544.15	57392.28
544.32	57745.70
544.48	57677.82
544.65	57443.77
544.82	57474.20
544.99	57462.49
545.16	57528.03
545.32	57694.21
545.49	57745.70
545.66	57745.70
545.83	57881.45
546.00	57813.57
546.16	57914.22
546.33	57748.04
546.50	57827.62
546.67	57827.62
546.83	57780.81
547.00	58080.39
547.17	57902.51
547.34	58115.50
547.50	58274.66
547.67	58052.31
547.84	58171.67
548.00	58363.60
548.17	58391.68
548.34	58045.29
548.51	58415.09
548.67	58333.17
548.84	58396.37
549.01	58363.60
549.18	58230.19
549.34	58475.94
549.51	58447.86
549.68	58555.52
549.84	58436.16
550.01	58536.80
550.18	58412.75
550.34	58681.91
550.51	58658.51
550.68	58937.03
550.84	58494.67
551.01	58702.98
551.18	58740.42
551.34	58805.96
551.51	58852.77
551.68	58688.93
551.84	58836.39
552.01	58728.72
552.18	58878.52
552.34	58635.10
552.51	58873.84
552.68	58845.75
552.84	58801.28
553.01	59047.04
553.18	59110.23
553.34	59054.06
553.51	58983.84
553.67	59047.04
553.84	59161.72
554.01	59238.96
554.17	59412.16
554.34	59089.16
554.51	59056.40
554.67	59255.34
554.84	59243.64
555.00	59075.12
555.17	59000.22
555.33	59299.81
555.50	58848.09
555.67	59325.56
555.83	59255.34
556.00	59257.68
556.16	59653.23
556.33	59594.72
556.50	59433.22
556.66	59554.93
556.83	59313.86
556.99	59660.26
557.16	59735.15
557.32	59531.53
557.49	59774.94
557.65	59599.40
557.82	59695.36
557.98	59510.46
558.15	59536.21
558.32	59744.51
558.48	59688.34
558.65	59573.66
558.81	59629.83
558.98	59742.17
559.14	59746.86
559.31	59657.91
559.47	59941.12
559.64	60191.56
559.80	59873.24
559.97	59856.86
560.13	59721.11
560.30	59924.74
560.46	59952.82
560.63	60097.94
560.79	59936.44
560.96	60130.70
561.12	60121.34
561.29	60072.19
561.45	59941.12
561.61	59896.65
561.78	59992.61
561.94	59938.78
562.11	60060.49
562.27	60053.47
562.44	60317.95
562.60	60020.70
562.77	60203.26
562.93	59941.12
563.10	60275.82
563.26	60130.70
563.42	60252.41
563.59	59987.93
563.75	59987.93
563.92	60280.50
564.08	60231.35
564.24	60439.65
564.41	60294.54
564.57	60182.19
564.74	60231.35
564.90	60210.28
565.07	60238.37
565.23	60369.44
565.39	60411.57
565.56	60523.91
565.72	60357.74
565.88	60650.30
566.05	60427.95
566.21	60219.64
566.38	60360.08
566.54	60343.69
566.70	60570.72
566.87	60582.43
567.03	60243.05
567.19	60589.45
567.36	60587.11
567.52	60566.04
567.68	60795.42
567.85	60657.32
568.01	60776.69
568.17	60683.07
568.34	60472.42
568.50	60530.93
568.66	60395.18
568.83	60584.77
568.99	60378.80
569.15	60573.06
569.32	60598.81
569.48	60537.96
569.64	60647.96
569.81	60519.23
569.97	60549.66
570.13	60577.75
570.30	60622.22
570.46	60720.52
570.62	60757.97
570.78	60594.13
570.95	60659.66
571.11	60910.10
571.27	60570.72
571.43	60760.31
571.60	60772.01
571.76	60755.63
571.92	60734.56
572.09	60802.44
572.25	60816.48
572.41	60715.84
572.57	60940.53
572.74	60980.32
572.90	60825.84
573.06	60692.43
573.22	60767.33
573.38	60912.44
573.55	60666.69
573.71	61029.47
573.87	60886.70
574.03	60748.60
574.20	60898.40
574.36	60757.97
574.52	60774.35
574.68	60917.12
574.84	61008.40
575.01	61003.72
575.17	60982.66
575.33	60767.33
575.49	60835.20
575.65	61006.06
575.82	60891.38
575.98	61085.64
576.14	61165.22
576.30	61176.92
576.46	61036.49
576.62	60956.91
576.79	60928.83
576.95	60837.54
577.11	60851.59
577.27	60926.49
577.43	61118.41
577.59	60884.36
577.75	60781.37
577.92	60896.06
578.08	60889.04
578.24	61080.96
578.40	60996.70
578.56	61104.37
578.72	61155.86
578.88	61137.13
579.04	61223.73
579.21	61132.45
579.37	61092.66
579.53	61197.99
579.69	60921.80
579.85	60940.53
580.01	60877.33
580.17	61031.81
580.33	61076.28
580.49	61029.47
580.65	61148.84
580.82	60924.14
580.98	60924.14
581.14	61127.77
581.30	61240.12
581.46	61102.03
581.62	61139.47
581.78	61015.43
581.94	61010.74
582.10	61176.92
582.26	61034.15
582.42	61050.53
582.58	61160.54
582.74	60961.59
582.90	61174.58
583.06	61123.09
583.22	60954.57
583.38	61158.20
583.54	61083.30
583.70	61263.52
583.86	61188.63
584.02	61167.56
584.18	61116.07
584.34	61118.41
584.50	61102.03
584.66	61183.94
584.82	60956.91
584.98	61242.46
585.14	61261.18
585.30	61010.74
585.46	61197.99
585.62	61083.30
585.78	61270.54
585.94	61048.19
586.10	61223.73
586.26	60985.00
586.42	61375.87
586.58	61207.35
586.74	61212.03
586.90	61368.85
587.06	61240.12
587.22	61474.17
587.38	61226.07
587.54	61488.21
587.70	61357.14
587.86	61289.27
588.02	61174.58
588.18	61263.52
588.34	61322.04
588.49	61006.06
