SpectraSuite Data File
++++++++++++++++++++++++++++++++++++
Date: Fri Oct 25 11:34:46 EDT 2013
User: price-jones
Dark Spectrum Present: No
Reference Spectrum Present: No
Number of Sampled Component Spectra: 1
Spectrometers: USB2+H05261
Integration Time (usec): 100000 (USB2+H05261)
Spectra Averaged: 1 (USB2+H05261)
Boxcar Smoothing: 0 (USB2+H05261)
Correct for Electrical Dark: No (USB2+H05261)
Strobe/Lamp Enabled: No (USB2+H05261)
Correct for Detector Non-linearity: No (USB2+H05261)
Correct for Stray Light: No (USB2+H05261)
Number of Pixels in Processed Spectrum: 2048
>>>>>Begin Processed Spectral Data<<<<<
365.73	273.84
365.92	273.84
366.12	273.84
366.32	191.92
366.52	159.16
366.72	203.63
366.91	198.95
367.11	170.86
367.31	60.85
367.51	194.26
367.70	196.60
367.90	156.82
368.10	145.11
368.30	201.29
368.49	238.73
368.69	215.33
368.89	212.99
369.09	187.24
369.28	245.76
369.48	208.31
369.68	243.42
369.87	243.42
370.07	264.48
370.27	280.86
370.47	414.27
370.66	461.09
370.86	475.13
371.06	571.09
371.25	557.05
371.45	543.00
371.65	575.77
371.84	517.26
372.04	603.86
372.24	603.86
372.44	596.84
372.63	615.56
372.83	587.47
373.03	601.52
373.22	575.77
373.42	648.33
373.62	599.18
373.81	650.67
374.01	550.03
374.21	685.78
374.40	601.52
374.60	767.70
374.79	615.56
374.99	603.86
375.19	601.52
375.38	578.11
375.58	653.01
375.78	662.37
375.97	678.76
376.17	718.54
376.37	641.31
376.56	706.84
376.76	727.91
376.95	664.71
377.15	657.69
377.35	634.29
377.54	697.48
377.74	620.24
377.93	711.52
378.13	674.07
378.33	746.63
378.52	704.50
378.72	676.41
378.91	669.39
379.11	681.10
379.31	699.82
379.50	669.39
379.70	732.59
379.89	713.86
380.09	774.72
380.28	699.82
380.48	653.01
380.68	671.73
380.87	727.91
381.07	732.59
381.26	800.46
381.46	727.91
381.65	748.97
381.85	760.67
382.04	753.65
382.24	706.84
382.43	758.33
382.63	781.74
382.83	784.08
383.02	856.64
383.22	889.40
383.41	866.00
383.61	868.34
383.80	793.44
384.00	842.59
384.19	816.85
384.39	802.80
384.58	828.55
384.78	842.59
384.97	809.83
385.17	891.74
385.36	821.53
385.56	805.14
385.75	835.57
385.95	919.83
386.14	901.11
386.34	863.66
386.53	814.51
386.72	894.08
386.92	954.94
387.11	891.74
387.31	938.55
387.50	894.08
387.70	910.47
387.89	819.19
388.09	870.68
388.28	842.59
388.48	844.93
388.67	901.11
388.86	952.60
389.06	833.23
389.25	940.90
389.45	910.47
389.64	968.98
389.84	964.30
390.03	964.30
390.22	985.37
390.42	947.92
390.61	952.60
390.81	896.43
391.00	990.05
391.19	973.66
391.39	992.39
391.58	926.85
391.78	978.34
391.97	1020.47
392.16	861.32
392.36	1043.88
392.55	980.68
392.75	1067.28
392.94	1060.26
393.13	1001.75
393.33	1029.84
393.52	1025.15
393.71	1053.24
393.91	1095.37
394.10	1062.60
394.29	1039.20
394.49	1036.86
394.68	1149.20
394.88	1116.44
395.07	1163.25
395.26	1123.46
395.46	1109.41
395.65	1095.37
395.84	1008.77
396.04	1188.99
396.23	1128.14
396.42	1090.69
396.62	1151.54
396.81	1235.80
397.00	1104.73
397.19	1167.93
397.39	1081.33
397.58	1179.63
397.77	1196.01
397.97	1121.12
398.16	1203.04
398.35	1291.98
398.55	1315.38
398.74	1149.20
398.93	1352.83
399.12	1240.48
399.32	1203.04
399.51	1364.53
399.70	1261.55
399.90	1324.74
400.09	1317.72
400.28	1331.76
400.47	1303.68
400.67	1376.24
400.86	1373.89
401.05	1364.53
401.24	1411.34
401.44	1329.42
401.63	1409.00
401.82	1338.79
402.01	1352.83
402.21	1331.76
402.40	1441.77
402.59	1451.13
402.78	1458.15
402.97	1497.94
403.17	1451.13
403.36	1425.39
403.55	1544.75
403.74	1488.58
403.93	1472.20
404.13	1500.28
404.32	1570.50
404.51	1575.18
404.70	1591.56
404.89	1600.93
405.09	1666.46
405.28	1570.50
405.47	1577.52
405.66	1589.22
405.85	1561.14
406.05	1715.61
406.24	1708.59
406.43	1617.31
406.62	1614.97
406.81	1748.38
407.00	1603.27
407.20	1694.55
407.39	1680.50
407.58	1732.00
407.77	1746.04
407.96	1813.92
408.15	1842.00
408.34	1858.39
408.54	1839.66
408.73	1797.53
408.92	1877.11
409.11	1851.36
409.30	1809.23
409.49	1867.75
409.68	1870.09
409.87	1975.41
410.07	1937.96
410.26	1977.75
410.45	1935.62
410.64	1893.49
410.83	2108.82
411.02	2054.99
411.21	2085.42
411.40	1970.73
411.59	2069.03
411.78	2069.03
411.98	1996.48
412.17	2242.23
412.36	2136.91
412.55	2162.66
412.74	2284.36
412.93	2289.04
413.12	2172.02
413.31	2263.30
413.50	2349.90
413.69	2286.70
413.88	2389.69
414.07	2399.05
414.26	2307.77
414.45	2401.39
414.64	2312.45
414.83	2436.50
415.02	2485.65
415.22	2518.42
415.41	2609.70
415.60	2502.03
415.79	2614.38
415.98	2523.10
416.17	2647.15
416.36	2511.39
416.55	2588.63
416.74	2609.70
416.93	2619.06
417.12	2705.66
417.31	2654.17
417.50	2677.57
417.69	2841.41
417.88	2705.66
418.07	2841.41
418.26	2736.09
418.45	2738.43
418.64	2963.12
418.83	2810.98
419.02	2925.67
419.21	2906.95
419.39	3061.42
419.58	2895.24
419.77	2944.39
419.96	3049.72
420.15	3108.23
420.34	2883.54
420.53	2986.52
420.72	2988.86
420.91	3026.31
421.10	3119.93
421.29	3077.80
421.48	3040.36
421.67	3148.02
421.86	3087.17
422.05	3042.70
422.24	3159.72
422.43	3122.27
422.61	3133.98
422.80	3199.51
422.99	3215.90
423.18	3192.49
423.37	3248.66
423.56	3187.81
423.75	3180.79
423.94	3187.81
424.13	2977.16
424.32	3150.36
424.50	3356.33
424.69	3316.54
424.88	3435.91
425.07	3150.36
425.26	3344.63
425.45	3171.43
425.64	3279.09
425.83	3227.60
426.01	3330.58
426.20	3267.39
426.39	3358.67
426.58	3321.22
426.77	3253.34
426.96	3379.73
427.15	3370.37
427.33	3377.39
427.52	3393.78
427.71	3386.76
427.90	3599.74
428.09	3396.12
428.28	3391.44
428.46	3508.46
428.65	3552.93
428.84	3681.66
429.03	3599.74
429.22	3433.57
429.40	3494.42
429.59	3536.55
429.78	3466.33
429.97	3377.39
430.16	3522.51
430.34	3700.39
430.53	3695.71
430.72	3627.83
430.91	3585.70
431.10	3592.72
431.28	3695.71
431.47	3838.48
431.66	3688.68
431.85	3723.79
432.03	3871.25
432.22	4007.00
432.41	3824.44
432.60	3932.10
432.79	3889.97
432.97	3836.14
433.16	3964.87
433.35	3992.95
433.54	4021.04
433.72	3967.21
433.91	3967.21
434.10	3882.95
434.28	3967.21
434.47	4035.08
434.66	3990.61
434.85	4131.05
435.03	4035.08
435.22	3911.04
435.41	4175.52
435.59	3997.64
435.78	4021.04
435.97	4135.73
436.16	4124.02
436.34	4065.51
436.53	4313.61
436.72	4318.29
436.90	4315.95
437.09	4203.60
437.28	4234.03
437.46	4276.16
437.65	4339.35
437.84	4287.86
438.02	4362.76
438.21	4337.01
438.40	4379.14
438.58	4507.87
438.77	4629.58
438.96	4489.15
439.14	4610.86
439.33	4648.30
439.52	4636.60
439.70	4716.18
439.89	4711.50
440.08	4751.29
440.26	4713.84
440.45	4706.82
440.63	4762.99
440.82	4788.74
441.01	4823.84
441.19	4931.51
441.38	5001.72
441.57	4943.21
441.75	4964.28
441.94	5018.11
442.12	4940.87
442.31	5128.11
442.50	5001.72
442.68	5090.67
442.87	5167.90
443.05	5114.07
443.24	5261.52
443.43	5256.84
443.61	5217.05
443.80	5359.83
443.98	5170.24
444.17	5029.81
444.35	5261.52
444.54	5430.04
444.73	5191.31
444.91	5390.25
445.10	5287.27
445.28	5289.61
445.47	5184.29
445.65	5261.52
445.84	5418.34
446.02	5327.06
446.21	5310.68
446.39	5247.48
446.58	5490.90
446.77	5523.66
446.95	5369.19
447.14	5446.43
447.32	5275.57
447.51	5369.19
447.69	5418.34
447.88	5434.72
448.06	5275.57
448.25	5423.02
448.43	5511.96
448.62	5387.91
448.80	5425.36
448.99	5469.83
449.17	5561.11
449.36	5411.32
449.54	5593.88
449.73	5844.32
449.91	5818.57
450.10	5722.61
450.28	5734.31
450.46	5797.51
450.65	5811.55
450.83	5849.00
451.02	5774.10
451.20	5961.34
451.39	5902.83
451.57	5902.83
451.76	5839.64
451.94	5879.43
452.13	6012.84
452.31	5944.96
452.49	5755.38
452.68	5844.32
452.86	5914.53
453.05	6047.94
453.23	6099.44
453.42	6150.93
453.60	5898.15
453.78	6092.41
453.97	5921.56
454.15	6092.41
454.34	6015.18
454.52	6211.78
454.70	6029.22
454.89	6171.99
455.07	6282.00
455.26	6207.10
455.44	6487.96
455.62	6366.26
455.81	6307.74
455.99	6368.60
456.17	6476.26
456.36	6314.77
456.54	6253.91
456.73	6558.18
456.91	6808.62
457.09	6656.48
457.28	6677.55
457.46	6640.10
457.64	6672.87
457.83	6768.83
458.01	6640.10
458.19	6794.58
458.38	6799.26
458.56	6871.81
458.74	6738.40
458.93	6654.14
459.11	6834.36
459.29	6836.70
459.48	6820.32
459.66	6832.02
459.84	7030.97
460.03	7063.74
460.21	7096.50
460.39	6930.33
460.57	7007.56
460.76	6998.20
460.94	7122.25
461.12	7047.35
461.31	6944.37
461.49	7023.95
461.67	7073.10
461.85	7105.87
462.04	7211.19
462.22	7440.56
462.40	7279.07
462.59	7283.75
462.77	7246.30
462.95	7419.50
463.13	7358.64
463.32	7307.15
463.50	7309.49
463.68	7541.21
463.86	7414.82
464.05	7459.29
464.23	7272.04
464.41	7672.28
464.59	7550.57
464.78	7669.94
464.96	7597.38
465.14	7438.22
465.32	7449.93
465.50	7426.52
465.69	7623.12
465.87	7789.30
466.05	7716.75
466.23	7913.35
466.41	7534.18
466.60	7793.98
466.78	7583.34
466.96	7627.81
467.14	7569.29
467.32	7761.22
467.51	7892.29
467.69	7761.22
467.87	7700.36
468.05	7789.30
468.23	7889.95
468.41	7922.71
468.60	7889.95
468.78	8063.15
468.96	7861.86
469.14	8116.98
469.32	8046.76
469.50	7918.03
469.69	8124.00
469.87	8093.57
470.05	8112.30
470.23	8346.35
470.41	8245.71
470.59	8159.11
470.77	8229.32
470.95	8594.45
471.14	8524.23
471.32	8332.31
471.50	8365.07
471.68	8484.44
471.86	8533.59
472.04	8662.32
472.22	8634.24
472.40	8458.70
472.58	8606.15
472.77	8791.05
472.95	8837.86
473.13	9195.96
473.31	8730.20
473.49	8922.12
473.67	8753.60
473.85	8940.85
474.03	8982.98
474.21	9011.06
474.39	9338.74
474.57	9137.45
474.75	9490.87
474.93	9352.78
475.12	9207.67
475.30	9273.20
475.48	9324.69
475.66	9509.60
475.84	9282.56
476.02	9661.73
476.20	9654.71
476.38	9867.70
476.56	9856.00
476.74	9767.06
476.92	9994.09
477.10	9799.82
477.28	10029.20
477.46	9900.47
477.64	10237.50
477.82	10235.16
478.00	10417.72
478.18	10518.37
478.36	10623.69
478.54	10874.13
478.72	10677.52
478.90	10864.77
479.08	10640.08
479.26	10778.17
479.44	10995.84
479.62	11117.54
479.80	11253.30
479.98	11229.89
480.16	11559.91
480.34	11255.64
480.52	11555.22
480.70	11534.16
480.88	11372.66
481.06	11665.23
481.24	11620.76
481.41	11985.88
481.59	11910.99
481.77	12074.82
481.95	12222.28
482.13	12374.41
482.31	12212.92
482.49	12629.53
482.67	12297.17
482.85	12645.91
483.03	12678.68
483.21	12931.46
483.39	13020.40
483.57	12940.82
483.74	12973.59
483.92	12994.65
484.10	13137.43
484.28	13596.17
484.46	13692.13
484.64	13813.84
484.82	13371.48
485.00	13788.10
485.18	14019.81
485.35	14106.41
485.53	13769.37
485.71	14427.06
485.89	14602.60
486.07	14347.48
486.25	14642.39
486.43	14417.70
486.61	14307.69
486.78	14892.83
486.96	14820.27
487.14	14951.34
487.32	15075.39
487.50	15499.03
487.68	15480.30
487.85	15587.97
488.03	15709.68
488.21	15836.06
488.39	15789.25
488.57	16243.32
488.75	16231.62
488.92	16217.57
489.10	16493.76
489.28	16442.26
489.46	16655.25
489.64	16531.20
489.81	17188.89
489.99	17001.65
490.17	17069.53
490.35	17034.42
490.53	17514.23
490.70	17701.47
490.88	17462.74
491.06	17813.82
491.24	17642.96
491.41	17921.48
491.59	18040.85
491.77	18171.92
491.95	18354.48
492.13	18478.53
492.30	18420.02
492.48	18511.30
492.66	18651.73
492.84	18834.29
493.01	18841.31
493.19	18787.48
493.37	19274.31
493.54	19201.76
493.72	19199.41
493.90	19339.85
494.08	19524.75
494.25	19674.54
494.43	19744.76
494.61	19939.02
494.79	19929.66
494.96	19723.69
495.14	20025.62
495.32	20245.63
495.49	20264.36
495.67	20549.90
495.85	20596.71
496.02	20615.44
496.20	21001.63
496.38	20844.81
496.55	20952.48
496.73	21568.04
496.91	21350.37
497.09	21624.21
497.26	21743.58
497.44	21525.91
497.62	21305.90
497.79	21727.19
497.97	21675.70
498.14	21970.61
498.32	22408.29
498.50	21979.97
498.67	22438.72
498.85	22412.97
499.03	22719.58
499.20	22551.06
499.38	22761.71
499.56	22785.12
499.73	22539.36
499.91	23040.23
500.08	23246.20
500.26	23129.17
500.44	23157.26
500.61	23119.81
500.79	23248.54
500.97	23520.04
501.14	23948.36
501.32	23960.06
501.49	23761.12
501.67	23847.72
501.84	23915.59
502.02	23931.98
502.20	24240.93
502.37	23894.53
502.55	23831.33
502.72	24439.87
502.90	24423.49
503.07	24308.80
503.25	24011.56
503.43	24376.68
503.60	24638.82
503.78	24643.50
503.95	24643.50
504.13	25013.31
504.30	24875.21
504.48	24666.91
504.65	25137.35
504.83	25383.11
505.01	25387.79
505.18	25336.30
505.36	25446.30
505.53	25216.93
505.71	25575.03
505.88	25472.05
506.06	25792.70
506.23	25935.48
506.41	25589.08
506.58	26426.99
506.76	25979.95
506.93	26206.98
507.11	26181.23
507.28	26452.73
507.46	26232.72
507.63	26607.21
507.81	26623.59
507.98	26235.06
508.16	26754.66
508.33	26862.33
508.50	26724.24
508.68	26834.24
508.85	26806.16
509.03	26986.38
509.20	27094.04
509.38	27215.75
509.55	27388.95
509.73	27480.23
509.90	27534.06
510.08	27372.57
510.25	27608.96
510.42	27714.28
510.60	27751.73
510.77	27796.20
510.95	28034.94
511.12	28257.29
511.30	28065.36
511.47	28467.94
511.64	27819.61
511.82	28386.02
511.99	28362.61
512.17	28732.42
512.34	28336.87
512.51	28844.76
512.69	28992.22
512.86	28765.18
513.04	29024.98
513.21	29109.24
513.38	29034.35
513.56	29443.94
513.73	29331.59
513.90	29244.99
514.08	29518.84
514.25	29958.86
514.43	29837.15
514.60	29493.09
514.77	29617.14
514.95	29886.30
515.12	29900.34
515.29	29869.92
515.47	30288.87
515.64	30267.81
515.81	29986.94
515.99	30412.92
516.16	30129.72
516.33	30307.60
516.51	30696.13
516.68	30375.47
516.85	30312.28
517.03	30719.53
517.20	30548.67
517.37	30801.45
517.54	30745.28
517.72	30593.14
517.89	30761.66
518.06	31044.87
518.24	31023.80
518.41	31501.27
518.58	31138.49
518.75	31023.80
518.93	31047.21
519.10	31548.08
519.27	31398.29
519.45	31274.24
519.62	31037.84
519.79	31529.36
519.96	31503.61
520.14	31871.07
520.31	31681.49
520.48	31957.67
520.65	32016.19
520.83	32226.84
521.00	32065.34
521.17	32196.41
521.34	32306.41
521.52	32278.33
521.69	32437.48
521.86	32725.37
522.03	32505.36
522.20	32584.94
522.38	32641.11
522.55	32971.13
522.72	32568.55
522.89	32753.46
523.07	32907.93
523.24	32818.99
523.41	33259.01
523.58	32905.59
523.75	33165.39
523.92	32762.82
524.10	33390.08
524.27	33596.05
524.44	33170.07
524.61	33467.32
524.78	33481.36
524.96	33266.03
525.13	33703.71
525.30	33802.02
525.47	34232.68
525.64	34117.99
525.81	34064.16
525.98	34136.71
526.16	33954.15
526.33	33914.36
526.50	34155.44
526.67	33888.62
526.84	34401.19
527.01	34300.55
527.18	34342.68
527.36	34473.75
527.53	34529.92
527.70	35065.91
527.87	35171.23
528.04	34646.95
528.21	34778.02
528.38	34918.45
528.55	34925.47
528.72	35290.60
528.89	34806.11
529.07	34829.51
529.24	34803.77
529.41	35557.42
529.58	34719.51
529.75	34838.87
529.92	35424.01
530.09	35531.67
530.26	35323.36
530.43	35512.95
530.60	35126.76
530.77	35573.80
530.94	35274.21
531.11	35608.91
531.28	35676.79
531.46	35901.48
531.63	35849.99
531.80	35637.00
531.97	36009.14
532.14	36065.31
532.31	35978.72
532.48	36465.55
532.65	36133.19
532.82	36280.64
532.99	36463.21
533.16	36229.15
533.33	36163.62
533.50	36503.00
533.67	36430.44
533.84	36369.58
534.01	36678.54
534.18	36350.86
534.35	36896.20
534.52	36526.40
534.69	36872.80
534.86	36802.58
535.03	36776.84
535.20	36886.84
535.37	37125.58
535.54	37038.98
535.71	36858.76
535.88	37006.21
536.05	37280.05
536.22	36896.20
536.38	36905.57
536.55	36613.00
536.72	37170.05
536.89	37134.94
537.06	37486.02
537.23	37593.68
537.40	37130.26
537.57	37612.41
537.74	37471.98
537.91	37930.72
538.08	37752.84
538.25	37497.72
538.42	37584.32
538.59	37717.73
538.75	37708.37
538.92	38075.84
539.09	38059.45
539.26	38029.02
539.43	37797.31
539.60	37968.17
539.77	37731.78
539.94	38684.37
540.11	38391.81
540.28	38499.47
540.44	38302.87
540.61	38382.45
540.78	38234.99
540.95	38038.39
541.12	38345.00
541.29	38164.78
541.46	38335.63
541.62	38513.52
541.79	38543.94
541.96	38284.14
542.13	38436.28
542.30	38621.18
542.47	38621.18
542.63	38841.19
542.80	38572.03
542.97	39739.96
543.14	39779.74
543.31	39218.02
543.48	38913.75
543.64	39552.71
543.81	39512.92
543.98	39552.71
544.15	39438.03
544.32	39866.34
544.48	39908.47
544.65	39555.05
544.82	39587.82
544.99	39463.77
545.16	39938.90
545.32	39606.55
545.49	40264.24
545.66	39754.00
545.83	39868.69
546.00	40048.91
546.16	40107.42
546.33	39840.60
546.50	39768.04
546.67	40278.28
546.83	39917.84
547.00	39959.97
547.17	39690.80
547.34	39990.39
547.50	40172.96
547.67	40945.33
547.84	40175.30
548.00	40226.79
548.17	40657.45
548.34	40517.01
548.51	40699.58
548.67	41228.54
548.84	40205.72
549.01	40495.95
549.18	40458.50
549.34	40865.75
549.51	40893.84
549.68	40837.67
549.84	40889.16
550.01	40751.07
550.18	40699.58
550.34	40727.66
550.51	41097.47
550.68	41024.91
550.84	40711.28
551.01	41366.63
551.18	40851.71
551.34	41067.04
551.51	41071.72
551.68	41432.16
551.84	41364.29
552.01	41081.08
552.18	41277.69
552.34	41715.37
552.51	41771.54
552.68	41116.19
552.84	41378.33
553.01	41584.30
553.18	41226.20
553.34	41626.43
553.51	41034.27
553.67	41525.78
553.84	41827.71
554.01	41621.75
554.17	41354.93
554.34	42085.17
554.51	41907.29
554.67	42050.06
554.84	42110.92
555.00	41378.33
555.17	42054.75
555.33	42204.54
555.50	41722.39
555.67	41926.02
555.83	41535.15
556.00	42052.41
556.16	42370.72
556.33	42351.99
556.50	42422.21
556.66	42342.63
556.83	42012.62
556.99	42693.71
557.16	42534.56
557.32	42181.13
557.49	42323.91
557.65	41902.61
557.82	42124.96
557.98	42422.21
558.15	42616.47
558.32	42068.79
558.48	42518.17
558.65	42806.06
558.81	42534.56
558.98	42618.81
559.14	42534.56
559.31	42359.02
559.47	42564.98
559.64	42815.42
559.80	42398.80
559.97	42871.59
560.13	42682.01
560.30	42511.15
560.46	43117.35
560.63	43262.46
560.79	42930.11
560.96	42831.80
561.12	42878.61
561.29	43320.98
561.45	43257.78
561.61	43030.75
561.78	43077.56
561.94	42953.51
562.11	42642.22
562.27	43274.16
562.44	42843.51
562.60	43243.74
562.77	43274.16
562.93	43304.59
563.10	43562.05
563.26	42731.16
563.42	43669.72
563.59	43320.98
563.75	43100.97
563.92	43232.04
564.08	43225.01
564.24	43274.16
564.41	43276.51
564.57	42682.01
564.74	43578.43
564.90	42969.90
565.07	43232.04
565.23	43182.88
565.39	43791.42
565.56	43510.56
565.72	43484.81
565.88	43421.62
566.05	43697.80
566.21	43543.33
566.38	43461.41
566.54	43824.19
566.70	43737.59
566.87	43725.89
567.03	43622.90
567.19	43700.14
567.36	43887.39
567.52	43533.96
567.68	43447.36
567.85	43784.40
568.01	44191.65
568.17	43344.38
568.34	43859.30
568.50	43842.92
568.66	43517.58
568.83	43875.68
568.99	43976.33
569.15	43878.02
569.32	43442.68
569.48	43552.69
569.64	44325.07
569.81	43578.43
569.97	43821.85
570.13	44083.99
570.30	43739.93
570.46	43707.16
570.62	44009.09
570.78	43948.24
570.95	43887.39
571.11	44442.09
571.27	43924.83
571.43	43983.35
571.60	43526.94
571.76	44086.33
571.92	44236.12
572.09	44046.54
572.25	44168.25
572.41	43461.41
572.57	44205.70
572.74	44233.78
572.90	43791.42
573.06	44037.18
573.22	44224.42
573.38	44236.12
573.55	43999.73
573.71	44479.54
573.87	44397.62
574.03	44287.62
574.20	44486.56
574.36	44313.36
574.52	44053.56
574.68	43950.58
574.84	44311.02
575.01	44273.57
575.17	44559.12
575.33	44495.92
575.49	44091.01
575.65	44690.19
575.82	44247.83
575.98	44060.58
576.14	44598.91
576.30	44568.48
576.46	44512.31
576.62	44430.39
576.79	44437.41
576.95	44224.42
577.11	44430.39
577.27	44275.91
577.43	44889.13
577.59	44507.63
577.75	44395.28
577.92	43999.73
578.08	44605.93
578.24	44133.14
578.40	44514.65
578.56	44371.88
578.72	44552.10
578.88	44601.25
579.04	44423.37
579.21	44278.25
579.37	44430.39
579.53	44287.62
579.69	44451.45
579.85	44446.77
580.01	44732.32
580.17	44575.50
580.33	44542.74
580.49	44390.60
580.65	44655.08
580.82	44278.25
580.98	44168.25
581.14	44435.07
581.30	44893.82
581.46	44245.49
581.62	44451.45
581.78	44308.68
581.94	45141.91
582.10	44348.47
582.26	44648.06
582.42	44591.89
582.58	44210.38
582.74	44884.45
582.90	44388.26
583.06	44587.21
583.22	44194.00
583.38	44355.49
583.54	44594.23
583.70	44552.10
583.86	44477.20
584.02	44229.10
584.18	44273.57
584.34	44809.56
584.50	45167.66
584.66	45193.40
584.82	44959.35
584.98	44821.26
585.14	44601.25
585.30	44322.72
585.46	44959.35
585.62	44935.95
585.78	44788.49
585.94	44184.63
586.10	44849.35
586.26	44694.87
586.42	44376.56
586.58	44435.07
586.74	44727.64
586.90	44362.51
587.06	44720.62
587.22	44788.49
587.38	44311.02
587.54	44748.70
587.70	45118.51
587.86	44966.37
588.02	44783.81
588.18	44589.55
588.34	44493.58
588.49	44636.36
588.65	44573.16
588.81	44889.13
588.97	44678.49
589.13	44612.95
589.29	44772.11
589.45	44856.37
589.61	44673.81
589.77	44973.39
589.93	44795.51
590.08	44612.95
590.24	45024.89
