SpectraSuite Data File
++++++++++++++++++++++++++++++++++++
Date: Fri Oct 25 11:22:40 EDT 2013
User: price-jones
Dark Spectrum Present: No
Reference Spectrum Present: No
Number of Sampled Component Spectra: 1
Spectrometers: USB2+H05261
Integration Time (usec): 100000 (USB2+H05261)
Spectra Averaged: 1 (USB2+H05261)
Boxcar Smoothing: 0 (USB2+H05261)
Correct for Electrical Dark: No (USB2+H05261)
Strobe/Lamp Enabled: No (USB2+H05261)
Correct for Detector Non-linearity: No (USB2+H05261)
Correct for Stray Light: No (USB2+H05261)
Number of Pixels in Processed Spectrum: 2048
>>>>>Begin Processed Spectral Data<<<<<
365.73	212.99
365.92	212.99
366.12	212.99
366.32	184.90
366.52	128.73
366.72	191.92
366.91	152.13
367.11	91.28
367.31	110.01
367.51	93.62
367.70	81.92
367.90	175.54
368.10	117.03
368.30	145.11
368.49	114.69
368.69	180.22
368.89	180.22
369.09	180.22
369.28	124.05
369.48	138.09
369.68	114.69
369.87	112.35
370.07	194.26
370.27	163.84
370.47	348.74
370.66	547.69
370.86	657.69
371.06	624.92
371.25	690.46
371.45	685.78
371.65	702.16
371.84	645.99
372.04	690.46
372.24	744.29
372.44	664.71
372.63	716.20
372.83	720.88
373.03	678.76
373.22	706.84
373.42	835.57
373.62	709.18
373.81	732.59
374.01	744.29
374.21	788.76
374.40	819.19
374.60	777.06
374.79	798.12
374.99	798.12
375.19	851.96
375.38	870.68
375.58	748.97
375.78	910.47
375.97	856.64
376.17	924.51
376.37	807.48
376.56	847.27
376.76	887.06
376.95	868.34
377.15	882.38
377.35	866.00
377.54	891.74
377.74	894.08
377.93	929.19
378.13	954.94
378.33	1057.92
378.52	915.15
378.72	917.49
378.91	983.02
379.11	919.83
379.31	1013.45
379.50	961.96
379.70	1015.79
379.89	971.32
380.09	877.70
380.28	894.08
380.48	1013.45
380.68	1025.15
380.87	1029.84
381.07	1076.65
381.26	1076.65
381.46	1071.97
381.65	1036.86
381.85	992.39
382.04	1078.99
382.24	1090.69
382.43	1116.44
382.63	1036.86
382.83	1095.37
383.02	1174.95
383.22	1149.20
383.41	1036.86
383.61	1053.24
383.80	1151.54
384.00	1116.44
384.19	1125.80
384.39	1149.20
384.58	1144.52
384.78	1104.73
384.97	1170.27
385.17	1139.84
385.36	1186.65
385.56	1207.72
385.75	1210.06
385.95	1086.01
386.14	1149.20
386.34	1256.87
386.53	1111.75
386.72	1219.42
386.92	1277.93
387.11	1301.34
387.31	1320.06
387.50	1315.38
387.70	1179.63
387.89	1181.97
388.09	1284.95
388.28	1242.82
388.48	1303.68
388.67	1373.89
388.86	1296.66
389.06	1387.94
389.25	1364.53
389.45	1245.16
389.64	1355.17
389.84	1453.47
390.03	1334.11
390.22	1362.19
390.42	1359.85
390.61	1380.92
390.81	1453.47
391.00	1416.02
391.19	1357.51
391.39	1383.26
391.58	1453.47
391.78	1404.32
391.97	1423.05
392.16	1481.56
392.36	1561.14
392.55	1511.99
392.75	1516.67
392.94	1500.28
393.13	1507.30
393.33	1591.56
393.52	1600.93
393.71	1624.33
393.91	1645.40
394.10	1572.84
394.29	1516.67
394.49	1535.39
394.68	1631.35
394.88	1661.78
395.07	1561.14
395.26	1610.29
395.46	1734.34
395.65	1739.02
395.84	1755.40
396.04	1760.08
396.23	1671.14
396.42	1816.26
396.62	1717.95
396.81	1806.89
397.00	1823.28
397.19	1762.42
397.39	1771.79
397.58	1858.39
397.77	1853.70
397.97	1898.17
398.16	1830.30
398.35	1858.39
398.55	1874.77
398.74	1916.90
398.93	1959.03
399.12	1968.39
399.32	1884.13
399.51	1886.47
399.70	1996.48
399.90	1898.17
400.09	2029.24
400.28	2090.10
400.47	2036.27
400.67	2054.99
400.86	2083.08
401.05	2104.14
401.24	2160.31
401.44	2165.00
401.63	2204.78
401.82	2080.74
402.01	2083.08
402.21	2197.76
402.40	2244.57
402.59	2195.42
402.78	2204.78
402.97	2239.89
403.17	2260.96
403.36	2335.85
403.55	2394.37
403.74	2420.11
403.93	2370.96
404.13	2251.60
404.32	2361.60
404.51	2335.85
404.70	2422.45
404.89	2349.90
405.09	2415.43
405.28	2375.64
405.47	2375.64
405.66	2553.52
405.85	2420.11
406.05	2509.05
406.24	2642.46
406.43	2595.65
406.62	2532.46
406.81	2609.70
407.00	2644.81
407.20	2616.72
407.39	2525.44
407.58	2761.83
407.77	2724.38
407.96	2747.79
408.15	2750.13
408.34	2745.45
408.54	2757.15
408.73	2803.96
408.92	2813.32
409.11	2857.79
409.30	2902.26
409.49	2972.48
409.68	2869.50
409.87	3009.93
410.07	2972.48
410.26	3007.59
410.45	3105.89
410.64	2904.60
410.83	3138.66
411.02	3122.27
411.21	3169.09
411.40	3227.60
411.59	3274.41
411.78	3265.05
411.98	3288.45
412.17	3208.87
412.36	3246.32
412.55	3375.05
412.74	3473.36
412.93	3562.30
413.12	3445.27
413.31	3508.46
413.50	3485.06
413.69	3520.17
413.88	3529.53
414.07	3555.27
414.26	3744.86
414.45	3681.66
414.64	3651.24
414.83	3796.35
415.02	3880.61
415.22	3822.09
415.41	3854.86
415.60	3929.76
415.79	3845.50
415.98	4138.07
416.17	4030.40
416.36	3967.21
416.55	4145.09
416.74	4128.70
416.93	4196.58
417.12	4025.72
417.31	4236.37
417.50	4124.02
417.69	4341.69
417.88	4290.20
418.07	4243.39
418.26	4348.72
418.45	4325.31
418.64	4568.73
418.83	4561.70
419.02	4360.42
419.21	4578.09
419.39	4627.24
419.58	4514.89
419.77	4362.76
419.96	4683.41
420.15	4620.22
420.34	4500.85
420.53	4601.49
420.72	4809.80
420.91	4711.50
421.10	4643.62
421.29	4713.84
421.48	4580.43
421.67	4828.53
421.86	4770.01
422.05	4954.91
422.24	4854.27
422.43	4917.47
422.61	4809.80
422.80	5181.95
422.99	4978.32
423.18	4968.96
423.37	5034.49
423.56	4945.55
423.75	4994.70
423.94	4854.27
424.13	4723.20
424.32	4851.93
424.50	5097.69
424.69	5172.58
424.88	5135.14
425.07	4915.12
425.26	5015.77
425.45	5022.79
425.64	4999.38
425.83	5102.37
426.01	5001.72
426.20	5287.27
426.39	5015.77
426.58	5071.94
426.77	5097.69
426.96	5107.05
427.15	5102.37
427.33	5322.38
427.52	5102.37
427.71	5263.86
427.90	5184.29
428.09	5469.83
428.28	5486.22
428.46	5465.15
428.65	5341.10
428.84	5605.58
429.03	5638.35
429.22	5521.32
429.40	5507.28
429.59	5397.28
429.78	5380.89
429.97	5235.78
430.16	5493.24
430.34	5458.13
430.53	5853.68
430.72	5771.76
430.91	5701.54
431.10	5710.91
431.28	5886.45
431.47	5870.06
431.66	5820.91
431.85	5888.79
432.03	6057.31
432.22	6134.54
432.41	5851.34
432.60	5963.68
432.79	5846.66
432.97	6043.26
433.16	6108.80
433.35	5954.32
433.54	6015.18
433.72	6157.95
433.91	6099.44
434.10	6120.50
434.28	6169.65
434.47	6153.27
434.66	6394.34
434.85	6579.25
435.03	6499.67
435.22	6342.85
435.41	6427.11
435.59	6492.65
435.78	6392.00
435.97	6537.12
436.16	6626.06
436.34	6399.02
436.53	6604.99
436.72	6745.42
436.90	6473.92
437.09	6497.33
437.28	6553.50
437.46	6733.72
437.65	6768.83
437.84	6785.21
438.02	6724.36
438.21	6754.79
438.40	6715.00
438.58	6979.48
438.77	7321.20
438.96	6967.77
439.14	7087.14
439.33	7117.57
439.52	7150.34
439.70	7375.03
439.89	7417.16
440.08	7318.86
440.26	7461.63
440.45	7368.01
440.63	7438.22
440.82	7609.08
441.01	7466.31
441.19	7714.41
441.38	7789.30
441.57	7808.03
441.75	7936.76
441.94	7990.59
442.12	7962.50
442.31	8079.53
442.50	8182.51
442.68	7948.46
442.87	8091.23
443.05	8060.80
443.24	8308.90
443.43	8051.44
443.61	8276.13
443.80	8519.55
443.98	7974.21
444.17	7852.50
444.35	8325.29
444.54	8386.14
444.73	8315.92
444.91	8458.70
445.10	8547.64
445.28	8238.69
445.47	8231.66
445.65	8458.70
445.84	8671.68
446.02	8538.27
446.21	8442.31
446.39	8353.37
446.58	8540.61
446.77	8678.71
446.95	8292.52
447.14	8484.44
447.32	8641.26
447.51	8638.92
447.69	8475.08
447.88	8596.79
448.06	8545.30
448.25	8496.14
448.43	8713.81
448.62	8585.08
448.80	8580.40
448.99	8826.16
449.17	8739.56
449.36	8704.45
449.54	8725.52
449.73	8968.93
449.91	9151.49
450.10	9092.98
450.28	9259.16
450.46	9011.06
450.65	9207.67
450.83	9132.77
451.02	8973.61
451.20	9530.66
451.39	9022.77
451.57	9097.66
451.76	9062.55
451.94	9404.27
452.13	9364.48
452.31	9296.61
452.49	9296.61
452.68	9565.77
452.86	9771.74
453.05	9533.00
453.23	9383.21
453.42	9415.98
453.60	9474.49
453.78	9715.56
453.97	9469.81
454.15	9624.28
454.34	9476.83
454.52	9748.33
454.70	9671.09
454.89	9619.60
455.07	9886.42
455.26	9792.80
455.44	9984.73
455.62	10150.90
455.81	10132.18
455.99	10286.65
456.17	10125.16
456.36	10258.57
456.54	10270.27
456.73	10251.55
456.91	10534.75
457.09	10548.79
457.28	10693.91
457.46	10422.41
457.64	10761.78
457.83	10478.58
458.01	10396.66
458.19	10712.63
458.38	10717.31
458.56	10920.94
458.74	10745.40
458.93	10677.52
459.11	10843.70
459.29	10930.30
459.48	10707.95
459.66	10832.00
459.84	10874.13
460.03	11070.73
460.21	10892.85
460.39	10951.37
460.57	10977.11
460.76	11084.78
460.94	11260.32
461.12	11328.19
461.31	11293.08
461.49	11265.00
461.67	11133.93
461.85	11595.01
462.04	11314.15
462.22	11871.20
462.40	11662.89
462.59	11527.14
462.77	11719.06
462.95	11817.36
463.13	11555.22
463.32	11796.30
463.50	11892.26
463.68	11854.81
463.86	11812.68
464.05	11857.15
464.23	11648.85
464.41	12203.55
464.59	11733.11
464.78	12212.92
464.96	12016.31
465.14	11955.46
465.32	12203.55
465.50	12105.25
465.69	12355.69
465.87	12369.73
466.05	12343.99
466.23	12229.30
466.41	12341.64
466.60	12622.51
466.78	12290.15
466.96	12400.16
467.14	12360.37
467.32	12388.46
467.51	12835.50
467.69	12489.10
467.87	12636.55
468.05	12980.61
468.23	12549.95
468.41	12833.16
468.60	12599.10
468.78	13099.98
468.96	12617.83
469.14	13238.07
469.32	13102.32
469.50	12650.60
469.69	13186.58
469.87	12903.37
470.05	13039.12
470.23	13085.94
470.41	13357.44
470.59	13221.69
470.77	13085.94
470.95	13411.27
471.14	13699.16
471.32	13156.15
471.50	13694.47
471.68	13626.60
471.86	13687.45
472.04	13879.38
472.22	14232.80
472.40	14071.30
472.58	13760.01
472.77	14178.97
472.95	14387.27
473.13	14930.28
473.31	14380.25
473.49	14328.76
473.67	14228.12
473.85	14611.96
474.03	14710.27
474.21	14679.84
474.39	14775.80
474.57	14775.80
474.75	14541.75
474.93	15225.18
475.12	14857.72
475.30	15161.99
475.48	15358.60
475.66	15222.84
475.84	15349.23
476.02	15709.68
476.20	15580.95
476.38	15889.90
476.56	16238.64
476.74	16121.61
476.92	16145.02
477.10	15765.85
477.28	16374.39
477.46	16376.73
477.64	16428.22
477.82	16800.37
478.00	17326.99
478.18	16870.58
478.36	17043.78
478.54	17242.73
478.72	17207.62
478.90	17561.04
479.08	17717.86
479.26	17631.26
479.44	18195.32
479.62	17965.95
479.80	18022.12
479.98	18424.70
480.16	18546.40
480.34	18349.80
480.52	18380.23
480.70	18665.77
480.88	18794.50
481.06	18927.91
481.24	19204.10
481.41	19201.76
481.59	19426.45
481.77	19840.72
481.95	19782.21
482.13	19777.53
482.31	19953.07
482.49	20262.02
482.67	20528.84
482.85	20533.52
483.03	20737.15
483.21	20702.04
483.39	20980.56
483.57	20973.54
483.74	21202.91
483.92	21392.50
484.10	21160.78
484.28	21926.14
484.46	21991.67
484.64	22799.16
484.82	22438.72
485.00	22544.04
485.18	22874.06
485.35	23218.11
485.53	23164.28
485.71	23285.99
485.89	23819.63
486.07	23470.89
486.25	23674.52
486.43	23821.97
486.61	23927.30
486.78	24226.89
486.96	24353.27
487.14	24856.49
487.32	24610.73
487.50	25116.29
487.68	25156.08
487.85	25390.13
488.03	25474.39
488.21	26244.43
488.39	26075.91
488.57	26335.71
488.75	26565.08
488.92	26759.34
489.10	26607.21
489.28	27278.94
489.46	27101.06
489.64	27117.45
489.81	27871.10
489.99	27901.53
490.17	27946.00
490.35	28680.92
490.53	28343.89
490.70	28795.61
490.88	28517.09
491.06	29259.04
491.24	29359.68
491.41	29507.13
491.59	29472.03
491.77	29446.28
491.95	29993.97
492.13	29991.62
492.30	30384.83
492.48	30036.09
492.66	30078.22
492.84	30206.95
493.01	30951.24
493.19	30843.58
493.37	30944.22
493.54	31442.76
493.72	31637.02
493.90	31419.35
494.08	31990.44
494.25	32348.54
494.43	32507.70
494.61	32507.70
494.79	32765.16
494.96	33170.07
495.14	32931.34
495.32	33589.03
495.49	33514.13
495.67	33563.28
495.85	33731.80
496.02	33762.23
496.20	34012.66
496.38	34127.35
496.55	34328.64
496.73	34972.28
496.91	35157.19
497.09	35047.18
497.26	35117.40
497.44	35473.16
497.62	35534.01
497.79	35990.42
497.97	35735.30
498.14	36477.25
498.32	36425.76
498.50	36102.76
498.67	36744.07
498.85	36435.12
499.03	36697.26
499.20	37057.70
499.38	36814.29
499.56	37139.62
499.73	37397.08
499.91	37773.91
500.08	37860.51
500.26	37383.04
500.44	37935.40
500.61	38164.78
500.79	37937.74
500.97	38054.77
501.14	38621.18
501.32	38490.11
501.49	39187.59
501.67	39143.12
501.84	39353.77
502.02	39192.27
502.20	39264.83
502.37	39367.81
502.55	39590.16
502.72	40142.53
502.90	40018.48
503.07	40158.91
503.25	39828.90
503.43	40123.80
503.60	40105.08
503.78	40720.64
503.95	40896.18
504.13	40907.88
504.30	40954.69
504.48	40985.12
504.65	40921.93
504.83	41596.00
505.01	41727.07
505.18	41471.95
505.36	41729.41
505.53	41720.05
505.71	41713.03
505.88	42391.78
506.06	42021.98
506.23	42436.25
506.41	41902.61
506.58	42911.38
506.76	42583.71
506.93	42911.38
507.11	42990.96
507.28	42958.19
507.46	43342.04
507.63	43505.88
507.81	43545.67
507.98	43391.19
508.16	43758.66
508.33	43725.89
508.50	43983.35
508.68	43988.03
508.85	44013.77
509.03	44215.06
509.20	44514.65
509.38	44629.34
509.55	45102.12
509.73	44666.78
509.90	44652.74
510.08	45045.95
510.25	45024.89
510.42	45474.27
510.60	45380.65
510.77	45504.70
510.95	46064.08
511.12	45406.39
511.30	45280.00
511.47	45778.54
511.64	45720.02
511.82	46094.51
511.99	46131.96
512.17	46396.44
512.34	46050.04
512.51	46932.42
512.69	46698.37
512.86	46476.02
513.04	46705.39
513.21	47009.66
513.38	47316.27
513.56	47573.73
513.73	47281.16
513.90	47547.98
514.08	47236.69
514.25	47594.79
514.43	48055.88
514.60	47913.11
514.77	47683.73
514.95	48144.82
515.12	48107.37
515.29	48044.18
515.47	47990.34
515.64	48451.43
515.81	48390.58
515.99	48744.00
516.16	48884.43
516.33	48804.85
516.51	48926.56
516.68	48538.03
516.85	48404.62
517.03	49249.55
517.20	49148.91
517.37	49027.20
517.54	49251.89
517.72	49270.62
517.89	49207.42
518.06	49617.02
518.24	49567.87
518.41	49656.81
518.58	49570.21
518.75	49378.28
518.93	49956.39
519.10	49659.15
519.27	50183.43
519.45	49968.10
519.62	50326.20
519.79	50204.49
519.96	50555.57
520.14	50326.20
520.31	50609.40
520.48	50541.53
520.65	50932.40
520.83	51016.66
521.00	51358.38
521.17	50670.26
521.34	50918.35
521.52	50958.14
521.69	51257.73
521.86	51440.29
522.03	51580.73
522.20	51552.64
522.38	51718.82
522.55	51999.68
522.72	51650.94
522.89	51854.57
523.07	51992.66
523.24	51995.00
523.41	52018.41
523.58	51648.60
523.75	52133.09
523.92	52205.65
524.10	52449.06
524.27	52364.81
524.44	52474.81
524.61	52170.54
524.78	52268.84
524.96	52439.70
525.13	52594.18
525.30	52767.38
525.47	52896.11
525.64	52933.56
525.81	52636.31
525.98	52729.93
526.16	52828.23
526.33	52907.81
526.50	53286.98
526.67	52896.11
526.84	53460.18
527.01	53113.78
527.18	52896.11
527.36	53237.83
527.53	53024.84
527.70	53673.16
527.87	53710.61
528.04	53521.03
528.21	53670.82
528.38	53612.31
528.55	53827.64
528.72	53539.75
528.89	53670.82
529.07	53558.48
529.24	53549.12
529.41	54068.72
529.58	53806.58
529.75	53979.78
529.92	54028.93
530.09	54054.67
530.26	54380.01
530.43	54255.96
530.60	53916.58
530.77	54333.20
530.94	54490.01
531.11	54368.30
531.28	54312.13
531.46	54365.96
531.63	54499.37
531.80	54614.06
531.97	54684.28
532.14	54852.80
532.31	54721.72
532.48	54649.17
532.65	54850.45
532.82	54791.94
532.99	54794.28
533.16	54864.50
533.33	55288.13
533.50	55107.91
533.67	55056.42
533.84	54738.11
534.01	55166.43
534.18	55550.27
534.35	55566.66
534.52	55491.76
534.69	55550.27
534.86	55753.90
535.03	55407.50
535.20	55461.33
535.37	55510.49
535.54	55554.96
535.71	55632.19
535.88	55739.86
536.05	55704.75
536.22	55742.20
536.38	55798.37
536.55	55971.57
536.72	55870.93
536.89	55714.11
537.06	55852.20
537.23	55842.84
537.40	55704.75
537.57	55908.38
537.74	55971.57
537.91	55997.32
538.08	56121.37
538.25	55875.61
538.42	55943.48
538.59	56369.46
538.75	56247.75
538.92	56214.99
539.09	56530.96
539.26	56161.15
539.43	56388.19
539.60	56383.51
539.77	56294.56
539.94	56830.55
540.11	56690.12
540.28	56530.96
540.44	56657.35
540.61	56676.07
540.78	56748.63
540.95	56591.81
541.12	56655.01
541.29	56996.73
541.46	56811.82
541.62	56779.06
541.79	56643.30
541.96	56451.38
542.13	56748.63
542.30	56821.19
542.47	57200.35
542.63	57258.87
542.80	57340.78
542.97	57249.50
543.14	57436.75
543.31	57359.51
543.48	57263.55
543.64	57635.69
543.81	57633.35
543.98	57565.48
544.15	57588.88
544.32	57642.71
544.48	57696.55
544.65	57602.92
544.82	57633.35
544.99	57418.02
545.16	57780.81
545.32	57694.21
545.49	57696.55
545.66	57979.75
545.83	57848.68
546.00	57743.36
546.16	57874.43
546.33	57762.08
546.50	57719.95
546.67	57748.04
546.83	57696.55
547.00	57818.25
547.17	57930.60
547.34	58178.70
547.50	58291.04
547.67	58597.65
547.84	58199.76
548.00	58295.72
548.17	58468.92
548.34	58375.30
548.51	58623.40
548.67	58384.66
548.84	58028.90
549.01	58274.66
549.18	58417.43
549.34	58529.78
549.51	58595.31
549.68	58658.51
549.84	58501.69
550.01	58553.18
550.18	58574.25
550.34	58660.85
550.51	58585.95
550.68	58541.48
550.84	58440.84
551.01	58768.51
551.18	58674.89
551.34	58656.17
551.51	58717.02
551.68	58632.76
551.84	58499.35
552.01	58728.72
552.18	58773.19
552.34	58876.18
552.51	58756.81
552.68	58913.62
552.84	58965.12
553.01	59040.01
553.18	58990.86
553.34	59290.45
553.51	58897.24
553.67	59187.47
553.84	59173.42
554.01	59042.35
554.17	59131.29
554.34	59138.32
554.51	59316.20
554.67	59260.02
554.84	59386.41
555.00	59201.51
555.17	59063.42
555.33	59271.73
555.50	58988.52
555.67	59309.18
555.83	59213.21
556.00	59297.47
556.16	59643.87
556.33	59686.00
556.50	59419.18
556.66	59655.57
556.83	59428.54
556.99	59606.42
557.16	59632.17
557.32	59763.24
557.49	59877.93
557.65	59564.29
557.82	59515.14
557.98	59576.00
558.15	59601.74
558.32	59810.05
558.48	59676.64
558.65	59704.73
558.81	59711.75
558.98	59854.52
559.14	59739.83
559.31	60090.91
559.47	59891.97
559.64	59781.96
559.80	59810.05
559.97	59861.54
560.13	59709.41
560.30	59929.42
560.46	60011.34
560.63	59819.41
560.79	60030.06
560.96	59948.14
561.12	60285.18
561.29	60079.21
561.45	59983.25
561.61	59938.78
561.78	60006.65
561.94	60055.81
562.11	60102.62
562.27	60168.15
562.44	59985.59
562.60	60257.09
562.77	60074.53
562.93	60013.68
563.10	60479.44
563.26	60168.15
563.42	60449.02
563.59	60329.65
563.75	60067.51
563.92	60210.28
564.08	60240.71
564.24	60420.93
564.41	60315.61
564.57	60186.88
564.74	60402.21
564.90	60601.15
565.07	60493.49
565.23	60451.36
565.39	60212.62
565.56	60512.21
565.72	60437.31
565.88	60292.20
566.05	60413.91
566.21	60388.16
566.38	60615.19
566.54	60467.74
566.70	60303.90
566.87	60643.28
567.03	60374.12
567.19	60528.59
567.36	60528.59
567.52	60430.29
567.68	60786.05
567.85	60456.04
568.01	60790.73
568.17	60470.08
568.34	60626.90
568.50	60432.63
568.66	60477.10
568.83	60479.44
568.99	60566.04
569.15	60685.41
569.32	60767.33
569.48	60631.58
569.64	60687.75
569.81	60584.77
569.97	60851.59
570.13	60715.84
570.30	60612.85
570.46	60657.32
570.62	60764.99
570.78	60816.48
570.95	60779.03
571.11	60839.89
571.27	60647.96
571.43	60772.01
571.60	60982.66
571.76	60874.99
571.92	60757.97
572.09	60860.95
572.25	60842.23
572.41	60874.99
572.57	60823.50
572.74	60952.23
572.90	60839.89
573.06	60860.95
573.22	60786.05
573.38	60779.03
573.55	60903.08
573.71	61003.72
573.87	60802.44
574.03	60830.52
574.20	61008.40
574.36	60697.11
574.52	60921.80
574.68	60940.53
574.84	60889.04
575.01	60853.93
575.17	60874.99
575.33	60898.40
575.49	60842.23
575.65	61043.51
575.82	60921.80
575.98	61050.53
576.14	61052.87
576.30	61001.38
576.46	61141.81
576.62	60809.46
576.79	61071.60
576.95	60935.85
577.11	60942.87
577.27	60807.12
577.43	60999.04
577.59	60956.91
577.75	60938.19
577.92	60989.68
578.08	60982.66
578.24	61052.87
578.40	61263.52
578.56	61141.81
578.72	60921.80
578.88	61104.37
579.04	61219.05
579.21	61219.05
579.37	61123.09
579.53	61195.65
579.69	60884.36
579.85	61193.31
580.01	60996.70
580.17	60853.93
580.33	61132.45
580.49	61219.05
580.65	61071.60
580.82	60952.23
580.98	61064.58
581.14	60982.66
581.30	61155.86
581.46	61249.48
581.62	60905.42
581.78	61230.75
581.94	61130.11
582.10	61240.12
582.26	61223.73
582.42	61104.37
582.58	61193.31
582.74	61263.52
582.90	61188.63
583.06	61010.74
583.22	60963.93
583.38	61066.92
583.54	61240.12
583.70	61244.80
583.86	61293.95
584.02	61020.11
584.18	61338.42
584.34	61378.21
584.50	61015.43
584.66	60884.36
584.82	60999.04
584.98	61249.48
585.14	61284.59
585.30	61228.41
585.46	61216.71
585.62	61226.07
585.78	61310.33
585.94	61038.83
586.10	61151.18
586.26	61286.93
586.42	61265.86
586.58	61247.14
586.74	61186.28
586.90	61017.77
587.06	61307.99
587.22	61312.67
587.38	61310.33
587.54	61481.19
587.70	61385.23
587.86	61392.25
588.02	61279.91
588.18	61385.23
588.34	61226.07
