SpectraSuite Data File
++++++++++++++++++++++++++++++++++++
Date: Fri Oct 25 10:48:05 EDT 2013
User: price-jones
Dark Spectrum Present: No
Reference Spectrum Present: No
Number of Sampled Component Spectra: 1
Spectrometers: USB2+H05261
Integration Time (usec): 100000 (USB2+H05261)
Spectra Averaged: 1 (USB2+H05261)
Boxcar Smoothing: 0 (USB2+H05261)
Correct for Electrical Dark: No (USB2+H05261)
Strobe/Lamp Enabled: No (USB2+H05261)
Correct for Detector Non-linearity: No (USB2+H05261)
Correct for Stray Light: No (USB2+H05261)
Number of Pixels in Processed Spectrum: 2048
>>>>>Begin Processed Spectral Data<<<<<
365.73	177.88
365.92	177.88
366.12	177.88
366.32	81.92
366.52	84.26
366.72	63.19
366.91	39.79
367.11	70.22
367.31	42.13
367.51	21.06
367.70	32.77
367.90	42.13
368.10	107.66
368.30	84.26
368.49	84.26
368.69	65.54
368.89	187.24
369.09	70.22
369.28	58.51
369.48	112.35
369.68	9.36
369.87	117.03
370.07	149.79
370.27	114.69
370.47	175.54
370.66	367.46
370.86	374.49
371.06	449.38
371.25	531.30
371.45	472.79
371.65	482.15
371.84	437.68
372.04	430.66
372.24	449.38
372.44	475.13
372.63	458.74
372.83	465.77
373.03	512.58
373.22	472.79
373.42	479.81
373.62	507.90
373.81	514.92
374.01	477.47
374.21	512.58
374.40	519.60
374.60	575.77
374.79	510.24
374.99	491.51
375.19	561.73
375.38	643.65
375.58	585.13
375.78	535.98
375.97	524.28
376.17	636.63
376.37	624.92
376.56	648.33
376.76	561.73
376.95	599.18
377.15	620.24
377.35	624.92
377.54	592.16
377.74	627.26
377.93	528.96
378.13	606.20
378.33	657.69
378.52	585.13
378.72	629.60
378.91	713.86
379.11	653.01
379.31	601.52
379.50	594.50
379.70	692.80
379.89	596.84
380.09	748.97
380.28	667.05
380.48	688.12
380.68	603.86
380.87	629.60
381.07	641.31
381.26	716.20
381.46	624.92
381.65	660.03
381.85	751.31
382.04	660.03
382.24	599.18
382.43	685.78
382.63	641.31
382.83	648.33
383.02	767.70
383.22	737.27
383.41	725.57
383.61	751.31
383.80	720.88
384.00	763.01
384.19	786.42
384.39	727.91
384.58	716.20
384.78	772.38
384.97	772.38
385.17	725.57
385.36	692.80
385.56	786.42
385.75	741.95
385.95	809.83
386.14	765.36
386.34	772.38
386.53	823.87
386.72	755.99
386.92	819.19
387.11	772.38
387.31	880.04
387.50	802.80
387.70	784.08
387.89	830.89
388.09	798.12
388.28	709.18
388.48	788.76
388.67	734.93
388.86	777.06
389.06	791.10
389.25	912.81
389.45	795.78
389.64	798.12
389.84	894.08
390.03	861.32
390.22	835.57
390.42	905.79
390.61	847.27
390.81	828.55
391.00	931.53
391.19	959.62
391.39	936.21
391.58	891.74
391.78	1006.43
391.97	952.60
392.16	844.93
392.36	1048.56
392.55	990.05
392.75	971.32
392.94	919.83
393.13	1006.43
393.33	931.53
393.52	997.07
393.71	987.71
393.91	1025.15
394.10	1069.62
394.29	1034.52
394.49	992.39
394.68	1071.97
394.88	1109.41
395.07	1062.60
395.26	1142.18
395.46	1137.50
395.65	1048.56
395.84	1060.26
396.04	1100.05
396.23	1210.06
396.42	1076.65
396.62	1041.54
396.81	1165.59
397.00	1174.95
397.19	1156.22
397.39	1240.48
397.58	1256.87
397.77	1142.18
397.97	1188.99
398.16	1221.76
398.35	1217.08
398.55	1205.38
398.74	1179.63
398.93	1327.08
399.12	1357.51
399.32	1315.38
399.51	1203.04
399.70	1338.79
399.90	1226.44
400.09	1366.87
400.28	1397.30
400.47	1338.79
400.67	1434.75
400.86	1437.09
401.05	1432.41
401.24	1427.73
401.44	1406.66
401.63	1430.07
401.82	1469.86
402.01	1490.92
402.21	1519.01
402.40	1474.54
402.59	1523.69
402.78	1504.96
402.97	1523.69
403.17	1511.99
403.36	1523.69
403.55	1476.88
403.74	1572.84
403.93	1631.35
404.13	1533.05
404.32	1647.74
404.51	1675.82
404.70	1673.48
404.89	1603.27
405.09	1753.06
405.28	1696.89
405.47	1675.82
405.66	1706.25
405.85	1629.01
406.05	1717.95
406.24	1680.50
406.43	1692.21
406.62	1720.29
406.81	1853.70
407.00	1692.21
407.20	1652.42
407.39	1802.21
407.58	1760.08
407.77	1755.40
407.96	1940.30
408.15	1949.67
408.34	1860.73
408.54	1956.69
408.73	1966.05
408.92	1937.96
409.11	1973.07
409.30	2026.90
409.49	1954.35
409.68	1947.33
409.87	2010.52
410.07	1998.82
410.26	1991.80
410.45	2050.31
410.64	2062.01
410.83	2080.74
411.02	2106.48
411.21	2115.84
411.40	2148.61
411.59	2263.30
411.78	2246.91
411.98	2193.08
412.17	2246.91
412.36	2270.32
412.55	2354.58
412.74	2373.30
412.93	2448.20
413.12	2277.34
413.31	2527.78
413.50	2361.60
413.69	2530.12
413.88	2595.65
414.07	2534.80
414.26	2616.72
414.45	2602.68
414.64	2483.31
414.83	2588.63
415.02	2581.61
415.22	2698.64
415.41	2731.41
415.60	2726.72
415.79	2623.74
415.98	2747.79
416.17	2820.35
416.36	2818.00
416.55	2899.92
416.74	2848.43
416.93	2867.16
417.12	2860.13
417.31	2808.64
417.50	2956.10
417.69	2995.89
417.88	2972.48
418.07	2925.67
418.26	3028.65
418.45	2972.48
418.64	3056.74
418.83	3014.61
419.02	3098.87
419.21	3108.23
419.39	3101.21
419.58	3009.93
419.77	3016.95
419.96	3178.45
420.15	3112.91
420.34	3274.41
420.53	3178.45
420.72	3199.51
420.91	3407.82
421.10	3316.54
421.29	3194.83
421.48	3361.01
421.67	3349.31
421.86	3265.05
422.05	3302.50
422.24	3337.60
422.43	3239.30
422.61	3459.31
422.80	3368.03
422.99	3396.12
423.18	3456.97
423.37	3356.33
423.56	3426.54
423.75	3337.60
423.94	3239.30
424.13	3262.71
424.32	3265.05
424.50	3417.18
424.69	3517.83
424.88	3555.27
425.07	3407.82
425.26	3428.88
425.45	3424.20
425.64	3445.27
425.83	3424.20
426.01	3522.51
426.20	3468.67
426.39	3414.84
426.58	3386.76
426.77	3506.12
426.96	3456.97
427.15	3466.33
427.33	3674.64
427.52	3468.67
427.71	3651.24
427.90	3674.64
428.09	3747.20
428.28	3569.32
428.46	3684.00
428.65	3728.47
428.84	3873.59
429.03	3812.73
429.22	3709.75
429.40	3688.68
429.59	3758.90
429.78	3510.80
429.97	3559.95
430.16	3595.06
430.34	3845.50
430.53	3751.88
430.72	3747.20
430.91	3805.71
431.10	3946.14
431.28	3985.93
431.47	4088.92
431.66	3988.27
431.85	3864.22
432.03	4074.87
432.22	4205.94
432.41	4102.96
432.60	3985.93
432.79	4070.19
432.97	4121.68
433.16	4107.64
433.35	4135.73
433.54	4191.90
433.72	4138.07
433.91	4079.55
434.10	4241.05
434.28	4245.73
434.47	4173.18
434.66	4297.22
434.85	4418.93
435.03	4355.74
435.22	4301.90
435.41	4381.48
435.59	4533.62
435.78	4512.55
435.97	4510.21
436.16	4540.64
436.34	4402.55
436.53	4449.36
436.72	4561.70
436.90	4397.87
437.09	4613.20
437.28	4376.80
437.46	4475.10
437.65	4526.60
437.84	4603.83
438.02	4589.79
438.21	4636.60
438.40	4564.04
438.58	4873.00
438.77	4704.48
438.96	4809.80
439.14	5067.26
439.33	4999.38
439.52	4968.96
439.70	4922.15
439.89	4971.30
440.08	5069.60
440.26	5067.26
440.45	4940.87
440.63	5020.45
440.82	5158.54
441.01	5210.03
441.19	5228.76
441.38	5516.64
441.57	5408.98
441.75	5451.11
441.94	5638.35
442.12	5558.77
442.31	5474.51
442.50	5556.43
442.68	5362.17
442.87	5509.62
443.05	5621.97
443.24	5621.97
443.43	5659.42
443.61	5741.33
443.80	5741.33
443.98	5659.42
444.17	5486.22
444.35	5762.40
444.54	5865.38
444.73	5731.97
444.91	5638.35
445.10	5767.08
445.28	5671.12
445.47	5696.86
445.65	5902.83
445.84	5628.99
446.02	5837.30
446.21	5675.80
446.39	5582.18
446.58	5788.14
446.77	5654.73
446.95	5703.89
447.14	5849.00
447.32	5856.02
447.51	5806.87
447.69	5839.64
447.88	5830.27
448.06	5816.23
448.25	5748.36
448.43	5877.09
448.62	5820.91
448.80	5867.72
448.99	5991.77
449.17	6043.26
449.36	5998.79
449.54	6136.88
449.73	6186.04
449.91	6031.56
450.10	6176.67
450.28	6204.76
450.46	6359.24
450.65	6169.65
450.83	6420.09
451.02	6303.06
451.20	6347.53
451.39	6303.06
451.57	6342.85
451.76	6347.53
451.94	6408.39
452.13	6471.58
452.31	6317.11
452.49	6209.44
452.68	6289.02
452.86	6387.32
453.05	6487.96
453.23	6499.67
453.42	6328.81
453.60	6258.59
453.78	6399.02
453.97	6431.79
454.15	6544.14
454.34	6455.20
454.52	6717.34
454.70	6754.79
454.89	6558.18
455.07	6506.69
455.26	6773.51
455.44	6846.07
455.62	6787.55
455.81	6516.05
455.99	6801.60
456.17	6832.02
456.36	7012.24
456.54	6925.65
456.73	7007.56
456.91	7042.67
457.09	6993.52
457.28	7096.50
457.46	7115.23
457.64	7152.68
457.83	7103.53
458.01	7014.59
458.19	7248.64
458.38	6935.01
458.56	7335.24
458.74	7077.78
458.93	7281.41
459.11	7330.56
459.29	7382.05
459.48	7538.87
459.66	7246.30
459.84	7351.62
460.03	7365.67
460.21	7468.65
460.39	7414.82
460.57	7342.26
460.76	7536.52
460.94	7449.93
461.12	7632.49
461.31	7557.59
461.49	7562.27
461.67	7513.12
461.85	7824.41
462.04	7646.53
462.22	8095.91
462.40	7763.56
462.59	7716.75
462.77	7763.56
462.95	7822.07
463.13	7829.09
463.32	7861.86
463.50	7808.03
463.68	7763.56
463.86	7850.16
464.05	7798.66
464.23	7971.86
464.41	8002.29
464.59	8145.06
464.78	8006.97
464.96	8161.45
465.14	8013.99
465.32	8013.99
465.50	8154.43
465.69	8318.26
465.87	8131.02
466.05	8098.25
466.23	8116.98
466.41	8208.26
466.60	8472.74
466.78	8011.65
466.96	8222.30
467.14	8189.53
467.32	8156.77
467.51	8496.14
467.69	8168.47
467.87	8353.37
468.05	8549.98
468.23	8318.26
468.41	8318.26
468.60	8435.29
468.78	8479.76
468.96	8606.15
469.14	8547.64
469.32	8613.17
469.50	8557.00
469.69	8620.19
469.87	8587.43
470.05	8779.35
470.23	8842.54
470.41	8564.02
470.59	8879.99
470.77	8868.29
470.95	8947.87
471.14	9132.77
471.32	8856.59
471.50	9081.28
471.68	9259.16
471.86	9291.93
472.04	9142.13
472.22	9298.95
472.40	9221.71
472.58	9277.88
472.77	9437.04
472.95	9362.14
473.13	9600.88
473.31	9397.25
473.49	9348.10
473.67	9273.20
473.85	9596.20
474.03	9603.22
474.21	9844.29
474.39	9738.97
474.57	9659.39
474.75	9902.81
474.93	9937.91
475.12	10022.17
475.30	10045.58
475.48	9921.53
475.66	10015.15
475.84	10050.26
476.02	10366.23
476.20	10394.32
476.38	10476.24
476.56	10651.78
476.74	10478.58
476.92	10562.84
477.10	10455.17
477.28	10569.86
477.46	10663.48
477.64	10906.90
477.82	10806.25
478.00	11173.72
478.18	11239.25
478.36	10864.77
478.54	11386.71
478.72	11281.38
478.90	11517.78
479.08	11485.01
479.26	11728.42
479.44	11805.66
479.62	11789.28
479.80	11606.72
479.98	11908.65
480.16	12210.57
480.34	12084.19
480.52	12308.88
480.70	12299.52
480.88	12189.51
481.06	12442.29
481.24	12451.65
481.41	12634.21
481.59	12795.71
481.77	12931.46
481.95	12968.91
482.13	12917.42
482.31	12851.88
482.49	13284.88
482.67	13312.97
482.85	13378.50
483.03	13610.22
483.21	13451.06
483.39	13771.71
483.57	13696.82
483.74	13795.12
483.92	13954.27
484.10	13776.39
484.28	14129.81
484.46	14218.75
484.64	14799.21
484.82	14469.19
485.00	14602.60
485.18	14883.47
485.35	14775.80
485.53	14925.60
485.71	14806.23
485.89	15063.69
486.07	14972.41
486.25	15091.77
486.43	15197.10
486.61	15229.87
486.78	15817.34
486.96	15763.51
487.14	16182.46
487.32	15899.26
487.50	16046.71
487.68	16100.55
487.85	16524.18
488.03	16945.48
488.21	16870.58
488.39	16631.85
488.57	17174.85
488.75	16945.48
488.92	17308.26
489.10	17181.87
489.28	17212.30
489.46	17750.62
489.64	17752.96
489.81	18099.36
489.99	17961.27
490.17	18174.26
490.35	18097.02
490.53	18214.05
490.70	18560.45
490.88	18267.88
491.06	19051.96
491.24	18801.52
491.41	18654.07
491.59	18911.53
491.77	18780.46
491.95	19236.86
492.13	19349.21
492.30	19253.25
492.48	19880.51
492.66	19669.86
492.84	19719.01
493.01	19871.15
493.19	19850.08
493.37	19974.13
493.54	20313.51
493.72	20297.13
493.90	20252.66
494.08	20741.83
494.25	20849.49
494.43	20786.30
494.61	21083.55
494.79	20837.79
494.96	21118.65
495.14	21085.89
495.32	21418.24
495.49	21563.36
495.67	21692.08
495.85	21390.16
496.02	21972.95
496.20	21839.54
496.38	21872.31
496.55	21944.86
496.73	22649.36
496.91	22412.97
497.09	22366.16
497.26	22693.83
497.44	22735.96
497.62	22661.07
497.79	23021.51
497.97	22817.88
498.14	22995.76
498.32	22881.08
498.50	23192.37
498.67	23688.56
498.85	23477.91
499.03	23857.08
499.20	24013.90
499.38	23931.98
499.56	23672.18
499.73	24311.14
499.91	23857.08
500.08	24383.70
500.26	24182.42
500.44	24364.98
500.61	24353.27
500.79	24086.45
500.97	24655.20
501.14	25130.33
501.32	24734.78
501.49	24474.98
501.67	24781.59
501.84	24802.66
502.02	25013.31
502.20	25319.92
502.37	25310.55
502.55	25252.04
502.72	25708.44
502.90	25436.94
503.07	25790.36
503.25	25511.84
503.43	25781.00
503.60	25855.90
503.78	25858.24
503.95	25944.84
504.13	26061.87
504.30	26223.36
504.48	25886.32
504.65	25947.18
504.83	26497.20
505.01	26717.22
505.18	26684.45
505.36	26705.51
505.53	26871.69
505.71	27012.12
505.88	26934.88
506.06	26859.99
506.23	26850.63
506.41	26689.13
506.58	27014.46
506.76	27292.99
506.93	27503.64
507.11	27190.00
507.28	27515.34
507.46	27346.82
507.63	27772.80
507.81	27304.69
507.98	27903.87
508.16	27747.05
508.33	27779.82
508.50	27807.90
508.68	27941.32
508.85	28449.21
509.03	28156.64
509.20	28254.95
509.38	28762.84
509.55	28669.22
509.73	28627.09
509.90	28821.36
510.08	28376.66
510.25	29008.60
510.42	28685.61
510.60	28917.32
510.77	28957.11
510.95	29401.81
511.12	28959.45
511.30	29160.73
511.47	29806.72
511.64	29252.02
511.82	29680.33
511.99	29535.22
512.17	29663.95
512.34	29523.52
512.51	29895.66
512.69	30139.08
512.86	30340.36
513.04	30417.60
513.21	30136.74
513.38	30125.04
513.56	29928.43
513.73	29656.93
513.90	30314.62
514.08	30345.05
514.25	30429.30
514.43	30188.23
514.60	30534.63
514.77	30651.66
514.95	31033.16
515.12	30728.89
515.29	30850.60
515.47	30881.03
515.64	31477.86
515.81	31101.04
515.99	31175.94
516.16	30892.73
516.33	31206.36
516.51	31744.69
516.68	31428.71
516.85	30998.06
517.03	31049.55
517.20	31840.65
517.37	31278.92
517.54	31777.45
517.72	31871.07
517.89	32032.57
518.06	31737.66
518.24	31744.69
518.41	31704.90
518.58	32098.11
518.75	31723.62
518.93	32268.97
519.10	32105.13
519.27	32318.12
519.45	32297.05
519.62	32369.61
519.79	32751.12
519.96	32767.50
520.14	32929.00
520.31	32950.06
520.48	32657.49
520.65	32758.14
520.83	33057.73
521.00	33261.35
521.17	33277.74
521.34	33078.79
521.52	33823.08
521.69	33277.74
521.86	33642.86
522.03	33429.87
522.20	33617.11
522.38	34103.95
522.55	33689.67
522.72	33310.50
522.89	34174.16
523.07	33902.66
523.24	34022.03
523.41	34216.29
523.58	33879.25
523.75	34581.42
523.92	34265.44
524.10	34675.04
524.27	34410.56
524.44	34354.38
524.61	34553.33
524.78	34525.24
524.96	34707.80
525.13	35021.44
525.30	35028.46
525.47	34958.24
525.64	34794.40
525.81	34930.16
525.98	35028.46
526.16	34834.19
526.33	35002.71
526.50	34988.67
526.67	35086.97
526.84	35192.30
527.01	35295.28
527.18	35330.39
527.36	35136.12
527.53	35405.28
527.70	36222.13
527.87	35772.75
528.04	35742.32
528.21	35644.02
528.38	35908.50
528.55	35751.68
528.72	35667.42
528.89	35943.61
529.07	35964.67
529.24	35798.49
529.41	36130.85
529.58	35892.12
529.75	36329.80
529.92	36233.83
530.09	36353.20
530.26	36315.75
530.43	36514.70
530.60	36168.30
530.77	36430.44
530.94	36531.08
531.11	36554.49
531.28	36500.65
531.46	37001.53
531.63	36928.97
531.80	36383.63
531.97	36910.25
532.14	37081.11
532.31	37102.17
532.48	36952.38
532.65	37228.56
532.82	37261.33
532.99	37605.39
533.16	37420.48
533.33	37373.67
533.50	37956.47
533.67	37092.81
533.84	37509.43
534.01	37408.78
534.18	37420.48
534.35	37710.71
534.52	37617.09
534.69	37577.30
534.86	38096.90
535.03	37457.93
535.20	37610.07
535.37	37729.44
535.54	38024.34
535.71	37729.44
535.88	38012.64
536.05	37846.46
536.22	38108.60
536.38	38328.61
536.55	37937.74
536.72	37998.60
536.89	37633.47
537.06	38244.35
537.23	38178.82
537.40	38057.11
537.57	38513.52
537.74	38419.89
537.91	38742.89
538.08	38176.48
538.25	38246.69
538.42	38543.94
538.59	38794.38
538.75	38574.37
538.92	38651.61
539.09	38885.66
539.26	38593.09
539.43	39159.50
539.60	38557.99
539.77	38691.40
539.94	39487.18
540.11	38925.45
540.28	39100.99
540.44	38569.69
540.61	39365.47
540.78	38820.13
540.95	39042.48
541.12	39007.37
541.29	39208.65
541.46	39098.65
541.62	39840.60
541.79	39559.73
541.96	39367.81
542.13	39407.60
542.30	39768.04
542.47	39578.46
542.63	39653.36
542.80	39529.31
542.97	40046.57
543.14	40289.98
543.31	39810.17
543.48	40154.23
543.64	40219.77
543.81	40444.46
543.98	39899.11
544.15	39878.05
544.32	40549.78
544.48	40311.05
544.65	40334.45
544.82	40128.48
544.99	39999.76
545.16	40198.70
545.32	39957.63
545.49	40818.94
545.66	40589.57
545.83	40456.16
546.00	40825.96
546.16	41088.10
546.33	40722.98
546.50	40465.52
546.67	40498.29
546.83	40538.08
547.00	40889.16
547.17	40643.40
547.34	40540.42
547.50	40964.06
547.67	41436.84
547.84	41045.97
548.00	41261.30
548.17	40950.01
548.34	40865.75
548.51	41195.77
548.67	41050.66
548.84	41254.28
549.01	41104.49
549.18	41163.00
549.34	41371.31
549.51	41415.78
549.68	41469.61
549.84	41368.97
550.01	41785.58
550.18	41123.21
550.34	41338.54
550.51	41717.71
550.68	41254.28
550.84	41642.81
551.01	41799.63
551.18	42082.83
551.34	41450.89
551.51	41652.17
551.68	42188.16
551.84	41647.49
552.01	41511.74
552.18	41336.20
552.34	41432.16
552.51	42113.26
552.68	41881.55
552.84	41743.45
553.01	42129.64
553.18	41865.16
553.34	41715.37
553.51	42045.38
553.67	42335.61
553.84	42337.95
554.01	42073.47
554.17	42614.13
554.34	42541.58
554.51	42110.92
554.67	42787.33
554.84	42595.41
555.00	42078.15
555.17	41998.57
555.33	42396.46
555.50	41879.21
555.67	42506.47
555.83	42375.40
556.00	42445.62
556.16	43084.58
556.33	43187.56
556.50	42777.97
556.66	42403.49
556.83	42550.94
556.99	42649.24
557.16	43009.68
557.32	42859.89
557.49	43096.28
557.65	42883.30
557.82	42527.53
557.98	42965.21
558.15	42930.11
558.32	43042.45
558.48	43105.65
558.65	42752.23
558.81	42529.87
558.98	42738.18
559.14	42983.94
559.31	42621.16
559.47	42932.45
559.64	43526.94
559.80	43110.33
559.97	43693.12
560.13	42777.97
560.30	42939.47
560.46	42981.60
560.63	43037.77
560.79	43208.63
560.96	43599.50
561.12	42600.09
561.29	43180.54
561.45	42845.85
561.61	43461.41
561.78	43473.11
561.94	43423.96
562.11	43203.95
562.27	43124.37
562.44	43248.42
562.60	43601.84
562.77	43739.93
562.93	43440.34
563.10	43208.63
563.26	43044.79
563.42	43335.02
563.59	43426.30
563.75	43236.72
563.92	43419.28
564.08	43746.95
564.24	43615.88
564.41	43573.75
564.57	43650.99
564.74	43929.51
564.90	43660.35
565.07	43835.89
565.23	43716.53
565.39	43714.19
565.56	44128.46
565.72	43447.36
565.88	44205.70
566.05	43320.98
566.21	43435.66
566.38	43590.14
566.54	43782.06
566.70	44355.49
566.87	44032.50
567.03	43913.13
567.19	44432.73
567.36	43901.43
567.52	43627.59
567.68	43812.49
567.85	43494.18
568.01	43629.93
568.17	43868.66
568.34	43702.48
568.50	43487.15
568.66	44086.33
568.83	43948.24
568.99	43695.46
569.15	43805.47
569.32	43496.52
569.48	43798.44
569.64	44229.10
569.81	44165.91
569.97	43908.45
570.13	43906.11
570.30	43831.21
570.46	43941.22
570.62	43826.53
570.78	43468.43
570.95	44133.14
571.11	43840.57
571.27	44332.09
571.43	44395.28
571.60	44491.24
571.76	43957.60
571.92	43805.47
572.09	44168.25
572.25	43805.47
572.41	44025.48
572.57	44149.53
572.74	44484.22
572.90	44229.10
573.06	44264.21
573.22	44343.79
573.38	44116.76
573.55	43833.55
573.71	44240.81
573.87	43824.19
574.03	44257.19
574.20	44037.18
574.36	43819.51
574.52	44488.90
574.68	44350.81
574.84	44144.84
575.01	43889.73
575.17	44098.03
575.33	44102.71
575.49	43749.29
575.65	44498.26
575.82	44762.75
575.98	43906.11
576.14	44428.05
576.30	43878.02
576.46	43793.76
576.62	44470.18
576.79	44411.67
576.95	43866.32
577.11	44109.74
577.27	44006.75
577.43	44112.08
577.59	44109.74
577.75	44304.00
577.92	44069.95
578.08	43737.59
578.24	44236.12
578.40	44315.70
578.56	44425.71
578.72	44662.10
578.88	44027.82
579.04	44465.50
579.21	44100.37
579.37	44060.58
579.53	44189.31
579.69	43779.72
579.85	44105.06
580.01	44570.82
580.17	44715.93
580.33	44626.99
580.49	44414.01
580.65	44444.43
580.82	44369.54
580.98	44280.60
581.14	44278.25
581.30	44554.44
581.46	44168.25
581.62	44470.18
581.78	44339.11
581.94	44882.11
582.10	44465.50
582.26	44091.01
582.42	44208.04
582.58	44411.67
582.74	43995.05
582.90	44135.48
583.06	44692.53
583.22	44528.69
583.38	44353.15
583.54	44289.96
583.70	44093.35
583.86	44650.40
584.02	44018.46
584.18	44402.30
584.34	44409.32
584.50	44376.56
584.66	44179.95
584.82	44502.95
584.98	44409.32
585.14	44268.89
585.30	44067.61
585.46	44397.62
585.62	44753.38
585.78	44411.67
585.94	44088.67
586.10	44573.16
586.26	44292.30
586.42	44414.01
586.58	44149.53
586.74	44116.76
586.90	43959.94
587.06	44266.55
587.22	44327.41
587.38	44208.04
587.54	44751.04
587.70	44910.20
587.86	44399.96
588.02	44414.01
588.18	45069.36
588.34	44802.53
588.49	43765.68
588.65	44208.04
588.81	44645.72
588.97	44254.85
589.13	44079.31
589.29	44739.34
589.45	44788.49
589.61	44725.30
589.77	44563.80
589.93	44474.86
590.08	45177.02
590.24	44666.78
