SpectraSuite Data File
++++++++++++++++++++++++++++++++++++
Date: Fri Oct 25 11:25:54 EDT 2013
User: price-jones
Dark Spectrum Present: No
Reference Spectrum Present: No
Number of Sampled Component Spectra: 1
Spectrometers: USB2+H05261
Integration Time (usec): 100000 (USB2+H05261)
Spectra Averaged: 1 (USB2+H05261)
Boxcar Smoothing: 0 (USB2+H05261)
Correct for Electrical Dark: No (USB2+H05261)
Strobe/Lamp Enabled: No (USB2+H05261)
Correct for Detector Non-linearity: No (USB2+H05261)
Correct for Stray Light: No (USB2+H05261)
Number of Pixels in Processed Spectrum: 2048
>>>>>Begin Processed Spectral Data<<<<<
365.73	266.82
365.92	266.82
366.12	266.82
366.32	184.90
366.52	161.50
366.72	126.39
366.91	117.03
367.11	175.54
367.31	119.37
367.51	128.73
367.70	95.96
367.90	142.77
368.10	119.37
368.30	117.03
368.49	88.94
368.69	177.88
368.89	175.54
369.09	107.66
369.28	180.22
369.48	203.63
369.68	180.22
369.87	191.92
370.07	210.65
370.27	245.76
370.47	330.02
370.66	599.18
370.86	594.50
371.06	676.41
371.25	606.20
371.45	685.78
371.65	737.27
371.84	676.41
372.04	702.16
372.24	706.84
372.44	678.76
372.63	777.06
372.83	842.59
373.03	784.08
373.22	765.36
373.42	774.72
373.62	786.42
373.81	699.82
374.01	746.63
374.21	758.33
374.40	784.08
374.60	875.36
374.79	800.46
374.99	802.80
375.19	849.61
375.38	863.66
375.58	830.89
375.78	868.34
375.97	866.00
376.17	856.64
376.37	854.30
376.56	844.93
376.76	884.72
376.95	891.74
377.15	938.55
377.35	910.47
377.54	919.83
377.74	952.60
377.93	926.85
378.13	908.13
378.33	1006.43
378.52	924.51
378.72	961.96
378.91	987.71
379.11	854.30
379.31	945.58
379.50	877.70
379.70	1013.45
379.89	980.68
380.09	1041.54
380.28	1013.45
380.48	1013.45
380.68	1015.79
380.87	940.90
381.07	912.81
381.26	985.37
381.46	1004.09
381.65	1032.18
381.85	987.71
382.04	1130.48
382.24	1053.24
382.43	1053.24
382.63	1043.88
382.83	1132.82
383.02	1053.24
383.22	1086.01
383.41	1015.79
383.61	1135.16
383.80	1181.97
384.00	1088.35
384.19	1020.47
384.39	1067.28
384.58	1076.65
384.78	1121.12
384.97	1156.22
385.17	1186.65
385.36	1231.12
385.56	1116.44
385.75	1174.95
385.95	1170.27
386.14	1210.06
386.34	1212.40
386.53	1242.82
386.72	1282.61
386.92	1177.29
387.11	1289.64
387.31	1238.14
387.50	1252.19
387.70	1287.29
387.89	1303.68
388.09	1296.66
388.28	1315.38
388.48	1315.38
388.67	1432.41
388.86	1322.40
389.06	1238.14
389.25	1322.40
389.45	1378.58
389.64	1301.34
389.84	1355.17
390.03	1331.76
390.22	1334.11
390.42	1366.87
390.61	1277.93
390.81	1409.00
391.00	1418.36
391.19	1465.18
391.39	1493.26
391.58	1432.41
391.78	1483.90
391.97	1455.81
392.16	1371.55
392.36	1582.20
392.55	1427.73
392.75	1537.73
392.94	1549.43
393.13	1490.92
393.33	1528.37
393.52	1535.39
393.71	1666.46
393.91	1526.03
394.10	1675.82
394.29	1582.20
394.49	1689.87
394.68	1680.50
394.88	1633.69
395.07	1657.10
395.26	1633.69
395.46	1760.08
395.65	1753.06
395.84	1802.21
396.04	1769.44
396.23	1720.29
396.42	1664.12
396.62	1732.00
396.81	1724.97
397.00	1734.34
397.19	1827.96
397.39	1853.70
397.58	1834.98
397.77	1823.28
397.97	1825.62
398.16	1776.47
398.35	1886.47
398.55	2017.54
398.74	1893.49
398.93	1998.82
399.12	1802.21
399.32	2017.54
399.51	1944.99
399.70	1968.39
399.90	1923.92
400.09	1982.43
400.28	1975.41
400.47	2005.84
400.67	2111.16
400.86	2076.06
401.05	2001.16
401.24	2181.38
401.44	2080.74
401.63	2122.87
401.82	2108.82
402.01	2101.80
402.21	2153.29
402.40	2270.32
402.59	2202.44
402.78	2202.44
402.97	2237.55
403.17	2165.00
403.36	2242.23
403.55	2258.62
403.74	2347.56
403.93	2377.98
404.13	2319.47
404.32	2331.17
404.51	2356.92
404.70	2342.88
404.89	2382.67
405.09	2485.65
405.28	2499.69
405.47	2511.39
405.66	2466.92
405.85	2487.99
406.05	2525.44
406.24	2682.25
406.43	2558.21
406.62	2581.61
406.81	2684.59
407.00	2576.93
407.20	2614.38
407.39	2572.25
407.58	2647.15
407.77	2750.13
407.96	2813.32
408.15	2813.32
408.34	2810.98
408.54	2787.58
408.73	2850.77
408.92	2850.77
409.11	2745.45
409.30	2766.51
409.49	2984.18
409.68	2822.69
409.87	2963.12
410.07	2951.42
410.26	2855.45
410.45	2937.37
410.64	3016.95
410.83	3028.65
411.02	3028.65
411.21	3138.66
411.40	3054.40
411.59	3122.27
411.78	3218.24
411.98	3103.55
412.17	3375.05
412.36	3325.90
412.55	3480.38
412.74	3435.91
412.93	3304.84
413.12	3304.84
413.31	3604.42
413.50	3459.31
413.69	3471.01
413.88	3578.68
414.07	3578.68
414.26	3641.87
414.45	3648.90
414.64	3679.32
414.83	3765.92
415.02	3627.83
415.22	3632.51
415.41	3808.05
415.60	3836.14
415.79	3899.33
415.98	4002.32
416.17	3927.42
416.36	3953.16
416.55	3985.93
416.74	4030.40
416.93	4147.43
417.12	4095.94
417.31	4133.39
417.50	4252.75
417.69	4299.56
417.88	4149.77
418.07	4264.46
418.26	4304.25
418.45	4402.55
418.64	4435.32
418.83	4393.19
419.02	4489.15
419.21	4442.34
419.39	4573.41
419.58	4458.72
419.77	4547.66
419.96	4486.81
420.15	4489.15
420.34	4645.96
420.53	4575.75
420.72	4791.08
420.91	4744.27
421.10	4667.03
421.29	4767.67
421.48	4676.39
421.67	4683.41
421.86	4802.78
422.05	4880.02
422.24	4791.08
422.43	4847.25
422.61	4868.31
422.80	5050.88
422.99	5111.73
423.18	4985.34
423.37	5029.81
423.56	4865.97
423.75	4896.40
423.94	4901.08
424.13	4685.75
424.32	4947.89
424.50	4980.66
424.69	5041.51
424.88	5137.48
425.07	4954.91
425.26	4978.32
425.45	5083.64
425.64	4938.53
425.83	5034.49
426.01	5064.92
426.20	5172.58
426.39	5025.13
426.58	5074.28
426.77	4999.38
426.96	5062.58
427.15	5198.33
427.33	5139.82
427.52	5219.39
427.71	5212.37
427.90	5107.05
428.09	5261.52
428.28	5289.61
428.46	5233.44
428.65	5266.21
428.84	5408.98
429.03	5507.28
429.22	5254.50
429.40	5516.64
429.59	5462.81
429.78	5298.97
429.97	5305.99
430.16	5392.59
430.34	5437.06
430.53	5837.30
430.72	5682.82
430.91	5851.34
431.10	5483.88
431.28	5757.72
431.47	5820.91
431.66	5877.09
431.85	5778.78
432.03	5764.74
432.22	6012.84
432.41	5806.87
432.60	5888.79
432.79	5823.25
432.97	5998.79
433.16	6146.25
433.35	5996.45
433.54	6150.93
433.72	6274.98
433.91	6186.04
434.10	6155.61
434.28	5898.15
434.47	6333.49
434.66	6258.59
434.85	6277.32
435.03	6363.92
435.22	6188.38
435.41	6494.99
435.59	6375.62
435.78	6218.80
435.97	6513.71
436.16	6504.35
436.34	6452.86
436.53	6520.73
436.72	6700.95
436.90	6525.41
437.09	6499.67
437.28	6485.62
437.46	6736.06
437.65	6668.19
437.84	6806.28
438.02	6719.68
438.21	6942.03
438.40	6567.54
438.58	6916.28
438.77	7000.54
438.96	6956.07
439.14	7112.89
439.33	7150.34
439.52	7098.84
439.70	7246.30
439.89	7246.30
440.08	7478.01
440.26	7140.97
440.45	7314.17
440.63	7543.55
440.82	7639.51
441.01	7456.95
441.19	7667.60
441.38	7826.75
441.57	7801.01
441.75	7646.53
441.94	7829.09
442.12	8196.56
442.31	7976.55
442.50	7875.90
442.68	7749.51
442.87	8053.78
443.05	8222.30
443.24	8334.65
443.43	8098.25
443.61	8222.30
443.80	8292.52
443.98	7939.10
444.17	7974.21
444.35	8086.55
444.54	8294.86
444.73	8292.52
444.91	8388.48
445.10	8439.97
445.28	8238.69
445.47	8278.47
445.65	8318.26
445.84	8547.64
446.02	8421.25
446.21	8634.24
446.39	8439.97
446.58	8374.44
446.77	8634.24
446.95	8437.63
447.14	8461.04
447.32	8650.62
447.51	8390.82
447.69	8505.51
447.88	8568.70
448.06	8425.93
448.25	8554.66
448.43	8657.64
448.62	8812.12
448.80	8613.17
448.99	8608.49
449.17	8659.98
449.36	8638.92
449.54	8779.35
449.73	8739.56
449.91	9139.79
450.10	8903.40
450.28	9172.56
450.46	8959.57
450.65	9029.79
450.83	8992.34
451.02	9174.90
451.20	9008.72
451.39	9242.78
451.57	9083.62
451.76	8990.00
451.94	9064.89
452.13	9231.07
452.31	9317.67
452.49	8938.51
452.68	9317.67
452.86	9341.08
453.05	9451.08
453.23	9334.06
453.42	9427.68
453.60	9385.55
453.78	9509.60
453.97	9408.95
454.15	9425.34
454.34	9341.08
454.52	9596.20
454.70	9685.14
454.89	9837.27
455.07	9776.42
455.26	9748.33
455.44	10012.81
455.62	9839.61
455.81	9825.57
455.99	10031.54
456.17	10066.64
456.36	9970.68
456.54	10209.42
456.73	10317.08
456.91	10338.15
457.09	10347.51
457.28	10527.73
457.46	10452.83
457.64	10626.03
457.83	10628.37
458.01	10413.04
458.19	10581.56
458.38	10675.18
458.56	10712.63
458.74	10590.92
458.93	10593.26
459.11	10710.29
459.29	10672.84
459.48	10738.38
459.66	10705.61
459.84	11056.69
460.03	11131.59
460.21	10888.17
460.39	10801.57
460.57	11122.23
460.76	11173.72
460.94	11162.01
461.12	11108.18
461.31	11133.93
461.49	11185.42
461.67	11257.98
461.85	11485.01
462.04	11194.78
462.22	11754.17
462.40	11655.87
462.59	11449.90
462.77	11421.81
462.95	11562.25
463.13	11686.29
463.32	11583.31
463.50	11620.76
463.68	11861.84
463.86	11833.75
464.05	11768.21
464.23	11852.47
464.41	11997.59
464.59	11403.09
464.78	12020.99
464.96	12013.97
465.14	11742.47
465.32	12114.61
465.50	12308.88
465.69	12032.69
465.87	11859.49
466.05	12175.47
466.23	12276.11
466.41	12262.07
466.60	12423.56
466.78	12168.45
466.96	12184.83
467.14	12067.80
467.32	12381.43
467.51	12482.08
467.69	12081.85
467.87	12360.37
468.05	12603.78
468.23	12418.88
468.41	12629.53
468.60	12697.41
468.78	12856.56
468.96	12257.39
469.14	12718.47
469.32	13020.40
469.50	12472.71
469.69	13001.68
469.87	13254.45
470.05	13167.85
470.23	12917.42
470.41	13364.46
470.59	13181.90
470.77	13004.02
470.95	13462.76
471.14	13474.46
471.32	13167.85
471.50	13671.07
471.68	13668.73
471.86	13673.41
472.04	13958.96
472.22	14083.00
472.40	13411.27
472.58	13970.66
472.77	14120.45
472.95	13963.64
473.13	14534.73
473.31	14003.43
473.49	14008.11
473.67	14132.15
473.85	14232.80
474.03	14551.11
474.21	14356.85
474.39	14766.44
474.57	14654.09
474.75	14857.72
474.93	14904.53
475.12	14759.42
475.30	15108.16
475.48	14757.08
475.66	15452.22
475.84	15016.88
476.02	15119.86
476.20	15396.04
476.38	15733.08
476.56	15749.46
476.74	15765.85
476.92	15880.53
477.10	15709.68
477.28	16109.91
477.46	16198.85
477.64	16238.64
477.82	16437.58
478.00	16901.01
478.18	16734.83
478.36	16854.20
478.54	16851.86
478.72	17011.01
478.90	17263.79
479.08	17757.64
479.26	17572.74
479.44	17806.80
479.62	17928.50
479.80	18047.87
479.98	18085.32
480.16	18843.65
480.34	18228.09
480.52	18499.59
480.70	18541.72
480.88	18216.39
481.06	18693.86
481.24	18752.37
481.41	19096.43
481.59	19339.85
481.77	19630.07
481.95	19520.07
482.13	19644.12
482.31	19838.38
482.49	20336.91
482.67	20042.01
482.85	20222.23
483.03	20730.12
483.21	20678.63
483.39	21003.97
483.57	20755.87
483.74	21228.66
483.92	21371.43
484.10	21303.56
484.28	21865.28
484.46	22064.23
484.64	22101.68
484.82	22164.87
485.00	22508.93
485.18	22860.01
485.35	22799.16
485.53	22593.19
485.71	22806.18
485.89	23435.78
486.07	23527.06
486.25	23190.03
486.43	23522.38
486.61	23543.45
486.78	24109.86
486.96	24308.80
487.14	24582.65
487.32	24622.44
487.50	24933.73
487.68	25092.88
487.85	25308.21
488.03	25322.26
488.21	26005.69
488.39	25804.41
488.57	26010.37
488.75	26272.51
488.92	26632.96
489.10	26469.12
489.28	26628.27
489.46	27136.17
489.64	26684.45
489.81	27749.39
489.99	27508.32
490.17	27800.88
490.35	28212.82
490.53	28016.21
490.70	28294.74
490.88	28369.63
491.06	28758.16
491.24	28622.41
491.41	29448.62
491.59	29355.00
491.77	29532.88
491.95	29937.79
492.13	29542.24
492.30	30073.54
492.48	30277.17
492.66	30190.57
492.84	30473.78
493.01	30602.50
493.19	30501.86
493.37	31012.10
493.54	31197.00
493.72	31704.90
493.90	31288.28
494.08	31669.79
494.25	31931.93
494.43	32158.96
494.61	32121.51
494.79	32474.93
494.96	32287.69
495.14	32570.90
495.32	33319.87
495.49	33347.95
495.67	33315.19
495.85	33635.84
496.02	33930.75
496.20	33713.08
496.38	34153.10
496.55	34017.35
496.73	34754.61
496.91	34691.42
497.09	34991.01
497.26	35075.27
497.44	34890.37
497.62	35260.17
497.79	35604.23
497.97	35332.73
498.14	35931.90
498.32	36004.46
498.50	36084.04
498.67	36842.37
498.85	36706.62
499.03	36343.84
499.20	36676.19
499.38	36655.13
499.56	37083.45
499.73	36978.12
499.91	37593.68
500.08	37397.08
500.26	37097.49
500.44	37469.64
500.61	37654.54
500.79	37738.80
500.97	37956.47
501.14	38277.12
501.32	38384.79
501.49	38433.94
501.67	38375.42
501.84	38941.83
502.02	38543.94
502.20	38925.45
502.37	39220.36
502.55	38960.56
502.72	39210.99
502.90	39365.47
503.07	39653.36
503.25	39538.67
503.43	39653.36
503.60	40107.42
503.78	39997.41
503.95	40334.45
504.13	40177.64
504.30	40753.41
504.48	40430.41
504.65	40435.10
504.83	41008.53
505.01	40741.71
505.18	41258.96
505.36	41441.53
505.53	41017.89
505.71	41532.81
505.88	41783.24
506.06	41200.45
506.23	42120.28
506.41	41722.39
506.58	42064.11
506.76	42272.42
506.93	42682.01
507.11	42082.83
507.28	42415.19
507.46	42529.87
507.63	42897.34
507.81	43225.01
507.98	42621.16
508.16	43157.14
508.33	43110.33
508.50	43412.26
508.68	43119.69
508.85	43981.01
509.03	43899.09
509.20	43892.07
509.38	44329.75
509.55	44734.66
509.73	44587.21
509.90	44423.37
510.08	44360.17
510.25	44570.82
510.42	45010.84
510.60	45153.62
510.77	44940.63
510.95	45521.08
511.12	44898.50
511.30	45418.10
511.47	45514.06
511.64	45469.59
511.82	45698.96
511.99	45610.02
512.17	46335.59
512.34	45696.62
512.51	46092.17
512.69	46230.26
512.86	46461.97
513.04	46628.15
513.21	46658.58
513.38	46614.11
513.56	47068.17
513.73	46330.90
513.90	47430.96
514.08	47021.36
514.25	47014.34
514.43	47381.80
514.60	47470.75
514.77	47285.84
514.95	47599.47
515.12	47484.79
515.29	47498.83
515.47	47676.71
515.64	47826.51
515.81	47929.49
515.99	48121.41
516.16	48350.79
516.33	48156.52
516.51	48772.08
516.68	48371.85
516.85	48612.93
517.03	49095.08
517.20	48685.48
517.37	48664.42
517.54	48973.37
517.72	48605.91
517.89	49155.93
518.06	48802.51
518.24	49249.55
518.41	49205.08
518.58	49207.42
518.75	49261.26
518.93	49633.40
519.10	49301.04
519.27	49558.50
519.45	49682.55
519.62	49837.03
519.79	49954.05
519.96	49488.29
520.14	50031.29
520.31	49930.65
520.48	50412.80
520.65	50377.69
520.83	50719.41
521.00	50756.86
521.17	50234.92
521.34	50632.81
521.52	50604.72
521.69	50930.06
521.86	50705.37
522.03	51103.26
522.20	51313.90
522.38	51042.40
522.55	51325.61
522.72	51267.09
522.89	51194.54
523.07	51489.45
523.24	51398.16
523.41	51545.62
523.58	51559.66
523.75	51789.03
523.92	51522.21
524.10	51627.54
524.27	51826.48
524.44	51758.61
524.61	52072.24
524.78	52093.30
524.96	51987.98
525.13	52271.18
525.30	52399.91
525.47	52552.05
525.64	52165.86
525.81	52355.44
525.98	52542.69
526.16	52556.73
526.33	52685.46
526.50	52863.34
526.67	52830.57
526.84	52629.29
527.01	53013.13
527.18	52996.75
527.36	52648.01
527.53	53174.63
527.70	53558.48
527.87	53539.75
528.04	53169.95
528.21	53088.03
528.38	53483.58
528.55	53361.87
528.72	52987.39
528.89	53485.92
529.07	53172.29
529.24	53275.27
529.41	53811.26
529.58	53705.93
529.75	53687.21
529.92	53968.07
530.09	53890.83
530.26	53839.34
530.43	53715.29
530.60	53659.12
530.77	53869.77
530.94	54333.20
531.11	53766.79
531.28	54167.02
531.46	54181.06
531.63	54344.90
531.80	53886.15
531.97	54265.32
532.14	54293.41
532.31	54230.21
532.48	54550.87
532.65	54747.47
532.82	54192.76
532.99	54845.77
533.16	54578.95
533.33	54733.43
533.50	54824.71
533.67	54515.76
533.84	54628.10
534.01	54958.12
534.18	54852.80
534.35	55231.96
534.52	54869.18
534.69	55194.51
534.86	55351.33
535.03	54986.21
535.20	55283.45
535.37	55283.45
535.54	55540.91
535.71	55313.88
535.88	55377.08
536.05	55571.34
536.22	55494.10
536.38	55732.84
536.55	55793.69
536.72	55458.99
536.89	55292.82
537.06	55489.42
537.23	55924.76
537.40	55299.84
537.57	55538.57
537.74	55936.46
537.91	55826.46
538.08	56067.53
538.25	55608.79
538.42	55973.91
538.59	56395.21
538.75	56114.34
538.92	56151.79
539.09	55875.61
539.26	56165.84
539.43	56060.51
539.60	56231.37
539.77	56261.80
539.94	56385.85
540.11	56259.46
540.28	56357.76
540.44	56214.99
540.61	56214.99
540.78	56142.43
540.95	56664.37
541.12	56310.95
541.29	56430.32
541.46	56514.58
541.62	56690.12
541.79	56502.87
541.96	56446.70
542.13	56650.33
542.30	56427.98
542.47	57090.35
542.63	56872.68
542.80	56921.83
542.97	57167.58
543.14	57293.97
543.31	57174.61
543.48	57036.51
543.64	57516.32
543.81	57338.44
543.98	57338.44
544.15	57270.57
544.32	57244.82
544.48	57504.62
544.65	57453.13
544.82	57513.98
544.99	57188.65
545.16	57506.96
545.32	57415.68
545.49	57593.56
545.66	57642.71
545.83	57539.73
546.00	57670.80
546.16	57710.59
546.33	57785.49
546.50	57450.79
546.67	57600.58
546.83	57504.62
547.00	57703.57
547.17	57687.18
547.34	57883.79
547.50	57991.45
547.67	57937.62
547.84	57851.02
548.00	58134.23
548.17	58124.86
548.34	58005.50
548.51	58127.20
548.67	58246.57
548.84	57909.53
549.01	58162.31
549.18	57930.60
549.34	58274.66
549.51	58061.67
549.68	58204.44
549.84	58277.00
550.01	58295.72
550.18	58078.05
550.34	58419.77
550.51	58363.60
550.68	58115.50
550.84	58239.55
551.01	58541.48
551.18	58129.54
551.34	58588.29
551.51	58607.01
551.68	58478.28
551.84	58576.59
552.01	58543.82
552.18	58508.71
552.34	58398.71
552.51	58546.16
552.68	58576.59
552.84	58789.58
553.01	58805.96
553.18	58644.46
553.34	58759.15
553.51	58653.82
553.67	58756.81
553.84	58827.02
554.01	59004.91
554.17	59138.32
554.34	58969.80
554.51	58904.26
554.67	59063.42
554.84	58955.75
555.00	58922.99
555.17	58988.52
555.33	58976.82
555.50	58749.79
555.67	58948.73
555.83	58997.88
556.00	59150.02
556.16	59386.41
556.33	59150.02
556.50	59180.45
556.66	59332.58
556.83	59098.53
556.99	59412.16
557.16	59529.19
557.32	59538.55
557.49	59468.33
557.65	59433.22
557.82	59229.60
557.98	59253.00
558.15	59171.08
558.32	59363.01
558.48	59105.55
558.65	59384.07
558.81	59292.79
558.98	59440.24
559.14	59695.36
559.31	59664.94
559.47	59613.44
559.64	59458.97
559.80	59676.64
559.97	59475.35
560.13	59449.61
560.30	59447.27
560.46	59880.27
560.63	59810.05
560.79	59695.36
560.96	59847.50
561.12	59622.81
561.29	59690.68
561.45	59749.20
561.61	59833.46
561.78	59760.90
561.94	59772.60
562.11	59990.27
562.27	59721.11
562.44	59920.05
562.60	59955.16
562.77	60088.57
562.93	59957.50
563.10	60175.17
563.26	59936.44
563.42	60095.60
563.59	59987.93
563.75	59887.29
563.92	59767.92
564.08	59990.27
564.24	59852.18
564.41	60144.75
564.57	60065.17
564.74	59987.93
564.90	60210.28
565.07	60116.66
565.23	59980.91
565.39	60023.04
565.56	60259.43
565.72	60130.70
565.88	60226.66
566.05	60018.36
566.21	60236.03
566.38	60147.09
566.54	60303.90
566.70	60252.41
566.87	60413.91
567.03	60147.09
567.19	60315.61
567.36	60168.15
567.52	60210.28
567.68	60612.85
567.85	60378.80
568.01	60205.60
568.17	60203.26
568.34	60493.49
568.50	60395.18
568.66	60294.54
568.83	60439.65
568.99	60516.89
569.15	60390.50
569.32	60329.65
569.48	60308.58
569.64	60568.38
569.81	60521.57
569.97	60367.10
570.13	60402.21
570.30	60320.29
570.46	60378.80
570.62	60390.50
570.78	60622.22
570.95	60308.58
571.11	60575.40
571.27	60432.63
571.43	60615.19
571.60	60542.64
571.76	60755.63
571.92	60605.83
572.09	60772.01
572.25	60315.61
572.41	60596.47
572.57	60523.91
572.74	60676.05
572.90	60622.22
573.06	60650.30
573.22	60479.44
573.38	60591.79
573.55	60654.98
573.71	60865.63
573.87	60753.29
574.03	60498.17
574.20	60741.58
574.36	60458.38
574.52	60608.17
574.68	60694.77
574.84	60678.39
575.01	60652.64
575.17	60818.82
575.33	60463.06
575.49	60624.56
575.65	60774.35
575.82	60772.01
575.98	60926.49
576.14	60907.76
576.30	60900.74
576.46	60636.26
576.62	60690.09
576.79	60720.52
576.95	60736.90
577.11	60662.00
577.27	60816.48
577.43	60659.66
577.59	60882.02
577.75	60940.53
577.92	60610.51
578.08	60760.31
578.24	60727.54
578.40	60865.63
578.56	60903.08
578.72	60774.35
578.88	60809.46
579.04	60858.61
579.21	60708.82
579.37	60970.96
579.53	60912.44
579.69	60640.94
579.85	60851.59
580.01	60748.60
580.17	60673.71
580.33	60769.67
580.49	60757.97
580.65	60776.69
580.82	60889.04
580.98	60779.03
581.14	60828.18
581.30	60779.03
581.46	60931.17
581.62	60844.57
581.78	60669.03
581.94	60790.73
582.10	60764.99
582.26	60748.60
582.42	60926.49
582.58	60849.25
582.74	60624.56
582.90	60797.76
583.06	60687.75
583.22	60982.66
583.38	60790.73
583.54	60893.72
583.70	60975.64
583.86	61013.08
584.02	60786.05
584.18	61078.62
584.34	60877.33
584.50	61034.15
584.66	60743.92
584.82	60666.69
584.98	61073.94
585.14	60942.87
585.30	61017.77
585.46	60919.46
585.62	61090.32
585.78	60999.04
585.94	60739.24
586.10	61134.79
586.26	60945.21
586.42	61111.39
586.58	61116.07
586.74	61179.26
586.90	60949.89
587.06	61123.09
587.22	61010.74
587.38	60968.61
587.54	61258.84
587.70	61237.78
587.86	60919.46
588.02	61066.92
588.18	60970.96
588.34	61001.38
588.49	60940.53
