SpectraSuite Data File
++++++++++++++++++++++++++++++++++++
Date: Fri Oct 25 11:23:18 EDT 2013
User: price-jones
Dark Spectrum Present: No
Reference Spectrum Present: No
Number of Sampled Component Spectra: 1
Spectrometers: USB2+H05261
Integration Time (usec): 100000 (USB2+H05261)
Spectra Averaged: 1 (USB2+H05261)
Boxcar Smoothing: 0 (USB2+H05261)
Correct for Electrical Dark: No (USB2+H05261)
Strobe/Lamp Enabled: No (USB2+H05261)
Correct for Detector Non-linearity: No (USB2+H05261)
Correct for Stray Light: No (USB2+H05261)
Number of Pixels in Processed Spectrum: 2048
>>>>>Begin Processed Spectral Data<<<<<
365.73	252.78
365.92	252.78
366.12	252.78
366.32	135.75
366.52	117.03
366.72	168.52
366.91	121.71
367.11	110.01
367.31	91.28
367.51	212.99
367.70	128.73
367.90	135.75
368.10	114.69
368.30	166.18
368.49	84.26
368.69	149.79
368.89	112.35
369.09	131.07
369.28	175.54
369.48	189.58
369.68	203.63
369.87	273.84
370.07	212.99
370.27	266.82
370.47	306.61
370.66	573.43
370.86	559.39
371.06	636.63
371.25	676.41
371.45	634.29
371.65	692.80
371.84	674.07
372.04	685.78
372.24	725.57
372.44	641.31
372.63	706.84
372.83	770.04
373.03	711.52
373.22	844.93
373.42	800.46
373.62	716.20
373.81	713.86
374.01	706.84
374.21	805.14
374.40	781.74
374.60	856.64
374.79	833.23
374.99	812.17
375.19	760.67
375.38	856.64
375.58	835.57
375.78	915.15
375.97	842.59
376.17	896.43
376.37	814.51
376.56	849.61
376.76	917.49
376.95	877.70
377.15	882.38
377.35	924.51
377.54	868.34
377.74	994.73
377.93	910.47
378.13	868.34
378.33	873.02
378.52	894.08
378.72	976.00
378.91	957.28
379.11	903.45
379.31	903.45
379.50	938.55
379.70	1029.84
379.89	957.28
380.09	966.64
380.28	1086.01
380.48	1020.47
380.68	964.30
380.87	952.60
381.07	1057.92
381.26	1067.28
381.46	1032.18
381.65	1057.92
381.85	1025.15
382.04	1046.22
382.24	1067.28
382.43	1146.86
382.63	1121.12
382.83	1123.46
383.02	1100.05
383.22	1174.95
383.41	1081.33
383.61	1114.10
383.80	1114.10
384.00	1167.93
384.19	1118.78
384.39	1118.78
384.58	1163.25
384.78	1165.59
384.97	1179.63
385.17	1184.31
385.36	1153.88
385.56	1142.18
385.75	1181.97
385.95	1198.35
386.14	1198.35
386.34	1214.74
386.53	1158.57
386.72	1226.44
386.92	1252.19
387.11	1181.97
387.31	1198.35
387.50	1186.65
387.70	1256.87
387.89	1203.04
388.09	1287.29
388.28	1315.38
388.48	1324.74
388.67	1249.85
388.86	1315.38
389.06	1306.02
389.25	1364.53
389.45	1446.45
389.64	1341.13
389.84	1378.58
390.03	1390.28
390.22	1416.02
390.42	1364.53
390.61	1350.49
390.81	1331.76
391.00	1404.32
391.19	1460.49
391.39	1329.42
391.58	1465.18
391.78	1406.66
391.97	1481.56
392.16	1430.07
392.36	1507.30
392.55	1547.09
392.75	1556.46
392.94	1519.01
393.13	1521.35
393.33	1561.14
393.52	1570.50
393.71	1640.72
393.91	1607.95
394.10	1572.84
394.29	1666.46
394.49	1598.59
394.68	1633.69
394.88	1568.16
395.07	1694.55
395.26	1598.59
395.46	1657.10
395.65	1750.72
395.84	1762.42
396.04	1867.75
396.23	1825.62
396.42	1792.85
396.62	1724.97
396.81	1795.19
397.00	1877.11
397.19	1785.83
397.39	1818.60
397.58	1834.98
397.77	1853.70
397.97	1888.81
398.16	1771.79
398.35	1914.56
398.55	1853.70
398.74	1937.96
398.93	1949.67
399.12	1966.05
399.32	1940.30
399.51	1959.03
399.70	2022.22
399.90	1928.60
400.09	2064.35
400.28	2134.57
400.47	2047.97
400.67	2045.63
400.86	1956.69
401.05	2139.25
401.24	2174.36
401.44	2202.44
401.63	2106.48
401.82	2167.34
402.01	2188.40
402.21	2104.14
402.40	2387.35
402.59	2136.91
402.78	2200.10
402.97	2282.02
403.17	2190.74
403.36	2256.28
403.55	2333.51
403.74	2307.77
403.93	2289.04
404.13	2303.09
404.32	2307.77
404.51	2443.52
404.70	2455.22
404.89	2392.03
405.09	2483.31
405.28	2490.33
405.47	2431.82
405.66	2572.25
405.85	2593.31
406.05	2534.80
406.24	2630.76
406.43	2520.76
406.62	2649.49
406.81	2726.72
407.00	2647.15
407.20	2609.70
407.39	2708.00
407.58	2595.65
407.77	2768.85
407.96	2771.19
408.15	2738.43
408.34	2848.43
408.54	2799.28
408.73	2895.24
408.92	2853.11
409.11	2803.96
409.30	2888.22
409.49	2771.19
409.68	3035.67
409.87	3000.57
410.07	3070.78
410.26	3089.51
410.45	2972.48
410.64	3068.44
410.83	3159.72
411.02	3150.36
411.21	3119.93
411.40	3145.68
411.59	3265.05
411.78	3218.24
411.98	3293.13
412.17	3337.60
412.36	3342.28
412.55	3349.31
412.74	3463.99
412.93	3384.41
413.12	3246.32
413.31	3613.79
413.50	3463.99
413.69	3438.25
413.88	3721.45
414.07	3637.19
414.26	3786.99
414.45	3623.15
414.64	3588.04
414.83	3737.84
415.02	3801.03
415.22	3819.75
415.41	3913.38
415.60	3882.95
415.79	3941.46
415.98	4023.38
416.17	4079.55
416.36	4007.00
416.55	4035.08
416.74	4166.15
416.93	4145.09
417.12	4053.81
417.31	4189.56
417.50	4191.90
417.69	4332.33
417.88	4402.55
418.07	4346.37
418.26	4432.97
418.45	4276.16
418.64	4561.70
418.83	4435.32
419.02	4585.11
419.21	4552.34
419.39	4582.77
419.58	4493.83
419.77	4538.30
419.96	4601.49
420.15	4704.48
420.34	4617.88
420.53	4685.75
420.72	4727.88
420.91	4774.69
421.10	4856.61
421.29	4809.80
421.48	4760.65
421.67	4849.59
421.86	4868.31
422.05	4833.21
422.24	4880.02
422.43	4929.17
422.61	4868.31
422.80	5181.95
422.99	5020.45
423.18	5032.15
423.37	5123.43
423.56	4957.25
423.75	5001.72
423.94	4882.36
424.13	4739.58
424.32	4830.87
424.50	5132.79
424.69	5100.03
424.88	5163.22
425.07	4975.98
425.26	4997.04
425.45	5191.31
425.64	4947.89
425.83	5036.83
426.01	5177.26
426.20	5118.75
426.39	5291.95
426.58	5184.29
426.77	5041.51
426.96	5310.68
427.15	5203.01
427.33	5371.53
427.52	5338.76
427.71	5369.19
427.90	5315.36
428.09	5437.06
428.28	5425.36
428.46	5394.93
428.65	5516.64
428.84	5542.39
429.03	5469.83
429.22	5338.76
429.40	5493.24
429.59	5533.03
429.78	5385.57
429.97	5394.93
430.16	5607.92
430.34	5738.99
430.53	5724.95
430.72	5678.14
430.91	5748.36
431.10	5657.07
431.28	5963.68
431.47	5734.31
431.66	5928.58
431.85	5788.14
432.03	6061.99
432.22	6022.20
432.41	6066.67
432.60	5940.28
432.79	6038.58
432.97	6061.99
433.16	6143.91
433.35	5959.00
433.54	6284.34
433.72	6253.91
433.91	6181.35
434.10	6249.23
434.28	6246.89
434.47	6221.14
434.66	6286.68
434.85	6408.39
435.03	6457.54
435.22	6349.87
435.41	6572.22
435.59	6569.88
435.78	6558.18
435.97	6478.60
436.16	6527.75
436.34	6534.78
436.53	6626.06
436.72	6904.58
436.90	6630.74
437.09	6696.27
437.28	6607.33
437.46	6860.11
437.65	6768.83
437.84	6984.16
438.02	6668.19
438.21	6761.81
438.40	6810.96
438.58	7056.72
438.77	7152.68
438.96	7094.16
439.14	7403.11
439.33	7187.79
439.52	7459.29
439.70	7183.10
439.89	7478.01
440.08	7421.84
440.26	7375.03
440.45	7583.34
440.63	7461.63
440.82	7744.83
441.01	7531.84
441.19	7662.91
441.38	7756.54
441.57	7803.35
441.75	7815.05
441.94	8039.74
442.12	7978.89
442.31	8156.77
442.50	8156.77
442.68	7887.61
442.87	8236.35
443.05	8156.77
443.24	8287.84
443.43	8180.17
443.61	8430.61
443.80	8315.92
443.98	7946.12
444.17	7955.48
444.35	8257.41
444.54	8503.17
444.73	8292.52
444.91	8423.59
445.10	8531.25
445.28	8468.06
445.47	8168.47
445.65	8313.58
445.84	8463.38
446.02	8519.55
446.21	8552.32
446.39	8580.40
446.58	8627.21
446.77	8690.41
446.95	8369.76
447.14	8601.47
447.32	8659.98
447.51	8594.45
447.69	8723.18
447.88	8552.32
448.06	8662.32
448.25	8610.83
448.43	8772.33
448.62	8573.38
448.80	8643.60
448.99	8566.36
449.17	8823.82
449.36	8671.68
449.54	9060.21
449.73	8816.80
449.91	9100.00
450.10	9317.67
450.28	9071.92
450.46	9020.42
450.65	9151.49
450.83	9284.91
451.02	9336.40
451.20	9462.79
451.39	9233.41
451.57	9221.71
451.76	9387.89
451.94	9413.63
452.13	9469.81
452.31	9593.86
452.49	9163.20
452.68	9451.08
452.86	9355.12
453.05	9448.74
453.23	9671.09
453.42	9404.27
453.60	9413.63
453.78	9699.18
453.97	9392.57
454.15	9504.92
454.34	9455.76
454.52	9603.22
454.70	9841.95
454.89	9977.70
455.07	9832.59
455.26	10003.45
455.44	10202.40
455.62	9809.19
455.81	10057.28
455.99	10003.45
456.17	10457.51
456.36	10097.07
456.54	10223.46
456.73	10251.55
456.91	10527.73
457.09	10649.44
457.28	10494.96
457.46	10431.77
457.64	10801.57
457.83	10719.65
458.01	10441.13
458.19	10927.96
458.38	10583.90
458.56	10846.04
458.74	10705.61
458.93	10647.10
459.11	10759.44
459.29	10974.77
459.48	11033.29
459.66	10953.71
459.84	11068.39
460.03	11131.59
460.21	11108.18
460.39	10965.41
460.57	11098.82
460.76	11325.85
460.94	11243.93
461.12	11239.25
461.31	11435.86
461.49	11311.81
461.67	11178.40
461.85	11379.68
462.04	11276.70
462.22	11660.55
462.40	11955.46
462.59	11676.93
462.77	11637.14
462.95	11644.17
463.13	11772.89
463.32	11866.52
463.50	11854.81
463.68	11999.93
463.86	12025.67
464.05	11922.69
464.23	11868.86
464.41	12121.63
464.59	11737.79
464.78	12138.02
464.96	11918.01
465.14	12140.36
465.32	12343.99
465.50	12390.80
465.69	12367.39
465.87	12461.01
466.05	12313.56
466.23	12430.59
466.41	12383.77
466.60	12437.61
466.78	12271.43
466.96	12421.22
467.14	12601.44
467.32	12769.96
467.51	12706.77
467.69	12231.64
467.87	12774.64
468.05	12791.03
468.23	12765.28
468.41	12587.40
468.60	12978.27
468.78	12751.24
468.96	12868.27
469.14	13102.32
469.32	13170.19
469.50	12898.69
469.69	13359.78
469.87	13167.85
470.05	13341.05
470.23	13172.54
470.41	13188.92
470.59	13348.08
470.77	13268.50
470.95	13284.88
471.14	13752.99
471.32	13303.60
471.50	13657.03
471.68	13830.23
471.86	13937.89
472.04	14108.75
472.22	14162.58
472.40	14012.79
472.58	14167.26
472.77	14200.03
472.95	14097.05
473.13	14754.74
473.31	14078.32
473.49	14459.83
473.67	14335.78
473.85	14565.15
474.03	14977.09
474.21	14738.35
474.39	14953.68
474.57	14679.84
474.75	15044.96
474.93	15267.31
475.12	15339.87
475.30	15492.01
475.48	15218.16
475.66	15351.57
475.84	15445.20
476.02	15300.08
476.20	15545.84
476.38	16114.59
476.56	16327.58
476.74	16257.36
476.92	16355.66
477.10	16145.02
477.28	16402.47
477.46	16582.70
477.64	16519.50
477.82	16652.91
478.00	17245.07
478.18	16964.20
478.36	16982.93
478.54	17572.74
478.72	17502.53
478.90	17453.37
479.08	17923.82
479.26	17647.64
479.44	17984.68
479.62	18066.60
479.80	18387.25
479.98	18410.65
480.16	18590.88
480.34	18537.04
480.52	18897.49
480.70	18754.71
480.88	18499.59
481.06	18824.93
481.24	18970.04
481.41	19012.17
481.59	19590.28
481.77	19967.11
481.95	19536.45
482.13	19960.09
482.31	20065.41
482.49	20407.13
482.67	20573.31
482.85	20837.79
483.03	21085.89
483.21	21010.99
483.39	21298.88
483.57	20982.90
483.74	21476.76
483.92	21570.38
484.10	21308.24
484.28	22008.06
484.46	22408.29
484.64	22480.85
484.82	22059.55
485.00	22974.70
485.18	22960.66
485.35	23295.35
485.53	23285.99
485.71	23241.52
485.89	23744.73
486.07	23791.55
486.25	23946.02
486.43	24060.71
486.61	24341.57
486.78	24334.55
486.96	24556.90
487.14	25238.00
487.32	25013.31
487.50	25146.72
487.68	24957.13
487.85	25205.23
488.03	25448.64
488.21	26092.29
488.39	26199.96
488.57	26087.61
488.75	26494.86
488.92	26991.06
489.10	27049.57
489.28	27204.05
489.46	27578.53
489.64	27388.95
489.81	27964.72
489.99	27953.02
490.17	28119.20
490.35	28484.32
490.53	28357.93
490.70	28474.96
490.88	28479.64
491.06	29233.29
491.24	29378.40
491.41	29340.96
491.59	29743.53
491.77	29783.32
491.95	30036.09
492.13	30146.10
492.30	30356.75
492.48	30408.24
492.66	30429.30
492.84	30728.89
493.01	30998.06
493.19	30780.39
493.37	31213.38
493.54	31365.52
493.72	31866.39
493.90	31950.65
494.08	32163.64
494.25	32517.06
494.43	32477.27
494.61	32418.76
494.79	33031.98
494.96	32896.23
495.14	33179.43
495.32	33811.38
495.49	33539.88
495.67	34010.32
495.85	34127.35
496.02	34284.17
496.20	34742.91
496.38	34380.13
496.55	34443.32
496.73	35522.31
496.91	35108.04
497.09	35550.40
497.26	35189.95
497.44	35480.18
497.62	35871.05
497.79	36381.29
497.97	35899.14
498.14	36306.39
498.32	37060.04
498.50	36369.58
498.67	37184.09
498.85	37104.51
499.03	36863.44
499.20	37151.32
499.38	37347.93
499.56	37780.93
499.73	37593.68
499.91	38134.35
500.08	38094.56
500.26	38356.70
500.44	37858.17
500.61	38398.83
500.79	38124.99
500.97	38658.63
501.14	38817.78
501.32	39072.90
501.49	38885.66
501.67	39215.68
501.84	39648.68
502.02	39257.81
502.20	39646.33
502.37	39606.55
502.55	39868.69
502.72	39913.16
502.90	39945.92
503.07	40177.64
503.25	40676.17
503.43	40367.22
503.60	40418.71
503.78	40556.80
503.95	40596.59
504.13	40797.88
504.30	41432.16
504.48	41315.14
504.65	41123.21
504.83	41415.78
505.01	41544.51
505.18	42021.98
505.36	41958.78
505.53	41610.04
505.71	42410.51
505.88	42380.08
506.06	41675.58
506.23	42363.70
506.41	42546.26
506.58	42326.25
506.76	42574.34
506.93	43285.87
507.11	43049.47
507.28	43278.85
507.46	43583.12
507.63	43386.51
507.81	43505.88
507.98	43150.12
508.16	43782.06
508.33	44030.16
508.50	44591.89
508.68	44093.35
508.85	44215.06
509.03	44109.74
509.20	44800.19
509.38	44952.33
509.55	45095.10
509.73	44814.24
509.90	45155.96
510.08	45174.68
510.25	45097.44
510.42	45214.47
510.60	45287.03
510.77	45729.39
510.95	45638.11
511.12	45696.62
511.30	45525.76
511.47	45937.69
511.64	46312.18
511.82	46443.25
511.99	45993.87
512.17	46564.96
512.34	46347.29
512.51	46796.67
512.69	46883.27
512.86	46899.65
513.04	47278.82
513.21	47356.06
513.38	47283.50
513.56	47327.97
513.73	47456.70
513.90	47224.99
514.08	47393.51
514.25	47966.94
514.43	47854.59
514.60	48119.07
514.77	48037.16
514.95	48353.13
515.12	48308.66
515.29	48119.07
515.47	48573.14
515.64	48439.73
515.81	48388.24
515.99	48421.00
516.16	49074.01
516.33	48697.19
516.51	49319.77
516.68	48865.70
516.85	48832.94
517.03	49226.15
517.20	49701.28
517.37	49303.38
517.54	49507.01
517.72	49319.77
517.89	49385.30
518.06	49712.98
518.24	49516.37
518.41	49879.16
518.58	49993.84
518.75	49862.77
518.93	50227.90
519.10	49729.36
519.27	50064.06
519.45	50258.32
519.62	50787.28
519.79	50302.79
519.96	50358.97
520.14	50787.28
520.31	50658.56
520.48	51121.98
520.65	50583.66
520.83	51112.62
521.00	51409.87
521.17	50944.10
521.34	50944.10
521.52	51398.16
521.69	51402.85
521.86	51456.68
522.03	51608.81
522.20	52112.03
522.38	51711.80
522.55	51634.56
522.72	51758.61
522.89	51810.10
523.07	51995.00
523.24	51957.55
523.41	52334.38
523.58	51786.69
523.75	51971.60
523.92	52144.80
524.10	52236.08
524.27	52392.89
524.44	52437.36
524.61	52308.63
524.78	52912.49
524.96	52580.13
525.13	52729.93
525.30	52837.59
525.47	53183.99
525.64	52685.46
525.81	53038.88
525.98	52971.00
526.16	52846.96
526.33	53097.39
526.50	53303.36
526.67	53027.18
526.84	53343.15
527.01	53263.57
527.18	53366.55
527.36	53284.64
527.53	53684.87
527.70	53862.75
527.87	53827.64
528.04	53506.99
528.21	53769.13
528.38	53844.02
528.55	53837.00
528.72	53719.98
528.89	54087.44
529.07	53895.52
529.24	54162.34
529.41	54148.29
529.58	54216.17
529.75	54246.60
529.92	54038.29
530.09	54012.54
530.26	54232.55
530.43	54408.09
530.60	54291.07
530.77	54471.29
530.94	54515.76
531.11	54326.17
531.28	54375.33
531.46	54319.15
531.63	54658.53
531.80	54871.52
531.97	54852.80
532.14	54880.88
532.31	55278.77
532.48	55040.04
532.65	54993.23
532.82	54899.61
532.99	55000.25
533.16	54824.71
533.33	55063.44
533.50	55334.95
533.67	55147.70
533.84	55356.01
534.01	55341.97
534.18	55154.72
534.35	55451.97
534.52	55552.62
534.69	55454.31
534.86	55845.18
535.03	55636.87
535.20	55482.40
535.37	55751.56
535.54	55880.29
535.71	55580.70
535.88	55840.50
536.05	55800.71
536.22	55948.17
536.38	56079.24
536.55	56097.96
536.72	56025.40
536.89	55875.61
537.06	55817.10
537.23	56027.74
537.40	55817.10
537.57	56041.79
537.74	56278.18
537.91	56367.12
538.08	56243.07
538.25	55962.21
538.42	56535.64
538.59	56491.17
538.75	56332.01
538.92	56360.10
539.09	56552.02
539.26	56509.89
539.43	56493.51
539.60	56776.72
539.77	56680.75
539.94	56657.35
540.11	56406.91
540.28	56781.40
540.44	56622.24
540.61	56842.25
540.78	56776.72
540.95	56961.62
541.12	56828.21
541.29	56563.73
541.46	56961.62
541.62	56966.30
541.79	57099.71
541.96	56535.64
542.13	56823.53
542.30	56989.70
542.47	57167.58
542.63	57153.54
542.80	57073.96
542.97	57336.10
543.14	57401.64
543.31	57537.39
543.48	57640.37
543.64	57710.59
543.81	57834.64
543.98	57680.16
544.15	57506.96
544.32	57790.17
544.48	57944.64
544.65	57638.03
544.82	57668.46
544.99	57565.48
545.16	57963.37
545.32	57846.34
545.49	57946.98
545.66	58049.97
545.83	57897.83
546.00	58110.82
546.16	57916.56
546.33	57949.32
546.50	57921.24
546.67	58064.01
546.83	57888.47
547.00	58199.76
547.17	58157.63
547.34	58150.61
547.50	58239.55
547.67	58609.35
547.84	58274.66
548.00	58344.87
548.17	58581.27
548.34	58309.77
548.51	58408.07
548.67	58660.85
548.84	58457.22
549.01	58279.34
549.18	58246.57
549.34	58515.73
549.51	58588.29
549.68	58672.55
549.84	58855.11
550.01	58691.27
550.18	58707.66
550.34	58805.96
550.51	58684.25
550.68	58754.47
550.84	58756.81
551.01	58834.05
551.18	58789.58
551.34	58925.33
551.51	59047.04
551.68	58752.13
551.84	58838.73
552.01	58646.80
552.18	58969.80
552.34	58873.84
552.51	58993.20
552.68	58702.98
552.84	59126.61
553.01	59196.83
553.18	59103.21
553.34	59309.18
553.51	58913.62
553.67	59318.54
553.84	59227.26
554.01	59248.32
554.17	59444.93
554.34	59409.82
554.51	59381.73
554.67	59327.90
554.84	59346.62
555.00	59339.60
555.17	59405.14
555.33	59346.62
555.50	59203.85
555.67	59405.14
555.83	59332.58
556.00	59505.78
556.16	59568.97
556.33	59629.83
556.50	59627.49
556.66	59632.17
556.83	59468.33
556.99	59580.68
557.16	59547.91
557.32	59838.14
557.49	59821.75
557.65	59730.47
557.82	59526.84
557.98	59732.81
558.15	59819.41
558.32	59686.00
558.48	59576.00
558.65	59894.31
558.81	59854.52
558.98	59774.94
559.14	59859.20
559.31	59999.63
559.47	60301.56
559.64	60060.49
559.80	60137.72
559.97	60081.55
560.13	59920.05
560.30	59955.16
560.46	60060.49
560.63	59976.23
560.79	60175.17
560.96	60034.74
561.12	60067.51
561.29	60219.64
561.45	60212.62
561.61	60140.07
561.78	60154.11
561.94	60233.69
562.11	60128.36
562.27	60203.26
562.44	60362.42
562.60	60224.32
562.77	60289.86
562.93	60090.91
563.10	60196.24
563.26	60126.02
563.42	60402.21
563.59	60493.49
563.75	60285.18
563.92	60530.93
564.08	60322.63
564.24	60643.28
564.41	60360.08
564.57	60346.03
564.74	60472.42
564.90	60238.37
565.07	60385.82
565.23	60486.46
565.39	60416.25
565.56	60603.49
565.72	60470.08
565.88	60505.19
566.05	60327.31
566.21	60467.74
566.38	60640.94
566.54	60711.16
566.70	60509.87
566.87	60729.88
567.03	60397.52
567.19	60722.86
567.36	60472.42
567.52	60498.17
567.68	60711.16
567.85	60722.86
568.01	60886.70
568.17	60652.64
568.34	60783.71
568.50	60786.05
568.66	60687.75
568.83	60678.39
568.99	60748.60
569.15	60708.82
569.32	60591.79
569.48	60537.96
569.64	60830.52
569.81	60680.73
569.97	60685.41
570.13	60858.61
570.30	60734.56
570.46	60830.52
570.62	60774.35
570.78	60671.37
570.95	60837.54
571.11	60870.31
571.27	60624.56
571.43	60788.39
571.60	61041.17
571.76	60886.70
571.92	60949.89
572.09	61062.24
572.25	61113.73
572.41	60886.70
572.57	60889.04
572.74	61179.26
572.90	60863.29
573.06	60809.46
573.22	61020.11
573.38	60874.99
573.55	60999.04
573.71	61041.17
573.87	61083.30
574.03	60877.33
574.20	60966.27
574.36	60713.50
574.52	61029.47
574.68	61127.77
574.84	60956.91
575.01	60928.83
575.17	60898.40
575.33	60935.85
575.49	60966.27
575.65	61144.16
575.82	61036.49
575.98	61006.06
576.14	61247.14
576.30	60996.70
576.46	60973.30
576.62	61116.07
576.79	61045.85
576.95	60987.34
577.11	61188.63
577.27	61207.35
577.43	61102.03
577.59	61071.60
577.75	60900.74
577.92	61099.68
578.08	60919.46
578.24	61048.19
578.40	61495.24
578.56	61326.72
578.72	61118.41
578.88	61230.75
579.04	61324.38
579.21	61219.05
579.37	61078.62
579.53	61373.53
579.69	61052.87
579.85	61361.82
580.01	60980.32
580.17	61148.84
580.33	61298.63
580.49	61282.25
580.65	61216.71
580.82	61038.83
580.98	61071.60
581.14	61272.88
581.30	61324.38
581.46	61083.30
581.62	61195.65
581.78	61268.20
581.94	61219.05
582.10	61186.28
582.26	61174.58
582.42	61134.79
582.58	61237.78
582.74	61071.60
582.90	61319.70
583.06	61261.18
583.22	61106.71
583.38	61275.22
583.54	61305.65
583.70	61305.65
583.86	61249.48
584.02	60931.17
584.18	61324.38
584.34	61279.91
584.50	61410.98
584.66	61148.84
584.82	61099.68
584.98	61413.32
585.14	61464.81
585.30	61141.81
585.46	61322.04
585.62	61195.65
585.78	61539.71
585.94	61109.05
586.10	61209.69
586.26	61371.19
586.42	61364.17
586.58	61336.08
586.74	61317.35
586.90	61148.84
587.06	61148.84
587.22	61396.93
587.38	61467.15
587.54	61626.31
587.70	61408.64
587.86	61251.82
588.02	61228.41
588.18	61371.19
588.34	61326.72
