SpectraSuite Data File
++++++++++++++++++++++++++++++++++++
Date: Fri Oct 25 10:44:04 EDT 2013
User: price-jones
Dark Spectrum Present: No
Reference Spectrum Present: No
Number of Sampled Component Spectra: 1
Spectrometers: USB2+H05261
Integration Time (usec): 100000 (USB2+H05261)
Spectra Averaged: 1 (USB2+H05261)
Boxcar Smoothing: 0 (USB2+H05261)
Correct for Electrical Dark: No (USB2+H05261)
Strobe/Lamp Enabled: No (USB2+H05261)
Correct for Detector Non-linearity: No (USB2+H05261)
Correct for Stray Light: No (USB2+H05261)
Number of Pixels in Processed Spectrum: 2048
>>>>>Begin Processed Spectral Data<<<<<
365.73	149.79
365.92	149.79
366.12	149.79
366.32	53.83
366.52	25.75
366.72	28.09
366.91	28.09
367.11	58.51
367.31	65.54
367.51	0.00
367.70	42.13
367.90	91.28
368.10	105.32
368.30	0.00
368.49	39.79
368.69	70.22
368.89	18.72
369.09	39.79
369.28	77.24
369.48	0.00
369.68	67.88
369.87	154.48
370.07	105.32
370.27	182.56
370.47	142.77
370.66	320.65
370.86	341.72
371.06	479.81
371.25	484.49
371.45	395.55
371.65	496.19
371.84	486.83
372.04	470.45
372.24	531.30
372.44	517.26
372.63	552.37
372.83	543.00
373.03	545.34
373.22	479.81
373.42	552.37
373.62	472.79
373.81	493.85
374.01	608.54
374.21	594.50
374.40	451.72
374.60	599.18
374.79	571.09
374.99	571.09
375.19	603.86
375.38	645.99
375.58	662.37
375.78	664.71
375.97	650.67
376.17	629.60
376.37	599.18
376.56	552.37
376.76	585.13
376.95	589.82
377.15	671.73
377.35	631.94
377.54	634.29
377.74	695.14
377.93	636.63
378.13	718.54
378.33	697.48
378.52	716.20
378.72	674.07
378.91	662.37
379.11	657.69
379.31	638.97
379.50	650.67
379.70	699.82
379.89	734.93
380.09	671.73
380.28	594.50
380.48	674.07
380.68	734.93
380.87	753.65
381.07	746.63
381.26	786.42
381.46	746.63
381.65	725.57
381.85	809.83
382.04	770.04
382.24	615.56
382.43	681.10
382.63	683.44
382.83	697.48
383.02	720.88
383.22	695.14
383.41	657.69
383.61	763.01
383.80	795.78
384.00	784.08
384.19	753.65
384.39	835.57
384.58	858.98
384.78	788.76
384.97	725.57
385.17	753.65
385.36	842.59
385.56	781.74
385.75	809.83
385.95	802.80
386.14	849.61
386.34	933.87
386.53	922.17
386.72	908.13
386.92	905.79
387.11	940.90
387.31	826.21
387.50	856.64
387.70	866.00
387.89	830.89
388.09	950.26
388.28	894.08
388.48	884.72
388.67	999.41
388.86	1025.15
389.06	976.00
389.25	1004.09
389.45	1064.94
389.64	973.66
389.84	950.26
390.03	1011.11
390.22	1053.24
390.42	966.64
390.61	1050.90
390.81	1020.47
391.00	1097.71
391.19	1100.05
391.39	1088.35
391.58	1078.99
391.78	1109.41
391.97	1041.54
392.16	1057.92
392.36	1062.60
392.55	1043.88
392.75	968.98
392.94	1029.84
393.13	938.55
393.33	919.83
393.52	1053.24
393.71	1137.50
393.91	1081.33
394.10	1196.01
394.29	1200.69
394.49	1156.22
394.68	1212.40
394.88	1179.63
395.07	1476.88
395.26	1266.23
395.46	1219.42
395.65	1252.19
395.84	1242.82
396.04	1287.29
396.23	1296.66
396.42	1128.14
396.62	1188.99
396.81	1219.42
397.00	1261.55
397.19	1348.15
397.39	1411.34
397.58	1324.74
397.77	1535.39
397.97	1458.15
398.16	1427.73
398.35	1561.14
398.55	1502.62
398.74	1636.03
398.93	1636.03
399.12	1455.81
399.32	1577.52
399.51	1561.14
399.70	1633.69
399.90	1547.09
400.09	1659.44
400.28	1706.25
400.47	1682.85
400.67	1689.87
400.86	1657.10
401.05	1652.42
401.24	1781.15
401.44	1706.25
401.63	1849.02
401.82	1746.04
402.01	1746.04
402.21	1685.19
402.40	1734.34
402.59	1710.93
402.78	1771.79
402.97	1802.21
403.17	1954.35
403.36	1891.15
403.55	1975.41
403.74	2054.99
403.93	2022.22
404.13	1942.64
404.32	1916.90
404.51	1994.14
404.70	2054.99
404.89	1921.58
405.09	1991.80
405.28	1952.01
405.47	2043.29
405.66	2073.71
405.85	2017.54
406.05	1987.11
406.24	2127.55
406.43	2122.87
406.62	2160.31
406.81	2165.00
407.00	2012.86
407.20	2106.48
407.39	2150.95
407.58	2263.30
407.77	2101.80
407.96	2260.96
408.15	2326.49
408.34	2380.32
408.54	2389.69
408.73	2410.75
408.92	2342.88
409.11	2392.03
409.30	2286.70
409.49	2382.67
409.68	2377.98
409.87	2359.26
410.07	2427.14
410.26	2410.75
410.45	2576.93
410.64	2583.95
410.83	2579.27
411.02	2492.67
411.21	2813.32
411.40	2712.68
411.59	2787.58
411.78	2647.15
411.98	2832.05
412.17	2848.43
412.36	2801.62
412.55	2787.58
412.74	2792.26
412.93	2864.82
413.12	2745.45
413.31	2988.86
413.50	2935.03
413.69	2974.82
413.88	2998.23
414.07	3038.02
414.26	3012.27
414.45	3049.72
414.64	3098.87
414.83	3155.04
415.02	3075.46
415.22	3101.21
415.41	3192.49
415.60	3258.03
415.79	3337.60
415.98	3400.80
416.17	3403.14
416.36	3372.71
416.55	3183.13
416.74	3262.71
416.93	3328.24
417.12	3494.42
417.31	3447.61
417.50	3452.29
417.69	3634.85
417.88	3597.40
418.07	3578.68
418.26	3536.55
418.45	3578.68
418.64	3660.60
418.83	3691.02
419.02	3674.64
419.21	3702.73
419.39	3686.34
419.58	3669.96
419.77	3634.85
419.96	3845.50
420.15	3934.44
420.34	3786.99
420.53	3962.53
420.72	3866.56
420.91	3990.61
421.10	3808.05
421.29	4081.89
421.48	3981.25
421.67	3864.22
421.86	3836.14
422.05	3962.53
422.24	3908.69
422.43	3932.10
422.61	3880.61
422.80	4191.90
422.99	4051.47
423.18	4025.72
423.37	4121.68
423.56	4009.34
423.75	4035.08
423.94	4030.40
424.13	3794.01
424.32	3915.72
424.50	4222.33
424.69	4105.30
424.88	4112.32
425.07	4109.98
425.26	3967.21
425.45	4007.00
425.64	4105.30
425.83	3960.19
426.01	4269.14
426.20	3978.91
426.39	4095.94
426.58	4133.39
426.77	4124.02
426.96	4140.41
427.15	3997.64
427.33	4243.39
427.52	4212.96
427.71	4276.16
427.90	4245.73
428.09	4486.81
428.28	4306.59
428.46	4205.94
428.65	4264.46
428.84	4301.90
429.03	4388.50
429.22	4161.47
429.40	4273.82
429.59	4283.18
429.78	4035.08
429.97	4177.86
430.16	4102.96
430.34	4112.32
430.53	4250.41
430.72	4269.14
430.91	4477.44
431.10	4491.49
431.28	4542.98
431.47	4770.01
431.66	4784.06
431.85	4652.98
432.03	4676.39
432.22	4910.44
432.41	4905.76
432.60	4849.59
432.79	4833.21
432.97	4894.06
433.16	4961.94
433.35	4833.21
433.54	4894.06
433.72	4793.42
433.91	4727.88
434.10	4793.42
434.28	4840.23
434.47	4807.46
434.66	5053.22
434.85	5160.88
435.03	5111.73
435.22	5074.28
435.41	5282.59
435.59	5109.39
435.78	5263.86
435.97	5270.89
436.16	5235.78
436.34	5383.23
436.53	5305.99
436.72	5387.91
436.90	5322.38
437.09	5385.57
437.28	5301.31
437.46	5259.18
437.65	5427.70
437.84	5444.09
438.02	5242.80
438.21	5170.24
438.40	5146.84
438.58	5488.56
438.77	5682.82
438.96	5537.71
439.14	5603.24
439.33	5830.27
439.52	5930.92
439.70	5731.97
439.89	5785.80
440.08	5816.23
440.26	5860.70
440.45	5867.72
440.63	5886.45
440.82	6045.60
441.01	6045.60
441.19	6214.12
441.38	6223.48
441.57	6197.74
441.75	6516.05
441.94	6483.28
442.12	6569.88
442.31	6614.35
442.50	6579.25
442.68	6406.05
442.87	6457.54
443.05	6544.14
443.24	6707.98
443.43	6600.31
443.61	6633.08
443.80	6869.47
443.98	6443.49
444.17	6558.18
444.35	6817.98
444.54	6916.28
444.73	6827.34
444.91	6621.38
445.10	6539.46
445.28	6626.06
445.47	6630.74
445.65	6778.19
445.84	6689.25
446.02	6834.36
446.21	6932.67
446.39	6743.08
446.58	6885.86
446.77	6871.81
446.95	6829.68
447.14	6967.77
447.32	7016.93
447.51	6724.36
447.69	6965.43
447.88	6810.96
448.06	6923.30
448.25	7016.93
448.43	6892.88
448.62	6991.18
448.80	7089.48
448.99	7054.37
449.17	6984.16
449.36	6932.67
449.54	7105.87
449.73	7276.73
449.91	7349.28
450.10	7344.60
450.28	7623.12
450.46	7438.22
450.65	7339.92
450.83	7419.50
451.02	7337.58
451.20	7372.69
451.39	7651.21
451.57	7393.75
451.76	7431.20
451.94	7325.88
452.13	7351.62
452.31	7449.93
452.49	7321.20
452.68	7559.93
452.86	7499.08
453.05	7330.56
453.23	7693.34
453.42	7445.24
453.60	7588.02
453.78	7473.33
453.97	7506.10
454.15	7681.64
454.34	7529.50
454.52	7801.01
454.70	7665.25
454.89	7644.19
455.07	7875.90
455.26	7887.61
455.44	8149.75
455.62	8016.33
455.81	8124.00
455.99	8023.36
456.17	8203.58
456.36	7932.08
456.54	8215.28
456.73	8255.07
456.91	8416.57
457.09	8205.92
457.28	8484.44
457.46	8266.77
457.64	8341.67
457.83	8418.91
458.01	8348.69
458.19	8559.34
458.38	8379.12
458.56	8542.96
458.74	8446.99
458.93	8615.51
459.11	8599.13
459.29	8491.46
459.48	8493.80
459.66	8542.96
459.84	8758.28
460.03	8744.24
460.21	8800.41
460.39	8912.76
460.57	8861.27
460.76	8966.59
460.94	8774.67
461.12	8830.84
461.31	8805.10
461.49	8957.23
461.67	8760.63
461.85	9092.98
462.04	8994.68
462.22	9415.98
462.40	9118.73
462.59	9191.28
462.77	9280.22
462.95	9226.39
463.13	9303.63
463.32	9221.71
463.50	9298.95
463.68	9406.61
463.86	9399.59
464.05	9025.11
464.23	9137.45
464.41	9289.59
464.59	9057.87
464.78	9355.12
464.96	9240.44
465.14	9430.02
465.32	9364.48
465.50	9654.71
465.69	9638.33
465.87	9472.15
466.05	9352.78
466.23	9376.19
466.41	9425.34
466.60	9397.25
466.78	9423.00
466.96	9467.47
467.14	9640.67
467.32	9853.66
467.51	9741.31
467.69	9432.36
467.87	9687.48
468.05	9673.43
468.23	9830.25
468.41	9563.43
468.60	9593.86
468.78	9930.89
468.96	9848.97
469.14	9987.07
469.32	9926.21
469.50	9799.82
469.69	9792.80
469.87	10033.88
470.05	10174.31
470.23	10143.88
470.41	10153.24
470.59	10078.35
470.77	10003.45
470.95	10244.52
471.14	10211.76
471.32	10155.58
471.50	10562.84
471.68	10736.04
471.86	10633.05
472.04	10513.69
472.22	11002.86
472.40	10644.76
472.58	10714.97
472.77	10642.42
472.95	10832.00
473.13	11180.74
473.31	10946.69
473.49	10885.83
473.67	10995.84
473.85	11131.59
474.03	11293.08
474.21	11302.45
474.39	11468.62
474.57	11555.22
474.75	11487.35
474.93	11564.59
475.12	11569.27
475.30	11714.38
475.48	11548.20
475.66	11599.70
475.84	11517.78
476.02	11445.22
476.20	11686.29
476.38	12095.89
476.56	12276.11
476.74	12147.38
476.92	12180.15
477.10	12138.02
477.28	12430.59
477.46	12390.80
477.64	12720.81
477.82	12629.53
478.00	12980.61
478.18	12872.95
478.36	13205.30
478.54	12978.27
478.72	12774.64
478.90	13207.64
479.08	13467.44
479.26	13537.66
479.44	13535.32
479.62	13731.92
479.80	13685.11
479.98	13916.83
480.16	14033.85
480.34	14101.73
480.52	14057.26
480.70	14370.89
480.88	13973.00
481.06	14436.42
481.24	14232.80
481.41	14525.36
481.59	14766.44
481.77	14670.48
481.95	14644.73
482.13	15077.73
482.31	15019.22
482.49	15346.89
482.67	15374.98
482.85	15332.85
483.03	15494.35
483.21	15620.74
483.39	15934.37
483.57	15803.30
483.74	15978.84
483.92	16236.30
484.10	15925.00
484.28	16353.32
484.46	16449.28
484.64	16688.02
484.82	16458.65
485.00	16587.38
485.18	16901.01
485.35	16875.26
485.53	16568.65
485.71	16304.17
485.89	16905.69
486.07	16781.64
486.25	16842.50
486.43	17319.96
486.61	17455.72
486.78	17750.62
486.96	18024.47
487.14	18026.81
487.32	18082.98
487.50	18712.58
487.68	18628.32
487.85	18595.56
488.03	18913.87
488.21	19229.84
488.39	19480.28
488.57	19164.31
488.75	19370.27
488.92	19487.30
489.10	19901.58
489.28	19857.10
489.46	20032.65
489.64	19868.81
489.81	20774.60
489.99	20465.64
490.17	20695.02
490.35	20774.60
490.53	20769.91
490.70	21027.37
490.88	21179.51
491.06	21542.29
491.24	21291.85
491.41	21338.66
491.59	21411.22
491.77	21055.46
491.95	21834.86
492.13	21930.82
492.30	21970.61
492.48	22228.07
492.66	22218.71
492.84	22340.41
493.01	22579.15
493.19	22668.09
493.37	22787.46
493.54	22906.82
493.72	23152.58
493.90	23073.00
494.08	23264.92
494.25	23852.40
494.43	23894.53
494.61	23857.08
494.79	24088.79
494.96	24283.06
495.14	23962.40
495.32	24226.89
495.49	24360.30
495.67	24491.37
495.85	24264.33
496.02	24947.77
496.20	24823.72
496.38	25120.97
496.55	25127.99
496.73	25453.33
496.91	25181.82
497.09	26057.18
497.26	25675.68
497.44	25598.44
497.62	25750.57
497.79	26164.85
497.97	25764.62
498.14	25673.34
498.32	26253.79
498.50	26476.14
498.67	26710.19
498.85	26499.55
499.03	26691.47
499.20	26991.06
499.38	26869.35
499.56	27211.07
499.73	26960.63
499.91	27129.15
500.08	27000.42
500.26	26923.18
500.44	26969.99
500.61	27257.88
500.79	27138.51
500.97	27470.87
501.14	28144.94
501.32	27843.01
501.49	27676.83
501.67	27882.80
501.84	28023.23
502.02	28037.28
502.20	28371.97
502.37	28533.47
502.55	28315.80
502.72	28718.37
502.90	29179.46
503.07	28889.23
503.25	28383.68
503.43	28638.80
503.60	28985.19
503.78	28655.18
503.95	28975.83
504.13	29104.56
504.30	29507.13
504.48	29696.72
504.65	29668.63
504.83	29645.23
505.01	30092.27
505.18	29696.72
505.36	30036.09
505.53	30377.81
505.71	30632.93
505.88	30614.21
506.06	30045.46
506.23	30295.89
506.41	30087.59
506.58	30735.92
506.76	30630.59
506.93	30581.44
507.11	30602.50
507.28	30838.90
507.46	30595.48
507.63	30707.83
507.81	30672.72
507.98	31014.44
508.16	31000.40
508.33	31328.07
508.50	31344.45
508.68	31810.22
508.85	31896.82
509.03	31835.97
509.20	32175.34
509.38	31501.27
509.55	32259.60
509.73	32627.07
509.90	32301.73
510.08	32280.67
510.25	31983.42
510.42	32170.66
510.60	32467.91
510.77	32102.79
510.95	32875.16
511.12	32774.52
511.30	33024.96
511.47	33151.35
511.64	33312.84
511.82	33336.25
511.99	33046.02
512.17	33404.13
512.34	32947.72
512.51	33467.32
512.69	33596.05
512.86	33591.37
513.04	33305.82
513.21	33738.82
513.38	33654.56
513.56	33689.67
513.73	33502.43
513.90	33509.45
514.08	33991.60
514.25	33961.17
514.43	34183.52
514.60	33811.38
514.77	34157.78
514.95	34665.67
515.12	34089.90
515.29	34532.26
515.47	34707.80
515.64	34749.93
515.81	34698.44
515.99	34352.04
516.16	34773.34
516.33	34291.19
516.51	34232.68
516.68	33905.00
516.85	33975.22
517.03	34192.89
517.20	34321.62
517.37	35236.77
517.54	34960.58
517.72	34993.35
517.89	34377.79
518.06	34651.63
518.24	34658.65
518.41	35101.01
518.58	35274.21
518.75	35002.71
518.93	35232.08
519.10	35264.85
519.27	35681.47
519.45	36025.53
519.62	35924.88
519.79	36168.30
519.96	35915.52
520.14	36552.15
520.31	35770.41
520.48	36067.66
520.65	35985.74
520.83	36765.14
521.00	36634.06
521.17	36587.25
521.34	36645.77
521.52	36744.07
521.69	37127.92
521.86	37034.30
522.03	37003.87
522.20	37258.99
522.38	36830.67
522.55	37340.91
522.72	37427.51
522.89	37078.77
523.07	37689.65
523.24	37170.05
523.41	37846.46
523.58	37546.87
523.75	37935.40
523.92	37748.16
524.10	38541.60
524.27	38029.02
524.44	38033.71
524.61	38014.98
524.78	38293.50
524.96	38459.68
525.13	38642.24
525.30	39014.39
525.47	38693.74
525.64	38445.64
525.81	38548.62
525.98	38436.28
526.16	37996.26
526.33	37682.62
526.50	38267.76
526.67	37493.04
526.84	38162.43
527.01	37652.20
527.18	38557.99
527.36	39103.33
527.53	39028.43
527.70	39054.18
527.87	39089.29
528.04	38749.91
528.21	39161.84
528.38	39306.96
528.55	39838.26
528.72	39498.88
528.89	40215.08
529.07	39264.83
529.24	39761.02
529.41	39480.16
529.58	39332.70
529.75	39440.37
529.92	39959.97
530.09	39550.37
530.26	39922.52
530.43	40135.51
530.60	39662.72
530.77	39948.26
530.94	40039.54
531.11	40144.87
531.28	40294.66
531.46	40528.72
531.63	40149.55
531.80	40095.72
531.97	40268.92
532.14	40308.71
532.31	39861.66
532.48	40140.19
532.65	40395.31
532.82	40481.91
532.99	40835.33
533.16	40399.99
533.33	40879.80
533.50	41088.10
533.67	40610.64
533.84	40788.52
534.01	40500.63
534.18	40713.62
534.35	40985.12
534.52	40685.53
534.69	41193.43
534.86	40917.25
535.03	41385.35
535.20	41401.74
535.37	41677.92
535.54	41481.31
535.71	41301.09
535.88	41350.24
536.05	41612.38
536.22	41785.58
536.38	41617.07
536.55	41537.49
536.72	41483.66
536.89	41343.22
537.06	41715.37
537.23	41982.19
537.40	41900.27
537.57	42005.59
537.74	42143.69
537.91	42469.02
538.08	42387.10
538.25	41832.39
538.42	41902.61
538.59	41738.77
538.75	41848.78
538.92	42007.94
539.09	42232.63
539.26	42703.07
539.43	42454.98
539.60	42188.16
539.77	42017.30
539.94	41853.46
540.11	41975.17
540.28	42127.30
540.44	42263.05
540.61	42387.10
540.78	42307.52
540.95	42295.82
541.12	42220.92
541.29	42574.34
541.46	42691.37
541.62	42658.60
541.79	42789.67
541.96	42721.80
542.13	42796.70
542.30	43026.07
542.47	42871.59
542.63	42848.19
542.80	42752.23
542.97	42876.27
543.14	43313.95
543.31	43058.84
543.48	43248.42
543.64	43674.40
543.81	43871.00
543.98	43707.16
544.15	43129.05
544.32	43201.61
544.48	44105.06
544.65	43433.32
544.82	43604.18
544.99	43866.32
545.16	43433.32
545.32	43756.32
545.49	44282.94
545.66	44367.20
545.83	44259.53
546.00	44126.12
546.16	44376.56
546.33	43562.05
546.50	43615.88
546.67	43894.41
546.83	43728.23
547.00	44334.43
547.17	43454.39
547.34	43765.68
547.50	43990.37
547.67	44006.75
547.84	44346.13
548.00	44509.97
548.17	44472.52
548.34	44313.36
548.51	45006.16
548.67	44664.44
548.84	44502.95
549.01	44339.11
549.18	44622.31
549.34	44573.16
549.51	45031.91
549.68	44643.38
549.84	44959.35
550.01	44978.07
550.18	44442.09
550.34	44949.99
550.51	44875.09
550.68	44634.02
550.84	44334.43
551.01	44479.54
551.18	44762.75
551.34	44830.62
551.51	44830.62
551.68	45184.04
551.84	45123.19
552.01	45104.46
552.18	45071.70
552.34	44615.29
552.51	44992.12
552.68	44982.76
552.84	45102.12
553.01	45137.23
553.18	45067.02
553.34	44975.73
553.51	44940.63
553.67	45074.04
553.84	45675.55
554.01	45778.54
554.17	45289.37
554.34	45720.02
554.51	45797.26
554.67	45607.68
554.84	45881.52
555.00	45450.86
555.17	45022.54
555.33	45200.43
555.50	45200.43
555.67	45081.06
555.83	45787.90
556.00	45689.60
556.16	45769.18
556.33	45649.81
556.50	45881.52
556.66	45839.39
556.83	45471.93
556.99	45713.00
557.16	45621.72
557.32	45696.62
557.49	45954.08
557.65	45825.35
557.82	45933.01
557.98	45834.71
558.15	45518.74
558.32	46263.03
558.48	45951.74
558.65	45663.85
558.81	45673.21
558.98	45900.25
559.14	45502.35
559.31	45682.58
559.47	46021.95
559.64	45731.73
559.80	46157.70
559.97	46396.44
560.13	46064.08
560.30	45684.92
560.46	46422.19
560.63	46333.24
560.79	46190.47
560.96	46342.61
561.12	46157.70
561.29	46270.05
561.45	46574.32
561.61	46089.83
561.78	45815.99
561.94	45904.93
562.11	45717.68
562.27	46162.39
562.44	45965.78
562.60	46176.43
562.77	46583.68
562.93	46293.46
563.10	46431.55
563.26	46227.92
563.42	45989.19
563.59	46099.19
563.75	46026.63
563.92	46469.00
564.08	46298.14
564.24	46681.98
564.41	46380.06
564.57	46466.66
564.74	46546.23
564.90	46492.40
565.07	46136.64
565.23	46398.78
565.39	46272.39
565.56	46571.98
565.72	46071.10
565.88	46167.07
566.05	45949.40
566.21	46057.06
566.38	46417.50
566.54	46417.50
566.70	46646.88
566.87	47009.66
567.03	46330.90
567.19	46740.50
567.36	46333.24
567.52	46232.60
567.68	46890.29
567.85	46632.83
568.01	46731.14
568.17	46672.62
568.34	46618.79
568.50	46445.59
568.66	46623.47
568.83	46644.54
568.99	46225.58
569.15	46316.86
569.32	46354.31
569.48	46670.28
569.64	46546.23
569.81	46274.73
569.97	46349.63
570.13	46670.28
570.30	46389.42
570.46	46307.50
570.62	46274.73
570.78	46597.73
570.95	46436.23
571.11	46302.82
571.27	46223.24
571.43	46059.40
571.60	46518.15
571.76	46827.10
571.92	46515.81
572.09	46548.57
572.25	46766.24
572.41	47068.17
572.57	46866.89
572.74	46803.69
572.90	46707.73
573.06	46681.98
573.22	46487.72
573.38	46450.27
573.55	46274.73
573.71	47004.98
573.87	46747.52
574.03	46869.23
574.20	46958.17
574.36	46639.86
574.52	46749.86
574.68	46946.47
574.84	46291.12
575.01	47023.70
575.17	46335.59
575.33	46553.26
575.49	46501.76
575.65	46902.00
575.82	46576.66
575.98	46836.46
576.14	46609.43
576.30	46878.59
576.46	46752.20
576.62	46588.36
576.79	46806.03
576.95	46078.13
577.11	46457.29
577.27	46574.32
577.43	46834.12
577.59	46801.35
577.75	46178.77
577.92	46171.75
578.08	46536.87
578.24	46672.62
578.40	46635.17
578.56	46562.62
578.72	46478.36
578.88	47194.56
579.04	46696.03
579.21	46925.40
579.37	46649.22
579.53	46864.55
579.69	46501.76
579.85	46710.07
580.01	46693.69
580.17	47035.41
580.33	46637.51
580.49	46670.28
580.65	46887.95
580.82	46951.15
580.98	46630.49
581.14	46628.15
581.30	46536.87
581.46	47021.36
581.62	47138.39
581.78	46733.48
581.94	47264.78
582.10	47056.47
582.26	47114.98
582.42	46712.41
582.58	46838.80
582.74	46628.15
582.90	47248.39
583.06	46887.95
583.22	47189.88
583.38	47026.04
583.54	47185.20
583.70	47213.29
583.86	47002.64
584.02	46667.94
584.18	46686.67
584.34	46536.87
584.50	46756.88
584.66	47110.30
584.82	46700.71
584.98	47220.31
585.14	46871.57
585.30	46670.28
585.46	46866.89
585.62	46883.27
585.78	46689.01
585.94	46529.85
586.10	46974.55
586.26	46513.47
586.42	46852.84
586.58	47334.99
586.74	46799.01
586.90	46768.58
587.06	46749.86
587.22	46742.84
587.38	46920.72
587.54	47217.97
587.70	46913.70
587.86	46838.80
588.02	46618.79
588.18	46869.23
588.34	46953.49
588.49	46115.58
588.65	46122.60
588.81	46146.00
588.97	46391.76
589.13	46443.25
589.29	46600.07
589.45	46646.88
589.61	46902.00
589.77	46749.86
589.93	46784.97
