SpectraSuite Data File
++++++++++++++++++++++++++++++++++++
Date: Fri Oct 25 11:26:31 EDT 2013
User: price-jones
Dark Spectrum Present: No
Reference Spectrum Present: No
Number of Sampled Component Spectra: 1
Spectrometers: USB2+H05261
Integration Time (usec): 100000 (USB2+H05261)
Spectra Averaged: 1 (USB2+H05261)
Boxcar Smoothing: 0 (USB2+H05261)
Correct for Electrical Dark: No (USB2+H05261)
Strobe/Lamp Enabled: No (USB2+H05261)
Correct for Detector Non-linearity: No (USB2+H05261)
Correct for Stray Light: No (USB2+H05261)
Number of Pixels in Processed Spectrum: 2048
>>>>>Begin Processed Spectral Data<<<<<
365.73	198.95
365.92	198.95
366.12	198.95
366.32	152.13
366.52	154.48
366.72	203.63
366.91	107.66
367.11	145.11
367.31	98.30
367.51	156.82
367.70	138.09
367.90	145.11
368.10	112.35
368.30	205.97
368.49	220.01
368.69	142.77
368.89	133.41
369.09	166.18
369.28	140.43
369.48	175.54
369.68	203.63
369.87	217.67
370.07	215.33
370.27	191.92
370.47	360.44
370.66	599.18
370.86	667.05
371.06	683.44
371.25	723.23
371.45	627.26
371.65	695.14
371.84	725.57
372.04	617.90
372.24	676.41
372.44	718.54
372.63	755.99
372.83	770.04
373.03	716.20
373.22	760.67
373.42	727.91
373.62	802.80
373.81	690.46
374.01	699.82
374.21	835.57
374.40	866.00
374.60	856.64
374.79	887.06
374.99	814.51
375.19	847.27
375.38	809.83
375.58	919.83
375.78	842.59
375.97	943.24
376.17	910.47
376.37	798.12
376.56	856.64
376.76	781.74
376.95	880.04
377.15	903.45
377.35	830.89
377.54	959.62
377.74	851.96
377.93	924.51
378.13	875.36
378.33	971.32
378.52	896.43
378.72	1048.56
378.91	1041.54
379.11	983.02
379.31	926.85
379.50	931.53
379.70	917.49
379.89	952.60
380.09	973.66
380.28	992.39
380.48	997.07
380.68	1011.11
380.87	1022.81
381.07	1015.79
381.26	1029.84
381.46	1032.18
381.65	994.73
381.85	992.39
382.04	1020.47
382.24	1121.12
382.43	1062.60
382.63	1123.46
382.83	1153.88
383.02	1069.62
383.22	1172.61
383.41	1046.22
383.61	1200.69
383.80	1118.78
384.00	1146.86
384.19	1151.54
384.39	1123.46
384.58	1053.24
384.78	1125.80
384.97	1210.06
385.17	1174.95
385.36	1188.99
385.56	1149.20
385.75	1174.95
385.95	1181.97
386.14	1196.01
386.34	1172.61
386.53	1188.99
386.72	1214.74
386.92	1200.69
387.11	1242.82
387.31	1359.85
387.50	1289.64
387.70	1289.64
387.89	1327.08
388.09	1263.89
388.28	1256.87
388.48	1287.29
388.67	1266.23
388.86	1268.57
389.06	1322.40
389.25	1315.38
389.45	1359.85
389.64	1352.83
389.84	1411.34
390.03	1378.58
390.22	1378.58
390.42	1444.11
390.61	1411.34
390.81	1364.53
391.00	1434.75
391.19	1437.09
391.39	1493.26
391.58	1472.20
391.78	1401.98
391.97	1453.47
392.16	1394.96
392.36	1509.65
392.55	1469.86
392.75	1551.78
392.94	1490.92
393.13	1617.31
393.33	1626.67
393.52	1652.42
393.71	1659.44
393.91	1598.59
394.10	1598.59
394.29	1593.90
394.49	1664.12
394.68	1633.69
394.88	1657.10
395.07	1692.21
395.26	1706.25
395.46	1603.27
395.65	1748.38
395.84	1750.72
396.04	1715.61
396.23	1771.79
396.42	1701.57
396.62	1724.97
396.81	1792.85
397.00	1764.76
397.19	1799.87
397.39	1708.59
397.58	1863.07
397.77	1865.41
397.97	1867.75
398.16	1816.26
398.35	1970.73
398.55	1823.28
398.74	1842.00
398.93	1956.69
399.12	1975.41
399.32	1895.83
399.51	2043.29
399.70	2045.63
399.90	1963.71
400.09	2148.61
400.28	2047.97
400.47	2071.37
400.67	2083.08
400.86	2125.21
401.05	2054.99
401.24	2036.27
401.44	2087.76
401.63	2232.87
401.82	2134.57
402.01	2190.74
402.21	2165.00
402.40	2200.10
402.59	2146.27
402.78	2289.04
402.97	2307.77
403.17	2279.68
403.36	2267.98
403.55	2415.43
403.74	2422.45
403.93	2249.25
404.13	2429.48
404.32	2406.07
404.51	2373.30
404.70	2523.10
404.89	2450.54
405.09	2422.45
405.28	2530.12
405.47	2534.80
405.66	2558.21
405.85	2534.80
406.05	2562.89
406.24	2459.90
406.43	2649.49
406.62	2628.42
406.81	2651.83
407.00	2516.08
407.20	2562.89
407.39	2644.81
407.58	2771.19
407.77	2630.76
407.96	2658.85
408.15	2731.41
408.34	2801.62
408.54	2682.25
408.73	2780.56
408.92	2836.73
409.11	2967.80
409.30	2920.99
409.49	3007.59
409.68	2937.37
409.87	2953.76
410.07	3054.40
410.26	2974.82
410.45	2995.89
410.64	3028.65
410.83	3131.64
411.02	3293.13
411.21	3117.59
411.40	3133.98
411.59	3105.89
411.78	3197.17
411.98	3056.74
412.17	3302.50
412.36	3316.54
412.55	3337.60
412.74	3506.12
412.93	3372.71
413.12	3279.09
413.31	3527.19
413.50	3510.80
413.69	3424.20
413.88	3777.62
414.07	3672.30
414.26	3583.36
414.45	3728.47
414.64	3730.81
414.83	3716.77
415.02	3763.58
415.22	3854.86
415.41	3859.54
415.60	3882.95
415.79	3880.61
415.98	3922.74
416.17	3995.29
416.36	4138.07
416.55	3960.19
416.74	4173.18
416.93	4011.68
417.12	4011.68
417.31	4180.20
417.50	4198.92
417.69	4414.25
417.88	4205.94
418.07	4287.86
418.26	4339.35
418.45	4264.46
418.64	4596.81
418.83	4493.83
419.02	4566.39
419.21	4491.49
419.39	4447.02
419.58	4545.32
419.77	4498.51
419.96	4823.84
420.15	4564.04
420.34	4423.61
420.53	4741.93
420.72	4821.50
420.91	4765.33
421.10	4751.29
421.29	4938.53
421.48	4880.02
421.67	4858.95
421.86	5013.43
422.05	5025.13
422.24	4772.35
422.43	4919.81
422.61	4870.65
422.80	4908.10
422.99	4992.36
423.18	4999.38
423.37	5163.22
423.56	4919.81
423.75	4919.81
423.94	4891.72
424.13	4627.24
424.32	4755.97
424.50	4994.70
424.69	5020.45
424.88	5008.75
425.07	4865.97
425.26	4774.69
425.45	4933.85
425.64	4889.38
425.83	5270.89
426.01	4975.98
426.20	4968.96
426.39	5284.93
426.58	5198.33
426.77	5142.16
426.96	5170.24
427.15	5280.25
427.33	5198.33
427.52	5139.82
427.71	5277.91
427.90	5195.99
428.09	5387.91
428.28	5364.51
428.46	5453.45
428.65	5479.19
428.84	5542.39
429.03	5432.38
429.22	5411.32
429.40	5359.83
429.59	5596.22
429.78	5212.37
429.97	5195.99
430.16	5479.19
430.34	5593.88
430.53	5565.79
430.72	5708.57
430.91	5603.24
431.10	5666.44
431.28	5710.91
431.47	5813.89
431.66	6031.56
431.85	5797.51
432.03	5898.15
432.22	6038.58
432.41	5771.76
432.60	5933.26
432.79	5916.87
432.97	6052.63
433.16	6024.54
433.35	5820.91
433.54	6064.33
433.72	6038.58
433.91	6204.76
434.10	6148.59
434.28	5907.51
434.47	6129.86
434.66	6286.68
434.85	6448.18
435.03	6267.95
435.22	6253.91
435.41	6612.01
435.59	6263.27
435.78	6424.77
435.97	6530.09
436.16	6441.15
436.34	6429.45
436.53	6551.16
436.72	6761.81
436.90	6429.45
437.09	6789.89
437.28	6502.01
437.46	6689.25
437.65	6719.68
437.84	6787.55
438.02	6803.94
438.21	6832.02
438.40	6635.42
438.58	7087.14
438.77	7075.44
438.96	6820.32
439.14	7122.25
439.33	7049.69
439.52	7267.36
439.70	7183.10
439.89	7325.88
440.08	7459.29
440.26	7426.52
440.45	7349.28
440.63	7541.21
440.82	7768.24
441.01	7339.92
441.19	7557.59
441.38	7702.70
441.57	7894.63
441.75	7765.90
441.94	7927.39
442.12	8030.38
442.31	8126.34
442.50	8044.42
442.68	7936.76
442.87	8133.36
443.05	8226.98
443.24	8369.76
443.43	8315.92
443.61	8367.42
443.80	8510.19
443.98	8018.68
444.17	8021.02
444.35	8304.22
444.54	8477.42
444.73	8482.10
444.91	8241.03
445.10	8365.07
445.28	8407.20
445.47	8287.84
445.65	8393.16
445.84	8592.11
446.02	8664.66
446.21	8390.82
446.39	8397.84
446.58	8493.80
446.77	8531.25
446.95	8491.46
447.14	8456.36
447.32	8671.68
447.51	8683.39
447.69	8580.40
447.88	8573.38
448.06	8578.06
448.25	8585.08
448.43	8854.25
448.62	8713.81
448.80	8542.96
448.99	8753.60
449.17	8802.75
449.36	8744.24
449.54	8627.21
449.73	8784.03
449.91	8973.61
450.10	8990.00
450.28	9022.77
450.46	9179.58
450.65	9202.99
450.83	9277.88
451.02	9083.62
451.20	9170.22
451.39	9170.22
451.57	9291.93
451.76	9132.77
451.94	9305.97
452.13	9483.85
452.31	9446.40
452.49	9266.18
452.68	9488.53
452.86	9378.53
453.05	9336.40
453.23	9591.52
453.42	9336.40
453.60	9605.56
453.78	9603.22
453.97	9652.37
454.15	9413.63
454.34	9610.24
454.52	9743.65
454.70	9654.71
454.89	9879.40
455.07	9708.54
455.26	9996.43
455.44	10134.52
455.62	9961.32
455.81	10080.69
455.99	10076.01
456.17	10122.82
456.36	10319.42
456.54	10242.18
456.73	10296.02
456.91	10553.48
457.09	10399.00
457.28	10572.20
457.46	10237.50
457.64	10637.73
457.83	10597.95
458.01	10349.85
458.19	10850.72
458.38	10827.32
458.56	11021.58
458.74	10401.34
458.93	10841.36
459.11	10640.08
459.29	10923.28
459.48	10832.00
459.66	10843.70
459.84	10949.03
460.03	11138.61
460.21	11159.67
460.39	10874.13
460.57	11080.10
460.76	11346.92
460.94	11290.74
461.12	11190.10
461.31	11225.21
461.49	11297.77
461.67	11225.21
461.85	11597.35
462.04	11309.47
462.22	11632.46
462.40	11620.76
462.59	11768.21
462.77	11461.60
462.95	11669.91
463.13	11740.13
463.32	11688.64
463.50	11817.36
463.68	11667.57
463.86	11880.56
464.05	11641.82
464.23	11740.13
464.41	11978.86
464.59	11712.04
464.78	12189.51
464.96	12294.83
465.14	11950.78
465.32	12229.30
465.50	12301.86
465.69	12334.62
465.87	12264.41
466.05	12313.56
466.23	12418.88
466.41	12287.81
466.60	12692.73
466.78	12264.41
466.96	12156.74
467.14	12416.54
467.32	12662.30
467.51	12468.03
467.69	12233.98
467.87	12409.52
468.05	12596.76
468.23	12528.89
468.41	12856.56
468.60	12746.56
468.78	12772.30
468.96	12482.08
469.14	12709.11
469.32	12877.63
469.50	12709.11
469.69	13275.52
469.87	13116.36
470.05	13097.64
470.23	13366.80
470.41	12933.80
470.59	13371.48
470.77	13277.86
470.95	13624.26
471.14	13614.90
471.32	13179.56
471.50	13912.14
471.68	13687.45
471.86	13717.88
472.04	13495.53
472.22	14080.66
472.40	13563.40
472.58	13895.76
472.77	14249.18
472.95	14335.78
473.13	14408.34
473.31	14211.73
473.49	14434.08
473.67	14054.92
473.85	14321.74
474.03	14827.29
474.21	14677.50
474.39	14965.39
474.57	14951.34
474.75	15047.30
474.93	15325.83
475.12	14778.14
475.30	15084.75
475.48	15110.50
475.66	15405.41
475.84	15227.53
476.02	15370.30
476.20	15372.64
476.38	15700.31
476.56	16243.32
476.74	15990.54
476.92	15990.54
477.10	15885.22
477.28	16037.35
477.46	16414.18
477.64	16341.62
477.82	16835.47
478.00	16996.97
478.18	16807.39
478.36	17085.91
478.54	17018.04
478.72	17439.33
478.90	17460.40
479.08	17547.00
479.26	18001.06
479.44	17628.92
479.62	17790.41
479.80	17921.48
479.98	18324.05
480.16	18731.31
480.34	18764.07
480.52	18911.53
480.70	18672.79
480.88	18476.19
481.06	19000.47
481.24	18808.54
481.41	19047.28
481.59	19009.83
481.77	19311.76
481.95	19693.27
482.13	19871.15
482.31	19754.12
482.49	20170.74
482.67	20278.40
482.85	20247.97
483.03	20889.28
483.21	21198.23
483.39	21088.23
483.57	20971.20
483.74	21245.04
483.92	21322.28
484.10	21242.70
484.28	21912.10
484.46	21846.56
484.64	22356.80
484.82	22097.00
485.00	22338.07
485.18	22750.01
485.35	22857.67
485.53	22761.71
485.71	22977.04
485.89	23431.10
486.07	23194.71
486.25	23630.05
486.43	23737.71
486.61	23931.98
486.78	24250.29
486.96	24329.87
487.14	24720.74
487.32	24732.44
487.50	25010.96
487.68	25235.66
487.85	25252.04
488.03	25556.31
488.21	25757.60
488.39	25832.49
488.57	26457.42
488.75	26642.32
488.92	26574.44
489.10	26581.46
489.28	27185.32
489.46	26843.60
489.64	27040.21
489.81	27917.91
489.99	28013.87
490.17	27946.00
490.35	28556.88
490.53	28233.88
490.70	28533.47
490.88	28479.64
491.06	28968.81
491.24	28989.88
491.41	29216.91
491.59	29596.07
491.77	29692.04
491.95	29853.53
492.13	29837.15
492.30	30249.08
492.48	30394.20
492.66	30204.61
492.84	30649.32
493.01	31033.16
493.19	30866.98
493.37	31101.04
493.54	31061.25
493.72	31487.23
493.90	31828.95
494.08	32119.17
494.25	32109.81
494.43	32084.06
494.61	32587.28
494.79	32699.62
494.96	32783.88
495.14	33177.09
495.32	33291.78
495.49	33237.95
495.67	33469.66
495.85	34012.66
496.02	33593.71
496.20	34117.99
496.38	34153.10
496.55	33961.17
496.73	35049.52
496.91	34419.92
497.09	35204.00
497.26	35278.89
497.44	34930.16
497.62	35529.33
497.79	36161.28
497.97	35414.65
498.14	36290.01
498.32	36299.37
498.50	36395.33
498.67	36734.71
498.85	37050.68
499.03	36999.19
499.20	36809.61
499.38	37294.10
499.56	37624.11
499.73	37366.65
499.91	37757.52
500.08	37598.37
500.26	37521.13
500.44	37778.59
500.61	37799.65
500.79	37867.53
500.97	38387.13
501.14	38525.22
501.32	38689.06
501.49	38682.03
501.67	38895.02
501.84	38859.91
502.02	39051.84
502.20	39264.83
502.37	39653.36
502.55	39597.18
502.72	39636.97
502.90	39786.77
503.07	39332.70
503.25	40121.46
503.43	40470.20
503.60	40182.32
503.78	40449.14
503.95	40671.49
504.13	40755.75
504.30	40669.15
504.48	41076.40
504.65	40739.36
504.83	41078.74
505.01	41783.24
505.18	40847.03
505.36	41876.86
505.53	41715.37
505.71	41890.91
505.88	41804.31
506.06	41635.79
506.23	41750.48
506.41	41876.86
506.58	42061.77
506.76	42401.14
506.93	42447.96
507.11	42263.05
507.28	42782.65
507.46	42962.87
507.63	42794.36
507.81	43634.61
507.98	43360.76
508.16	43136.07
508.33	43433.32
508.50	43456.73
508.68	43723.55
508.85	44247.83
509.03	43852.28
509.20	44177.61
509.38	44624.65
509.55	44399.96
509.73	44821.26
509.90	44938.29
510.08	44355.49
510.25	44921.90
510.42	44910.20
510.60	44968.71
510.77	45717.68
510.95	45764.49
511.12	45315.11
511.30	45296.39
511.47	45570.23
511.64	45450.86
511.82	46356.65
511.99	45794.92
512.17	46323.88
512.34	46197.49
512.51	46431.55
512.69	46892.63
512.86	46204.52
513.04	47021.36
513.21	46129.62
513.38	47079.88
513.56	47002.64
513.73	46913.70
513.90	47061.15
514.08	47140.73
514.25	47515.22
514.43	47767.99
514.60	47168.82
514.77	47414.57
514.95	47660.33
515.12	48046.52
515.29	48245.46
515.47	47920.13
515.64	48243.12
515.81	48325.04
515.99	48594.20
516.16	48500.58
516.33	48694.85
516.51	48868.05
516.68	48676.12
516.85	48641.01
517.03	49130.19
517.20	49130.19
517.37	48910.17
517.54	49268.28
517.72	48971.03
517.89	49481.27
518.06	49389.98
518.24	49326.79
518.41	49242.53
518.58	49406.37
518.75	49509.35
518.93	50024.27
519.10	49677.87
519.27	50122.57
519.45	49799.58
519.62	50101.51
519.79	50195.13
519.96	49982.14
520.14	50628.13
520.31	50412.80
520.48	50483.01
520.65	50199.81
520.83	50583.66
521.00	50813.03
521.17	50777.92
521.34	50946.44
521.52	50806.01
521.69	51093.89
521.86	51035.38
522.03	51224.96
522.20	51356.03
522.38	51470.72
522.55	51426.25
522.72	51430.93
522.89	51564.34
523.07	51812.44
523.24	51723.50
523.41	51889.68
523.58	51442.63
523.75	52023.09
523.92	51987.98
524.10	51969.26
524.27	52121.39
524.44	52205.65
524.61	52217.35
524.78	52399.91
524.96	52369.49
525.13	52294.59
525.30	52374.17
525.47	52598.86
525.64	52439.70
525.81	52748.65
525.98	52823.55
526.16	52523.96
526.33	52837.59
526.50	53118.46
526.67	53031.86
526.84	53148.88
527.01	53160.59
527.18	53027.18
527.36	52942.92
527.53	53188.67
527.70	53453.15
527.87	53462.52
528.04	53429.75
528.21	53532.73
528.38	53333.79
528.55	53914.24
528.72	53333.79
528.89	53649.76
529.07	53586.57
529.24	53827.64
529.41	53862.75
529.58	53790.19
529.75	53661.46
529.92	53876.79
530.09	53616.99
530.26	54003.18
530.43	54136.59
530.60	54019.56
530.77	54157.66
530.94	54429.16
531.11	54103.82
531.28	54321.49
531.46	54206.81
531.63	54197.44
531.80	54141.27
531.97	54398.73
532.14	54749.81
532.31	54527.46
532.48	54698.32
532.65	54688.96
532.82	54527.46
532.99	54930.03
533.16	54656.19
533.33	55084.51
533.50	54873.86
533.67	54972.16
533.84	54906.63
534.01	54958.12
534.18	54892.58
534.35	55451.97
534.52	55051.74
534.69	55140.68
534.86	55356.01
535.03	55140.68
535.20	55576.02
535.37	55466.02
535.54	55789.01
535.71	55676.66
535.88	55632.19
536.05	55550.27
536.22	55746.88
536.38	55547.93
536.55	55751.56
536.72	55714.11
536.89	55854.54
537.06	55789.01
537.23	55781.99
537.40	55484.74
537.57	55828.80
537.74	55922.42
537.91	55852.20
538.08	56128.39
538.25	55999.66
538.42	56182.22
538.59	56182.22
538.75	56006.68
538.92	56119.02
539.09	56353.08
539.26	56456.06
539.43	56575.43
539.60	56332.01
539.77	56343.72
539.94	56446.70
540.11	56404.57
540.28	56477.13
540.44	56512.23
540.61	56582.45
540.78	56481.81
540.95	56566.07
541.12	56638.62
541.29	56601.18
541.46	56788.42
541.62	56809.48
541.79	56963.96
541.96	56451.38
542.13	56666.71
542.30	56795.44
542.47	56828.21
542.63	56985.02
542.80	57013.11
542.97	57183.97
543.14	57420.36
543.31	57258.87
543.48	57284.61
543.64	57701.23
543.81	57792.51
543.98	57420.36
544.15	57506.96
544.32	57631.01
544.48	57698.89
544.65	57319.72
544.82	57769.10
544.99	57359.51
545.16	57642.71
545.32	57455.47
545.49	57881.45
545.66	57841.66
545.83	57825.28
546.00	57804.21
546.16	57776.12
546.33	57748.04
546.50	57521.01
546.67	58106.14
546.83	57509.30
547.00	57834.64
547.17	57783.15
547.34	57961.03
547.50	57977.41
547.67	58218.49
547.84	58192.74
548.00	58195.08
548.17	58478.28
548.34	58176.36
548.51	58492.33
548.67	58258.27
548.84	58351.90
549.01	58127.20
549.18	58244.23
549.34	58333.17
549.51	58286.36
549.68	58440.84
549.84	58330.83
550.01	58525.10
550.18	58377.64
550.34	58702.98
550.51	58677.23
550.68	58499.35
550.84	58302.74
551.01	58576.59
551.18	58604.67
551.34	58410.41
551.51	58789.58
551.68	58667.87
551.84	58773.19
552.01	58607.01
552.18	58960.44
552.34	58597.65
552.51	58684.25
552.68	58592.97
552.84	58810.64
553.01	59004.91
553.18	58927.67
553.34	59229.60
553.51	58951.07
553.67	59016.61
553.84	58934.69
554.01	59126.61
554.17	59110.23
554.34	59281.09
554.51	59025.97
554.67	59358.33
554.84	59250.66
555.00	59154.70
555.17	59185.13
555.33	59121.93
555.50	58995.54
555.67	59063.42
555.83	59192.15
556.00	59297.47
556.16	59370.03
556.33	59332.58
556.50	59178.10
556.66	59405.14
556.83	59213.21
556.99	59491.74
557.16	59632.17
557.32	59566.63
557.49	59718.77
557.65	59526.84
557.82	59306.83
557.98	59580.68
558.15	59501.10
558.32	59763.24
558.48	59409.82
558.65	59611.10
558.81	59793.67
558.98	59671.96
559.14	59728.13
559.31	59636.85
559.47	59669.62
559.64	59835.80
559.80	59819.41
559.97	59941.12
560.13	59482.37
560.30	59896.65
560.46	59620.47
560.63	59877.93
560.79	59906.01
560.96	59962.18
561.12	60074.53
561.29	59983.25
561.45	60051.12
561.61	59994.95
561.78	59908.35
561.94	59985.59
562.11	59882.61
562.27	59917.71
562.44	59952.82
562.60	60280.50
562.77	60121.34
562.93	59941.12
563.10	60313.26
563.26	59992.61
563.42	60310.92
563.59	60144.75
563.75	60111.98
563.92	60140.07
564.08	60067.51
564.24	60350.71
564.41	60163.47
564.57	60205.60
564.74	59943.46
564.90	60292.20
565.07	60282.84
565.23	60193.90
565.39	60285.18
565.56	60453.70
565.72	60273.48
565.88	60135.38
566.05	60184.54
566.21	60116.66
566.38	60577.75
566.54	60348.37
566.70	60140.07
566.87	60526.25
567.03	60301.56
567.19	60348.37
567.36	60285.18
567.52	60395.18
567.68	60591.79
567.85	60519.23
568.01	60418.59
568.17	60547.32
568.34	60544.98
568.50	60566.04
568.66	60465.40
568.83	60552.00
568.99	60474.76
569.15	60486.46
569.32	60390.50
569.48	60561.36
569.64	60575.40
569.81	60540.30
569.97	60418.59
570.13	60645.62
570.30	60425.61
570.46	60547.32
570.62	60750.94
570.78	60596.47
570.95	60804.78
571.11	60739.24
571.27	60481.78
571.43	60762.65
571.60	60711.16
571.76	60874.99
571.92	60685.41
572.09	60748.60
572.25	60678.39
572.41	60764.99
572.57	60556.68
572.74	60973.30
572.90	60659.66
573.06	60823.50
573.22	60764.99
573.38	60872.65
573.55	60664.35
573.71	60910.10
573.87	60708.82
574.03	60673.71
574.20	60713.50
574.36	60638.60
574.52	60874.99
574.68	60896.06
574.84	60659.66
575.01	60814.14
575.17	60874.99
575.33	60889.04
575.49	60673.71
575.65	60816.48
575.82	61064.58
575.98	60931.17
576.14	61205.01
576.30	60783.71
576.46	60893.72
576.62	60879.67
576.79	60739.24
576.95	60741.58
577.11	60863.29
577.27	60889.04
577.43	61006.06
577.59	60874.99
577.75	60673.71
577.92	60720.52
578.08	60832.86
578.24	60949.89
578.40	61214.37
578.56	60954.57
578.72	61123.09
578.88	61139.47
579.04	61090.32
579.21	61146.50
579.37	60989.68
579.53	60931.17
579.69	60816.48
579.85	60849.25
580.01	60856.27
580.17	60769.67
580.33	61027.13
580.49	60992.02
580.65	60982.66
580.82	61015.43
580.98	60961.59
581.14	60818.82
581.30	61319.70
581.46	60832.86
581.62	60903.08
581.78	60898.40
581.94	61141.81
582.10	60933.51
582.26	60968.61
582.42	60949.89
582.58	61034.15
582.74	60933.51
582.90	61024.79
583.06	60975.64
583.22	60968.61
583.38	61066.92
583.54	60863.29
583.70	61038.83
583.86	61104.37
584.02	60992.02
584.18	61371.19
584.34	61174.58
584.50	61066.92
584.66	61006.06
584.82	60748.60
584.98	61221.39
585.14	61249.48
585.30	61031.81
585.46	61441.40
585.62	61055.21
585.78	61240.12
585.94	61146.50
586.10	60999.04
586.26	61237.78
586.42	61338.42
586.58	61111.39
586.74	61333.74
586.90	61113.73
587.06	61024.79
587.22	61258.84
587.38	61329.06
587.54	61312.67
587.70	61249.48
587.86	61228.41
588.02	61186.28
588.18	61186.28
588.34	61197.99
