SpectraSuite Data File
++++++++++++++++++++++++++++++++++++
Date: Fri Oct 25 11:23:01 EDT 2013
User: price-jones
Dark Spectrum Present: No
Reference Spectrum Present: No
Number of Sampled Component Spectra: 1
Spectrometers: USB2+H05261
Integration Time (usec): 100000 (USB2+H05261)
Spectra Averaged: 1 (USB2+H05261)
Boxcar Smoothing: 0 (USB2+H05261)
Correct for Electrical Dark: No (USB2+H05261)
Strobe/Lamp Enabled: No (USB2+H05261)
Correct for Detector Non-linearity: No (USB2+H05261)
Correct for Stray Light: No (USB2+H05261)
Number of Pixels in Processed Spectrum: 2048
>>>>>Begin Processed Spectral Data<<<<<
365.73	238.73
365.92	238.73
366.12	238.73
366.32	182.56
366.52	119.37
366.72	147.45
366.91	128.73
367.11	135.75
367.31	56.17
367.51	110.01
367.70	117.03
367.90	126.39
368.10	187.24
368.30	145.11
368.49	196.60
368.69	184.90
368.89	152.13
369.09	159.16
369.28	161.50
369.48	191.92
369.68	194.26
369.87	194.26
370.07	149.79
370.27	184.90
370.47	271.50
370.66	552.37
370.86	629.60
371.06	631.94
371.25	685.78
371.45	718.54
371.65	667.05
371.84	720.88
372.04	685.78
372.24	695.14
372.44	704.50
372.63	772.38
372.83	751.31
373.03	732.59
373.22	753.65
373.42	753.65
373.62	732.59
373.81	821.53
374.01	781.74
374.21	828.55
374.40	753.65
374.60	774.72
374.79	812.17
374.99	758.33
375.19	873.02
375.38	891.74
375.58	844.93
375.78	847.27
375.97	964.30
376.17	880.04
376.37	980.68
376.56	957.28
376.76	851.96
376.95	924.51
377.15	884.72
377.35	861.32
377.54	924.51
377.74	870.68
377.93	945.58
378.13	866.00
378.33	961.96
378.52	875.36
378.72	968.98
378.91	1025.15
379.11	997.07
379.31	844.93
379.50	959.62
379.70	945.58
379.89	1013.45
380.09	905.79
380.28	950.26
380.48	971.32
380.68	931.53
380.87	945.58
381.07	1083.67
381.26	1036.86
381.46	987.71
381.65	1060.26
381.85	938.55
382.04	976.00
382.24	1102.39
382.43	1050.90
382.63	952.60
382.83	1011.11
383.02	1097.71
383.22	1104.73
383.41	1006.43
383.61	1125.80
383.80	1156.22
384.00	1158.57
384.19	1100.05
384.39	1160.91
384.58	1177.29
384.78	1156.22
384.97	1210.06
385.17	1100.05
385.36	1149.20
385.56	1186.65
385.75	1242.82
385.95	1219.42
386.14	1238.14
386.34	1200.69
386.53	1226.44
386.72	1196.01
386.92	1294.32
387.11	1263.89
387.31	1268.57
387.50	1261.55
387.70	1231.12
387.89	1310.70
388.09	1284.95
388.28	1277.93
388.48	1301.34
388.67	1284.95
388.86	1334.11
389.06	1341.13
389.25	1378.58
389.45	1341.13
389.64	1359.85
389.84	1334.11
390.03	1392.62
390.22	1331.76
390.42	1423.05
390.61	1289.64
390.81	1364.53
391.00	1423.05
391.19	1544.75
391.39	1462.83
391.58	1558.80
391.78	1448.79
391.97	1474.54
392.16	1504.96
392.36	1444.11
392.55	1451.13
392.75	1528.37
392.94	1521.35
393.13	1507.30
393.33	1472.20
393.52	1614.97
393.71	1547.09
393.91	1673.48
394.10	1575.18
394.29	1526.03
394.49	1582.20
394.68	1619.65
394.88	1657.10
395.07	1645.40
395.26	1680.50
395.46	1640.72
395.65	1689.87
395.84	1715.61
396.04	1750.72
396.23	1825.62
396.42	1795.19
396.62	1806.89
396.81	1818.60
397.00	1834.98
397.19	1741.36
397.39	1736.68
397.58	1860.73
397.77	1834.98
397.97	1907.54
398.16	1909.88
398.35	2001.16
398.55	1750.72
398.74	1891.15
398.93	1956.69
399.12	1968.39
399.32	1956.69
399.51	1919.24
399.70	2005.84
399.90	1912.22
400.09	1935.62
400.28	2104.14
400.47	2045.63
400.67	2169.68
400.86	2059.67
401.05	2019.88
401.24	2022.22
401.44	2176.70
401.63	2099.46
401.82	2122.87
402.01	2115.84
402.21	2179.04
402.40	2249.25
402.59	2183.72
402.78	2169.68
402.97	2265.64
403.17	2373.30
403.36	2251.60
403.55	2340.54
403.74	2370.96
403.93	2354.58
404.13	2345.22
404.32	2333.51
404.51	2310.11
404.70	2354.58
404.89	2392.03
405.09	2492.67
405.28	2363.94
405.47	2420.11
405.66	2518.42
405.85	2551.18
406.05	2583.95
406.24	2663.53
406.43	2684.59
406.62	2581.61
406.81	2693.96
407.00	2572.25
407.20	2609.70
407.39	2527.78
407.58	2733.75
407.77	2684.59
407.96	2810.98
408.15	2761.83
408.34	2684.59
408.54	2710.34
408.73	2759.49
408.92	2841.41
409.11	2813.32
409.30	2951.42
409.49	2850.77
409.68	2949.08
409.87	2916.31
410.07	3087.17
410.26	3059.08
410.45	3012.27
410.64	3122.27
410.83	3150.36
411.02	3094.19
411.21	3337.60
411.40	3213.56
411.59	3288.45
411.78	3232.28
411.98	3206.53
412.17	3192.49
412.36	3377.39
412.55	3356.33
412.74	3452.29
412.93	3396.12
413.12	3391.44
413.31	3627.83
413.50	3559.95
413.69	3538.89
413.88	3672.30
414.07	3740.18
414.26	3651.24
414.45	3543.57
414.64	3735.50
414.83	3644.21
415.02	3812.73
415.22	3932.10
415.41	3878.27
415.60	3896.99
415.79	3918.06
415.98	3971.89
416.17	3999.98
416.36	4086.58
416.55	4035.08
416.74	4109.98
416.93	3974.23
417.12	3948.48
417.31	4189.56
417.50	4194.24
417.69	4362.76
417.88	4283.18
418.07	4329.99
418.26	4358.08
418.45	4273.82
418.64	4484.47
418.83	4475.10
419.02	4500.85
419.21	4617.88
419.39	4414.25
419.58	4418.93
419.77	4524.26
419.96	4629.58
420.15	4582.77
420.34	4486.81
420.53	4650.64
420.72	4791.08
420.91	4674.05
421.10	4620.22
421.29	4781.71
421.48	4681.07
421.67	4903.42
421.86	4681.07
422.05	4943.21
422.24	4751.29
422.43	4784.06
422.61	4816.82
422.80	4997.04
422.99	4975.98
423.18	5125.77
423.37	5151.52
423.56	4835.55
423.75	4973.64
423.94	4828.53
424.13	4746.61
424.32	4795.76
424.50	5020.45
424.69	5104.71
424.88	5221.74
425.07	5011.09
425.26	5048.54
425.45	4968.96
425.64	4863.63
425.83	5111.73
426.01	5263.86
426.20	5027.47
426.39	5280.25
426.58	5210.03
426.77	5095.35
426.96	5221.74
427.15	5212.37
427.33	5219.39
427.52	5118.75
427.71	5210.03
427.90	5320.04
428.09	5355.15
428.28	5392.59
428.46	5320.04
428.65	5317.70
428.84	5596.22
429.03	5490.90
429.22	5378.55
429.40	5462.81
429.59	5430.04
429.78	5439.40
429.97	5343.44
430.16	5460.47
430.34	5668.78
430.53	5708.57
430.72	5605.58
430.91	5589.20
431.10	5867.72
431.28	5867.72
431.47	5870.06
431.66	5872.40
431.85	5832.62
432.03	6038.58
432.22	5804.53
432.41	5937.94
432.60	6108.80
432.79	5844.32
432.97	6106.46
433.16	5930.92
433.35	5961.34
433.54	6022.20
433.72	6289.02
433.91	6106.46
434.10	6195.40
434.28	6211.78
434.47	6143.91
434.66	6441.15
434.85	6389.66
435.03	6305.40
435.22	6263.27
435.41	6441.15
435.59	6513.71
435.78	6469.24
435.97	6551.16
436.16	6691.59
436.34	6516.05
436.53	6569.88
436.72	6572.22
436.90	6616.69
437.09	6530.09
437.28	6621.38
437.46	6604.99
437.65	6724.36
437.84	6689.25
438.02	6684.57
438.21	6759.47
438.40	6691.59
438.58	6932.67
438.77	6995.86
438.96	7023.95
439.14	7063.74
439.33	7222.89
439.52	7133.95
439.70	7148.00
439.89	7318.86
440.08	7501.42
440.26	7534.18
440.45	7555.25
440.63	7630.15
440.82	7749.51
441.01	7485.03
441.19	7630.15
441.38	7873.56
441.57	7873.56
441.75	7882.92
441.94	8039.74
442.12	7819.73
442.31	7983.57
442.50	8116.98
442.68	8079.53
442.87	8173.15
443.05	8236.35
443.24	8205.92
443.43	8355.71
443.61	8159.11
443.80	8477.42
443.98	7988.25
444.17	8065.49
444.35	8262.09
444.54	8479.76
444.73	8414.23
444.91	8236.35
445.10	8290.18
445.28	8255.07
445.47	8285.50
445.65	8348.69
445.84	8596.79
446.02	8416.57
446.21	8582.74
446.39	8311.24
446.58	8641.26
446.77	8435.29
446.95	8381.46
447.14	8641.26
447.32	8496.14
447.51	8606.15
447.69	8521.89
447.88	8496.14
448.06	8535.93
448.25	8706.79
448.43	8468.06
448.62	8720.84
448.80	8697.43
448.99	8863.61
449.17	8861.27
449.36	8690.41
449.54	8828.50
449.73	8891.70
449.91	9172.56
450.10	9118.73
450.28	8898.72
450.46	9324.69
450.65	9270.86
450.83	9062.55
451.02	9282.56
451.20	9275.54
451.39	9245.12
451.57	9174.90
451.76	9219.37
451.94	9228.73
452.13	9301.29
452.31	9350.44
452.49	9275.54
452.68	9495.55
452.86	9341.08
453.05	9528.32
453.23	9364.48
453.42	9320.01
453.60	9570.45
453.78	9631.30
453.97	9472.15
454.15	9540.02
454.34	9652.37
454.52	9748.33
454.70	9975.36
454.89	9603.22
455.07	9778.76
455.26	9799.82
455.44	9966.00
455.62	9933.23
455.81	10008.13
455.99	10033.88
456.17	10097.07
456.36	10050.26
456.54	10015.15
456.73	10354.53
456.91	10377.94
457.09	10635.39
457.28	10642.42
457.46	10590.92
457.64	10569.86
457.83	10448.15
458.01	10373.25
458.19	10764.12
458.38	10724.33
458.56	10757.10
458.74	10925.62
458.93	10705.61
459.11	10714.97
459.29	10991.16
459.48	10937.32
459.66	10906.90
459.84	10764.12
460.03	11136.27
460.21	11218.19
460.39	11070.73
460.57	11009.88
460.76	11089.46
460.94	11300.11
461.12	11335.21
461.31	11286.06
461.49	11281.38
461.67	11435.86
461.85	11485.01
462.04	11276.70
462.22	11419.47
462.40	11557.57
462.59	11810.34
462.77	11485.01
462.95	11875.88
463.13	11679.27
463.32	11665.23
463.50	11836.09
463.68	11906.31
463.86	11925.03
464.05	11761.19
464.23	11751.83
464.41	11939.07
464.59	12079.50
464.78	12154.40
464.96	11997.59
465.14	12095.89
465.32	12056.10
465.50	12252.70
465.69	12311.22
465.87	12109.93
466.05	12388.46
466.23	12236.32
466.41	12126.32
466.60	12891.67
466.78	12095.89
466.96	12215.26
467.14	12461.01
467.32	12437.61
467.51	12409.52
467.69	12348.67
467.87	12545.27
468.05	12641.23
468.23	12486.76
468.41	12432.93
468.60	12702.09
468.78	12772.30
468.96	12472.71
469.14	13013.38
469.32	13022.74
469.50	12776.98
469.69	13214.66
469.87	13324.67
470.05	13184.24
470.23	13394.89
470.41	13289.56
470.59	13551.70
470.77	13371.48
470.95	13486.17
471.14	13825.54
471.32	12961.89
471.50	13626.60
471.68	13654.69
471.86	13884.06
472.04	13820.86
472.22	14183.65
472.40	13628.94
472.58	13823.20
472.77	14061.94
472.95	14211.73
473.13	14394.29
473.31	14389.61
473.49	14155.56
473.67	14590.90
473.85	14260.88
474.03	14787.50
474.21	14888.15
474.39	14967.73
474.57	14778.14
474.75	15087.09
474.93	15082.41
475.12	15185.40
475.30	15208.80
475.48	15150.29
475.66	15325.83
475.84	15351.57
476.02	15470.94
476.20	15487.32
476.38	15995.22
476.56	15962.45
476.74	16264.38
476.92	15960.11
477.10	16002.24
477.28	16203.53
477.46	16437.58
477.64	16695.04
477.82	16610.78
478.00	16868.24
478.18	17020.38
478.36	17011.01
478.54	17200.60
478.72	17287.20
478.90	17647.64
479.08	17769.35
479.26	17916.80
479.44	17916.80
479.62	18148.51
479.80	18132.13
479.98	18508.96
480.16	18520.66
480.34	18494.91
480.52	18745.35
480.70	18494.91
480.88	18541.72
481.06	18977.06
481.24	18918.55
481.41	19358.57
481.59	19271.97
481.77	19688.59
481.95	19618.37
482.13	19943.70
482.31	19852.42
482.49	20355.64
482.67	20348.62
482.85	20250.32
483.03	20664.59
483.21	20854.17
483.39	21202.91
483.57	21003.97
483.74	21207.59
483.92	21607.83
484.10	21343.35
484.28	21853.58
484.46	21970.61
484.64	22675.11
484.82	22120.40
485.00	22771.07
485.18	23126.83
485.35	22981.72
485.53	23157.26
485.71	23056.62
485.89	23894.53
486.07	23838.36
486.25	23599.62
486.43	23683.88
486.61	24107.52
486.78	24311.14
486.96	24212.84
487.14	24664.57
487.32	24713.72
487.50	25067.14
487.68	25275.45
487.85	25649.93
488.03	25729.51
488.21	25874.62
488.39	26108.68
488.57	26312.30
488.75	26466.78
488.92	26644.66
489.10	27140.85
489.28	26719.56
489.46	27468.53
489.64	27239.15
489.81	28149.62
489.99	27730.67
490.17	28189.41
490.35	28313.46
490.53	28580.28
490.70	28833.06
490.88	28563.90
491.06	28922.00
491.24	29081.16
491.41	29104.56
491.59	29465.00
491.77	29481.39
491.95	29816.08
492.13	29996.31
492.30	30347.39
492.48	30181.21
492.66	30216.32
492.84	30445.69
493.01	31145.51
493.19	30974.65
493.37	31491.91
493.54	31047.21
493.72	31381.90
493.90	31358.50
494.08	31889.80
494.25	32217.47
494.43	32130.87
494.61	32938.36
494.79	32692.60
494.96	32708.99
495.14	32826.01
495.32	33617.11
495.49	33261.35
495.67	33397.10
495.85	33970.54
496.02	34019.69
496.20	33993.94
496.38	34033.73
496.55	34543.97
496.73	35379.54
496.91	35225.06
497.09	35232.08
497.26	35150.17
497.44	35047.18
497.62	35534.01
497.79	36102.76
497.97	35922.54
498.14	36032.55
498.32	36470.23
498.50	36914.93
498.67	36779.18
498.85	36737.05
499.03	36762.79
499.20	36788.54
499.38	36879.82
499.56	37446.23
499.73	37415.80
499.91	37537.51
500.08	37933.06
500.26	37392.40
500.44	38227.97
500.61	37916.68
500.79	37970.51
500.97	38422.23
501.14	38644.59
501.32	38876.30
501.49	38829.49
501.67	38637.56
501.84	39405.26
502.02	39164.18
502.20	39620.59
502.37	39419.30
502.55	39613.57
502.72	39702.51
502.90	39899.11
503.07	39372.49
503.25	40112.10
503.43	40044.23
503.60	40034.86
503.78	40973.42
503.95	40809.58
504.13	40914.90
504.30	40980.44
504.48	40568.51
504.65	41207.47
504.83	41277.69
505.01	41626.43
505.18	41626.43
505.36	41923.68
505.53	41408.76
505.71	41837.08
505.88	41801.97
506.06	41432.16
506.23	42646.90
506.41	42169.43
506.58	42007.94
506.76	42328.59
506.93	42799.04
507.11	42450.30
507.28	42918.40
507.46	43491.83
507.63	43285.87
507.81	43929.51
507.98	43304.59
508.16	43587.80
508.33	43803.13
508.50	43674.40
508.68	43526.94
508.85	44194.00
509.03	44481.88
509.20	44168.25
509.38	45059.99
509.55	44744.02
509.73	45411.07
509.90	44545.08
510.08	44872.75
510.25	44751.04
510.42	45031.91
510.60	45469.59
510.77	45867.48
510.95	45462.57
511.12	45315.11
511.30	45705.98
511.47	46052.38
511.64	46087.49
511.82	46291.12
511.99	45710.66
512.17	46244.30
512.34	45820.67
512.51	46665.60
512.69	47093.92
512.86	46799.01
513.04	46759.22
513.21	46890.29
513.38	46904.34
513.56	47442.66
513.73	47061.15
513.90	47349.04
514.08	47353.72
514.25	47805.44
514.43	47859.27
514.60	47941.19
514.77	47599.47
514.95	48020.77
515.12	47735.23
515.29	47948.21
515.47	48039.50
515.64	48135.46
515.81	48519.31
515.99	48605.91
516.16	48697.19
516.33	48554.41
516.51	48907.83
516.68	48870.39
516.85	48722.93
517.03	49261.26
517.20	49242.53
517.37	49319.77
517.54	49083.37
517.72	49153.59
517.89	49064.65
518.06	49764.47
518.24	49434.45
518.41	49689.57
518.58	49619.36
518.75	49446.16
518.93	50148.32
519.10	49734.04
519.27	50117.89
519.45	49921.29
519.62	50068.74
519.79	50141.30
519.96	50005.55
520.14	50281.73
520.31	50387.05
520.48	50742.81
520.65	50644.51
520.83	51278.80
521.00	51117.30
521.17	50740.47
521.34	50625.79
521.52	50862.18
521.69	51182.84
521.86	51133.68
522.03	51337.31
522.20	51426.25
522.38	51473.06
522.55	51782.01
522.72	51629.88
522.89	51508.17
523.07	51760.95
523.24	51854.57
523.41	52039.47
523.58	51852.23
523.75	52147.14
523.92	51863.93
524.10	51833.50
524.27	52126.07
524.44	52491.19
524.61	52416.30
524.78	52772.06
524.96	52512.26
525.13	52472.47
525.30	52980.37
525.47	52814.19
525.64	52439.70
525.81	52692.48
525.98	53024.84
526.16	52914.83
526.33	52790.78
526.50	53221.44
526.67	52570.77
526.84	53207.40
527.01	53261.23
527.18	53216.76
527.36	53378.26
527.53	53099.73
527.70	53612.31
527.87	53642.74
528.04	53258.89
528.21	53694.23
528.38	53542.10
528.55	53708.27
528.72	53495.28
528.89	53792.53
529.07	53888.49
529.24	53738.70
529.41	53822.96
529.58	54101.48
529.75	53815.94
529.92	53968.07
530.09	54209.15
530.26	54075.74
530.43	54115.53
530.60	53944.67
530.77	54197.44
530.94	54410.43
531.11	54049.99
531.28	54621.08
531.46	54082.76
531.63	54365.96
531.80	54628.10
531.97	54614.06
532.14	54646.83
532.31	54763.85
532.48	54974.50
532.65	54834.07
532.82	54805.98
532.99	55173.45
533.16	54859.82
533.33	55065.78
533.50	55028.34
533.67	54827.05
533.84	55011.95
534.01	54939.39
534.18	55295.16
534.35	55433.25
534.52	55496.44
534.69	55414.52
534.86	55274.09
535.03	54880.88
535.20	55653.26
535.37	55498.78
535.54	55669.64
535.71	55353.67
535.88	55781.99
536.05	55744.54
536.22	55587.72
536.38	56018.38
536.55	55763.26
536.72	55772.63
536.89	55826.46
537.06	55786.67
537.23	55702.41
537.40	55826.46
537.57	55978.59
537.74	56081.58
537.91	56088.60
538.08	55889.65
538.25	56016.04
538.42	56032.42
538.59	56301.59
538.75	56016.04
538.92	55985.61
539.09	56587.13
539.26	56254.78
539.43	56203.28
539.60	56437.34
539.77	56350.74
539.94	56779.06
540.11	56360.10
540.28	56715.86
540.44	56699.48
540.61	56633.94
540.78	56533.30
540.95	56657.35
541.12	56736.93
541.29	56636.28
541.46	56886.72
541.62	56786.08
541.79	57057.58
541.96	56736.93
542.13	56725.22
542.30	56655.01
542.47	56999.07
542.63	56975.66
542.80	57181.63
542.97	57181.63
543.14	57254.18
543.31	57389.94
543.48	57343.12
543.64	57535.05
543.81	57427.38
543.98	57476.54
544.15	57347.81
544.32	57579.52
544.48	57673.14
544.65	57296.31
544.82	57755.06
544.99	57286.95
545.16	57715.27
545.32	57301.00
545.49	57989.11
545.66	57848.68
545.83	57645.05
546.00	58033.58
546.16	57860.38
546.33	57963.37
546.50	57776.12
546.67	57869.75
546.83	57680.16
547.00	57858.04
547.17	57939.96
547.34	57972.73
547.50	58192.74
547.67	58354.24
547.84	58150.61
548.00	58171.67
548.17	58571.91
548.34	58450.20
548.51	58637.44
548.67	58218.49
548.84	58464.24
549.01	58347.21
549.18	58272.32
549.34	58454.88
549.51	58520.41
549.68	58653.82
549.84	58599.99
550.01	58663.19
550.18	58454.88
550.34	58616.38
550.51	58674.89
550.68	58511.05
550.84	58422.11
551.01	58843.41
551.18	58702.98
551.34	58719.36
551.51	58705.32
551.68	58738.08
551.84	58710.00
552.01	58611.70
552.18	58965.12
552.34	58864.47
552.51	58911.28
552.68	58845.75
552.84	58841.07
553.01	58911.28
553.18	58939.37
553.34	58986.18
553.51	58920.65
553.67	59135.98
553.84	59138.32
554.01	59117.25
554.17	59145.34
554.34	59213.21
554.51	59201.51
554.67	59157.04
554.84	59135.98
555.00	59161.72
555.17	59243.64
555.33	59257.68
555.50	59037.67
555.67	59030.65
555.83	59114.91
556.00	59229.60
556.16	59770.26
556.33	59547.91
556.50	59475.35
556.66	59693.02
556.83	59238.96
556.99	59288.11
557.16	59784.30
557.32	59601.74
557.49	59828.77
557.65	59587.70
557.82	59531.53
557.98	59583.02
558.15	59681.32
558.32	59646.21
558.48	59430.88
558.65	59421.52
558.81	59547.91
558.98	59611.10
559.14	59732.81
559.31	59800.69
559.47	59852.18
559.64	59870.90
559.80	59884.95
559.97	59906.01
560.13	59924.74
560.30	60058.15
560.46	60175.17
560.63	60030.06
560.79	59758.56
560.96	59929.42
561.12	59889.63
561.29	59992.61
561.45	60083.89
561.61	59667.28
561.78	60116.66
561.94	59906.01
562.11	60058.15
562.27	60025.38
562.44	60081.55
562.60	60149.43
562.77	60119.00
562.93	60058.15
563.10	60243.05
563.26	60177.51
563.42	60573.06
563.59	60196.24
563.75	60219.64
563.92	60184.54
564.08	60324.97
564.24	60500.51
564.41	60322.63
564.57	60296.88
564.74	60449.02
564.90	60397.52
565.07	60357.74
565.23	60177.51
565.39	60453.70
565.56	60306.24
565.72	60306.24
565.88	60523.91
566.05	60240.71
566.21	60362.42
566.38	60514.55
566.54	60355.39
566.70	60404.55
566.87	60683.07
567.03	60423.27
567.19	60666.69
567.36	60563.70
567.52	60580.09
567.68	60706.47
567.85	60423.27
568.01	60640.94
568.17	60505.19
568.34	60479.44
568.50	60458.38
568.66	60594.13
568.83	60467.74
568.99	60498.17
569.15	60603.49
569.32	60406.89
569.48	60336.67
569.64	60652.64
569.81	60659.66
569.97	60493.49
570.13	60481.78
570.30	60388.16
570.46	60645.62
570.62	60776.69
570.78	60977.98
570.95	60683.07
571.11	60924.14
571.27	60638.60
571.43	60587.11
571.60	60947.55
571.76	60837.54
571.92	60783.71
572.09	60783.71
572.25	60671.37
572.41	60849.25
572.57	60652.64
572.74	61043.51
572.90	60725.20
573.06	60835.20
573.22	60846.91
573.38	61003.72
573.55	60729.88
573.71	61057.56
573.87	60846.91
574.03	60664.35
574.20	60870.31
574.36	60732.22
574.52	61076.28
574.68	60921.80
574.84	60940.53
575.01	60996.70
575.17	60994.36
575.33	60720.52
575.49	60818.82
575.65	60963.93
575.82	61109.05
575.98	60989.68
576.14	61144.16
576.30	60835.20
576.46	61043.51
576.62	60903.08
576.79	60795.42
576.95	60786.05
577.11	60996.70
577.27	61095.00
577.43	61050.53
577.59	60825.84
577.75	60795.42
577.92	60945.21
578.08	60928.83
578.24	61043.51
578.40	61069.26
578.56	61214.37
578.72	61092.66
578.88	61160.54
579.04	61249.48
579.21	60928.83
579.37	61029.47
579.53	61352.46
579.69	60886.70
579.85	61003.72
580.01	61179.26
580.17	60830.52
580.33	61048.19
580.49	61226.07
580.65	61069.26
580.82	61010.74
580.98	61020.11
581.14	60851.59
581.30	61202.67
581.46	61003.72
581.62	60898.40
581.78	61055.21
581.94	61006.06
582.10	60940.53
582.26	61263.52
582.42	60980.32
582.58	61062.24
582.74	61179.26
582.90	61242.46
583.06	61139.47
583.22	61069.26
583.38	61132.45
583.54	61087.98
583.70	61186.28
583.86	61207.35
584.02	61090.32
584.18	61347.78
584.34	61073.94
584.50	61134.79
584.66	61036.49
584.82	60961.59
584.98	61230.75
585.14	61139.47
585.30	61195.65
585.46	61172.24
585.62	61319.70
585.78	61275.22
585.94	61104.37
586.10	61080.96
586.26	61375.87
586.42	61389.91
586.58	61366.51
586.74	61219.05
586.90	61254.16
587.06	60884.36
587.22	61286.93
587.38	61354.80
587.54	61387.57
587.70	61354.80
587.86	61443.74
588.02	61284.59
588.18	61532.68
588.34	61228.41
588.49	61141.81
