SpectraSuite Data File
++++++++++++++++++++++++++++++++++++
Date: Fri Oct 25 10:47:06 EDT 2013
User: price-jones
Dark Spectrum Present: No
Reference Spectrum Present: No
Number of Sampled Component Spectra: 1
Spectrometers: USB2+H05261
Integration Time (usec): 100000 (USB2+H05261)
Spectra Averaged: 1 (USB2+H05261)
Boxcar Smoothing: 0 (USB2+H05261)
Correct for Electrical Dark: No (USB2+H05261)
Strobe/Lamp Enabled: No (USB2+H05261)
Correct for Detector Non-linearity: No (USB2+H05261)
Correct for Stray Light: No (USB2+H05261)
Number of Pixels in Processed Spectrum: 2048
>>>>>Begin Processed Spectral Data<<<<<
365.73	147.45
365.92	147.45
366.12	147.45
366.32	102.98
366.52	91.28
366.72	9.36
366.91	32.77
367.11	37.45
367.31	35.11
367.51	0.00
367.70	51.49
367.90	16.38
368.10	7.02
368.30	67.88
368.49	49.15
368.69	121.71
368.89	32.77
369.09	18.72
369.28	81.92
369.48	23.41
369.68	67.88
369.87	93.62
370.07	163.84
370.27	156.82
370.47	182.56
370.66	311.29
370.86	440.02
371.06	449.38
371.25	463.43
371.45	442.36
371.65	414.27
371.84	507.90
372.04	458.74
372.24	517.26
372.44	472.79
372.63	512.58
372.83	496.19
373.03	486.83
373.22	477.47
373.42	475.13
373.62	498.53
373.81	552.37
374.01	528.96
374.21	608.54
374.40	514.92
374.60	592.16
374.79	601.52
374.99	571.09
375.19	610.88
375.38	631.94
375.58	662.37
375.78	564.07
375.97	575.77
376.17	636.63
376.37	641.31
376.56	545.34
376.76	653.01
376.95	503.22
377.15	645.99
377.35	580.45
377.54	608.54
377.74	627.26
377.93	645.99
378.13	650.67
378.33	564.07
378.52	608.54
378.72	613.22
378.91	662.37
379.11	697.48
379.31	622.58
379.50	578.11
379.70	620.24
379.89	685.78
380.09	636.63
380.28	645.99
380.48	606.20
380.68	571.09
380.87	650.67
381.07	692.80
381.26	702.16
381.46	667.05
381.65	664.71
381.85	683.44
382.04	636.63
382.24	613.22
382.43	688.12
382.63	634.29
382.83	662.37
383.02	732.59
383.22	741.95
383.41	671.73
383.61	725.57
383.80	758.33
384.00	732.59
384.19	774.72
384.39	713.86
384.58	802.80
384.78	697.48
384.97	805.14
385.17	706.84
385.36	779.40
385.56	844.93
385.75	798.12
385.95	758.33
386.14	924.51
386.34	758.33
386.53	816.85
386.72	713.86
386.92	767.70
387.11	772.38
387.31	823.87
387.50	779.40
387.70	901.11
387.89	779.40
388.09	882.38
388.28	816.85
388.48	884.72
388.67	868.34
388.86	868.34
389.06	868.34
389.25	880.04
389.45	961.96
389.64	882.38
389.84	924.51
390.03	894.08
390.22	891.74
390.42	954.94
390.61	901.11
390.81	884.72
391.00	854.30
391.19	931.53
391.39	978.34
391.58	1006.43
391.78	915.15
391.97	1043.88
392.16	931.53
392.36	919.83
392.55	992.39
392.75	943.24
392.94	933.87
393.13	1053.24
393.33	931.53
393.52	999.41
393.71	1069.62
393.91	1008.77
394.10	1057.92
394.29	973.66
394.49	1071.97
394.68	1186.65
394.88	1125.80
395.07	1123.46
395.26	1100.05
395.46	1123.46
395.65	1081.33
395.84	1142.18
396.04	1142.18
396.23	1034.52
396.42	1158.57
396.62	1116.44
396.81	1125.80
397.00	1191.33
397.19	1153.88
397.39	1186.65
397.58	1242.82
397.77	1270.91
397.97	1263.89
398.16	1259.21
398.35	1317.72
398.55	1299.00
398.74	1273.25
398.93	1254.53
399.12	1362.19
399.32	1322.40
399.51	1338.79
399.70	1343.47
399.90	1434.75
400.09	1373.89
400.28	1350.49
400.47	1359.85
400.67	1495.60
400.86	1451.13
401.05	1453.47
401.24	1432.41
401.44	1380.92
401.63	1549.43
401.82	1519.01
402.01	1483.90
402.21	1526.03
402.40	1593.90
402.59	1586.88
402.78	1558.80
402.97	1547.09
403.17	1490.92
403.36	1504.96
403.55	1549.43
403.74	1668.80
403.93	1629.01
404.13	1694.55
404.32	1706.25
404.51	1671.14
404.70	1589.22
404.89	1757.74
405.09	1860.73
405.28	1650.08
405.47	1720.29
405.66	1820.94
405.85	1811.57
406.05	1736.68
406.24	1877.11
406.43	1729.66
406.62	1856.04
406.81	1884.13
407.00	1956.69
407.20	1776.47
407.39	1809.23
407.58	1804.55
407.77	2001.16
407.96	1870.09
408.15	2031.58
408.34	1912.22
408.54	2005.84
408.73	2066.69
408.92	2071.37
409.11	2099.46
409.30	2064.35
409.49	2150.95
409.68	1975.41
409.87	1959.03
410.07	2115.84
410.26	2104.14
410.45	2174.36
410.64	2101.80
410.83	2225.85
411.02	2275.00
411.21	2244.57
411.40	2335.85
411.59	2235.21
411.78	2244.57
411.98	2216.49
412.17	2335.85
412.36	2225.85
412.55	2366.28
412.74	2436.50
412.93	2518.42
413.12	2321.81
413.31	2466.92
413.50	2424.80
413.69	2385.01
413.88	2665.87
414.07	2530.12
414.26	2530.12
414.45	2630.76
414.64	2590.97
414.83	2719.70
415.02	2698.64
415.22	2656.51
415.41	2731.41
415.60	2736.09
415.79	2757.15
415.98	2808.64
416.17	2794.60
416.36	2876.52
416.55	2850.77
416.74	2862.48
416.93	2869.50
417.12	2951.42
417.31	2965.46
417.50	2965.46
417.69	3049.72
417.88	2984.18
418.07	2998.23
418.26	3143.34
418.45	3124.62
418.64	3377.39
418.83	3005.25
419.02	3145.68
419.21	3323.56
419.39	3269.73
419.58	3222.92
419.77	3112.91
419.96	3330.58
420.15	3346.97
420.34	3152.70
420.53	3346.97
420.72	3419.52
420.91	3454.63
421.10	3272.07
421.29	3454.63
421.48	3199.51
421.67	3363.35
421.86	3363.35
422.05	3506.12
422.24	3386.76
422.43	3405.48
422.61	3445.27
422.80	3459.31
422.99	3419.52
423.18	3517.83
423.37	3468.67
423.56	3534.21
423.75	3445.27
423.94	3496.76
424.13	3281.43
424.32	3407.82
424.50	3630.17
424.69	3602.08
424.88	3592.72
425.07	3384.41
425.26	3489.74
425.45	3405.48
425.64	3548.25
425.83	3475.70
426.01	3536.55
426.20	3613.79
426.39	3669.96
426.58	3590.38
426.77	3543.57
426.96	3644.21
427.15	3592.72
427.33	3520.17
427.52	3684.00
427.71	3751.88
427.90	3707.41
428.09	3801.03
428.28	3686.34
428.46	3733.15
428.65	3875.93
428.84	3939.12
429.03	3948.48
429.22	3803.37
429.40	3845.50
429.59	3616.13
429.78	3485.06
429.97	3632.51
430.16	3815.07
430.34	3812.73
430.53	3859.54
430.72	3908.69
430.91	3857.20
431.10	3868.91
431.28	4140.41
431.47	4105.30
431.66	4170.83
431.85	4077.21
432.03	4161.47
432.22	4166.15
432.41	4161.47
432.60	4119.34
432.79	4154.45
432.97	4299.56
433.16	4196.58
433.35	4159.13
433.54	4273.82
433.72	4327.65
433.91	4219.99
434.10	4266.80
434.28	4306.59
434.47	4428.29
434.66	4477.44
434.85	4484.47
435.03	4454.04
435.22	4337.01
435.41	4566.39
435.59	4454.04
435.78	4498.51
435.97	4641.28
436.16	4667.03
436.34	4512.55
436.53	4589.79
436.72	4741.93
436.90	4482.13
437.09	4681.07
437.28	4585.11
437.46	4755.97
437.65	4575.75
437.84	4592.13
438.02	4732.56
438.21	4664.69
438.40	4594.47
438.58	4926.83
438.77	4835.55
438.96	4821.50
439.14	4936.19
439.33	5060.24
439.52	5067.26
439.70	4894.06
439.89	5060.24
440.08	5163.22
440.26	5207.69
440.45	5057.90
440.63	5334.08
440.82	5495.58
441.01	5373.87
441.19	5296.63
441.38	5432.38
441.57	5441.75
441.75	5614.95
441.94	5549.41
442.12	5570.48
442.31	5701.54
442.50	5614.95
442.68	5750.70
442.87	5621.97
443.05	5713.25
443.24	5905.17
443.43	5682.82
443.61	5668.78
443.80	5987.09
443.98	5687.50
444.17	5659.42
444.35	5858.36
444.54	5834.96
444.73	5757.72
444.91	5806.87
445.10	5729.63
445.28	5825.59
445.47	5792.83
445.65	5863.04
445.84	5881.77
446.02	5820.91
446.21	5748.36
446.39	5816.23
446.58	5884.11
446.77	6122.84
446.95	5975.39
447.14	5872.40
447.32	5926.24
447.51	5884.11
447.69	5966.03
447.88	6174.33
448.06	6024.54
448.25	5975.39
448.43	6038.58
448.62	6136.88
448.80	5994.11
448.99	6080.71
449.17	6202.42
449.36	6024.54
449.54	6101.78
449.73	6267.95
449.91	6366.26
450.10	6195.40
450.28	6408.39
450.46	6530.09
450.65	6471.58
450.83	6502.01
451.02	6464.56
451.20	6569.88
451.39	6307.74
451.57	6445.84
451.76	6366.26
451.94	6572.22
452.13	6473.92
452.31	6471.58
452.49	6558.18
452.68	6469.24
452.86	6520.73
453.05	6602.65
453.23	6719.68
453.42	6525.41
453.60	6403.71
453.78	6551.16
453.97	6665.85
454.15	6579.25
454.34	6600.31
454.52	6829.68
454.70	6705.63
454.89	6740.74
455.07	6555.84
455.26	6803.94
455.44	6972.46
455.62	6899.90
455.81	6956.07
455.99	6897.56
456.17	7026.29
456.36	7063.74
456.54	6974.80
456.73	7136.29
456.91	7286.09
457.09	7220.55
457.28	7403.11
457.46	7243.96
457.64	7283.75
457.83	7286.09
458.01	7410.14
458.19	7265.02
458.38	7363.33
458.56	7573.97
458.74	7389.07
458.93	7414.82
459.11	7344.60
459.29	7417.16
459.48	7524.82
459.66	7407.80
459.84	7295.45
460.03	7850.16
460.21	7510.78
460.39	7562.27
460.57	7630.15
460.76	7873.56
460.94	7899.31
461.12	7597.38
461.31	7892.29
461.49	7894.63
461.67	7803.35
461.85	7941.44
462.04	7925.05
462.22	8454.02
462.40	7969.52
462.59	8044.42
462.77	8072.51
462.95	8060.80
463.13	7793.98
463.32	8009.31
463.50	8156.77
463.68	8156.77
463.86	8142.72
464.05	8079.53
464.23	8147.40
464.41	7957.82
464.59	8194.22
464.78	8327.63
464.96	8315.92
465.14	8074.85
465.32	8182.51
465.50	8372.10
465.69	8393.16
465.87	8264.43
466.05	8369.76
466.23	8339.33
466.41	8603.81
466.60	8353.37
466.78	8339.33
466.96	8489.12
467.14	8327.63
467.32	8484.44
467.51	8557.00
467.69	8339.33
467.87	8528.91
468.05	8526.57
468.23	8463.38
468.41	8631.90
468.60	8657.64
468.78	8587.43
468.96	8692.75
469.14	8847.22
469.32	8697.43
469.50	8601.47
469.69	8816.80
469.87	9170.22
470.05	8903.40
470.23	8814.46
470.41	8870.63
470.59	8950.21
470.77	8968.93
470.95	9020.42
471.14	9142.13
471.32	8933.82
471.50	9404.27
471.68	9095.32
471.86	9238.09
472.04	9221.71
472.22	9411.29
472.40	9205.33
472.58	9252.14
472.77	9453.42
472.95	9441.72
473.13	9830.25
473.31	9378.53
473.49	9652.37
473.67	9706.20
473.85	9685.14
474.03	9891.10
474.21	9919.19
474.39	10052.60
474.57	10033.88
474.75	10157.92
474.93	10178.99
475.12	10115.80
475.30	10190.69
475.48	10270.27
475.66	10242.18
475.84	10237.50
476.02	10310.06
476.20	10305.38
476.38	10759.44
476.56	10799.23
476.74	10492.62
476.92	10801.57
477.10	10555.82
477.28	10918.60
477.46	10923.28
477.64	11082.44
477.82	11075.42
478.00	11433.52
478.18	11157.33
478.36	11452.24
478.54	11400.75
478.72	11620.76
478.90	11637.14
479.08	11852.47
479.26	11882.90
479.44	11969.50
479.62	11999.93
479.80	12006.95
479.98	12404.84
480.16	12315.90
480.34	12142.70
480.52	12343.99
480.70	12517.18
480.88	12053.76
481.06	12613.15
481.24	12512.50
481.41	12631.87
481.59	13128.06
481.77	13130.41
481.95	12978.27
482.13	13327.01
482.31	13228.71
482.49	13493.19
482.67	13385.52
482.85	13689.79
483.03	13912.14
483.21	13926.19
483.39	14111.09
483.57	13928.53
483.74	14338.12
483.92	14354.51
484.10	14052.58
484.28	14607.28
484.46	14698.56
484.64	15054.33
484.82	14703.25
485.00	14902.19
485.18	14691.54
485.35	15005.17
485.53	15096.46
485.71	14906.87
485.89	15328.17
486.07	15227.53
486.25	15470.94
486.43	15534.14
486.61	15665.21
486.78	16058.42
486.96	15693.29
487.14	16306.51
487.32	16051.39
487.50	16453.97
487.68	16673.98
487.85	16781.64
488.03	16746.53
488.21	16765.26
488.39	17116.34
488.57	17228.68
488.75	17343.37
488.92	17570.40
489.10	17647.64
489.28	17923.82
489.46	17860.63
489.64	18195.32
489.81	18499.59
489.99	18094.68
490.17	18483.21
490.35	18492.57
490.53	18611.94
490.70	18808.54
490.88	18904.51
491.06	19021.53
491.24	18897.49
491.41	19023.87
491.59	19269.63
491.77	19089.41
491.95	19426.45
492.13	19419.42
492.30	19674.54
492.48	19950.73
492.66	20020.94
492.84	19866.47
493.01	20180.10
493.19	20372.02
493.37	20540.54
493.54	20301.81
493.72	20844.81
493.90	20666.93
494.08	21055.46
494.25	21193.55
494.43	21537.61
494.61	21233.34
494.79	21216.96
494.96	21209.93
495.14	21584.42
495.32	21493.14
495.49	21888.69
495.67	21631.23
495.85	21970.61
496.02	22104.02
496.20	22164.87
496.38	22373.18
496.55	22511.27
496.73	22881.08
496.91	22625.96
497.09	22775.75
497.26	22998.10
497.44	22965.34
497.62	23215.77
497.79	23110.45
497.97	23414.72
498.14	24002.19
498.32	23793.89
498.50	23814.95
498.67	23962.40
498.85	23843.04
499.03	24261.99
499.20	23843.04
499.38	24119.22
499.56	24259.65
499.73	24575.62
499.91	24439.87
500.08	24671.59
500.26	24599.03
500.44	24400.08
500.61	24797.98
500.79	24290.08
500.97	25027.35
501.14	25106.93
501.32	25228.63
501.49	25228.63
501.67	25179.48
501.84	25315.23
502.02	25139.69
502.20	25568.01
502.37	25654.61
502.55	25610.14
502.72	25696.74
502.90	25858.24
503.07	25509.50
503.25	26171.87
503.43	26223.36
503.60	26450.39
503.78	26192.94
503.95	25977.61
504.13	26597.85
504.30	26735.94
504.48	26492.52
504.65	26747.64
504.83	27178.30
505.01	26581.46
505.18	26876.37
505.36	27225.11
505.53	26960.63
505.71	27098.72
505.88	27690.88
506.06	27505.98
506.23	27639.39
506.41	27395.97
506.58	27391.29
506.76	27562.15
506.93	27868.76
507.11	27683.86
507.28	27812.59
507.46	27639.39
507.63	27934.29
507.81	28271.33
507.98	28271.33
508.16	28294.74
508.33	28348.57
508.50	28664.54
508.68	28606.03
508.85	29280.10
509.03	28580.28
509.20	28706.67
509.38	29261.38
509.55	29158.39
509.73	29301.17
509.90	29209.89
510.08	29113.92
510.25	29460.32
510.42	29106.90
510.60	29472.03
510.77	29680.33
510.95	29593.73
511.12	29333.93
511.30	29617.14
511.47	30132.06
511.64	30160.14
511.82	30150.78
511.99	30082.91
512.17	30345.05
512.34	29998.65
512.51	30654.00
512.69	30221.00
512.86	30520.59
513.04	30707.83
513.21	30323.98
513.38	30354.41
513.56	30717.19
513.73	30370.79
513.90	30555.69
514.08	30581.44
514.25	31072.95
514.43	30747.62
514.60	31019.12
514.77	30630.59
514.95	31314.03
515.12	31342.11
515.29	31608.93
515.47	31599.57
515.64	31709.58
515.81	31592.55
515.99	31496.59
516.16	31475.52
516.33	31810.22
516.51	31508.29
516.68	31545.74
516.85	31606.59
517.03	31763.41
517.20	32109.81
517.37	31910.86
517.54	32109.81
517.72	32250.24
517.89	32191.73
518.06	32428.12
518.24	32297.05
518.41	32425.78
518.58	32704.31
518.75	32360.25
518.93	33048.36
519.10	32617.71
519.27	33109.22
519.45	32584.94
519.62	33137.30
519.79	32788.56
519.96	32830.69
520.14	33511.79
520.31	33088.15
520.48	33235.61
520.65	33343.27
520.83	33680.31
521.00	33853.51
521.17	33729.46
521.34	33855.85
521.52	33645.20
521.69	34015.01
521.86	34085.22
522.03	33919.04
522.20	34251.40
522.38	34548.65
522.55	34499.50
522.72	34515.88
522.89	34132.03
523.07	34333.32
523.24	34342.68
523.41	34462.05
523.58	34038.41
523.75	35023.78
523.92	34838.87
524.10	34663.33
524.27	34852.92
524.44	35014.41
524.61	34866.96
524.78	35021.44
524.96	35241.45
525.13	35292.94
525.30	35955.31
525.47	35590.19
525.64	35028.46
525.81	35494.22
525.98	35264.85
526.16	34927.81
526.33	34937.18
526.50	35629.98
526.67	35466.14
526.84	35386.56
527.01	35211.02
527.18	35452.09
527.36	36119.15
527.53	36032.55
527.70	36123.83
527.87	36467.89
528.04	35959.99
528.21	35936.59
528.38	36165.96
528.55	36409.37
528.72	36217.45
528.89	36498.31
529.07	36154.26
529.24	35990.42
529.41	36294.69
529.58	36601.30
529.75	36463.21
529.92	36921.95
530.09	36687.90
530.26	36961.74
530.43	36800.24
530.60	36491.29
530.77	36882.16
530.94	37277.71
531.11	36966.42
531.28	37493.04
531.46	37181.75
531.63	37544.53
531.80	37558.58
531.97	37141.96
532.14	37071.75
532.31	36964.08
532.48	37500.06
532.65	37495.38
532.82	37371.33
532.99	37434.53
533.16	37392.40
533.33	37741.14
533.50	37949.45
533.67	37979.87
533.84	37607.73
534.01	37748.16
534.18	37701.35
534.35	38368.40
534.52	37890.93
534.69	38359.04
534.86	38382.45
535.03	38216.27
535.20	38298.19
535.37	38682.03
535.54	38438.62
535.71	38321.59
535.88	38801.40
536.05	38455.00
536.22	38270.10
536.38	38679.69
536.55	38602.46
536.72	38408.19
536.89	38656.29
537.06	38639.90
537.23	39054.18
537.40	38728.84
537.57	38941.83
537.74	38890.34
537.91	39433.35
538.08	39498.88
538.25	38639.90
538.42	38892.68
538.59	39133.76
538.75	39019.07
538.92	39601.86
539.09	39030.77
539.26	38691.40
539.43	39503.56
539.60	39541.01
539.77	39541.01
539.94	39295.25
540.11	39213.34
540.28	39433.35
540.44	39636.97
540.61	39323.34
540.78	39693.15
540.95	39807.83
541.12	39028.43
541.29	39232.06
541.46	39409.94
541.62	39737.62
541.79	40107.42
541.96	39342.06
542.13	39541.01
542.30	39878.05
542.47	40453.82
542.63	39983.37
542.80	40282.96
542.97	40306.37
543.14	40638.72
543.31	40362.54
543.48	40554.46
543.64	40856.39
543.81	40825.96
543.98	40456.16
544.15	40676.17
544.32	40830.65
544.48	41038.95
544.65	40701.92
544.82	41071.72
544.99	40147.21
545.16	40463.18
545.32	40769.79
545.49	40982.78
545.66	41443.87
545.83	41029.59
546.00	41591.32
546.16	40533.40
546.33	40657.45
546.50	41408.76
546.67	41368.97
546.83	41177.04
547.00	41155.98
547.17	41404.08
547.34	41174.70
547.50	41544.51
547.67	41551.53
547.84	41268.33
548.00	41605.36
548.17	41544.51
548.34	41326.84
548.51	41598.34
548.67	41607.70
548.84	41778.56
549.01	42059.43
549.18	41816.01
549.34	41757.50
549.51	42141.35
549.68	41862.82
549.84	41724.73
550.01	42029.00
550.18	41371.31
550.34	41886.23
550.51	41808.99
550.68	41764.52
550.84	41446.21
551.01	41958.78
551.18	41949.42
551.34	41944.74
551.51	41893.25
551.68	42298.16
551.84	42124.96
552.01	41776.22
552.18	42366.04
552.34	41579.62
552.51	41904.95
552.68	42829.46
552.84	42497.11
553.01	42564.98
553.18	42220.92
553.34	42106.24
553.51	42347.31
553.67	42314.55
553.84	42557.96
554.01	42742.86
554.17	42909.04
554.34	42314.55
554.51	42616.47
554.67	43007.34
554.84	42939.47
555.00	42698.39
555.17	42859.89
555.33	42724.14
555.50	42885.64
555.67	43157.14
555.83	42621.16
556.00	42693.71
556.16	43524.60
556.33	43044.79
556.50	43236.72
556.66	43068.20
556.83	42780.31
556.99	42852.87
557.16	43566.73
557.32	43311.61
557.49	43091.60
557.65	42799.04
557.82	43028.41
557.98	43278.85
558.15	43309.27
558.32	43576.09
558.48	43253.10
558.65	43206.29
558.81	43115.01
558.98	43426.30
559.14	43217.99
559.31	43693.12
559.47	43409.92
559.64	43620.56
559.80	43871.00
559.97	43487.15
560.13	43122.03
560.30	43152.46
560.46	43590.14
560.63	43405.23
560.79	43601.84
560.96	43702.48
561.12	43688.44
561.29	43751.63
561.45	43213.31
561.61	43419.28
561.78	43318.64
561.94	43676.74
562.11	43646.31
562.27	43405.23
562.44	43758.66
562.60	43709.50
562.77	43838.23
562.93	43901.43
563.10	43908.45
563.26	43353.74
563.42	43749.29
563.59	43828.87
563.75	43430.98
563.92	44229.10
564.08	43892.07
564.24	43723.55
564.41	44053.56
564.57	43899.09
564.74	44182.29
564.90	43873.34
565.07	43807.81
565.23	44184.63
565.39	43798.44
565.56	44140.16
565.72	43878.02
565.88	43868.66
566.05	44083.99
566.21	44343.79
566.38	43765.68
566.54	44128.46
566.70	44404.64
566.87	44481.88
567.03	43782.06
567.19	44524.01
567.36	43938.88
567.52	44051.22
567.68	44140.16
567.85	44495.92
568.01	44053.56
568.17	44034.84
568.34	44554.44
568.50	44306.34
568.66	44088.67
568.83	44144.84
568.99	44046.54
569.15	43931.86
569.32	44329.75
569.48	43894.41
569.64	44212.72
569.81	44612.95
569.97	44149.53
570.13	44046.54
570.30	43962.28
570.46	43889.73
570.62	44030.16
570.78	44140.16
570.95	44161.23
571.11	44587.21
571.27	44467.84
571.43	44238.47
571.60	44273.57
571.76	44203.36
571.92	44238.47
572.09	44168.25
572.25	44268.89
572.41	44563.80
572.57	44594.23
572.74	44863.39
572.90	44264.21
573.06	43950.58
573.22	44549.76
573.38	44430.39
573.55	43854.62
573.71	44568.48
573.87	44444.43
574.03	44259.53
574.20	44659.76
574.36	44296.98
574.52	44676.15
574.68	44748.70
574.84	44680.83
575.01	44641.04
575.17	44332.09
575.33	44053.56
575.49	44781.47
575.65	45043.61
575.82	44884.45
575.98	44832.96
576.14	44884.45
576.30	45010.84
576.46	43983.35
576.62	44371.88
576.79	44257.19
576.95	44430.39
577.11	44629.34
577.27	44547.42
577.43	44734.66
577.59	44306.34
577.75	44598.91
577.92	44327.41
578.08	44315.70
578.24	44222.08
578.40	44245.49
578.56	44435.07
578.72	44470.18
578.88	44645.72
579.04	44870.41
579.21	44346.13
579.37	44409.32
579.53	44732.32
579.69	44402.30
579.85	44325.07
580.01	44699.55
580.17	45106.80
580.33	45003.82
580.49	44722.96
580.65	44779.13
580.82	44949.99
580.98	44486.56
581.14	44669.12
581.30	44638.70
581.46	44802.53
581.62	44781.47
581.78	44725.30
581.94	44935.95
582.10	44641.04
582.26	44858.71
582.42	45085.74
582.58	44589.55
582.74	44100.37
582.90	44708.91
583.06	44776.79
583.22	44636.36
583.38	44905.52
583.54	44369.54
583.70	44868.07
583.86	44151.87
584.02	44051.22
584.18	44697.21
584.34	44399.96
584.50	44435.07
584.66	44657.42
584.82	44109.74
584.98	45024.89
585.14	44942.97
585.30	44552.10
585.46	44659.76
585.62	44708.91
585.78	44598.91
585.94	44673.81
586.10	44830.62
586.26	44882.11
586.42	44605.93
586.58	44673.81
586.74	45076.38
586.90	44477.20
587.06	44634.02
587.22	44725.30
587.38	44708.91
587.54	45020.20
587.70	45085.74
587.86	44797.85
588.02	44519.33
588.18	45010.84
588.34	44608.27
588.49	44807.22
588.65	44509.97
588.81	44161.23
588.97	44945.31
589.13	44252.51
589.29	44767.43
589.45	44711.25
589.61	44767.43
589.77	44664.44
589.93	44879.77
590.08	45099.78
590.24	45174.68
