SpectraSuite Data File
++++++++++++++++++++++++++++++++++++
Date: Fri Oct 25 11:25:59 EDT 2013
User: price-jones
Dark Spectrum Present: No
Reference Spectrum Present: No
Number of Sampled Component Spectra: 1
Spectrometers: USB2+H05261
Integration Time (usec): 100000 (USB2+H05261)
Spectra Averaged: 1 (USB2+H05261)
Boxcar Smoothing: 0 (USB2+H05261)
Correct for Electrical Dark: No (USB2+H05261)
Strobe/Lamp Enabled: No (USB2+H05261)
Correct for Detector Non-linearity: No (USB2+H05261)
Correct for Stray Light: No (USB2+H05261)
Number of Pixels in Processed Spectrum: 2048
>>>>>Begin Processed Spectral Data<<<<<
365.73	191.92
365.92	191.92
366.12	191.92
366.32	135.75
366.52	182.56
366.72	170.86
366.91	112.35
367.11	74.90
367.31	166.18
367.51	177.88
367.70	147.45
367.90	121.71
368.10	100.64
368.30	135.75
368.49	107.66
368.69	135.75
368.89	173.20
369.09	177.88
369.28	112.35
369.48	168.52
369.68	152.13
369.87	198.95
370.07	170.86
370.27	280.86
370.47	255.12
370.66	589.82
370.86	739.61
371.06	716.20
371.25	746.63
371.45	603.86
371.65	620.24
371.84	638.97
372.04	676.41
372.24	727.91
372.44	793.44
372.63	828.55
372.83	809.83
373.03	826.21
373.22	805.14
373.42	753.65
373.62	772.38
373.81	770.04
374.01	837.91
374.21	798.12
374.40	863.66
374.60	828.55
374.79	905.79
374.99	830.89
375.19	847.27
375.38	791.10
375.58	795.78
375.78	854.30
375.97	889.40
376.17	919.83
376.37	889.40
376.56	882.38
376.76	835.57
376.95	870.68
377.15	880.04
377.35	884.72
377.54	802.80
377.74	901.11
377.93	887.06
378.13	863.66
378.33	873.02
378.52	978.34
378.72	1022.81
378.91	1001.75
379.11	898.77
379.31	894.08
379.50	863.66
379.70	971.32
379.89	954.94
380.09	961.96
380.28	952.60
380.48	943.24
380.68	985.37
380.87	1055.58
381.07	1034.52
381.26	994.73
381.46	1022.81
381.65	1088.35
381.85	1018.13
382.04	1125.80
382.24	1118.78
382.43	1104.73
382.63	1083.67
382.83	947.92
383.02	1048.56
383.22	1071.97
383.41	1027.50
383.61	1083.67
383.80	1184.31
384.00	1083.67
384.19	1151.54
384.39	1146.86
384.58	1060.26
384.78	1203.04
384.97	1167.93
385.17	1111.75
385.36	1104.73
385.56	1172.61
385.75	1184.31
385.95	1217.08
386.14	1240.48
386.34	1214.74
386.53	1207.72
386.72	1179.63
386.92	1289.64
387.11	1200.69
387.31	1245.16
387.50	1224.10
387.70	1294.32
387.89	1273.25
388.09	1294.32
388.28	1287.29
388.48	1327.08
388.67	1315.38
388.86	1322.40
389.06	1322.40
389.25	1303.68
389.45	1282.61
389.64	1357.51
389.84	1299.00
390.03	1296.66
390.22	1446.45
390.42	1383.26
390.61	1364.53
390.81	1437.09
391.00	1359.85
391.19	1423.05
391.39	1416.02
391.58	1481.56
391.78	1392.62
391.97	1469.86
392.16	1432.41
392.36	1509.65
392.55	1547.09
392.75	1591.56
392.94	1563.48
393.13	1488.58
393.33	1444.11
393.52	1640.72
393.71	1547.09
393.91	1565.82
394.10	1631.35
394.29	1490.92
394.49	1640.72
394.68	1614.97
394.88	1575.18
395.07	1671.14
395.26	1692.21
395.46	1722.63
395.65	1696.89
395.84	1739.02
396.04	1809.23
396.23	1736.68
396.42	1834.98
396.62	1729.66
396.81	1696.89
397.00	1769.44
397.19	1760.08
397.39	1722.63
397.58	1900.52
397.77	1853.70
397.97	1727.32
398.16	1919.24
398.35	1851.36
398.55	1884.13
398.74	1865.41
398.93	1963.71
399.12	1881.79
399.32	1952.01
399.51	1959.03
399.70	1856.04
399.90	2029.24
400.09	2019.88
400.28	2043.29
400.47	2066.69
400.67	2148.61
400.86	1970.73
401.05	2139.25
401.24	2019.88
401.44	2118.18
401.63	2148.61
401.82	2162.66
402.01	2148.61
402.21	2179.04
402.40	2122.87
402.59	2251.60
402.78	2230.53
402.97	2272.66
403.17	2186.06
403.36	2237.55
403.55	2228.19
403.74	2289.04
403.93	2380.32
404.13	2392.03
404.32	2303.09
404.51	2431.82
404.70	2403.73
404.89	2389.69
405.09	2525.44
405.28	2546.50
405.47	2502.03
405.66	2560.55
405.85	2593.31
406.05	2520.76
406.24	2511.39
406.43	2523.10
406.62	2658.85
406.81	2658.85
407.00	2555.86
407.20	2574.59
407.39	2689.28
407.58	2651.83
407.77	2747.79
407.96	2658.85
408.15	2684.59
408.34	2750.13
408.54	2789.92
408.73	2810.98
408.92	2846.09
409.11	2806.30
409.30	2960.78
409.49	2953.76
409.68	2953.76
409.87	2829.71
410.07	3075.46
410.26	2906.95
410.45	3038.02
410.64	3052.06
410.83	3105.89
411.02	3080.14
411.21	3208.87
411.40	3028.65
411.59	3136.32
411.78	3194.83
411.98	3192.49
412.17	3283.77
412.36	3410.16
412.55	3281.43
412.74	3328.24
412.93	3440.59
413.12	3258.03
413.31	3473.36
413.50	3337.60
413.69	3461.65
413.88	3585.70
414.07	3609.11
414.26	3655.92
414.45	3639.53
414.64	3798.69
414.83	3754.22
415.02	3808.05
415.22	3882.95
415.41	3981.25
415.60	3782.31
415.79	3758.90
415.98	3971.89
416.17	3988.27
416.36	3836.14
416.55	3988.27
416.74	4016.36
416.93	4004.66
417.12	3950.82
417.31	4018.70
417.50	4121.68
417.69	4273.82
417.88	4229.35
418.07	4294.88
418.26	4299.56
418.45	4388.50
418.64	4505.53
418.83	4360.42
419.02	4369.78
419.21	4461.06
419.39	4559.36
419.58	4540.64
419.77	4601.49
419.96	4500.85
420.15	4486.81
420.34	4608.51
420.53	4636.60
420.72	4550.00
420.91	4819.16
421.10	4667.03
421.29	4788.74
421.48	4592.13
421.67	4699.80
421.86	4870.65
422.05	4699.80
422.24	4713.84
422.43	4880.02
422.61	4945.55
422.80	4961.94
422.99	4952.57
423.18	4938.53
423.37	4940.87
423.56	4919.81
423.75	5022.79
423.94	4821.50
424.13	4643.62
424.32	4741.93
424.50	4973.64
424.69	5081.30
424.88	4931.51
425.07	4992.36
425.26	4961.94
425.45	4968.96
425.64	4950.23
425.83	5093.01
426.01	5074.28
426.20	5142.16
426.39	5076.62
426.58	5008.75
426.77	5053.22
426.96	5203.01
427.15	5149.18
427.33	5313.02
427.52	5060.24
427.71	5362.17
427.90	5263.86
428.09	5198.33
428.28	5385.57
428.46	5322.38
428.65	5460.47
428.84	5549.41
429.03	5526.00
429.22	5266.21
429.40	5383.23
429.59	5535.37
429.78	5191.31
429.97	5394.93
430.16	5671.12
430.34	5514.30
430.53	5689.84
430.72	5678.14
430.91	5600.90
431.10	5488.56
431.28	5785.80
431.47	5701.54
431.66	5753.04
431.85	5802.19
432.03	5975.39
432.22	5872.40
432.41	6061.99
432.60	5781.12
432.79	5970.71
432.97	6120.50
433.16	6029.22
433.35	6001.13
433.54	5919.21
433.72	6160.29
433.91	6092.41
434.10	6064.33
434.28	6078.37
434.47	6193.06
434.66	6258.59
434.85	6188.38
435.03	6197.74
435.22	6331.15
435.41	6548.82
435.59	6581.59
435.78	6455.20
435.97	6427.11
436.16	6361.58
436.34	6492.65
436.53	6427.11
436.72	6588.61
436.90	6429.45
437.09	6705.63
437.28	6462.22
437.46	6513.71
437.65	6670.53
437.84	6752.45
438.02	6778.19
438.21	6771.17
438.40	6520.73
438.58	6895.22
438.77	7145.66
438.96	6958.41
439.14	7014.59
439.33	7309.49
439.52	7297.79
439.70	7136.29
439.89	7379.71
440.08	7265.02
440.26	7293.11
440.45	7225.23
440.63	7421.84
440.82	7646.53
441.01	7470.99
441.19	7566.95
441.38	7815.05
441.57	7686.32
441.75	7824.41
441.94	7939.10
442.12	7845.48
442.31	8114.64
442.50	8152.09
442.68	7934.42
442.87	8058.46
443.05	8032.72
443.24	8166.13
443.43	8105.28
443.61	8248.05
443.80	8304.22
443.98	8121.66
444.17	7840.79
444.35	8250.39
444.54	8365.07
444.73	8500.83
444.91	8112.30
445.10	8184.85
445.28	8439.97
445.47	8217.62
445.65	8437.63
445.84	8432.95
446.02	8449.33
446.21	8348.69
446.39	8517.21
446.58	8601.47
446.77	8545.30
446.95	8257.41
447.14	8468.06
447.32	8528.91
447.51	8517.21
447.69	8437.63
447.88	8273.79
448.06	8308.90
448.25	8575.72
448.43	8585.08
448.62	8587.43
448.80	8526.57
448.99	8538.27
449.17	8659.98
449.36	8545.30
449.54	8819.14
449.73	9020.42
449.91	8973.61
450.10	8872.97
450.28	9039.15
450.46	8980.64
450.65	9050.85
450.83	8971.27
451.02	8994.68
451.20	9167.88
451.39	9221.71
451.57	9071.92
451.76	9118.73
451.94	9139.79
452.13	9406.61
452.31	9343.42
452.49	9345.76
452.68	9530.66
452.86	9430.02
453.05	9303.63
453.23	9577.47
453.42	9235.75
453.60	9256.82
453.78	9621.94
453.97	9310.65
454.15	9582.15
454.34	9497.89
454.52	9724.93
454.70	9811.53
454.89	9778.76
455.07	9863.02
455.26	9872.38
455.44	9755.35
455.62	9872.38
455.81	9823.23
455.99	10026.86
456.17	10211.76
456.36	10026.86
456.54	10176.65
456.73	10183.67
456.91	10427.09
457.09	10429.43
457.28	10317.08
457.46	10157.92
457.64	10523.05
457.83	10551.14
458.01	10317.08
458.19	10548.79
458.38	10436.45
458.56	10768.80
458.74	10743.06
458.93	10766.46
459.11	10726.68
459.29	10719.65
459.48	10698.59
459.66	10661.14
459.84	10813.28
460.03	10993.50
460.21	11042.65
460.39	10979.45
460.57	11061.37
460.76	11124.57
460.94	11194.78
461.12	11234.57
461.31	11248.61
461.49	11328.19
461.67	11185.42
461.85	11220.53
462.04	11236.91
462.22	11868.86
462.40	11606.72
462.59	11463.94
462.77	11438.20
462.95	11620.76
463.13	11611.40
463.32	11433.52
463.50	11803.32
463.68	11709.70
463.86	11595.01
464.05	11686.29
464.23	11676.93
464.41	11852.47
464.59	11480.33
464.78	12341.64
464.96	11864.18
465.14	11824.39
465.32	11894.60
465.50	12067.80
465.69	12222.28
465.87	12201.21
466.05	12168.45
466.23	11927.37
466.41	12346.33
466.60	12388.46
466.78	12016.31
466.96	11889.92
467.14	12212.92
467.32	12580.38
467.51	12524.21
467.69	12280.79
467.87	12348.67
468.05	12472.71
468.23	12423.56
468.41	12439.95
468.60	12697.41
468.78	12725.49
468.96	12582.72
469.14	12765.28
469.32	13076.57
469.50	12851.88
469.69	12996.99
469.87	13170.19
470.05	12992.31
470.23	13259.13
470.41	13097.64
470.59	12924.44
470.77	13001.68
470.95	13228.71
471.14	13514.25
471.32	13144.45
471.50	13238.07
471.68	13570.43
471.86	13664.05
472.04	13490.85
472.22	13942.57
472.40	13844.27
472.58	13806.82
472.77	13973.00
472.95	13914.48
473.13	14431.74
473.31	14066.62
473.49	14218.75
473.67	14008.11
473.85	14497.28
474.03	14670.48
474.21	14677.50
474.39	14635.37
474.57	14745.38
474.75	14740.69
474.93	14895.17
475.12	15000.49
475.30	14951.34
475.48	14984.11
475.66	15157.31
475.84	14991.13
476.02	15082.41
476.20	15421.79
476.38	15573.92
476.56	15873.51
476.74	15833.72
476.92	15971.82
477.10	15798.62
477.28	16056.08
477.46	16336.94
477.64	16407.16
477.82	16751.21
478.00	16828.45
478.18	16765.26
478.36	16657.59
478.54	17219.32
478.72	17221.66
478.90	17226.34
479.08	17324.65
479.26	17516.57
479.44	17755.30
479.62	17804.46
479.80	18178.94
479.98	17989.36
480.16	18590.88
480.34	18235.11
480.52	18773.44
480.70	18312.35
480.88	18412.99
481.06	18735.99
481.24	18717.26
481.41	19180.69
481.59	19180.69
481.77	19463.90
481.95	19351.55
482.13	19545.81
482.31	19496.66
482.49	20367.34
482.67	20156.69
482.85	20245.63
483.03	20367.34
483.21	20900.98
483.39	21076.52
483.57	21113.97
483.74	21179.51
483.92	21240.36
484.10	21357.39
484.28	21671.02
484.46	21982.31
484.64	22008.06
484.82	21790.39
485.00	22181.26
485.18	22668.09
485.35	23150.24
485.53	22799.16
485.71	23075.34
485.89	23358.55
486.07	23381.95
486.25	23405.36
486.43	23337.48
486.61	23688.56
486.78	23967.09
486.96	23866.44
487.14	24755.85
487.32	24247.95
487.50	24812.02
487.68	25088.20
487.85	25280.13
488.03	25385.45
488.21	25750.57
488.39	25881.64
488.57	25954.20
488.75	26258.47
488.92	26682.11
489.10	26600.19
489.28	26670.40
489.46	27208.73
489.64	26953.61
489.81	27651.09
489.99	27262.56
490.17	27615.98
490.35	28170.69
490.53	27960.04
490.70	27962.38
490.88	28212.82
491.06	28484.32
491.24	28627.09
491.41	28907.96
491.59	29401.81
491.77	29282.44
491.95	29387.77
492.13	29848.85
492.30	30258.45
492.48	29792.68
492.66	30143.76
492.84	30281.85
493.01	30771.02
493.19	30443.35
493.37	31241.47
493.54	31033.16
493.72	31384.24
493.90	31585.53
494.08	31543.40
494.25	32257.26
494.43	31592.55
494.61	32425.78
494.79	32393.01
494.96	32222.16
495.14	32409.40
495.32	33067.09
495.49	33244.97
495.67	32837.72
495.85	33708.40
496.02	33507.11
496.20	34019.69
496.38	33895.64
496.55	34000.96
496.73	34806.11
496.91	34916.11
497.09	34630.57
497.26	34733.55
497.44	35189.95
497.62	35026.12
497.79	36027.87
497.97	35321.02
498.14	36254.90
498.32	35681.47
498.50	36133.19
498.67	36603.64
498.85	36290.01
499.03	36533.42
499.20	36465.55
499.38	36790.88
499.56	36989.83
499.73	37233.24
499.91	37074.09
500.08	38003.28
500.26	37312.82
500.44	37457.93
500.61	37907.32
500.79	37717.73
500.97	38014.98
501.14	38281.80
501.32	38927.79
501.49	38333.29
501.67	38850.55
501.84	38810.76
502.02	38548.62
502.20	38546.28
502.37	39019.07
502.55	39108.01
502.72	39255.46
502.90	39515.26
503.07	39379.51
503.25	39770.38
503.43	39299.94
503.60	39948.26
503.78	39833.58
503.95	40023.16
504.13	40622.34
504.30	40823.62
504.48	40636.38
504.65	40554.46
504.83	40971.08
505.01	41404.08
505.18	41078.74
505.36	41219.17
505.53	41045.97
505.71	41734.09
505.88	41951.76
506.06	41186.41
506.23	41930.70
506.41	41794.95
506.58	41958.78
506.76	41708.35
506.93	42604.77
507.11	42150.71
507.28	42361.36
507.46	42513.49
507.63	43257.78
507.81	42958.19
507.98	42766.27
508.16	43360.76
508.33	43515.24
508.50	43515.24
508.68	43522.26
508.85	43988.03
509.03	43908.45
509.20	43629.93
509.38	44299.32
509.55	44133.14
509.73	44100.37
509.90	44547.42
510.08	44371.88
510.25	44196.34
510.42	44720.62
510.60	44729.98
510.77	44765.09
510.95	45230.85
511.12	45043.61
511.30	45275.32
511.47	45008.50
511.64	45851.09
511.82	45696.62
511.99	45319.79
512.17	45958.76
512.34	45663.85
512.51	46431.55
512.69	46443.25
512.86	46162.39
513.04	46471.34
513.21	46391.76
513.38	46485.38
513.56	46560.28
513.73	46616.45
513.90	46639.86
514.08	46681.98
514.25	46817.74
514.43	47604.16
514.60	46894.97
514.77	47210.95
514.95	47723.52
515.12	47753.95
515.29	47419.25
515.47	47667.35
515.64	48088.65
515.81	47730.54
515.99	47835.87
516.16	48383.55
516.33	48259.51
516.51	49186.36
516.68	48151.84
516.85	48545.05
517.03	48612.93
517.20	48385.89
517.37	48898.47
517.54	48610.59
517.72	49137.21
517.89	48952.30
518.06	49436.80
518.24	49502.33
518.41	49174.66
518.58	49467.22
518.75	48989.75
518.93	49434.45
519.10	49207.42
519.27	49741.06
519.45	49626.38
519.62	49680.21
519.79	50160.02
519.96	49663.83
520.14	50080.44
520.31	50113.21
520.48	50270.03
520.65	50658.56
520.83	50576.64
521.00	50670.26
521.17	50389.39
521.34	50438.54
521.52	50665.58
521.69	50880.91
521.86	50831.75
522.03	50693.66
522.20	51070.49
522.38	51419.23
522.55	51182.84
522.72	51400.50
522.89	50981.55
523.07	51707.12
523.24	51320.93
523.41	51765.63
523.58	51325.61
523.75	51789.03
523.92	51767.97
524.10	51873.29
524.27	51805.42
524.44	51842.87
524.61	52076.92
524.78	51901.38
524.96	52196.29
525.13	52095.64
525.30	52105.01
525.47	52479.49
525.64	52458.43
525.81	52683.12
525.98	52303.95
526.16	52519.28
526.33	52655.03
526.50	52863.34
526.67	52540.35
526.84	52540.35
527.01	52711.20
527.18	52715.89
527.36	53064.63
527.53	53081.01
527.70	53436.77
527.87	53186.33
528.04	53134.84
528.21	53546.78
528.38	53478.90
528.55	53270.59
528.72	53071.65
528.89	53303.36
529.07	53202.72
529.24	53216.76
529.41	53528.05
529.58	53556.14
529.75	53413.37
529.92	53612.31
530.09	53628.69
530.26	53853.39
530.43	53965.73
530.60	53832.32
530.77	53888.49
530.94	54005.52
531.11	53837.00
531.28	54129.57
531.46	54234.89
531.63	54291.07
531.80	54237.23
531.97	54342.56
532.14	54457.24
532.31	54375.33
532.48	54443.20
532.65	54635.13
532.82	54583.63
532.99	54527.46
533.16	54480.65
533.33	54742.79
533.50	54962.80
533.67	54815.35
533.84	54740.45
534.01	54883.22
534.18	54803.64
534.35	55297.50
534.52	55154.72
534.69	55049.40
534.86	55248.35
535.03	55199.19
535.20	55229.62
535.37	55236.64
535.54	55299.84
535.71	55180.47
535.88	55468.36
536.05	55552.62
536.22	55730.50
536.38	55327.92
536.55	55367.71
536.72	55458.99
536.89	55487.08
537.06	55484.74
537.23	55714.11
537.40	55679.00
537.57	55735.18
537.74	55660.28
537.91	55873.27
538.08	55746.88
538.25	55573.68
538.42	56023.06
538.59	56081.58
538.75	55756.24
538.92	56004.34
539.09	56006.68
539.26	55831.14
539.43	56086.26
539.60	56315.63
539.77	56367.12
539.94	56299.25
540.11	56535.64
540.28	56294.56
540.44	56519.26
540.61	56495.85
540.78	56273.50
540.95	56163.50
541.12	56310.95
541.29	56463.08
541.46	56512.23
541.62	56619.90
541.79	56465.42
541.96	56449.04
542.13	56552.02
542.30	56624.58
542.47	56530.96
542.63	56715.86
542.80	56809.48
542.97	56987.36
543.14	57153.54
543.31	56870.34
543.48	57244.82
543.64	57202.69
543.81	57343.12
543.98	57205.03
544.15	57137.16
544.32	57055.24
544.48	57462.49
544.65	57464.83
544.82	57190.99
544.99	57188.65
545.16	57286.95
545.32	57254.18
545.49	57523.35
545.66	57743.36
545.83	57504.62
546.00	57649.74
546.16	57598.24
546.33	57497.60
546.50	57516.32
546.67	57656.76
546.83	57361.85
547.00	57815.91
547.17	57717.61
547.34	57551.43
547.50	57757.40
547.67	58033.58
547.84	58124.86
548.00	57883.79
548.17	58192.74
548.34	57937.62
548.51	58185.72
548.67	58230.19
548.84	58099.12
549.01	58061.67
549.18	58096.78
549.34	58291.04
549.51	58115.50
549.68	58220.83
549.84	58330.83
550.01	58450.20
550.18	58000.82
550.34	58293.38
550.51	58340.19
550.68	58286.36
550.84	58082.73
551.01	58585.95
551.18	58372.96
551.34	58300.40
551.51	58536.80
551.68	58539.14
551.84	58546.16
552.01	58293.38
552.18	58478.28
552.34	58333.17
552.51	58576.59
552.68	58527.44
552.84	58557.86
553.01	58805.96
553.18	58681.91
553.34	59023.63
553.51	58735.74
553.67	58621.06
553.84	58829.37
554.01	58710.00
554.17	58906.60
554.34	58930.01
554.51	58850.43
554.67	59018.95
554.84	58939.37
555.00	58997.88
555.17	59025.97
555.33	58953.41
555.50	58838.73
555.67	58754.47
555.83	58930.01
556.00	58969.80
556.16	59316.20
556.33	59320.88
556.50	59274.07
556.66	59299.81
556.83	59035.33
556.99	59412.16
557.16	59395.77
557.32	59648.55
557.49	59339.60
557.65	59255.34
557.82	59311.52
557.98	59320.88
558.15	59112.57
558.32	59400.46
558.48	59245.98
558.65	59384.07
558.81	59274.07
558.98	59463.65
559.14	59545.57
559.31	59421.52
559.47	59636.85
559.64	59639.19
559.80	59475.35
559.97	59760.90
560.13	59524.50
560.30	59632.17
560.46	59732.81
560.63	59749.20
560.79	59800.69
560.96	59690.68
561.12	59852.18
561.29	59697.70
561.45	59627.49
561.61	59903.67
561.78	59739.83
561.94	59798.35
562.11	59803.03
562.27	59807.71
562.44	59730.47
562.60	59774.94
562.77	59807.71
562.93	59833.46
563.10	59901.33
563.26	59978.57
563.42	60086.23
563.59	60048.78
563.75	60088.57
563.92	59875.58
564.08	60058.15
564.24	59938.78
564.41	60034.74
564.57	59908.35
564.74	60083.89
564.90	60128.36
565.07	59882.61
565.23	60046.44
565.39	60261.77
565.56	60158.79
565.72	60088.57
565.88	60130.70
566.05	60093.25
566.21	60142.41
566.38	60287.52
566.54	60296.88
566.70	60170.49
566.87	60449.02
567.03	60149.43
567.19	60310.92
567.36	60278.16
567.52	60027.72
567.68	60472.42
567.85	60212.62
568.01	60324.97
568.17	60460.72
568.34	60170.49
568.50	60346.03
568.66	60285.18
568.83	60390.50
568.99	60505.19
569.15	60484.12
569.32	60388.16
569.48	60128.36
569.64	60439.65
569.81	60444.33
569.97	60154.11
570.13	60544.98
570.30	60257.09
570.46	60519.23
570.62	60193.90
570.78	60439.65
570.95	60278.16
571.11	60484.12
571.27	60292.20
571.43	60306.24
571.60	60662.00
571.76	60439.65
571.92	60402.21
572.09	60381.14
572.25	60662.00
572.41	60488.80
572.57	60650.30
572.74	60584.77
572.90	60432.63
573.06	60666.69
573.22	60633.92
573.38	60566.04
573.55	60711.16
573.71	60837.54
573.87	60718.18
574.03	60514.55
574.20	60598.81
574.36	60664.35
574.52	60741.58
574.68	60699.45
574.84	60863.29
575.01	60692.43
575.17	60699.45
575.33	60397.52
575.49	60591.79
575.65	60601.15
575.82	60851.59
575.98	60842.23
576.14	60849.25
576.30	60664.35
576.46	60587.11
576.62	60701.79
576.79	60617.53
576.95	60797.76
577.11	60879.67
577.27	60669.03
577.43	60652.64
577.59	60580.09
577.75	60652.64
577.92	60666.69
578.08	60776.69
578.24	60926.49
578.40	60788.39
578.56	60926.49
578.72	60619.88
578.88	60884.36
579.04	61235.44
579.21	60662.00
579.37	60741.58
579.53	60900.74
579.69	60797.76
579.85	60804.78
580.01	60706.47
580.17	60589.45
580.33	60788.39
580.49	60617.53
580.65	60786.05
580.82	60865.63
580.98	60774.35
581.14	61045.85
581.30	60926.49
581.46	60767.33
581.62	60945.21
581.78	60687.75
581.94	60924.14
582.10	60748.60
582.26	60987.34
582.42	60860.95
582.58	61095.00
582.74	60828.18
582.90	60844.57
583.06	60903.08
583.22	60828.18
583.38	60874.99
583.54	60879.67
583.70	60795.42
583.86	60949.89
584.02	60884.36
584.18	61031.81
584.34	60729.88
584.50	60877.33
584.66	60800.10
584.82	60837.54
584.98	61090.32
585.14	61078.62
585.30	60779.03
585.46	61123.09
585.62	60914.78
585.78	60893.72
585.94	60762.65
586.10	61076.28
586.26	61230.75
586.42	61041.17
586.58	61139.47
586.74	60942.87
586.90	60949.89
587.06	60818.82
587.22	61057.56
587.38	61048.19
587.54	60926.49
587.70	61350.12
587.86	61029.47
588.02	60926.49
588.18	61113.73
588.34	60891.38
588.49	60996.70
