SpectraSuite Data File
++++++++++++++++++++++++++++++++++++
Date: Fri Oct 25 10:47:51 EDT 2013
User: price-jones
Dark Spectrum Present: No
Reference Spectrum Present: No
Number of Sampled Component Spectra: 1
Spectrometers: USB2+H05261
Integration Time (usec): 100000 (USB2+H05261)
Spectra Averaged: 1 (USB2+H05261)
Boxcar Smoothing: 0 (USB2+H05261)
Correct for Electrical Dark: No (USB2+H05261)
Strobe/Lamp Enabled: No (USB2+H05261)
Correct for Detector Non-linearity: No (USB2+H05261)
Correct for Stray Light: No (USB2+H05261)
Number of Pixels in Processed Spectrum: 2048
>>>>>Begin Processed Spectral Data<<<<<
365.73	149.79
365.92	149.79
366.12	149.79
366.32	30.43
366.52	11.70
366.72	23.41
366.91	7.02
367.11	16.38
367.31	0.00
367.51	110.01
367.70	74.90
367.90	23.41
368.10	53.83
368.30	37.45
368.49	74.90
368.69	98.30
368.89	93.62
369.09	58.51
369.28	30.43
369.48	65.54
369.68	63.19
369.87	135.75
370.07	128.73
370.27	81.92
370.47	196.60
370.66	381.51
370.86	388.53
371.06	465.77
371.25	449.38
371.45	428.32
371.65	540.66
371.84	447.04
372.04	486.83
372.24	425.98
372.44	463.43
372.63	559.39
372.83	533.64
373.03	470.45
373.22	404.91
373.42	535.98
373.62	538.32
373.81	571.09
374.01	585.13
374.21	578.11
374.40	571.09
374.60	669.39
374.79	521.94
374.99	456.40
375.19	500.87
375.38	571.09
375.58	550.03
375.78	540.66
375.97	564.07
376.17	657.69
376.37	587.47
376.56	557.05
376.76	538.32
376.95	491.51
377.15	547.69
377.35	519.60
377.54	599.18
377.74	664.71
377.93	620.24
378.13	638.97
378.33	671.73
378.52	688.12
378.72	592.16
378.91	645.99
379.11	580.45
379.31	702.16
379.50	608.54
379.70	657.69
379.89	692.80
380.09	631.94
380.28	697.48
380.48	592.16
380.68	587.47
380.87	615.56
381.07	629.60
381.26	695.14
381.46	608.54
381.65	624.92
381.85	610.88
382.04	636.63
382.24	699.82
382.43	608.54
382.63	763.01
382.83	760.67
383.02	777.06
383.22	737.27
383.41	704.50
383.61	702.16
383.80	781.74
384.00	634.29
384.19	772.38
384.39	711.52
384.58	744.29
384.78	847.27
384.97	720.88
385.17	739.61
385.36	777.06
385.56	723.23
385.75	732.59
385.95	821.53
386.14	751.31
386.34	784.08
386.53	819.19
386.72	802.80
386.92	858.98
387.11	791.10
387.31	863.66
387.50	812.17
387.70	786.42
387.89	760.67
388.09	847.27
388.28	837.91
388.48	866.00
388.67	938.55
388.86	819.19
389.06	947.92
389.25	976.00
389.45	894.08
389.64	873.02
389.84	922.17
390.03	912.81
390.22	863.66
390.42	908.13
390.61	931.53
390.81	966.64
391.00	950.26
391.19	1022.81
391.39	959.62
391.58	997.07
391.78	959.62
391.97	929.19
392.16	961.96
392.36	966.64
392.55	1069.62
392.75	896.43
392.94	889.40
393.13	954.94
393.33	994.73
393.52	959.62
393.71	1027.50
393.91	1011.11
394.10	1055.58
394.29	1036.86
394.49	1102.39
394.68	1020.47
394.88	1135.16
395.07	1210.06
395.26	1149.20
395.46	1069.62
395.65	1172.61
395.84	1076.65
396.04	1125.80
396.23	1165.59
396.42	1057.92
396.62	1081.33
396.81	1167.93
397.00	1181.97
397.19	1142.18
397.39	1135.16
397.58	1310.70
397.77	1270.91
397.97	1247.51
398.16	1303.68
398.35	1352.83
398.55	1322.40
398.74	1338.79
398.93	1217.08
399.12	1210.06
399.32	1383.26
399.51	1287.29
399.70	1406.66
399.90	1411.34
400.09	1397.30
400.28	1458.15
400.47	1390.28
400.67	1446.45
400.86	1439.43
401.05	1493.26
401.24	1409.00
401.44	1500.28
401.63	1434.75
401.82	1437.09
402.01	1476.88
402.21	1514.33
402.40	1458.15
402.59	1460.49
402.78	1516.67
402.97	1493.26
403.17	1572.84
403.36	1572.84
403.55	1591.56
403.74	1715.61
403.93	1579.86
404.13	1612.63
404.32	1614.97
404.51	1633.69
404.70	1710.93
404.89	1724.97
405.09	1715.61
405.28	1661.78
405.47	1753.06
405.66	1783.49
405.85	1783.49
406.05	1757.74
406.24	1668.80
406.43	1785.83
406.62	1842.00
406.81	1858.39
407.00	1853.70
407.20	1750.72
407.39	1842.00
407.58	1851.36
407.77	1870.09
407.96	2033.93
408.15	2029.24
408.34	1888.81
408.54	1954.35
408.73	1966.05
408.92	2031.58
409.11	2029.24
409.30	2010.52
409.49	2115.84
409.68	1977.75
409.87	2153.29
410.07	2083.08
410.26	2043.29
410.45	2101.80
410.64	2202.44
410.83	2314.79
411.02	2263.30
411.21	2244.57
411.40	2237.55
411.59	2242.23
411.78	2300.75
411.98	2277.34
412.17	2352.24
412.36	2331.17
412.55	2457.56
412.74	2310.11
412.93	2389.69
413.12	2352.24
413.31	2427.14
413.50	2406.07
413.69	2506.71
413.88	2583.95
414.07	2562.89
414.26	2677.57
414.45	2595.65
414.64	2495.01
414.83	2775.88
415.02	2759.49
415.22	2654.17
415.41	2689.28
415.60	2754.81
415.79	2719.70
415.98	2869.50
416.17	2885.88
416.36	2813.32
416.55	2881.20
416.74	2920.99
416.93	2874.18
417.12	2883.54
417.31	3000.57
417.50	2967.80
417.69	3133.98
417.88	3108.23
418.07	3091.85
418.26	3038.02
418.45	3068.44
418.64	3089.51
418.83	3049.72
419.02	3141.00
419.21	3307.18
419.39	3225.26
419.58	3096.53
419.77	3110.57
419.96	3232.28
420.15	3330.58
420.34	3337.60
420.53	3286.11
420.72	3325.90
420.91	3323.56
421.10	3379.73
421.29	3368.03
421.48	3417.18
421.67	3295.47
421.86	3309.52
422.05	3363.35
422.24	3363.35
422.43	3440.59
422.61	3365.69
422.80	3494.42
422.99	3531.87
423.18	3473.36
423.37	3485.06
423.56	3515.48
423.75	3536.55
423.94	3410.16
424.13	3325.90
424.32	3311.86
424.50	3435.91
424.69	3637.19
424.88	3702.73
425.07	3569.32
425.26	3442.93
425.45	3644.21
425.64	3487.40
425.83	3604.42
426.01	3541.23
426.20	3529.53
426.39	3487.40
426.58	3541.23
426.77	3555.27
426.96	3613.79
427.15	3508.46
427.33	3637.19
427.52	3555.27
427.71	3812.73
427.90	3763.58
428.09	3702.73
428.28	3744.86
428.46	3801.03
428.65	3775.28
428.84	3896.99
429.03	3899.33
429.22	3709.75
429.40	3843.16
429.59	3920.40
429.78	3758.90
429.97	3602.08
430.16	3728.47
430.34	3875.93
430.53	3882.95
430.72	3915.72
430.91	3983.59
431.10	3983.59
431.28	4182.54
431.47	4074.87
431.66	4107.64
431.85	4142.75
432.03	4184.88
432.22	4222.33
432.41	4072.53
432.60	4126.36
432.79	4180.20
432.97	4241.05
433.16	4133.39
433.35	4112.32
433.54	4229.35
433.72	4297.22
433.91	4287.86
434.10	4210.62
434.28	4182.54
434.47	4306.59
434.66	4301.90
434.85	4540.64
435.03	4561.70
435.22	4428.29
435.41	4585.11
435.59	4550.00
435.78	4631.92
435.97	4561.70
436.16	4432.97
436.34	4575.75
436.53	4582.77
436.72	4631.92
436.90	4491.49
437.09	4720.86
437.28	4477.44
437.46	4760.65
437.65	4547.66
437.84	4910.44
438.02	4636.60
438.21	4690.43
438.40	4674.05
438.58	4936.19
438.77	4896.40
438.96	4786.40
439.14	4968.96
439.33	4994.70
439.52	5027.47
439.70	5111.73
439.89	5142.16
440.08	5055.56
440.26	5118.75
440.45	5156.20
440.63	5200.67
440.82	5191.31
441.01	5231.10
441.19	5334.08
441.38	5408.98
441.57	5432.38
441.75	5598.56
441.94	5500.26
442.12	5584.52
442.31	5579.84
442.50	5565.79
442.68	5687.50
442.87	5572.82
443.05	5652.39
443.24	5792.83
443.43	5682.82
443.61	5673.46
443.80	5837.30
443.98	5551.75
444.17	5589.20
444.35	5734.31
444.54	5834.96
444.73	5755.38
444.91	5724.95
445.10	5771.76
445.28	5776.44
445.47	5760.06
445.65	5753.04
445.84	5767.08
446.02	5982.41
446.21	6003.47
446.39	5776.44
446.58	5865.38
446.77	5799.85
446.95	5909.85
447.14	6059.65
447.32	6054.97
447.51	5935.60
447.69	5989.43
447.88	5949.64
448.06	5984.75
448.25	6132.20
448.43	5923.90
448.62	5949.64
448.80	6038.58
448.99	5951.98
449.17	6029.22
449.36	6054.97
449.54	6223.48
449.73	6251.57
449.91	6221.14
450.10	6193.06
450.28	6349.87
450.46	6387.32
450.65	6387.32
450.83	6363.92
451.02	6274.98
451.20	6567.54
451.39	6317.11
451.57	6366.26
451.76	6377.96
451.94	6520.73
452.13	6403.71
452.31	6534.78
452.49	6392.00
452.68	6553.50
452.86	6616.69
453.05	6494.99
453.23	6726.70
453.42	6532.44
453.60	6569.88
453.78	6595.63
453.97	6670.53
454.15	6551.16
454.34	6642.44
454.52	6649.46
454.70	6768.83
454.89	6918.62
455.07	6684.57
455.26	6935.01
455.44	6822.66
455.62	7115.23
455.81	6867.13
455.99	6939.69
456.17	6827.34
456.36	7012.24
456.54	7063.74
456.73	7005.22
456.91	7272.04
457.09	7164.38
457.28	7314.17
457.46	7246.30
457.64	7208.85
457.83	7084.80
458.01	7169.06
458.19	7309.49
458.38	7351.62
458.56	7412.48
458.74	7379.71
458.93	7478.01
459.11	7438.22
459.29	7403.11
459.48	7510.78
459.66	7609.08
459.84	7527.16
460.03	7859.52
460.21	7550.57
460.39	7620.78
460.57	7541.21
460.76	7541.21
460.94	7623.12
461.12	7609.08
461.31	7793.98
461.49	7648.87
461.67	7623.12
461.85	7873.56
462.04	7801.01
462.22	8285.50
462.40	7957.82
462.59	7955.48
462.77	7812.71
462.95	7974.21
463.13	7918.03
463.32	7775.26
463.50	8203.58
463.68	8056.12
463.86	8116.98
464.05	7913.35
464.23	7889.95
464.41	8191.88
464.59	8079.53
464.78	8346.35
464.96	8212.94
465.14	8028.04
465.32	8308.90
465.50	8217.62
465.69	8416.57
465.87	8198.90
466.05	8180.17
466.23	8208.26
466.41	8299.54
466.60	8407.20
466.78	8381.46
466.96	8325.29
467.14	8486.78
467.32	8503.17
467.51	8648.28
467.69	8198.90
467.87	8496.14
468.05	8531.25
468.23	8472.74
468.41	8657.64
468.60	8641.26
468.78	8636.58
468.96	8557.00
469.14	8751.26
469.32	8751.26
469.50	8521.89
469.69	8734.88
469.87	8982.98
470.05	8964.25
470.23	9022.77
470.41	8971.27
470.59	9095.32
470.77	8887.01
470.95	9055.53
471.14	9167.88
471.32	8997.02
471.50	9219.37
471.68	9160.86
471.86	9277.88
472.04	9186.60
472.22	9462.79
472.40	9191.28
472.58	9364.48
472.77	9434.70
472.95	9605.56
473.13	9846.63
473.31	9481.51
473.49	9591.52
473.67	9427.68
473.85	9605.56
474.03	9809.19
474.21	9816.21
474.39	10010.47
474.57	9867.70
474.75	9930.89
474.93	10071.33
475.12	10104.09
475.30	10143.88
475.48	10068.98
475.66	10146.22
475.84	10178.99
476.02	10146.22
476.20	10113.45
476.38	10600.29
476.56	10656.46
476.74	10532.41
476.92	10602.63
477.10	10724.33
477.28	10871.79
477.46	11016.90
477.64	11063.71
477.82	11211.17
478.00	11552.88
478.18	11171.38
478.36	11332.87
478.54	11609.06
478.72	11550.54
478.90	11875.88
479.08	11768.21
479.26	12114.61
479.44	11976.52
479.62	11836.09
479.80	11957.80
479.98	12215.26
480.16	12255.04
480.34	12418.88
480.52	12561.66
480.70	12432.93
480.88	12294.83
481.06	12465.69
481.24	12538.25
481.41	12732.51
481.59	13062.53
481.77	12926.78
481.95	13069.55
482.13	13163.17
482.31	13233.39
482.49	13392.55
482.67	13387.86
482.85	13483.83
483.03	13664.05
483.21	13715.54
483.39	13921.51
483.57	13905.12
483.74	13956.61
483.92	14258.54
484.10	14022.15
484.28	14527.71
484.46	14396.64
484.64	14740.69
484.82	14808.57
485.00	14780.48
485.18	14913.89
485.35	15070.71
485.53	14874.10
485.71	14867.08
485.89	15173.69
486.07	15269.66
486.25	15349.23
486.43	15276.68
486.61	15538.82
486.78	15843.09
486.96	16119.27
487.14	16046.71
487.32	16348.64
487.50	16547.59
487.68	16393.11
487.85	16432.90
488.03	16723.13
488.21	16830.79
488.39	16903.35
488.57	17109.32
488.75	16985.27
488.92	17584.44
489.10	17490.82
489.28	17701.47
489.46	17867.65
489.64	17851.27
489.81	18340.44
489.99	18441.08
490.17	18471.51
490.35	18480.87
490.53	18574.49
490.70	18853.02
490.88	18771.10
491.06	19016.85
491.24	19225.16
491.41	18937.27
491.59	19248.57
491.77	18998.13
491.95	19300.06
492.13	19456.87
492.30	19903.92
492.48	19726.04
492.66	20119.24
492.84	19995.20
493.01	20027.96
493.19	20336.91
493.37	20580.33
493.54	20264.36
493.72	20713.74
493.90	20514.80
494.08	20802.68
494.25	21261.43
494.43	21139.72
494.61	21425.26
494.79	21472.07
494.96	21355.05
495.14	21467.39
495.32	21792.73
495.49	21783.37
495.67	22092.32
495.85	22155.51
496.02	22338.07
496.20	22160.19
496.38	22696.17
496.55	22291.26
496.73	22838.95
496.91	22796.82
497.09	22923.21
497.26	23009.81
497.44	22848.31
497.62	23030.87
497.79	22993.42
497.97	23337.48
498.14	23183.01
498.32	23161.94
498.50	23573.88
498.67	23936.66
498.85	23892.19
499.03	24191.78
499.20	23807.93
499.38	23875.80
499.56	24030.28
499.73	24528.81
499.91	24088.79
500.08	24470.30
500.26	24126.24
500.44	24554.56
500.61	24734.78
500.79	24465.62
500.97	24678.61
501.14	25483.75
501.32	25088.20
501.49	24919.68
501.67	25123.31
501.84	25373.75
502.02	25345.66
502.20	25647.59
502.37	25678.02
502.55	25806.75
502.72	25720.15
502.90	25694.40
503.07	26001.01
503.25	25996.33
503.43	25820.79
503.60	25895.69
503.78	26078.25
503.95	25781.00
504.13	26324.01
504.30	26607.21
504.48	26178.89
504.65	26881.05
504.83	26647.00
505.01	26874.03
505.18	26923.18
505.36	27016.80
505.53	27190.00
505.71	27410.01
505.88	27524.70
506.06	26960.63
506.23	27367.88
506.41	27335.12
506.58	27702.58
506.76	27496.61
506.93	27587.89
507.11	27585.55
507.28	27807.90
507.46	27875.78
507.63	27730.67
507.81	28339.21
507.98	28048.98
508.16	28243.24
508.33	28070.04
508.50	28285.37
508.68	28364.95
508.85	28470.28
509.03	28444.53
509.20	28765.18
509.38	28811.99
509.55	29153.71
509.73	28954.77
509.90	29223.93
510.08	28737.10
510.25	29240.31
510.42	29261.38
510.60	29165.42
510.77	29535.22
510.95	29544.58
511.12	29500.11
511.30	29647.57
511.47	29965.88
511.64	30036.09
511.82	30199.93
511.99	29699.06
512.17	29706.08
512.34	30115.67
512.51	30239.72
512.69	30302.92
512.86	30338.02
513.04	30937.20
513.21	30101.63
513.38	30345.05
513.56	30258.45
513.73	30637.61
513.90	30597.82
514.08	30979.33
514.25	30993.37
514.43	30827.20
514.60	30810.81
514.77	31035.50
514.95	31402.97
515.12	31192.32
515.29	31222.75
515.47	31325.73
515.64	31707.24
515.81	31732.98
515.99	31679.15
516.16	31597.23
516.33	31679.15
516.51	31878.10
516.68	31414.67
516.85	31124.44
517.03	31775.11
517.20	31770.43
517.37	31711.92
517.54	31955.33
517.72	32173.00
517.89	32034.91
518.06	32144.92
518.24	32020.87
518.41	32226.84
518.58	32140.24
518.75	32322.80
518.93	32659.84
519.10	32929.00
519.27	33144.33
519.45	32751.12
519.62	32620.05
519.79	32858.78
519.96	33130.28
520.14	33406.47
520.31	33120.92
520.48	33340.93
520.65	32980.49
520.83	33600.73
521.00	33338.59
521.17	33654.56
521.34	33509.45
521.52	33549.24
521.69	33954.15
521.86	34120.33
522.03	33961.17
522.20	33682.65
522.38	34082.88
522.55	34206.93
522.72	33893.30
522.89	34424.60
523.07	34686.74
523.24	34143.74
523.41	34466.73
523.58	34242.04
523.75	34876.32
523.92	34906.75
524.10	34813.13
524.27	35131.44
524.44	35072.93
524.61	35182.93
524.78	34803.77
524.96	35681.47
525.13	35262.51
525.30	35576.14
525.47	35204.00
525.64	35339.75
525.81	35351.45
525.98	35257.83
526.16	35248.47
526.33	35323.36
526.50	35421.67
526.67	35323.36
526.84	35489.54
527.01	35377.20
527.18	35534.01
527.36	35356.13
527.53	35782.11
527.70	36233.83
527.87	36084.04
528.04	36053.61
528.21	35992.76
528.38	35929.56
528.55	36755.77
528.72	36650.45
528.89	36514.70
529.07	36432.78
529.24	36273.62
529.41	36311.07
529.58	36737.05
529.75	36395.33
529.92	36914.93
530.09	36685.56
530.26	36591.94
530.43	36882.16
530.60	36437.46
530.77	36854.08
530.94	37518.79
531.11	37167.71
531.28	37254.31
531.46	37158.34
531.63	37736.46
531.80	37060.04
531.97	37038.98
532.14	36893.86
532.31	37041.32
532.48	37343.25
532.65	37642.84
532.82	37483.68
532.99	37923.70
533.16	37109.19
533.33	37537.51
533.50	37706.03
533.67	37813.70
533.84	37413.46
534.01	37876.89
534.18	37961.15
534.35	37876.89
534.52	37806.67
534.69	37825.40
534.86	37928.38
535.03	38277.12
535.20	38293.50
535.37	38253.72
535.54	38539.26
535.71	38459.68
535.88	38429.26
536.05	37933.06
536.22	38679.69
536.38	38527.56
536.55	38539.26
536.72	38550.96
536.89	38529.90
537.06	38213.93
537.23	38590.75
537.40	38703.10
537.57	38932.47
537.74	38806.08
537.91	38899.70
538.08	38913.75
538.25	38595.43
538.42	38773.31
538.59	39304.62
538.75	39330.36
538.92	38508.83
539.09	39426.32
539.26	39690.80
539.43	39082.27
539.60	39323.34
539.77	39257.81
539.94	39253.12
540.11	39302.28
540.28	39285.89
540.44	39379.51
540.61	39519.95
540.78	39103.33
540.95	39669.74
541.12	39246.10
541.29	39276.53
541.46	39447.39
541.62	39110.35
541.79	40046.57
541.96	39608.89
542.13	39463.77
542.30	39812.51
542.47	39711.87
542.63	39793.79
542.80	40271.26
542.97	40460.84
543.14	40320.41
543.31	40259.55
543.48	40439.78
543.64	41020.23
543.81	40203.38
543.98	40175.30
544.15	40313.39
544.32	40690.21
544.48	41104.49
544.65	40966.40
544.82	40722.98
544.99	40407.01
545.16	40989.80
545.32	40715.96
545.49	41097.47
545.66	40835.33
545.83	40919.59
546.00	40926.61
546.16	40964.06
546.33	40947.67
546.50	40367.22
546.67	41081.08
546.83	40463.18
547.00	40811.92
547.17	40790.86
547.34	41137.26
547.50	41483.66
547.67	41268.33
547.84	41179.39
548.00	41680.26
548.17	41748.14
548.34	41357.27
548.51	41516.42
548.67	41579.62
548.84	41390.03
549.01	41900.27
549.18	41170.02
549.34	41687.28
549.51	41574.94
549.68	42160.07
549.84	41645.15
550.01	41502.38
550.18	41687.28
550.34	42183.48
550.51	41977.51
550.68	41860.48
550.84	41521.10
551.01	42169.43
551.18	41904.95
551.34	41989.21
551.51	41921.34
551.68	42043.04
551.84	41998.57
552.01	41471.95
552.18	42171.77
552.34	41790.27
552.51	42298.16
552.68	42141.35
552.84	42415.19
553.01	42471.36
553.18	42139.00
553.34	42351.99
553.51	42476.04
553.67	42244.33
553.84	42466.68
554.01	42684.35
554.17	42792.01
554.34	42677.33
554.51	42754.57
554.67	42866.91
554.84	42658.60
555.00	42349.65
555.17	42291.14
555.33	42728.82
555.50	42630.52
555.67	42445.62
555.83	43267.14
556.00	42918.40
556.16	43065.86
556.33	43051.81
556.50	42663.28
556.66	42747.54
556.83	42848.19
556.99	42911.38
557.16	43405.23
557.32	43215.65
557.49	43346.72
557.65	43026.07
557.82	43482.47
557.98	42747.54
558.15	42574.34
558.32	43433.32
558.48	43187.56
558.65	43082.24
558.81	43239.06
558.98	43498.86
559.14	43360.76
559.31	43189.91
559.47	43304.59
559.64	43945.90
559.80	43662.69
559.97	43452.05
560.13	43217.99
560.30	43246.08
560.46	43269.48
560.63	43625.25
560.79	43704.82
560.96	43613.54
561.12	43332.68
561.29	43501.20
561.45	43264.80
561.61	43409.92
561.78	43299.91
561.94	43384.17
562.11	43365.45
562.27	43765.68
562.44	43693.12
562.60	43540.99
562.77	44322.72
562.93	43519.92
563.10	44027.82
563.26	43646.31
563.42	43753.97
563.59	43632.27
563.75	44006.75
563.92	44172.93
564.08	44182.29
564.24	43922.49
564.41	43533.96
564.57	43892.07
564.74	43494.18
564.90	43690.78
565.07	43789.08
565.23	43548.01
565.39	43983.35
565.56	44088.67
565.72	44109.74
565.88	43866.32
566.05	43702.48
566.21	43597.16
566.38	43718.87
566.54	43927.17
566.70	44259.53
566.87	44467.84
567.03	43800.79
567.19	44748.70
567.36	43789.08
567.52	43817.17
567.68	44182.29
567.85	44222.08
568.01	43976.33
568.17	43878.02
568.34	44100.37
568.50	44170.59
568.66	44004.41
568.83	44418.69
568.99	43971.64
569.15	43835.89
569.32	44266.55
569.48	43744.61
569.64	44392.94
569.81	44100.37
569.97	43901.43
570.13	43995.05
570.30	44280.60
570.46	43714.19
570.62	43959.94
570.78	44224.42
570.95	43732.91
571.11	44198.68
571.27	43807.81
571.43	44432.73
571.60	44250.17
571.76	44481.88
571.92	44296.98
572.09	44357.83
572.25	44201.02
572.41	44018.46
572.57	44257.19
572.74	44837.64
572.90	44706.57
573.06	44339.11
573.22	44488.90
573.38	43971.64
573.55	44055.90
573.71	44435.07
573.87	44418.69
574.03	44016.11
574.20	44287.62
574.36	44194.00
574.52	44545.08
574.68	44306.34
574.84	44170.59
575.01	44570.82
575.17	44575.50
575.33	44624.65
575.49	44105.06
575.65	44636.36
575.82	44804.88
575.98	44673.81
576.14	44732.32
576.30	44348.47
576.46	44189.31
576.62	44086.33
576.79	44397.62
576.95	43903.77
577.11	44500.61
577.27	44381.24
577.43	44231.44
577.59	44360.17
577.75	44854.03
577.92	44226.76
578.08	44449.11
578.24	44112.08
578.40	44156.55
578.56	44102.71
578.72	44229.10
578.88	44264.21
579.04	44645.72
579.21	44238.47
579.37	44535.71
579.53	44432.73
579.69	44643.38
579.85	44350.81
580.01	44486.56
580.17	44271.23
580.33	44538.05
580.49	44994.46
580.65	44414.01
580.82	44612.95
580.98	44154.21
581.14	44229.10
581.30	44678.49
581.46	44474.86
581.62	44402.30
581.78	44657.42
581.94	44921.90
582.10	44605.93
582.26	44540.39
582.42	44626.99
582.58	44442.09
582.74	44624.65
582.90	45240.21
583.06	44453.79
583.22	44861.05
583.38	45338.52
583.54	44636.36
583.70	44458.48
583.86	44533.37
584.02	44203.36
584.18	44498.26
584.34	44591.89
584.50	44610.61
584.66	44748.70
584.82	44727.64
584.98	44615.29
585.14	44931.26
585.30	44713.59
585.46	44795.51
585.62	44748.70
585.78	44751.04
585.94	44147.18
586.10	44339.11
586.26	44170.59
586.42	44722.96
586.58	44610.61
586.74	44776.79
586.90	44636.36
587.06	44367.20
587.22	44582.52
587.38	44617.63
587.54	44994.46
587.70	44690.19
587.86	44657.42
588.02	44947.65
588.18	44952.33
588.34	44811.90
588.49	44430.39
588.65	44252.51
588.81	44858.71
588.97	44538.05
589.13	44596.57
589.29	44598.91
589.45	44488.90
589.61	44421.03
589.77	45013.18
589.93	45041.27
590.08	44605.93
590.24	44982.76
