SpectraSuite Data File
++++++++++++++++++++++++++++++++++++
Date: Fri Oct 25 11:25:34 EDT 2013
User: price-jones
Dark Spectrum Present: No
Reference Spectrum Present: No
Number of Sampled Component Spectra: 1
Spectrometers: USB2+H05261
Integration Time (usec): 100000 (USB2+H05261)
Spectra Averaged: 1 (USB2+H05261)
Boxcar Smoothing: 0 (USB2+H05261)
Correct for Electrical Dark: No (USB2+H05261)
Strobe/Lamp Enabled: No (USB2+H05261)
Correct for Detector Non-linearity: No (USB2+H05261)
Correct for Stray Light: No (USB2+H05261)
Number of Pixels in Processed Spectrum: 2048
>>>>>Begin Processed Spectral Data<<<<<
365.73	231.71
365.92	231.71
366.12	231.71
366.32	170.86
366.52	112.35
366.72	220.01
366.91	142.77
367.11	154.48
367.31	110.01
367.51	173.20
367.70	140.43
367.90	166.18
368.10	112.35
368.30	88.94
368.49	105.32
368.69	128.73
368.89	163.84
369.09	236.39
369.28	117.03
369.48	201.29
369.68	234.05
369.87	177.88
370.07	222.35
370.27	283.20
370.47	358.10
370.66	528.96
370.86	650.67
371.06	688.12
371.25	617.90
371.45	695.14
371.65	723.23
371.84	725.57
372.04	664.71
372.24	744.29
372.44	781.74
372.63	772.38
372.83	751.31
373.03	730.25
373.22	741.95
373.42	711.52
373.62	739.61
373.81	793.44
374.01	819.19
374.21	812.17
374.40	840.25
374.60	786.42
374.79	779.40
374.99	842.59
375.19	968.98
375.38	875.36
375.58	784.08
375.78	847.27
375.97	870.68
376.17	854.30
376.37	800.46
376.56	882.38
376.76	861.32
376.95	847.27
377.15	971.32
377.35	950.26
377.54	973.66
377.74	816.85
377.93	863.66
378.13	882.38
378.33	929.19
378.52	910.47
378.72	957.28
378.91	931.53
379.11	936.21
379.31	884.72
379.50	929.19
379.70	1034.52
379.89	957.28
380.09	884.72
380.28	1008.77
380.48	999.41
380.68	1027.50
380.87	999.41
381.07	1034.52
381.26	1071.97
381.46	1048.56
381.65	1088.35
381.85	1046.22
382.04	1083.67
382.24	1043.88
382.43	1025.15
382.63	1050.90
382.83	1095.37
383.02	1062.60
383.22	1076.65
383.41	1156.22
383.61	1151.54
383.80	1165.59
384.00	1146.86
384.19	1191.33
384.39	1177.29
384.58	1100.05
384.78	1083.67
384.97	1205.38
385.17	1083.67
385.36	1160.91
385.56	1142.18
385.75	1196.01
385.95	1132.82
386.14	1181.97
386.34	1149.20
386.53	1221.76
386.72	1294.32
386.92	1228.78
387.11	1163.25
387.31	1282.61
387.50	1252.19
387.70	1226.44
387.89	1289.64
388.09	1245.16
388.28	1315.38
388.48	1284.95
388.67	1242.82
388.86	1327.08
389.06	1275.59
389.25	1425.39
389.45	1331.76
389.64	1331.76
389.84	1329.42
390.03	1320.06
390.22	1343.47
390.42	1364.53
390.61	1397.30
390.81	1427.73
391.00	1364.53
391.19	1378.58
391.39	1357.51
391.58	1526.03
391.78	1409.00
391.97	1577.52
392.16	1469.86
392.36	1605.61
392.55	1556.46
392.75	1465.18
392.94	1495.60
393.13	1537.73
393.33	1490.92
393.52	1558.80
393.71	1533.05
393.91	1540.07
394.10	1488.58
394.29	1537.73
394.49	1586.88
394.68	1647.74
394.88	1523.69
395.07	1556.46
395.26	1678.16
395.46	1610.29
395.65	1762.42
395.84	1776.47
396.04	1741.36
396.23	1689.87
396.42	1774.13
396.62	1809.23
396.81	1717.95
397.00	1760.08
397.19	1781.15
397.39	1820.94
397.58	1860.73
397.77	1919.24
397.97	1975.41
398.16	1788.17
398.35	1968.39
398.55	1909.88
398.74	1909.88
398.93	2022.22
399.12	1820.94
399.32	1804.55
399.51	2036.27
399.70	1907.54
399.90	1982.43
400.09	1980.09
400.28	2019.88
400.47	2012.86
400.67	2059.67
400.86	2050.31
401.05	1942.64
401.24	2122.87
401.44	2120.53
401.63	2127.55
401.82	2179.04
402.01	2148.61
402.21	2134.57
402.40	2129.89
402.59	2270.32
402.78	2244.57
402.97	2282.02
403.17	2249.25
403.36	2345.22
403.55	2258.62
403.74	2352.24
403.93	2326.49
404.13	2282.02
404.32	2373.30
404.51	2375.64
404.70	2382.67
404.89	2326.49
405.09	2363.94
405.28	2555.86
405.47	2413.09
405.66	2518.42
405.85	2492.67
406.05	2534.80
406.24	2502.03
406.43	2593.31
406.62	2628.42
406.81	2546.50
407.00	2553.52
407.20	2459.90
407.39	2581.61
407.58	2677.57
407.77	2684.59
407.96	2670.55
408.15	2731.41
408.34	2789.92
408.54	2848.43
408.73	2787.58
408.92	2899.92
409.11	2937.37
409.30	2759.49
409.49	2902.26
409.68	2920.99
409.87	3005.25
410.07	3023.97
410.26	3063.76
410.45	2939.71
410.64	2930.35
410.83	3068.44
411.02	3035.67
411.21	3073.12
411.40	3115.25
411.59	3229.94
411.78	3241.64
411.98	3208.87
412.17	3176.11
412.36	3379.73
412.55	3262.71
412.74	3318.88
412.93	3342.28
413.12	3386.76
413.31	3562.30
413.50	3529.53
413.69	3346.97
413.88	3599.74
414.07	3602.08
414.26	3754.22
414.45	3655.92
414.64	3665.28
414.83	3733.15
415.02	3899.33
415.22	3726.13
415.41	3808.05
415.60	3843.16
415.79	3747.20
415.98	4009.34
416.17	3988.27
416.36	3875.93
416.55	3896.99
416.74	4002.32
416.93	3885.29
417.12	3992.95
417.31	4208.28
417.50	4149.77
417.69	4243.39
417.88	4283.18
418.07	4266.80
418.26	4194.24
418.45	4294.88
418.64	4507.87
418.83	4381.48
419.02	4430.63
419.21	4461.06
419.39	4547.66
419.58	4311.27
419.77	4381.48
419.96	4521.92
420.15	4641.28
420.34	4463.40
420.53	4465.74
420.72	4711.50
420.91	4603.83
421.10	4730.22
421.29	4718.52
421.48	4655.33
421.67	4788.74
421.86	4819.16
422.05	4823.84
422.24	4755.97
422.43	4847.25
422.61	4833.21
422.80	4889.38
422.99	4809.80
423.18	4933.85
423.37	4987.68
423.56	4933.85
423.75	4819.16
423.94	4788.74
424.13	4662.35
424.32	4739.58
424.50	5034.49
424.69	5039.17
424.88	4945.55
425.07	4952.57
425.26	4896.40
425.45	5139.82
425.64	4870.65
425.83	4922.15
426.01	5121.09
426.20	4992.36
426.39	5149.18
426.58	5057.90
426.77	5109.39
426.96	4947.89
427.15	5076.62
427.33	5093.01
427.52	5137.48
427.71	5303.65
427.90	5212.37
428.09	5291.95
428.28	5324.72
428.46	5423.02
428.65	5376.21
428.84	5359.83
429.03	5568.13
429.22	5317.70
429.40	5437.06
429.59	5434.72
429.78	5298.97
429.97	5226.42
430.16	5432.38
430.34	5584.52
430.53	5589.20
430.72	5547.07
430.91	5659.42
431.10	5596.22
431.28	5502.60
431.47	5774.10
431.66	5940.28
431.85	5748.36
432.03	5928.58
432.22	5980.07
432.41	5799.85
432.60	5966.03
432.79	5937.94
432.97	6024.54
433.16	6139.23
433.35	5937.94
433.54	6069.01
433.72	6214.12
433.91	6057.31
434.10	6183.70
434.28	5966.03
434.47	6073.69
434.66	6244.55
434.85	6200.08
435.03	6293.70
435.22	6017.52
435.41	6324.13
435.59	6530.09
435.78	6361.58
435.97	6326.47
436.16	6274.98
436.34	6445.84
436.53	6392.00
436.72	6593.29
436.90	6417.75
437.09	6729.04
437.28	6225.82
437.46	6551.16
437.65	6534.78
437.84	6843.73
438.02	6644.78
438.21	6890.54
438.40	6675.21
438.58	6871.81
438.77	6916.28
438.96	6920.96
439.14	7194.81
439.33	7197.15
439.52	7183.10
439.70	7201.83
439.89	7131.61
440.08	7325.88
440.26	7368.01
440.45	7330.56
440.63	7515.46
440.82	7531.84
441.01	7403.11
441.19	7508.44
441.38	7529.50
441.57	7770.58
441.75	7808.03
441.94	7971.86
442.12	7976.55
442.31	8006.97
442.50	8028.04
442.68	8109.96
442.87	7967.18
443.05	7976.55
443.24	8320.60
443.43	8030.38
443.61	8025.70
443.80	8215.28
443.98	7983.57
444.17	7775.26
444.35	8283.16
444.54	8383.80
444.73	8353.37
444.91	8271.45
445.10	8409.54
445.28	8252.73
445.47	8177.83
445.65	8205.92
445.84	8365.07
446.02	8379.12
446.21	8325.29
446.39	8315.92
446.58	8624.87
446.77	8372.10
446.95	8201.24
447.14	8336.99
447.32	8397.84
447.51	8456.36
447.69	8390.82
447.88	8486.78
448.06	8442.31
448.25	8322.94
448.43	8549.98
448.62	8561.68
448.80	8486.78
448.99	8781.69
449.17	8730.20
449.36	8528.91
449.54	8713.81
449.73	8936.17
449.91	8915.10
450.10	9001.70
450.28	9081.28
450.46	9064.89
450.65	9074.26
450.83	9078.94
451.02	9041.49
451.20	9210.01
451.39	9095.32
451.57	9060.21
451.76	9092.98
451.94	9006.38
452.13	9191.28
452.31	9315.33
452.49	9109.36
452.68	9235.75
452.86	9287.25
453.05	9488.53
453.23	9352.78
453.42	9280.22
453.60	9153.84
453.78	9593.86
453.97	9404.27
454.15	9483.85
454.34	9675.77
454.52	9488.53
454.70	9973.02
454.89	9699.18
455.07	9593.86
455.26	9731.95
455.44	10047.92
455.62	9710.88
455.81	9989.41
455.99	10204.74
456.17	9994.09
456.36	10164.95
456.54	10031.54
456.73	10045.58
456.91	10497.30
457.09	10422.41
457.28	10375.59
457.46	10263.25
457.64	10469.22
457.83	10469.22
458.01	10478.58
458.19	10757.10
458.38	10560.50
458.56	10607.31
458.74	10665.82
458.93	10544.11
459.11	10637.73
459.29	10747.74
459.48	10682.20
459.66	10604.97
459.84	10691.57
460.03	11014.56
460.21	10675.18
460.39	10675.18
460.57	10747.74
460.76	11145.63
460.94	11269.68
461.12	11126.91
461.31	11044.99
461.49	11204.14
461.67	11234.57
461.85	11302.45
462.04	11056.69
462.22	11599.70
462.40	11492.03
462.59	11517.78
462.77	11487.35
462.95	11782.26
463.13	11325.85
463.32	11515.44
463.50	11489.69
463.68	11705.02
463.86	11782.26
464.05	11662.89
464.23	11693.32
464.41	11751.83
464.59	11742.47
464.78	12095.89
464.96	12028.01
465.14	11690.98
465.32	12058.44
465.50	11901.62
465.69	12353.35
465.87	11948.43
466.05	11875.88
466.23	12049.08
466.41	12383.77
466.60	12318.24
466.78	12222.28
466.96	12042.06
467.14	12011.63
467.32	12308.88
467.51	12250.36
467.69	12203.55
467.87	12535.91
468.05	12505.48
468.23	12327.60
468.41	12589.74
468.60	12383.77
468.78	12821.45
468.96	12383.77
469.14	12950.18
469.32	12767.62
469.50	12711.45
469.69	12833.16
469.87	12872.95
470.05	13167.85
470.23	13217.01
470.41	12933.80
470.59	13207.64
470.77	12905.71
470.95	13245.09
471.14	13577.45
471.32	13114.02
471.50	13434.68
471.68	13453.40
471.86	13448.72
472.04	13652.34
472.22	13785.76
472.40	13521.27
472.58	13912.14
472.77	13996.40
472.95	14108.75
473.13	14579.20
473.31	14050.24
473.49	14155.56
473.67	14265.57
473.85	14246.84
474.03	14574.52
474.21	14270.25
474.39	14413.02
474.57	14785.16
474.75	15040.28
474.93	14876.44
475.12	14869.42
475.30	15264.97
475.48	15051.99
475.66	15000.49
475.84	15037.94
476.02	15435.83
476.20	15316.47
476.38	15690.95
476.56	15875.85
476.74	15807.98
476.92	15807.98
477.10	15576.27
477.28	15903.94
477.46	15906.28
477.64	16194.17
477.82	16397.79
478.00	17034.42
478.18	16493.76
478.36	16594.40
478.54	17139.74
478.72	16985.27
478.90	17469.76
479.08	17422.95
479.26	17598.49
479.44	17488.48
479.62	17738.92
479.80	17947.23
479.98	18242.14
480.16	18471.51
480.34	18111.07
480.52	18408.31
480.70	18572.15
480.88	18272.56
481.06	18593.22
481.24	18897.49
481.41	18937.27
481.59	19370.27
481.77	19405.38
481.95	19548.15
482.13	19922.64
482.31	19470.92
482.49	20257.34
482.67	19901.58
482.85	20294.79
483.03	20505.43
483.21	20624.80
483.39	20802.68
483.57	20893.96
483.74	21263.77
483.92	21252.06
484.10	21228.66
484.28	21472.07
484.46	21872.31
484.64	22115.72
484.82	21469.73
485.00	22031.46
485.18	22487.87
485.35	22988.74
485.53	22850.65
485.71	22972.36
485.89	23367.91
486.07	23175.98
486.25	23325.78
486.43	23564.51
486.61	23541.11
486.78	23850.06
486.96	23765.80
487.14	24402.43
487.32	24645.84
487.50	24510.09
487.68	24931.39
487.85	25090.54
488.03	25116.29
488.21	25507.16
488.39	25607.80
488.57	25874.62
488.75	26153.15
488.92	26235.06
489.10	26663.38
489.28	26618.91
489.46	26855.31
489.64	26728.92
489.81	27435.76
489.99	27260.22
490.17	27814.93
490.35	28198.77
490.53	28114.52
490.70	28130.90
490.88	27976.42
491.06	28746.46
491.24	29057.75
491.41	28694.97
491.59	29219.25
491.77	29207.55
491.95	29483.73
492.13	29343.30
492.30	29600.76
492.48	29993.97
492.66	30080.56
492.84	30115.67
493.01	30270.15
493.19	30593.14
493.37	31133.81
493.54	31002.74
493.72	31679.15
493.90	31014.44
494.08	31550.42
494.25	32011.51
494.43	32086.40
494.61	32446.85
494.79	32418.76
494.96	32456.21
495.14	32437.48
495.32	32701.96
495.49	32917.29
495.67	33273.06
495.85	33436.89
496.02	33596.05
496.20	33565.62
496.38	34403.53
496.55	34092.24
496.73	34333.32
496.91	34270.12
497.09	34314.59
497.26	34972.28
497.44	34785.04
497.62	35093.99
497.79	35435.71
497.97	35381.88
498.14	35817.22
498.32	35751.68
498.50	35854.67
498.67	36507.68
498.85	36184.68
499.03	36247.88
499.20	36514.70
499.38	36706.62
499.56	36568.53
499.73	36973.44
499.91	37284.73
500.08	37530.49
500.26	37251.97
500.44	37083.45
500.61	37797.31
500.79	37460.27
500.97	38384.79
501.14	38330.95
501.32	38506.49
501.49	38277.12
501.67	38279.46
501.84	38630.54
502.02	38440.96
502.20	38817.78
502.37	39494.20
502.55	39159.50
502.72	39651.02
502.90	39283.55
503.07	39445.05
503.25	39952.94
503.43	39302.28
503.60	39498.88
503.78	39805.49
503.95	39445.05
504.13	40449.14
504.30	40449.14
504.48	40720.64
504.65	40652.76
504.83	41160.66
505.01	41027.25
505.18	41493.02
505.36	41174.70
505.53	40978.10
505.71	41029.59
505.88	41792.61
506.06	41184.07
506.23	41792.61
506.41	41495.36
506.58	41846.44
506.76	42124.96
506.93	42258.37
507.11	42146.03
507.28	42344.97
507.46	42204.54
507.63	42672.65
507.81	43374.81
507.98	42602.43
508.16	42838.83
508.33	43313.95
508.50	43264.80
508.68	43283.53
508.85	43704.82
509.03	43723.55
509.20	44088.67
509.38	44095.69
509.55	43995.05
509.73	44240.81
509.90	44414.01
510.08	44369.54
510.25	44500.61
510.42	44634.02
510.60	44580.18
510.77	44608.27
510.95	45350.22
511.12	44996.80
511.30	45251.92
511.47	45371.28
511.64	45462.57
511.82	45710.66
511.99	45537.46
512.17	45909.61
512.34	45764.49
512.51	46277.07
512.69	46101.53
512.86	46199.83
513.04	46459.63
513.21	46265.37
513.38	46424.53
513.56	46314.52
513.73	46754.54
513.90	47065.83
514.08	46513.47
514.25	47334.99
514.43	47342.02
514.60	46824.76
514.77	47239.03
514.95	47386.49
515.12	47564.37
515.29	47772.67
515.47	47749.27
515.64	47765.65
515.81	47667.35
515.99	47777.36
516.16	48350.79
516.33	48048.86
516.51	48673.78
516.68	48109.71
516.85	48439.73
517.03	48629.31
517.20	48762.72
517.37	48699.53
517.54	48570.80
517.72	48638.67
517.89	48694.85
518.06	49109.12
518.24	49041.24
518.41	49177.00
518.58	49308.07
518.75	49221.47
518.93	49312.75
519.10	49172.31
519.27	49525.74
519.45	49497.65
519.62	49834.69
519.79	49600.63
519.96	49935.33
520.14	50333.22
520.31	49787.88
520.48	50284.07
520.65	49963.42
520.83	50541.53
521.00	50548.55
521.17	50422.16
521.34	50518.12
521.52	50564.93
521.69	50663.24
521.86	50630.47
522.03	50904.31
522.20	50913.67
522.38	51302.20
522.55	51199.22
522.72	51091.55
522.89	51311.56
523.07	51456.68
523.24	51215.60
523.41	51522.21
523.58	51231.99
523.75	51908.40
523.92	51358.38
524.10	51709.46
524.27	51784.35
524.44	51562.00
524.61	51718.82
524.78	52229.05
524.96	51803.08
525.13	51945.85
525.30	52165.86
525.47	52428.00
525.64	52250.12
525.81	52229.05
525.98	52521.62
526.16	52533.32
526.33	52310.97
526.50	52800.15
526.67	52844.62
526.84	52830.57
527.01	52633.97
527.18	52905.47
527.36	52699.50
527.53	52875.04
527.70	53301.02
527.87	53120.80
528.04	53111.44
528.21	53240.17
528.38	53183.99
528.55	53418.05
528.72	53169.95
528.89	53230.80
529.07	53277.61
529.24	53111.44
529.41	53626.35
529.58	53635.72
529.75	53436.77
529.92	53673.16
530.09	53811.26
530.26	53759.76
530.43	53783.17
530.60	53572.52
530.77	53797.21
530.94	53961.05
531.11	54073.40
531.28	54028.93
531.46	54134.25
531.63	54157.66
531.80	54330.86
531.97	54412.77
532.14	54223.19
532.31	54403.41
532.48	54368.30
532.65	54461.93
532.82	54103.82
532.99	54333.20
533.16	54239.57
533.33	54412.77
533.50	54693.64
533.67	54700.66
533.84	54644.49
534.01	54878.54
534.18	54681.94
534.35	55189.83
534.52	54742.79
534.69	54988.55
534.86	55103.23
535.03	54906.63
535.20	54822.37
535.37	54960.46
535.54	55182.81
535.71	55011.95
535.88	55180.47
536.05	55110.25
536.22	55484.74
536.38	55140.68
536.55	55592.40
536.72	55510.49
536.89	55260.05
537.06	55430.91
537.23	55334.95
537.40	55313.88
537.57	55674.32
537.74	55896.67
537.91	55683.69
538.08	55683.69
538.25	55693.05
538.42	55697.73
538.59	56128.39
538.75	55683.69
538.92	55824.12
539.09	56034.77
539.26	56081.58
539.43	55969.23
539.60	56009.02
539.77	56198.60
539.94	56509.89
540.11	56184.56
540.28	56193.92
540.44	56303.93
540.61	56245.41
540.78	56289.88
540.95	56322.65
541.12	56226.69
541.29	56320.31
541.46	56308.61
541.62	56507.55
541.79	56655.01
541.96	56074.55
542.13	56437.34
542.30	56666.71
542.47	56664.37
542.63	56797.78
542.80	56807.14
542.97	56947.57
543.14	57092.69
543.31	57043.54
543.48	57027.15
543.64	57172.27
543.81	57338.44
543.98	57113.75
544.15	57247.16
544.32	57132.48
544.48	57380.57
544.65	57635.69
544.82	57244.82
544.99	57064.60
545.16	57333.76
545.32	57148.86
545.49	57441.43
545.66	57645.05
545.83	57277.59
546.00	57682.50
546.16	57521.01
546.33	57474.20
546.50	57396.96
546.67	57719.95
546.83	57511.64
547.00	57766.76
547.17	57488.24
547.34	57691.86
547.50	57684.84
547.67	57989.11
547.84	57862.72
548.00	58000.82
548.17	58033.58
548.34	58028.90
548.51	58211.46
548.67	58209.12
548.84	57879.11
549.01	58106.14
549.18	58071.03
549.34	58188.06
549.51	58202.10
549.68	58188.06
549.84	58178.70
550.01	58269.98
550.18	58178.70
550.34	58211.46
550.51	58246.57
550.68	58232.53
550.84	58108.48
551.01	58433.81
551.18	58260.62
551.34	58284.02
551.51	58698.30
551.68	58581.27
551.84	58489.99
552.01	58183.38
552.18	58599.99
552.34	58445.52
552.51	58763.83
552.68	58185.72
552.84	58520.41
553.01	58754.47
553.18	58588.29
553.34	58609.35
553.51	58548.50
553.67	58555.52
553.84	58810.64
554.01	58738.08
554.17	58873.84
554.34	58979.16
554.51	58993.20
554.67	58782.55
554.84	59175.76
555.00	58930.01
555.17	58878.52
555.33	58836.39
555.50	58595.31
555.67	59224.92
555.83	58658.51
556.00	59166.40
556.16	59367.69
556.33	59124.27
556.50	59093.85
556.66	59327.90
556.83	58951.07
556.99	59269.39
557.16	59430.88
557.32	59395.77
557.49	59564.29
557.65	59360.67
557.82	59297.47
557.98	59229.60
558.15	59393.43
558.32	59416.84
558.48	59110.23
558.65	59236.62
558.81	59260.02
558.98	59147.68
559.14	59416.84
559.31	59407.48
559.47	59601.74
559.64	59564.29
559.80	59735.15
559.97	59508.12
560.13	59576.00
560.30	59512.80
560.46	59667.28
560.63	59643.87
560.79	59678.98
560.96	59725.79
561.12	59622.81
561.29	59601.74
561.45	59810.05
561.61	59515.14
561.78	59643.87
561.94	59559.61
562.11	59601.74
562.27	59828.77
562.44	59779.62
562.60	59910.69
562.77	59831.11
562.93	59484.72
563.10	59985.59
563.26	59613.44
563.42	60074.53
563.59	59756.22
563.75	59835.80
563.92	60142.41
564.08	59957.50
564.24	59863.88
564.41	60006.65
564.57	59877.93
564.74	60020.70
564.90	59957.50
565.07	60142.41
565.23	59976.23
565.39	60034.74
565.56	59962.18
565.72	59796.01
565.88	60083.89
566.05	60016.02
566.21	60207.94
566.38	60210.28
566.54	60074.53
566.70	60210.28
566.87	60221.98
567.03	60170.49
567.19	60219.64
567.36	60083.89
567.52	60231.35
567.68	60582.43
567.85	60100.28
568.01	60484.12
568.17	60130.70
568.34	60343.69
568.50	60388.16
568.66	60275.82
568.83	60189.22
568.99	60231.35
569.15	60233.69
569.32	60395.18
569.48	60299.22
569.64	60313.26
569.81	60336.67
569.97	60198.58
570.13	60339.01
570.30	60278.16
570.46	60388.16
570.62	60465.40
570.78	60252.41
570.95	60376.46
571.11	60301.56
571.27	60324.97
571.43	60343.69
571.60	60420.93
571.76	60280.50
571.92	60287.52
572.09	60369.44
572.25	60250.07
572.41	60392.84
572.57	60395.18
572.74	60645.62
572.90	60477.10
573.06	60584.77
573.22	60505.19
573.38	60566.04
573.55	60507.53
573.71	60603.49
573.87	60507.53
574.03	60250.07
574.20	60449.02
574.36	60486.46
574.52	60598.81
574.68	60846.91
574.84	60533.28
575.01	60678.39
575.17	60528.59
575.33	60671.37
575.49	60364.76
575.65	60608.17
575.82	60666.69
575.98	60605.83
576.14	60893.72
576.30	60821.16
576.46	60662.00
576.62	60734.56
576.79	60598.81
576.95	60367.10
577.11	60685.41
577.27	60662.00
577.43	60718.18
577.59	60706.47
577.75	60713.50
577.92	60364.76
578.08	60631.58
578.24	60706.47
578.40	60772.01
578.56	60676.05
578.72	60699.45
578.88	60919.46
579.04	60748.60
579.21	60713.50
579.37	60849.25
579.53	61055.21
579.69	60484.12
579.85	60669.03
580.01	60774.35
580.17	60844.57
580.33	60676.05
580.49	60919.46
580.65	60654.98
580.82	60928.83
580.98	60615.19
581.14	60783.71
581.30	60903.08
581.46	60678.39
581.62	60823.50
581.78	60781.37
581.94	60907.76
582.10	60734.56
582.26	60650.30
582.42	60762.65
582.58	60830.52
582.74	60617.53
582.90	60846.91
583.06	60755.63
583.22	60722.86
583.38	60835.20
583.54	60952.23
583.70	60828.18
583.86	60708.82
584.02	60903.08
584.18	61036.49
584.34	60917.12
584.50	60811.80
584.66	60776.69
584.82	60624.56
584.98	60970.96
585.14	61045.85
585.30	60811.80
585.46	60863.29
585.62	60896.06
585.78	60907.76
585.94	60769.67
586.10	60788.39
586.26	60835.20
586.42	60959.25
586.58	60999.04
586.74	60956.91
586.90	60992.02
587.06	60917.12
587.22	60996.70
587.38	61024.79
587.54	61048.19
587.70	61268.20
587.86	61050.53
588.02	60816.48
588.18	61216.71
588.34	60985.00
