SpectraSuite Data File
++++++++++++++++++++++++++++++++++++
Date: Fri Oct 25 11:26:33 EDT 2013
User: price-jones
Dark Spectrum Present: No
Reference Spectrum Present: No
Number of Sampled Component Spectra: 1
Spectrometers: USB2+H05261
Integration Time (usec): 100000 (USB2+H05261)
Spectra Averaged: 1 (USB2+H05261)
Boxcar Smoothing: 0 (USB2+H05261)
Correct for Electrical Dark: No (USB2+H05261)
Strobe/Lamp Enabled: No (USB2+H05261)
Correct for Detector Non-linearity: No (USB2+H05261)
Correct for Stray Light: No (USB2+H05261)
Number of Pixels in Processed Spectrum: 2048
>>>>>Begin Processed Spectral Data<<<<<
365.73	264.48
365.92	264.48
366.12	264.48
366.32	180.22
366.52	140.43
366.72	86.60
366.91	135.75
367.11	161.50
367.31	191.92
367.51	154.48
367.70	161.50
367.90	187.24
368.10	53.83
368.30	170.86
368.49	114.69
368.69	140.43
368.89	114.69
369.09	49.15
369.28	184.90
369.48	231.71
369.68	236.39
369.87	248.10
370.07	180.22
370.27	301.93
370.47	355.76
370.66	531.30
370.86	582.79
371.06	638.97
371.25	706.84
371.45	660.03
371.65	697.48
371.84	763.01
372.04	798.12
372.24	681.10
372.44	706.84
372.63	746.63
372.83	800.46
373.03	613.22
373.22	777.06
373.42	746.63
373.62	823.87
373.81	791.10
374.01	737.27
374.21	849.61
374.40	858.98
374.60	830.89
374.79	877.70
374.99	800.46
375.19	884.72
375.38	870.68
375.58	844.93
375.78	854.30
375.97	880.04
376.17	828.55
376.37	952.60
376.56	835.57
376.76	823.87
376.95	837.91
377.15	978.34
377.35	835.57
377.54	933.87
377.74	938.55
377.93	908.13
378.13	887.06
378.33	912.81
378.52	999.41
378.72	915.15
378.91	959.62
379.11	929.19
379.31	1001.75
379.50	990.05
379.70	976.00
379.89	1039.20
380.09	933.87
380.28	1015.79
380.48	1008.77
380.68	987.71
380.87	1100.05
381.07	947.92
381.26	1090.69
381.46	931.53
381.65	1057.92
381.85	1109.41
382.04	1100.05
382.24	1107.07
382.43	1067.28
382.63	1097.71
382.83	1128.14
383.02	1188.99
383.22	1053.24
383.41	1179.63
383.61	1123.46
383.80	1121.12
384.00	1128.14
384.19	1142.18
384.39	1235.80
384.58	1111.75
384.78	1160.91
384.97	1163.25
385.17	1207.72
385.36	1174.95
385.56	1210.06
385.75	1181.97
385.95	1210.06
386.14	1186.65
386.34	1179.63
386.53	1270.91
386.72	1259.21
386.92	1416.02
387.11	1256.87
387.31	1291.98
387.50	1200.69
387.70	1313.04
387.89	1299.00
388.09	1231.12
388.28	1320.06
388.48	1270.91
388.67	1310.70
388.86	1338.79
389.06	1291.98
389.25	1336.45
389.45	1343.47
389.64	1387.94
389.84	1460.49
390.03	1476.88
390.22	1416.02
390.42	1399.64
390.61	1446.45
390.81	1427.73
391.00	1401.98
391.19	1507.30
391.39	1397.30
391.58	1451.13
391.78	1467.52
391.97	1399.64
392.16	1439.43
392.36	1575.18
392.55	1516.67
392.75	1556.46
392.94	1507.30
393.13	1584.54
393.33	1544.75
393.52	1582.20
393.71	1474.54
393.91	1638.38
394.10	1561.14
394.29	1593.90
394.49	1490.92
394.68	1549.43
394.88	1717.95
395.07	1701.57
395.26	1654.76
395.46	1624.33
395.65	1746.04
395.84	1703.91
396.04	1823.28
396.23	1666.46
396.42	1706.25
396.62	1825.62
396.81	1811.57
397.00	1870.09
397.19	1809.23
397.39	1865.41
397.58	1820.94
397.77	1753.06
397.97	1795.19
398.16	1804.55
398.35	1916.90
398.55	1860.73
398.74	1991.80
398.93	1984.77
399.12	1902.86
399.32	1863.07
399.51	1886.47
399.70	1980.09
399.90	1959.03
400.09	2069.03
400.28	2057.33
400.47	1968.39
400.67	2033.93
400.86	2057.33
401.05	2087.76
401.24	2090.10
401.44	2071.37
401.63	2190.74
401.82	2066.69
402.01	2162.66
402.21	2190.74
402.40	2153.29
402.59	2179.04
402.78	2230.53
402.97	2207.13
403.17	2275.00
403.36	2214.15
403.55	2354.58
403.74	2326.49
403.93	2424.80
404.13	2253.94
404.32	2373.30
404.51	2331.17
404.70	2492.67
404.89	2448.20
405.09	2537.14
405.28	2399.05
405.47	2424.80
405.66	2427.14
405.85	2431.82
406.05	2527.78
406.24	2569.91
406.43	2576.93
406.62	2612.04
406.81	2698.64
407.00	2586.29
407.20	2597.99
407.39	2607.36
407.58	2698.64
407.77	2663.53
407.96	2738.43
408.15	2684.59
408.34	2761.83
408.54	2864.82
408.73	2836.73
408.92	2796.94
409.11	2757.15
409.30	2906.95
409.49	2850.77
409.68	2768.85
409.87	2991.20
410.07	2944.39
410.26	2984.18
410.45	3012.27
410.64	2993.55
410.83	3042.70
411.02	3122.27
411.21	3108.23
411.40	3169.09
411.59	3241.64
411.78	3234.62
411.98	3150.36
412.17	3187.81
412.36	3290.79
412.55	3346.97
412.74	3452.29
412.93	3426.54
413.12	3335.26
413.31	3506.12
413.50	3459.31
413.69	3461.65
413.88	3665.28
414.07	3627.83
414.26	3641.87
414.45	3810.39
414.64	3651.24
414.83	3749.54
415.02	3782.31
415.22	3810.39
415.41	3824.44
415.60	3868.91
415.79	3836.14
415.98	4011.68
416.17	3950.82
416.36	3831.46
416.55	4025.72
416.74	4133.39
416.93	4105.30
417.12	4196.58
417.31	4180.20
417.50	4187.22
417.69	4264.46
417.88	4332.33
418.07	4327.65
418.26	4322.97
418.45	4409.57
418.64	4432.97
418.83	4484.47
419.02	4533.62
419.21	4526.60
419.39	4482.13
419.58	4545.32
419.77	4444.68
419.96	4547.66
420.15	4519.57
420.34	4559.36
420.53	4510.21
420.72	4823.84
420.91	4772.35
421.10	4781.71
421.29	4765.33
421.48	4587.45
421.67	4667.03
421.86	4877.68
422.05	4812.14
422.24	4858.95
422.43	4936.19
422.61	4795.76
422.80	5034.49
422.99	4926.83
423.18	4887.04
423.37	5022.79
423.56	5116.41
423.75	4999.38
423.94	4968.96
424.13	4648.30
424.32	4734.90
424.50	4844.91
424.69	5210.03
424.88	5062.58
425.07	4849.59
425.26	4903.42
425.45	4905.76
425.64	4898.74
425.83	4954.91
426.01	4973.64
426.20	5104.71
426.39	5041.51
426.58	5013.43
426.77	5041.51
426.96	5107.05
427.15	5078.96
427.33	5359.83
427.52	5331.74
427.71	5170.24
427.90	5114.07
428.09	5301.31
428.28	5383.23
428.46	5462.81
428.65	5352.81
428.84	5462.81
429.03	5612.60
429.22	5502.60
429.40	5537.71
429.59	5551.75
429.78	5357.49
429.97	5432.38
430.16	5518.98
430.34	5659.42
430.53	5544.73
430.72	5584.52
430.91	5654.73
431.10	5664.10
431.28	5888.79
431.47	5996.45
431.66	5788.14
431.85	5771.76
432.03	5940.28
432.22	6022.20
432.41	5863.04
432.60	6029.22
432.79	6038.58
432.97	6038.58
433.16	6008.16
433.35	5888.79
433.54	6059.65
433.72	6069.01
433.91	6160.29
434.10	6202.42
434.28	6106.46
434.47	6265.61
434.66	6207.10
434.85	6417.75
435.03	6335.83
435.22	6263.27
435.41	6389.66
435.59	6354.55
435.78	6459.88
435.97	6410.73
436.16	6420.09
436.34	6396.68
436.53	6579.25
436.72	6881.18
436.90	6614.35
437.09	6537.12
437.28	6635.42
437.46	6619.04
437.65	6623.72
437.84	6932.67
438.02	6698.61
438.21	6768.83
438.40	6586.27
438.58	7030.97
438.77	7239.28
438.96	6939.69
439.14	7119.91
439.33	7274.38
439.52	7286.09
439.70	7283.75
439.89	7494.40
440.08	7396.09
440.26	7339.92
440.45	7318.86
440.63	7456.95
440.82	7653.55
441.01	7438.22
441.19	7592.70
441.38	7618.44
441.57	7754.19
441.75	7950.80
441.94	8142.72
442.12	7726.11
442.31	8145.06
442.50	8262.09
442.68	8060.80
442.87	7939.10
443.05	8060.80
443.24	8102.93
443.43	8194.22
443.61	8208.26
443.80	8479.76
443.98	8065.49
444.17	7901.65
444.35	8189.53
444.54	8409.54
444.73	8561.68
444.91	8439.97
445.10	8390.82
445.28	8479.76
445.47	8271.45
445.65	8250.39
445.84	8540.61
446.02	8287.84
446.21	8416.57
446.39	8301.88
446.58	8730.20
446.77	8486.78
446.95	8339.33
447.14	8468.06
447.32	8645.94
447.51	8454.02
447.69	8477.42
447.88	8505.51
448.06	8444.65
448.25	8608.49
448.43	8564.02
448.62	8638.92
448.80	8521.89
448.99	8681.05
449.17	8641.26
449.36	8557.00
449.54	8858.93
449.73	8870.63
449.91	8992.34
450.10	8898.72
450.28	8990.00
450.46	9324.69
450.65	8980.64
450.83	9231.07
451.02	9090.64
451.20	9231.07
451.39	9048.51
451.57	9158.52
451.76	9172.56
451.94	9228.73
452.13	9373.85
452.31	9275.54
452.49	9284.91
452.68	9224.05
452.86	9542.36
453.05	9467.47
453.23	9572.79
453.42	9373.85
453.60	9348.10
453.78	9605.56
453.97	9446.40
454.15	9659.39
454.34	9453.42
454.52	9682.80
454.70	9717.90
454.89	9804.50
455.07	9930.89
455.26	9893.44
455.44	9827.91
455.62	9736.63
455.81	9898.13
455.99	10115.80
456.17	10129.84
456.36	10111.11
456.54	10080.69
456.73	10122.82
456.91	10469.22
457.09	10555.82
457.28	10448.15
457.46	10307.72
457.64	10539.43
457.83	10576.88
458.01	10707.95
458.19	10700.93
458.38	10551.14
458.56	10609.65
458.74	10747.74
458.93	10860.09
459.11	10628.37
459.29	10665.82
459.48	10829.66
459.66	10803.91
459.84	10974.77
460.03	11169.04
460.21	10902.22
460.39	11019.24
460.57	10918.60
460.76	11311.81
460.94	11054.35
461.12	11344.58
461.31	11150.31
461.49	11080.10
461.67	11157.33
461.85	11531.82
462.04	11236.91
462.22	11644.17
462.40	11592.67
462.59	11283.72
462.77	11578.63
462.95	11566.93
463.13	11573.95
463.32	11737.79
463.50	11763.53
463.68	11875.88
463.86	11953.12
464.05	11712.04
464.23	11826.73
464.41	11676.93
464.59	11562.25
464.78	12329.94
464.96	11948.43
465.14	11967.16
465.32	12140.36
465.50	12112.27
465.69	12126.32
465.87	12425.90
466.05	12224.62
466.23	12439.95
466.41	12262.07
466.60	12470.37
466.78	12278.45
466.96	11983.54
467.14	12271.43
467.32	12423.56
467.51	12418.88
467.69	12100.57
467.87	12491.44
468.05	12627.19
468.23	12491.44
468.41	12510.16
468.60	12582.72
468.78	12819.11
468.96	12629.53
469.14	12744.22
469.32	12861.24
469.50	12608.47
469.69	12994.65
469.87	13109.34
470.05	13308.29
470.23	13434.68
470.41	13092.96
470.59	13158.49
470.77	13139.77
470.95	13317.65
471.14	13612.56
471.32	13455.74
471.50	13760.01
471.68	13568.09
471.86	13855.97
472.04	13666.39
472.22	13944.91
472.40	13703.84
472.58	13734.26
472.77	13907.46
472.95	14092.37
473.13	14333.44
473.31	14068.96
473.49	14347.48
473.67	14328.76
473.85	14427.06
474.03	14637.71
474.21	14539.41
474.39	14679.84
474.57	14780.48
474.75	14766.44
474.93	14977.09
475.12	15192.42
475.30	15227.53
475.48	15257.95
475.66	15522.43
475.84	15262.63
476.02	15372.64
476.20	15274.34
476.38	15463.92
476.56	16152.04
476.74	16189.49
476.92	15702.65
477.10	15637.12
477.28	16224.59
477.46	16343.96
477.64	16381.41
477.82	16414.18
478.00	17029.74
478.18	16545.25
478.36	17118.68
478.54	17273.15
478.72	16924.41
478.90	17331.67
479.08	17476.78
479.26	17750.62
479.44	17851.27
479.62	17940.21
479.80	18061.91
479.98	18118.09
480.16	18635.35
480.34	18298.31
480.52	18633.00
480.70	18892.80
480.88	18644.71
481.06	18953.66
481.24	19094.09
481.41	19105.79
481.59	19475.60
481.77	19583.26
481.95	19548.15
482.13	19711.99
482.31	19812.63
482.49	20596.71
482.67	19948.39
482.85	20526.50
483.03	20645.87
483.21	20596.71
483.39	20898.64
483.57	20732.47
483.74	21036.74
483.92	21198.23
484.10	21177.17
484.28	21591.44
484.46	21916.78
484.64	22647.02
484.82	21811.45
485.00	22190.62
485.18	22663.41
485.35	22764.05
485.53	22792.14
485.71	23065.98
485.89	23840.70
486.07	23325.78
486.25	23791.55
486.43	23662.82
486.61	23800.91
486.78	23903.89
486.96	23880.49
487.14	24397.74
487.32	24664.57
487.50	25125.65
487.68	25104.59
487.85	25406.52
488.03	25558.65
488.21	25790.36
488.39	25778.66
488.57	26127.40
488.75	26235.06
488.92	26352.09
489.10	26696.15
489.28	26452.73
489.46	27035.53
489.64	27194.68
489.81	27859.40
489.99	27541.08
490.17	27665.13
490.35	28166.01
490.53	28187.07
490.70	28781.57
490.88	28238.56
491.06	28737.10
491.24	28952.43
491.41	29158.39
491.59	29085.84
491.77	29645.23
491.95	29596.07
492.13	29940.13
492.30	30249.08
492.48	30319.30
492.66	30057.16
492.84	30436.33
493.01	31058.91
493.19	30593.14
493.37	30897.41
493.54	31388.92
493.72	31718.94
493.90	31197.00
494.08	32084.06
494.25	32275.99
494.43	32144.92
494.61	32786.22
494.79	32643.45
494.96	32512.38
495.14	32774.52
495.32	33425.19
495.49	33076.45
495.67	33247.31
495.85	33750.52
496.02	33701.37
496.20	34183.52
496.38	33837.12
496.55	34220.97
496.73	34529.92
496.91	34403.53
497.09	34693.76
497.26	34579.07
497.44	35330.39
497.62	35337.41
497.79	35531.67
497.97	35597.21
498.14	35969.35
498.32	36140.21
498.50	36072.34
498.67	36334.48
498.85	36299.37
499.03	36865.78
499.20	36528.74
499.38	37148.98
499.56	37074.09
499.73	37319.84
499.91	37123.24
500.08	37572.62
500.26	37607.73
500.44	37914.34
500.61	38052.43
500.79	37645.18
500.97	38286.48
501.14	38639.90
501.32	38452.66
501.49	38520.54
501.67	38829.49
501.84	38787.36
502.02	38639.90
502.20	39538.67
502.37	39255.46
502.55	39386.54
502.72	39538.67
502.90	39800.81
503.07	39618.25
503.25	39899.11
503.43	40079.33
503.60	39959.97
503.78	40622.34
503.95	40343.81
504.13	40758.09
504.30	41008.53
504.48	40491.27
504.65	40896.18
504.83	41193.43
505.01	41418.12
505.18	41460.25
505.36	41640.47
505.53	41401.74
505.71	41918.99
505.88	41755.16
506.06	41729.41
506.23	41769.20
506.41	42038.36
506.58	41872.18
506.76	42834.14
506.93	42490.09
507.11	42564.98
507.28	42513.49
507.46	42637.54
507.63	43098.62
507.81	42939.47
507.98	43182.88
508.16	43089.26
508.33	43262.46
508.50	43412.26
508.68	43735.25
508.85	43770.36
509.03	43559.71
509.20	44243.15
509.38	44549.76
509.55	44566.14
509.73	44626.99
509.90	44549.76
510.08	44715.93
510.25	44542.74
510.42	44849.35
510.60	45071.70
510.77	45095.10
510.95	45359.58
511.12	45029.57
511.30	45450.86
511.47	45558.53
511.64	45368.94
511.82	46024.29
511.99	45904.93
512.17	46323.88
512.34	45827.69
512.51	46719.43
512.69	46478.36
512.86	46476.02
513.04	46536.87
513.21	46410.48
513.38	46864.55
513.56	46923.06
513.73	47283.50
513.90	47058.81
514.08	46866.89
514.25	47412.23
514.43	47459.04
514.60	47487.13
514.77	47412.23
514.95	47763.31
515.12	47456.70
515.29	48046.52
515.47	47681.39
515.64	48641.01
515.81	47782.04
515.99	47882.68
516.16	48495.90
516.33	48336.74
516.51	48631.65
516.68	48741.66
516.85	48381.21
517.03	48851.66
517.20	48884.43
517.37	49106.78
517.54	48928.90
517.72	49158.27
517.89	49193.38
518.06	49188.70
518.24	49050.61
518.41	49064.65
518.58	49298.70
518.75	49200.40
518.93	49432.11
519.10	49404.03
519.27	49574.89
519.45	50213.85
519.62	49813.62
519.79	49792.56
519.96	49982.14
520.14	50199.81
520.31	50057.04
520.48	50581.32
520.65	50562.59
520.83	50557.91
521.00	50827.07
521.17	50768.56
521.34	50784.94
521.52	50897.29
521.69	50712.39
521.86	51070.49
522.03	51082.19
522.20	50944.10
522.38	51269.43
522.55	51494.13
522.72	51594.77
522.89	51290.50
523.07	51562.00
523.24	51576.04
523.41	51784.35
523.58	51594.77
523.75	52095.64
523.92	51559.66
524.10	51978.62
524.27	52374.17
524.44	52088.62
524.61	52016.07
524.78	52261.82
524.96	52229.05
525.13	52374.17
525.30	52112.03
525.47	52392.89
525.64	52610.56
525.81	52491.19
525.98	52762.70
526.16	52816.53
526.33	52605.88
526.50	52783.76
526.67	52856.32
526.84	52868.02
527.01	52921.85
527.18	52900.79
527.36	52830.57
527.53	52952.28
527.70	53628.69
527.87	53312.72
528.04	53116.12
528.21	53499.97
528.38	53333.79
528.55	53413.37
528.72	53312.72
528.89	53305.70
529.07	53411.02
529.24	53366.55
529.41	53532.73
529.58	53879.13
529.75	53652.10
529.92	53900.20
530.09	53876.79
530.26	53951.69
530.43	54138.93
530.60	53654.44
530.77	54141.27
530.94	54312.13
531.11	54003.18
531.28	54309.79
531.46	54312.13
531.63	54323.83
531.80	54398.73
531.97	54564.91
532.14	54382.35
532.31	54555.55
532.48	54471.29
532.65	54848.11
532.82	54220.85
532.99	54681.94
533.16	54511.08
533.33	54766.20
533.50	54658.53
533.67	54827.05
533.84	54712.36
534.01	54824.71
534.18	54948.76
534.35	55454.31
534.52	55051.74
534.69	55210.90
534.86	55318.56
535.03	55145.36
535.20	55262.39
535.37	55585.38
535.54	55487.08
535.71	55222.60
535.88	55473.04
536.05	55613.47
536.22	55686.03
536.38	55496.44
536.55	55693.05
536.72	55753.90
536.89	55552.62
537.06	55543.25
537.23	55667.30
537.40	55618.15
537.57	55781.99
537.74	55636.87
537.91	55976.25
538.08	55779.65
538.25	55683.69
538.42	56069.87
538.59	56175.20
538.75	55889.65
538.92	56182.22
539.09	56259.46
539.26	56161.15
539.43	56222.01
539.60	56451.38
539.77	56423.29
539.94	56512.23
540.11	56362.44
540.28	56383.51
540.44	56477.13
540.61	56486.49
540.78	56591.81
540.95	56282.86
541.12	56465.42
541.29	56313.29
541.46	56893.74
541.62	56678.41
541.79	56793.10
541.96	56292.22
542.13	56856.29
542.30	56633.94
542.47	57090.35
542.63	57057.58
542.80	57031.83
542.97	57226.10
543.14	57401.64
543.31	57066.94
543.48	57078.64
543.64	57509.30
543.81	57385.25
543.98	57396.96
544.15	57298.65
544.32	57441.43
544.48	57584.20
544.65	57492.92
544.82	57516.32
544.99	57375.89
545.16	57446.11
545.32	57598.24
545.49	57652.08
545.66	57778.46
545.83	57607.61
546.00	57876.77
546.16	57682.50
546.33	57553.77
546.50	57513.98
546.67	57841.66
546.83	57595.90
547.00	57836.98
547.17	57783.15
547.34	57621.65
547.50	58078.05
547.67	58010.18
547.84	58059.33
548.00	58019.54
548.17	58258.27
548.34	57949.32
548.51	58152.95
548.67	58291.04
548.84	58073.37
549.01	58234.87
549.18	58089.76
549.34	58319.13
549.51	58302.74
549.68	58248.91
549.84	58614.04
550.01	58426.79
550.18	58489.99
550.34	58379.98
550.51	58529.78
550.68	58557.86
550.84	58014.86
551.01	58667.87
551.18	58468.92
551.34	58419.77
551.51	58625.74
551.68	58487.65
551.84	58782.55
552.01	58342.53
552.18	58707.66
552.34	58602.33
552.51	58873.84
552.68	58461.90
552.84	58679.57
553.01	58782.55
553.18	58880.86
553.34	59011.93
553.51	58981.50
553.67	58927.67
553.84	58862.13
554.01	58883.20
554.17	59124.27
554.34	59011.93
554.51	59058.74
554.67	59135.98
554.84	59058.74
555.00	59180.45
555.17	59161.72
555.33	58995.54
555.50	58934.69
555.67	59054.06
555.83	59302.15
556.00	58927.67
556.16	59400.46
556.33	59138.32
556.50	59384.07
556.66	59147.68
556.83	59288.11
556.99	59250.66
557.16	59594.72
557.32	59360.67
557.49	59772.60
557.65	59559.61
557.82	59412.16
557.98	59531.53
558.15	59576.00
558.32	59533.87
558.48	59419.18
558.65	59465.99
558.81	59625.15
558.98	59428.54
559.14	59393.43
559.31	59814.73
559.47	59664.94
559.64	59657.91
559.80	59777.28
559.97	59781.96
560.13	59615.79
560.30	59821.75
560.46	59817.07
560.63	59779.62
560.79	59838.14
560.96	59901.33
561.12	59852.18
561.29	59590.04
561.45	59924.74
561.61	59791.33
561.78	59903.67
561.94	59838.14
562.11	59793.67
562.27	60048.78
562.44	59849.84
562.60	60109.64
562.77	60037.08
562.93	59817.07
563.10	60158.79
563.26	59716.43
563.42	60086.23
563.59	59992.61
563.75	60016.02
563.92	60170.49
564.08	59931.76
564.24	60083.89
564.41	60243.05
564.57	60086.23
564.74	59915.37
564.90	60331.99
565.07	60350.71
565.23	59913.03
565.39	60100.28
565.56	60259.43
565.72	60231.35
565.88	60104.96
566.05	60037.08
566.21	60210.28
566.38	60170.49
566.54	60303.90
566.70	60371.78
566.87	60552.00
567.03	60308.58
567.19	60378.80
567.36	60324.97
567.52	60278.16
567.68	60652.64
567.85	60453.70
568.01	60350.71
568.17	60383.48
568.34	60676.05
568.50	60409.23
568.66	60271.14
568.83	60463.06
568.99	60317.95
569.15	60568.38
569.32	60589.45
569.48	60512.21
569.64	60568.38
569.81	60460.72
569.97	60416.25
570.13	60507.53
570.30	60388.16
570.46	60640.94
570.62	60392.84
570.78	60729.88
570.95	60301.56
571.11	60636.26
571.27	60636.26
571.43	60645.62
571.60	60718.18
571.76	60706.47
571.92	60566.04
572.09	60687.75
572.25	60479.44
572.41	60580.09
572.57	60430.29
572.74	60966.27
572.90	60603.49
573.06	60612.85
573.22	60690.09
573.38	60465.40
573.55	60701.79
573.71	60846.91
573.87	60676.05
574.03	60516.89
574.20	60867.97
574.36	60687.75
574.52	60615.19
574.68	60956.91
574.84	60783.71
575.01	60638.60
575.17	60739.24
575.33	60601.15
575.49	60657.32
575.65	60816.48
575.82	60870.31
575.98	60963.93
576.14	60865.63
576.30	60954.57
576.46	60783.71
576.62	60786.05
576.79	60804.78
576.95	60537.96
577.11	60711.16
577.27	60814.14
577.43	60830.52
577.59	60563.70
577.75	60697.11
577.92	60626.90
578.08	60676.05
578.24	60715.84
578.40	60863.29
578.56	61022.45
578.72	60985.00
578.88	61006.06
579.04	60917.12
579.21	60795.42
579.37	60856.27
579.53	61050.53
579.69	60701.79
579.85	60788.39
580.01	60748.60
580.17	60664.35
580.33	60942.87
580.49	61106.71
580.65	61015.43
580.82	60786.05
580.98	60807.12
581.14	60893.72
581.30	60938.19
581.46	60830.52
581.62	60849.25
581.78	60811.80
581.94	61010.74
582.10	61125.43
582.26	60947.55
582.42	60921.80
582.58	60963.93
582.74	60774.35
582.90	60985.00
583.06	60947.55
583.22	60912.44
583.38	60769.67
583.54	61099.68
583.70	60790.73
583.86	61095.00
584.02	60809.46
584.18	60893.72
584.34	61029.47
584.50	61048.19
584.66	60968.61
584.82	61024.79
584.98	61193.31
585.14	61158.20
585.30	60858.61
585.46	61099.68
585.62	60921.80
585.78	61254.16
585.94	60956.91
586.10	61153.52
586.26	61087.98
586.42	61216.71
586.58	61235.44
586.74	61155.86
586.90	61160.54
587.06	61097.34
587.22	61205.01
587.38	60940.53
587.54	61233.10
587.70	61228.41
587.86	60905.42
588.02	61013.08
588.18	61448.42
588.34	60966.27
588.49	60980.32
