SpectraSuite Data File
++++++++++++++++++++++++++++++++++++
Date: Fri Oct 25 10:44:28 EDT 2013
User: price-jones
Dark Spectrum Present: No
Reference Spectrum Present: No
Number of Sampled Component Spectra: 1
Spectrometers: USB2+H05261
Integration Time (usec): 100000 (USB2+H05261)
Spectra Averaged: 1 (USB2+H05261)
Boxcar Smoothing: 0 (USB2+H05261)
Correct for Electrical Dark: No (USB2+H05261)
Strobe/Lamp Enabled: No (USB2+H05261)
Correct for Detector Non-linearity: No (USB2+H05261)
Correct for Stray Light: No (USB2+H05261)
Number of Pixels in Processed Spectrum: 2048
>>>>>Begin Processed Spectral Data<<<<<
365.73	81.92
365.92	81.92
366.12	81.92
366.32	65.54
366.52	11.70
366.72	74.90
366.91	30.43
367.11	51.49
367.31	0.00
367.51	0.00
367.70	11.70
367.90	46.81
368.10	0.00
368.30	107.66
368.49	56.17
368.69	93.62
368.89	42.13
369.09	39.79
369.28	79.58
369.48	79.58
369.68	58.51
369.87	159.16
370.07	0.00
370.27	30.43
370.47	142.77
370.66	437.68
370.86	383.85
371.06	463.43
371.25	564.07
371.45	503.22
371.65	517.26
371.84	447.04
372.04	447.04
372.24	514.92
372.44	454.06
372.63	521.94
372.83	409.59
373.03	449.38
373.22	582.79
373.42	521.94
373.62	571.09
373.81	535.98
374.01	538.32
374.21	521.94
374.40	594.50
374.60	620.24
374.79	559.39
374.99	641.31
375.19	620.24
375.38	589.82
375.58	606.20
375.78	690.46
375.97	643.65
376.17	653.01
376.37	531.30
376.56	622.58
376.76	610.88
376.95	585.13
377.15	681.10
377.35	697.48
377.54	615.56
377.74	674.07
377.93	709.18
378.13	706.84
378.33	667.05
378.52	603.86
378.72	690.46
378.91	655.35
379.11	631.94
379.31	629.60
379.50	653.01
379.70	692.80
379.89	734.93
380.09	667.05
380.28	627.26
380.48	746.63
380.68	704.50
380.87	753.65
381.07	802.80
381.26	753.65
381.46	755.99
381.65	763.01
381.85	631.94
382.04	713.86
382.24	704.50
382.43	704.50
382.63	720.88
382.83	643.65
383.02	716.20
383.22	737.27
383.41	706.84
383.61	720.88
383.80	840.25
384.00	786.42
384.19	814.51
384.39	847.27
384.58	713.86
384.78	795.78
384.97	866.00
385.17	751.31
385.36	793.44
385.56	779.40
385.75	760.67
385.95	880.04
386.14	861.32
386.34	882.38
386.53	840.25
386.72	851.96
386.92	849.61
387.11	912.81
387.31	940.90
387.50	891.74
387.70	873.02
387.89	903.45
388.09	887.06
388.28	910.47
388.48	901.11
388.67	915.15
388.86	994.73
389.06	950.26
389.25	961.96
389.45	1004.09
389.64	954.94
389.84	938.55
390.03	1020.47
390.22	1062.60
390.42	968.98
390.61	1081.33
390.81	1020.47
391.00	1046.22
391.19	1015.79
391.39	1050.90
391.58	983.02
391.78	1074.31
391.97	1107.07
392.16	1057.92
392.36	1050.90
392.55	1043.88
392.75	1011.11
392.94	938.55
393.13	1050.90
393.33	1025.15
393.52	1128.14
393.71	1121.12
393.91	1163.25
394.10	1135.16
394.29	1153.88
394.49	1196.01
394.68	1196.01
394.88	1329.42
395.07	1210.06
395.26	1263.89
395.46	1210.06
395.65	1261.55
395.84	1261.55
396.04	1207.72
396.23	1263.89
396.42	1156.22
396.62	1163.25
396.81	1210.06
397.00	1256.87
397.19	1329.42
397.39	1322.40
397.58	1427.73
397.77	1385.60
397.97	1453.47
398.16	1467.52
398.35	1493.26
398.55	1502.62
398.74	1437.09
398.93	1509.65
399.12	1533.05
399.32	1423.05
399.51	1600.93
399.70	1612.63
399.90	1563.48
400.09	1624.33
400.28	1530.71
400.47	1607.95
400.67	1708.59
400.86	1582.20
401.05	1636.03
401.24	1717.95
401.44	1631.35
401.63	1708.59
401.82	1753.06
402.01	1706.25
402.21	1774.13
402.40	1746.04
402.59	1813.92
402.78	1717.95
402.97	1750.72
403.17	1872.43
403.36	1827.96
403.55	1905.20
403.74	1898.17
403.93	1923.92
404.13	1912.22
404.32	1792.85
404.51	1928.60
404.70	1870.09
404.89	1898.17
405.09	1994.14
405.28	1916.90
405.47	1973.07
405.66	2008.18
405.85	1998.82
406.05	2029.24
406.24	2097.12
406.43	2015.20
406.62	2043.29
406.81	2113.50
407.00	2113.50
407.20	2071.37
407.39	2085.42
407.58	2106.48
407.77	2120.53
407.96	2225.85
408.15	2270.32
408.34	2195.42
408.54	2305.43
408.73	2275.00
408.92	2305.43
409.11	2359.26
409.30	2270.32
409.49	2354.58
409.68	2275.00
409.87	2382.67
410.07	2464.58
410.26	2413.09
410.45	2513.74
410.64	2480.97
410.83	2499.69
411.02	2576.93
411.21	2605.02
411.40	2602.68
411.59	2593.31
411.78	2553.52
411.98	2621.40
412.17	2623.74
412.36	2677.57
412.55	2757.15
412.74	2722.04
412.93	2757.15
413.12	2647.15
413.31	2895.24
413.50	2857.79
413.69	2782.90
413.88	2829.71
414.07	2925.67
414.26	2928.01
414.45	3019.29
414.64	3005.25
414.83	3080.14
415.02	3101.21
415.22	3133.98
415.41	3141.00
415.60	3059.08
415.79	3213.56
415.98	3269.73
416.17	3286.11
416.36	3323.56
416.55	3358.67
416.74	3162.06
416.93	3302.50
417.12	3269.73
417.31	3365.69
417.50	3300.16
417.69	3485.06
417.88	3576.34
418.07	3440.59
418.26	3393.78
418.45	3442.93
418.64	3571.66
418.83	3693.37
419.02	3513.14
419.21	3672.30
419.39	3648.90
419.58	3625.49
419.77	3660.60
419.96	3658.26
420.15	3660.60
420.34	3634.85
420.53	3850.18
420.72	3763.58
420.91	3805.71
421.10	3812.73
421.29	3845.50
421.48	3803.37
421.67	4007.00
421.86	3943.80
422.05	3932.10
422.24	3721.45
422.43	3873.59
422.61	3920.40
422.80	3904.01
422.99	4025.72
423.18	3927.42
423.37	3990.61
423.56	3946.14
423.75	3889.97
423.94	3880.61
424.13	3798.69
424.32	3730.81
424.50	3936.78
424.69	3962.53
424.88	4049.13
425.07	3894.65
425.26	4004.66
425.45	3878.27
425.64	3819.75
425.83	4035.08
426.01	4077.21
426.20	4063.17
426.39	4070.19
426.58	4081.89
426.77	3913.38
426.96	4070.19
427.15	3962.53
427.33	4159.13
427.52	4154.45
427.71	4278.50
427.90	4126.36
428.09	4161.47
428.28	4201.26
428.46	4252.75
428.65	4145.09
428.84	4329.99
429.03	4147.43
429.22	4266.80
429.40	4170.83
429.59	4250.41
429.78	4002.32
429.97	3997.64
430.16	4217.65
430.34	4175.52
430.53	4128.70
430.72	4257.43
430.91	4276.16
431.10	4379.14
431.28	4479.79
431.47	4601.49
431.66	4615.54
431.85	4547.66
432.03	4568.73
432.22	4657.67
432.41	4648.30
432.60	4924.49
432.79	4713.84
432.97	4753.63
433.16	4791.08
433.35	4683.41
433.54	4660.01
433.72	4828.53
433.91	4699.80
434.10	4711.50
434.28	4751.29
434.47	4905.76
434.66	4971.30
434.85	5064.92
435.03	4807.46
435.22	5071.94
435.41	5221.74
435.59	5125.77
435.78	4987.68
435.97	5212.37
436.16	5130.45
436.34	5144.50
436.53	5128.11
436.72	5252.16
436.90	5088.32
437.09	5387.91
437.28	5109.39
437.46	5348.12
437.65	5174.92
437.84	5137.48
438.02	5317.70
438.21	5334.08
438.40	5231.10
438.58	5394.93
438.77	5444.09
438.96	5495.58
439.14	5638.35
439.33	5549.41
439.52	5645.37
439.70	5631.33
439.89	5598.56
440.08	5809.21
440.26	5944.96
440.45	5600.90
440.63	5916.87
440.82	5863.04
441.01	6071.35
441.19	6052.63
441.38	6146.25
441.57	6127.52
441.75	6256.25
441.94	6171.99
442.12	6321.79
442.31	6335.83
442.50	6434.13
442.68	6380.30
442.87	6179.01
443.05	6438.81
443.24	6527.75
443.43	6417.75
443.61	6616.69
443.80	6729.04
443.98	6530.09
444.17	6267.95
444.35	6450.52
444.54	6544.14
444.73	6431.79
444.91	6595.63
445.10	6593.29
445.28	6642.44
445.47	6478.60
445.65	6560.52
445.84	6593.29
446.02	6766.49
446.21	6600.31
446.39	6612.01
446.58	6689.25
446.77	6698.61
446.95	6597.97
447.14	6703.29
447.32	6736.06
447.51	6792.23
447.69	6707.98
447.88	6696.27
448.06	6841.39
448.25	6637.76
448.43	6862.45
448.62	6857.77
448.80	6965.43
448.99	6899.90
449.17	7047.35
449.36	6998.20
449.54	7225.23
449.73	7211.19
449.91	7138.63
450.10	7351.62
450.28	7386.73
450.46	7480.35
450.65	7248.64
450.83	7232.26
451.02	7335.24
451.20	7215.87
451.39	7201.83
451.57	7222.89
451.76	7070.76
451.94	7358.64
452.13	7342.26
452.31	7225.23
452.49	7131.61
452.68	7353.96
452.86	7246.30
453.05	7391.41
453.23	7389.07
453.42	7428.86
453.60	7302.47
453.78	7447.58
453.97	7510.78
454.15	7485.03
454.34	7536.52
454.52	7616.10
454.70	7651.21
454.89	7585.68
455.07	7693.34
455.26	7693.34
455.44	7927.39
455.62	7700.36
455.81	7857.18
455.99	7819.73
456.17	8004.63
456.36	7960.16
456.54	8135.70
456.73	8070.17
456.91	8264.43
457.09	8133.36
457.28	8439.97
457.46	8079.53
457.64	8205.92
457.83	8177.83
458.01	8077.19
458.19	8236.35
458.38	8248.05
458.56	8287.84
458.74	8301.88
458.93	8344.01
459.11	8276.13
459.29	8428.27
459.48	8290.18
459.66	8517.21
459.84	8430.61
460.03	8542.96
460.21	8535.93
460.39	8610.83
460.57	8540.61
460.76	8636.58
460.94	8674.03
461.12	8685.73
461.31	8788.71
461.49	8599.13
461.67	8734.88
461.85	8990.00
462.04	8805.10
462.22	8973.61
462.40	8894.04
462.59	9011.06
462.77	9062.55
462.95	9238.09
463.13	9071.92
463.32	9153.84
463.50	9219.37
463.68	9130.43
463.86	9156.18
464.05	9022.77
464.23	9078.94
464.41	9195.96
464.59	8954.89
464.78	9221.71
464.96	9228.73
465.14	9139.79
465.32	9521.30
465.50	9376.19
465.69	9322.35
465.87	9303.63
466.05	9205.33
466.23	9245.12
466.41	9139.79
466.60	9413.63
466.78	9378.53
466.96	9366.82
467.14	9355.12
467.32	9467.47
467.51	9369.16
467.69	9507.26
467.87	9476.83
468.05	9554.07
468.23	9598.54
468.41	9619.60
468.60	9734.29
468.78	9895.78
468.96	9441.72
469.14	9823.23
469.32	10036.22
469.50	9453.42
469.69	9741.31
469.87	9870.04
470.05	9816.21
470.23	9996.43
470.41	9893.44
470.59	9914.51
470.77	9987.07
470.95	10186.01
471.14	10218.78
471.32	10038.56
471.50	10588.58
471.68	10324.10
471.86	10471.56
472.04	10410.70
472.22	10860.09
472.40	10373.25
472.58	10635.39
472.77	10443.47
472.95	10647.10
473.13	10738.38
473.31	10441.13
473.49	10799.23
473.67	10888.17
473.85	10778.17
474.03	11026.26
474.21	11077.76
474.39	11365.64
474.57	11204.14
474.75	11201.80
474.93	11194.78
475.12	11169.04
475.30	11386.71
475.48	11344.58
475.66	11477.99
475.84	11344.58
476.02	11433.52
476.20	11433.52
476.38	11712.04
476.56	11992.90
476.74	12107.59
476.92	12028.01
477.10	11927.37
477.28	12123.98
477.46	12210.57
477.64	12402.50
477.82	12299.52
478.00	12662.30
478.18	12594.42
478.36	12580.38
478.54	13069.55
478.72	12915.08
478.90	13036.78
479.08	13043.81
479.26	13207.64
479.44	13373.82
479.62	13294.24
479.80	13383.18
479.98	13774.05
480.16	13727.24
480.34	13755.33
480.52	13710.86
480.70	13877.04
480.88	14078.32
481.06	14111.09
481.24	14078.32
481.41	14064.28
481.59	14684.52
481.77	14497.28
481.95	14558.13
482.13	14668.14
482.31	14754.74
482.49	15042.62
482.67	15255.61
482.85	15566.90
483.03	15328.17
483.21	15234.55
483.39	15468.60
483.57	15161.99
483.74	15784.57
483.92	15953.09
484.10	15639.46
484.28	15819.68
484.46	16264.38
484.64	16643.55
484.82	16226.93
485.00	16397.79
485.18	16453.97
485.35	16547.59
485.53	16196.51
485.71	16229.27
485.89	16739.51
486.07	16732.49
486.25	16435.24
486.43	17193.58
486.61	17144.42
486.78	17287.20
486.96	17659.34
487.14	17792.75
487.32	17884.03
487.50	18026.81
487.68	18010.42
487.85	18689.18
488.03	18679.82
488.21	18707.90
488.39	18860.04
488.57	18948.98
488.75	19094.09
488.92	19311.76
489.10	19536.45
489.28	19557.52
489.46	19791.57
489.64	19768.16
489.81	20491.39
489.99	20262.02
490.17	20477.35
490.35	20507.77
490.53	20570.97
490.70	20730.12
490.88	20638.84
491.06	21053.12
491.24	21055.46
491.41	20959.50
491.59	20741.83
491.77	21184.19
491.95	21472.07
492.13	21284.83
492.30	21757.62
492.48	21813.79
492.66	21823.16
492.84	21848.90
493.01	22113.38
493.19	22118.06
493.37	22576.81
493.54	22239.77
493.72	22787.46
493.90	22595.53
494.08	23208.75
494.25	23388.97
494.43	23374.93
494.61	23639.41
494.79	23424.08
494.96	23817.29
495.14	23482.59
495.32	23754.10
495.49	24231.57
495.67	24240.93
495.85	24357.96
496.02	24526.47
496.20	24659.88
496.38	24837.76
496.55	24767.55
496.73	25036.71
496.91	24816.70
497.09	25057.78
497.26	25212.25
497.44	25221.61
497.62	25720.15
497.79	25483.75
497.97	25537.59
498.14	25619.50
498.32	25638.23
498.50	25979.95
498.67	26235.06
498.85	26569.76
499.03	26321.66
499.20	26647.00
499.38	26714.87
499.56	26338.05
499.73	26691.47
499.91	27007.44
500.08	26618.91
500.26	26630.62
500.44	26848.29
500.61	26995.74
500.79	26696.15
500.97	27325.75
501.14	27241.50
501.32	27309.37
501.49	27426.40
501.67	27545.76
501.84	27693.22
502.02	27861.74
502.20	28058.34
502.37	28254.95
502.55	28079.41
502.72	28570.92
502.90	28559.22
503.07	28278.35
503.25	28687.95
503.43	28034.94
503.60	28318.14
503.78	27992.81
503.95	28617.73
504.13	28891.57
504.30	29078.82
504.48	29144.35
504.65	29546.92
504.83	29312.87
505.01	29790.34
505.18	29090.52
505.36	29710.76
505.53	29734.17
505.71	29755.23
505.88	29666.29
506.06	29685.01
506.23	29841.83
506.41	29769.27
506.58	29902.68
506.76	30335.68
506.93	30054.82
507.11	30118.01
507.28	30213.98
507.46	30115.67
507.63	29979.92
507.81	30169.51
507.98	30576.76
508.16	30455.05
508.33	30953.58
508.50	30600.16
508.68	31166.57
508.85	31477.86
509.03	31384.24
509.20	31639.36
509.38	31204.02
509.55	31477.86
509.73	31417.01
509.90	31648.72
510.08	31634.68
510.25	32163.64
510.42	31910.86
510.60	32109.81
510.77	32023.21
510.95	32503.02
511.12	32121.51
511.30	32395.35
511.47	32755.80
511.64	32933.68
511.82	32987.51
511.99	32818.99
512.17	32629.41
512.34	32718.35
512.51	32797.93
512.69	33060.07
512.86	33024.96
513.04	32961.76
513.21	33102.20
513.38	33060.07
513.56	32945.38
513.73	33111.56
513.90	33394.76
514.08	33369.02
514.25	33411.15
514.43	33511.79
514.60	33553.92
514.77	33507.11
514.95	33518.81
515.12	33610.09
515.29	33731.80
515.47	34588.44
515.64	34239.70
515.81	34487.79
515.99	34064.16
516.16	34178.84
516.33	33876.91
516.51	34162.46
516.68	33486.04
516.85	33446.26
517.03	33675.63
517.20	34532.26
517.37	34284.17
517.54	34504.18
517.72	34562.69
517.89	34473.75
518.06	34026.71
518.24	34558.01
518.41	34735.89
518.58	34902.07
518.75	34478.43
518.93	35583.16
519.10	34799.08
519.27	34967.60
519.45	35398.26
519.62	35723.60
519.79	35821.90
519.96	35723.60
520.14	35606.57
520.31	35791.47
520.48	35927.22
520.65	36009.14
520.83	36247.88
521.00	36222.13
521.17	36016.16
521.34	36294.69
521.52	36275.96
521.69	36285.33
521.86	36772.16
522.03	36582.57
522.20	36980.46
522.38	36952.38
522.55	36725.35
522.72	37008.55
522.89	36879.82
523.07	37074.09
523.24	36664.49
523.41	37046.00
523.58	37448.57
523.75	37446.23
523.92	37160.69
524.10	37570.28
524.27	37893.27
524.44	37764.54
524.61	37544.53
524.78	38087.54
524.96	37965.83
525.13	38122.65
525.30	38101.58
525.47	38052.43
525.64	38267.76
525.81	37919.02
525.98	38054.77
526.16	37930.72
526.33	37567.94
526.50	37989.24
526.67	37324.52
526.84	37942.42
527.01	37684.97
527.18	38171.80
527.36	38857.57
527.53	38698.42
527.70	39199.29
527.87	39028.43
528.04	39084.61
528.21	39199.29
528.38	38974.60
528.55	39100.99
528.72	39688.46
528.89	39494.20
529.07	39342.06
529.24	38986.30
529.41	39189.93
529.58	39370.15
529.75	39070.56
529.92	39583.14
530.09	39311.64
530.26	39276.53
530.43	39824.22
530.60	39351.43
530.77	39531.65
530.94	40067.63
531.11	40004.44
531.28	40067.63
531.46	39852.30
531.63	39777.40
531.80	39821.87
531.97	39709.53
532.14	39636.97
532.31	39611.23
532.48	40149.55
532.65	39889.75
532.82	39604.20
532.99	40680.85
533.16	39964.65
533.33	40830.65
533.50	40339.13
533.67	40266.58
533.84	40222.11
534.01	40486.59
534.18	40416.37
534.35	40594.25
534.52	40421.05
534.69	41015.55
534.86	40825.96
535.03	40620.00
535.20	40987.46
535.37	41111.51
535.54	41481.31
535.71	41113.85
535.88	40947.67
536.05	41067.04
536.22	41214.49
536.38	41357.27
536.55	40985.12
536.72	40500.63
536.89	40851.71
537.06	41212.15
537.23	41514.08
537.40	41146.62
537.57	41603.02
537.74	41240.24
537.91	41771.54
538.08	41429.82
538.25	41748.14
538.42	41790.27
538.59	41923.68
538.75	41184.07
538.92	41455.57
539.09	41371.31
539.26	41918.99
539.43	41647.49
539.60	41827.71
539.77	41724.73
539.94	41832.39
540.11	42066.45
540.28	41715.37
540.44	41776.22
540.61	42050.06
540.78	41532.81
540.95	41897.93
541.12	42150.71
541.29	41860.48
541.46	41944.74
541.62	42419.87
541.79	42197.52
541.96	41785.58
542.13	42366.04
542.30	42192.84
542.47	42897.34
542.63	42513.49
542.80	42656.26
542.97	42993.30
543.14	43012.02
543.31	42946.49
543.48	42789.67
543.64	43978.67
543.81	43365.45
543.98	43110.33
544.15	43257.78
544.32	43093.94
544.48	43356.08
544.65	43093.94
544.82	43325.66
544.99	43147.78
545.16	43363.11
545.32	43475.45
545.49	43763.34
545.66	43625.25
545.83	43608.86
546.00	44105.06
546.16	43714.19
546.33	43360.76
546.50	43068.20
546.67	43576.09
546.83	43714.19
547.00	43835.89
547.17	43487.15
547.34	43672.06
547.50	43920.15
547.67	43983.35
547.84	44034.84
548.00	44083.99
548.17	44177.61
548.34	44442.09
548.51	44406.98
548.67	44105.06
548.84	44449.11
549.01	43920.15
549.18	44100.37
549.34	43840.57
549.51	44624.65
549.68	44123.78
549.84	44516.99
550.01	44559.12
550.18	44086.33
550.34	44573.16
550.51	44336.77
550.68	44336.77
550.84	43955.26
551.01	44449.11
551.18	44825.94
551.34	44280.60
551.51	44465.50
551.68	44570.82
551.84	44680.83
552.01	44453.79
552.18	44725.30
552.34	44718.28
552.51	45127.87
552.68	44477.20
552.84	44928.92
553.01	44800.19
553.18	44484.22
553.34	44650.40
553.51	44629.34
553.67	45013.18
553.84	45404.05
554.01	44926.58
554.17	45158.30
554.34	45394.69
554.51	45233.19
554.67	45415.76
554.84	45539.80
555.00	45280.00
555.17	44907.86
555.33	45223.83
555.50	45151.27
555.67	45095.10
555.83	45074.04
556.00	45298.73
556.16	45839.39
556.33	45294.05
556.50	45167.66
556.66	45064.67
556.83	45045.95
556.99	45574.91
557.16	45546.82
557.32	45483.63
557.49	45240.21
557.65	45305.75
557.82	45661.51
557.98	45553.85
558.15	45200.43
558.32	45595.98
558.48	45062.33
558.65	45485.97
558.81	45390.01
558.98	45708.32
559.14	45375.97
559.31	45310.43
559.47	45556.19
559.64	45963.44
559.80	45631.08
559.97	45457.88
560.13	45258.94
560.30	45633.42
560.46	45638.11
560.63	45897.91
560.79	45642.79
560.96	46101.53
561.12	45790.24
561.29	45708.32
561.45	45523.42
561.61	45801.94
561.78	45921.31
561.94	45811.31
562.11	45872.16
562.27	45991.53
562.44	45879.18
562.60	46087.49
562.77	45900.25
562.93	45970.46
563.10	45975.14
563.26	45572.57
563.42	45865.14
563.59	45923.65
563.75	45705.98
563.92	46143.66
564.08	45935.35
564.24	46146.00
564.41	46309.84
564.57	46185.79
564.74	45965.78
564.90	46110.89
565.07	46279.41
565.23	45797.26
565.39	46192.81
565.56	45907.27
565.72	45708.32
565.88	45710.66
566.05	46248.99
566.21	46209.20
566.38	46174.09
566.54	45925.99
566.70	46504.10
566.87	46988.60
567.03	45855.78
567.19	46429.21
567.36	46576.66
567.52	46153.02
567.68	46258.35
567.85	46071.10
568.01	46068.76
568.17	45867.48
568.34	46326.22
568.50	46043.02
568.66	46094.51
568.83	46010.25
568.99	46206.86
569.15	45918.97
569.32	45998.55
569.48	45752.79
569.64	46337.93
569.81	46197.49
569.97	46146.00
570.13	45954.08
570.30	46160.05
570.46	46026.63
570.62	46000.89
570.78	46099.19
570.95	45921.31
571.11	46396.44
571.27	45961.10
571.43	46354.31
571.60	46429.21
571.76	46054.72
571.92	46424.53
572.09	46323.88
572.25	46480.70
572.41	46260.69
572.57	46590.70
572.74	46941.78
572.90	46684.33
573.06	46433.89
573.22	46635.17
573.38	46277.07
573.55	46471.34
573.71	46450.27
573.87	46480.70
574.03	46639.86
574.20	46401.12
574.36	46136.64
574.52	46651.56
574.68	46204.52
574.84	46106.21
575.01	46347.29
575.17	46485.38
575.33	46398.78
575.49	46211.54
575.65	46522.83
575.82	46710.07
575.98	46553.26
576.14	47119.66
576.30	46646.88
576.46	46485.38
576.62	46419.84
576.79	46405.80
576.95	45968.12
577.11	46431.55
577.27	46571.98
577.43	46487.72
577.59	46576.66
577.75	46628.15
577.92	45895.56
578.08	46155.36
578.24	46211.54
578.40	46066.42
578.56	46630.49
578.72	46335.59
578.88	46986.25
579.04	46948.81
579.21	46167.07
579.37	46782.63
579.53	46672.62
579.69	46527.51
579.85	46597.73
580.01	46808.37
580.17	46623.47
580.33	46270.05
580.49	46614.11
580.65	46705.39
580.82	46658.58
580.98	46349.63
581.14	46394.10
581.30	46272.39
581.46	46611.77
581.62	46859.87
581.78	46471.34
581.94	46738.16
582.10	46426.87
582.26	46476.02
582.42	46646.88
582.58	46525.17
582.74	46501.76
582.90	46876.25
583.06	46761.56
583.22	46602.41
583.38	47189.88
583.54	46703.05
583.70	46672.62
583.86	46356.65
584.02	46403.46
584.18	46878.59
584.34	46791.99
584.50	46700.71
584.66	46710.07
584.82	46602.41
584.98	46579.00
585.14	46815.40
585.30	46445.59
585.46	46431.55
585.62	46490.06
585.78	46340.27
585.94	46106.21
586.10	46691.35
586.26	46373.03
586.42	46897.31
586.58	46756.88
586.74	46780.29
586.90	46529.85
587.06	46511.13
587.22	46883.27
587.38	46351.97
587.54	46663.26
587.70	47075.19
587.86	46305.16
588.02	46574.32
588.18	46700.71
588.34	45963.44
588.49	45853.44
588.65	46157.70
588.81	45944.72
588.97	46181.11
589.13	46036.00
589.29	46204.52
589.45	46263.03
589.61	46337.93
589.77	46361.33
589.93	46686.67
