SpectraSuite Data File
++++++++++++++++++++++++++++++++++++
Date: Fri Oct 25 10:47:52 EDT 2013
User: price-jones
Dark Spectrum Present: No
Reference Spectrum Present: No
Number of Sampled Component Spectra: 1
Spectrometers: USB2+H05261
Integration Time (usec): 100000 (USB2+H05261)
Spectra Averaged: 1 (USB2+H05261)
Boxcar Smoothing: 0 (USB2+H05261)
Correct for Electrical Dark: No (USB2+H05261)
Strobe/Lamp Enabled: No (USB2+H05261)
Correct for Detector Non-linearity: No (USB2+H05261)
Correct for Stray Light: No (USB2+H05261)
Number of Pixels in Processed Spectrum: 2048
>>>>>Begin Processed Spectral Data<<<<<
365.73	156.82
365.92	156.82
366.12	156.82
366.32	39.79
366.52	74.90
366.72	81.92
366.91	93.62
367.11	4.68
367.31	70.22
367.51	18.72
367.70	46.81
367.90	11.70
368.10	58.51
368.30	0.00
368.49	2.34
368.69	56.17
368.89	98.30
369.09	93.62
369.28	65.54
369.48	30.43
369.68	60.85
369.87	93.62
370.07	63.19
370.27	105.32
370.47	156.82
370.66	367.46
370.86	376.83
371.06	456.40
371.25	486.83
371.45	433.00
371.65	514.92
371.84	465.77
372.04	440.02
372.24	454.06
372.44	505.56
372.63	533.64
372.83	603.86
373.03	550.03
373.22	451.72
373.42	561.73
373.62	489.17
373.81	533.64
374.01	540.66
374.21	526.62
374.40	589.82
374.60	648.33
374.79	580.45
374.99	589.82
375.19	622.58
375.38	615.56
375.58	589.82
375.78	636.63
375.97	559.39
376.17	599.18
376.37	638.97
376.56	589.82
376.76	599.18
376.95	601.52
377.15	613.22
377.35	599.18
377.54	589.82
377.74	645.99
377.93	566.41
378.13	587.47
378.33	664.71
378.52	622.58
378.72	704.50
378.91	713.86
379.11	692.80
379.31	631.94
379.50	688.12
379.70	620.24
379.89	730.25
380.09	641.31
380.28	636.63
380.48	660.03
380.68	615.56
380.87	638.97
381.07	610.88
381.26	669.39
381.46	676.41
381.65	674.07
381.85	641.31
382.04	685.78
382.24	678.76
382.43	753.65
382.63	662.37
382.83	723.23
383.02	699.82
383.22	678.76
383.41	671.73
383.61	653.01
383.80	730.25
384.00	655.35
384.19	711.52
384.39	812.17
384.58	746.63
384.78	793.44
384.97	767.70
385.17	763.01
385.36	770.04
385.56	725.57
385.75	791.10
385.95	664.71
386.14	772.38
386.34	814.51
386.53	777.06
386.72	802.80
386.92	861.32
387.11	891.74
387.31	788.76
387.50	802.80
387.70	807.48
387.89	800.46
388.09	866.00
388.28	828.55
388.48	765.36
388.67	833.23
388.86	807.48
389.06	938.55
389.25	896.43
389.45	873.02
389.64	823.87
389.84	877.70
390.03	898.77
390.22	863.66
390.42	947.92
390.61	903.45
390.81	1015.79
391.00	908.13
391.19	997.07
391.39	947.92
391.58	1034.52
391.78	1013.45
391.97	976.00
392.16	983.02
392.36	901.11
392.55	964.30
392.75	997.07
392.94	924.51
393.13	983.02
393.33	933.87
393.52	938.55
393.71	990.05
393.91	1027.50
394.10	1013.45
394.29	1034.52
394.49	1013.45
394.68	1165.59
394.88	1041.54
395.07	1109.41
395.26	1109.41
395.46	1144.52
395.65	1170.27
395.84	1109.41
396.04	1210.06
396.23	1067.28
396.42	1135.16
396.62	1032.18
396.81	1177.29
397.00	1200.69
397.19	1249.85
397.39	1149.20
397.58	1287.29
397.77	1184.31
397.97	1245.16
398.16	1228.78
398.35	1214.74
398.55	1231.12
398.74	1439.43
398.93	1355.17
399.12	1287.29
399.32	1322.40
399.51	1306.02
399.70	1350.49
399.90	1495.60
400.09	1446.45
400.28	1334.11
400.47	1355.17
400.67	1441.77
400.86	1357.51
401.05	1495.60
401.24	1460.49
401.44	1495.60
401.63	1511.99
401.82	1462.83
402.01	1497.94
402.21	1533.05
402.40	1516.67
402.59	1624.33
402.78	1521.35
402.97	1544.75
403.17	1591.56
403.36	1514.33
403.55	1596.25
403.74	1584.54
403.93	1563.48
404.13	1605.61
404.32	1664.12
404.51	1612.63
404.70	1675.82
404.89	1741.36
405.09	1771.79
405.28	1764.76
405.47	1593.90
405.66	1736.68
405.85	1750.72
406.05	1799.87
406.24	1818.60
406.43	1668.80
406.62	1818.60
406.81	1816.26
407.00	1811.57
407.20	1888.81
407.39	1832.64
407.58	1834.98
407.77	1827.96
407.96	1909.88
408.15	1935.62
408.34	1944.99
408.54	2031.58
408.73	2106.48
408.92	1996.48
409.11	2071.37
409.30	1970.73
409.49	1998.82
409.68	2078.40
409.87	1987.11
410.07	2059.67
410.26	2050.31
410.45	2211.81
410.64	2108.82
410.83	2150.95
411.02	2160.31
411.21	2289.04
411.40	2333.51
411.59	2305.43
411.78	2258.62
411.98	2366.28
412.17	2438.84
412.36	2382.67
412.55	2326.49
412.74	2368.62
412.93	2555.86
413.12	2424.80
413.31	2560.55
413.50	2457.56
413.69	2544.16
413.88	2637.78
414.07	2544.16
414.26	2684.59
414.45	2616.72
414.64	2675.23
414.83	2651.83
415.02	2588.63
415.22	2841.41
415.41	2689.28
415.60	2862.48
415.79	2928.01
415.98	2808.64
416.17	2787.58
416.36	2822.69
416.55	2841.41
416.74	2956.10
416.93	2839.07
417.12	2956.10
417.31	2909.29
417.50	3023.97
417.69	3124.62
417.88	3033.33
418.07	2970.14
418.26	3014.61
418.45	3084.83
418.64	3164.40
418.83	3171.43
419.02	3197.17
419.21	3232.28
419.39	3281.43
419.58	3183.13
419.77	3225.26
419.96	3171.43
420.15	3307.18
420.34	3234.62
420.53	3187.81
420.72	3344.63
420.91	3344.63
421.10	3318.88
421.29	3461.65
421.48	3375.05
421.67	3398.46
421.86	3398.46
422.05	3344.63
422.24	3445.27
422.43	3419.52
422.61	3391.44
422.80	3550.59
422.99	3536.55
423.18	3637.19
423.37	3698.05
423.56	3599.74
423.75	3508.46
423.94	3391.44
424.13	3342.28
424.32	3471.01
424.50	3550.59
424.69	3667.62
424.88	3618.47
425.07	3653.58
425.26	3463.99
425.45	3522.51
425.64	3487.40
425.83	3466.33
426.01	3606.77
426.20	3510.80
426.39	3538.89
426.58	3613.79
426.77	3510.80
426.96	3576.34
427.15	3616.13
427.33	3625.49
427.52	3651.24
427.71	3602.08
427.90	3595.06
428.09	3599.74
428.28	3707.41
428.46	3700.39
428.65	3679.32
428.84	3878.27
429.03	3920.40
429.22	3733.15
429.40	3808.05
429.59	3770.60
429.78	3555.27
429.97	3655.92
430.16	3705.07
430.34	3784.65
430.53	3953.16
430.72	3878.27
430.91	3908.69
431.10	3934.44
431.28	4135.73
431.47	4124.02
431.66	4243.39
431.85	4084.23
432.03	4093.60
432.22	4234.03
432.41	4084.23
432.60	4109.98
432.79	4112.32
432.97	4327.65
433.16	4311.27
433.35	4280.84
433.54	4161.47
433.72	4245.73
433.91	4159.13
434.10	4170.83
434.28	4360.42
434.47	4351.06
434.66	4430.63
434.85	4393.19
435.03	4561.70
435.22	4348.72
435.41	4617.88
435.59	4493.83
435.78	4440.00
435.97	4421.27
436.16	4704.48
436.34	4470.42
436.53	4610.86
436.72	4760.65
436.90	4561.70
437.09	4781.71
437.28	4535.96
437.46	4770.01
437.65	4622.56
437.84	4737.24
438.02	4589.79
438.21	4664.69
438.40	4709.16
438.58	4774.69
438.77	4926.83
438.96	4873.00
439.14	4975.98
439.33	5177.26
439.52	5083.64
439.70	5008.75
439.89	5167.90
440.08	5191.31
440.26	5287.27
440.45	5022.79
440.63	5273.23
440.82	5341.10
441.01	5158.54
441.19	5448.77
441.38	5460.47
441.57	5259.18
441.75	5432.38
441.94	5549.41
442.12	5638.35
442.31	5636.01
442.50	5724.95
442.68	5598.56
442.87	5706.23
443.05	5809.21
443.24	5769.42
443.43	5689.84
443.61	5727.29
443.80	6003.47
443.98	5643.03
444.17	5689.84
444.35	5748.36
444.54	5956.66
444.73	5820.91
444.91	5832.62
445.10	5804.53
445.28	5811.55
445.47	5738.99
445.65	5839.64
445.84	5980.07
446.02	5884.11
446.21	5692.18
446.39	5898.15
446.58	5853.68
446.77	5966.03
446.95	5907.51
447.14	5949.64
447.32	6019.86
447.51	6104.12
447.69	6017.52
447.88	6057.31
448.06	5994.11
448.25	5909.85
448.43	5799.85
448.62	6108.80
448.80	6010.50
448.99	6052.63
449.17	6150.93
449.36	5994.11
449.54	6171.99
449.73	6284.34
449.91	6279.66
450.10	6581.59
450.28	6600.31
450.46	6399.02
450.65	6380.30
450.83	6445.84
451.02	6214.12
451.20	6441.15
451.39	6394.34
451.57	6352.21
451.76	6286.68
451.94	6338.17
452.13	6588.61
452.31	6651.80
452.49	6333.49
452.68	6504.35
452.86	6600.31
453.05	6443.49
453.23	6623.72
453.42	6490.31
453.60	6427.11
453.78	6553.50
453.97	6670.53
454.15	6745.42
454.34	6588.61
454.52	6965.43
454.70	6700.95
454.89	6778.19
455.07	6717.34
455.26	6871.81
455.44	6850.75
455.62	6916.28
455.81	6916.28
455.99	6974.80
456.17	7124.59
456.36	7129.27
456.54	7176.08
456.73	7267.36
456.91	7295.45
457.09	7293.11
457.28	7494.40
457.46	7346.94
457.64	7232.26
457.83	7229.91
458.01	7300.13
458.19	7487.37
458.38	7309.49
458.56	7571.63
458.74	7396.09
458.93	7442.90
459.11	7662.91
459.29	7400.77
459.48	7595.04
459.66	7602.06
459.84	7485.03
460.03	7761.22
460.21	7728.45
460.39	7513.12
460.57	7644.19
460.76	7772.92
460.94	7578.65
461.12	7875.90
461.31	7637.17
461.49	7880.58
461.67	7765.90
461.85	7906.33
462.04	7978.89
462.22	8299.54
462.40	7992.93
462.59	8053.78
462.77	8072.51
462.95	8177.83
463.13	8049.10
463.32	8013.99
463.50	8112.30
463.68	8126.34
463.86	8135.70
464.05	7960.16
464.23	8149.75
464.41	8313.58
464.59	8030.38
464.78	8285.50
464.96	8290.18
465.14	8084.21
465.32	8280.82
465.50	8510.19
465.69	8273.79
465.87	8306.56
466.05	8372.10
466.23	8276.13
466.41	8552.32
466.60	8423.59
466.78	8236.35
466.96	8336.99
467.14	8498.49
467.32	8411.89
467.51	8690.41
467.69	8446.99
467.87	8243.37
468.05	8585.08
468.23	8454.02
468.41	8585.08
468.60	8545.30
468.78	8489.12
468.96	8674.03
469.14	8840.20
469.32	8819.14
469.50	8549.98
469.69	8816.80
469.87	8837.86
470.05	8875.31
470.23	9027.45
470.41	9109.36
470.59	8924.46
470.77	8978.30
470.95	8959.57
471.14	9132.77
471.32	8786.37
471.50	9378.53
471.68	9207.67
471.86	9259.16
472.04	9418.32
472.22	9415.98
472.40	9451.08
472.58	9334.06
472.77	9504.92
472.95	9607.90
473.13	9858.34
473.31	9633.64
473.49	9521.30
473.67	9404.27
473.85	9802.16
474.03	9937.91
474.21	9912.17
474.39	9966.00
474.57	10200.05
474.75	9933.23
474.93	10153.24
475.12	10017.49
475.30	10249.21
475.48	10256.23
475.66	9987.07
475.84	10141.54
476.02	10373.25
476.20	10485.60
476.38	10562.84
476.56	10778.17
476.74	10832.00
476.92	10700.93
477.10	10513.69
477.28	10827.32
477.46	10794.55
477.64	11082.44
477.82	11080.10
478.00	11396.07
478.18	11356.28
478.36	11419.47
478.54	11414.79
478.72	11662.89
478.90	11620.76
479.08	11808.00
479.26	12051.42
479.44	11791.62
479.62	11995.25
479.80	12301.86
479.98	12201.21
480.16	12287.81
480.34	12098.23
480.52	12538.25
480.70	12446.97
480.88	12489.10
481.06	12531.23
481.24	12692.73
481.41	12833.16
481.59	12865.92
481.77	13205.30
481.95	13153.81
482.13	13259.13
482.31	13008.70
482.49	13488.51
482.67	13324.67
482.85	13500.21
483.03	13664.05
483.21	13975.34
483.39	14200.03
483.57	14083.00
483.74	13973.00
483.92	14305.35
484.10	14101.73
484.28	14459.83
484.46	14644.73
484.64	15009.86
484.82	14307.69
485.00	14897.51
485.18	14918.57
485.35	15344.55
485.53	14824.95
485.71	15300.08
485.89	15330.51
486.07	15080.07
486.25	15311.78
486.43	15524.77
486.61	15815.00
486.78	15768.19
486.96	15915.64
487.14	16201.19
487.32	16128.63
487.50	16245.66
487.68	16585.04
487.85	16840.15
488.03	16926.75
488.21	17254.43
488.39	17165.49
488.57	17153.79
488.75	17399.54
488.92	17649.98
489.10	17460.40
489.28	17675.73
489.46	17977.65
489.64	18202.35
489.81	18480.87
489.99	18523.00
490.17	18394.27
490.35	18778.12
490.53	18539.38
490.70	18775.78
490.88	18754.71
491.06	19110.47
491.24	18860.04
491.41	18995.79
491.59	18993.45
491.77	19157.28
491.95	19407.72
492.13	19520.07
492.30	19878.17
492.48	20091.16
492.66	19861.79
492.84	20215.21
493.01	20051.37
493.19	20266.70
493.37	20594.37
493.54	20570.97
493.72	20725.44
493.90	20718.42
494.08	20975.88
494.25	21118.65
494.43	21116.31
494.61	21280.15
494.79	21451.01
494.96	21441.65
495.14	21305.90
495.32	21888.69
495.49	21680.38
495.67	21972.95
495.85	22483.19
496.02	22064.23
496.20	22258.49
496.38	22422.33
496.55	22773.41
496.73	22895.12
496.91	22799.16
497.09	22733.62
497.26	22895.12
497.44	23061.30
497.62	23075.34
497.79	23489.62
497.97	23278.97
498.14	23637.07
498.32	23433.44
498.50	23646.43
498.67	23910.91
498.85	23967.09
499.03	24439.87
499.20	23967.09
499.38	23847.72
499.56	24156.67
499.73	24556.90
499.91	24666.91
500.08	24992.24
500.26	24393.06
500.44	24641.16
500.61	24926.71
500.79	24903.30
500.97	25090.54
501.14	25383.11
501.32	25050.75
501.49	25266.08
501.67	25301.19
501.84	25254.38
502.02	25420.56
502.20	25799.73
502.37	25675.68
502.55	25762.28
502.72	25902.71
502.90	26066.55
503.07	25872.28
503.25	25804.41
503.43	25745.89
503.60	26263.15
503.78	26125.06
503.95	26038.46
504.13	26047.82
504.30	26597.85
504.48	26565.08
504.65	26768.71
504.83	26569.76
505.01	27197.02
505.18	26595.51
505.36	27080.00
505.53	27180.64
505.71	27271.92
505.88	27314.05
506.06	27234.47
506.23	27187.66
506.41	27576.19
506.58	27569.17
506.76	27414.69
506.93	27936.63
507.11	27658.11
507.28	27660.45
507.46	28051.32
507.63	28400.06
507.81	28442.19
507.98	28177.71
508.16	28273.67
508.33	28432.83
508.50	28451.55
508.68	28507.72
508.85	28690.29
509.03	28751.14
509.20	28924.34
509.38	28861.15
509.55	28889.23
509.73	29322.23
509.90	29104.56
510.08	28980.51
510.25	29436.92
510.42	29490.75
510.60	29624.16
510.77	29252.02
510.95	29441.60
511.12	29722.46
511.30	29853.53
511.47	30260.79
511.64	29874.60
511.82	30464.41
511.99	30284.19
512.17	30029.07
512.34	29867.58
512.51	29806.72
512.69	30602.50
512.86	30871.67
513.04	30756.98
513.21	30829.54
513.38	30483.14
513.56	30717.19
513.73	30752.30
513.90	30824.86
514.08	30909.11
514.25	31246.15
514.43	31030.82
514.60	31222.75
514.77	31171.25
514.95	31271.90
515.12	31030.82
515.29	31360.84
515.47	31838.31
515.64	31751.71
515.81	31512.97
515.99	32135.56
516.16	31686.17
516.33	31454.46
516.51	31669.79
516.68	31388.92
516.85	31847.67
517.03	31737.66
517.20	32086.40
517.37	31962.36
517.54	32184.71
517.72	32304.07
517.89	32500.68
518.06	32072.36
518.24	32067.68
518.41	32140.24
518.58	32748.78
518.75	32390.67
518.93	32790.91
519.10	32624.73
519.27	32847.08
519.45	32929.00
519.62	32999.21
519.79	32971.13
519.96	33113.90
520.14	33291.78
520.31	33207.52
520.48	33380.72
520.65	33593.71
520.83	33703.71
521.00	33792.65
521.17	33797.34
521.34	33879.25
521.52	33883.94
521.69	33666.27
521.86	34101.61
522.03	34424.60
522.20	33837.12
522.38	34227.99
522.55	34244.38
522.72	34101.61
522.89	34129.69
523.07	34466.73
523.24	34293.53
523.41	34553.33
523.58	34300.55
523.75	34852.92
523.92	34366.09
524.10	34768.66
524.27	34862.28
524.44	35379.54
524.61	34939.52
524.78	35079.95
524.96	35849.99
525.13	35241.45
525.30	35651.04
525.47	35599.55
525.64	35253.15
525.81	35501.25
525.98	35285.92
526.16	35187.61
526.33	35505.93
526.50	35768.07
526.67	35377.20
526.84	35381.88
527.01	35459.12
527.18	35885.09
527.36	35875.73
527.53	36041.91
527.70	36355.54
527.87	36659.81
528.04	35765.73
528.21	36353.20
528.38	35810.20
528.55	36727.69
528.72	36741.73
528.89	36561.51
529.07	36467.89
529.24	36659.81
529.41	36467.89
529.58	36519.38
529.75	36907.91
529.92	36411.71
530.09	36797.90
530.26	37109.19
530.43	37085.79
530.60	36744.07
530.77	36657.47
530.94	36971.10
531.11	36821.31
531.28	37132.60
531.46	37134.94
531.63	36987.49
531.80	37291.76
531.97	36961.74
532.14	37574.96
532.31	37099.83
532.48	37106.85
532.65	37762.20
532.82	37338.57
532.99	38132.01
533.16	37811.35
533.33	37778.59
533.50	37998.60
533.67	38019.66
533.84	37619.43
534.01	37752.84
534.18	38075.84
534.35	38085.20
534.52	37886.25
534.69	38122.65
534.86	38433.94
535.03	37647.52
535.20	38698.42
535.37	38621.18
535.54	38719.48
535.71	38272.44
535.88	38754.59
536.05	38258.40
536.22	38462.02
536.38	38733.53
536.55	38726.50
536.72	38337.98
536.89	38354.36
537.06	38534.58
537.23	39082.27
537.40	38443.30
537.57	38494.79
537.74	38930.13
537.91	39110.35
538.08	39285.89
538.25	38499.47
538.42	38794.38
538.59	39199.29
538.75	38880.98
538.92	39232.06
539.09	39103.33
539.26	39445.05
539.43	39227.38
539.60	39299.94
539.77	38948.85
539.94	39599.52
540.11	39667.40
540.28	39201.63
540.44	39681.44
540.61	39503.56
540.78	39374.83
540.95	39625.27
541.12	39688.46
541.29	39339.72
541.46	39414.62
541.62	40098.06
541.79	40081.67
541.96	39683.78
542.13	39646.33
542.30	39597.18
542.47	39569.10
542.63	39924.86
542.80	40053.59
542.97	40634.04
543.14	40690.21
543.31	40381.26
543.48	40638.72
543.64	40987.46
543.81	40678.51
543.98	41008.53
544.15	40341.47
544.32	40975.76
544.48	41071.72
544.65	40725.32
544.82	40587.23
544.99	40428.07
545.16	41006.19
545.32	40624.68
545.49	40715.96
545.66	40980.44
545.83	40989.80
546.00	41151.30
546.16	41298.75
546.33	41254.28
546.50	40938.31
546.67	40758.09
546.83	40921.93
547.00	41195.77
547.17	40774.47
547.34	41408.76
547.50	41539.83
547.67	41771.54
547.84	41118.53
548.00	41495.36
548.17	41659.20
548.34	41507.06
548.51	41624.09
548.67	42085.17
548.84	41698.98
549.01	41621.75
549.18	41610.04
549.34	41799.63
549.51	42398.80
549.68	41893.25
549.84	42061.77
550.01	41830.05
550.18	41937.72
550.34	42040.70
550.51	42337.95
550.68	41984.53
550.84	41907.29
551.01	42183.48
551.18	41647.49
551.34	42328.59
551.51	42319.23
551.68	42553.28
551.84	42344.97
552.01	42096.88
552.18	42286.46
552.34	42082.83
552.51	42567.32
552.68	42553.28
552.84	42363.70
553.01	42902.02
553.18	42665.63
553.34	42581.37
553.51	42302.84
553.67	42206.88
553.84	42883.30
554.01	42438.59
554.17	43012.02
554.34	42925.42
554.51	43210.97
554.67	42852.87
554.84	43208.63
555.00	43061.18
555.17	42700.73
555.33	42906.70
555.50	42792.01
555.67	42726.48
555.83	43016.71
556.00	43063.52
556.16	43491.83
556.33	43103.31
556.50	43084.58
556.66	43072.88
556.83	42880.95
556.99	43246.08
557.16	43007.34
557.32	42995.64
557.49	43335.02
557.65	42887.98
557.82	42911.38
557.98	42955.85
558.15	42742.86
558.32	43328.00
558.48	43356.08
558.65	43323.32
558.81	43215.65
558.98	43344.38
559.14	43477.79
559.31	43147.78
559.47	43283.53
559.64	43339.70
559.80	43852.28
559.97	43880.36
560.13	43508.22
560.30	43435.66
560.46	43402.89
560.63	43784.40
560.79	43739.93
560.96	43770.36
561.12	43360.76
561.29	43152.46
561.45	43777.38
561.61	43569.07
561.78	43533.96
561.94	43704.82
562.11	43531.62
562.27	43498.86
562.44	43592.48
562.60	43903.77
562.77	43934.20
562.93	44009.09
563.10	44095.69
563.26	43459.07
563.42	43952.92
563.59	43927.17
563.75	43800.79
563.92	43922.49
564.08	44222.08
564.24	43819.51
564.41	43728.23
564.57	44083.99
564.74	43871.00
564.90	43945.90
565.07	43817.17
565.23	43964.62
565.39	43548.01
565.56	44093.35
565.72	44140.16
565.88	43924.83
566.05	44163.57
566.21	43753.97
566.38	44048.88
566.54	44217.40
566.70	44697.21
566.87	44608.27
567.03	44194.00
567.19	44748.70
567.36	44067.61
567.52	44020.80
567.68	44083.99
567.85	44133.14
568.01	44072.29
568.17	43887.39
568.34	44346.13
568.50	44339.11
568.66	44046.54
568.83	44414.01
568.99	43903.77
569.15	44130.80
569.32	44343.79
569.48	43742.27
569.64	44507.63
569.81	44409.32
569.97	44334.43
570.13	44229.10
570.30	43997.39
570.46	44088.67
570.62	44105.06
570.78	44194.00
570.95	44626.99
571.11	44631.68
571.27	44091.01
571.43	44456.14
571.60	44299.32
571.76	44617.63
571.92	44512.31
572.09	44100.37
572.25	44322.72
572.41	44390.60
572.57	44467.84
572.74	44713.59
572.90	44671.46
573.06	44397.62
573.22	44411.67
573.38	44722.96
573.55	44233.78
573.71	44769.77
573.87	44067.61
574.03	44273.57
574.20	44170.59
574.36	44390.60
574.52	44755.72
574.68	44500.61
574.84	44643.38
575.01	44783.81
575.17	44341.45
575.33	44430.39
575.49	44439.75
575.65	44795.51
575.82	44669.12
575.98	44648.06
576.14	44463.16
576.30	44605.93
576.46	44470.18
576.62	44357.83
576.79	44500.61
576.95	44271.23
577.11	44062.93
577.27	44767.43
577.43	44811.90
577.59	44907.86
577.75	44624.65
577.92	44289.96
578.08	44133.14
578.24	44236.12
578.40	44381.24
578.56	45214.47
578.72	44376.56
578.88	44865.73
579.04	44603.59
579.21	44662.10
579.37	44598.91
579.53	44296.98
579.69	44023.14
579.85	44381.24
580.01	44875.09
580.17	44486.56
580.33	45017.86
580.49	44584.86
580.65	45015.52
580.82	44879.77
580.98	44828.28
581.14	44533.37
581.30	44753.38
581.46	44456.14
581.62	44655.08
581.78	44961.69
581.94	44940.63
582.10	44793.17
582.26	44886.79
582.42	44727.64
582.58	44617.63
582.74	44734.66
582.90	44762.75
583.06	44559.12
583.22	44858.71
583.38	44900.84
583.54	44706.57
583.70	44327.41
583.86	44470.18
584.02	44570.82
584.18	45254.26
584.34	44699.55
584.50	44662.10
584.66	44795.51
584.82	44854.03
584.98	44769.77
585.14	44809.56
585.30	44715.93
585.46	44673.81
585.62	44584.86
585.78	44318.04
585.94	44357.83
586.10	44425.71
586.26	44643.38
586.42	44966.37
586.58	44898.50
586.74	45027.23
586.90	44837.64
587.06	44718.28
587.22	44952.33
587.38	44603.59
587.54	45202.77
587.70	44999.14
587.86	45006.16
588.02	44655.08
588.18	44701.89
588.34	44870.41
588.49	44306.34
588.65	44360.17
588.81	44678.49
588.97	44477.20
589.13	44514.65
589.29	44772.11
589.45	45134.89
589.61	44582.52
589.77	45148.93
589.93	45041.27
590.08	44882.11
590.24	45102.12
