SpectraSuite Data File
++++++++++++++++++++++++++++++++++++
Date: Fri Oct 25 11:24:04 EDT 2013
User: price-jones
Dark Spectrum Present: No
Reference Spectrum Present: No
Number of Sampled Component Spectra: 1
Spectrometers: USB2+H05261
Integration Time (usec): 100000 (USB2+H05261)
Spectra Averaged: 1 (USB2+H05261)
Boxcar Smoothing: 0 (USB2+H05261)
Correct for Electrical Dark: No (USB2+H05261)
Strobe/Lamp Enabled: No (USB2+H05261)
Correct for Detector Non-linearity: No (USB2+H05261)
Correct for Stray Light: No (USB2+H05261)
Number of Pixels in Processed Spectrum: 2048
>>>>>Begin Processed Spectral Data<<<<<
365.73	189.58
365.92	189.58
366.12	189.58
366.32	135.75
366.52	81.92
366.72	93.62
366.91	145.11
367.11	91.28
367.31	107.66
367.51	131.07
367.70	182.56
367.90	133.41
368.10	63.19
368.30	187.24
368.49	135.75
368.69	196.60
368.89	138.09
369.09	191.92
369.28	201.29
369.48	131.07
369.68	159.16
369.87	201.29
370.07	227.03
370.27	208.31
370.47	332.36
370.66	545.34
370.86	669.39
371.06	622.58
371.25	727.91
371.45	713.86
371.65	678.76
371.84	688.12
372.04	648.33
372.24	706.84
372.44	744.29
372.63	702.16
372.83	763.01
373.03	713.86
373.22	676.41
373.42	770.04
373.62	767.70
373.81	777.06
374.01	873.02
374.21	812.17
374.40	779.40
374.60	807.48
374.79	802.80
374.99	835.57
375.19	858.98
375.38	882.38
375.58	856.64
375.78	844.93
375.97	833.23
376.17	985.37
376.37	870.68
376.56	812.17
376.76	924.51
376.95	882.38
377.15	849.61
377.35	837.91
377.54	1004.09
377.74	847.27
377.93	933.87
378.13	931.53
378.33	915.15
378.52	933.87
378.72	898.77
378.91	983.02
379.11	964.30
379.31	912.81
379.50	978.34
379.70	999.41
379.89	980.68
380.09	997.07
380.28	898.77
380.48	961.96
380.68	980.68
380.87	978.34
381.07	999.41
381.26	1043.88
381.46	983.02
381.65	1067.28
381.85	1069.62
382.04	1078.99
382.24	1050.90
382.43	1032.18
382.63	1060.26
382.83	1055.58
383.02	1097.71
383.22	1102.39
383.41	1036.86
383.61	1053.24
383.80	1193.67
384.00	1116.44
384.19	1088.35
384.39	1090.69
384.58	1214.74
384.78	1153.88
384.97	1163.25
385.17	1118.78
385.36	1130.48
385.56	1174.95
385.75	1235.80
385.95	1165.59
386.14	1240.48
386.34	1296.66
386.53	1188.99
386.72	1200.69
386.92	1291.98
387.11	1284.95
387.31	1310.70
387.50	1254.53
387.70	1247.51
387.89	1268.57
388.09	1383.26
388.28	1308.36
388.48	1287.29
388.67	1313.04
388.86	1320.06
389.06	1235.80
389.25	1341.13
389.45	1284.95
389.64	1308.36
389.84	1427.73
390.03	1540.07
390.22	1275.59
390.42	1313.04
390.61	1294.32
390.81	1455.81
391.00	1399.64
391.19	1455.81
391.39	1441.77
391.58	1406.66
391.78	1467.52
391.97	1500.28
392.16	1448.79
392.36	1448.79
392.55	1479.22
392.75	1439.43
392.94	1497.94
393.13	1591.56
393.33	1575.18
393.52	1479.22
393.71	1563.48
393.91	1610.29
394.10	1460.49
394.29	1598.59
394.49	1579.86
394.68	1596.25
394.88	1685.19
395.07	1577.52
395.26	1713.27
395.46	1675.82
395.65	1668.80
395.84	1647.74
396.04	1743.70
396.23	1746.04
396.42	1654.76
396.62	1797.53
396.81	1813.92
397.00	1708.59
397.19	1715.61
397.39	1741.36
397.58	1823.28
397.77	1767.10
397.97	1956.69
398.16	1895.83
398.35	1949.67
398.55	1844.34
398.74	1916.90
398.93	1998.82
399.12	1792.85
399.32	1975.41
399.51	1851.36
399.70	2005.84
399.90	1982.43
400.09	2001.16
400.28	2029.24
400.47	1996.48
400.67	2099.46
400.86	2064.35
401.05	2024.56
401.24	2087.76
401.44	2174.36
401.63	2108.82
401.82	2111.16
402.01	2111.16
402.21	2174.36
402.40	2186.06
402.59	2193.08
402.78	2132.23
402.97	2282.02
403.17	2312.45
403.36	2260.96
403.55	2333.51
403.74	2260.96
403.93	2436.50
404.13	2370.96
404.32	2387.35
404.51	2417.77
404.70	2340.54
404.89	2377.98
405.09	2455.22
405.28	2361.60
405.47	2455.22
405.66	2478.63
405.85	2579.27
406.05	2466.92
406.24	2555.86
406.43	2438.84
406.62	2614.38
406.81	2747.79
407.00	2427.14
407.20	2614.38
407.39	2612.04
407.58	2661.19
407.77	2754.81
407.96	2832.05
408.15	2766.51
408.34	2726.72
408.54	2874.18
408.73	2768.85
408.92	2782.90
409.11	2944.39
409.30	2848.43
409.49	2806.30
409.68	2855.45
409.87	3073.12
410.07	3016.95
410.26	2913.97
410.45	2841.41
410.64	3040.36
410.83	3091.85
411.02	3239.30
411.21	3155.04
411.40	3180.79
411.59	3232.28
411.78	3361.01
411.98	3234.62
412.17	3452.29
412.36	3272.07
412.55	3353.99
412.74	3454.63
412.93	3396.12
413.12	3281.43
413.31	3562.30
413.50	3503.78
413.69	3644.21
413.88	3581.02
414.07	3611.45
414.26	3775.28
414.45	3674.64
414.64	3747.20
414.83	3777.62
415.02	3810.39
415.22	3904.01
415.41	3756.56
415.60	3936.78
415.79	4016.36
415.98	3929.76
416.17	4032.74
416.36	3894.65
416.55	4018.70
416.74	4175.52
416.93	4128.70
417.12	4215.30
417.31	4128.70
417.50	4166.15
417.69	4341.69
417.88	4435.32
418.07	4262.12
418.26	4280.84
418.45	4257.43
418.64	4428.29
418.83	4435.32
419.02	4526.60
419.21	4444.68
419.39	4571.07
419.58	4538.30
419.77	4416.59
419.96	4613.20
420.15	4540.64
420.34	4578.09
420.53	4755.97
420.72	4674.05
420.91	4863.63
421.10	4821.50
421.29	4887.04
421.48	4690.43
421.67	4781.71
421.86	4716.18
422.05	4699.80
422.24	4784.06
422.43	4933.85
422.61	4966.62
422.80	5011.09
422.99	5001.72
423.18	4842.57
423.37	5020.45
423.56	4905.76
423.75	5071.94
423.94	4753.63
424.13	4638.94
424.32	4849.59
424.50	4973.64
424.69	5050.88
424.88	5043.85
425.07	4791.08
425.26	4961.94
425.45	5085.98
425.64	4978.32
425.83	5123.43
426.01	5256.84
426.20	5121.09
426.39	4999.38
426.58	4983.00
426.77	4877.68
426.96	5135.14
427.15	5060.24
427.33	5172.58
427.52	5228.76
427.71	5418.34
427.90	5188.97
428.09	5394.93
428.28	5423.02
428.46	5364.51
428.65	5331.74
428.84	5385.57
429.03	5636.01
429.22	5392.59
429.40	5411.32
429.59	5441.75
429.78	5282.59
429.97	5252.16
430.16	5514.30
430.34	5540.05
430.53	5783.46
430.72	5764.74
430.91	5703.89
431.10	5689.84
431.28	5827.93
431.47	5849.00
431.66	5827.93
431.85	5919.21
432.03	5949.64
432.22	5935.60
432.41	5923.90
432.60	5865.38
432.79	5820.91
432.97	6071.35
433.16	6118.16
433.35	6031.56
433.54	6197.74
433.72	6293.70
433.91	5982.41
434.10	6258.59
434.28	6209.44
434.47	6190.72
434.66	6235.19
434.85	6347.53
435.03	6494.99
435.22	6434.13
435.41	6572.22
435.59	6359.24
435.78	6576.91
435.97	6607.33
436.16	6427.11
436.34	6476.26
436.53	6511.37
436.72	6761.81
436.90	6600.31
437.09	6684.57
437.28	6658.82
437.46	6548.82
437.65	6675.21
437.84	6885.86
438.02	6806.28
438.21	6916.28
438.40	6829.68
438.58	6963.09
438.77	6902.24
438.96	6911.60
439.14	7272.04
439.33	7262.68
439.52	7229.91
439.70	7330.56
439.89	7194.81
440.08	7344.60
440.26	7438.22
440.45	7520.14
440.63	7543.55
440.82	7513.12
441.01	7494.40
441.19	7524.82
441.38	7758.88
441.57	7770.58
441.75	7747.17
441.94	8028.04
442.12	7889.95
442.31	8002.29
442.50	8070.17
442.68	7953.14
442.87	8091.23
443.05	8367.42
443.24	8423.59
443.43	8105.28
443.61	8386.14
443.80	8423.59
443.98	7887.61
444.17	7911.01
444.35	8273.79
444.54	8409.54
444.73	8252.73
444.91	8219.96
445.10	8374.44
445.28	8201.24
445.47	8336.99
445.65	8306.56
445.84	8439.97
446.02	8500.83
446.21	8381.46
446.39	8552.32
446.58	8566.36
446.77	8723.18
446.95	8432.95
447.14	8566.36
447.32	8643.60
447.51	8524.23
447.69	8617.85
447.88	8634.24
448.06	8489.12
448.25	8503.17
448.43	8566.36
448.62	8542.96
448.80	8559.34
448.99	8631.90
449.17	8786.37
449.36	8727.86
449.54	8922.12
449.73	8884.67
449.91	9116.39
450.10	8961.91
450.28	9149.15
450.46	9291.93
450.65	9041.49
450.83	8968.93
451.02	9041.49
451.20	9369.16
451.39	9226.39
451.57	9095.32
451.76	9090.64
451.94	9146.81
452.13	9338.74
452.31	9249.80
452.49	9191.28
452.68	9542.36
452.86	9383.21
453.05	9490.87
453.23	9633.64
453.42	9593.86
453.60	9399.59
453.78	9554.07
453.97	9542.36
454.15	9638.33
454.34	9411.29
454.52	9933.23
454.70	9837.27
454.89	9799.82
455.07	10068.98
455.26	10122.82
455.44	10104.09
455.62	10015.15
455.81	10024.51
455.99	10047.92
456.17	10019.83
456.36	10171.97
456.54	10022.17
456.73	10317.08
456.91	10574.54
457.09	10466.88
457.28	10558.16
457.46	10501.98
457.64	10590.92
457.83	10544.11
458.01	10459.85
458.19	10789.87
458.38	10633.05
458.56	10820.30
458.74	10836.68
458.93	10789.87
459.11	10843.70
459.29	10895.19
459.48	10979.45
459.66	10857.75
459.84	10927.96
460.03	11154.99
460.21	11124.57
460.39	11173.72
460.57	11000.52
460.76	11335.21
460.94	11248.61
461.12	11318.83
461.31	11140.95
461.49	11398.41
461.67	11176.06
461.85	11473.31
462.04	11288.40
462.22	11627.78
462.40	11269.68
462.59	11555.22
462.77	11620.76
462.95	11758.85
463.13	11866.52
463.32	11901.62
463.50	11742.47
463.68	11833.75
463.86	12084.19
464.05	11707.36
464.23	11845.45
464.41	11985.88
464.59	11648.85
464.78	12011.63
464.96	12177.81
465.14	11985.88
465.32	11929.71
465.50	12095.89
465.69	12236.32
465.87	12243.34
466.05	12224.62
466.23	12086.53
466.41	12472.71
466.60	12470.37
466.78	12189.51
466.96	12264.41
467.14	12369.73
467.32	12465.69
467.51	12800.39
467.69	12294.83
467.87	12489.10
468.05	12423.56
468.23	12395.48
468.41	12521.87
468.60	12779.32
468.78	12767.62
468.96	12723.15
469.14	12929.12
469.32	12894.01
469.50	12713.79
469.69	13109.34
469.87	13090.62
470.05	12985.29
470.23	13238.07
470.41	13165.51
470.59	13507.23
470.77	13193.60
470.95	13460.42
471.14	13612.56
471.32	13411.27
471.50	13692.13
471.68	13689.79
471.86	13923.85
472.04	13537.66
472.22	14036.19
472.40	13909.80
472.58	13741.29
472.77	14050.24
472.95	14415.36
473.13	14789.85
473.31	13963.64
473.49	14265.57
473.67	14216.41
473.85	14305.35
474.03	14799.21
474.21	14403.66
474.39	14672.82
474.57	14839.00
474.75	15009.86
474.93	15197.10
475.12	15073.05
475.30	15028.58
475.48	15190.08
475.66	15356.25
475.84	15051.99
476.02	15309.44
476.20	15524.77
476.38	15789.25
476.56	15747.12
476.74	16198.85
476.92	16058.42
477.10	15943.73
477.28	16156.72
477.46	16397.79
477.64	16442.26
477.82	16622.48
478.00	17202.94
478.18	16896.33
478.36	17092.93
478.54	17064.85
478.72	17277.83
478.90	17539.97
479.08	17598.49
479.26	17717.86
479.44	17694.45
479.62	18012.76
479.80	18305.33
479.98	18312.35
480.16	18480.87
480.34	18312.35
480.52	18724.29
480.70	18616.62
480.88	18597.90
481.06	18906.85
481.24	19147.92
481.41	19351.55
481.59	19253.25
481.77	19571.56
481.95	19674.54
482.13	19765.82
482.31	20030.30
482.49	20423.51
482.67	20365.00
482.85	20613.10
483.03	20526.50
483.21	20931.41
483.39	21312.92
483.57	21046.10
483.74	21064.82
483.92	21476.76
484.10	21530.59
484.28	21755.28
484.46	21898.05
484.64	22609.58
484.82	22045.51
485.00	22441.06
485.18	22852.99
485.35	22843.63
485.53	23257.90
485.71	23477.91
485.89	23756.44
486.07	23180.67
486.25	23459.19
486.43	23655.79
486.61	23985.81
486.78	24318.17
486.96	24638.82
487.14	24596.69
487.32	24982.88
487.50	24982.88
487.68	25076.50
487.85	25645.25
488.03	25614.82
488.21	25898.03
488.39	25752.91
488.57	26164.85
488.75	26314.64
488.92	26459.76
489.10	27136.17
489.28	26888.07
489.46	27194.68
489.64	27145.53
489.81	27763.43
489.99	27747.05
490.17	28079.41
490.35	28149.62
490.53	28219.84
490.70	28847.10
490.88	28215.16
491.06	28926.68
491.24	28748.80
491.41	29081.16
491.59	29277.76
491.77	29621.82
491.95	29869.92
492.13	30122.69
492.30	30244.40
492.48	30286.53
492.66	30700.81
492.84	30675.06
493.01	31070.61
493.19	30899.75
493.37	31056.57
493.54	31325.73
493.72	31709.58
493.90	31494.25
494.08	31885.12
494.25	31695.53
494.43	32329.82
494.61	32769.84
494.79	32556.85
494.96	32800.27
495.14	32690.26
495.32	33338.59
495.49	33680.31
495.67	33362.00
495.85	33734.14
496.02	34092.24
496.20	34319.28
496.38	33867.55
496.55	34375.45
496.73	35037.82
496.91	34335.66
497.09	35295.28
497.26	35098.67
497.44	35096.33
497.62	35538.69
497.79	35714.23
497.97	35655.72
498.14	36268.94
498.32	36187.02
498.50	36147.23
498.67	36605.98
498.85	36634.06
499.03	37111.53
499.20	36264.26
499.38	36783.86
499.56	37305.80
499.73	37460.27
499.91	37361.97
500.08	38108.60
500.26	37741.14
500.44	38162.43
500.61	38132.01
500.79	37823.06
500.97	38127.33
501.14	39016.73
501.32	38883.32
501.49	39014.39
501.67	39236.74
501.84	39159.50
502.02	38857.57
502.20	39152.48
502.37	39325.68
502.55	39723.57
502.72	39955.29
502.90	39353.77
503.07	39440.37
503.25	40547.44
503.43	40205.72
503.60	40437.44
503.78	40498.29
503.95	40542.76
504.13	40357.86
504.30	41202.79
504.48	40627.02
504.65	40914.90
504.83	41635.79
505.01	41968.15
505.18	41226.20
505.36	41488.34
505.53	41457.91
505.71	41530.47
505.88	41851.12
506.06	41942.40
506.23	42202.20
506.41	42143.69
506.58	42277.10
506.76	42300.50
506.93	42768.61
507.11	42326.25
507.28	42726.48
507.46	43056.50
507.63	43143.09
507.81	43517.58
507.98	43283.53
508.16	43117.35
508.33	43648.65
508.50	43845.26
508.68	43791.42
508.85	44018.46
509.03	44348.47
509.20	44423.37
509.38	44388.26
509.55	44629.34
509.73	45017.86
509.90	44704.23
510.08	44877.43
510.25	44746.36
510.42	44835.30
510.60	45209.79
510.77	45481.29
510.95	45366.60
511.12	45361.92
511.30	45448.52
511.47	45785.56
511.64	45593.64
511.82	46518.15
511.99	45996.21
512.17	46148.34
512.34	46131.96
512.51	46855.18
512.69	46679.64
512.86	46501.76
513.04	46763.90
513.21	46569.64
513.38	46555.60
513.56	47145.41
513.73	46958.17
513.90	47517.56
514.08	47082.22
514.25	47688.42
514.43	47735.23
514.60	47601.82
514.77	47248.39
514.95	47945.87
515.12	48048.86
515.29	47838.21
515.47	48126.10
515.64	48526.33
515.81	48076.94
515.99	48481.86
516.16	48744.00
516.33	48423.34
516.51	48556.75
516.68	48664.42
516.85	48582.50
517.03	49184.02
517.20	49146.57
517.37	48762.72
517.54	49134.87
517.72	49228.49
517.89	49242.53
518.06	49254.23
518.24	49495.31
518.41	49764.47
518.58	49605.31
518.75	49382.96
518.93	49783.19
519.10	49911.92
519.27	49900.22
519.45	50000.86
519.62	50145.98
519.79	50337.90
519.96	50272.37
520.14	50415.14
520.31	50574.30
520.48	50562.59
520.65	50501.74
520.83	50908.99
521.00	51070.49
521.17	50600.04
521.34	50749.84
521.52	50787.28
521.69	50857.50
521.86	51058.79
522.03	51400.50
522.20	51763.29
522.38	51526.89
522.55	51650.94
522.72	51569.02
522.89	51526.89
523.07	51915.42
523.24	51861.59
523.41	51798.40
523.58	51798.40
523.75	51772.65
523.92	52172.88
524.10	52147.14
524.27	52409.28
524.44	52128.41
524.61	52313.31
524.78	52231.40
524.96	52285.23
525.13	52287.57
525.30	52502.90
525.47	53022.50
525.64	52552.05
525.81	52673.76
525.98	52748.65
526.16	52788.44
526.33	52804.83
526.50	53301.02
526.67	52875.04
526.84	52889.09
527.01	53008.45
527.18	52980.37
527.36	53057.60
527.53	53450.81
527.70	53521.03
527.87	53546.78
528.04	53272.93
528.21	53609.97
528.38	53523.37
528.55	53937.65
528.72	53696.57
528.89	53502.31
529.07	53492.94
529.24	53806.58
529.41	53649.76
529.58	54021.90
529.75	53855.73
529.92	54101.48
530.09	54021.90
530.26	54019.56
530.43	54049.99
530.60	53883.81
530.77	54255.96
530.94	54213.83
531.11	54192.76
531.28	54204.47
531.46	54424.48
531.63	54480.65
531.80	54501.71
531.97	54735.77
532.14	54312.13
532.31	54344.90
532.48	54705.34
532.65	54639.81
532.82	54670.23
532.99	54637.47
533.16	54607.04
533.33	55004.93
533.50	55117.28
533.67	54848.11
533.84	54808.32
534.01	54955.78
534.18	54967.48
534.35	55423.89
534.52	55365.37
534.69	55348.99
534.86	55529.21
535.03	55107.91
535.20	55358.35
535.37	55498.78
535.54	55463.67
535.71	55367.71
535.88	55653.26
536.05	55737.52
536.22	55702.41
536.38	55732.84
536.55	55725.81
536.72	55913.06
536.89	55491.76
537.06	55777.31
537.23	55952.85
537.40	55697.73
537.57	55840.50
537.74	55952.85
537.91	56009.02
538.08	55849.86
538.25	55756.24
538.42	56069.87
538.59	56299.25
538.75	56147.11
538.92	56121.37
539.09	56329.67
539.26	56336.69
539.43	56493.51
539.60	56245.41
539.77	56566.07
539.94	56596.49
540.11	56509.89
540.28	56456.06
540.44	56795.44
540.61	56640.96
540.78	56563.73
540.95	56540.32
541.12	56580.11
541.29	56528.62
541.46	56762.67
541.62	56842.25
541.79	56952.26
541.96	56652.67
542.13	56818.84
542.30	56697.14
542.47	57125.46
542.63	57052.90
542.80	57045.88
542.97	57137.16
543.14	57198.01
543.31	57268.23
543.48	57368.87
543.64	57275.25
543.81	57567.82
543.98	57600.58
544.15	57705.91
544.32	57726.97
544.48	57776.12
544.65	57333.76
544.82	57469.51
544.99	57301.00
545.16	57750.38
545.32	57265.89
545.49	57893.15
545.66	57923.58
545.83	57836.98
546.00	57829.96
546.16	57839.32
546.33	57558.45
546.50	57581.86
546.67	57932.94
546.83	57593.56
547.00	57942.30
547.17	57963.37
547.34	58087.42
547.50	58117.84
547.67	58227.85
547.84	58279.34
548.00	58145.93
548.17	58494.67
548.34	58171.67
548.51	58085.07
548.67	58258.27
548.84	58440.84
549.01	58056.99
549.18	58349.56
549.34	58319.13
549.51	58447.86
549.68	58639.78
549.84	58300.40
550.01	58569.57
550.18	58485.31
550.34	58637.44
550.51	58639.78
550.68	58553.18
550.84	58351.90
551.01	58749.79
551.18	58590.63
551.34	58646.80
551.51	58714.68
551.68	58922.99
551.84	58677.23
552.01	58628.08
552.18	58820.00
552.34	58724.04
552.51	59091.51
552.68	58691.27
552.84	58829.37
553.01	58967.46
553.18	59157.04
553.34	59171.08
553.51	58845.75
553.67	59143.00
553.84	59049.38
554.01	59121.93
554.17	58979.16
554.34	59325.56
554.51	59253.00
554.67	59309.18
554.84	58962.78
555.00	59047.04
555.17	59199.17
555.33	59187.47
555.50	58906.60
555.67	59042.35
555.83	59292.79
556.00	59117.25
556.16	59505.78
556.33	59538.55
556.50	59276.41
556.66	59494.08
556.83	59147.68
556.99	59587.70
557.16	59629.83
557.32	59664.94
557.49	59788.98
557.65	59547.91
557.82	59573.66
557.98	59458.97
558.15	59440.24
558.32	59835.80
558.48	59337.26
558.65	59646.21
558.81	59503.44
558.98	59765.58
559.14	59601.74
559.31	59669.62
559.47	59852.18
559.64	59842.82
559.80	60018.36
559.97	59784.30
560.13	59643.87
560.30	59707.07
560.46	59877.93
560.63	60046.44
560.79	59859.20
560.96	60090.91
561.12	59955.16
561.29	59983.25
561.45	60034.74
561.61	59983.25
561.78	59880.27
561.94	59880.27
562.11	59826.43
562.27	59943.46
562.44	60175.17
562.60	60163.47
562.77	60144.75
562.93	60090.91
563.10	60020.70
563.26	60048.78
563.42	60264.11
563.59	60233.69
563.75	60163.47
563.92	60027.72
564.08	60182.19
564.24	60254.75
564.41	60238.37
564.57	60432.63
564.74	60271.14
564.90	60177.51
565.07	60072.19
565.23	60140.07
565.39	60250.07
565.56	60243.05
565.72	60268.79
565.88	60317.95
566.05	60086.23
566.21	60240.71
566.38	60210.28
566.54	60238.37
566.70	60437.31
566.87	60411.57
567.03	60266.45
567.19	60556.68
567.36	60397.52
567.52	60418.59
567.68	60549.66
567.85	60514.55
568.01	60568.38
568.17	60348.37
568.34	60514.55
568.50	60404.55
568.66	60381.14
568.83	60594.13
568.99	60420.93
569.15	60603.49
569.32	60552.00
569.48	60416.25
569.64	60624.56
569.81	60624.56
569.97	60603.49
570.13	60671.37
570.30	60530.93
570.46	60640.94
570.62	60526.25
570.78	60657.32
570.95	60662.00
571.11	60598.81
571.27	60619.88
571.43	60603.49
571.60	60846.91
571.76	60652.64
571.92	60720.52
572.09	60809.46
572.25	60671.37
572.41	60743.92
572.57	60809.46
572.74	60757.97
572.90	60879.67
573.06	60891.38
573.22	60760.31
573.38	60938.19
573.55	60776.69
573.71	60952.23
573.87	60678.39
574.03	60617.53
574.20	60753.29
574.36	60741.58
574.52	60867.97
574.68	61006.06
574.84	61013.08
575.01	60739.24
575.17	60800.10
575.33	60900.74
575.49	60851.59
575.65	60970.96
575.82	60973.30
575.98	60912.44
576.14	61062.24
576.30	60985.00
576.46	60949.89
576.62	60612.85
576.79	60931.17
576.95	60687.75
577.11	61099.68
577.27	61181.60
577.43	61020.11
577.59	60931.17
577.75	60755.63
577.92	60807.12
578.08	61078.62
578.24	60924.14
578.40	61137.13
578.56	61165.22
578.72	61001.38
578.88	61111.39
579.04	61249.48
579.21	61015.43
579.37	61148.84
579.53	60959.25
579.69	60718.18
579.85	60952.23
580.01	60870.31
580.17	60898.40
580.33	61151.18
580.49	60900.74
580.65	61083.30
580.82	61031.81
580.98	61006.06
581.14	60959.25
581.30	60942.87
581.46	60797.76
581.62	61050.53
581.78	60942.87
581.94	61085.64
582.10	61062.24
582.26	60970.96
582.42	60884.36
582.58	61120.75
582.74	60973.30
582.90	60982.66
583.06	61209.69
583.22	61048.19
583.38	60877.33
583.54	61132.45
583.70	61069.26
583.86	61247.14
584.02	61045.85
584.18	61226.07
584.34	61038.83
584.50	60982.66
584.66	60921.80
584.82	60947.55
584.98	61366.51
585.14	61123.09
585.30	61020.11
585.46	61158.20
585.62	61153.52
585.78	61380.55
585.94	61151.18
586.10	61097.34
586.26	61116.07
586.42	61345.44
586.58	61092.66
586.74	61202.67
586.90	61214.37
587.06	61038.83
587.22	61347.78
587.38	61230.75
587.54	61427.36
587.70	61366.51
587.86	61277.57
588.02	61214.37
588.18	61322.04
588.34	61139.47
588.49	61141.81
