SpectraSuite Data File
++++++++++++++++++++++++++++++++++++
Date: Fri Oct 25 11:23:07 EDT 2013
User: price-jones
Dark Spectrum Present: No
Reference Spectrum Present: No
Number of Sampled Component Spectra: 1
Spectrometers: USB2+H05261
Integration Time (usec): 100000 (USB2+H05261)
Spectra Averaged: 1 (USB2+H05261)
Boxcar Smoothing: 0 (USB2+H05261)
Correct for Electrical Dark: No (USB2+H05261)
Strobe/Lamp Enabled: No (USB2+H05261)
Correct for Detector Non-linearity: No (USB2+H05261)
Correct for Stray Light: No (USB2+H05261)
Number of Pixels in Processed Spectrum: 2048
>>>>>Begin Processed Spectral Data<<<<<
365.73	203.63
365.92	203.63
366.12	203.63
366.32	124.05
366.52	95.96
366.72	124.05
366.91	124.05
367.11	166.18
367.31	133.41
367.51	60.85
367.70	142.77
367.90	81.92
368.10	117.03
368.30	128.73
368.49	110.01
368.69	208.31
368.89	133.41
369.09	100.64
369.28	182.56
369.48	159.16
369.68	212.99
369.87	168.52
370.07	205.97
370.27	220.01
370.47	365.12
370.66	620.24
370.86	596.84
371.06	706.84
371.25	737.27
371.45	620.24
371.65	638.97
371.84	702.16
372.04	730.25
372.24	695.14
372.44	730.25
372.63	739.61
372.83	730.25
373.03	744.29
373.22	779.40
373.42	746.63
373.62	730.25
373.81	695.14
374.01	833.23
374.21	795.78
374.40	732.59
374.60	821.53
374.79	767.70
374.99	830.89
375.19	765.36
375.38	847.27
375.58	863.66
375.78	910.47
375.97	854.30
376.17	840.25
376.37	922.17
376.56	908.13
376.76	866.00
376.95	1020.47
377.15	828.55
377.35	950.26
377.54	940.90
377.74	926.85
377.93	851.96
378.13	877.70
378.33	898.77
378.52	835.57
378.72	917.49
378.91	971.32
379.11	873.02
379.31	957.28
379.50	917.49
379.70	968.98
379.89	929.19
380.09	947.92
380.28	978.34
380.48	1074.31
380.68	1069.62
380.87	943.24
381.07	999.41
381.26	971.32
381.46	936.21
381.65	1006.43
381.85	1118.78
382.04	1029.84
382.24	980.68
382.43	1067.28
382.63	1006.43
382.83	1142.18
383.02	1078.99
383.22	1144.52
383.41	1083.67
383.61	1048.56
383.80	1219.42
384.00	1107.07
384.19	1196.01
384.39	1097.71
384.58	1188.99
384.78	1158.57
384.97	1128.14
385.17	1156.22
385.36	1191.33
385.56	1027.50
385.75	1153.88
385.95	1123.46
386.14	1198.35
386.34	1214.74
386.53	1254.53
386.72	1238.14
386.92	1270.91
387.11	1188.99
387.31	1284.95
387.50	1198.35
387.70	1172.61
387.89	1252.19
388.09	1334.11
388.28	1259.21
388.48	1289.64
388.67	1289.64
388.86	1214.74
389.06	1416.02
389.25	1376.24
389.45	1444.11
389.64	1345.81
389.84	1317.72
390.03	1411.34
390.22	1444.11
390.42	1383.26
390.61	1338.79
390.81	1291.98
391.00	1387.94
391.19	1458.15
391.39	1474.54
391.58	1413.68
391.78	1474.54
391.97	1535.39
392.16	1451.13
392.36	1542.41
392.55	1582.20
392.75	1502.62
392.94	1565.82
393.13	1664.12
393.33	1486.24
393.52	1540.07
393.71	1516.67
393.91	1523.69
394.10	1535.39
394.29	1600.93
394.49	1589.22
394.68	1710.93
394.88	1671.14
395.07	1701.57
395.26	1729.66
395.46	1645.40
395.65	1654.76
395.84	1727.32
396.04	1776.47
396.23	1863.07
396.42	1708.59
396.62	1818.60
396.81	1823.28
397.00	1689.87
397.19	1832.64
397.39	1839.66
397.58	1893.49
397.77	1818.60
397.97	1832.64
398.16	1795.19
398.35	1959.03
398.55	1839.66
398.74	1881.79
398.93	1937.96
399.12	2024.56
399.32	1921.58
399.51	2031.58
399.70	2120.53
399.90	2001.16
400.09	2029.24
400.28	2022.22
400.47	2057.33
400.67	2090.10
400.86	2080.74
401.05	2204.78
401.24	2165.00
401.44	2211.81
401.63	2092.44
401.82	2157.97
402.01	2331.17
402.21	2122.87
402.40	2221.17
402.59	2157.97
402.78	2239.89
402.97	2195.42
403.17	2223.51
403.36	2186.06
403.55	2310.11
403.74	2296.07
403.93	2401.39
404.13	2443.52
404.32	2429.48
404.51	2368.62
404.70	2385.01
404.89	2450.54
405.09	2424.80
405.28	2640.12
405.47	2445.86
405.66	2434.16
405.85	2562.89
406.05	2516.08
406.24	2675.23
406.43	2541.82
406.62	2539.48
406.81	2710.34
407.00	2597.99
407.20	2656.51
407.39	2698.64
407.58	2743.11
407.77	2719.70
407.96	2775.88
408.15	2808.64
408.34	2715.02
408.54	2874.18
408.73	2949.08
408.92	2939.71
409.11	2843.75
409.30	2913.97
409.49	2918.65
409.68	2986.52
409.87	2930.35
410.07	3012.27
410.26	2925.67
410.45	3038.02
410.64	3089.51
410.83	3152.70
411.02	3023.97
411.21	3112.91
411.40	3145.68
411.59	3251.00
411.78	3138.66
411.98	3232.28
412.17	3332.92
412.36	3325.90
412.55	3419.52
412.74	3346.97
412.93	3353.99
413.12	3389.10
413.31	3529.53
413.50	3527.19
413.69	3662.94
413.88	3660.60
414.07	3655.92
414.26	3714.43
414.45	3859.54
414.64	3691.02
414.83	3786.99
415.02	3786.99
415.22	3882.95
415.41	3815.07
415.60	3808.05
415.79	3946.14
415.98	3946.14
416.17	3859.54
416.36	4077.21
416.55	4147.43
416.74	4119.34
416.93	4063.17
417.12	4088.92
417.31	4138.07
417.50	4236.37
417.69	4259.78
417.88	4365.10
418.07	4477.44
418.26	4435.32
418.45	4395.53
418.64	4573.41
418.83	4362.76
419.02	4531.28
419.21	4589.79
419.39	4727.88
419.58	4524.26
419.77	4404.89
419.96	4638.94
420.15	4519.57
420.34	4636.60
420.53	4674.05
420.72	4716.18
420.91	4765.33
421.10	4842.57
421.29	4770.01
421.48	4638.94
421.67	4746.61
421.86	4816.82
422.05	4758.31
422.24	4901.08
422.43	5022.79
422.61	5184.29
422.80	4919.81
422.99	4917.47
423.18	4931.51
423.37	5132.79
423.56	4994.70
423.75	4990.02
423.94	4919.81
424.13	4709.16
424.32	4777.03
424.50	5088.32
424.69	5130.45
424.88	5200.67
425.07	5013.43
425.26	4990.02
425.45	4971.30
425.64	5111.73
425.83	5004.07
426.01	5104.71
426.20	4990.02
426.39	5240.46
426.58	5100.03
426.77	5111.73
426.96	5111.73
427.15	5167.90
427.33	5357.49
427.52	5268.55
427.71	5179.61
427.90	5188.97
428.09	5303.65
428.28	5322.38
428.46	5270.89
428.65	5530.69
428.84	5528.35
429.03	5497.92
429.22	5423.02
429.40	5474.51
429.59	5659.42
429.78	5355.15
429.97	5341.10
430.16	5444.09
430.34	5753.04
430.53	5832.62
430.72	5767.08
430.91	5666.44
431.10	5701.54
431.28	5844.32
431.47	5891.13
431.66	5755.38
431.85	5771.76
432.03	5811.55
432.22	5951.98
432.41	6090.07
432.60	5961.34
432.79	5977.73
432.97	5984.75
433.16	6164.97
433.35	6120.50
433.54	6080.71
433.72	6195.40
433.91	6108.80
434.10	6148.59
434.28	6223.48
434.47	6328.81
434.66	6387.32
434.85	6263.27
435.03	6387.32
435.22	6356.90
435.41	6576.91
435.59	6401.37
435.78	6485.62
435.97	6670.53
436.16	6635.42
436.34	6672.87
436.53	6525.41
436.72	6715.00
436.90	6520.73
437.09	6710.32
437.28	6675.21
437.46	6764.15
437.65	6595.63
437.84	6981.82
438.02	6787.55
438.21	6913.94
438.40	6869.47
438.58	7171.40
438.77	7042.67
438.96	6913.94
439.14	7150.34
439.33	7157.36
439.52	7283.75
439.70	7091.82
439.89	7115.23
440.08	7302.47
440.26	7510.78
440.45	7375.03
440.63	7339.92
440.82	7679.30
441.01	7609.08
441.19	7623.12
441.38	7913.35
441.57	7915.69
441.75	7882.92
441.94	7974.21
442.12	7817.39
442.31	8105.28
442.50	8077.19
442.68	8182.51
442.87	8121.66
443.05	8306.56
443.24	8374.44
443.43	8243.37
443.61	8224.64
443.80	8697.43
443.98	8173.15
444.17	7819.73
444.35	8339.33
444.54	8465.72
444.73	8313.58
444.91	8482.10
445.10	8468.06
445.28	8372.10
445.47	8294.86
445.65	8332.31
445.84	8486.78
446.02	8587.43
446.21	8557.00
446.39	8386.14
446.58	8470.40
446.77	8486.78
446.95	8526.57
447.14	8596.79
447.32	8662.32
447.51	8755.94
447.69	8531.25
447.88	8578.06
448.06	8552.32
448.25	8795.73
448.43	8788.71
448.62	8580.40
448.80	8762.97
448.99	8826.16
449.17	8760.63
449.36	8727.86
449.54	8926.80
449.73	8896.38
449.91	9125.75
450.10	8961.91
450.28	9312.99
450.46	9240.44
450.65	9013.40
450.83	9329.38
451.02	9060.21
451.20	9341.08
451.39	9228.73
451.57	9315.33
451.76	9231.07
451.94	9322.35
452.13	9226.39
452.31	9437.04
452.49	9317.67
452.68	9420.66
452.86	9448.74
453.05	9675.77
453.23	9802.16
453.42	9504.92
453.60	9645.35
453.78	9757.69
453.97	9474.49
454.15	9504.92
454.34	9816.21
454.52	9884.08
454.70	9937.91
454.89	9888.76
455.07	9923.87
455.26	9905.15
455.44	9975.36
455.62	9961.32
455.81	10059.62
455.99	10061.96
456.17	10157.92
456.36	10136.86
456.54	10335.81
456.73	10281.97
456.91	10427.09
457.09	10427.09
457.28	10635.39
457.46	10314.74
457.64	10700.93
457.83	10876.47
458.01	10576.88
458.19	10834.34
458.38	10764.12
458.56	10630.71
458.74	10806.25
458.93	10724.33
459.11	10862.43
459.29	10827.32
459.48	10787.53
459.66	10984.13
459.84	10846.04
460.03	11066.05
460.21	11180.74
460.39	10934.98
460.57	11126.91
460.76	10998.18
460.94	11499.05
461.12	11215.85
461.31	11229.89
461.49	11316.49
461.67	11405.43
461.85	11473.31
462.04	11452.24
462.22	11646.51
462.40	11637.14
462.59	11580.97
462.77	11573.95
462.95	11719.06
463.13	11730.76
463.32	11817.36
463.50	11875.88
463.68	12009.29
463.86	12016.31
464.05	11838.43
464.23	11812.68
464.41	12046.74
464.59	11836.09
464.78	12294.83
464.96	12028.01
465.14	12152.06
465.32	12257.39
465.50	12241.00
465.69	12166.10
465.87	12325.26
466.05	12746.56
466.23	12489.10
466.41	12156.74
466.60	12486.76
466.78	11950.78
466.96	12418.88
467.14	12428.24
467.32	12601.44
467.51	12744.22
467.69	12425.90
467.87	12549.95
468.05	12571.02
468.23	12608.47
468.41	12365.05
468.60	12828.48
468.78	12835.50
468.96	12753.58
469.14	12980.61
469.32	13083.59
469.50	12851.88
469.69	13231.05
469.87	13172.54
470.05	13109.34
470.23	13198.28
470.41	13458.08
470.59	13582.13
470.77	13268.50
470.95	13481.49
471.14	13729.58
471.32	13303.60
471.50	13837.25
471.68	13930.87
471.86	13680.43
472.04	13921.51
472.22	14253.86
472.40	13685.11
472.58	13982.36
472.77	14019.81
472.95	14314.72
473.13	14799.21
473.31	14171.94
473.49	14513.66
473.67	14204.71
473.85	14649.41
474.03	14745.38
474.21	14663.46
474.39	14822.61
474.57	14949.00
474.75	15075.39
474.93	15337.53
475.12	15012.20
475.30	15339.87
475.48	15068.37
475.66	15550.52
475.84	15194.76
476.02	15747.12
476.20	15580.95
476.38	15939.05
476.56	16210.55
476.74	16107.57
476.92	16025.65
477.10	16067.78
477.28	16479.71
477.46	16367.37
477.64	16599.08
477.82	16889.31
478.00	17216.98
478.18	17146.76
478.36	17130.38
478.54	17439.33
478.72	17429.97
478.90	17584.44
479.08	17539.97
479.26	17790.41
479.44	17869.99
479.62	18197.67
479.80	18324.05
479.98	18171.92
480.16	19101.11
480.34	18448.10
480.52	18712.58
480.70	18534.70
480.88	18373.21
481.06	18981.74
481.24	19126.86
481.41	19384.32
481.59	19573.90
481.77	19625.39
481.95	19709.65
482.13	20039.67
482.31	20081.80
482.49	20400.11
482.67	20505.43
482.85	20858.85
483.03	20758.21
483.21	20975.88
483.39	21085.89
483.57	21226.32
483.74	21575.06
483.92	21741.24
484.10	21317.60
484.28	22237.43
484.46	22115.72
484.64	22682.13
484.82	22352.12
485.00	22597.87
485.18	23161.94
485.35	23365.57
485.53	23002.78
485.71	23541.11
485.89	24126.24
486.07	23307.05
486.25	23726.01
486.43	23936.66
486.61	24121.56
486.78	24224.54
486.96	24456.26
487.14	24865.85
487.32	24762.87
487.50	25006.28
487.68	24938.41
487.85	25425.24
488.03	25886.32
488.21	26265.49
488.39	25998.67
488.57	26434.01
488.75	26733.60
488.92	26539.33
489.10	27178.30
489.28	27302.35
489.46	27761.09
489.64	27524.70
489.81	28170.69
489.99	28034.94
490.17	28409.42
490.35	28268.99
490.53	28872.85
490.70	28973.49
490.88	28842.42
491.06	29284.78
491.24	29347.98
491.41	29149.03
491.59	29614.80
491.77	29509.47
491.95	30059.50
492.13	30157.80
492.30	30171.85
492.48	30368.45
492.66	30771.02
492.84	30864.64
493.01	30520.59
493.19	30888.05
493.37	31452.12
493.54	31613.62
493.72	31842.99
493.90	31812.56
494.08	32144.92
494.25	32538.13
494.43	32409.40
494.61	32767.50
494.79	32914.95
494.96	33039.00
495.14	33078.79
495.32	33282.42
495.49	33584.35
495.67	33724.78
495.85	33642.86
496.02	34087.56
496.20	34220.97
496.38	33895.64
496.55	34637.59
496.73	35096.33
496.91	34801.43
497.09	34998.03
497.26	35501.25
497.44	35407.62
497.62	35473.16
497.79	36030.21
497.97	35901.48
498.14	36449.16
498.32	36510.02
498.50	36488.95
498.67	36987.49
498.85	36818.97
499.03	36641.09
499.20	37010.89
499.38	37581.98
499.56	37523.47
499.73	37343.25
499.91	37764.54
500.08	38387.13
500.26	37785.61
500.44	37954.13
500.61	38555.64
500.79	37696.67
500.97	38810.76
501.14	38469.04
501.32	38693.74
501.49	38911.41
501.67	38588.41
501.84	39260.15
502.02	39281.21
502.20	39613.57
502.37	39395.90
502.55	39756.34
502.72	39569.10
502.90	40034.86
503.07	40119.12
503.25	39934.22
503.43	40266.58
503.60	40467.86
503.78	40701.92
503.95	40652.76
504.13	41160.66
504.30	41179.39
504.48	40928.95
504.65	41261.30
504.83	41443.87
505.01	41879.21
505.18	41441.53
505.36	41717.71
505.53	41558.55
505.71	42167.09
505.88	42511.15
506.06	41673.24
506.23	42412.85
506.41	42323.91
506.58	42522.85
506.76	42616.47
506.93	42911.38
507.11	42997.98
507.28	42979.26
507.46	43276.51
507.63	43093.94
507.81	43447.36
507.98	43566.73
508.16	43501.20
508.33	43711.84
508.50	43835.89
508.68	44208.04
508.85	44327.41
509.03	44533.37
509.20	44830.62
509.38	45219.15
509.55	44493.58
509.73	44797.85
509.90	45160.64
510.08	45020.20
510.25	44982.76
510.42	45282.34
510.60	45626.40
510.77	45638.11
510.95	45710.66
511.12	45516.40
511.30	45539.80
511.47	46213.88
511.64	46059.40
511.82	46532.19
511.99	46057.06
512.17	45888.54
512.34	46401.12
512.51	46506.44
512.69	46653.90
512.86	47042.43
513.04	47201.58
513.21	47426.28
513.38	46897.31
513.56	46941.78
513.73	47173.50
513.90	47491.81
514.08	47346.70
514.25	47765.65
514.43	47873.32
514.60	47702.46
514.77	47613.52
514.95	48343.77
515.12	47840.55
515.29	48292.27
515.47	48428.02
515.64	48566.12
515.81	48559.09
515.99	48746.34
516.16	48933.58
516.33	48788.47
516.51	49228.49
516.68	48760.38
516.85	48851.66
517.03	49249.55
517.20	49415.73
517.37	49507.01
517.54	49198.06
517.72	49427.43
517.89	49570.21
518.06	49539.78
518.24	49663.83
518.41	49357.22
518.58	49736.38
518.75	49610.00
518.93	50206.83
519.10	49804.26
519.27	50178.75
519.45	49708.30
519.62	50230.24
519.79	50314.50
519.96	50522.80
520.14	50253.64
520.31	50483.01
520.48	50745.15
520.65	50960.48
520.83	51295.18
521.00	51178.15
521.17	51194.54
521.34	50581.32
521.52	51171.13
521.69	51334.97
521.86	51388.80
522.03	51372.42
522.20	51566.68
522.38	51749.24
522.55	51611.15
522.72	52137.77
522.89	51847.55
523.07	52198.63
523.24	51943.51
523.41	52053.51
523.58	52107.35
523.75	52182.24
523.92	52289.91
524.10	52313.31
524.27	52582.48
524.44	52755.68
524.61	52362.46
524.78	52397.57
524.96	52224.37
525.13	52804.83
525.30	52828.23
525.47	52701.84
525.64	53169.95
525.81	52994.41
525.98	52924.19
526.16	53006.11
526.33	53422.73
526.50	53315.06
526.67	53279.96
526.84	53387.62
527.01	53104.41
527.18	53221.44
527.36	53317.40
527.53	53289.32
527.70	53787.85
527.87	53158.25
528.04	53581.88
528.21	53656.78
528.38	53558.48
528.55	53867.43
528.72	53399.32
528.89	53776.15
529.07	53696.57
529.24	53675.51
529.41	54082.76
529.58	54031.27
529.75	53834.66
529.92	54436.18
530.09	54045.31
530.26	53972.75
530.43	54270.00
530.60	54204.47
530.77	53982.12
530.94	54169.36
531.11	54384.69
531.28	54447.88
531.46	54380.01
531.63	54899.61
531.80	54665.55
531.97	54756.83
532.14	54848.11
532.31	54852.80
532.48	54908.97
532.65	54726.41
532.82	54855.14
532.99	55105.57
533.16	54885.56
533.33	55313.88
533.50	55222.60
533.67	54986.21
533.84	55011.95
534.01	55124.30
534.18	55274.09
534.35	55786.67
534.52	55480.06
534.69	55585.38
534.86	55756.24
535.03	55182.81
535.20	55327.92
535.37	55601.77
535.54	55711.77
535.71	55800.71
535.88	55639.22
536.05	55547.93
536.22	55789.01
536.38	56090.94
536.55	56154.13
536.72	56104.98
536.89	55688.37
537.06	55950.51
537.23	56229.03
537.40	55913.06
537.57	56067.53
537.74	56086.26
537.91	56374.14
538.08	56259.46
538.25	55994.98
538.42	56121.37
538.59	56416.27
538.75	56170.52
538.92	56385.85
539.09	56545.00
539.26	56310.95
539.43	56278.18
539.60	56481.81
539.77	56598.83
539.94	57022.47
540.11	56804.80
540.28	56636.28
540.44	56760.33
540.61	56863.32
540.78	56800.12
540.95	56676.07
541.12	56828.21
541.29	56734.59
541.46	56928.85
541.62	56549.68
541.79	56968.64
541.96	56491.17
542.13	57055.24
542.30	56793.10
542.47	57209.71
542.63	56931.19
542.80	57144.18
542.97	57350.15
543.14	57364.19
543.31	57668.46
543.48	57411.00
543.64	57743.36
543.81	57619.31
543.98	57563.14
544.15	57612.29
544.32	57717.61
544.48	57834.64
544.65	57755.06
544.82	57609.95
544.99	57591.22
545.16	58007.84
545.32	57778.46
545.49	58014.86
545.66	57991.45
545.83	57661.44
546.00	58157.63
546.16	57820.59
546.33	57911.88
546.50	57752.72
546.67	57848.68
546.83	57698.89
547.00	58000.82
547.17	58246.57
547.34	57881.45
547.50	58349.56
547.67	58255.93
547.84	58408.07
548.00	58546.16
548.17	58466.58
548.34	58457.22
548.51	58578.93
548.67	58539.14
548.84	58429.13
549.01	58155.29
549.18	58450.20
549.34	58555.52
549.51	58471.26
549.68	58649.14
549.84	58632.76
550.01	58499.35
550.18	58623.40
550.34	58602.33
550.51	58831.71
550.68	58749.79
550.84	58656.17
551.01	59105.55
551.18	58850.43
551.34	58869.15
551.51	58822.34
551.68	58740.42
551.84	59014.27
552.01	59032.99
552.18	59107.89
552.34	58789.58
552.51	59004.91
552.68	58883.20
552.84	58773.19
553.01	59098.53
553.18	59075.12
553.34	59304.49
553.51	58871.49
553.67	58913.62
553.84	59138.32
554.01	59152.36
554.17	59199.17
554.34	59241.30
554.51	59269.39
554.67	59348.96
554.84	59096.19
555.00	59121.93
555.17	59231.94
555.33	59313.86
555.50	59255.34
555.67	59199.17
555.83	59145.34
556.00	59442.59
556.16	59597.06
556.33	59662.60
556.50	59473.01
556.66	59604.08
556.83	59554.93
556.99	59718.77
557.16	59683.66
557.32	59683.66
557.49	60037.08
557.65	59550.25
557.82	59693.02
557.98	59428.54
558.15	59704.73
558.32	59765.58
558.48	59505.78
558.65	59657.91
558.81	59915.37
558.98	59788.98
559.14	59908.35
559.31	59695.36
559.47	59978.57
559.64	60011.34
559.80	59695.36
559.97	60090.91
560.13	59765.58
560.30	60004.31
560.46	59859.20
560.63	60001.97
560.79	60076.87
560.96	60058.15
561.12	60275.82
561.29	60149.43
561.45	59901.33
561.61	60170.49
561.78	59943.46
561.94	60107.30
562.11	60053.47
562.27	60303.90
562.44	60172.83
562.60	60399.86
562.77	60245.39
562.93	59959.84
563.10	60432.63
563.26	60236.03
563.42	60446.68
563.59	60303.90
563.75	60034.74
563.92	60254.75
564.08	60334.33
564.24	60385.82
564.41	60280.50
564.57	60397.52
564.74	60472.42
564.90	60310.92
565.07	60303.90
565.23	60537.96
565.39	60245.39
565.56	60509.87
565.72	60250.07
565.88	60465.40
566.05	60397.52
566.21	60470.08
566.38	60509.87
566.54	60622.22
566.70	60701.79
566.87	60512.21
567.03	60554.34
567.19	60704.13
567.36	60589.45
567.52	60519.23
567.68	60783.71
567.85	60676.05
568.01	60617.53
568.17	60540.30
568.34	60851.59
568.50	60676.05
568.66	60526.25
568.83	60460.72
568.99	60776.69
569.15	60666.69
569.32	60683.07
569.48	60439.65
569.64	60697.11
569.81	60664.35
569.97	60530.93
570.13	60514.55
570.30	60654.98
570.46	60800.10
570.62	60790.73
570.78	60687.75
570.95	60647.96
571.11	61057.56
571.27	60697.11
571.43	60907.76
571.60	60942.87
571.76	60889.04
571.92	60889.04
572.09	60980.32
572.25	60926.49
572.41	60753.29
572.57	60825.84
572.74	61064.58
572.90	60811.80
573.06	60856.27
573.22	60837.54
573.38	60867.97
573.55	60844.57
573.71	61219.05
573.87	60968.61
574.03	60561.36
574.20	61008.40
574.36	60809.46
574.52	60870.31
574.68	60910.10
574.84	61228.41
575.01	60919.46
575.17	60963.93
575.33	60706.47
575.49	60975.64
575.65	61247.14
575.82	60992.02
575.98	61097.34
576.14	61038.83
576.30	61099.68
576.46	61015.43
576.62	60797.76
576.79	61076.28
576.95	60975.64
577.11	61083.30
577.27	61254.16
577.43	61078.62
577.59	60921.80
577.75	60966.27
577.92	60858.61
578.08	60907.76
578.24	60940.53
578.40	61212.03
578.56	61001.38
578.72	61127.77
578.88	61179.26
579.04	61366.51
579.21	61052.87
579.37	61195.65
579.53	61160.54
579.69	60987.34
579.85	61155.86
580.01	61038.83
580.17	60999.04
580.33	61230.75
580.49	61183.94
580.65	61179.26
580.82	61123.09
580.98	61228.41
581.14	61200.33
581.30	61233.10
581.46	61043.51
581.62	61183.94
581.78	61244.80
581.94	61333.74
582.10	61162.88
582.26	61333.74
582.42	61174.58
582.58	61118.41
582.74	61069.26
582.90	61006.06
583.06	61221.39
583.22	61087.98
583.38	61282.25
583.54	61153.52
583.70	61406.30
583.86	61230.75
584.02	60940.53
584.18	61179.26
584.34	61216.71
584.50	60985.00
584.66	60910.10
584.82	61214.37
584.98	61523.32
585.14	61085.64
585.30	61254.16
585.46	61162.88
585.62	61261.18
585.78	61303.31
585.94	61062.24
586.10	61378.21
586.26	61165.22
586.42	61441.40
586.58	61453.11
586.74	61340.76
586.90	61130.11
587.06	61099.68
587.22	61502.26
587.38	61340.76
587.54	61443.74
587.70	61469.49
587.86	61179.26
588.02	61268.20
588.18	61478.85
588.34	61319.70
588.49	61298.63
