SpectraSuite Data File
++++++++++++++++++++++++++++++++++++
Date: Fri Oct 25 10:48:17 EDT 2013
User: price-jones
Dark Spectrum Present: No
Reference Spectrum Present: No
Number of Sampled Component Spectra: 1
Spectrometers: USB2+H05261
Integration Time (usec): 100000 (USB2+H05261)
Spectra Averaged: 1 (USB2+H05261)
Boxcar Smoothing: 0 (USB2+H05261)
Correct for Electrical Dark: No (USB2+H05261)
Strobe/Lamp Enabled: No (USB2+H05261)
Correct for Detector Non-linearity: No (USB2+H05261)
Correct for Stray Light: No (USB2+H05261)
Number of Pixels in Processed Spectrum: 2048
>>>>>Begin Processed Spectral Data<<<<<
365.73	238.73
365.92	238.73
366.12	238.73
366.32	65.54
366.52	0.00
366.72	91.28
366.91	124.05
367.11	81.92
367.31	60.85
367.51	0.00
367.70	56.17
367.90	23.41
368.10	105.32
368.30	84.26
368.49	81.92
368.69	147.45
368.89	9.36
369.09	77.24
369.28	74.90
369.48	77.24
369.68	84.26
369.87	102.98
370.07	203.63
370.27	126.39
370.47	250.44
370.66	400.23
370.86	475.13
371.06	430.66
371.25	533.64
371.45	496.19
371.65	442.36
371.84	486.83
372.04	491.51
372.24	535.98
372.44	512.58
372.63	531.30
372.83	538.32
373.03	479.81
373.22	552.37
373.42	510.24
373.62	493.85
373.81	573.43
374.01	636.63
374.21	498.53
374.40	510.24
374.60	622.58
374.79	580.45
374.99	587.47
375.19	613.22
375.38	711.52
375.58	589.82
375.78	603.86
375.97	643.65
376.17	660.03
376.37	585.13
376.56	650.67
376.76	631.94
376.95	617.90
377.15	674.07
377.35	662.37
377.54	582.79
377.74	627.26
377.93	727.91
378.13	692.80
378.33	606.20
378.52	648.33
378.72	692.80
378.91	655.35
379.11	594.50
379.31	720.88
379.50	599.18
379.70	645.99
379.89	667.05
380.09	744.29
380.28	695.14
380.48	716.20
380.68	751.31
380.87	702.16
381.07	720.88
381.26	748.97
381.46	730.25
381.65	725.57
381.85	720.88
382.04	685.78
382.24	737.27
382.43	751.31
382.63	732.59
382.83	763.01
383.02	723.23
383.22	791.10
383.41	814.51
383.61	716.20
383.80	861.32
384.00	830.89
384.19	784.08
384.39	816.85
384.58	844.93
384.78	798.12
384.97	912.81
385.17	793.44
385.36	835.57
385.56	760.67
385.75	772.38
385.95	791.10
386.14	863.66
386.34	842.59
386.53	847.27
386.72	779.40
386.92	858.98
387.11	877.70
387.31	868.34
387.50	821.53
387.70	849.61
387.89	849.61
388.09	861.32
388.28	849.61
388.48	929.19
388.67	950.26
388.86	938.55
389.06	999.41
389.25	1039.20
389.45	961.96
389.64	966.64
389.84	987.71
390.03	1060.26
390.22	1055.58
390.42	971.32
390.61	968.98
390.81	1034.52
391.00	1132.82
391.19	1151.54
391.39	1090.69
391.58	990.05
391.78	1022.81
391.97	1064.94
392.16	1104.73
392.36	1184.31
392.55	1062.60
392.75	1046.22
392.94	1041.54
393.13	1043.88
393.33	1071.97
393.52	1100.05
393.71	1029.84
393.91	1095.37
394.10	1121.12
394.29	1233.46
394.49	1219.42
394.68	1252.19
394.88	1203.04
395.07	1245.16
395.26	1231.12
395.46	1167.93
395.65	1233.46
395.84	1191.33
396.04	1263.89
396.23	1231.12
396.42	1205.38
396.62	1273.25
396.81	1167.93
397.00	1170.27
397.19	1212.40
397.39	1371.55
397.58	1411.34
397.77	1310.70
397.97	1434.75
398.16	1387.94
398.35	1479.22
398.55	1479.22
398.74	1423.05
398.93	1444.11
399.12	1493.26
399.32	1502.62
399.51	1504.96
399.70	1472.20
399.90	1544.75
400.09	1516.67
400.28	1584.54
400.47	1462.83
400.67	1511.99
400.86	1654.76
401.05	1654.76
401.24	1619.65
401.44	1685.19
401.63	1748.38
401.82	1664.12
402.01	1661.78
402.21	1586.88
402.40	1753.06
402.59	1806.89
402.78	1720.29
402.97	1720.29
403.17	1806.89
403.36	1816.26
403.55	1764.76
403.74	1832.64
403.93	1795.19
404.13	1813.92
404.32	1865.41
404.51	1802.21
404.70	1935.62
404.89	1898.17
405.09	1937.96
405.28	1900.52
405.47	1886.47
405.66	2059.67
405.85	1916.90
406.05	1914.56
406.24	1912.22
406.43	2040.95
406.62	1984.77
406.81	2099.46
407.00	2083.08
407.20	1998.82
407.39	1989.46
407.58	2106.48
407.77	2087.76
407.96	2181.38
408.15	2195.42
408.34	2263.30
408.54	2314.79
408.73	2214.15
408.92	2370.96
409.11	2265.64
409.30	2300.75
409.49	2289.04
409.68	2270.32
409.87	2359.26
410.07	2223.51
410.26	2319.47
410.45	2352.24
410.64	2422.45
410.83	2340.54
411.02	2455.22
411.21	2480.97
411.40	2462.24
411.59	2511.39
411.78	2602.68
411.98	2509.05
412.17	2530.12
412.36	2614.38
412.55	2670.55
412.74	2614.38
412.93	2705.66
413.12	2787.58
413.31	2864.82
413.50	2785.24
413.69	2843.75
413.88	2843.75
414.07	2888.22
414.26	2972.48
414.45	2998.23
414.64	3033.33
414.83	2979.50
415.02	2869.50
415.22	2998.23
415.41	3000.57
415.60	3084.83
415.79	3040.36
415.98	3185.47
416.17	3075.46
416.36	3143.34
416.55	3227.60
416.74	3145.68
416.93	3211.22
417.12	3190.15
417.31	3239.30
417.50	3169.09
417.69	3396.12
417.88	3389.10
418.07	3377.39
418.26	3445.27
418.45	3365.69
418.64	3597.40
418.83	3508.46
419.02	3456.97
419.21	3541.23
419.39	3506.12
419.58	3555.27
419.77	3529.53
419.96	3646.55
420.15	3644.21
420.34	3517.83
420.53	3808.05
420.72	3784.65
420.91	3889.97
421.10	3721.45
421.29	3709.75
421.48	3726.13
421.67	3740.18
421.86	3742.52
422.05	3620.81
422.24	3693.37
422.43	3829.12
422.61	3815.07
422.80	3852.52
422.99	3934.44
423.18	3988.27
423.37	3911.04
423.56	3772.94
423.75	3962.53
423.94	3843.16
424.13	3735.50
424.32	3712.09
424.50	3758.90
424.69	3955.51
424.88	3974.23
425.07	3911.04
425.26	3852.52
425.45	3756.56
425.64	3712.09
425.83	3904.01
426.01	4042.11
426.20	3915.72
426.39	3904.01
426.58	3950.82
426.77	3817.41
426.96	4018.70
427.15	4070.19
427.33	4222.33
427.52	4053.81
427.71	4095.94
427.90	4021.04
428.09	4147.43
428.28	4177.86
428.46	4039.76
428.65	4049.13
428.84	4142.75
429.03	4154.45
429.22	3976.57
429.40	4133.39
429.59	4175.52
429.78	3971.89
429.97	3850.18
430.16	4002.32
430.34	4173.18
430.53	4222.33
430.72	4138.07
430.91	4208.28
431.10	4313.61
431.28	4477.44
431.47	4568.73
431.66	4514.89
431.85	4374.46
432.03	4725.54
432.22	4582.77
432.41	4493.83
432.60	4683.41
432.79	4690.43
432.97	4627.24
433.16	4596.81
433.35	4568.73
433.54	4542.98
433.72	4601.49
433.91	4547.66
434.10	4657.67
434.28	4741.93
434.47	4777.03
434.66	4854.27
434.85	4837.89
435.03	4873.00
435.22	4851.93
435.41	5132.79
435.59	4971.30
435.78	5025.13
435.97	5083.64
436.16	4954.91
436.34	5039.17
436.53	5083.64
436.72	5252.16
436.90	5018.11
437.09	5240.46
437.28	5142.16
437.46	5085.98
437.65	5001.72
437.84	5067.26
438.02	5083.64
438.21	5083.64
438.40	5100.03
438.58	5387.91
438.77	5247.48
438.96	5418.34
439.14	5568.13
439.33	5432.38
439.52	5521.32
439.70	5558.77
439.89	5689.84
440.08	5664.10
440.26	5617.29
440.45	5619.63
440.63	5671.12
440.82	5863.04
441.01	5816.23
441.19	5811.55
441.38	6040.92
441.57	5959.00
441.75	6120.50
441.94	6183.70
442.12	6076.03
442.31	6328.81
442.50	6333.49
442.68	6141.57
442.87	6099.44
443.05	6221.14
443.24	6340.51
443.43	6387.32
443.61	6324.13
443.80	6548.82
443.98	6246.89
444.17	5984.75
444.35	6338.17
444.54	6483.28
444.73	6537.12
444.91	6286.68
445.10	6370.94
445.28	6211.78
445.47	6384.98
445.65	6342.85
445.84	6366.26
446.02	6448.18
446.21	6338.17
446.39	6396.68
446.58	6548.82
446.77	6502.01
446.95	6499.67
447.14	6602.65
447.32	6747.76
447.51	6420.09
447.69	6403.71
447.88	6614.35
448.06	6621.38
448.25	6635.42
448.43	6715.00
448.62	6726.70
448.80	6583.93
448.99	6855.43
449.17	6750.10
449.36	6717.34
449.54	6876.49
449.73	6911.60
449.91	6965.43
450.10	6871.81
450.28	7190.13
450.46	6974.80
450.65	7007.56
450.83	7152.68
451.02	7014.59
451.20	7056.72
451.39	7148.00
451.57	7335.24
451.76	6932.67
451.94	7309.49
452.13	7227.57
452.31	7180.76
452.49	7056.72
452.68	7339.92
452.86	7204.17
453.05	7169.06
453.23	7171.40
453.42	7108.21
453.60	7138.63
453.78	7295.45
453.97	7360.98
454.15	7300.13
454.34	7059.06
454.52	7466.31
454.70	7318.86
454.89	7384.39
455.07	7520.14
455.26	7428.86
455.44	7599.72
455.62	7698.02
455.81	7611.42
455.99	7723.77
456.17	7660.57
456.36	7714.41
456.54	7822.07
456.73	7812.71
456.91	8035.06
457.09	7892.29
457.28	7974.21
457.46	7976.55
457.64	8154.43
457.83	7812.71
458.01	8011.65
458.19	8030.38
458.38	8112.30
458.56	8093.57
458.74	8124.00
458.93	8114.64
459.11	8285.50
459.29	8351.03
459.48	8030.38
459.66	8156.77
459.84	8315.92
460.03	8449.33
460.21	8245.71
460.39	8376.78
460.57	8166.13
460.76	8411.89
460.94	8493.80
461.12	8486.78
461.31	8442.31
461.49	8617.85
461.67	8617.85
461.85	8713.81
462.04	8589.77
462.22	9085.96
462.40	8755.94
462.59	8706.79
462.77	8704.45
462.95	8613.17
463.13	8692.75
463.32	8755.94
463.50	8847.22
463.68	9048.51
463.86	8858.93
464.05	8746.58
464.23	8692.75
464.41	8954.89
464.59	8760.63
464.78	9097.66
464.96	8952.55
465.14	8924.46
465.32	9081.28
465.50	9109.36
465.69	9104.68
465.87	9011.06
466.05	9013.40
466.23	8910.42
466.41	9076.60
466.60	9142.13
466.78	9081.28
466.96	9226.39
467.14	9184.26
467.32	9151.49
467.51	9362.14
467.69	9062.55
467.87	9256.82
468.05	9474.49
468.23	9490.87
468.41	9240.44
468.60	9413.63
468.78	9371.50
468.96	9530.66
469.14	9525.98
469.32	9703.86
469.50	9268.52
469.69	9638.33
469.87	9628.96
470.05	9872.38
470.23	9839.61
470.41	9741.31
470.59	9673.43
470.77	9928.55
470.95	9748.33
471.14	10045.58
471.32	9844.29
471.50	10094.73
471.68	10097.07
471.86	10160.27
472.04	10291.34
472.22	10651.78
472.40	9930.89
472.58	10251.55
472.77	10340.49
472.95	10333.47
473.13	10628.37
473.31	10373.25
473.49	10413.04
473.67	10525.39
473.85	10703.27
474.03	10714.97
474.21	10780.51
474.39	10839.02
474.57	10740.72
474.75	10944.34
474.93	10925.62
475.12	10789.87
475.30	11145.63
475.48	11059.03
475.66	11136.27
475.84	11215.85
476.02	11267.34
476.20	11295.43
476.38	11250.96
476.56	11761.19
476.74	11698.00
476.92	11580.97
477.10	11599.70
477.28	11950.78
477.46	11777.58
477.64	12086.53
477.82	11957.80
478.00	12578.04
478.18	12278.45
478.36	12472.71
478.54	12482.08
478.72	12477.40
478.90	12894.01
479.08	12992.31
479.26	13046.15
479.44	12650.60
479.62	13078.91
479.80	13111.68
479.98	12945.50
480.16	13212.32
480.34	13247.43
480.52	13540.00
480.70	13879.38
480.88	13523.62
481.06	13565.74
481.24	13905.12
481.41	14045.55
481.59	14370.89
481.77	13935.55
481.95	14251.52
482.13	14579.20
482.31	14448.13
482.49	14562.81
482.67	14618.99
482.85	14787.50
483.03	14881.13
483.21	15253.27
483.39	15101.14
483.57	15183.06
483.74	15126.88
483.92	15515.41
484.10	15283.70
484.28	15459.24
484.46	15943.73
484.64	16009.26
484.82	15894.58
485.00	15803.30
485.18	15999.90
485.35	16315.87
485.53	16168.42
485.71	15995.22
485.89	16283.11
486.07	16570.99
486.25	16283.11
486.43	16659.93
486.61	16802.71
486.78	17376.14
486.96	17319.96
487.14	17539.97
487.32	17717.86
487.50	17757.64
487.68	17701.47
487.85	18097.02
488.03	18078.30
488.21	18253.84
488.39	18113.41
488.57	18352.14
488.75	18506.62
488.92	18967.70
489.10	18979.40
489.28	19136.22
489.46	19396.02
489.64	19290.70
489.81	19726.04
489.99	20074.77
490.17	19749.44
490.35	20233.93
490.53	20077.12
490.70	20334.57
490.88	20273.72
491.06	20489.05
491.24	20589.69
491.41	20601.40
491.59	20376.70
491.77	20732.47
491.95	20929.07
492.13	20896.30
492.30	21282.49
492.48	21406.54
492.66	21427.60
492.84	21521.23
493.01	21645.27
493.19	21439.31
493.37	22305.31
493.54	22017.42
493.72	22530.00
493.90	22370.84
494.08	22466.80
494.25	22707.88
494.43	22951.29
494.61	22979.38
494.79	23384.29
494.96	23042.57
495.14	23012.15
495.32	23377.27
495.49	23552.81
495.67	23669.84
495.85	24114.54
496.02	23800.91
496.20	24219.86
496.38	24058.37
496.55	23999.85
496.73	24699.67
496.91	24535.84
497.09	24491.37
497.26	24912.66
497.44	24491.37
497.62	24669.25
497.79	24994.58
497.97	24723.08
498.14	25167.78
498.32	25270.76
498.50	25317.57
498.67	26015.05
498.85	25883.98
499.03	25956.54
499.20	25942.50
499.38	25970.58
499.56	25827.81
499.73	26415.29
499.91	26342.73
500.08	26412.95
500.26	26295.92
500.44	26377.84
500.61	26258.47
500.79	26417.63
500.97	26614.23
501.14	27005.10
501.32	27152.55
501.49	27005.10
501.67	26808.50
501.84	27417.04
502.02	27201.71
502.20	27601.94
502.37	27496.61
502.55	27517.68
502.72	27477.89
502.90	27592.58
503.07	27999.83
503.25	28011.53
503.43	27880.46
503.60	28063.02
503.78	27889.82
503.95	28034.94
504.13	28175.37
504.30	28301.76
504.48	28154.30
504.65	28507.72
504.83	29034.35
505.01	28811.99
505.18	28879.87
505.36	29024.98
505.53	29228.61
505.71	29441.60
505.88	29333.93
506.06	28982.85
506.23	29333.93
506.41	29575.01
506.58	29521.18
506.76	29331.59
506.93	30141.42
507.11	29670.97
507.28	29811.40
507.46	29680.33
507.63	30068.86
507.81	29741.19
507.98	29750.55
508.16	30115.67
508.33	30300.58
508.50	30572.08
508.68	30649.32
508.85	30841.24
509.03	30665.70
509.20	30876.35
509.38	31037.84
509.55	30831.88
509.73	31079.97
509.90	31442.76
510.08	30866.98
510.25	31197.00
510.42	31805.54
510.60	31707.24
510.77	31529.36
510.95	31718.94
511.12	31669.79
511.30	31833.63
511.47	32030.23
511.64	32292.37
511.82	32126.19
511.99	31854.69
512.17	31845.33
512.34	31892.14
512.51	31910.86
512.69	32573.24
512.86	32727.71
513.04	33041.34
513.21	32879.85
513.38	32732.39
513.56	32737.07
513.73	32833.04
513.90	32936.02
514.08	32336.84
514.25	32512.38
514.43	33099.86
514.60	32711.33
514.77	33050.70
514.95	33078.79
515.12	33177.09
515.29	33340.93
515.47	33305.82
515.64	34038.41
515.81	33284.76
515.99	33921.38
516.16	33268.37
516.33	33436.89
516.51	33677.97
516.68	33490.73
516.85	33067.09
517.03	33610.09
517.20	33792.65
517.37	33790.31
517.54	34431.62
517.72	34157.78
517.89	33883.94
518.06	33839.47
518.24	33670.95
518.41	34216.29
518.58	34089.90
518.75	34789.72
518.93	34689.08
519.10	34649.29
519.27	34979.31
519.45	35037.82
519.62	35054.20
519.79	34939.52
519.96	35281.24
520.14	35346.77
520.31	34948.88
520.48	35185.27
520.65	34944.20
520.83	35508.27
521.00	35735.30
521.17	35442.73
521.34	35791.47
521.52	36243.20
521.69	35796.15
521.86	36165.96
522.03	35838.28
522.20	36133.19
522.38	36245.54
522.55	36247.88
522.72	36060.63
522.89	36170.64
523.07	36549.81
523.24	36285.33
523.41	36580.23
523.58	36418.74
523.75	37064.72
523.92	37275.37
524.10	37134.94
524.27	36882.16
524.44	36664.49
524.61	37127.92
524.78	37263.67
524.96	37357.29
525.13	37563.26
525.30	37460.27
525.47	37717.73
525.64	37378.36
525.81	37523.47
525.98	37551.56
526.16	37282.39
526.33	36968.76
526.50	37551.56
526.67	37048.34
526.84	37443.89
527.01	37275.37
527.18	37553.90
527.36	37572.62
527.53	38043.07
527.70	38396.49
527.87	37991.58
528.04	38213.93
528.21	38635.22
528.38	38646.93
528.55	38745.23
528.72	38230.31
528.89	38990.98
529.07	38843.53
529.24	38593.09
529.41	38703.10
529.58	38623.52
529.75	39089.29
529.92	38974.60
530.09	38862.26
530.26	39061.20
530.43	39227.38
530.60	38885.66
530.77	39056.52
530.94	39318.66
531.11	39573.78
531.28	39887.41
531.46	39395.90
531.63	39924.86
531.80	39627.61
531.97	39199.29
532.14	39395.90
532.31	39037.80
532.48	39175.89
532.65	39697.83
532.82	39550.37
532.99	39894.43
533.16	39669.74
533.33	39950.60
533.50	39906.13
533.67	40030.18
533.84	39976.35
534.01	40582.55
534.18	39910.82
534.35	40275.94
534.52	40334.45
534.69	40657.45
534.86	40226.79
535.03	40084.01
535.20	40517.01
535.37	40769.79
535.54	40645.74
535.71	40617.66
535.88	40671.49
536.05	40540.42
536.22	40622.34
536.38	40591.91
536.55	41013.21
536.72	40910.22
536.89	40392.97
537.06	40538.08
537.23	40795.54
537.40	40788.52
537.57	40886.82
537.74	41230.88
537.91	41099.81
538.08	41212.15
538.25	41237.90
538.42	40835.33
538.59	41200.45
538.75	40601.27
538.92	41041.29
539.09	41432.16
539.26	41237.90
539.43	41099.81
539.60	41497.70
539.77	41265.99
539.94	41387.69
540.11	41184.07
540.28	41010.87
540.44	41453.23
540.61	41455.57
540.78	40772.13
540.95	41471.95
541.12	41429.82
541.29	41467.27
541.46	41722.39
541.62	42122.62
541.79	41806.65
541.96	41736.43
542.13	41801.97
542.30	41963.46
542.47	42071.13
542.63	41628.77
542.80	41907.29
542.97	42115.60
543.14	42693.71
543.31	42431.57
543.48	42777.97
543.64	43042.45
543.81	42857.55
543.98	42590.73
544.15	42705.41
544.32	42871.59
544.48	42913.72
544.65	42682.01
544.82	42885.64
544.99	42288.80
545.16	42581.37
545.32	42286.46
545.49	43232.04
545.66	43152.46
545.83	43154.80
546.00	43026.07
546.16	43323.32
546.33	43313.95
546.50	43201.61
546.67	43482.47
546.83	42735.84
547.00	43576.09
547.17	43056.50
547.34	43487.15
547.50	43505.88
547.67	43681.42
547.84	43952.92
548.00	43655.67
548.17	43629.93
548.34	43421.62
548.51	43775.04
548.67	43763.34
548.84	43922.49
549.01	43901.43
549.18	43676.74
549.34	43625.25
549.51	44023.14
549.68	43861.64
549.84	44083.99
550.01	43931.86
550.18	43835.89
550.34	43903.77
550.51	43814.83
550.68	43723.55
550.84	43304.59
551.01	44231.44
551.18	44023.14
551.34	44074.63
551.51	43901.43
551.68	44095.69
551.84	44247.83
552.01	44088.67
552.18	44172.93
552.34	44252.51
552.51	44673.81
552.68	43981.01
552.84	44589.55
553.01	44325.07
553.18	44720.62
553.34	44488.90
553.51	44201.02
553.67	44322.72
553.84	44748.70
554.01	44591.89
554.17	44697.21
554.34	44573.16
554.51	44697.21
554.67	45088.08
554.84	45057.65
555.00	44898.50
555.17	44659.76
555.33	44664.44
555.50	44432.73
555.67	44942.97
555.83	44837.64
556.00	45013.18
556.16	45165.32
556.33	44996.80
556.50	44858.71
556.66	45338.52
556.83	44589.55
556.99	44952.33
557.16	45113.83
557.32	45556.19
557.49	45034.25
557.65	44933.60
557.82	45186.38
557.98	44512.31
558.15	45312.77
558.32	45198.09
558.48	45282.34
558.65	45270.64
558.81	45291.71
558.98	45588.95
559.14	45067.02
559.31	45071.70
559.47	45148.93
559.64	45130.21
559.80	45476.61
559.97	45305.75
560.13	45048.29
560.30	45387.67
560.46	45705.98
560.63	45088.08
560.79	45500.01
560.96	45724.71
561.12	45399.37
561.29	45748.11
561.45	45769.18
561.61	45380.65
561.78	45478.95
561.94	45102.12
562.11	45270.64
562.27	45031.91
562.44	45631.08
562.60	45888.54
562.77	46021.95
562.93	45219.15
563.10	45563.21
563.26	45090.42
563.42	45600.66
563.59	45490.65
563.75	45907.27
563.92	45455.54
564.08	45865.14
564.24	46094.51
564.41	45666.19
564.57	45717.68
564.74	45654.49
564.90	45684.92
565.07	46314.52
565.23	46085.15
565.39	45605.34
565.56	46047.70
565.72	45635.77
565.88	45556.19
566.05	46010.25
566.21	45729.39
566.38	45886.20
566.54	45804.28
566.70	46017.27
566.87	46562.62
567.03	45998.55
567.19	46251.33
567.36	46103.87
567.52	45935.35
567.68	46064.08
567.85	45846.41
568.01	45790.24
568.17	45415.76
568.34	45904.93
568.50	46010.25
568.66	45958.76
568.83	45769.18
568.99	45853.44
569.15	45844.07
569.32	45738.75
569.48	45682.58
569.64	45972.80
569.81	46246.65
569.97	46005.57
570.13	46171.75
570.30	45696.62
570.46	46078.13
570.62	46120.26
570.78	45649.81
570.95	45954.08
571.11	46408.14
571.27	46417.50
571.43	45996.21
571.60	46190.47
571.76	45935.35
571.92	46061.74
572.09	45848.75
572.25	46164.73
572.41	46291.12
572.57	45902.59
572.74	46457.29
572.90	46195.15
573.06	46831.78
573.22	46555.60
573.38	46581.34
573.55	46256.01
573.71	46148.34
573.87	46443.25
574.03	46021.95
574.20	45933.01
574.36	45951.74
574.52	46117.92
574.68	46080.47
574.84	46223.24
575.01	46321.54
575.17	46199.83
575.33	45930.67
575.49	46314.52
575.65	46600.07
575.82	46550.91
575.98	46131.96
576.14	46639.86
576.30	46398.78
576.46	46103.87
576.62	46036.00
576.79	45834.71
576.95	46045.36
577.11	45804.28
577.27	46321.54
577.43	46218.56
577.59	46574.32
577.75	46155.36
577.92	45986.85
578.08	45172.34
578.24	45890.88
578.40	46052.38
578.56	46314.52
578.72	46106.21
578.88	46258.35
579.04	46026.63
579.21	46192.81
579.37	46445.59
579.53	46110.89
579.69	45925.99
579.85	46071.10
580.01	46064.08
580.17	46298.14
580.33	46298.14
580.49	46937.10
580.65	46787.31
580.82	46363.67
580.98	45954.08
581.14	45986.85
581.30	46520.49
581.46	46321.54
581.62	46375.37
581.78	46410.48
581.94	46529.85
582.10	46323.88
582.26	46717.09
582.42	46136.64
582.58	46251.33
582.74	46117.92
582.90	46195.15
583.06	46443.25
583.22	46375.37
583.38	46387.08
583.54	46356.65
583.70	46438.57
583.86	46272.39
584.02	46178.77
584.18	46705.39
584.34	46384.74
584.50	46358.99
584.66	46536.87
584.82	46298.14
584.98	46602.41
585.14	46541.55
585.30	46511.13
585.46	46724.11
585.62	46113.23
585.78	46260.69
585.94	46251.33
586.10	46054.72
586.26	46075.79
586.42	46092.17
586.58	46784.97
586.74	46454.95
586.90	46190.47
587.06	46057.06
587.22	46579.00
587.38	46286.43
587.54	46574.32
587.70	46714.75
587.86	46457.29
588.02	46443.25
588.18	46113.23
588.34	46127.28
588.49	46227.92
588.65	45682.58
588.81	45741.09
588.97	46155.36
589.13	46326.22
589.29	46157.70
589.45	46471.34
589.61	46031.32
589.77	46625.81
589.93	46054.72
