SpectraSuite Data File
++++++++++++++++++++++++++++++++++++
Date: Fri Oct 25 10:44:21 EDT 2013
User: price-jones
Dark Spectrum Present: No
Reference Spectrum Present: No
Number of Sampled Component Spectra: 1
Spectrometers: USB2+H05261
Integration Time (usec): 100000 (USB2+H05261)
Spectra Averaged: 1 (USB2+H05261)
Boxcar Smoothing: 0 (USB2+H05261)
Correct for Electrical Dark: No (USB2+H05261)
Strobe/Lamp Enabled: No (USB2+H05261)
Correct for Detector Non-linearity: No (USB2+H05261)
Correct for Stray Light: No (USB2+H05261)
Number of Pixels in Processed Spectrum: 2048
>>>>>Begin Processed Spectral Data<<<<<
365.73	128.73
365.92	128.73
366.12	128.73
366.32	84.26
366.52	65.54
366.72	21.06
366.91	56.17
367.11	4.68
367.31	0.00
367.51	0.00
367.70	0.00
367.90	58.51
368.10	0.00
368.30	2.34
368.49	42.13
368.69	23.41
368.89	100.64
369.09	42.13
369.28	0.00
369.48	95.96
369.68	114.69
369.87	56.17
370.07	126.39
370.27	140.43
370.47	229.37
370.66	411.93
370.86	461.09
371.06	454.06
371.25	482.15
371.45	444.70
371.65	552.37
371.84	486.83
372.04	468.11
372.24	503.22
372.44	493.85
372.63	575.77
372.83	594.50
373.03	554.71
373.22	512.58
373.42	543.00
373.62	559.39
373.81	545.34
374.01	521.94
374.21	620.24
374.40	458.74
374.60	664.71
374.79	472.79
374.99	566.41
375.19	624.92
375.38	620.24
375.58	540.66
375.78	592.16
375.97	669.39
376.17	660.03
376.37	667.05
376.56	664.71
376.76	573.43
376.95	638.97
377.15	603.86
377.35	671.73
377.54	706.84
377.74	697.48
377.93	695.14
378.13	629.60
378.33	716.20
378.52	688.12
378.72	748.97
378.91	678.76
379.11	650.67
379.31	697.48
379.50	706.84
379.70	704.50
379.89	748.97
380.09	709.18
380.28	716.20
380.48	697.48
380.68	753.65
380.87	711.52
381.07	713.86
381.26	660.03
381.46	819.19
381.65	774.72
381.85	704.50
382.04	695.14
382.24	727.91
382.43	744.29
382.63	662.37
382.83	641.31
383.02	741.95
383.22	828.55
383.41	751.31
383.61	690.46
383.80	828.55
384.00	781.74
384.19	922.17
384.39	800.46
384.58	842.59
384.78	781.74
384.97	863.66
385.17	851.96
385.36	713.86
385.56	814.51
385.75	884.72
385.95	903.45
386.14	826.21
386.34	795.78
386.53	861.32
386.72	954.94
386.92	884.72
387.11	858.98
387.31	933.87
387.50	793.44
387.70	880.04
387.89	924.51
388.09	826.21
388.28	945.58
388.48	922.17
388.67	858.98
388.86	978.34
389.06	910.47
389.25	997.07
389.45	1039.20
389.64	1074.31
389.84	1041.54
390.03	1090.69
390.22	1146.86
390.42	961.96
390.61	1076.65
390.81	1013.45
391.00	1053.24
391.19	1071.97
391.39	1039.20
391.58	1090.69
391.78	1078.99
391.97	1263.89
392.16	1142.18
392.36	1076.65
392.55	1020.47
392.75	1022.81
392.94	1034.52
393.13	985.37
393.33	1036.86
393.52	1090.69
393.71	1179.63
393.91	1174.95
394.10	1135.16
394.29	1198.35
394.49	1256.87
394.68	1163.25
394.88	1277.93
395.07	1364.53
395.26	1268.57
395.46	1259.21
395.65	1277.93
395.84	1369.21
396.04	1308.36
396.23	1181.97
396.42	1188.99
396.62	1268.57
396.81	1280.27
397.00	1275.59
397.19	1301.34
397.39	1373.89
397.58	1469.86
397.77	1549.43
397.97	1453.47
398.16	1516.67
398.35	1528.37
398.55	1509.65
398.74	1511.99
398.93	1612.63
399.12	1537.73
399.32	1554.12
399.51	1603.27
399.70	1710.93
399.90	1647.74
400.09	1591.56
400.28	1640.72
400.47	1685.19
400.67	1732.00
400.86	1720.29
401.05	1724.97
401.24	1750.72
401.44	1846.68
401.63	1781.15
401.82	1696.89
402.01	1804.55
402.21	1788.17
402.40	1818.60
402.59	1804.55
402.78	1820.94
402.97	1734.34
403.17	1858.39
403.36	1881.79
403.55	1799.87
403.74	1914.56
403.93	1980.09
404.13	2003.50
404.32	1977.75
404.51	1961.37
404.70	2003.50
404.89	2040.95
405.09	2076.06
405.28	2015.20
405.47	2125.21
405.66	2001.16
405.85	2073.71
406.05	2054.99
406.24	2062.01
406.43	2073.71
406.62	2195.42
406.81	2214.15
407.00	2209.47
407.20	2113.50
407.39	2190.74
407.58	2305.43
407.77	2361.60
407.96	2385.01
408.15	2296.07
408.34	2312.45
408.54	2340.54
408.73	2394.37
408.92	2317.13
409.11	2399.05
409.30	2319.47
409.49	2377.98
409.68	2265.64
409.87	2427.14
410.07	2427.14
410.26	2417.77
410.45	2602.68
410.64	2602.68
410.83	2574.59
411.02	2555.86
411.21	2710.34
411.40	2747.79
411.59	2708.00
411.78	2818.00
411.98	2810.98
412.17	2726.72
412.36	2780.56
412.55	2853.11
412.74	2876.52
412.93	2899.92
413.12	2820.35
413.31	2958.44
413.50	2918.65
413.69	3070.78
413.88	3089.51
414.07	3054.40
414.26	2984.18
414.45	3133.98
414.64	3084.83
414.83	3066.10
415.02	3075.46
415.22	3218.24
415.41	3269.73
415.60	3283.77
415.79	3180.79
415.98	3251.00
416.17	3386.76
416.36	3314.20
416.55	3377.39
416.74	3363.35
416.93	3302.50
417.12	3438.25
417.31	3438.25
417.50	3438.25
417.69	3531.87
417.88	3625.49
418.07	3606.77
418.26	3515.48
418.45	3597.40
418.64	3789.33
418.83	3700.39
419.02	3691.02
419.21	3693.37
419.39	3658.26
419.58	3758.90
419.77	3695.71
419.96	3779.97
420.15	3803.37
420.34	3922.74
420.53	4039.76
420.72	3854.86
420.91	4044.45
421.10	3831.46
421.29	3889.97
421.48	3988.27
421.67	4035.08
421.86	4039.76
422.05	3943.80
422.24	3859.54
422.43	4161.47
422.61	4021.04
422.80	4025.72
422.99	4032.74
423.18	4070.19
423.37	4250.41
423.56	4161.47
423.75	4131.05
423.94	4025.72
424.13	3831.46
424.32	4072.53
424.50	4248.07
424.69	4142.75
424.88	4095.94
425.07	4065.51
425.26	4126.36
425.45	3995.29
425.64	4250.41
425.83	4112.32
426.01	4091.26
426.20	4222.33
426.39	4074.87
426.58	4105.30
426.77	4112.32
426.96	4189.56
427.15	4161.47
427.33	4159.13
427.52	4215.30
427.71	4201.26
427.90	4421.27
428.09	4273.82
428.28	4269.14
428.46	4255.09
428.65	4149.77
428.84	4339.35
429.03	4440.00
429.22	4234.03
429.40	4308.93
429.59	4489.15
429.78	3981.25
429.97	4093.60
430.16	4243.39
430.34	4121.68
430.53	4311.27
430.72	4177.86
430.91	4367.44
431.10	4339.35
431.28	4667.03
431.47	4777.03
431.66	4793.42
431.85	4638.94
432.03	4835.55
432.22	4809.80
432.41	4821.50
432.60	4938.53
432.79	4807.46
432.97	4997.04
433.16	4973.64
433.35	4730.22
433.54	4865.97
433.72	4915.12
433.91	4737.24
434.10	4880.02
434.28	4873.00
434.47	4940.87
434.66	4985.34
434.85	5242.80
435.03	5200.67
435.22	5022.79
435.41	5345.78
435.59	5200.67
435.78	5369.19
435.97	5497.92
436.16	5341.10
436.34	5273.23
436.53	5397.28
436.72	5451.11
436.90	5298.97
437.09	5514.30
437.28	5350.46
437.46	5399.62
437.65	5460.47
437.84	5313.02
438.02	5451.11
438.21	5404.30
438.40	5303.65
438.58	5631.33
438.77	5577.50
438.96	5614.95
439.14	5678.14
439.33	5767.08
439.52	5781.12
439.70	5865.38
439.89	5956.66
440.08	5818.57
440.26	5736.65
440.45	5888.79
440.63	6094.76
440.82	6256.25
441.01	6204.76
441.19	6319.45
441.38	6230.51
441.57	6366.26
441.75	6518.39
441.94	6698.61
442.12	6527.75
442.31	6665.85
442.50	6569.88
442.68	6572.22
442.87	6534.78
443.05	6476.26
443.24	6560.52
443.43	6670.53
443.61	6621.38
443.80	6902.24
443.98	6588.61
444.17	6443.49
444.35	6782.87
444.54	6977.14
444.73	6810.96
444.91	6548.82
445.10	6595.63
445.28	6612.01
445.47	6588.61
445.65	6633.08
445.84	6775.85
446.02	6787.55
446.21	6782.87
446.39	6881.18
446.58	6881.18
446.77	6956.07
446.95	6876.49
447.14	6902.24
447.32	6981.82
447.51	6857.77
447.69	6860.11
447.88	6902.24
448.06	6991.18
448.25	7082.46
448.43	7026.29
448.62	7148.00
448.80	7117.57
448.99	7054.37
449.17	7035.65
449.36	7016.93
449.54	7265.02
449.73	7122.25
449.91	7253.32
450.10	7314.17
450.28	7431.20
450.46	7501.42
450.65	7482.69
450.83	7426.52
451.02	7410.14
451.20	7466.31
451.39	7335.24
451.57	7562.27
451.76	7473.33
451.94	7424.18
452.13	7578.65
452.31	7513.12
452.49	7325.88
452.68	7414.82
452.86	7482.69
453.05	7510.78
453.23	7583.34
453.42	7529.50
453.60	7606.74
453.78	7772.92
453.97	7691.00
454.15	7541.21
454.34	7639.51
454.52	7791.64
454.70	7929.74
454.89	7786.96
455.07	7604.40
455.26	7873.56
455.44	7995.27
455.62	8163.79
455.81	8091.23
455.99	7882.92
456.17	8226.98
456.36	8217.62
456.54	8152.09
456.73	8320.60
456.91	8503.17
457.09	8336.99
457.28	8594.45
457.46	8355.71
457.64	8482.10
457.83	8470.40
458.01	8182.51
458.19	8500.83
458.38	8468.06
458.56	8341.67
458.74	8559.34
458.93	8535.93
459.11	8493.80
459.29	8594.45
459.48	8559.34
459.66	8608.49
459.84	8678.71
460.03	8765.31
460.21	8861.27
460.39	8947.87
460.57	8788.71
460.76	9015.74
460.94	8971.27
461.12	8847.22
461.31	9004.04
461.49	9006.38
461.67	8812.12
461.85	9226.39
462.04	9097.66
462.22	9268.52
462.40	9179.58
462.59	9296.61
462.77	9242.78
462.95	9350.44
463.13	9057.87
463.32	9151.49
463.50	9301.29
463.68	9298.95
463.86	9479.17
464.05	9135.11
464.23	9170.22
464.41	9338.74
464.59	9062.55
464.78	9631.30
464.96	9500.23
465.14	9516.62
465.32	9617.26
465.50	9624.28
465.69	9685.14
465.87	9643.01
466.05	9472.15
466.23	9390.23
466.41	9593.86
466.60	9596.20
466.78	9600.88
466.96	9596.20
467.14	9804.50
467.32	9582.15
467.51	9659.39
467.69	9523.64
467.87	9783.44
468.05	9762.37
468.23	9760.03
468.41	9853.66
468.60	9975.36
468.78	9947.28
468.96	9853.66
469.14	10122.82
469.32	10195.37
469.50	9809.19
469.69	10188.35
469.87	9942.60
470.05	10106.43
470.23	10242.18
470.41	10204.74
470.59	10216.44
470.77	10324.10
470.95	10384.96
471.14	10572.20
471.32	10399.00
471.50	10698.59
471.68	10569.86
471.86	10810.93
472.04	10789.87
472.22	11103.50
472.40	10607.31
472.58	10698.59
472.77	10848.38
472.95	10991.16
473.13	11197.12
473.31	10960.73
473.49	10780.51
473.67	10995.84
473.85	10991.16
474.03	11351.60
474.21	11311.81
474.39	11522.46
474.57	11592.67
474.75	11676.93
474.93	11604.38
475.12	11557.57
475.30	11749.49
475.48	11665.23
475.66	11946.09
475.84	11634.80
476.02	11789.28
476.20	11932.05
476.38	12264.41
476.56	12400.16
476.74	12423.56
476.92	11936.73
477.10	12306.54
477.28	12315.90
477.46	12556.97
477.64	12840.18
477.82	12802.73
478.00	12980.61
478.18	12877.63
478.36	13132.75
478.54	13102.32
478.72	13331.69
478.90	13465.10
479.08	13535.32
479.26	13481.49
479.44	13680.43
479.62	13680.43
479.80	13937.89
479.98	13867.67
480.16	14068.96
480.34	14031.51
480.52	14511.32
480.70	14300.67
480.88	14211.73
481.06	14600.26
481.24	14281.95
481.41	14546.43
481.59	15201.78
481.77	15023.90
481.95	14998.15
482.13	14913.89
482.31	15056.67
482.49	15475.62
482.67	15300.08
482.85	15803.30
483.03	15655.84
483.21	15634.78
483.39	15843.09
483.57	15873.51
483.74	16301.83
483.92	16374.39
484.10	15990.54
484.28	16379.07
484.46	16762.92
484.64	16973.56
484.82	16578.01
485.00	16561.63
485.18	16788.66
485.35	16744.19
485.53	16608.44
485.71	16711.42
485.89	16952.50
486.07	16769.94
486.25	17362.09
486.43	17263.79
486.61	17741.26
486.78	17881.69
486.96	18080.64
487.14	18164.90
487.32	18281.92
487.50	18249.16
487.68	18691.52
487.85	19089.41
488.03	18932.59
488.21	19028.56
488.39	19400.70
488.57	19246.23
488.75	19644.12
488.92	19620.71
489.10	19747.10
489.28	19864.13
489.46	20051.37
489.64	20416.49
489.81	20849.49
489.99	20802.68
490.17	20769.91
490.35	21034.39
490.53	20943.11
490.70	21298.88
490.88	21319.94
491.06	21823.16
491.24	21415.90
491.41	21598.46
491.59	21558.67
491.77	21584.42
491.95	21811.45
492.13	22080.61
492.30	21834.86
492.48	22466.80
492.66	22396.59
492.84	22260.84
493.01	23267.27
493.19	23101.09
493.37	22911.50
493.54	22845.97
493.72	23164.28
493.90	23723.67
494.08	23641.75
494.25	24240.93
494.43	24102.84
494.61	23873.46
494.79	24254.97
494.96	24453.92
495.14	24320.51
495.32	24746.48
495.49	24477.32
495.67	24554.56
495.85	24879.89
496.02	25170.12
496.20	25099.90
496.38	25214.59
496.55	25312.89
496.73	25858.24
496.91	25694.40
497.09	26054.84
497.26	25827.81
497.44	26073.57
497.62	26225.70
497.79	26185.91
497.97	25811.43
498.14	26249.11
498.32	26307.62
498.50	26335.71
498.67	26944.25
498.85	27021.48
499.03	27190.00
499.20	27208.73
499.38	27185.32
499.56	27311.71
499.73	27527.04
499.91	27438.10
500.08	27487.25
500.26	26951.27
500.44	27674.49
500.61	27477.89
500.79	27477.89
500.97	27431.08
501.14	27690.88
501.32	28105.15
501.49	28173.03
501.67	28070.04
501.84	28402.40
502.02	28257.29
502.20	28486.66
502.37	28922.00
502.55	28538.15
502.72	28781.57
502.90	29198.18
503.07	29142.01
503.25	28914.98
503.43	29142.01
503.60	29050.73
503.78	29125.63
503.95	29008.60
504.13	29336.27
504.30	29427.56
504.48	29373.72
504.65	29766.93
504.83	30015.03
505.01	30244.40
505.18	30206.95
505.36	30342.70
505.53	30553.35
505.71	30742.94
505.88	30363.77
506.06	29855.87
506.23	30864.64
506.41	30780.39
506.58	30656.34
506.76	30684.42
506.93	30787.41
507.11	31047.21
507.28	31009.76
507.46	30735.92
507.63	31112.74
507.81	31328.07
507.98	30890.39
508.16	31335.09
508.33	31470.84
508.50	31622.98
508.68	31931.93
508.85	32142.58
509.03	32287.69
509.20	32182.37
509.38	32006.83
509.55	32095.77
509.73	32348.54
509.90	32201.09
510.08	32360.25
510.25	32393.01
510.42	32201.09
510.60	32591.96
510.77	32474.93
510.95	32748.78
511.12	33333.91
511.30	33139.65
511.47	33645.20
511.64	33436.89
511.82	33699.03
511.99	33083.47
512.17	33610.09
512.34	32973.47
512.51	33464.98
512.69	34059.48
512.86	33600.73
513.04	34211.61
513.21	33675.63
513.38	33392.42
513.56	33387.74
513.73	33717.76
513.90	34232.68
514.08	33525.83
514.25	34108.63
514.43	34265.44
514.60	34129.69
514.77	34190.55
514.95	35049.52
515.12	34132.03
515.29	34639.93
515.47	35166.55
515.64	35145.48
515.81	34759.30
515.99	34696.10
516.16	34412.90
516.33	34389.49
516.51	34607.16
516.68	34281.83
516.85	33839.47
517.03	34637.59
517.20	35035.48
517.37	35229.74
517.54	35342.09
517.72	35365.49
517.89	34974.63
518.06	35126.76
518.24	35452.09
518.41	35014.41
518.58	35297.62
518.75	35405.28
518.93	35805.52
519.10	35793.81
519.27	35917.86
519.45	35915.52
519.62	36254.90
519.79	36409.37
519.96	36811.95
520.14	36699.60
520.31	36713.64
520.48	36531.08
520.65	36137.87
520.83	37092.81
521.00	36947.70
521.17	37254.31
521.34	36814.29
521.52	37156.00
521.69	37340.91
521.86	37331.54
522.03	37221.54
522.20	37240.26
522.38	37310.48
522.55	37532.83
522.72	37429.85
522.89	36975.78
523.07	37343.25
523.24	37811.35
523.41	38169.46
523.58	37940.08
523.75	38345.00
523.92	38066.47
524.10	38160.09
524.27	38405.85
524.44	38490.11
524.61	38384.79
524.78	38803.74
524.96	38890.34
525.13	38665.65
525.30	38487.77
525.47	38838.85
525.64	38838.85
525.81	38401.17
525.98	38972.26
526.16	38352.02
526.33	38164.78
526.50	38396.49
526.67	37942.42
526.84	38689.06
527.01	38642.24
527.18	39061.20
527.36	38960.56
527.53	39672.08
527.70	39484.84
527.87	39889.75
528.04	39276.53
528.21	39508.24
528.38	39379.51
528.55	39913.16
528.72	40196.36
528.89	40154.23
529.07	39887.41
529.24	39739.96
529.41	39683.78
529.58	39955.29
529.75	39606.55
529.92	39985.71
530.09	40156.57
530.26	40172.96
530.43	40500.63
530.60	40100.40
530.77	40172.96
530.94	40409.35
531.11	40540.42
531.28	40472.54
531.46	40601.27
531.63	40603.61
531.80	40591.91
531.97	40751.07
532.14	40643.40
532.31	39931.88
532.48	40158.91
532.65	40488.93
532.82	40790.86
532.99	40732.34
533.16	40629.36
533.33	41074.06
533.50	41406.42
533.67	41034.27
533.84	41010.87
534.01	41099.81
534.18	41249.60
534.35	41516.42
534.52	41305.77
534.69	41366.63
534.86	41808.99
535.03	41354.93
535.20	42241.99
535.37	42113.26
535.54	41776.22
535.71	41888.57
535.88	41713.03
536.05	41790.27
536.22	42181.13
536.38	42043.04
536.55	41567.91
536.72	42005.59
536.89	42007.94
537.06	41902.61
537.23	42347.31
537.40	42209.22
537.57	42274.76
537.74	41935.38
537.91	42443.27
538.08	42176.45
538.25	42340.29
538.42	42541.58
538.59	42749.88
538.75	42096.88
538.92	42630.52
539.09	42433.91
539.26	42405.83
539.43	42328.59
539.60	42576.69
539.77	42777.97
539.94	42679.67
540.11	42127.30
540.28	42646.90
540.44	42621.16
540.61	42822.44
540.78	42660.94
540.95	42618.81
541.12	42564.98
541.29	42824.78
541.46	42457.32
541.62	42838.83
541.79	43372.47
541.96	42670.31
542.13	43103.31
542.30	43150.12
542.47	43079.90
542.63	43342.04
542.80	43351.40
542.97	43351.40
543.14	43777.38
543.31	43683.76
543.48	44055.90
543.64	44339.11
543.81	43749.29
543.98	43969.30
544.15	43536.30
544.32	44423.37
544.48	44783.81
544.65	44289.96
544.82	44062.93
544.99	43847.60
545.16	43636.95
545.32	43964.62
545.49	44369.54
545.66	44418.69
545.83	44669.12
546.00	44238.47
546.16	43927.17
546.33	44470.18
546.50	43548.01
546.67	44130.80
546.83	44030.16
547.00	44449.11
547.17	44509.97
547.34	44430.39
547.50	44512.31
547.67	44648.06
547.84	44605.93
548.00	44568.48
548.17	44814.24
548.34	44570.82
548.51	44870.41
548.67	44814.24
548.84	44788.49
549.01	45097.44
549.18	44912.54
549.34	44964.03
549.51	45411.07
549.68	44893.82
549.84	44959.35
550.01	44800.19
550.18	44971.05
550.34	44720.62
550.51	44762.75
550.68	45188.72
550.84	44786.15
551.01	45333.84
551.18	44952.33
551.34	45221.49
551.51	45371.28
551.68	45642.79
551.84	45200.43
552.01	45069.36
552.18	44896.16
552.34	45097.44
552.51	45862.80
552.68	45352.56
552.84	45542.14
553.01	45893.22
553.18	45591.30
553.34	45319.79
553.51	45392.35
553.67	45703.64
553.84	45851.09
554.01	45542.14
554.17	45797.26
554.34	46237.28
554.51	45542.14
554.67	46057.06
554.84	45701.30
555.00	45478.95
555.17	45361.92
555.33	45881.52
555.50	45301.07
555.67	46155.36
555.83	45806.62
556.00	46073.45
556.16	46279.41
556.33	45876.84
556.50	45638.11
556.66	45605.34
556.83	45720.02
556.99	45944.72
557.16	45886.20
557.32	45771.52
557.49	46094.51
557.65	46124.94
557.82	45872.16
557.98	45942.38
558.15	46440.91
558.32	46241.96
558.48	46375.37
558.65	46031.32
558.81	45853.44
558.98	46314.52
559.14	45975.14
559.31	45764.49
559.47	46361.33
559.64	46719.43
559.80	46012.59
559.97	45911.95
560.13	45996.21
560.30	46059.40
560.46	46452.61
560.63	46178.77
560.79	46808.37
560.96	46726.46
561.12	46843.48
561.29	46440.91
561.45	46513.47
561.61	45886.20
561.78	46438.57
561.94	46417.50
562.11	46408.14
562.27	46806.03
562.44	46834.12
562.60	46667.94
562.77	46672.62
562.93	46588.36
563.10	46717.09
563.26	46728.80
563.42	46747.52
563.59	46361.33
563.75	46419.84
563.92	46897.31
564.08	46930.08
564.24	46768.58
564.41	46560.28
564.57	46543.89
564.74	46700.71
564.90	46782.63
565.07	46712.41
565.23	46873.91
565.39	46827.10
565.56	46684.33
565.72	46005.57
565.88	46541.55
566.05	46651.56
566.21	46712.41
566.38	46724.11
566.54	46930.08
566.70	46679.64
566.87	46857.52
567.03	46628.15
567.19	47016.68
567.36	47124.35
567.52	46358.99
567.68	46939.44
567.85	46981.57
568.01	46557.94
568.17	46773.27
568.34	46831.78
568.50	46747.52
568.66	46822.42
568.83	46794.33
568.99	46429.21
569.15	47047.11
569.32	46733.48
569.48	46824.76
569.64	46916.04
569.81	46408.14
569.97	46703.05
570.13	46775.61
570.30	46691.35
570.46	46508.79
570.62	46674.96
570.78	46784.97
570.95	46663.26
571.11	46997.96
571.27	47049.45
571.43	47082.22
571.60	47070.51
571.76	46799.01
571.92	46791.99
572.09	46761.56
572.25	46794.33
572.41	47009.66
572.57	47063.49
572.74	47248.39
572.90	47084.56
573.06	47042.43
573.22	46983.91
573.38	46768.58
573.55	46848.16
573.71	46866.89
573.87	47171.16
574.03	47173.50
574.20	47072.85
574.36	47077.54
574.52	46621.13
574.68	47143.07
574.84	46843.48
575.01	46834.12
575.17	46843.48
575.33	46562.62
575.49	46548.57
575.65	47103.28
575.82	47185.20
575.98	46677.30
576.14	47334.99
576.30	47222.65
576.46	47147.75
576.62	46878.59
576.79	47103.28
576.95	46822.42
577.11	47124.35
577.27	46955.83
577.43	47524.58
577.59	46885.61
577.75	46738.16
577.92	46349.63
578.08	46312.18
578.24	46564.96
578.40	46770.93
578.56	46831.78
578.72	46946.47
578.88	46946.47
579.04	46965.19
579.21	47232.01
579.37	47107.96
579.53	47309.25
579.69	46824.76
579.85	46834.12
580.01	47082.22
580.17	46969.87
580.33	46625.81
580.49	46986.25
580.65	46906.68
580.82	47428.62
580.98	47159.45
581.14	46848.16
581.30	47538.62
581.46	46909.02
581.62	47611.18
581.78	47145.41
581.94	47452.02
582.10	47030.72
582.26	47400.53
582.42	46976.89
582.58	46958.17
582.74	47049.45
582.90	47552.66
583.06	47100.94
583.22	47426.28
583.38	47463.72
583.54	47175.84
583.70	47175.84
583.86	47227.33
584.02	47192.22
584.18	47133.71
584.34	47021.36
584.50	47356.06
584.66	47129.03
584.82	46941.78
584.98	47669.69
585.14	47334.99
585.30	47089.24
585.46	46822.42
585.62	47241.37
585.78	46597.73
585.94	46766.24
586.10	47126.69
586.26	46710.07
586.42	47498.83
586.58	47164.14
586.74	46810.71
586.90	47110.30
587.06	47470.75
587.22	47175.84
587.38	47122.01
587.54	47522.24
587.70	47292.86
587.86	47608.84
588.02	47056.47
588.18	47187.54
588.34	46504.10
588.49	46120.26
588.65	46651.56
588.81	46574.32
588.97	46979.23
589.13	46405.80
589.29	46817.74
589.45	46597.73
589.61	47077.54
589.77	47002.64
589.93	47220.31
