SpectraSuite Data File
++++++++++++++++++++++++++++++++++++
Date: Fri Oct 25 10:47:24 EDT 2013
User: price-jones
Dark Spectrum Present: No
Reference Spectrum Present: No
Number of Sampled Component Spectra: 1
Spectrometers: USB2+H05261
Integration Time (usec): 100000 (USB2+H05261)
Spectra Averaged: 1 (USB2+H05261)
Boxcar Smoothing: 0 (USB2+H05261)
Correct for Electrical Dark: No (USB2+H05261)
Strobe/Lamp Enabled: No (USB2+H05261)
Correct for Detector Non-linearity: No (USB2+H05261)
Correct for Stray Light: No (USB2+H05261)
Number of Pixels in Processed Spectrum: 2048
>>>>>Begin Processed Spectral Data<<<<<
365.73	131.07
365.92	131.07
366.12	131.07
366.32	25.75
366.52	0.00
366.72	105.32
366.91	84.26
367.11	0.00
367.31	28.09
367.51	11.70
367.70	74.90
367.90	30.43
368.10	0.00
368.30	51.49
368.49	44.47
368.69	98.30
368.89	77.24
369.09	9.36
369.28	53.83
369.48	65.54
369.68	170.86
369.87	93.62
370.07	100.64
370.27	152.13
370.47	205.97
370.66	322.99
370.86	472.79
371.06	451.72
371.25	437.68
371.45	374.49
371.65	407.25
371.84	458.74
372.04	430.66
372.24	505.56
372.44	552.37
372.63	526.62
372.83	472.79
373.03	561.73
373.22	505.56
373.42	531.30
373.62	507.90
373.81	512.58
374.01	545.34
374.21	507.90
374.40	477.47
374.60	575.77
374.79	510.24
374.99	561.73
375.19	587.47
375.38	564.07
375.58	643.65
375.78	526.62
375.97	526.62
376.17	603.86
376.37	552.37
376.56	528.96
376.76	543.00
376.95	650.67
377.15	578.11
377.35	596.84
377.54	704.50
377.74	655.35
377.93	575.77
378.13	650.67
378.33	594.50
378.52	608.54
378.72	645.99
378.91	622.58
379.11	634.29
379.31	676.41
379.50	615.56
379.70	676.41
379.89	667.05
380.09	662.37
380.28	704.50
380.48	678.76
380.68	641.31
380.87	660.03
381.07	683.44
381.26	627.26
381.46	566.41
381.65	760.67
381.85	678.76
382.04	547.69
382.24	741.95
382.43	697.48
382.63	653.01
382.83	697.48
383.02	711.52
383.22	704.50
383.41	720.88
383.61	704.50
383.80	704.50
384.00	685.78
384.19	741.95
384.39	732.59
384.58	746.63
384.78	688.12
384.97	748.97
385.17	798.12
385.36	746.63
385.56	739.61
385.75	753.65
385.95	828.55
386.14	795.78
386.34	802.80
386.53	767.70
386.72	779.40
386.92	751.31
387.11	854.30
387.31	781.74
387.50	739.61
387.70	793.44
387.89	833.23
388.09	875.36
388.28	812.17
388.48	718.54
388.67	849.61
388.86	842.59
389.06	835.57
389.25	957.28
389.45	903.45
389.64	861.32
389.84	945.58
390.03	905.79
390.22	887.06
390.42	1001.75
390.61	905.79
390.81	987.71
391.00	1025.15
391.19	1076.65
391.39	933.87
391.58	983.02
391.78	980.68
391.97	973.66
392.16	1018.13
392.36	1004.09
392.55	931.53
392.75	938.55
392.94	915.15
393.13	983.02
393.33	971.32
393.52	999.41
393.71	1027.50
393.91	945.58
394.10	997.07
394.29	1081.33
394.49	1093.03
394.68	1071.97
394.88	1116.44
395.07	1132.82
395.26	1060.26
395.46	1062.60
395.65	1188.99
395.84	1121.12
396.04	1125.80
396.23	1184.31
396.42	1172.61
396.62	1193.67
396.81	1219.42
397.00	1170.27
397.19	1231.12
397.39	1170.27
397.58	1275.59
397.77	1308.36
397.97	1282.61
398.16	1291.98
398.35	1301.34
398.55	1240.48
398.74	1327.08
398.93	1355.17
399.12	1336.45
399.32	1310.70
399.51	1287.29
399.70	1472.20
399.90	1334.11
400.09	1495.60
400.28	1502.62
400.47	1399.64
400.67	1488.58
400.86	1481.56
401.05	1460.49
401.24	1507.30
401.44	1542.41
401.63	1465.18
401.82	1526.03
402.01	1561.14
402.21	1561.14
402.40	1514.33
402.59	1537.73
402.78	1526.03
402.97	1535.39
403.17	1544.75
403.36	1558.80
403.55	1638.38
403.74	1614.97
403.93	1727.32
404.13	1701.57
404.32	1703.91
404.51	1692.21
404.70	1811.57
404.89	1708.59
405.09	1659.44
405.28	1755.40
405.47	1811.57
405.66	1846.68
405.85	1767.10
406.05	1806.89
406.24	1713.27
406.43	1839.66
406.62	1804.55
406.81	1902.86
407.00	1823.28
407.20	1846.68
407.39	1842.00
407.58	1891.15
407.77	1905.20
407.96	2029.24
408.15	1989.46
408.34	1959.03
408.54	2010.52
408.73	1952.01
408.92	2015.20
409.11	2083.08
409.30	1998.82
409.49	2019.88
409.68	2022.22
409.87	2015.20
410.07	2043.29
410.26	2258.62
410.45	2181.38
410.64	2139.25
410.83	2129.89
411.02	2235.21
411.21	2310.11
411.40	2284.36
411.59	2476.29
411.78	2352.24
411.98	2298.41
412.17	2368.62
412.36	2300.75
412.55	2406.07
412.74	2427.14
412.93	2387.35
413.12	2487.99
413.31	2509.05
413.50	2600.34
413.69	2455.22
413.88	2600.34
414.07	2436.50
414.26	2544.16
414.45	2684.59
414.64	2686.94
414.83	2839.07
415.02	2635.44
415.22	2899.92
415.41	2745.45
415.60	2775.88
415.79	2878.86
415.98	2888.22
416.17	2860.13
416.36	2839.07
416.55	2888.22
416.74	2906.95
416.93	2974.82
417.12	2984.18
417.31	3005.25
417.50	2998.23
417.69	3033.33
417.88	3169.09
418.07	3070.78
418.26	2970.14
418.45	3136.32
418.64	3251.00
418.83	3173.77
419.02	3211.22
419.21	3124.62
419.39	3258.03
419.58	3192.49
419.77	3169.09
419.96	3318.88
420.15	3314.20
420.34	3311.86
420.53	3248.66
420.72	3405.48
420.91	3442.93
421.10	3389.10
421.29	3454.63
421.48	3332.92
421.67	3456.97
421.86	3265.05
422.05	3435.91
422.24	3379.73
422.43	3363.35
422.61	3531.87
422.80	3508.46
422.99	3616.13
423.18	3658.26
423.37	3602.08
423.56	3574.00
423.75	3412.50
423.94	3508.46
424.13	3426.54
424.32	3372.71
424.50	3538.89
424.69	3751.88
424.88	3604.42
425.07	3644.21
425.26	3496.76
425.45	3557.61
425.64	3620.81
425.83	3541.23
426.01	3613.79
426.20	3667.62
426.39	3531.87
426.58	3508.46
426.77	3482.72
426.96	3693.37
427.15	3667.62
427.33	3707.41
427.52	3674.64
427.71	3784.65
427.90	3866.56
428.09	3707.41
428.28	3728.47
428.46	3803.37
428.65	3875.93
428.84	3894.65
429.03	3974.23
429.22	3847.84
429.40	3772.94
429.59	3740.18
429.78	3782.31
429.97	3611.45
430.16	3794.01
430.34	3861.88
430.53	3819.75
430.72	3878.27
430.91	3992.95
431.10	3861.88
431.28	4098.28
431.47	4210.62
431.66	4163.81
431.85	4112.32
432.03	4191.90
432.22	4198.92
432.41	4145.09
432.60	4196.58
432.79	4280.84
432.97	4252.75
433.16	4306.59
433.35	4285.52
433.54	4311.27
433.72	4315.95
433.91	4250.41
434.10	4421.27
434.28	4444.68
434.47	4414.25
434.66	4491.49
434.85	4547.66
435.03	4498.51
435.22	4514.89
435.41	4585.11
435.59	4592.13
435.78	4505.53
435.97	4617.88
436.16	4587.45
436.34	4528.94
436.53	4554.68
436.72	4800.44
436.90	4594.47
437.09	4624.90
437.28	4554.68
437.46	4873.00
437.65	4753.63
437.84	4823.84
438.02	4704.48
438.21	4833.21
438.40	4681.07
438.58	4936.19
438.77	4887.04
438.96	4865.97
439.14	5123.43
439.33	5006.41
439.52	5128.11
439.70	5067.26
439.89	5294.29
440.08	5200.67
440.26	5198.33
440.45	5167.90
440.63	5284.93
440.82	5509.62
441.01	5462.81
441.19	5280.25
441.38	5481.53
441.57	5600.90
441.75	5668.78
441.94	5593.88
442.12	5694.52
442.31	5614.95
442.50	5701.54
442.68	5816.23
442.87	5830.27
443.05	5755.38
443.24	5825.59
443.43	5746.02
443.61	5753.04
443.80	5987.09
443.98	5767.08
444.17	5542.39
444.35	5741.33
444.54	6122.84
444.73	5823.25
444.91	5909.85
445.10	5921.56
445.28	5839.64
445.47	5914.53
445.65	5830.27
445.84	5905.17
446.02	6061.99
446.21	5984.75
446.39	5959.00
446.58	6071.35
446.77	6073.69
446.95	5933.26
447.14	5877.09
447.32	5898.15
447.51	5898.15
447.69	5905.17
447.88	6115.82
448.06	5961.34
448.25	6012.84
448.43	6005.81
448.62	5907.51
448.80	6136.88
448.99	5991.77
449.17	6132.20
449.36	5973.05
449.54	6197.74
449.73	6377.96
449.91	6317.11
450.10	6312.42
450.28	6511.37
450.46	6408.39
450.65	6450.52
450.83	6424.77
451.02	6410.73
451.20	6518.39
451.39	6459.88
451.57	6410.73
451.76	6509.03
451.94	6487.96
452.13	6558.18
452.31	6492.65
452.49	6677.55
452.68	6551.16
452.86	6614.35
453.05	6642.44
453.23	6647.12
453.42	6443.49
453.60	6607.33
453.78	6796.92
453.97	6644.78
454.15	6846.07
454.34	6457.54
454.52	6815.64
454.70	6754.79
454.89	6883.52
455.07	6815.64
455.26	6841.39
455.44	6904.58
455.62	7077.78
455.81	7049.69
455.99	7215.87
456.17	6853.09
456.36	7229.91
456.54	7222.89
456.73	7169.06
456.91	7431.20
457.09	7246.30
457.28	7468.65
457.46	7283.75
457.64	7337.58
457.83	7295.45
458.01	7478.01
458.19	7534.18
458.38	7311.83
458.56	7620.78
458.74	7496.74
458.93	7531.84
459.11	7377.37
459.29	7592.70
459.48	7414.82
459.66	7590.36
459.84	7592.70
460.03	7840.79
460.21	7843.14
460.39	7665.25
460.57	7723.77
460.76	7730.79
460.94	7801.01
461.12	7709.72
461.31	7824.41
461.49	7822.07
461.67	7854.84
461.85	8126.34
462.04	7801.01
462.22	8524.23
462.40	8145.06
462.59	8035.06
462.77	8053.78
462.95	8191.88
463.13	8063.15
463.32	8147.40
463.50	8119.32
463.68	8238.69
463.86	8273.79
464.05	8259.75
464.23	8177.83
464.41	8292.52
464.59	7992.93
464.78	8194.22
464.96	8489.12
465.14	8222.30
465.32	8311.24
465.50	8542.96
465.69	8344.01
465.87	8355.71
466.05	8360.39
466.23	8126.34
466.41	8386.14
466.60	8402.52
466.78	8278.47
466.96	8578.06
467.14	8465.72
467.32	8606.15
467.51	8833.18
467.69	8496.14
467.87	8578.06
468.05	8772.33
468.23	8650.62
468.41	8610.83
468.60	8676.37
468.78	8716.16
468.96	8596.79
469.14	8711.47
469.32	8903.40
469.50	8767.65
469.69	8875.31
469.87	8877.65
470.05	8971.27
470.23	9039.15
470.41	8901.06
470.59	8999.36
470.77	8872.97
470.95	9191.28
471.14	9202.99
471.32	9158.52
471.50	9268.52
471.68	9378.53
471.86	9448.74
472.04	9376.19
472.22	9453.42
472.40	9289.59
472.58	9437.04
472.77	9486.19
472.95	9469.81
473.13	10066.64
473.31	9357.46
473.49	9753.01
473.67	9708.54
473.85	9841.95
474.03	9987.07
474.21	9998.77
474.39	10003.45
474.57	9905.15
474.75	10284.31
474.93	10157.92
475.12	10272.61
475.30	10399.00
475.48	10265.59
475.66	10590.92
475.84	10375.59
476.02	10345.17
476.20	10286.65
476.38	10768.80
476.56	11070.73
476.74	10960.73
476.92	10712.63
477.10	10743.06
477.28	11026.26
477.46	11365.64
477.64	11033.29
477.82	11330.53
478.00	11690.98
478.18	11239.25
478.36	11384.37
478.54	11489.69
478.72	11707.36
478.90	11889.92
479.08	11892.26
479.26	12119.29
479.44	12060.78
479.62	12210.57
479.80	12063.12
479.98	12236.32
480.16	12643.57
480.34	12287.81
480.52	12491.44
480.70	12769.96
480.88	12404.84
481.06	12599.10
481.24	12837.84
481.41	13069.55
481.59	13263.82
481.77	13214.66
481.95	13114.02
482.13	13408.93
482.31	13252.11
482.49	13558.72
482.67	13542.34
482.85	13795.12
483.03	13860.65
483.21	14155.56
483.39	14043.21
483.57	14064.28
483.74	14352.16
483.92	14272.59
484.10	14251.52
484.28	14700.90
484.46	14698.56
484.64	15159.65
484.82	14555.79
485.00	14991.13
485.18	14869.42
485.35	15075.39
485.53	14979.43
485.71	15269.66
485.89	15300.08
486.07	15077.73
486.25	15417.11
486.43	15681.59
486.61	15810.32
486.78	15934.37
486.96	16313.53
487.14	16353.32
487.32	16432.90
487.50	16744.19
487.68	16718.45
487.85	16659.93
488.03	17092.93
488.21	17310.60
488.39	17081.23
488.57	17088.25
488.75	17324.65
488.92	17701.47
489.10	18017.44
489.28	17703.81
489.46	18209.37
489.64	18155.54
489.81	18473.85
489.99	18424.70
490.17	18686.84
490.35	18654.07
490.53	18731.31
490.70	18693.86
490.88	19012.17
491.06	19264.95
491.24	19335.17
491.41	19290.70
491.59	19049.62
491.77	18998.13
491.95	19501.34
492.13	19880.51
492.30	20128.61
492.48	19950.73
492.66	19882.85
492.84	20290.10
493.01	20390.75
493.19	20266.70
493.37	20592.03
493.54	20723.10
493.72	20741.83
493.90	20798.00
494.08	21294.19
494.25	21350.37
494.43	21221.64
494.61	21591.44
494.79	21661.66
494.96	21453.35
495.14	21603.14
495.32	21909.75
495.49	22036.14
495.67	22380.20
495.85	22361.48
496.02	22492.55
496.20	22391.91
496.38	22656.39
496.55	22735.96
496.73	23269.61
496.91	22841.29
497.09	23241.52
497.26	23065.98
497.44	23136.20
497.62	22932.57
497.79	23632.39
497.97	23033.21
498.14	23730.69
498.32	23552.81
498.50	23777.50
498.67	24123.90
498.85	23936.66
499.03	24077.09
499.20	24336.89
499.38	24694.99
499.56	24531.15
499.73	24727.76
499.91	24615.41
500.08	24978.20
500.26	24758.19
500.44	24617.75
500.61	25125.65
500.79	24816.70
500.97	25439.28
501.14	25348.00
501.32	25130.33
501.49	25572.69
501.67	25394.81
501.84	25446.30
502.02	25659.29
502.20	25521.20
502.37	25947.18
502.55	25649.93
502.72	25907.39
502.90	25989.31
503.07	26181.23
503.25	25963.56
503.43	26038.46
503.60	26174.21
503.78	26487.84
503.95	26539.33
504.13	26522.95
504.30	26953.61
504.48	26555.72
504.65	26761.69
504.83	27201.71
505.01	27197.02
505.18	26836.58
505.36	27679.18
505.53	27267.24
505.71	27742.37
505.88	27641.73
506.06	27725.99
506.23	27578.53
506.41	27330.44
506.58	27316.39
506.76	27894.50
506.93	27735.35
507.11	27850.03
507.28	28079.41
507.46	28102.81
507.63	27950.68
507.81	28414.10
507.98	28383.68
508.16	28198.77
508.33	28673.90
508.50	28676.24
508.68	28659.86
508.85	28961.79
509.03	28952.43
509.20	28699.65
509.38	29558.63
509.55	29106.90
509.73	29481.39
509.90	29233.29
510.08	29263.72
510.25	29516.50
510.42	29296.49
510.60	29598.41
510.77	29750.55
510.95	30277.17
511.12	29886.30
511.30	29839.49
511.47	30089.93
511.64	30089.93
511.82	30529.95
511.99	30066.52
512.17	30316.96
512.34	29961.20
512.51	30422.28
512.69	30920.82
512.86	30494.84
513.04	30576.76
513.21	30759.32
513.38	31051.89
513.56	30607.19
513.73	30735.92
513.90	30988.69
514.08	30883.37
514.25	31089.34
514.43	31189.98
514.60	31447.44
514.77	31164.23
514.95	31648.72
515.12	31517.65
515.29	31613.62
515.47	31536.38
515.64	31545.74
515.81	31910.86
515.99	31534.04
516.16	31885.12
516.33	31885.12
516.51	32123.85
516.68	31847.67
516.85	31885.12
517.03	32030.23
517.20	32315.78
517.37	32030.23
517.54	32210.45
517.72	32645.79
517.89	32491.32
518.06	32491.32
518.24	32051.30
518.41	32524.08
518.58	32353.23
518.75	32547.49
518.93	32795.59
519.10	33158.37
519.27	33146.67
519.45	33277.74
519.62	33481.36
519.79	33413.49
519.96	33425.19
520.14	33708.40
520.31	33378.38
520.48	33436.89
520.65	33392.42
520.83	33935.43
521.00	33792.65
521.17	33596.05
521.34	33546.90
521.52	33963.51
521.69	34192.89
521.86	34218.63
522.03	34499.50
522.20	33907.34
522.38	34443.32
522.55	34668.02
522.72	34043.09
522.89	34183.52
523.07	34824.83
523.24	34440.98
523.41	34707.80
523.58	34574.39
523.75	35290.60
523.92	34918.45
524.10	34836.53
524.27	35274.21
524.44	35576.14
524.61	35409.96
524.78	35152.51
524.96	35412.31
525.13	35924.88
525.30	35606.57
525.47	35901.48
525.64	35529.33
525.81	35859.35
525.98	35498.91
526.16	35620.61
526.33	35199.32
526.50	35700.19
526.67	35372.52
526.84	35491.88
527.01	35503.59
527.18	35969.35
527.36	36149.57
527.53	36123.83
527.70	36463.21
527.87	36701.94
528.04	36423.42
528.21	36411.71
528.38	36367.24
528.55	36573.21
528.72	36570.87
528.89	36793.22
529.07	36772.16
529.24	36652.79
529.41	36875.14
529.58	36615.34
529.75	37038.98
529.92	36816.63
530.09	36783.86
530.26	37577.30
530.43	37413.46
530.60	36935.99
530.77	36879.82
530.94	37411.12
531.11	37567.94
531.28	37607.73
531.46	37624.11
531.63	37778.59
531.80	37722.41
531.97	37104.51
532.14	37764.54
532.31	37266.01
532.48	37729.44
532.65	37876.89
532.82	37631.13
532.99	38244.35
533.16	37762.20
533.33	38139.03
533.50	38043.07
533.67	38171.80
533.84	37787.95
534.01	38183.50
534.18	38134.35
534.35	38389.47
534.52	38312.23
534.69	38375.42
534.86	38490.11
535.03	38249.03
535.20	38705.44
535.37	38813.10
535.54	39098.65
535.71	38686.71
535.88	38724.16
536.05	38307.55
536.22	38834.17
536.38	38988.64
536.55	39061.20
536.72	39138.44
536.89	38415.21
537.06	39005.03
537.23	39297.59
537.40	39253.12
537.57	38899.70
537.74	39175.89
537.91	39278.87
538.08	39299.94
538.25	39040.14
538.42	39070.56
538.59	39426.32
538.75	39140.78
538.92	39353.77
539.09	39676.76
539.26	39299.94
539.43	39447.39
539.60	39423.98
539.77	39206.31
539.94	39330.36
540.11	39683.78
540.28	39445.05
540.44	39864.00
540.61	39470.79
540.78	40016.14
540.95	39519.95
541.12	39583.14
541.29	39494.20
541.46	40041.88
541.62	39974.01
541.79	40531.06
541.96	39819.53
542.13	39981.03
542.30	40488.93
542.47	40149.55
542.63	40044.23
542.80	39728.25
542.97	40610.64
543.14	40758.09
543.31	40547.44
543.48	40460.84
543.64	41118.53
543.81	40676.17
543.98	40809.58
544.15	40680.85
544.32	41336.20
544.48	41181.73
544.65	41055.34
544.82	40973.42
544.99	40994.48
545.16	40421.05
545.32	40753.41
545.49	41600.68
545.66	41364.29
545.83	41415.78
546.00	41387.69
546.16	41153.64
546.33	41654.51
546.50	41289.39
546.67	41120.87
546.83	41111.51
547.00	41177.04
547.17	41301.09
547.34	41212.15
547.50	41593.66
547.67	41998.57
547.84	41581.96
548.00	41647.49
548.17	42368.38
548.34	41621.75
548.51	41853.46
548.67	41851.12
548.84	42373.06
549.01	41666.22
549.18	41837.08
549.34	42113.26
549.51	42361.36
549.68	41977.51
549.84	42192.84
550.01	42344.97
550.18	41944.74
550.34	42251.35
550.51	42438.59
550.68	42323.91
550.84	41603.02
551.01	42274.76
551.18	41930.70
551.34	42183.48
551.51	42141.35
551.68	42260.71
551.84	42450.30
552.01	42543.92
552.18	42036.02
552.34	42513.49
552.51	43028.41
552.68	42192.84
552.84	42902.02
553.01	42824.78
553.18	42855.21
553.34	42438.59
553.51	42440.93
553.67	42593.07
553.84	42815.42
554.01	43140.75
554.17	42974.58
554.34	43447.36
554.51	42733.50
554.67	43391.19
554.84	42862.23
555.00	42829.46
555.17	42852.87
555.33	43480.13
555.50	43192.25
555.67	42953.51
555.83	43452.05
556.00	42780.31
556.16	43557.37
556.33	43519.92
556.50	43206.29
556.66	43271.82
556.83	43367.79
556.99	43248.42
557.16	43683.76
557.32	43182.88
557.49	43335.02
557.65	42876.27
557.82	42939.47
557.98	43133.73
558.15	43295.23
558.32	43641.63
558.48	43824.19
558.65	43395.87
558.81	43480.13
558.98	43290.55
559.14	43969.30
559.31	43459.07
559.47	43161.82
559.64	44072.29
559.80	43959.94
559.97	43878.02
560.13	43285.87
560.30	43976.33
560.46	43887.39
560.63	43690.78
560.79	43885.04
560.96	44208.04
561.12	43590.14
561.29	43765.68
561.45	43648.65
561.61	43482.47
561.78	44278.25
561.94	43777.38
562.11	43807.81
562.27	43906.11
562.44	43922.49
562.60	44524.01
562.77	44133.14
562.93	44086.33
563.10	44098.03
563.26	43866.32
563.42	43920.15
563.59	43761.00
563.75	43924.83
563.92	44100.37
564.08	43964.62
564.24	44828.28
564.41	43866.32
564.57	44093.35
564.74	43950.58
564.90	44308.68
565.07	44006.75
565.23	44205.70
565.39	43847.60
565.56	44535.71
565.72	43976.33
565.88	44587.21
566.05	44222.08
566.21	44313.36
566.38	43800.79
566.54	44318.04
566.70	44629.34
566.87	44619.97
567.03	44121.44
567.19	45095.10
567.36	44718.28
567.52	44067.61
567.68	44566.14
567.85	43868.66
568.01	44332.09
568.17	44105.06
568.34	44737.00
568.50	44554.44
568.66	44376.56
568.83	44549.76
568.99	44226.76
569.15	44245.49
569.32	44439.75
569.48	44215.06
569.64	44332.09
569.81	44184.63
569.97	44348.47
570.13	44247.83
570.30	43880.36
570.46	44215.06
570.62	44533.37
570.78	44313.36
570.95	44304.00
571.11	44811.90
571.27	44563.80
571.43	44538.05
571.60	45118.51
571.76	44205.70
571.92	43981.01
572.09	44439.75
572.25	44072.29
572.41	44547.42
572.57	44931.26
572.74	45312.77
572.90	45036.59
573.06	44364.85
573.22	44669.12
573.38	44341.45
573.55	44514.65
573.71	44835.30
573.87	44481.88
574.03	44678.49
574.20	44720.62
574.36	44470.18
574.52	44832.96
574.68	44825.94
574.84	44594.23
575.01	44889.13
575.17	44865.73
575.33	44942.97
575.49	44362.51
575.65	45350.22
575.82	44528.69
575.98	45153.62
576.14	45151.27
576.30	44734.66
576.46	44949.99
576.62	44474.86
576.79	44718.28
576.95	44371.88
577.11	44516.99
577.27	44561.46
577.43	44484.22
577.59	44832.96
577.75	44538.05
577.92	44212.72
578.08	44601.25
578.24	44643.38
578.40	44793.17
578.56	44652.74
578.72	44821.26
578.88	44725.30
579.04	44804.88
579.21	44664.44
579.37	44713.59
579.53	44652.74
579.69	44987.44
579.85	44477.20
580.01	44615.29
580.17	44687.85
580.33	45263.62
580.49	45158.30
580.65	44804.88
580.82	44776.79
580.98	44882.11
581.14	44617.63
581.30	45380.65
581.46	44779.13
581.62	45029.57
581.78	45436.82
581.94	45478.95
582.10	44823.60
582.26	45123.19
582.42	45251.92
582.58	44968.71
582.74	44872.75
582.90	44671.46
583.06	44959.35
583.22	45036.59
583.38	45240.21
583.54	44910.20
583.70	44966.37
583.86	44786.15
584.02	44505.29
584.18	45258.94
584.34	45177.02
584.50	45097.44
584.66	44676.15
584.82	44690.19
584.98	45031.91
585.14	44573.16
585.30	44861.05
585.46	44914.88
585.62	44720.62
585.78	45069.36
585.94	44402.30
586.10	44711.25
586.26	44802.53
586.42	44804.88
586.58	45284.68
586.74	44697.21
586.90	44617.63
587.06	44800.19
587.22	44636.36
587.38	44519.33
587.54	45024.89
587.70	45095.10
587.86	45064.67
588.02	45263.62
588.18	44879.77
588.34	44549.76
588.49	44783.81
588.65	44580.18
588.81	44722.96
588.97	44449.11
589.13	44533.37
589.29	44720.62
589.45	45249.58
589.61	44776.79
589.77	45027.23
589.93	45106.80
590.08	45399.37
590.24	45235.53
