SpectraSuite Data File
++++++++++++++++++++++++++++++++++++
Date: Fri Oct 25 10:43:21 EDT 2013
User: price-jones
Dark Spectrum Present: No
Reference Spectrum Present: No
Number of Sampled Component Spectra: 1
Spectrometers: USB2+H05261
Integration Time (usec): 100000 (USB2+H05261)
Spectra Averaged: 1 (USB2+H05261)
Boxcar Smoothing: 0 (USB2+H05261)
Correct for Electrical Dark: No (USB2+H05261)
Strobe/Lamp Enabled: No (USB2+H05261)
Correct for Detector Non-linearity: No (USB2+H05261)
Correct for Stray Light: No (USB2+H05261)
Number of Pixels in Processed Spectrum: 2048
>>>>>Begin Processed Spectral Data<<<<<
365.73	126.39
365.92	126.39
366.12	126.39
366.32	39.79
366.52	4.68
366.72	35.11
366.91	37.45
367.11	35.11
367.31	21.06
367.51	0.00
367.70	74.90
367.90	60.85
368.10	81.92
368.30	95.96
368.49	4.68
368.69	35.11
368.89	0.00
369.09	60.85
369.28	74.90
369.48	56.17
369.68	107.66
369.87	35.11
370.07	60.85
370.27	102.98
370.47	184.90
370.66	273.84
370.86	390.87
371.06	489.17
371.25	482.15
371.45	465.77
371.65	447.04
371.84	472.79
372.04	442.36
372.24	512.58
372.44	550.03
372.63	528.96
372.83	528.96
373.03	428.32
373.22	543.00
373.42	484.49
373.62	514.92
373.81	484.49
374.01	585.13
374.21	615.56
374.40	599.18
374.60	582.79
374.79	531.30
374.99	585.13
375.19	596.84
375.38	617.90
375.58	458.74
375.78	667.05
375.97	568.75
376.17	636.63
376.37	580.45
376.56	620.24
376.76	589.82
376.95	697.48
377.15	674.07
377.35	608.54
377.54	720.88
377.74	636.63
377.93	695.14
378.13	683.44
378.33	727.91
378.52	695.14
378.72	667.05
378.91	613.22
379.11	610.88
379.31	655.35
379.50	655.35
379.70	732.59
379.89	770.04
380.09	685.78
380.28	627.26
380.48	655.35
380.68	645.99
380.87	751.31
381.07	685.78
381.26	786.42
381.46	685.78
381.65	678.76
381.85	716.20
382.04	702.16
382.24	662.37
382.43	631.94
382.63	660.03
382.83	671.73
383.02	720.88
383.22	744.29
383.41	732.59
383.61	725.57
383.80	793.44
384.00	777.06
384.19	809.83
384.39	767.70
384.58	739.61
384.78	809.83
384.97	807.48
385.17	870.68
385.36	826.21
385.56	739.61
385.75	812.17
385.95	854.30
386.14	823.87
386.34	802.80
386.53	887.06
386.72	821.53
386.92	805.14
387.11	821.53
387.31	844.93
387.50	800.46
387.70	847.27
387.89	875.36
388.09	910.47
388.28	854.30
388.48	889.40
388.67	912.81
388.86	968.98
389.06	959.62
389.25	1018.13
389.45	1064.94
389.64	990.05
389.84	1001.75
390.03	994.73
390.22	1025.15
390.42	1027.50
390.61	959.62
390.81	966.64
391.00	990.05
391.19	1074.31
391.39	1034.52
391.58	936.21
391.78	1081.33
391.97	1001.75
392.16	1034.52
392.36	1025.15
392.55	1057.92
392.75	1053.24
392.94	1039.20
393.13	964.30
393.33	997.07
393.52	1095.37
393.71	1067.28
393.91	1097.71
394.10	1081.33
394.29	1078.99
394.49	1191.33
394.68	1233.46
394.88	1263.89
395.07	1226.44
395.26	1242.82
395.46	1224.10
395.65	1179.63
395.84	1226.44
396.04	1315.38
396.23	1132.82
396.42	1142.18
396.62	1268.57
396.81	1217.08
397.00	1306.02
397.19	1247.51
397.39	1336.45
397.58	1376.24
397.77	1338.79
397.97	1387.94
398.16	1399.64
398.35	1514.33
398.55	1453.47
398.74	1486.24
398.93	1540.07
399.12	1406.66
399.32	1451.13
399.51	1582.20
399.70	1554.12
399.90	1633.69
400.09	1593.90
400.28	1568.16
400.47	1621.99
400.67	1713.27
400.86	1675.82
401.05	1584.54
401.24	1687.53
401.44	1652.42
401.63	1739.02
401.82	1703.91
402.01	1750.72
402.21	1748.38
402.40	1776.47
402.59	1703.91
402.78	1678.16
402.97	1694.55
403.17	1820.94
403.36	1820.94
403.55	1909.88
403.74	1874.77
403.93	1825.62
404.13	1888.81
404.32	1912.22
404.51	1827.96
404.70	2003.50
404.89	1905.20
405.09	1987.11
405.28	1973.07
405.47	1982.43
405.66	1907.54
405.85	1898.17
406.05	1874.77
406.24	2003.50
406.43	2008.18
406.62	2150.95
406.81	2153.29
407.00	2064.35
407.20	2104.14
407.39	2090.10
407.58	2153.29
407.77	2176.70
407.96	2125.21
408.15	2324.15
408.34	2132.23
408.54	2204.78
408.73	2223.51
408.92	2319.47
409.11	2326.49
409.30	2300.75
409.49	2296.07
409.68	2321.81
409.87	2157.97
410.07	2406.07
410.26	2377.98
410.45	2417.77
410.64	2406.07
410.83	2445.86
411.02	2499.69
411.21	2644.81
411.40	2509.05
411.59	2609.70
411.78	2635.44
411.98	2649.49
412.17	2597.99
412.36	2731.41
412.55	2799.28
412.74	2747.79
412.93	2778.22
413.12	2771.19
413.31	2909.29
413.50	2761.83
413.69	2829.71
413.88	2949.08
414.07	2916.31
414.26	3014.61
414.45	3000.57
414.64	3007.59
414.83	3014.61
415.02	3150.36
415.22	3068.44
415.41	3019.29
415.60	3159.72
415.79	3190.15
415.98	3185.47
416.17	3316.54
416.36	3150.36
416.55	3251.00
416.74	3227.60
416.93	3272.07
417.12	3197.17
417.31	3473.36
417.50	3389.10
417.69	3419.52
417.88	3513.14
418.07	3480.38
418.26	3480.38
418.45	3543.57
418.64	3485.06
418.83	3496.76
419.02	3520.17
419.21	3672.30
419.39	3590.38
419.58	3658.26
419.77	3595.06
419.96	3712.09
420.15	3562.30
420.34	3653.58
420.53	3721.45
420.72	3831.46
420.91	3765.92
421.10	3911.04
421.29	3899.33
421.48	3768.26
421.67	3904.01
421.86	3831.46
422.05	3812.73
422.24	3850.18
422.43	3784.65
422.61	3838.48
422.80	3960.19
422.99	3922.74
423.18	4037.42
423.37	3927.42
423.56	3777.62
423.75	3878.27
423.94	3857.20
424.13	3721.45
424.32	3831.46
424.50	3960.19
424.69	4030.40
424.88	4119.34
425.07	3892.31
425.26	3934.44
425.45	3838.48
425.64	4004.66
425.83	3941.46
426.01	4014.02
426.20	3948.48
426.39	4145.09
426.58	3992.95
426.77	3882.95
426.96	4021.04
427.15	3955.51
427.33	4135.73
427.52	4044.45
427.71	4056.15
427.90	4229.35
428.09	4222.33
428.28	4109.98
428.46	4105.30
428.65	4166.15
428.84	4383.82
429.03	4304.25
429.22	4182.54
429.40	4072.53
429.59	3988.27
429.78	3953.16
429.97	3953.16
430.16	4063.17
430.34	4135.73
430.53	4154.45
430.72	4154.45
430.91	4290.20
431.10	4250.41
431.28	4491.49
431.47	4662.35
431.66	4753.63
431.85	4463.40
432.03	4667.03
432.22	4704.48
432.41	4748.95
432.60	4542.98
432.79	4765.33
432.97	4894.06
433.16	4950.23
433.35	4702.14
433.54	4601.49
433.72	4610.86
433.91	4585.11
434.10	4849.59
434.28	4718.52
434.47	4762.99
434.66	4786.40
434.85	4961.94
435.03	4809.80
435.22	4975.98
435.41	5062.58
435.59	5057.90
435.78	4997.04
435.97	5118.75
436.16	5139.82
436.34	5076.62
436.53	5149.18
436.72	5231.10
436.90	4990.02
437.09	5212.37
437.28	5200.67
437.46	5245.14
437.65	5125.77
437.84	5174.92
438.02	5233.44
438.21	5032.15
438.40	5102.37
438.58	5275.57
438.77	5483.88
438.96	5303.65
439.14	5584.52
439.33	5575.16
439.52	5530.69
439.70	5678.14
439.89	5500.26
440.08	5856.02
440.26	5816.23
440.45	5666.44
440.63	6029.22
440.82	6012.84
441.01	5825.59
441.19	5804.53
441.38	6069.01
441.57	6204.76
441.75	6136.88
441.94	6171.99
442.12	6258.59
442.31	6300.72
442.50	6300.72
442.68	6417.75
442.87	6331.15
443.05	6246.89
443.24	6492.65
443.43	6560.52
443.61	6569.88
443.80	6541.80
443.98	6347.53
444.17	6193.06
444.35	6438.81
444.54	6612.01
444.73	6703.29
444.91	6647.12
445.10	6410.73
445.28	6438.81
445.47	6338.17
445.65	6403.71
445.84	6429.45
446.02	6715.00
446.21	6457.54
446.39	6642.44
446.58	6649.46
446.77	6675.21
446.95	6726.70
447.14	6743.08
447.32	6801.60
447.51	6724.36
447.69	6745.42
447.88	6794.58
448.06	6679.89
448.25	6700.95
448.43	6862.45
448.62	6724.36
448.80	6939.69
448.99	6810.96
449.17	6930.33
449.36	7042.67
449.54	7192.47
449.73	7063.74
449.91	7323.54
450.10	7129.27
450.28	7262.68
450.46	7250.98
450.65	7225.23
450.83	7403.11
451.02	7225.23
451.20	7192.47
451.39	7262.68
451.57	7094.16
451.76	7136.29
451.94	7325.88
452.13	7297.79
452.31	7204.17
452.49	7091.82
452.68	7192.47
452.86	7192.47
453.05	7272.04
453.23	7150.34
453.42	7119.91
453.60	7311.83
453.78	7463.97
453.97	7391.41
454.15	7389.07
454.34	7197.15
454.52	7534.18
454.70	7595.04
454.89	7576.31
455.07	7482.69
455.26	7571.63
455.44	7520.14
455.62	7674.62
455.81	7772.92
455.99	7819.73
456.17	7815.05
456.36	7850.16
456.54	7964.84
456.73	7836.11
456.91	8086.55
457.09	8180.17
457.28	8538.27
457.46	8191.88
457.64	8180.17
457.83	8084.21
458.01	7857.18
458.19	8255.07
458.38	8016.33
458.56	8269.11
458.74	8266.77
458.93	8170.81
459.11	8196.56
459.29	8332.31
459.48	8311.24
459.66	8154.43
459.84	8414.23
460.03	8435.29
460.21	8461.04
460.39	8615.51
460.57	8535.93
460.76	8561.68
460.94	8805.10
461.12	8704.45
461.31	8528.91
461.49	8638.92
461.67	8643.60
461.85	8812.12
462.04	8779.35
462.22	9214.69
462.40	9011.06
462.59	8802.75
462.77	8891.70
462.95	8961.91
463.13	9006.38
463.32	8894.04
463.50	8959.57
463.68	8915.10
463.86	8964.25
464.05	8863.61
464.23	8816.80
464.41	9114.05
464.59	9090.64
464.78	9287.25
464.96	9074.26
465.14	9008.72
465.32	9305.97
465.50	9231.07
465.69	9430.02
465.87	9294.27
466.05	9160.86
466.23	9163.20
466.41	9247.46
466.60	9305.97
466.78	9261.50
466.96	9341.08
467.14	9355.12
467.32	9210.01
467.51	9493.21
467.69	9207.67
467.87	9415.98
468.05	9366.82
468.23	9507.26
468.41	9390.23
468.60	9298.95
468.78	9680.46
468.96	9577.47
469.14	9666.41
469.32	9872.38
469.50	9497.89
469.69	10019.83
469.87	9830.25
470.05	9851.31
470.23	9605.56
470.41	9870.04
470.59	9937.91
470.77	9750.67
470.95	9933.23
471.14	10136.86
471.32	9771.74
471.50	10319.42
471.68	10120.48
471.86	10293.68
472.04	10209.42
472.22	10258.57
472.40	10202.40
472.58	10403.68
472.77	10338.15
472.95	10682.20
473.13	10878.81
473.31	10525.39
473.49	10719.65
473.67	10846.04
473.85	10740.72
474.03	11096.48
474.21	10967.75
474.39	11007.54
474.57	11173.72
474.75	11185.42
474.93	11316.49
475.12	11110.52
475.30	11068.39
475.48	11077.76
475.66	11403.09
475.84	11218.19
476.02	11503.73
476.20	11164.36
476.38	11609.06
476.56	12016.31
476.74	11655.87
476.92	11852.47
477.10	11927.37
477.28	12060.78
477.46	12189.51
477.64	12128.66
477.82	12547.61
478.00	12425.90
478.18	12552.29
478.36	12566.34
478.54	12606.13
478.72	12762.94
478.90	12931.46
479.08	13006.36
479.26	13165.51
479.44	13111.68
479.62	13130.41
479.80	13348.08
479.98	13516.59
480.16	13724.90
480.34	13448.72
480.52	13699.16
480.70	13951.93
480.88	13556.38
481.06	13731.92
481.24	13678.09
481.41	14125.13
481.59	14303.01
481.77	14492.60
481.95	14525.36
482.13	14574.52
482.31	14391.95
482.49	14916.23
482.67	14925.60
482.85	15040.28
483.03	15147.95
483.21	15428.81
483.39	15290.72
483.57	15169.01
483.74	15484.98
483.92	15630.10
484.10	15653.50
484.28	15749.46
484.46	15901.60
484.64	16435.24
484.82	16004.58
485.00	16255.02
485.18	16339.28
485.35	16470.35
485.53	16304.17
485.71	16163.74
485.89	16503.12
486.07	16533.54
486.25	16765.26
486.43	16732.49
486.61	16964.20
486.78	17247.41
486.96	17106.98
487.14	17422.95
487.32	17703.81
487.50	17991.70
487.68	18148.51
487.85	18405.97
488.03	18841.31
488.21	18394.27
488.39	18558.11
488.57	19009.83
488.75	18820.25
488.92	19133.88
489.10	19040.26
489.28	19012.17
489.46	19466.24
489.64	19735.40
489.81	19812.63
489.99	20407.13
490.17	20215.21
490.35	20126.27
490.53	20482.03
490.70	20470.33
490.88	20386.07
491.06	20908.01
491.24	20779.28
491.41	20657.57
491.59	20477.35
491.77	20751.19
491.95	21249.72
492.13	21366.75
492.30	21673.36
492.48	21666.34
492.66	22043.17
492.84	21825.50
493.01	21902.73
493.19	22216.36
493.37	22532.34
493.54	21942.52
493.72	22424.67
493.90	22487.87
494.08	23218.11
494.25	23131.51
494.43	23171.30
494.61	23381.95
494.79	23201.73
494.96	23391.31
495.14	23283.65
495.32	23793.89
495.49	23683.88
495.67	24142.63
495.85	23985.81
496.02	24208.16
496.20	24388.38
496.38	24177.73
496.55	24594.35
496.73	24755.85
496.91	24896.28
497.09	25013.31
497.26	24931.39
497.44	25046.07
497.62	25214.59
497.79	25743.55
497.97	25287.15
498.14	25352.68
498.32	25965.90
498.50	25727.17
498.67	25715.47
498.85	26111.02
499.03	26064.21
499.20	26087.61
499.38	26352.09
499.56	26239.75
499.73	26600.19
499.91	26263.15
500.08	26939.57
500.26	26658.70
500.44	26733.60
500.61	26651.68
500.79	26794.45
500.97	26874.03
501.14	27494.27
501.32	27101.06
501.49	26850.63
501.67	27182.98
501.84	27459.16
502.02	27468.53
502.20	27819.61
502.37	27775.14
502.55	27665.13
502.72	27845.35
502.90	27995.15
503.07	27978.76
503.25	28144.94
503.43	27833.65
503.60	28039.62
503.78	28215.16
503.95	28376.66
504.13	28327.50
504.30	28245.58
504.48	28786.25
504.65	28865.83
504.83	28725.39
505.01	28905.62
505.18	29214.57
505.36	29635.86
505.53	28966.47
505.71	29532.88
505.88	30122.69
506.06	29558.63
506.23	29713.10
506.41	29401.81
506.58	29806.72
506.76	29876.94
506.93	29900.34
507.11	29685.01
507.28	29764.59
507.46	29759.91
507.63	29851.19
507.81	30176.53
507.98	30068.86
508.16	30326.32
508.33	30244.40
508.50	30522.93
508.68	30946.56
508.85	31438.08
509.03	31005.08
509.20	31000.40
509.38	31250.83
509.55	31070.61
509.73	31325.73
509.90	31475.52
510.08	31566.81
510.25	31428.71
510.42	31213.38
510.60	31892.14
510.77	32151.94
510.95	31681.49
511.12	31978.74
511.30	31892.14
511.47	32484.30
511.64	32240.88
511.82	32353.23
511.99	32240.88
512.17	31995.12
512.34	32184.71
512.51	32584.94
512.69	32577.92
512.86	33039.00
513.04	32793.25
513.21	32875.16
513.38	32903.25
513.56	32638.77
513.73	33263.69
513.90	32882.19
514.08	32985.17
514.25	32938.36
514.43	33385.40
514.60	33228.59
514.77	33577.33
514.95	33420.51
515.12	33352.63
515.29	33476.68
515.47	34026.71
515.64	33806.70
515.81	34029.05
515.99	33886.28
516.16	33563.28
516.33	33432.21
516.51	33399.44
516.68	33202.84
516.85	33022.62
517.03	33336.25
517.20	34026.71
517.37	34080.54
517.54	34569.71
517.72	33722.44
517.89	33947.13
518.06	33860.53
518.24	33991.60
518.41	34307.57
518.58	33921.38
518.75	34920.79
518.93	35047.18
519.10	34756.96
519.27	34918.45
519.45	35070.59
519.62	35283.58
519.79	35192.30
519.96	35526.99
520.14	35470.82
520.31	35143.14
520.48	35526.99
520.65	35498.91
520.83	35491.88
521.00	35721.26
521.17	36079.36
521.34	35419.33
521.52	35976.37
521.69	36062.97
521.86	36348.52
522.03	36100.42
522.20	36149.57
522.38	36320.43
522.55	36517.04
522.72	36849.39
522.89	36254.90
523.07	36629.38
523.24	36400.01
523.41	36755.77
523.58	36807.26
523.75	36844.71
523.92	37113.87
524.10	36793.22
524.27	37130.26
524.44	36985.15
524.61	37415.80
524.78	37038.98
524.96	37507.08
525.13	37703.69
525.30	37347.93
525.47	37813.70
525.64	37769.22
525.81	37624.11
525.98	37581.98
526.16	37156.00
526.33	37319.84
526.50	37949.45
526.67	37053.02
526.84	37439.21
527.01	37497.72
527.18	37614.75
527.36	38295.85
527.53	38103.92
527.70	38806.08
527.87	38195.20
528.04	38155.41
528.21	38419.89
528.38	38738.21
528.55	38778.00
528.72	38536.92
528.89	38983.96
529.07	38808.42
529.24	38586.07
529.41	38553.30
529.58	38630.54
529.75	38302.87
529.92	38902.04
530.09	39367.81
530.26	39070.56
530.43	39461.43
530.60	38880.98
530.77	39608.89
530.94	39400.58
531.11	39260.15
531.28	39267.17
531.46	39189.93
531.63	38974.60
531.80	39325.68
531.97	39161.84
532.14	38976.94
532.31	38740.55
532.48	39400.58
532.65	39477.82
532.82	39419.30
532.99	39714.21
533.16	39662.72
533.33	39683.78
533.50	40652.76
533.67	40053.59
533.84	39835.92
534.01	39737.62
534.18	39810.17
534.35	40098.06
534.52	39983.37
534.69	40350.84
534.86	40456.16
535.03	40767.45
535.20	40357.86
535.37	40645.74
535.54	40966.40
535.71	40575.53
535.88	40818.94
536.05	40367.22
536.22	40683.19
536.38	40950.01
536.55	40896.18
536.72	40636.38
536.89	40624.68
537.06	40322.75
537.23	41062.36
537.40	41120.87
537.57	41041.29
537.74	40987.46
537.91	41659.20
538.08	41120.87
538.25	40914.90
538.42	41069.38
538.59	41645.15
538.75	40924.27
538.92	41254.28
539.09	41160.66
539.26	41167.68
539.43	41670.90
539.60	41373.65
539.77	41296.41
539.94	41258.96
540.11	41380.67
540.28	41254.28
540.44	41556.21
540.61	41174.70
540.78	41102.15
540.95	41596.00
541.12	41326.84
541.29	41614.72
541.46	41450.89
541.62	41385.35
541.79	42258.37
541.96	41223.86
542.13	42260.71
542.30	42082.83
542.47	41944.74
542.63	41415.78
542.80	41958.78
542.97	42183.48
543.14	42946.49
543.31	42534.56
543.48	42401.14
543.64	42555.62
543.81	42953.51
543.98	42696.05
544.15	42464.34
544.32	42883.30
544.48	43089.26
544.65	42735.84
544.82	42932.45
544.99	42600.09
545.16	43037.77
545.32	42927.77
545.49	43082.24
545.66	43061.18
545.83	43236.72
546.00	43206.29
546.16	42588.39
546.33	42703.07
546.50	42429.23
546.67	43255.44
546.83	42869.25
547.00	42801.38
547.17	42689.03
547.34	42511.15
547.50	43019.05
547.67	43377.15
547.84	43234.38
548.00	43709.50
548.17	43969.30
548.34	43555.03
548.51	43667.37
548.67	43709.50
548.84	43782.06
549.01	43540.99
549.18	43426.30
549.34	43543.33
549.51	43454.39
549.68	43559.71
549.84	43683.76
550.01	43988.03
550.18	43309.27
550.34	43641.63
550.51	43915.47
550.68	43835.89
550.84	43896.75
551.01	43840.57
551.18	44116.76
551.34	43981.01
551.51	44081.65
551.68	44341.45
551.84	43533.96
552.01	43782.06
552.18	43985.69
552.34	44112.08
552.51	43791.42
552.68	44397.62
552.84	44392.94
553.01	44762.75
553.18	44491.24
553.34	44362.51
553.51	44231.44
553.67	44533.37
553.84	44561.46
554.01	44690.19
554.17	45146.59
554.34	44507.63
554.51	44526.35
554.67	44516.99
554.84	44748.70
555.00	44439.75
555.17	44694.87
555.33	45076.38
555.50	44458.48
555.67	44477.20
555.83	44619.97
556.00	45059.99
556.16	44767.43
556.33	44783.81
556.50	44795.51
556.66	44388.26
556.83	44329.75
556.99	44311.02
557.16	44847.00
557.32	45221.49
557.49	45202.77
557.65	44615.29
557.82	44858.71
557.98	44868.07
558.15	45277.66
558.32	45439.16
558.48	44360.17
558.65	44772.11
558.81	44917.22
558.98	45130.21
559.14	44947.65
559.31	44662.10
559.47	45380.65
559.64	45006.16
559.80	44987.44
559.97	45359.58
560.13	44729.98
560.30	45420.44
560.46	44978.07
560.63	45324.47
560.79	45399.37
560.96	45441.50
561.12	45029.57
561.29	45130.21
561.45	45090.42
561.61	45373.63
561.78	44966.37
561.94	45106.80
562.11	45254.26
562.27	45528.10
562.44	45317.45
562.60	45441.50
562.77	45296.39
562.93	45188.72
563.10	45322.13
563.26	45336.18
563.42	45418.10
563.59	45078.72
563.75	45380.65
563.92	45581.93
564.08	45043.61
564.24	45610.02
564.41	45366.60
564.57	45427.46
564.74	45432.14
564.90	45249.58
565.07	45474.27
565.23	45265.96
565.39	45289.37
565.56	45673.21
565.72	45474.27
565.88	45474.27
566.05	45230.85
566.21	45411.07
566.38	45579.59
566.54	45551.51
566.70	45975.14
566.87	45872.16
567.03	46089.83
567.19	46265.37
567.36	45715.34
567.52	45160.64
567.68	45989.19
567.85	45518.74
568.01	45911.95
568.17	45265.96
568.34	45766.84
568.50	45591.30
568.66	45399.37
568.83	45645.13
568.99	45790.24
569.15	45469.59
569.32	45727.05
569.48	45275.32
569.64	46101.53
569.81	45715.34
569.97	45546.82
570.13	45551.51
570.30	45333.84
570.46	45801.94
570.62	45605.34
570.78	45514.06
570.95	45226.17
571.11	45776.20
571.27	45303.41
571.43	45544.48
571.60	45794.92
571.76	45563.21
571.92	45542.14
572.09	46021.95
572.25	46131.96
572.41	45717.68
572.57	46155.36
572.74	46293.46
572.90	45860.46
573.06	45713.00
573.22	45869.82
573.38	46000.89
573.55	45940.04
573.71	45949.40
573.87	46101.53
574.03	45855.78
574.20	45823.01
574.36	45429.80
574.52	45612.36
574.68	45605.34
574.84	46040.68
575.01	45724.71
575.17	46050.04
575.33	45380.65
575.49	45853.44
575.65	45553.85
575.82	46003.23
575.98	45900.25
576.14	45794.92
576.30	45771.52
576.46	45593.64
576.62	45741.09
576.79	45935.35
576.95	45890.88
577.11	45799.60
577.27	46045.36
577.43	45659.17
577.59	45745.77
577.75	45607.68
577.92	45567.89
578.08	45598.32
578.24	45406.39
578.40	45851.09
578.56	45858.12
578.72	45640.45
578.88	46124.94
579.04	46223.24
579.21	45722.37
579.37	45900.25
579.53	45748.11
579.69	45397.03
579.85	45565.55
580.01	45844.07
580.17	45591.30
580.33	45500.01
580.49	46033.66
580.65	45930.67
580.82	45947.06
580.98	46059.40
581.14	45448.52
581.30	45780.88
581.46	45855.78
581.62	46031.32
581.78	46143.66
581.94	46588.36
582.10	46251.33
582.26	46057.06
582.42	46124.94
582.58	46305.16
582.74	46000.89
582.90	46302.82
583.06	46373.03
583.22	45869.82
583.38	46340.27
583.54	45968.12
583.70	46014.93
583.86	45855.78
584.02	45492.99
584.18	46036.00
584.34	45811.31
584.50	46101.53
584.66	46108.55
584.82	45724.71
584.98	46094.51
585.14	46167.07
585.30	45687.26
585.46	45853.44
585.62	45832.37
585.78	45930.67
585.94	45439.16
586.10	45736.41
586.26	45528.10
586.42	46274.73
586.58	46267.71
586.74	45743.43
586.90	46195.15
587.06	45759.81
587.22	45949.40
587.38	46073.45
587.54	46138.98
587.70	46251.33
587.86	46330.90
588.02	46225.58
588.18	46138.98
588.34	45804.28
588.49	45851.09
588.65	45427.46
588.81	45291.71
588.97	45471.93
589.13	45577.25
589.29	45661.51
589.45	45614.70
589.61	45677.90
589.77	46174.09
589.93	46206.86
