SpectraSuite Data File
++++++++++++++++++++++++++++++++++++
Date: Fri Oct 25 10:48:15 EDT 2013
User: price-jones
Dark Spectrum Present: No
Reference Spectrum Present: No
Number of Sampled Component Spectra: 1
Spectrometers: USB2+H05261
Integration Time (usec): 100000 (USB2+H05261)
Spectra Averaged: 1 (USB2+H05261)
Boxcar Smoothing: 0 (USB2+H05261)
Correct for Electrical Dark: No (USB2+H05261)
Strobe/Lamp Enabled: No (USB2+H05261)
Correct for Detector Non-linearity: No (USB2+H05261)
Correct for Stray Light: No (USB2+H05261)
Number of Pixels in Processed Spectrum: 2048
>>>>>Begin Processed Spectral Data<<<<<
365.73	152.13
365.92	152.13
366.12	152.13
366.32	98.30
366.52	77.24
366.72	74.90
366.91	0.00
367.11	18.72
367.31	35.11
367.51	77.24
367.70	86.60
367.90	56.17
368.10	121.71
368.30	51.49
368.49	28.09
368.69	86.60
368.89	100.64
369.09	32.77
369.28	77.24
369.48	98.30
369.68	98.30
369.87	88.94
370.07	112.35
370.27	170.86
370.47	231.71
370.66	337.04
370.86	449.38
371.06	470.45
371.25	425.98
371.45	444.70
371.65	505.56
371.84	454.06
372.04	444.70
372.24	421.30
372.44	435.34
372.63	482.15
372.83	503.22
373.03	475.13
373.22	561.73
373.42	493.85
373.62	512.58
373.81	599.18
374.01	582.79
374.21	578.11
374.40	538.32
374.60	587.47
374.79	550.03
374.99	468.11
375.19	564.07
375.38	615.56
375.58	552.37
375.78	594.50
375.97	634.29
376.17	606.20
376.37	650.67
376.56	594.50
376.76	554.71
376.95	685.78
377.15	629.60
377.35	674.07
377.54	664.71
377.74	617.90
377.93	695.14
378.13	650.67
378.33	573.43
378.52	678.76
378.72	645.99
378.91	554.71
379.11	603.86
379.31	660.03
379.50	699.82
379.70	669.39
379.89	685.78
380.09	667.05
380.28	718.54
380.48	631.94
380.68	655.35
380.87	650.67
381.07	716.20
381.26	734.93
381.46	596.84
381.65	746.63
381.85	599.18
382.04	690.46
382.24	699.82
382.43	690.46
382.63	695.14
382.83	709.18
383.02	737.27
383.22	692.80
383.41	748.97
383.61	669.39
383.80	727.91
384.00	772.38
384.19	814.51
384.39	770.04
384.58	748.97
384.78	814.51
384.97	809.83
385.17	826.21
385.36	713.86
385.56	746.63
385.75	849.61
385.95	758.33
386.14	828.55
386.34	851.96
386.53	816.85
386.72	758.33
386.92	901.11
387.11	816.85
387.31	851.96
387.50	809.83
387.70	851.96
387.89	901.11
388.09	861.32
388.28	931.53
388.48	842.59
388.67	931.53
388.86	915.15
389.06	870.68
389.25	936.21
389.45	908.13
389.64	912.81
389.84	952.60
390.03	940.90
390.22	940.90
390.42	1046.22
390.61	1050.90
390.81	994.73
391.00	1048.56
391.19	1013.45
391.39	1057.92
391.58	1008.77
391.78	997.07
391.97	1083.67
392.16	990.05
392.36	1074.31
392.55	1011.11
392.75	973.66
392.94	1013.45
393.13	1076.65
393.33	1039.20
393.52	1001.75
393.71	1057.92
393.91	1043.88
394.10	1135.16
394.29	1090.69
394.49	1151.54
394.68	1217.08
394.88	1181.97
395.07	1121.12
395.26	1263.89
395.46	1163.25
395.65	1165.59
395.84	1224.10
396.04	1299.00
396.23	1172.61
396.42	1163.25
396.62	1146.86
396.81	1235.80
397.00	1212.40
397.19	1167.93
397.39	1259.21
397.58	1341.13
397.77	1219.42
397.97	1378.58
398.16	1296.66
398.35	1378.58
398.55	1294.32
398.74	1387.94
398.93	1465.18
399.12	1411.34
399.32	1355.17
399.51	1373.89
399.70	1490.92
399.90	1378.58
400.09	1437.09
400.28	1453.47
400.47	1437.09
400.67	1605.61
400.86	1570.50
401.05	1540.07
401.24	1600.93
401.44	1528.37
401.63	1607.95
401.82	1661.78
402.01	1528.37
402.21	1624.33
402.40	1603.27
402.59	1629.01
402.78	1600.93
402.97	1577.52
403.17	1678.16
403.36	1678.16
403.55	1673.48
403.74	1771.79
403.93	1827.96
404.13	1753.06
404.32	1720.29
404.51	1715.61
404.70	1760.08
404.89	1706.25
405.09	1816.26
405.28	1769.44
405.47	1820.94
405.66	1832.64
405.85	1820.94
406.05	1689.87
406.24	1792.85
406.43	1785.83
406.62	1980.09
406.81	1937.96
407.00	1893.49
407.20	1949.67
407.39	1975.41
407.58	2008.18
407.77	1982.43
407.96	2120.53
408.15	2059.67
408.34	2127.55
408.54	2069.03
408.73	2073.71
408.92	2026.90
409.11	2167.34
409.30	2148.61
409.49	2071.37
409.68	2146.27
409.87	2200.10
410.07	2153.29
410.26	2200.10
410.45	2293.72
410.64	2263.30
410.83	2204.78
411.02	2373.30
411.21	2434.16
411.40	2347.56
411.59	2387.35
411.78	2410.75
411.98	2438.84
412.17	2497.35
412.36	2569.91
412.55	2452.88
412.74	2544.16
412.93	2485.65
413.12	2541.82
413.31	2679.91
413.50	2658.85
413.69	2623.74
413.88	2691.62
414.07	2663.53
414.26	2708.00
414.45	2644.81
414.64	2740.77
414.83	2752.47
415.02	2775.88
415.22	2841.41
415.41	2911.63
415.60	2825.03
415.79	2801.62
415.98	3056.74
416.17	2965.46
416.36	2984.18
416.55	3089.51
416.74	3180.79
416.93	3110.57
417.12	3073.12
417.31	3028.65
417.50	3155.04
417.69	3204.19
417.88	3110.57
418.07	3124.62
418.26	3236.96
418.45	3012.27
418.64	3513.14
418.83	3239.30
419.02	3293.13
419.21	3478.04
419.39	3384.41
419.58	3405.48
419.77	3353.99
419.96	3377.39
420.15	3534.21
420.34	3318.88
420.53	3501.44
420.72	3618.47
420.91	3534.21
421.10	3564.64
421.29	3749.54
421.48	3531.87
421.67	3562.30
421.86	3524.85
422.05	3623.15
422.24	3494.42
422.43	3588.04
422.61	3606.77
422.80	3705.07
422.99	3646.55
423.18	3833.80
423.37	3819.75
423.56	3761.24
423.75	3653.58
423.94	3653.58
424.13	3599.74
424.32	3552.93
424.50	3681.66
424.69	3775.28
424.88	3737.84
425.07	3576.34
425.26	3597.40
425.45	3735.50
425.64	3672.30
425.83	3714.43
426.01	3784.65
426.20	3747.20
426.39	3985.93
426.58	3763.58
426.77	3684.00
426.96	3712.09
427.15	3698.05
427.33	3887.63
427.52	3866.56
427.71	3756.56
427.90	3913.38
428.09	3843.16
428.28	3978.91
428.46	3885.29
428.65	3920.40
428.84	4007.00
429.03	4028.06
429.22	3866.56
429.40	3868.91
429.59	3927.42
429.78	3681.66
429.97	3786.99
430.16	3784.65
430.34	3808.05
430.53	3974.23
430.72	3957.85
430.91	4072.53
431.10	4182.54
431.28	4250.41
431.47	4269.14
431.66	4346.37
431.85	4327.65
432.03	4360.42
432.22	4393.19
432.41	4369.78
432.60	4334.67
432.79	4575.75
432.97	4404.89
433.16	4535.96
433.35	4315.95
433.54	4397.87
433.72	4259.78
433.91	4461.06
434.10	4496.17
434.28	4559.36
434.47	4652.98
434.66	4547.66
434.85	4603.83
435.03	4657.67
435.22	4514.89
435.41	4896.40
435.59	4767.67
435.78	4751.29
435.97	4823.84
436.16	4828.53
436.34	4774.69
436.53	4877.68
436.72	4802.78
436.90	4608.51
437.09	4798.10
437.28	4723.20
437.46	4814.48
437.65	5139.82
437.84	4910.44
438.02	4812.14
438.21	4929.17
438.40	4751.29
438.58	5046.20
438.77	5172.58
438.96	5107.05
439.14	5135.14
439.33	5219.39
439.52	5205.35
439.70	5146.84
439.89	5284.93
440.08	5327.06
440.26	5413.66
440.45	5310.68
440.63	5465.15
440.82	5607.92
441.01	5504.94
441.19	5722.61
441.38	5696.86
441.57	5654.73
441.75	5753.04
441.94	5956.66
442.12	5893.47
442.31	5912.19
442.50	6064.33
442.68	5853.68
442.87	6003.47
443.05	5858.36
443.24	6003.47
443.43	5987.09
443.61	6099.44
443.80	6258.59
443.98	5968.37
444.17	5919.21
444.35	6104.12
444.54	6307.74
444.73	6190.72
444.91	6249.23
445.10	6005.81
445.28	5982.41
445.47	6101.78
445.65	6064.33
445.84	5989.43
446.02	6307.74
446.21	6115.82
446.39	6043.26
446.58	6223.48
446.77	6190.72
446.95	6024.54
447.14	6270.30
447.32	6319.45
447.51	6024.54
447.69	6099.44
447.88	6204.76
448.06	6317.11
448.25	6246.89
448.43	6331.15
448.62	6267.95
448.80	6214.12
448.99	6380.30
449.17	6282.00
449.36	6324.13
449.54	6705.63
449.73	6712.66
449.91	6541.80
450.10	6853.09
450.28	6843.73
450.46	6899.90
450.65	6827.34
450.83	6649.46
451.02	6766.49
451.20	6738.40
451.39	6621.38
451.57	6839.05
451.76	6815.64
451.94	6773.51
452.13	6761.81
452.31	6780.53
452.49	6679.89
452.68	6696.27
452.86	6752.45
453.05	6855.43
453.23	7063.74
453.42	6885.86
453.60	6892.88
453.78	6998.20
453.97	6895.22
454.15	6932.67
454.34	6923.30
454.52	7215.87
454.70	7143.32
454.89	7014.59
455.07	7061.40
455.26	7089.48
455.44	7218.21
455.62	7255.66
455.81	7258.00
455.99	7169.06
456.17	7215.87
456.36	7363.33
456.54	7288.43
456.73	7351.62
456.91	7536.52
457.09	7707.38
457.28	7676.96
457.46	7529.50
457.64	7534.18
457.83	7552.91
458.01	7545.89
458.19	7822.07
458.38	7749.51
458.56	7859.52
458.74	7740.15
458.93	7604.40
459.11	7623.12
459.29	7786.96
459.48	7927.39
459.66	7779.94
459.84	7747.17
460.03	7985.91
460.21	8013.99
460.39	7922.71
460.57	7789.30
460.76	8093.57
460.94	8081.87
461.12	8006.97
461.31	8023.36
461.49	8013.99
461.67	7971.86
461.85	8271.45
462.04	8142.72
462.22	8720.84
462.40	8287.84
462.59	8407.20
462.77	8229.32
462.95	8351.03
463.13	8407.20
463.32	8360.39
463.50	8475.08
463.68	8381.46
463.86	8479.76
464.05	8292.52
464.23	8290.18
464.41	8521.89
464.59	8226.98
464.78	8461.04
464.96	8613.17
465.14	8332.31
465.32	8575.72
465.50	8737.22
465.69	8561.68
465.87	8643.60
466.05	8615.51
466.23	8706.79
466.41	8596.79
466.60	8833.18
466.78	8779.35
466.96	8613.17
467.14	8718.50
467.32	8903.40
467.51	8870.63
467.69	8669.34
467.87	8814.46
468.05	8755.94
468.23	8837.86
468.41	8844.88
468.60	8961.91
468.78	9128.09
468.96	8793.39
469.14	9123.41
469.32	9343.42
469.50	8990.00
469.69	9217.03
469.87	9348.10
470.05	9263.84
470.23	9544.70
470.41	9170.22
470.59	9420.66
470.77	9174.90
470.95	9380.87
471.14	9507.26
471.32	9380.87
471.50	9610.24
471.68	9724.93
471.86	9631.30
472.04	9886.42
472.22	9832.59
472.40	9509.60
472.58	9764.72
472.77	9631.30
472.95	9956.64
473.13	10242.18
473.31	9834.93
473.49	9914.51
473.67	9930.89
473.85	10099.41
474.03	10499.64
474.21	10043.24
474.39	10377.94
474.57	10296.02
474.75	10576.88
474.93	10513.69
475.12	10679.86
475.30	10513.69
475.48	10588.58
475.66	10562.84
475.84	10724.33
476.02	10717.31
476.20	10836.68
476.38	10909.24
476.56	11332.87
476.74	11056.69
476.92	10951.37
477.10	10977.11
477.28	11360.96
477.46	11410.11
477.64	11616.08
477.82	11686.29
478.00	11754.17
478.18	11721.40
478.36	11946.09
478.54	11822.05
478.72	11824.39
478.90	12051.42
479.08	12315.90
479.26	12393.14
479.44	12606.13
479.62	12545.27
479.80	12367.39
479.98	12807.41
480.16	12706.77
480.34	12950.18
480.52	13102.32
480.70	12971.25
480.88	12545.27
481.06	13153.81
481.24	12987.63
481.41	13406.59
481.59	13458.08
481.77	13951.93
481.95	13488.51
482.13	13877.04
482.31	13727.24
482.49	14003.43
482.67	14174.28
482.85	14249.18
483.03	14319.40
483.21	14429.40
483.39	14621.33
483.57	14602.60
483.74	14684.52
483.92	14682.18
484.10	14597.92
484.28	15030.92
484.46	15360.94
484.64	15421.79
484.82	15215.82
485.00	15243.91
485.18	15545.84
485.35	15850.11
485.53	15477.96
485.71	15283.70
485.89	15740.10
486.07	15604.35
486.25	15974.16
486.43	16191.83
486.61	15999.90
486.78	16381.41
486.96	16379.07
487.14	16795.68
487.32	16772.28
487.50	16891.65
487.68	17348.05
487.85	17233.36
488.03	17624.23
488.21	17654.66
488.39	17535.29
488.57	17872.33
488.75	17898.08
488.92	18115.75
489.10	18291.29
489.28	18441.08
489.46	18424.70
489.64	18731.31
489.81	18728.97
489.99	18970.04
490.17	19250.91
490.35	19372.61
490.53	19293.04
490.70	19414.74
490.88	19590.28
491.06	19967.11
491.24	19580.92
491.41	19791.57
491.59	19929.66
491.77	19831.36
491.95	20121.59
492.13	20432.88
492.30	20194.14
492.48	20854.17
492.66	20676.29
492.84	20812.04
493.01	20971.20
493.19	21020.35
493.37	21158.44
493.54	21116.31
493.72	21490.80
493.90	21422.92
494.08	21593.78
494.25	22157.85
494.43	22087.64
494.61	22214.02
494.79	22157.85
494.96	22518.29
495.14	22321.69
495.32	22712.56
495.49	22429.35
495.67	22686.81
495.85	22665.75
496.02	23019.17
496.20	22909.16
496.38	23695.58
496.55	22862.35
496.73	23957.72
496.91	23491.96
497.09	23506.00
497.26	24217.52
497.44	23924.96
497.62	24049.00
497.79	24201.14
497.97	23873.46
498.14	24535.84
498.32	24671.59
498.50	24622.44
498.67	24996.92
498.85	24961.81
499.03	24531.15
499.20	24896.28
499.38	24957.13
499.56	25109.27
499.73	25371.41
499.91	24854.15
500.08	25600.78
500.26	24940.75
500.44	25450.99
500.61	25530.56
500.79	25500.14
500.97	25429.92
501.14	26345.07
501.32	25788.02
501.49	25846.54
501.67	26080.59
501.84	26120.38
502.02	26038.46
502.20	26508.91
502.37	26333.37
502.55	26499.55
502.72	26948.93
502.90	26679.77
503.07	26869.35
503.25	26855.31
503.43	27311.71
503.60	27234.47
503.78	26969.99
503.95	26895.10
504.13	27152.55
504.30	27274.26
504.48	27374.91
504.65	27426.40
504.83	27487.25
505.01	28168.35
505.18	27522.36
505.36	28212.82
505.53	27864.08
505.71	28297.08
505.88	28357.93
506.06	28376.66
506.23	28128.56
506.41	28063.02
506.58	28692.63
506.76	28554.54
506.93	28496.02
507.11	28730.08
507.28	29053.07
507.46	28493.68
507.63	28933.70
507.81	28947.75
507.98	29142.01
508.16	28861.15
508.33	29116.26
508.50	29785.66
508.68	29598.41
508.85	29984.60
509.03	29792.68
509.20	29928.43
509.38	29820.77
509.55	30373.13
509.73	30050.14
509.90	29944.81
510.08	30110.99
510.25	29937.79
510.42	30778.04
510.60	30501.86
510.77	30382.49
510.95	30600.16
511.12	30452.71
511.30	30635.27
511.47	30888.05
511.64	31070.61
511.82	31061.25
511.99	31126.78
512.17	31033.16
512.34	30820.17
512.51	31168.91
512.69	31330.41
512.86	31215.72
513.04	31758.73
513.21	31721.28
513.38	31559.78
513.56	31725.96
513.73	31597.23
513.90	32222.16
514.08	31700.22
514.25	32102.79
514.43	31974.06
514.60	31955.33
514.77	32142.58
514.95	32498.34
515.12	32046.62
515.29	32449.19
515.47	32526.42
515.64	32683.24
515.81	32168.32
515.99	32505.36
516.16	32591.96
516.33	32589.62
516.51	32418.76
516.68	32208.11
516.85	32081.72
517.03	32713.67
517.20	32795.59
517.37	32889.21
517.54	33090.49
517.72	32950.06
517.89	33223.90
518.06	33013.26
518.24	32797.93
518.41	33202.84
518.58	33308.16
518.75	33315.19
518.93	33998.62
519.10	33464.98
519.27	34047.77
519.45	33743.50
519.62	33984.58
519.79	33738.82
519.96	34338.00
520.14	34178.84
520.31	34125.01
520.48	34382.47
520.65	34384.81
520.83	34761.64
521.00	34724.19
521.17	34518.22
521.34	34581.42
521.52	34993.35
521.69	35124.42
521.86	34796.74
522.03	35061.22
522.20	34948.88
522.38	35318.68
522.55	35196.98
522.72	35173.57
522.89	34998.03
523.07	35201.66
523.24	35208.68
523.41	35543.38
523.58	35491.88
523.75	36259.58
523.92	35735.30
524.10	35934.24
524.27	35824.24
524.44	36023.19
524.61	35922.54
524.78	35845.30
524.96	36425.76
525.13	36147.23
525.30	36678.54
525.47	36311.07
525.64	36652.79
525.81	36524.06
525.98	36392.99
526.16	36535.76
526.33	36137.87
526.50	36788.54
526.67	36503.00
526.84	36540.44
527.01	36205.75
527.18	37151.32
527.36	36755.77
527.53	36896.20
527.70	37258.99
527.87	37090.47
528.04	37368.99
528.21	37127.92
528.38	37027.28
528.55	37794.97
528.72	37158.34
528.89	37418.14
529.07	37640.50
529.24	37254.31
529.41	37589.00
529.58	37333.89
529.75	37495.38
529.92	37963.49
530.09	37699.01
530.26	37933.06
530.43	37642.84
530.60	37689.65
530.77	37565.60
530.94	38415.21
531.11	37916.68
531.28	38017.32
531.46	38288.82
531.63	38206.90
531.80	38197.54
531.97	38335.63
532.14	38120.31
532.31	38216.27
532.48	38256.06
532.65	38249.03
532.82	38316.91
532.99	38354.36
533.16	38574.37
533.33	38562.67
533.50	39196.95
533.67	38700.76
533.84	38565.01
534.01	39033.11
534.18	38593.09
534.35	39089.29
534.52	38897.36
534.69	39147.80
534.86	39431.01
535.03	39136.10
535.20	39189.93
535.37	39452.07
535.54	39945.92
535.71	39421.64
535.88	39351.43
536.05	39342.06
536.22	39721.23
536.38	39969.33
536.55	39112.69
536.72	39019.07
536.89	39386.54
537.06	39281.21
537.23	40020.82
537.40	39828.90
537.57	39803.15
537.74	39681.44
537.91	40130.83
538.08	39962.31
538.25	39519.95
538.42	39922.52
538.59	40247.85
538.75	39924.86
538.92	39955.29
539.09	40114.44
539.26	40170.61
539.43	40112.10
539.60	40498.29
539.77	40266.58
539.94	40605.95
540.11	39817.19
540.28	40517.01
540.44	40034.86
540.61	40006.78
540.78	40308.71
540.95	40495.95
541.12	40273.60
541.29	40460.84
541.46	40603.61
541.62	40704.26
541.79	40868.09
541.96	40528.72
542.13	40669.15
542.30	40821.28
542.47	40896.18
542.63	40950.01
542.80	40964.06
542.97	41425.14
543.14	41495.36
543.31	41448.55
543.48	41701.32
543.64	41874.52
543.81	41619.41
543.98	41486.00
544.15	41275.35
544.32	41397.06
544.48	41701.32
544.65	41799.63
544.82	41638.13
544.99	41387.69
545.16	42012.62
545.32	41745.80
545.49	42085.17
545.66	42066.45
545.83	41715.37
546.00	42174.11
546.16	42050.06
546.33	41935.38
546.50	41794.95
546.67	42209.22
546.83	41741.11
547.00	42108.58
547.17	41904.95
547.34	42277.10
547.50	41869.84
547.67	42719.46
547.84	42609.45
548.00	42469.02
548.17	42595.41
548.34	42604.77
548.51	42733.50
548.67	42740.52
548.84	42726.48
549.01	42398.80
549.18	42422.21
549.34	42464.34
549.51	42328.59
549.68	42639.88
549.84	42937.13
550.01	43105.65
550.18	42674.99
550.34	42740.52
550.51	42761.59
550.68	42827.12
550.84	42581.37
551.01	42831.80
551.18	43264.80
551.34	42679.67
551.51	42792.01
551.68	43126.71
551.84	43260.12
552.01	43316.29
552.18	43349.06
552.34	42682.01
552.51	43496.52
552.68	43187.56
552.84	43660.35
553.01	43700.14
553.18	43220.33
553.34	43524.60
553.51	43014.37
553.67	43524.60
553.84	43491.83
554.01	43744.61
554.17	43559.71
554.34	43964.62
554.51	43498.86
554.67	43753.97
554.84	43753.97
555.00	43789.08
555.17	43580.78
555.33	43936.54
555.50	44004.41
555.67	43414.60
555.83	43803.13
556.00	43714.19
556.16	44498.26
556.33	44196.34
556.50	43861.64
556.66	44116.76
556.83	43398.21
556.99	43863.98
557.16	44348.47
557.32	44158.89
557.49	44112.08
557.65	43592.48
557.82	43903.77
557.98	44486.56
558.15	43723.55
558.32	44217.40
558.48	43796.10
558.65	44203.36
558.81	43924.83
558.98	44151.87
559.14	44088.67
559.31	43913.13
559.47	44556.78
559.64	44409.32
559.80	44708.91
559.97	44610.61
560.13	43672.06
560.30	44137.82
560.46	44210.38
560.63	43945.90
560.79	44884.45
560.96	44399.96
561.12	44404.64
561.29	44514.65
561.45	44364.85
561.61	44641.04
561.78	44217.40
561.94	44327.41
562.11	44402.30
562.27	44348.47
562.44	44505.29
562.60	44931.26
562.77	44334.43
562.93	44648.06
563.10	44933.60
563.26	44334.43
563.42	45003.82
563.59	44542.74
563.75	44704.23
563.92	44818.92
564.08	44406.98
564.24	44999.14
564.41	44879.77
564.57	44961.69
564.74	44678.49
564.90	44907.86
565.07	44886.79
565.23	44626.99
565.39	44896.16
565.56	45153.62
565.72	44645.72
565.88	44549.76
566.05	45361.92
566.21	45216.81
566.38	45085.74
566.54	44889.13
566.70	45301.07
566.87	45343.20
567.03	44903.18
567.19	45312.77
567.36	45179.36
567.52	45078.72
567.68	45680.24
567.85	45008.50
568.01	45338.52
568.17	45081.06
568.34	44900.84
568.50	44760.40
568.66	45057.65
568.83	44722.96
568.99	44783.81
569.15	45123.19
569.32	44722.96
569.48	44573.16
569.64	45617.04
569.81	45162.98
569.97	45125.53
570.13	45177.02
570.30	44966.37
570.46	45256.60
570.62	45010.84
570.78	44650.40
570.95	44891.48
571.11	45113.83
571.27	44786.15
571.43	44795.51
571.60	45207.45
571.76	44952.33
571.92	44854.03
572.09	45317.45
572.25	45343.20
572.41	45031.91
572.57	45326.81
572.74	45834.71
572.90	45289.37
573.06	44992.12
573.22	45078.72
573.38	44945.31
573.55	44865.73
573.71	45560.87
573.87	44989.78
574.03	44973.39
574.20	45095.10
574.36	45333.84
574.52	45448.52
574.68	44996.80
574.84	45478.95
575.01	45191.06
575.17	45205.11
575.33	45235.53
575.49	45179.36
575.65	45762.15
575.82	45516.40
575.98	45123.19
576.14	45640.45
576.30	45015.52
576.46	45317.45
576.62	44996.80
576.79	45144.25
576.95	45074.04
577.11	45340.86
577.27	45626.40
577.43	45467.25
577.59	45336.18
577.75	45116.17
577.92	45020.20
578.08	44884.45
578.24	45191.06
578.40	45380.65
578.56	45333.84
578.72	45275.32
578.88	45720.02
579.04	45556.19
579.21	45277.66
579.37	45277.66
579.53	45404.05
579.69	44739.34
579.85	45216.81
580.01	45399.37
580.17	45530.44
580.33	45588.95
580.49	45322.13
580.65	45500.01
580.82	45329.16
580.98	45223.83
581.14	45380.65
581.30	45490.65
581.46	45455.54
581.62	45872.16
581.78	45481.29
581.94	45492.99
582.10	45371.28
582.26	45691.94
582.42	45420.44
582.58	45242.56
582.74	45198.09
582.90	45399.37
583.06	45619.38
583.22	45710.66
583.38	45600.66
583.54	44856.37
583.70	45741.09
583.86	45631.08
584.02	45642.79
584.18	45291.71
584.34	45773.86
584.50	45464.91
584.66	45326.81
584.82	44879.77
584.98	45530.44
585.14	45537.46
585.30	45254.26
585.46	45280.00
585.62	45364.26
585.78	45511.72
585.94	44788.49
586.10	45287.03
586.26	45310.43
586.42	45633.42
586.58	45954.08
586.74	45574.91
586.90	45485.97
587.06	45116.17
587.22	46050.04
587.38	45502.35
587.54	45762.15
587.70	46033.66
587.86	45532.78
588.02	45574.91
588.18	45373.63
588.34	45537.46
588.49	45251.92
588.65	44870.41
588.81	45338.52
588.97	45375.97
589.13	45041.27
589.29	45301.07
589.45	45553.85
589.61	45876.84
589.77	45757.47
589.93	45633.42
590.08	45787.90
