SpectraSuite Data File
++++++++++++++++++++++++++++++++++++
Date: Fri Oct 25 10:48:35 EDT 2013
User: price-jones
Dark Spectrum Present: No
Reference Spectrum Present: No
Number of Sampled Component Spectra: 1
Spectrometers: USB2+H05261
Integration Time (usec): 100000 (USB2+H05261)
Spectra Averaged: 1 (USB2+H05261)
Boxcar Smoothing: 0 (USB2+H05261)
Correct for Electrical Dark: No (USB2+H05261)
Strobe/Lamp Enabled: No (USB2+H05261)
Correct for Detector Non-linearity: No (USB2+H05261)
Correct for Stray Light: No (USB2+H05261)
Number of Pixels in Processed Spectrum: 2048
>>>>>Begin Processed Spectral Data<<<<<
365.73	102.98
365.92	102.98
366.12	102.98
366.32	79.58
366.52	32.77
366.72	79.58
366.91	58.51
367.11	0.00
367.31	81.92
367.51	32.77
367.70	32.77
367.90	163.84
368.10	65.54
368.30	30.43
368.49	0.00
368.69	72.56
368.89	72.56
369.09	28.09
369.28	79.58
369.48	70.22
369.68	79.58
369.87	163.84
370.07	65.54
370.27	88.94
370.47	128.73
370.66	461.09
370.86	472.79
371.06	486.83
371.25	580.45
371.45	407.25
371.65	470.45
371.84	510.24
372.04	517.26
372.24	468.11
372.44	526.62
372.63	521.94
372.83	496.19
373.03	510.24
373.22	582.79
373.42	580.45
373.62	538.32
373.81	568.75
374.01	650.67
374.21	636.63
374.40	582.79
374.60	594.50
374.79	578.11
374.99	543.00
375.19	594.50
375.38	638.97
375.58	592.16
375.78	667.05
375.97	606.20
376.17	631.94
376.37	599.18
376.56	739.61
376.76	674.07
376.95	678.76
377.15	751.31
377.35	702.16
377.54	610.88
377.74	730.25
377.93	643.65
378.13	624.92
378.33	727.91
378.52	676.41
378.72	734.93
378.91	795.78
379.11	748.97
379.31	690.46
379.50	716.20
379.70	671.73
379.89	805.14
380.09	664.71
380.28	706.84
380.48	774.72
380.68	758.33
380.87	758.33
381.07	718.54
381.26	746.63
381.46	699.82
381.65	786.42
381.85	795.78
382.04	737.27
382.24	685.78
382.43	763.01
382.63	763.01
382.83	812.17
383.02	821.53
383.22	814.51
383.41	713.86
383.61	814.51
383.80	851.96
384.00	795.78
384.19	856.64
384.39	917.49
384.58	835.57
384.78	858.98
384.97	868.34
385.17	844.93
385.36	889.40
385.56	873.02
385.75	971.32
385.95	812.17
386.14	826.21
386.34	863.66
386.53	922.17
386.72	891.74
386.92	922.17
387.11	861.32
387.31	940.90
387.50	908.13
387.70	938.55
387.89	992.39
388.09	973.66
388.28	915.15
388.48	868.34
388.67	966.64
388.86	1032.18
389.06	1015.79
389.25	1018.13
389.45	1006.43
389.64	1008.77
389.84	1074.31
390.03	1057.92
390.22	1074.31
390.42	1086.01
390.61	1100.05
390.81	1032.18
391.00	1123.46
391.19	1114.10
391.39	1102.39
391.58	1172.61
391.78	1090.69
391.97	1121.12
392.16	1100.05
392.36	1177.29
392.55	1015.79
392.75	1095.37
392.94	990.05
393.13	1086.01
393.33	1001.75
393.52	1111.75
393.71	1116.44
393.91	1256.87
394.10	1123.46
394.29	1261.55
394.49	1334.11
394.68	1322.40
394.88	1313.04
395.07	1301.34
395.26	1235.80
395.46	1270.91
395.65	1324.74
395.84	1315.38
396.04	1394.96
396.23	1249.85
396.42	1158.57
396.62	1228.78
396.81	1256.87
397.00	1334.11
397.19	1369.21
397.39	1338.79
397.58	1444.11
397.77	1504.96
397.97	1514.33
398.16	1430.07
398.35	1490.92
398.55	1493.26
398.74	1596.25
398.93	1579.86
399.12	1572.84
399.32	1572.84
399.51	1617.31
399.70	1633.69
399.90	1617.31
400.09	1713.27
400.28	1692.21
400.47	1760.08
400.67	1671.14
400.86	1614.97
401.05	1727.32
401.24	1783.49
401.44	1816.26
401.63	1710.93
401.82	1842.00
402.01	1734.34
402.21	1870.09
402.40	1858.39
402.59	1804.55
402.78	1923.92
402.97	1820.94
403.17	1849.02
403.36	1940.30
403.55	1982.43
403.74	2050.31
403.93	1966.05
404.13	1933.28
404.32	1846.68
404.51	1893.49
404.70	1996.48
404.89	2101.80
405.09	2101.80
405.28	2111.16
405.47	2045.63
405.66	2132.23
405.85	1984.77
406.05	2104.14
406.24	2031.58
406.43	2054.99
406.62	2190.74
406.81	2211.81
407.00	2129.89
407.20	2214.15
407.39	2174.36
407.58	2195.42
407.77	2253.94
407.96	2380.32
408.15	2282.02
408.34	2333.51
408.54	2314.79
408.73	2317.13
408.92	2387.35
409.11	2445.86
409.30	2434.16
409.49	2399.05
409.68	2408.41
409.87	2499.69
410.07	2438.84
410.26	2464.58
410.45	2480.97
410.64	2476.29
410.83	2525.44
411.02	2661.19
411.21	2738.43
411.40	2731.41
411.59	2644.81
411.78	2579.27
411.98	2726.72
412.17	2796.94
412.36	2810.98
412.55	2834.39
412.74	2829.71
412.93	2860.13
413.12	2785.24
413.31	3009.93
413.50	3014.61
413.69	2995.89
413.88	3131.64
414.07	2972.48
414.26	3026.31
414.45	3117.59
414.64	3066.10
414.83	3035.67
415.02	3136.32
415.22	3234.62
415.41	3353.99
415.60	3232.28
415.79	3356.33
415.98	3344.63
416.17	3335.26
416.36	3337.60
416.55	3407.82
416.74	3456.97
416.93	3447.61
417.12	3485.06
417.31	3466.33
417.50	3557.61
417.69	3660.60
417.88	3660.60
418.07	3625.49
418.26	3548.25
418.45	3648.90
418.64	3702.73
418.83	3520.17
419.02	3602.08
419.21	3873.59
419.39	3728.47
419.58	3672.30
419.77	3777.62
419.96	3922.74
420.15	3850.18
420.34	3707.41
420.53	3948.48
420.72	3955.51
420.91	3985.93
421.10	3988.27
421.29	4149.77
421.48	3894.65
421.67	4060.83
421.86	3950.82
422.05	4037.42
422.24	4011.68
422.43	3868.91
422.61	4072.53
422.80	4011.68
422.99	4105.30
423.18	4109.98
423.37	4117.00
423.56	4060.83
423.75	3932.10
423.94	4128.70
424.13	3981.25
424.32	3950.82
424.50	4074.87
424.69	4304.25
424.88	4212.96
425.07	4042.11
425.26	4102.96
425.45	4091.26
425.64	3983.59
425.83	4081.89
426.01	4222.33
426.20	4269.14
426.39	4175.52
426.58	4098.28
426.77	4032.74
426.96	4142.75
427.15	4292.54
427.33	4088.92
427.52	4407.23
427.71	4428.29
427.90	4339.35
428.09	4219.99
428.28	4493.83
428.46	4428.29
428.65	4271.48
428.84	4428.29
429.03	4456.38
429.22	4133.39
429.40	4299.56
429.59	4304.25
429.78	4037.42
429.97	4035.08
430.16	4182.54
430.34	4269.14
430.53	4294.88
430.72	4231.69
430.91	4292.54
431.10	4606.17
431.28	4730.22
431.47	4786.40
431.66	4865.97
431.85	4695.11
432.03	4781.71
432.22	4924.49
432.41	4716.18
432.60	4931.51
432.79	4891.72
432.97	5046.20
433.16	4922.15
433.35	4690.43
433.54	4889.38
433.72	4821.50
433.91	4788.74
434.10	4889.38
434.28	4978.32
434.47	5015.77
434.66	5055.56
434.85	5261.52
435.03	5212.37
435.22	5053.22
435.41	5163.22
435.59	5249.82
435.78	5320.04
435.97	5460.47
436.16	5394.93
436.34	5256.84
436.53	5317.70
436.72	5355.15
436.90	5392.59
437.09	5507.28
437.28	5303.65
437.46	5320.04
437.65	5336.42
437.84	5434.72
438.02	5467.49
438.21	5401.96
438.40	5378.55
438.58	5535.37
438.77	5624.31
438.96	5638.35
439.14	5881.77
439.33	5797.51
439.52	5874.74
439.70	5851.34
439.89	5762.40
440.08	5853.68
440.26	6090.07
440.45	6115.82
440.63	6043.26
440.82	6150.93
441.01	6244.55
441.19	6204.76
441.38	6333.49
441.57	6267.95
441.75	6539.46
441.94	6424.77
442.12	6523.07
442.31	6745.42
442.50	6492.65
442.68	6565.20
442.87	6621.38
443.05	6710.32
443.24	6623.72
443.43	6677.55
443.61	6663.51
443.80	6775.85
443.98	6523.07
444.17	6497.33
444.35	6775.85
444.54	7110.55
444.73	6768.83
444.91	6675.21
445.10	6696.27
445.28	6871.81
445.47	6710.32
445.65	6623.72
445.84	6712.66
446.02	6846.07
446.21	6705.63
446.39	6665.85
446.58	7033.31
446.77	6843.73
446.95	6799.26
447.14	6853.09
447.32	7059.06
447.51	6965.43
447.69	6918.62
447.88	7045.01
448.06	7033.31
448.25	6932.67
448.43	7021.61
448.62	7007.56
448.80	7091.82
448.99	7243.96
449.17	7410.14
449.36	7063.74
449.54	7346.94
449.73	7288.43
449.91	7508.44
450.10	7604.40
450.28	7597.38
450.46	7405.46
450.65	7379.71
450.83	7431.20
451.02	7618.44
451.20	7468.65
451.39	7473.33
451.57	7398.43
451.76	7365.67
451.94	7566.95
452.13	7466.31
452.31	7412.48
452.49	7396.09
452.68	7625.47
452.86	7478.01
453.05	7513.12
453.23	7751.85
453.42	7648.87
453.60	7658.23
453.78	7644.19
453.97	7667.60
454.15	7829.09
454.34	7761.22
454.52	7903.99
454.70	7875.90
454.89	7669.94
455.07	7943.78
455.26	7969.52
455.44	7978.89
455.62	8074.85
455.81	8102.93
455.99	8119.32
456.17	8166.13
456.36	7983.57
456.54	8149.75
456.73	8374.44
456.91	8538.27
457.09	8538.27
457.28	8681.05
457.46	8407.20
457.64	8496.14
457.83	8322.94
458.01	8177.83
458.19	8561.68
458.38	8360.39
458.56	8435.29
458.74	8557.00
458.93	8454.02
459.11	8695.09
459.29	8608.49
459.48	8592.11
459.66	8561.68
459.84	8762.97
460.03	8847.22
460.21	8573.38
460.39	8980.64
460.57	8994.68
460.76	8933.82
460.94	9172.56
461.12	8957.23
461.31	9015.74
461.49	9224.05
461.67	9088.30
461.85	9238.09
462.04	9032.13
462.22	9640.67
462.40	9254.48
462.59	9233.41
462.77	9380.87
462.95	9474.49
463.13	9462.79
463.32	9137.45
463.50	9280.22
463.68	9376.19
463.86	9362.14
464.05	9411.29
464.23	9343.42
464.41	9446.40
464.59	9308.31
464.78	9661.73
464.96	9572.79
465.14	9373.85
465.32	9413.63
465.50	9678.12
465.69	9778.76
465.87	9437.04
466.05	9518.96
466.23	9558.75
466.41	9610.24
466.60	9865.36
466.78	9596.20
466.96	9607.90
467.14	9743.65
467.32	9666.41
467.51	9874.72
467.69	9600.88
467.87	9781.10
468.05	9827.91
468.23	9750.67
468.41	9877.06
468.60	9837.27
468.78	9982.38
468.96	9872.38
469.14	10017.49
469.32	10115.80
469.50	9834.93
469.69	9851.31
469.87	10368.57
470.05	9961.32
470.23	10153.24
470.41	10417.72
470.59	10251.55
470.77	10438.79
470.95	10265.59
471.14	10647.10
471.32	10204.74
471.50	10532.41
471.68	10619.01
471.86	10567.52
472.04	10934.98
472.22	10867.11
472.40	10628.37
472.58	10846.04
472.77	10857.75
472.95	10890.51
473.13	11054.35
473.31	11098.82
473.49	10829.66
473.67	10934.98
473.85	11124.57
474.03	11370.32
474.21	11267.34
474.39	11576.29
474.57	11492.03
474.75	11515.44
474.93	11583.31
475.12	11559.91
475.30	11796.30
475.48	11438.20
475.66	11772.89
475.84	11796.30
476.02	11712.04
476.20	11840.77
476.38	12222.28
476.56	12067.80
476.74	12301.86
476.92	12404.84
477.10	12439.95
477.28	12793.37
477.46	12421.22
477.64	12615.49
477.82	12830.82
478.00	12709.11
478.18	12973.59
478.36	12987.63
478.54	13184.24
478.72	12975.93
478.90	13205.30
479.08	13633.62
479.26	13486.17
479.44	13544.68
479.62	13729.58
479.80	13881.72
479.98	13994.06
480.16	14242.16
480.34	14108.75
480.52	14314.72
480.70	14490.26
480.88	13937.89
481.06	14551.11
481.24	14333.44
481.41	14572.18
481.59	14885.81
481.77	15000.49
481.95	14930.28
482.13	14815.59
482.31	15211.14
482.49	15506.05
482.67	15428.81
482.85	15716.70
483.03	15807.98
483.21	16135.65
483.39	16074.80
483.57	15920.32
483.74	15999.90
483.92	16095.86
484.10	16224.59
484.28	16365.03
484.46	17048.46
484.64	16711.42
484.82	16435.24
485.00	16678.66
485.18	17263.79
485.35	17060.16
485.53	16418.86
485.71	16783.98
485.89	17102.29
486.07	17135.06
486.25	17245.07
486.43	17436.99
486.61	17469.76
486.78	17919.14
486.96	17933.18
487.14	18211.71
487.32	18075.96
487.50	18813.23
487.68	18691.52
487.85	19068.34
488.03	19332.82
488.21	19176.01
488.39	19421.77
488.57	19276.65
488.75	19503.68
488.92	19892.21
489.10	19957.75
489.28	20503.09
489.46	20479.69
489.64	20297.13
489.81	21010.99
489.99	20964.18
490.17	21060.14
490.35	21027.37
490.53	21057.80
490.70	21046.10
490.88	21099.93
491.06	21638.25
491.24	21802.09
491.41	21523.57
491.59	21638.25
491.77	21860.60
491.95	22134.45
492.13	22019.76
492.30	22689.15
492.48	22356.80
492.66	22703.20
492.84	22796.82
493.01	22904.48
493.19	22838.95
493.37	22892.78
493.54	22906.82
493.72	23410.04
493.90	23777.50
494.08	23311.74
494.25	24121.56
494.43	24070.07
494.61	24556.90
494.79	24203.48
494.96	24379.02
495.14	24332.21
495.32	24592.01
495.49	24563.92
495.67	24723.08
495.85	25083.52
496.02	24842.45
496.20	24844.79
496.38	25146.72
496.55	25348.00
496.73	26024.42
496.91	25532.90
497.09	25762.28
497.26	25909.73
497.44	25654.61
497.62	25874.62
497.79	26190.59
497.97	26073.57
498.14	26380.18
498.32	26536.99
498.50	26684.45
498.67	26764.03
498.85	26759.34
499.03	27337.46
499.20	27180.64
499.38	27323.41
499.56	27321.07
499.73	27520.02
499.91	27536.40
500.08	27683.86
500.26	27091.70
500.44	27646.41
500.61	27747.05
500.79	27360.86
500.97	27714.28
501.14	28414.10
501.32	28486.66
501.49	28081.75
501.67	28126.22
501.84	28355.59
502.02	28526.45
502.20	28505.38
502.37	28863.49
502.55	28964.13
502.72	28769.86
502.90	28968.81
503.07	28786.25
503.25	29343.30
503.43	29282.44
503.60	29032.00
503.78	29137.33
503.95	28889.23
504.13	29886.30
504.30	29244.99
504.48	29860.55
504.65	30052.48
504.83	30176.53
505.01	30132.06
505.18	30323.98
505.36	30359.09
505.53	30302.92
505.71	30574.42
505.88	30703.15
506.06	30335.68
506.23	30911.46
506.41	30909.11
506.58	30742.94
506.76	31007.42
506.93	31356.16
507.11	31138.49
507.28	30951.24
507.46	30794.43
507.63	31227.43
507.81	31126.78
507.98	31337.43
508.16	31292.96
508.33	31915.54
508.50	31789.16
508.68	31920.23
508.85	32385.99
509.03	32388.33
509.20	32044.27
509.38	32336.84
509.55	32465.57
509.73	32598.98
509.90	32706.65
510.08	32566.21
510.25	32540.47
510.42	32788.56
510.60	33008.58
510.77	33301.14
510.95	33326.89
511.12	33221.56
511.30	33347.95
511.47	33230.93
511.64	33434.55
511.82	33301.14
511.99	33195.82
512.17	33443.91
512.34	33418.17
512.51	33743.50
512.69	34213.95
512.86	33247.31
513.04	33799.68
513.21	34073.52
513.38	33909.68
513.56	33991.60
513.73	33745.84
513.90	33961.17
514.08	34082.88
514.25	34216.29
514.43	34422.26
514.60	34824.83
514.77	34513.54
514.95	34782.70
515.12	34881.00
515.29	34763.98
515.47	34937.18
515.64	35255.49
515.81	34675.04
515.99	35257.83
516.16	35014.41
516.33	34450.35
516.51	34546.31
516.68	34508.86
516.85	33986.92
517.03	34611.84
517.20	34960.58
517.37	35590.19
517.54	35690.83
517.72	35388.90
517.89	35325.71
518.06	35365.49
518.24	35257.83
518.41	35257.83
518.58	35522.31
518.75	35807.86
518.93	36135.53
519.10	36154.26
519.27	36119.15
519.45	36154.26
519.62	36170.64
519.79	36479.59
519.96	36968.76
520.14	36734.71
520.31	36151.91
520.48	36662.15
520.65	36886.84
520.83	37277.71
521.00	37514.11
521.17	36786.20
521.34	37268.35
521.52	37603.05
521.69	37865.19
521.86	37841.78
522.03	37722.41
522.20	37581.98
522.38	37619.43
522.55	37759.86
522.72	37287.07
522.89	37759.86
523.07	38160.09
523.24	37748.16
523.41	37928.38
523.58	38211.59
523.75	38576.71
523.92	38450.32
524.10	38459.68
524.27	38852.89
524.44	38567.35
524.61	38375.42
524.78	39021.41
524.96	38637.56
525.13	38857.57
525.30	39210.99
525.47	38946.51
525.64	38841.19
525.81	38803.74
525.98	38616.50
526.16	38635.22
526.33	38359.04
526.50	38899.70
526.67	38403.51
526.84	38527.56
527.01	38834.17
527.18	39030.77
527.36	39442.71
527.53	39580.80
527.70	39716.55
527.87	39899.11
528.04	39166.52
528.21	39744.64
528.38	39405.26
528.55	39770.38
528.72	39908.47
528.89	40334.45
529.07	40322.75
529.24	39819.53
529.41	40226.79
529.58	39817.19
529.75	39917.84
529.92	40638.72
530.09	40505.31
530.26	40502.97
530.43	40446.80
530.60	40348.50
530.77	40367.22
530.94	40645.74
531.11	40727.66
531.28	40840.01
531.46	41036.61
531.63	41085.76
531.80	40526.38
531.97	40690.21
532.14	40353.18
532.31	40243.17
532.48	40322.75
532.65	40952.35
532.82	40935.97
532.99	40975.76
533.16	40973.42
533.33	41029.59
533.50	41584.30
533.67	41832.39
533.84	41340.88
534.01	41083.42
534.18	41514.08
534.35	42019.64
534.52	41139.60
534.69	41787.92
534.86	41647.49
535.03	42012.62
535.20	41940.06
535.37	42443.27
535.54	42321.57
535.71	42286.46
535.88	41801.97
536.05	42036.02
536.22	42230.29
536.38	42249.01
536.55	42064.11
536.72	42073.47
536.89	41867.50
537.06	42321.57
537.23	42244.33
537.40	42256.03
537.57	42639.88
537.74	42230.29
537.91	42897.34
538.08	42717.12
538.25	42429.23
538.42	42424.55
538.59	42981.60
538.75	42424.55
538.92	42745.20
539.09	42845.85
539.26	42904.36
539.43	43143.09
539.60	43220.33
539.77	42396.46
539.94	42820.10
540.11	42623.50
540.28	42660.94
540.44	42546.26
540.61	42808.40
540.78	42632.86
540.95	42550.94
541.12	42944.15
541.29	42799.04
541.46	43217.99
541.62	43189.91
541.79	43540.99
541.96	42759.25
542.13	43033.09
542.30	43559.71
542.47	43477.79
542.63	43419.28
542.80	43423.96
542.97	43543.33
543.14	43871.00
543.31	44163.57
543.48	44119.10
543.64	44215.06
543.81	44205.70
543.98	44081.65
544.15	43957.60
544.32	44137.82
544.48	44519.33
544.65	44091.01
544.82	44535.71
544.99	43985.69
545.16	43871.00
545.32	44437.41
545.49	44392.94
545.66	44629.34
545.83	44626.99
546.00	44701.89
546.16	44610.61
546.33	44339.11
546.50	44339.11
546.67	44629.34
546.83	44362.51
547.00	44554.44
547.17	44708.91
547.34	44638.70
547.50	44711.25
547.67	44734.66
547.84	44645.72
548.00	44839.98
548.17	45158.30
548.34	44451.45
548.51	45193.40
548.67	44931.26
548.84	45549.17
549.01	45092.76
549.18	44875.09
549.34	45083.40
549.51	45240.21
549.68	45682.58
549.84	45446.18
550.01	45010.84
550.18	45558.53
550.34	45017.86
550.51	45088.08
550.68	45315.11
550.84	45045.95
551.01	45329.16
551.18	45366.60
551.34	45031.91
551.51	45415.76
551.68	45869.82
551.84	45778.54
552.01	45682.58
552.18	45411.07
552.34	45003.82
552.51	45830.03
552.68	45406.39
552.84	45827.69
553.01	46043.02
553.18	45972.80
553.34	45963.44
553.51	45972.80
553.67	46253.67
553.84	46169.41
554.01	45736.41
554.17	46050.04
554.34	45930.67
554.51	46270.05
554.67	46555.60
554.84	45930.67
555.00	46064.08
555.17	46361.33
555.33	46337.93
555.50	46218.56
555.67	46241.96
555.83	46087.49
556.00	46206.86
556.16	46337.93
556.33	46108.55
556.50	46181.11
556.66	46651.56
556.83	45977.48
556.99	46248.99
557.16	46546.23
557.32	46410.48
557.49	46426.87
557.65	46038.34
557.82	46473.68
557.98	46349.63
558.15	46375.37
558.32	46621.13
558.48	46021.95
558.65	46424.53
558.81	45970.46
558.98	46291.12
559.14	46106.21
559.31	46387.08
559.47	46394.10
559.64	46698.37
559.80	46529.85
559.97	46600.07
560.13	46174.09
560.30	46567.30
560.46	46541.55
560.63	46691.35
560.79	46738.16
560.96	46609.43
561.12	46824.76
561.29	46632.83
561.45	46864.55
561.61	46639.86
561.78	46862.21
561.94	46567.30
562.11	46869.23
562.27	46763.90
562.44	46857.52
562.60	47026.04
562.77	46827.10
562.93	46646.88
563.10	47557.35
563.26	47079.88
563.42	47519.90
563.59	46698.37
563.75	47178.18
563.92	47136.05
564.08	46796.67
564.24	46845.82
564.41	47147.75
564.57	46684.33
564.74	46843.48
564.90	47377.12
565.07	46946.47
565.23	47082.22
565.39	46689.01
565.56	47138.39
565.72	46560.28
565.88	46607.09
566.05	46581.34
566.21	47065.83
566.38	46883.27
566.54	47334.99
566.70	47119.66
566.87	47313.93
567.03	47236.69
567.19	47714.16
567.36	46841.14
567.52	47112.64
567.68	47119.66
567.85	46768.58
568.01	47016.68
568.17	46703.05
568.34	47210.95
568.50	47012.00
568.66	46768.58
568.83	46848.16
568.99	46997.96
569.15	47241.37
569.32	47161.79
569.48	47122.01
569.64	47480.11
569.81	47522.24
569.97	47192.22
570.13	47187.54
570.30	46850.50
570.46	46777.95
570.62	47016.68
570.78	46761.56
570.95	46780.29
571.11	47129.03
571.27	46974.55
571.43	47316.27
571.60	47117.32
571.76	47391.17
571.92	47360.74
572.09	47166.48
572.25	47016.68
572.41	47054.13
572.57	47615.86
572.74	47735.23
572.90	47344.36
573.06	47482.45
573.22	47639.26
573.38	47688.42
573.55	47082.22
573.71	47269.46
573.87	47208.61
574.03	47379.46
574.20	47136.05
574.36	47269.46
574.52	47452.02
574.68	47533.94
574.84	47672.03
575.01	47470.75
575.17	47325.63
575.33	47503.51
575.49	47042.43
575.65	47924.81
575.82	47763.31
575.98	47199.24
576.14	47840.55
576.30	47400.53
576.46	47164.14
576.62	47044.77
576.79	47360.74
576.95	46504.10
577.11	47407.55
577.27	47318.61
577.43	47365.42
577.59	47201.58
577.75	47508.19
577.92	46920.72
578.08	47070.51
578.24	46990.94
578.40	47470.75
578.56	47140.73
578.72	47098.60
578.88	47435.64
579.04	47980.98
579.21	47049.45
579.37	47306.91
579.53	47208.61
579.69	47388.83
579.85	47122.01
580.01	47533.94
580.17	47772.67
580.33	47775.02
580.49	47538.62
580.65	47428.62
580.82	47147.75
580.98	47772.67
581.14	47157.11
581.30	47239.03
581.46	47679.05
581.62	47604.16
581.78	47288.18
581.94	47901.40
582.10	47672.03
582.26	47742.25
582.42	47414.57
582.58	47292.86
582.74	47437.98
582.90	47409.89
583.06	47934.17
583.22	47374.78
583.38	47447.34
583.54	48016.09
583.70	47559.69
583.86	47585.43
584.02	47213.29
584.18	47400.53
584.34	47796.08
584.50	47461.38
584.66	47456.70
584.82	47318.61
584.98	47484.79
585.14	47157.11
585.30	47110.30
585.46	47564.37
585.62	47330.31
585.78	47456.70
585.94	47019.02
586.10	47196.90
586.26	47000.30
586.42	47676.71
586.58	47775.02
586.74	47847.57
586.90	47627.56
587.06	47288.18
587.22	47622.88
587.38	47515.22
587.54	47901.40
587.70	47562.03
587.86	47583.09
588.02	47540.96
588.18	47496.49
588.34	47161.79
588.49	46747.52
588.65	46787.31
588.81	46738.16
588.97	46742.84
589.13	46602.41
589.29	46937.10
589.45	47033.07
589.61	47545.64
589.77	47716.50
