SpectraSuite Data File
++++++++++++++++++++++++++++++++++++
Date: Fri Oct 25 10:44:37 EDT 2013
User: price-jones
Dark Spectrum Present: No
Reference Spectrum Present: No
Number of Sampled Component Spectra: 1
Spectrometers: USB2+H05261
Integration Time (usec): 100000 (USB2+H05261)
Spectra Averaged: 1 (USB2+H05261)
Boxcar Smoothing: 0 (USB2+H05261)
Correct for Electrical Dark: No (USB2+H05261)
Strobe/Lamp Enabled: No (USB2+H05261)
Correct for Detector Non-linearity: No (USB2+H05261)
Correct for Stray Light: No (USB2+H05261)
Number of Pixels in Processed Spectrum: 2048
>>>>>Begin Processed Spectral Data<<<<<
365.73	175.54
365.92	175.54
366.12	175.54
366.32	44.47
366.52	4.68
366.72	28.09
366.91	63.19
367.11	14.04
367.31	77.24
367.51	4.68
367.70	0.00
367.90	28.09
368.10	23.41
368.30	0.00
368.49	18.72
368.69	84.26
368.89	0.00
369.09	0.00
369.28	67.88
369.48	65.54
369.68	88.94
369.87	140.43
370.07	131.07
370.27	168.52
370.47	177.88
370.66	313.63
370.86	454.06
371.06	472.79
371.25	430.66
371.45	423.64
371.65	472.79
371.84	430.66
372.04	353.42
372.24	428.32
372.44	531.30
372.63	493.85
372.83	505.56
373.03	493.85
373.22	430.66
373.42	571.09
373.62	528.96
373.81	547.69
374.01	500.87
374.21	669.39
374.40	514.92
374.60	535.98
374.79	517.26
374.99	543.00
375.19	554.71
375.38	491.51
375.58	566.41
375.78	622.58
375.97	550.03
376.17	559.39
376.37	531.30
376.56	601.52
376.76	589.82
376.95	594.50
377.15	608.54
377.35	660.03
377.54	608.54
377.74	599.18
377.93	568.75
378.13	578.11
378.33	585.13
378.52	580.45
378.72	575.77
378.91	641.31
379.11	531.30
379.31	610.88
379.50	660.03
379.70	601.52
379.89	636.63
380.09	643.65
380.28	674.07
380.48	568.75
380.68	610.88
380.87	671.73
381.07	678.76
381.26	741.95
381.46	674.07
381.65	692.80
381.85	713.86
382.04	601.52
382.24	641.31
382.43	674.07
382.63	655.35
382.83	671.73
383.02	641.31
383.22	695.14
383.41	667.05
383.61	744.29
383.80	706.84
384.00	734.93
384.19	730.25
384.39	718.54
384.58	734.93
384.78	821.53
384.97	748.97
385.17	720.88
385.36	812.17
385.56	720.88
385.75	622.58
385.95	767.70
386.14	840.25
386.34	795.78
386.53	755.99
386.72	716.20
386.92	748.97
387.11	851.96
387.31	842.59
387.50	795.78
387.70	763.01
387.89	814.51
388.09	823.87
388.28	755.99
388.48	849.61
388.67	896.43
388.86	755.99
389.06	880.04
389.25	819.19
389.45	868.34
389.64	856.64
389.84	917.49
390.03	1018.13
390.22	844.93
390.42	926.85
390.61	919.83
390.81	854.30
391.00	971.32
391.19	912.81
391.39	880.04
391.58	1020.47
391.78	936.21
391.97	940.90
392.16	929.19
392.36	971.32
392.55	1020.47
392.75	992.39
392.94	905.79
393.13	1053.24
393.33	922.17
393.52	976.00
393.71	1025.15
393.91	1064.94
394.10	961.96
394.29	1135.16
394.49	1074.31
394.68	1039.20
394.88	1146.86
395.07	1116.44
395.26	1062.60
395.46	1048.56
395.65	1123.46
395.84	1057.92
396.04	1137.50
396.23	1146.86
396.42	1074.31
396.62	1095.37
396.81	1238.14
397.00	1137.50
397.19	1261.55
397.39	1128.14
397.58	1186.65
397.77	1144.52
397.97	1301.34
398.16	1261.55
398.35	1352.83
398.55	1331.76
398.74	1275.59
398.93	1263.89
399.12	1341.13
399.32	1242.82
399.51	1411.34
399.70	1341.13
399.90	1383.26
400.09	1306.02
400.28	1406.66
400.47	1322.40
400.67	1451.13
400.86	1472.20
401.05	1439.43
401.24	1439.43
401.44	1490.92
401.63	1483.90
401.82	1596.25
402.01	1540.07
402.21	1476.88
402.40	1439.43
402.59	1556.46
402.78	1493.26
402.97	1528.37
403.17	1612.63
403.36	1551.78
403.55	1549.43
403.74	1680.50
403.93	1619.65
404.13	1568.16
404.32	1610.29
404.51	1579.86
404.70	1682.85
404.89	1638.38
405.09	1813.92
405.28	1788.17
405.47	1671.14
405.66	1771.79
405.85	1804.55
406.05	1806.89
406.24	1629.01
406.43	1820.94
406.62	1797.53
406.81	1923.92
407.00	1853.70
407.20	1827.96
407.39	1839.66
407.58	1844.34
407.77	1940.30
407.96	1959.03
408.15	2012.86
408.34	1942.64
408.54	1916.90
408.73	1902.86
408.92	1998.82
409.11	2064.35
409.30	1935.62
409.49	1998.82
409.68	2010.52
409.87	2083.08
410.07	2148.61
410.26	2307.77
410.45	2094.78
410.64	2211.81
410.83	2218.83
411.02	2244.57
411.21	2289.04
411.40	2251.60
411.59	2363.94
411.78	2340.54
411.98	2289.04
412.17	2438.84
412.36	2324.15
412.55	2354.58
412.74	2576.93
412.93	2530.12
413.12	2417.77
413.31	2452.88
413.50	2387.35
413.69	2513.74
413.88	2609.70
414.07	2654.17
414.26	2539.48
414.45	2698.64
414.64	2633.10
414.83	2752.47
415.02	2731.41
415.22	2832.05
415.41	2829.71
415.60	2731.41
415.79	2773.53
415.98	2890.56
416.17	2892.90
416.36	2888.22
416.55	2822.69
416.74	3023.97
416.93	2977.16
417.12	2974.82
417.31	2935.03
417.50	2981.84
417.69	3052.06
417.88	3089.51
418.07	3117.59
418.26	3061.42
418.45	3082.49
418.64	3248.66
418.83	3183.13
419.02	3199.51
419.21	3314.20
419.39	3199.51
419.58	3063.76
419.77	3190.15
419.96	3290.79
420.15	3309.52
420.34	3398.46
420.53	3433.57
420.72	3478.04
420.91	3424.20
421.10	3433.57
421.29	3396.12
421.48	3391.44
421.67	3398.46
421.86	3344.63
422.05	3513.14
422.24	3300.16
422.43	3356.33
422.61	3494.42
422.80	3517.83
422.99	3524.85
423.18	3583.36
423.37	3552.93
423.56	3583.36
423.75	3534.21
423.94	3534.21
424.13	3323.56
424.32	3349.31
424.50	3559.95
424.69	3641.87
424.88	3698.05
425.07	3534.21
425.26	3440.59
425.45	3494.42
425.64	3543.57
425.83	3524.85
426.01	3510.80
426.20	3662.94
426.39	3693.37
426.58	3597.40
426.77	3435.91
426.96	3555.27
427.15	3538.89
427.33	3641.87
427.52	3651.24
427.71	3730.81
427.90	3735.50
428.09	3723.79
428.28	3737.84
428.46	3866.56
428.65	3791.67
428.84	3974.23
429.03	3735.50
429.22	3726.13
429.40	3714.43
429.59	3779.97
429.78	3632.51
429.97	3691.02
430.16	3796.35
430.34	3829.12
430.53	3941.46
430.72	3775.28
430.91	3777.62
431.10	3997.64
431.28	4121.68
431.47	4229.35
431.66	4224.67
431.85	4002.32
432.03	4203.60
432.22	4320.63
432.41	4271.48
432.60	4304.25
432.79	4140.41
432.97	4348.72
433.16	4191.90
433.35	4248.07
433.54	4142.75
433.72	4203.60
433.91	4266.80
434.10	4299.56
434.28	4227.01
434.47	4400.21
434.66	4463.40
434.85	4468.08
435.03	4339.35
435.22	4400.21
435.41	4613.20
435.59	4636.60
435.78	4578.09
435.97	4526.60
436.16	4695.11
436.34	4613.20
436.53	4667.03
436.72	4809.80
436.90	4568.73
437.09	4702.14
437.28	4542.98
437.46	4702.14
437.65	4655.33
437.84	4711.50
438.02	4664.69
438.21	4858.95
438.40	4624.90
438.58	4821.50
438.77	4861.29
438.96	4922.15
439.14	4983.00
439.33	5097.69
439.52	5191.31
439.70	5074.28
439.89	5074.28
440.08	5107.05
440.26	5235.78
440.45	5294.29
440.63	5336.42
440.82	5441.75
441.01	5371.53
441.19	5488.56
441.38	5533.03
441.57	5619.63
441.75	5383.23
441.94	5556.43
442.12	5575.16
442.31	5533.03
442.50	5650.05
442.68	5781.12
442.87	5792.83
443.05	5687.50
443.24	5813.89
443.43	5968.37
443.61	5884.11
443.80	5963.68
443.98	5736.65
444.17	5544.73
444.35	5715.59
444.54	5937.94
444.73	5816.23
444.91	5839.64
445.10	5818.57
445.28	5696.86
445.47	5746.02
445.65	5792.83
445.84	5827.93
446.02	6099.44
446.21	6099.44
446.39	5935.60
446.58	6005.81
446.77	5963.68
446.95	5937.94
447.14	5884.11
447.32	6043.26
447.51	6005.81
447.69	6073.69
447.88	5982.41
448.06	5916.87
448.25	5973.05
448.43	6132.20
448.62	6099.44
448.80	5991.77
448.99	6150.93
449.17	6160.29
449.36	5982.41
449.54	6333.49
449.73	6272.64
449.91	6431.79
450.10	6317.11
450.28	6450.52
450.46	6462.22
450.65	6544.14
450.83	6443.49
451.02	6513.71
451.20	6560.52
451.39	6466.90
451.57	6483.28
451.76	6478.60
451.94	6403.71
452.13	6553.50
452.31	6661.16
452.49	6296.04
452.68	6345.19
452.86	6455.20
453.05	6401.37
453.23	6576.91
453.42	6579.25
453.60	6623.72
453.78	6607.33
453.97	6490.31
454.15	6457.54
454.34	6691.59
454.52	6815.64
454.70	6813.30
454.89	6829.68
455.07	6670.53
455.26	6810.96
455.44	6792.23
455.62	6843.73
455.81	7042.67
455.99	7098.84
456.17	7143.32
456.36	7028.63
456.54	7105.87
456.73	7148.00
456.91	7243.96
457.09	7232.26
457.28	7396.09
457.46	7311.83
457.64	7241.62
457.83	7232.26
458.01	7239.28
458.19	7246.30
458.38	7595.04
458.56	7494.40
458.74	7545.89
458.93	7410.14
459.11	7463.97
459.29	7588.02
459.48	7583.34
459.66	7431.20
459.84	7721.43
460.03	7817.39
460.21	7864.20
460.39	7770.58
460.57	7676.96
460.76	7501.42
460.94	7859.52
461.12	7763.56
461.31	7768.24
461.49	7674.62
461.67	7833.77
461.85	7983.57
462.04	7866.54
462.22	8154.43
462.40	8081.87
462.59	8119.32
462.77	7892.29
462.95	7903.99
463.13	8138.04
463.32	8114.64
463.50	8248.05
463.68	8149.75
463.86	8060.80
464.05	7833.77
464.23	8177.83
464.41	8131.02
464.59	8063.15
464.78	8360.39
464.96	8264.43
465.14	8292.52
465.32	8435.29
465.50	8257.41
465.69	8461.04
465.87	8395.50
466.05	8521.89
466.23	8329.97
466.41	8552.32
466.60	8711.47
466.78	8194.22
466.96	8472.74
467.14	8615.51
467.32	8500.83
467.51	8582.74
467.69	8409.54
467.87	8278.47
468.05	8777.01
468.23	8620.19
468.41	8500.83
468.60	8601.47
468.78	8606.15
468.96	8603.81
469.14	9001.70
469.32	8940.85
469.50	8784.03
469.69	8725.52
469.87	9125.75
470.05	8929.14
470.23	8954.89
470.41	8954.89
470.59	9170.22
470.77	8980.64
470.95	9095.32
471.14	9226.39
471.32	8802.75
471.50	9334.06
471.68	9165.54
471.86	9507.26
472.04	9312.99
472.22	9364.48
472.40	9383.21
472.58	9544.70
472.77	9420.66
472.95	9596.20
473.13	9811.53
473.31	9619.60
473.49	9640.67
473.67	9682.80
473.85	9745.99
474.03	9954.30
474.21	10101.75
474.39	10120.48
474.57	10022.17
474.75	10267.93
474.93	10148.56
475.12	10022.17
475.30	10246.87
475.48	10291.34
475.66	10413.04
475.84	10310.06
476.02	10516.03
476.20	10471.56
476.38	10609.65
476.56	10773.49
476.74	10588.58
476.92	10832.00
477.10	10586.24
477.28	10951.37
477.46	11000.52
477.64	11185.42
477.82	11424.15
478.00	11482.67
478.18	11459.26
478.36	11265.00
478.54	11393.73
478.72	11719.06
478.90	11543.52
479.08	11868.86
479.26	12037.38
479.44	11988.22
479.62	12217.60
479.80	12166.10
479.98	12304.20
480.16	12430.59
480.34	12025.67
480.52	12409.52
480.70	12772.30
480.88	12442.29
481.06	12566.34
481.24	12674.00
481.41	12732.51
481.59	12980.61
481.77	13317.65
481.95	13107.00
482.13	13245.09
482.31	13261.48
482.49	13619.58
482.67	13525.96
482.85	13650.00
483.03	13830.23
483.21	13818.52
483.39	14101.73
483.57	14260.88
483.74	14167.26
483.92	14539.41
484.10	14190.67
484.28	14410.68
484.46	14827.29
484.64	14911.55
484.82	14731.33
485.00	14785.16
485.18	15208.80
485.35	15314.13
485.53	15367.96
485.71	14916.23
485.89	15358.60
486.07	15077.73
486.25	15358.60
486.43	15714.36
486.61	15889.90
486.78	15864.15
486.96	16053.73
487.14	16168.42
487.32	16313.53
487.50	16484.39
487.68	16685.68
487.85	16891.65
488.03	16865.90
488.21	16929.09
488.39	17074.21
488.57	17090.59
488.75	17422.95
488.92	17444.01
489.10	18015.10
489.28	17743.60
489.46	17778.71
489.64	17757.64
489.81	18541.72
489.99	18501.93
490.17	18455.12
490.35	18471.51
490.53	18553.43
490.70	18750.03
490.88	18621.30
491.06	19040.26
491.24	18932.59
491.41	19159.63
491.59	19332.82
491.77	19173.67
491.95	19686.25
492.13	20032.65
492.30	19896.89
492.48	19927.32
492.66	19800.93
492.84	20088.82
493.01	20262.02
493.19	20542.88
493.37	20269.04
493.54	20652.89
493.72	20776.94
493.90	20631.82
494.08	20919.71
494.25	21200.57
494.43	21233.34
494.61	21495.48
494.79	21158.44
494.96	21441.65
495.14	21823.16
495.32	21851.24
495.49	21930.82
495.67	21689.74
495.85	22155.51
496.02	22281.90
496.20	22366.16
496.38	22441.06
496.55	22520.63
496.73	22946.61
496.91	23070.66
497.09	23080.02
497.26	23236.84
497.44	23136.20
497.62	23056.62
497.79	23690.90
497.97	23115.13
498.14	23660.48
498.32	23538.77
498.50	23955.38
498.67	24168.37
498.85	23821.97
499.03	24222.20
499.20	24212.84
499.38	24374.34
499.56	24402.43
499.73	24257.31
499.91	24362.64
500.08	24313.48
500.26	24603.71
500.44	24563.92
500.61	24898.62
500.79	24645.84
500.97	24961.81
501.14	25006.28
501.32	24922.02
501.49	25340.98
501.67	25284.81
501.84	25378.43
502.02	25472.05
502.20	25783.34
502.37	26019.74
502.55	25771.64
502.72	25378.43
502.90	25818.45
503.07	26045.48
503.25	25869.94
503.43	25949.52
503.60	26434.01
503.78	26450.39
503.95	26354.43
504.13	26380.18
504.30	26689.13
504.48	26373.16
504.65	26738.28
504.83	26740.62
505.01	26934.88
505.18	27051.91
505.36	27304.69
505.53	27274.26
505.71	27335.12
505.88	27391.29
506.06	27229.79
506.23	27426.40
506.41	27431.08
506.58	27915.57
506.76	27917.91
506.93	27800.88
507.11	27711.94
507.28	27810.25
507.46	28140.26
507.63	28362.61
507.81	28130.90
507.98	27992.81
508.16	27936.63
508.33	28353.25
508.50	28823.70
508.68	28608.37
508.85	28964.13
509.03	28926.68
509.20	28882.21
509.38	29139.67
509.55	29144.35
509.73	29039.03
509.90	29355.00
510.08	29022.64
510.25	29345.64
510.42	29240.31
510.60	29514.16
510.77	29696.72
510.95	29603.10
511.12	29460.32
511.30	29359.68
511.47	29949.50
511.64	30258.45
511.82	30319.30
511.99	29638.20
512.17	29883.96
512.34	30003.33
512.51	30169.51
512.69	30501.86
512.86	30572.08
513.04	30555.69
513.21	30658.68
513.38	30827.20
513.56	31002.74
513.73	30712.51
513.90	30906.77
514.08	30876.35
514.25	31234.45
514.43	30927.84
514.60	30969.97
514.77	31110.40
514.95	31349.14
515.12	31826.60
515.29	31330.41
515.47	31941.29
515.64	31908.52
515.81	31470.84
515.99	31398.29
516.16	31941.29
516.33	31358.50
516.51	31742.35
516.68	31316.37
516.85	31431.05
517.03	31356.16
517.20	32095.77
517.37	32081.72
517.54	32460.89
517.72	32170.66
517.89	32037.25
518.06	32004.49
518.24	32133.21
518.41	32584.94
518.58	32603.66
518.75	32594.30
518.93	32575.58
519.10	32694.94
519.27	32790.91
519.45	33181.77
519.62	32929.00
519.79	33125.60
519.96	33177.09
520.14	33277.74
520.31	32996.87
520.48	33078.79
520.65	33404.13
520.83	33352.63
521.00	33752.87
521.17	33701.37
521.34	34068.84
521.52	33926.07
521.69	34146.08
521.86	33921.38
522.03	33848.83
522.20	34433.96
522.38	34211.61
522.55	34300.55
522.72	34328.64
522.89	34272.46
523.07	34855.26
523.24	33956.49
523.41	34115.65
523.58	34614.18
523.75	34726.53
523.92	35086.97
524.10	34735.89
524.27	35103.35
524.44	35065.91
524.61	35164.21
524.78	34995.69
524.96	35318.68
525.13	35154.85
525.30	35267.19
525.47	35171.23
525.64	35079.95
525.81	35571.46
525.98	35358.47
526.16	35384.22
526.33	35475.50
526.50	35372.52
526.67	35000.37
526.84	35250.81
527.01	35470.82
527.18	35786.79
527.36	36135.53
527.53	36175.32
527.70	36474.91
527.87	36297.03
528.04	36004.46
528.21	36332.14
528.38	36175.32
528.55	36547.47
528.72	36240.86
528.89	36374.27
529.07	36081.70
529.24	35948.29
529.41	36510.02
529.58	36519.38
529.75	36540.44
529.92	37090.47
530.09	36662.15
530.26	36730.03
530.43	37090.47
530.60	36676.19
530.77	37298.78
530.94	37090.47
531.11	36697.26
531.28	37041.32
531.46	37387.72
531.63	36957.06
531.80	36987.49
531.97	37223.88
532.14	36987.49
532.31	37060.04
532.48	37394.74
532.65	37574.96
532.82	37249.63
532.99	37860.51
533.16	37263.67
533.33	37783.27
533.50	37764.54
533.67	37883.91
533.84	37296.44
534.01	38302.87
534.18	37406.44
534.35	38541.60
534.52	37912.00
534.69	38045.41
534.86	37879.23
535.03	38199.88
535.20	38349.68
535.37	38492.45
535.54	38557.99
535.71	38466.70
535.88	38382.45
536.05	38384.79
536.22	38813.10
536.38	38455.00
536.55	38298.19
536.72	38705.44
536.89	38703.10
537.06	38569.69
537.23	38866.94
537.40	38401.17
537.57	38667.99
537.74	39182.91
537.91	39033.11
538.08	38836.51
538.25	38864.60
538.42	38298.19
538.59	38995.67
538.75	38625.86
538.92	39374.83
539.09	39337.38
539.26	39512.92
539.43	39332.70
539.60	39292.91
539.77	39344.41
539.94	39208.65
540.11	38939.49
540.28	39688.46
540.44	39423.98
540.61	39796.13
540.78	39538.67
540.95	39285.89
541.12	38770.97
541.29	39213.34
541.46	39482.50
541.62	39732.93
541.79	39901.45
541.96	39480.16
542.13	39625.27
542.30	39838.26
542.47	39931.88
542.63	40030.18
542.80	39634.63
542.97	40390.62
543.14	40648.08
543.31	40442.12
543.48	40285.30
543.64	41153.64
543.81	40638.72
543.98	40811.92
544.15	40879.80
544.32	40526.38
544.48	40809.58
544.65	40519.35
544.82	40849.37
544.99	40435.10
545.16	41184.07
545.32	40790.86
545.49	41294.07
545.66	41184.07
545.83	41249.60
546.00	41401.74
546.16	41244.92
546.33	40568.51
546.50	41029.59
546.67	41254.28
546.83	40694.89
547.00	41170.02
547.17	41120.87
547.34	40884.48
547.50	41698.98
547.67	41607.70
547.84	41188.75
548.00	41553.87
548.17	41764.52
548.34	41495.36
548.51	41881.55
548.67	42146.03
548.84	41741.11
549.01	41720.05
549.18	41614.72
549.34	41350.24
549.51	41610.04
549.68	42059.43
549.84	41797.29
550.01	41759.84
550.18	41560.89
550.34	41916.65
550.51	41853.46
550.68	41984.53
550.84	41612.38
551.01	42092.19
551.18	41975.17
551.34	42040.70
551.51	41926.02
551.68	42422.21
551.84	42401.14
552.01	42237.31
552.18	42115.60
552.34	41949.42
552.51	42122.62
552.68	41823.03
552.84	42848.19
553.01	41975.17
553.18	42368.38
553.34	42651.58
553.51	42281.78
553.67	42150.71
553.84	42951.17
554.01	42649.24
554.17	42602.43
554.34	42799.04
554.51	42782.65
554.67	42700.73
554.84	42384.76
555.00	42679.67
555.17	42686.69
555.33	42368.38
555.50	42532.22
555.67	42483.06
555.83	42824.78
556.00	42904.36
556.16	43091.60
556.33	42593.07
556.50	42941.81
556.66	43100.97
556.83	42534.56
556.99	42920.74
557.16	43072.88
557.32	43395.87
557.49	43173.52
557.65	43065.86
557.82	43131.39
557.98	42967.55
558.15	43103.31
558.32	43489.49
558.48	43107.99
558.65	43267.14
558.81	42895.00
558.98	42766.27
559.14	42887.98
559.31	43035.43
559.47	43419.28
559.64	43339.70
559.80	43316.29
559.97	43428.64
560.13	42997.98
560.30	43241.40
560.46	43049.47
560.63	43723.55
560.79	43295.23
560.96	44048.88
561.12	43428.64
561.29	43477.79
561.45	43730.57
561.61	43220.33
561.78	43543.33
561.94	43725.89
562.11	43810.15
562.27	43473.11
562.44	43622.90
562.60	44067.61
562.77	43899.09
562.93	43871.00
563.10	43866.32
563.26	43409.92
563.42	43887.39
563.59	43288.21
563.75	43784.40
563.92	44016.11
564.08	43585.46
564.24	43999.73
564.41	43615.88
564.57	43749.29
564.74	43639.29
564.90	43372.47
565.07	44112.08
565.23	43812.49
565.39	43943.56
565.56	43873.34
565.72	43323.32
565.88	43849.94
566.05	43634.61
566.21	43945.90
566.38	44025.48
566.54	44086.33
566.70	44133.14
566.87	43973.98
567.03	43791.42
567.19	44605.93
567.36	43814.83
567.52	43880.36
567.68	44189.31
567.85	44144.84
568.01	44334.43
568.17	44229.10
568.34	44053.56
568.50	44002.07
568.66	43871.00
568.83	43906.11
568.99	43538.65
569.15	43693.12
569.32	43901.43
569.48	44060.58
569.64	44091.01
569.81	43955.26
569.97	44140.16
570.13	44659.76
570.30	44023.14
570.46	44245.49
570.62	44018.46
570.78	43796.10
570.95	44308.68
571.11	44203.36
571.27	43641.63
571.43	44301.66
571.60	43714.19
571.76	44397.62
571.92	44456.14
572.09	43955.26
572.25	44507.63
572.41	44041.86
572.57	44655.08
572.74	44741.68
572.90	44339.11
573.06	44325.07
573.22	44217.40
573.38	44109.74
573.55	44313.36
573.71	44004.41
573.87	44296.98
574.03	44095.69
574.20	44533.37
574.36	44196.34
574.52	44311.02
574.68	44378.90
574.84	44617.63
575.01	44215.06
575.17	44264.21
575.33	44184.63
575.49	43988.03
575.65	44502.95
575.82	44404.64
575.98	44395.28
576.14	44301.66
576.30	44327.41
576.46	44076.97
576.62	44257.19
576.79	44650.40
576.95	43969.30
577.11	44126.12
577.27	44385.92
577.43	44259.53
577.59	43906.11
577.75	44051.22
577.92	44605.93
578.08	44350.81
578.24	44011.43
578.40	44252.51
578.56	44294.64
578.72	44222.08
578.88	44554.44
579.04	44966.37
579.21	44432.73
579.37	44573.16
579.53	44575.50
579.69	44189.31
579.85	44657.42
580.01	44495.92
580.17	44329.75
580.33	44549.76
580.49	44531.03
580.65	44713.59
580.82	44636.36
580.98	44409.32
581.14	44570.82
581.30	44903.18
581.46	44608.27
581.62	44856.37
581.78	44322.72
581.94	44727.64
582.10	44556.78
582.26	44554.44
582.42	44673.81
582.58	44617.63
582.74	44163.57
582.90	44308.68
583.06	44849.35
583.22	44713.59
583.38	45092.76
583.54	44701.89
583.70	44524.01
583.86	44758.06
584.02	44460.82
584.18	44643.38
584.34	44390.60
584.50	44486.56
584.66	44144.84
584.82	44816.58
584.98	44554.44
585.14	44961.69
585.30	44814.24
585.46	44669.12
585.62	44465.50
585.78	44397.62
585.94	44172.93
586.10	44378.90
586.26	44626.99
586.42	44652.74
586.58	44477.20
586.74	44641.04
586.90	44683.17
587.06	44257.19
587.22	44889.13
587.38	44404.64
587.54	44680.83
587.70	44858.71
587.86	45015.52
588.02	44760.40
588.18	44875.09
588.34	44552.10
588.49	44151.87
588.65	44236.12
588.81	44306.34
588.97	44343.79
589.13	44465.50
589.29	44299.32
589.45	44634.02
589.61	44472.52
589.77	44797.85
589.93	44636.36
590.08	44727.64
590.24	44921.90
