SpectraSuite Data File
++++++++++++++++++++++++++++++++++++
Date: Fri Oct 25 11:26:41 EDT 2013
User: price-jones
Dark Spectrum Present: No
Reference Spectrum Present: No
Number of Sampled Component Spectra: 1
Spectrometers: USB2+H05261
Integration Time (usec): 100000 (USB2+H05261)
Spectra Averaged: 1 (USB2+H05261)
Boxcar Smoothing: 0 (USB2+H05261)
Correct for Electrical Dark: No (USB2+H05261)
Strobe/Lamp Enabled: No (USB2+H05261)
Correct for Detector Non-linearity: No (USB2+H05261)
Correct for Stray Light: No (USB2+H05261)
Number of Pixels in Processed Spectrum: 2048
>>>>>Begin Processed Spectral Data<<<<<
365.73	245.76
365.92	245.76
366.12	245.76
366.32	236.39
366.52	114.69
366.72	208.31
366.91	168.52
367.11	105.32
367.31	168.52
367.51	189.58
367.70	128.73
367.90	117.03
368.10	74.90
368.30	166.18
368.49	124.05
368.69	189.58
368.89	133.41
369.09	100.64
369.28	184.90
369.48	194.26
369.68	196.60
369.87	257.46
370.07	229.37
370.27	264.48
370.47	337.04
370.66	648.33
370.86	641.31
371.06	758.33
371.25	685.78
371.45	643.65
371.65	641.31
371.84	720.88
372.04	734.93
372.24	791.10
372.44	657.69
372.63	770.04
372.83	765.36
373.03	767.70
373.22	798.12
373.42	807.48
373.62	800.46
373.81	863.66
374.01	777.06
374.21	833.23
374.40	837.91
374.60	835.57
374.79	884.72
374.99	896.43
375.19	882.38
375.38	777.06
375.58	882.38
375.78	854.30
375.97	882.38
376.17	961.96
376.37	830.89
376.56	861.32
376.76	840.25
376.95	973.66
377.15	898.77
377.35	926.85
377.54	952.60
377.74	912.81
377.93	898.77
378.13	891.74
378.33	919.83
378.52	992.39
378.72	945.58
378.91	943.24
379.11	943.24
379.31	980.68
379.50	896.43
379.70	1013.45
379.89	950.26
380.09	994.73
380.28	999.41
380.48	1039.20
380.68	971.32
380.87	1006.43
381.07	1011.11
381.26	1107.07
381.46	999.41
381.65	1062.60
381.85	1062.60
382.04	1027.50
382.24	1039.20
382.43	1078.99
382.63	1041.54
382.83	1123.46
383.02	1050.90
383.22	1111.75
383.41	1095.37
383.61	1137.50
383.80	1153.88
384.00	1205.38
384.19	1135.16
384.39	1231.12
384.58	1137.50
384.78	1212.40
384.97	1214.74
385.17	1144.52
385.36	1205.38
385.56	1156.22
385.75	1153.88
385.95	1188.99
386.14	1163.25
386.34	1100.05
386.53	1238.14
386.72	1345.81
386.92	1233.46
387.11	1263.89
387.31	1273.25
387.50	1172.61
387.70	1270.91
387.89	1235.80
388.09	1310.70
388.28	1301.34
388.48	1273.25
388.67	1306.02
388.86	1247.51
389.06	1348.15
389.25	1284.95
389.45	1355.17
389.64	1385.60
389.84	1399.64
390.03	1448.79
390.22	1437.09
390.42	1341.13
390.61	1488.58
390.81	1434.75
391.00	1380.92
391.19	1490.92
391.39	1500.28
391.58	1479.22
391.78	1472.20
391.97	1542.41
392.16	1420.71
392.36	1453.47
392.55	1509.65
392.75	1483.90
392.94	1516.67
393.13	1528.37
393.33	1502.62
393.52	1582.20
393.71	1591.56
393.91	1593.90
394.10	1544.75
394.29	1596.25
394.49	1654.76
394.68	1717.95
394.88	1619.65
395.07	1680.50
395.26	1671.14
395.46	1710.93
395.65	1680.50
395.84	1678.16
396.04	1753.06
396.23	1760.08
396.42	1757.74
396.62	1809.23
396.81	1888.81
397.00	1790.51
397.19	1809.23
397.39	1909.88
397.58	1715.61
397.77	1788.17
397.97	1872.43
398.16	1788.17
398.35	1937.96
398.55	1898.17
398.74	1966.05
398.93	1994.14
399.12	1916.90
399.32	1919.24
399.51	1987.11
399.70	2019.88
399.90	2069.03
400.09	2059.67
400.28	2113.50
400.47	2090.10
400.67	2069.03
400.86	2108.82
401.05	2136.91
401.24	2083.08
401.44	2146.27
401.63	2113.50
401.82	2157.97
402.01	2136.91
402.21	2122.87
402.40	2256.28
402.59	2249.25
402.78	2239.89
402.97	2246.91
403.17	2359.26
403.36	2263.30
403.55	2251.60
403.74	2452.88
403.93	2324.15
404.13	2303.09
404.32	2420.11
404.51	2382.67
404.70	2424.80
404.89	2506.71
405.09	2562.89
405.28	2506.71
405.47	2396.71
405.66	2523.10
405.85	2590.97
406.05	2490.33
406.24	2654.17
406.43	2579.27
406.62	2560.55
406.81	2689.28
407.00	2544.16
407.20	2567.57
407.39	2621.40
407.58	2715.02
407.77	2696.30
407.96	2871.84
408.15	2825.03
408.34	2696.30
408.54	2862.48
408.73	2724.38
408.92	2841.41
409.11	2925.67
409.30	3012.27
409.49	2920.99
409.68	3002.91
409.87	2937.37
410.07	3052.06
410.26	2995.89
410.45	3080.14
410.64	3077.80
410.83	3023.97
411.02	3164.40
411.21	3206.53
411.40	3112.91
411.59	3311.86
411.78	3183.13
411.98	3187.81
412.17	3393.78
412.36	3384.41
412.55	3382.07
412.74	3410.16
412.93	3403.14
413.12	3459.31
413.31	3541.23
413.50	3529.53
413.69	3445.27
413.88	3562.30
414.07	3604.42
414.26	3611.45
414.45	3779.97
414.64	3712.09
414.83	3801.03
415.02	3775.28
415.22	3819.75
415.41	3861.88
415.60	3957.85
415.79	3948.48
415.98	4065.51
416.17	4030.40
416.36	3946.14
416.55	3964.87
416.74	4063.17
416.93	4011.68
417.12	4093.60
417.31	4194.24
417.50	4234.03
417.69	4348.72
417.88	4212.96
418.07	4376.80
418.26	4386.16
418.45	4322.97
418.64	4578.09
418.83	4531.28
419.02	4496.17
419.21	4592.13
419.39	4470.42
419.58	4456.38
419.77	4599.15
419.96	4718.52
420.15	4695.11
420.34	4692.77
420.53	4777.03
420.72	4767.67
420.91	4657.67
421.10	4802.78
421.29	4802.78
421.48	4629.58
421.67	4805.12
421.86	4723.20
422.05	4777.03
422.24	4936.19
422.43	4933.85
422.61	4990.02
422.80	4938.53
422.99	4819.16
423.18	5013.43
423.37	5050.88
423.56	4952.57
423.75	4924.49
423.94	4910.44
424.13	4606.17
424.32	4844.91
424.50	5116.41
424.69	5116.41
424.88	5036.83
425.07	5036.83
425.26	4842.57
425.45	4978.32
425.64	4891.72
425.83	4992.36
426.01	5053.22
426.20	5013.43
426.39	5186.63
426.58	5151.52
426.77	4990.02
426.96	5252.16
427.15	5221.74
427.33	5254.50
427.52	5179.61
427.71	5320.04
427.90	5350.46
428.09	5390.25
428.28	5373.87
428.46	5277.91
428.65	5397.28
428.84	5568.13
429.03	5474.51
429.22	5425.36
429.40	5441.75
429.59	5514.30
429.78	5411.32
429.97	5329.40
430.16	5387.91
430.34	5713.25
430.53	5764.74
430.72	5818.57
430.91	5776.44
431.10	5757.72
431.28	5879.43
431.47	5825.59
431.66	5820.91
431.85	5870.06
432.03	6036.24
432.22	5944.96
432.41	6083.05
432.60	5973.05
432.79	5956.66
432.97	6207.10
433.16	6211.78
433.35	6083.05
433.54	6216.46
433.72	6099.44
433.91	6120.50
434.10	6045.60
434.28	6092.41
434.47	6251.57
434.66	6324.13
434.85	6497.33
435.03	6392.00
435.22	6237.53
435.41	6478.60
435.59	6518.39
435.78	6579.25
435.97	6532.44
436.16	6516.05
436.34	6527.75
436.53	6555.84
436.72	6729.04
436.90	6600.31
437.09	6684.57
437.28	6415.41
437.46	6733.72
437.65	6682.23
437.84	6731.38
438.02	6722.02
438.21	6904.58
438.40	6663.51
438.58	6750.10
438.77	7037.99
438.96	6932.67
439.14	7035.65
439.33	7183.10
439.52	7272.04
439.70	7337.58
439.89	7461.63
440.08	7349.28
440.26	7335.24
440.45	7531.84
440.63	7641.85
440.82	7805.69
441.01	7573.97
441.19	7625.47
441.38	7691.00
441.57	7847.82
441.75	7901.65
441.94	7864.20
442.12	8030.38
442.31	8016.33
442.50	8098.25
442.68	8032.72
442.87	7962.50
443.05	8299.54
443.24	8208.26
443.43	8191.88
443.61	8334.65
443.80	8456.36
443.98	8189.53
444.17	7995.27
444.35	8306.56
444.54	8407.20
444.73	8292.52
444.91	8390.82
445.10	8404.86
445.28	8173.15
445.47	8374.44
445.65	8432.95
445.84	8589.77
446.02	8491.46
446.21	8409.54
446.39	8400.18
446.58	8603.81
446.77	8561.68
446.95	8198.90
447.14	8681.05
447.32	8617.85
447.51	8472.74
447.69	8432.95
447.88	8683.39
448.06	8685.73
448.25	8638.92
448.43	8617.85
448.62	8655.30
448.80	8683.39
448.99	8788.71
449.17	8896.38
449.36	8706.79
449.54	8851.91
449.73	8861.27
449.91	9008.72
450.10	9193.62
450.28	9081.28
450.46	9174.90
450.65	9146.81
450.83	9118.73
451.02	9172.56
451.20	9280.22
451.39	9273.20
451.57	9282.56
451.76	8959.57
451.94	9298.95
452.13	9493.21
452.31	9493.21
452.49	9172.56
452.68	9423.00
452.86	9352.78
453.05	9458.10
453.23	9551.73
453.42	9537.68
453.60	9420.66
453.78	9673.43
453.97	9542.36
454.15	9762.37
454.34	9731.95
454.52	9811.53
454.70	9783.44
454.89	9720.24
455.07	9928.55
455.26	10066.64
455.44	9980.04
455.62	9809.19
455.81	10141.54
455.99	10064.30
456.17	10017.49
456.36	10162.61
456.54	10061.96
456.73	10305.38
456.91	10509.01
457.09	10574.54
457.28	10511.35
457.46	10441.13
457.64	10689.23
457.83	10647.10
458.01	10569.86
458.19	10803.91
458.38	10546.45
458.56	10693.91
458.74	10810.93
458.93	10871.79
459.11	10743.06
459.29	10750.08
459.48	10932.64
459.66	10593.26
459.84	10937.32
460.03	11112.86
460.21	10953.71
460.39	11021.58
460.57	11117.54
460.76	11094.14
460.94	11417.13
461.12	11304.79
461.31	11147.97
461.49	11332.87
461.67	11307.13
461.85	11768.21
462.04	11552.88
462.22	11597.35
462.40	11800.98
462.59	11646.51
462.77	11501.39
462.95	11901.62
463.13	11702.68
463.32	11620.76
463.50	11962.48
463.68	11857.15
463.86	11833.75
464.05	11686.29
464.23	11861.84
464.41	11892.26
464.59	11733.11
464.78	12219.94
464.96	12077.16
465.14	11850.13
465.32	12304.20
465.50	12241.00
465.69	12182.49
465.87	12533.57
466.05	12116.95
466.23	12280.79
466.41	12329.94
466.60	12315.90
466.78	12353.35
466.96	12236.32
467.14	12294.83
467.32	12453.99
467.51	12622.51
467.69	12498.46
467.87	12528.89
468.05	12699.75
468.23	12575.70
468.41	12800.39
468.60	12683.36
468.78	12950.18
468.96	12521.87
469.14	12699.75
469.32	12905.71
469.50	12669.32
469.69	13088.28
469.87	13069.55
470.05	13397.23
470.23	13240.41
470.41	13362.12
470.59	13483.83
470.77	13305.95
470.95	13549.36
471.14	13748.31
471.32	13329.35
471.50	13717.88
471.68	13668.73
471.86	14033.85
472.04	13818.52
472.22	14377.91
472.40	13720.22
472.58	13942.57
472.77	14094.71
472.95	14216.41
473.13	14595.58
473.31	14059.60
473.49	14501.96
473.67	14195.35
473.85	14335.78
474.03	14684.52
474.21	14738.35
474.39	15042.62
474.57	14764.10
474.75	15157.31
474.93	15019.22
475.12	15077.73
475.30	15183.06
475.48	14967.73
475.66	15346.89
475.84	15026.24
476.02	15592.65
476.20	15302.42
476.38	15679.25
476.56	16109.91
476.74	15906.28
476.92	15915.64
477.10	16081.82
477.28	16304.17
477.46	16355.66
477.64	16379.07
477.82	16793.34
478.00	17125.70
478.18	16886.97
478.36	16931.44
478.54	17486.14
478.72	17469.76
478.90	17434.65
479.08	17830.20
479.26	18010.42
479.44	17858.29
479.62	18148.51
479.80	18047.87
479.98	18686.84
480.16	18569.81
480.34	18352.14
480.52	18862.38
480.70	18747.69
480.88	18553.43
481.06	18785.14
481.24	19183.03
481.41	19276.65
481.59	19311.76
481.77	19723.69
481.95	19515.39
482.13	19775.19
482.31	19807.95
482.49	20128.61
482.67	20388.41
482.85	20556.93
483.03	20680.97
483.21	21071.84
483.39	21090.57
483.57	20678.63
483.74	21191.21
483.92	21336.32
484.10	21556.33
484.28	21912.10
484.46	22218.71
484.64	22654.05
484.82	22001.04
485.00	22705.54
485.18	23058.96
485.35	22951.29
485.53	22941.93
485.71	22841.29
485.89	23824.31
486.07	23819.63
486.25	23597.28
486.43	23812.61
486.61	24170.71
486.78	24479.66
486.96	24451.58
487.14	25158.42
487.32	24910.32
487.50	24931.39
487.68	25034.37
487.85	25324.60
488.03	25467.37
488.21	26005.69
488.39	26160.17
488.57	26052.50
488.75	26366.13
488.92	26621.25
489.10	26178.89
489.28	27145.53
489.46	27660.45
489.64	26881.05
489.81	27931.95
489.99	27885.14
490.17	27688.54
490.35	28226.86
490.53	28322.82
490.70	28652.84
490.88	28395.38
491.06	28966.47
491.24	28809.65
491.41	29385.43
491.59	29301.17
491.77	29226.27
491.95	29919.07
492.13	29921.41
492.30	30108.65
492.48	30036.09
492.66	30347.39
492.84	30635.27
493.01	31414.67
493.19	30672.72
493.37	31281.26
493.54	31583.19
493.72	31421.69
493.90	31821.92
494.08	31988.10
494.25	32229.18
494.43	32650.47
494.61	32631.75
494.79	32842.40
494.96	32624.73
495.14	32929.00
495.32	33186.46
495.49	33443.91
495.67	33638.18
495.85	33589.03
496.02	33989.26
496.20	34405.88
496.38	34431.62
496.55	34270.12
496.73	35250.81
496.91	34499.50
497.09	34991.01
497.26	35316.34
497.44	35379.54
497.62	35646.36
497.79	36051.27
497.97	35627.63
498.14	36053.61
498.32	36533.42
498.50	36070.00
498.67	36673.85
498.85	36676.19
499.03	36912.59
499.20	36631.72
499.38	37177.07
499.56	37125.58
499.73	37549.21
499.91	37439.21
500.08	38022.00
500.26	37668.58
500.44	38078.18
500.61	37930.72
500.79	37923.70
500.97	38136.69
501.14	38892.68
501.32	38188.18
501.49	38871.62
501.67	39171.21
501.84	39215.68
502.02	39187.59
502.20	39215.68
502.37	39246.10
502.55	39199.29
502.72	39864.00
502.90	39807.83
503.07	39793.79
503.25	40554.46
503.43	40088.70
503.60	40219.77
503.78	40376.58
503.95	40444.46
504.13	40818.94
504.30	40886.82
504.48	41027.25
504.65	41237.90
504.83	41380.67
505.01	41457.91
505.18	41223.86
505.36	41799.63
505.53	41457.91
505.71	41858.14
505.88	42050.06
506.06	41698.98
506.23	41954.10
506.41	41930.70
506.58	42188.16
506.76	42014.96
506.93	42777.97
507.11	42450.30
507.28	42831.80
507.46	43086.92
507.63	42855.21
507.81	43686.10
507.98	42995.64
508.16	43337.36
508.33	43735.25
508.50	43681.42
508.68	43613.54
508.85	44341.45
509.03	44268.89
509.20	44449.11
509.38	44807.22
509.55	44168.25
509.73	44575.50
509.90	44825.94
510.08	45092.76
510.25	45048.29
510.42	45097.44
510.60	45048.29
510.77	45460.23
510.95	45806.62
511.12	45488.31
511.30	45216.81
511.47	45432.14
511.64	45209.79
511.82	46059.40
511.99	45715.34
512.17	46499.42
512.34	46284.09
512.51	46733.48
512.69	46398.78
512.86	46337.93
513.04	46981.57
513.21	47175.84
513.38	46995.62
513.56	47030.72
513.73	47019.02
513.90	47309.25
514.08	46866.89
514.25	47299.89
514.43	47646.29
514.60	47803.10
514.77	47477.77
514.95	47915.45
515.12	48128.44
515.29	47938.85
515.47	48367.17
515.64	48107.37
515.81	48170.57
515.99	48205.67
516.16	48413.98
516.33	48563.78
516.51	48830.60
516.68	49022.52
516.85	48636.33
517.03	49160.61
517.20	49076.35
517.37	48947.62
517.54	49162.95
517.72	49020.18
517.89	49401.69
518.06	49261.26
518.24	49350.20
518.41	49422.75
518.58	49752.77
518.75	49652.12
518.93	50021.93
519.10	49478.92
519.27	49914.26
519.45	49907.24
519.62	50391.73
519.79	50354.29
519.96	50230.24
520.14	50202.15
520.31	50377.69
520.48	50745.15
520.65	50782.60
520.83	51246.03
521.00	50539.19
521.17	50836.44
521.34	50808.35
521.52	50796.65
521.69	50763.88
521.86	51047.08
522.03	51604.13
522.20	51547.96
522.38	51526.89
522.55	51587.75
522.72	51749.24
522.89	51679.03
523.07	51873.29
523.24	51592.43
523.41	51758.61
523.58	51583.07
523.75	52046.49
523.92	51828.82
524.10	52364.81
524.27	52528.64
524.44	52355.44
524.61	51866.27
524.78	52264.16
524.96	52203.31
525.13	52310.97
525.30	52690.14
525.47	52760.36
525.64	52500.56
525.81	53064.63
525.98	52750.99
526.16	52573.11
526.33	52699.50
526.50	53448.47
526.67	52893.77
526.84	53284.64
527.01	53120.80
527.18	52982.71
527.36	53116.12
527.53	53144.20
527.70	53523.37
527.87	53565.50
528.04	53418.05
528.21	53712.95
528.38	53535.07
528.55	53647.42
528.72	53633.38
528.89	53579.54
529.07	53626.35
529.24	53436.77
529.41	54026.59
529.58	53954.03
529.75	53825.30
529.92	54073.40
530.09	54225.53
530.26	54099.14
530.43	54302.77
530.60	54000.84
530.77	54106.16
530.94	54372.99
531.11	54183.40
531.28	54398.73
531.46	54417.46
531.63	54490.01
531.80	54604.70
531.97	54569.59
532.14	54639.81
532.31	55058.76
532.48	54649.17
532.65	54983.86
532.82	54733.43
532.99	54958.12
533.16	54890.24
533.33	54892.58
533.50	55089.19
533.67	54831.73
533.84	54955.78
534.01	55051.74
534.18	55037.70
534.35	55447.29
534.52	55049.40
534.69	55416.86
534.86	55370.05
535.03	55117.28
535.20	55470.70
535.37	55435.59
535.54	55304.52
535.71	55393.46
535.88	55669.64
536.05	55320.90
536.22	55599.43
536.38	55868.59
536.55	55592.40
536.72	55880.29
536.89	55559.64
537.06	55800.71
537.23	56109.66
537.40	55845.18
537.57	55873.27
537.74	55819.44
537.91	55992.64
538.08	56163.50
538.25	56086.26
538.42	55863.91
538.59	56332.01
538.75	56158.81
538.92	56381.16
539.09	56409.25
539.26	56523.94
539.43	56165.84
539.60	56343.72
539.77	56456.06
539.94	56589.47
540.11	56193.92
540.28	56486.49
540.44	56570.75
540.61	56449.04
540.78	56699.48
540.95	56647.99
541.12	56718.20
541.29	56533.30
541.46	56860.97
541.62	56591.81
541.79	56931.19
541.96	56486.49
542.13	56645.65
542.30	56680.75
542.47	57020.13
542.63	57092.69
542.80	57106.73
542.97	57607.61
543.14	57354.83
543.31	57230.78
543.48	57258.87
543.64	57595.90
543.81	57481.22
543.98	57497.60
544.15	57270.57
544.32	57462.49
544.48	57879.11
544.65	57530.37
544.82	57598.24
544.99	57382.91
545.16	57874.43
545.32	57499.94
545.49	57656.76
545.66	57799.53
545.83	57677.82
546.00	58080.39
546.16	57771.44
546.33	57982.09
546.50	57675.48
546.67	57858.04
546.83	57457.81
547.00	57869.75
547.17	57963.37
547.34	58082.73
547.50	58148.27
547.67	58269.98
547.84	58145.93
548.00	58183.38
548.17	58389.34
548.34	58204.44
548.51	58298.06
548.67	58440.84
548.84	58047.63
549.01	58337.85
549.18	58216.14
549.34	58286.36
549.51	58255.93
549.68	58548.50
549.84	58368.28
550.01	58618.72
550.18	58489.99
550.34	58656.17
550.51	58623.40
550.68	58564.88
550.84	58351.90
551.01	58756.81
551.18	58649.14
551.34	58562.54
551.51	58560.20
551.68	58691.27
551.84	58695.95
552.01	58642.12
552.18	58782.55
552.34	58754.47
552.51	58911.28
552.68	58592.97
552.84	58609.35
553.01	59194.49
553.18	58827.02
553.34	58965.12
553.51	59079.80
553.67	59028.31
553.84	59283.43
554.01	59089.16
554.17	59107.89
554.34	59231.94
554.51	59278.75
554.67	59243.64
554.84	59370.03
555.00	59224.92
555.17	59217.89
555.33	59089.16
555.50	59044.69
555.67	59210.87
555.83	59297.47
556.00	59157.04
556.16	59365.35
556.33	59524.50
556.50	59402.80
556.66	59449.61
556.83	59063.42
556.99	59428.54
557.16	59629.83
557.32	59494.08
557.49	59695.36
557.65	59503.44
557.82	59461.31
557.98	59388.75
558.15	59700.04
558.32	59674.30
558.48	59613.44
558.65	59660.26
558.81	59793.67
558.98	59650.89
559.14	59681.32
559.31	59695.36
559.47	59821.75
559.64	59896.65
559.80	59840.48
559.97	59840.48
560.13	59821.75
560.30	59739.83
560.46	60011.34
560.63	60191.56
560.79	59927.08
560.96	60065.17
561.12	59796.01
561.29	59906.01
561.45	60046.44
561.61	59913.03
561.78	60210.28
561.94	59964.52
562.11	60156.45
562.27	60048.78
562.44	60336.67
562.60	60219.64
562.77	60142.41
562.93	59952.82
563.10	60343.69
563.26	60044.10
563.42	60200.92
563.59	60254.75
563.75	60032.40
563.92	60261.77
564.08	60128.36
564.24	60142.41
564.41	60287.52
564.57	60299.22
564.74	60126.02
564.90	60154.11
565.07	60285.18
565.23	60257.09
565.39	60339.01
565.56	60348.37
565.72	60313.26
565.88	60331.99
566.05	60341.35
566.21	60343.69
566.38	60081.55
566.54	60231.35
566.70	60610.51
566.87	60371.78
567.03	60336.67
567.19	60582.43
567.36	60537.96
567.52	60357.74
567.68	60959.25
567.85	60526.25
568.01	60474.76
568.17	60500.51
568.34	60470.08
568.50	60331.99
568.66	60519.23
568.83	60636.26
568.99	60425.61
569.15	60425.61
569.32	60488.80
569.48	60418.59
569.64	60673.71
569.81	60449.02
569.97	60495.83
570.13	60629.24
570.30	60320.29
570.46	60519.23
570.62	60430.29
570.78	60631.58
570.95	60617.53
571.11	60619.88
571.27	60566.04
571.43	60722.86
571.60	60701.79
571.76	60816.48
571.92	60727.54
572.09	60764.99
572.25	60757.97
572.41	60767.33
572.57	60512.21
572.74	60804.78
572.90	60846.91
573.06	60729.88
573.22	60643.28
573.38	60769.67
573.55	60783.71
573.71	60975.64
573.87	60877.33
574.03	60816.48
574.20	61080.96
574.36	60659.66
574.52	60956.91
574.68	60874.99
574.84	61010.74
575.01	60858.61
575.17	60814.14
575.33	60891.38
575.49	60678.39
575.65	60818.82
575.82	61020.11
575.98	61080.96
576.14	61010.74
576.30	61031.81
576.46	60804.78
576.62	60732.22
576.79	61003.72
576.95	60952.23
577.11	60891.38
577.27	60996.70
577.43	61111.39
577.59	60947.55
577.75	60898.40
577.92	60851.59
578.08	61087.98
578.24	60949.89
578.40	61038.83
578.56	61202.67
578.72	61029.47
578.88	61155.86
579.04	61116.07
579.21	61015.43
579.37	61120.75
579.53	61050.53
579.69	60961.59
579.85	60783.71
580.01	61029.47
580.17	60987.34
580.33	60968.61
580.49	61167.56
580.65	61109.05
580.82	61038.83
580.98	61010.74
581.14	60865.63
581.30	61179.26
581.46	61080.96
581.62	61015.43
581.78	60882.02
581.94	61158.20
582.10	61099.68
582.26	61109.05
582.42	60910.10
582.58	61015.43
582.74	61099.68
582.90	61066.92
583.06	60980.32
583.22	60804.78
583.38	61146.50
583.54	61104.37
583.70	61078.62
583.86	61006.06
584.02	61174.58
584.18	61130.11
584.34	61153.52
584.50	61270.54
584.66	60912.44
584.82	61141.81
584.98	61279.91
585.14	61240.12
585.30	60872.65
585.46	61120.75
585.62	61200.33
585.78	61254.16
585.94	61036.49
586.10	61144.16
586.26	61071.60
586.42	61228.41
586.58	61270.54
586.74	61181.60
586.90	61226.07
587.06	61146.50
587.22	61256.50
587.38	61176.92
587.54	61319.70
587.70	61237.78
587.86	61186.28
588.02	61233.10
588.18	61340.76
588.34	61038.83
