SpectraSuite Data File
++++++++++++++++++++++++++++++++++++
Date: Fri Oct 25 10:44:37 EDT 2013
User: price-jones
Dark Spectrum Present: No
Reference Spectrum Present: No
Number of Sampled Component Spectra: 1
Spectrometers: USB2+H05261
Integration Time (usec): 100000 (USB2+H05261)
Spectra Averaged: 1 (USB2+H05261)
Boxcar Smoothing: 0 (USB2+H05261)
Correct for Electrical Dark: No (USB2+H05261)
Strobe/Lamp Enabled: No (USB2+H05261)
Correct for Detector Non-linearity: No (USB2+H05261)
Correct for Stray Light: No (USB2+H05261)
Number of Pixels in Processed Spectrum: 2048
>>>>>Begin Processed Spectral Data<<<<<
365.73	102.98
365.92	102.98
366.12	102.98
366.32	42.13
366.52	37.45
366.72	88.94
366.91	18.72
367.11	0.00
367.31	4.68
367.51	58.51
367.70	7.02
367.90	18.72
368.10	0.00
368.30	23.41
368.49	39.79
368.69	107.66
368.89	74.90
369.09	74.90
369.28	102.98
369.48	0.00
369.68	107.66
369.87	114.69
370.07	65.54
370.27	126.39
370.47	142.77
370.66	388.53
370.86	402.57
371.06	416.62
371.25	407.25
371.45	449.38
371.65	463.43
371.84	367.46
372.04	456.40
372.24	486.83
372.44	388.53
372.63	507.90
372.83	423.64
373.03	510.24
373.22	566.41
373.42	388.53
373.62	491.51
373.81	550.03
374.01	486.83
374.21	510.24
374.40	479.81
374.60	519.60
374.79	571.09
374.99	512.58
375.19	538.32
375.38	552.37
375.58	592.16
375.78	505.56
375.97	578.11
376.17	617.90
376.37	571.09
376.56	599.18
376.76	507.90
376.95	526.62
377.15	599.18
377.35	674.07
377.54	575.77
377.74	564.07
377.93	582.79
378.13	650.67
378.33	594.50
378.52	613.22
378.72	653.01
378.91	692.80
379.11	718.54
379.31	601.52
379.50	538.32
379.70	650.67
379.89	692.80
380.09	615.56
380.28	575.77
380.48	578.11
380.68	660.03
380.87	648.33
381.07	627.26
381.26	662.37
381.46	631.94
381.65	688.12
381.85	533.64
382.04	638.97
382.24	706.84
382.43	678.76
382.63	608.54
382.83	683.44
383.02	653.01
383.22	638.97
383.41	643.65
383.61	650.67
383.80	711.52
384.00	718.54
384.19	699.82
384.39	678.76
384.58	627.26
384.78	781.74
384.97	802.80
385.17	727.91
385.36	720.88
385.56	638.97
385.75	688.12
385.95	734.93
386.14	770.04
386.34	755.99
386.53	805.14
386.72	765.36
386.92	709.18
387.11	798.12
387.31	828.55
387.50	823.87
387.70	866.00
387.89	830.89
388.09	805.14
388.28	847.27
388.48	835.57
388.67	844.93
388.86	791.10
389.06	816.85
389.25	854.30
389.45	866.00
389.64	889.40
389.84	849.61
390.03	821.53
390.22	847.27
390.42	868.34
390.61	849.61
390.81	933.87
391.00	1004.09
391.19	882.38
391.39	994.73
391.58	882.38
391.78	938.55
391.97	990.05
392.16	987.71
392.36	987.71
392.55	870.68
392.75	966.64
392.94	985.37
393.13	929.19
393.33	851.96
393.52	1004.09
393.71	983.02
393.91	1064.94
394.10	968.98
394.29	1022.81
394.49	1088.35
394.68	1046.22
394.88	1076.65
395.07	1170.27
395.26	1102.39
395.46	1074.31
395.65	1055.58
395.84	1137.50
396.04	1078.99
396.23	1083.67
396.42	1093.03
396.62	1109.41
396.81	1062.60
397.00	1036.86
397.19	1160.91
397.39	1139.84
397.58	1228.78
397.77	1203.04
397.97	1203.04
398.16	1153.88
398.35	1228.78
398.55	1263.89
398.74	1306.02
398.93	1310.70
399.12	1240.48
399.32	1310.70
399.51	1327.08
399.70	1430.07
399.90	1401.98
400.09	1359.85
400.28	1362.19
400.47	1343.47
400.67	1413.68
400.86	1411.34
401.05	1437.09
401.24	1423.05
401.44	1416.02
401.63	1472.20
401.82	1636.03
402.01	1430.07
402.21	1528.37
402.40	1607.95
402.59	1453.47
402.78	1479.22
402.97	1493.26
403.17	1507.30
403.36	1600.93
403.55	1647.74
403.74	1703.91
403.93	1696.89
404.13	1610.29
404.32	1633.69
404.51	1706.25
404.70	1668.80
404.89	1643.06
405.09	1633.69
405.28	1696.89
405.47	1736.68
405.66	1713.27
405.85	1692.21
406.05	1617.31
406.24	1746.04
406.43	1811.57
406.62	1839.66
406.81	1858.39
407.00	1795.19
407.20	1659.44
407.39	1923.92
407.58	1968.39
407.77	1842.00
407.96	1947.33
408.15	1877.11
408.34	1926.26
408.54	2019.88
408.73	1959.03
408.92	2066.69
409.11	2036.27
409.30	2045.63
409.49	1994.14
409.68	2066.69
409.87	2038.61
410.07	1959.03
410.26	2045.63
410.45	2118.18
410.64	2111.16
410.83	2230.53
411.02	2174.36
411.21	2258.62
411.40	2256.28
411.59	2237.55
411.78	2249.25
411.98	2186.06
412.17	2258.62
412.36	2249.25
412.55	2317.13
412.74	2389.69
412.93	2359.26
413.12	2375.64
413.31	2626.08
413.50	2569.91
413.69	2583.95
413.88	2527.78
414.07	2518.42
414.26	2427.14
414.45	2642.46
414.64	2602.68
414.83	2672.89
415.02	2668.21
415.22	2698.64
415.41	2703.32
415.60	2789.92
415.79	2693.96
415.98	2888.22
416.17	2920.99
416.36	2876.52
416.55	2928.01
416.74	2937.37
416.93	2876.52
417.12	2897.58
417.31	2930.35
417.50	3019.29
417.69	2993.55
417.88	3087.17
418.07	2932.69
418.26	3009.93
418.45	3176.11
418.64	3173.77
418.83	3150.36
419.02	3197.17
419.21	3213.56
419.39	3180.79
419.58	3103.55
419.77	3208.87
419.96	3084.83
420.15	3304.84
420.34	3311.86
420.53	3260.37
420.72	3236.96
420.91	3403.14
421.10	3445.27
421.29	3576.34
421.48	3536.55
421.67	3433.57
421.86	3246.32
422.05	3349.31
422.24	3520.17
422.43	3414.84
422.61	3421.86
422.80	3482.72
422.99	3585.70
423.18	3541.23
423.37	3588.04
423.56	3508.46
423.75	3435.91
423.94	3433.57
424.13	3243.98
424.32	3435.91
424.50	3557.61
424.69	3543.57
424.88	3445.27
425.07	3412.50
425.26	3407.82
425.45	3403.14
425.64	3487.40
425.83	3545.91
426.01	3599.74
426.20	3517.83
426.39	3648.90
426.58	3632.51
426.77	3456.97
426.96	3588.04
427.15	3452.29
427.33	3681.66
427.52	3569.32
427.71	3852.52
427.90	3765.92
428.09	3700.39
428.28	3686.34
428.46	3873.59
428.65	3744.86
428.84	3805.71
429.03	3779.97
429.22	3751.88
429.40	3805.71
429.59	3747.20
429.78	3665.28
429.97	3534.21
430.16	3688.68
430.34	3791.67
430.53	3845.50
430.72	3777.62
430.91	3941.46
431.10	3726.13
431.28	3967.21
431.47	4095.94
431.66	4142.75
431.85	4016.36
432.03	4117.00
432.22	4098.28
432.41	4065.51
432.60	4138.07
432.79	4166.15
432.97	4299.56
433.16	4276.16
433.35	4313.61
433.54	4311.27
433.72	4187.22
433.91	4131.05
434.10	4280.84
434.28	4257.43
434.47	4280.84
434.66	4458.72
434.85	4482.13
435.03	4259.78
435.22	4315.95
435.41	4461.06
435.59	4514.89
435.78	4685.75
435.97	4383.82
436.16	4580.43
436.34	4533.62
436.53	4678.73
436.72	4645.96
436.90	4449.36
437.09	4709.16
437.28	4603.83
437.46	4697.46
437.65	4765.33
437.84	4678.73
438.02	4528.94
438.21	4699.80
438.40	4638.94
438.58	4975.98
438.77	4837.89
438.96	4781.71
439.14	5027.47
439.33	4873.00
439.52	5020.45
439.70	4978.32
439.89	5158.54
440.08	5231.10
440.26	5022.79
440.45	5128.11
440.63	5144.50
440.82	5376.21
441.01	5434.72
441.19	5366.85
441.38	5373.87
441.57	5474.51
441.75	5540.05
441.94	5535.37
442.12	5717.93
442.31	5575.16
442.50	5542.39
442.68	5603.24
442.87	5579.84
443.05	5750.70
443.24	5715.59
443.43	5612.60
443.61	5760.06
443.80	5823.25
443.98	5748.36
444.17	5397.28
444.35	5741.33
444.54	5806.87
444.73	5853.68
444.91	5617.29
445.10	5870.06
445.28	5886.45
445.47	5699.20
445.65	5738.99
445.84	5977.73
446.02	5951.98
446.21	5877.09
446.39	5891.13
446.58	5919.21
446.77	5837.30
446.95	5727.29
447.14	5874.74
447.32	6136.88
447.51	5956.66
447.69	5991.77
447.88	5923.90
448.06	6066.67
448.25	6022.20
448.43	5991.77
448.62	6090.07
448.80	5970.71
448.99	6087.73
449.17	6125.18
449.36	6104.12
449.54	6174.33
449.73	6221.14
449.91	6193.06
450.10	6256.25
450.28	6235.19
450.46	6363.92
450.65	6424.77
450.83	6267.95
451.02	6389.66
451.20	6471.58
451.39	6464.56
451.57	6604.99
451.76	6478.60
451.94	6424.77
452.13	6497.33
452.31	6333.49
452.49	6384.98
452.68	6548.82
452.86	6335.83
453.05	6499.67
453.23	6530.09
453.42	6452.86
453.60	6504.35
453.78	6637.76
453.97	6546.48
454.15	6600.31
454.34	6546.48
454.52	6670.53
454.70	6581.59
454.89	6740.74
455.07	6696.27
455.26	6839.05
455.44	6869.47
455.62	6869.47
455.81	6942.03
455.99	6876.49
456.17	7115.23
456.36	6970.12
456.54	6916.28
456.73	7089.48
456.91	7152.68
457.09	7236.94
457.28	7398.43
457.46	7368.01
457.64	7295.45
457.83	7201.83
458.01	7066.08
458.19	7279.07
458.38	7400.77
458.56	7206.51
458.74	7339.92
458.93	7358.64
459.11	7421.84
459.29	7339.92
459.48	7531.84
459.66	7466.31
459.84	7662.91
460.03	7625.47
460.21	7487.37
460.39	7679.30
460.57	7761.22
460.76	7705.04
460.94	7744.83
461.12	7740.15
461.31	7702.70
461.49	7627.81
461.67	7728.45
461.85	7733.13
462.04	7852.50
462.22	7964.84
462.40	8035.06
462.59	7700.36
462.77	7726.11
462.95	7906.33
463.13	8030.38
463.32	8088.89
463.50	7985.91
463.68	8079.53
463.86	7955.48
464.05	8028.04
464.23	8025.70
464.41	8142.72
464.59	7833.77
464.78	8219.96
464.96	8002.29
465.14	8142.72
465.32	8315.92
465.50	8402.52
465.69	8344.01
465.87	8372.10
466.05	8353.37
466.23	8219.96
466.41	8393.16
466.60	8496.14
466.78	8315.92
466.96	8278.47
467.14	8400.18
467.32	8498.49
467.51	8386.14
467.69	8301.88
467.87	8381.46
468.05	8643.60
468.23	8507.85
468.41	8182.51
468.60	8477.42
468.78	8552.32
468.96	8613.17
469.14	8945.53
469.32	8947.87
469.50	8664.66
469.69	8781.69
469.87	8891.70
470.05	8746.58
470.23	8992.34
470.41	8982.98
470.59	8947.87
470.77	8936.17
470.95	8819.14
471.14	9233.41
471.32	9053.19
471.50	9224.05
471.68	9324.69
471.86	9327.03
472.04	9591.52
472.22	9533.00
472.40	9376.19
472.58	9444.06
472.77	9411.29
472.95	9509.60
473.13	9966.00
473.31	9605.56
473.49	9540.02
473.67	9525.98
473.85	9502.58
474.03	9736.63
474.21	9893.44
474.39	9923.87
474.57	10033.88
474.75	10054.94
474.93	10141.54
475.12	9919.19
475.30	10160.27
475.48	10150.90
475.66	10307.72
475.84	10153.24
476.02	10307.72
476.20	10321.76
476.38	10384.96
476.56	10637.73
476.74	10698.59
476.92	10616.67
477.10	10745.40
477.28	10740.72
477.46	10665.82
477.64	11110.52
477.82	11108.18
478.00	11267.34
478.18	11300.11
478.36	11396.07
478.54	11335.21
478.72	11604.38
478.90	11473.31
479.08	11653.53
479.26	11974.18
479.44	12056.10
479.62	11948.43
479.80	12058.44
479.98	12056.10
480.16	12500.80
480.34	12126.32
480.52	12320.58
480.70	12610.81
480.88	12372.07
481.06	12622.51
481.24	12526.55
481.41	12791.03
481.59	12718.47
481.77	12999.34
481.95	12863.58
482.13	13282.54
482.31	12943.16
482.49	13448.72
482.67	13394.89
482.85	13488.51
483.03	13755.33
483.21	13731.92
483.39	13848.95
483.57	13834.91
483.74	14106.41
483.92	14246.84
484.10	14099.39
484.28	14366.21
484.46	14661.12
484.64	14831.97
484.82	14541.75
485.00	14803.89
485.18	15068.37
485.35	15030.92
485.53	14956.02
485.71	14909.21
485.89	15068.37
486.07	15255.61
486.25	15218.16
486.43	15564.56
486.61	15697.97
486.78	15580.95
486.96	16046.71
487.14	16177.78
487.32	16072.46
487.50	16215.23
487.68	16388.43
487.85	16739.51
488.03	16819.09
488.21	17029.74
488.39	16767.60
488.57	16861.22
488.75	17315.28
488.92	17149.11
489.10	17509.55
489.28	17521.25
489.46	17755.30
489.64	18178.94
489.81	18169.58
489.99	18345.12
490.17	18181.28
490.35	18721.95
490.53	18441.08
490.70	18693.86
490.88	18581.51
491.06	18836.63
491.24	18899.83
491.41	18895.14
491.59	19030.90
491.77	19066.00
491.95	19358.57
492.13	19557.52
492.30	19623.05
492.48	19599.65
492.66	19871.15
492.84	19805.61
493.01	19641.78
493.19	20161.37
493.37	20147.33
493.54	20121.59
493.72	20428.20
493.90	20641.18
494.08	20886.94
494.25	20858.85
494.43	21139.72
494.61	21486.12
494.79	21226.32
494.96	21345.69
495.14	21607.83
495.32	21568.04
495.49	21586.76
495.67	21820.81
495.85	21703.79
496.02	22288.92
496.20	22462.12
496.38	22272.54
496.55	22480.85
496.73	22965.34
496.91	22761.71
497.09	22909.16
497.26	23000.44
497.44	22970.02
497.62	23033.21
497.79	23342.16
497.97	22934.91
498.14	23403.02
498.32	23374.93
498.50	23370.25
498.67	23711.97
498.85	23585.58
499.03	23847.72
499.20	23964.75
499.38	24215.18
499.56	24159.01
499.73	24341.57
499.91	24613.07
500.08	24449.24
500.26	24334.55
500.44	24334.55
500.61	24528.81
500.79	24620.10
500.97	24301.78
501.14	24748.82
501.32	25085.86
501.49	24898.62
501.67	24952.45
501.84	25357.36
502.02	25593.76
502.20	25699.08
502.37	25575.03
502.55	25219.27
502.72	25411.20
502.90	25809.09
503.07	25741.21
503.25	25991.65
503.43	25921.43
503.60	25935.48
503.78	26068.89
503.95	26195.28
504.13	26352.09
504.30	26368.48
504.48	26349.75
504.65	26672.74
504.83	27037.87
505.01	26731.26
505.18	27077.66
505.36	27026.17
505.53	27140.85
505.71	27321.07
505.88	27098.72
506.06	26434.01
506.23	27112.77
506.41	27267.24
506.58	27456.82
506.76	27417.04
506.93	27667.47
507.11	27964.72
507.28	27260.22
507.46	27873.44
507.63	27709.60
507.81	27946.00
507.98	27754.07
508.16	27955.36
508.33	28276.01
508.50	28446.87
508.68	28505.38
508.85	28631.77
509.03	28203.46
509.20	28519.43
509.38	29020.30
509.55	28858.81
509.73	28697.31
509.90	29064.77
510.08	28797.95
510.25	29046.05
510.42	29156.05
510.60	29521.18
510.77	29518.84
510.95	29252.02
511.12	29738.85
511.30	29724.80
511.47	29575.01
511.64	29890.98
511.82	30202.27
511.99	30082.91
512.17	29830.13
512.34	30136.74
512.51	30260.79
512.69	30279.51
512.86	30036.09
513.04	30366.11
513.21	30433.99
513.38	29832.47
513.56	30733.57
513.73	30120.35
513.90	30600.16
514.08	30251.42
514.25	30642.29
514.43	30756.98
514.60	30803.79
514.77	30899.75
514.95	31147.85
515.12	31077.63
515.29	31065.93
515.47	31318.71
515.64	31346.79
515.81	31285.94
515.99	31271.90
516.16	31365.52
516.33	31138.49
516.51	31447.44
516.68	31332.75
516.85	31367.86
517.03	31709.58
517.20	32023.21
517.37	31711.92
517.54	31864.05
517.72	31798.52
517.89	32004.49
518.06	31943.63
518.24	32023.21
518.41	31861.71
518.58	32233.86
518.75	32112.15
518.93	32570.90
519.10	32467.91
519.27	32460.89
519.45	32641.11
519.62	32781.54
519.79	32891.55
519.96	32809.63
520.14	33266.03
520.31	32872.82
520.48	32872.82
520.65	32641.11
520.83	33315.19
521.00	33860.53
521.17	33340.93
521.34	33764.57
521.52	33773.93
521.69	33598.39
521.86	33933.09
522.03	33736.48
522.20	34127.35
522.38	33759.89
522.55	34040.75
522.72	33813.72
522.89	33949.47
523.07	34338.00
523.24	33715.42
523.41	34403.53
523.58	34878.66
523.75	34803.77
523.92	34270.12
524.10	34543.97
524.27	34574.39
524.44	34660.99
524.61	35119.74
524.78	35037.82
524.96	34904.41
525.13	34913.77
525.30	35016.75
525.47	35449.75
525.64	35204.00
525.81	34944.20
525.98	35220.38
526.16	35524.65
526.33	34866.96
526.50	34831.85
526.67	35035.48
526.84	35363.15
527.01	35424.01
527.18	35751.68
527.36	35983.40
527.53	35545.72
527.70	35880.41
527.87	35709.55
528.04	35957.65
528.21	36142.55
528.38	35716.58
528.55	36528.74
528.72	35842.96
528.89	36198.73
529.07	36144.89
529.24	35948.29
529.41	36421.08
529.58	36493.63
529.75	36477.25
529.92	36407.03
530.09	36472.57
530.26	36432.78
530.43	36411.71
530.60	36360.22
530.77	36481.93
530.94	36676.19
531.11	36620.02
531.28	36989.83
531.46	37270.69
531.63	36788.54
531.80	37170.05
531.97	37069.40
532.14	36959.40
532.31	37240.26
532.48	36837.69
532.65	37139.62
532.82	37364.31
532.99	37727.10
533.16	37298.78
533.33	37022.59
533.50	37464.96
533.67	37654.54
533.84	37469.64
534.01	37530.49
534.18	37514.11
534.35	37914.34
534.52	37900.29
534.69	38115.62
534.86	37675.60
535.03	37661.56
535.20	38132.01
535.37	38506.49
535.54	38061.79
535.71	37961.15
535.88	37909.66
536.05	37984.55
536.22	38539.26
536.38	37895.61
536.55	38000.94
536.72	38333.29
536.89	38092.22
537.06	38122.65
537.23	38164.78
537.40	38515.86
537.57	38792.04
537.74	38380.10
537.91	38983.96
538.08	38614.16
538.25	38735.87
538.42	38445.64
538.59	38742.89
538.75	38483.09
538.92	38880.98
539.09	38911.41
539.26	38803.74
539.43	38785.02
539.60	39084.61
539.77	39012.05
539.94	39056.52
540.11	38740.55
540.28	38918.43
540.44	39070.56
540.61	38953.54
540.78	38934.81
540.95	39194.61
541.12	38803.74
541.29	39653.36
541.46	39480.16
541.62	39426.32
541.79	39271.85
541.96	39028.43
542.13	39658.04
542.30	39370.15
542.47	39367.81
542.63	39742.30
542.80	39920.18
542.97	40353.18
543.14	40676.17
543.31	40179.98
543.48	40135.51
543.64	40713.62
543.81	40151.89
543.98	40500.63
544.15	39992.73
544.32	40245.51
544.48	40430.41
544.65	40627.02
544.82	40355.52
544.99	40212.74
545.16	40638.72
545.32	40479.57
545.49	41284.71
545.66	40875.12
545.83	40856.39
546.00	41109.17
546.16	40737.02
546.33	40854.05
546.50	40493.61
546.67	41221.52
546.83	40631.70
547.00	41090.44
547.17	40744.05
547.34	41034.27
547.50	41371.31
547.67	41357.27
547.84	41277.69
548.00	41233.22
548.17	41799.63
548.34	41177.04
548.51	41366.63
548.67	41570.25
548.84	41509.40
549.01	41188.75
549.18	41535.15
549.34	41095.13
549.51	41406.42
549.68	40945.33
549.84	41544.51
550.01	41839.42
550.18	41228.54
550.34	41790.27
550.51	41780.90
550.68	41647.49
550.84	41610.04
551.01	41738.77
551.18	41591.32
551.34	41895.59
551.51	41745.80
551.68	42082.83
551.84	42244.33
552.01	42267.73
552.18	41834.74
552.34	41862.82
552.51	42239.65
552.68	41825.37
552.84	42389.44
553.01	42274.76
553.18	42148.37
553.34	41780.90
553.51	41797.29
553.67	41827.71
553.84	42614.13
554.01	42103.90
554.17	42464.34
554.34	41881.55
554.51	42445.62
554.67	42466.68
554.84	42337.95
555.00	42218.58
555.17	42279.44
555.33	42518.17
555.50	42609.45
555.67	42106.24
555.83	42588.39
556.00	42955.85
556.16	42965.21
556.33	42728.82
556.50	42522.85
556.66	42712.44
556.83	42120.28
556.99	43030.75
557.16	42735.84
557.32	42792.01
557.49	42794.36
557.65	42789.67
557.82	42997.98
557.98	42850.53
558.15	42918.40
558.32	42829.46
558.48	42824.78
558.65	42885.64
558.81	42574.34
558.98	42979.26
559.14	42866.91
559.31	43103.31
559.47	43093.94
559.64	43126.71
559.80	43161.82
559.97	42719.46
560.13	42649.24
560.30	43021.39
560.46	42939.47
560.63	43044.79
560.79	43578.43
560.96	43800.79
561.12	43309.27
561.29	43180.54
561.45	43168.84
561.61	43232.04
561.78	43309.27
561.94	42962.87
562.11	43409.92
562.27	42932.45
562.44	43325.66
562.60	43660.35
562.77	43590.14
562.93	43409.92
563.10	43873.34
563.26	42724.14
563.42	43538.65
563.59	43262.46
563.75	43384.17
563.92	43346.72
564.08	43812.49
564.24	43529.28
564.41	43594.82
564.57	43435.66
564.74	43566.73
564.90	43634.61
565.07	43580.78
565.23	43447.36
565.39	43281.19
565.56	43433.32
565.72	43267.14
565.88	43655.67
566.05	43557.37
566.21	43697.80
566.38	43473.11
566.54	43803.13
566.70	43725.89
566.87	44062.93
567.03	44037.18
567.19	44060.58
567.36	43871.00
567.52	43758.66
567.68	43707.16
567.85	43573.75
568.01	44013.77
568.17	43913.13
568.34	43896.75
568.50	43622.90
568.66	43573.75
568.83	43917.81
568.99	43295.23
569.15	43679.08
569.32	43655.67
569.48	43636.95
569.64	44203.36
569.81	44018.46
569.97	44243.15
570.13	43721.21
570.30	43676.74
570.46	43438.00
570.62	43335.02
570.78	43768.02
570.95	43948.24
571.11	43852.28
571.27	43856.96
571.43	43922.49
571.60	43643.97
571.76	43875.68
571.92	43854.62
572.09	44109.74
572.25	43674.40
572.41	43683.76
572.57	43487.15
572.74	44032.50
572.90	43950.58
573.06	43908.45
573.22	43871.00
573.38	43742.27
573.55	43894.41
573.71	43873.34
573.87	44201.02
574.03	43693.12
574.20	44194.00
574.36	43782.06
574.52	43592.48
574.68	44421.03
574.84	44294.64
575.01	43896.75
575.17	44027.82
575.33	43646.31
575.49	44507.63
575.65	44507.63
575.82	44196.34
575.98	44098.03
576.14	44414.01
576.30	44158.89
576.46	44126.12
576.62	43847.60
576.79	44194.00
576.95	43863.98
577.11	44046.54
577.27	44121.44
577.43	44023.14
577.59	44325.07
577.75	44355.49
577.92	43746.95
578.08	43971.64
578.24	44116.76
578.40	43632.27
578.56	43838.23
578.72	44294.64
578.88	44711.25
579.04	44479.54
579.21	43948.24
579.37	44121.44
579.53	44170.59
579.69	44025.48
579.85	44133.14
580.01	44128.46
580.17	44076.97
580.33	44011.43
580.49	44453.79
580.65	44699.55
580.82	44217.40
580.98	43831.21
581.14	44170.59
581.30	44460.82
581.46	44479.54
581.62	44079.31
581.78	44266.55
581.94	44610.61
582.10	44142.50
582.26	44367.20
582.42	43971.64
582.58	44280.60
582.74	44011.43
582.90	44404.64
583.06	44411.67
583.22	44009.09
583.38	44835.30
583.54	44231.44
583.70	44238.47
583.86	43978.67
584.02	43955.26
584.18	44355.49
584.34	44140.16
584.50	44355.49
584.66	43845.26
584.82	44147.18
584.98	44559.12
585.14	44346.13
585.30	44556.78
585.46	44002.07
585.62	43859.30
585.78	44243.15
585.94	44102.71
586.10	44301.66
586.26	44414.01
586.42	44603.59
586.58	44626.99
586.74	43892.07
586.90	44275.91
587.06	44093.35
587.22	44406.98
587.38	44011.43
587.54	44439.75
587.70	44442.09
587.86	44341.45
588.02	44130.80
588.18	44479.54
588.34	44055.90
588.49	44163.57
588.65	43955.26
588.81	44357.83
588.97	44231.44
589.13	44236.12
589.29	44217.40
589.45	43934.20
589.61	44058.24
589.77	44477.20
589.93	44088.67
590.08	44416.35
590.24	44491.24
