SpectraSuite Data File
++++++++++++++++++++++++++++++++++++
Date: Fri Oct 25 11:33:15 EDT 2013
User: price-jones
Dark Spectrum Present: No
Reference Spectrum Present: No
Number of Sampled Component Spectra: 1
Spectrometers: USB2+H05261
Integration Time (usec): 100000 (USB2+H05261)
Spectra Averaged: 1 (USB2+H05261)
Boxcar Smoothing: 0 (USB2+H05261)
Correct for Electrical Dark: No (USB2+H05261)
Strobe/Lamp Enabled: No (USB2+H05261)
Correct for Detector Non-linearity: No (USB2+H05261)
Correct for Stray Light: No (USB2+H05261)
Number of Pixels in Processed Spectrum: 2048
>>>>>Begin Processed Spectral Data<<<<<
365.73	283.20
365.92	283.20
366.12	283.20
366.32	147.45
366.52	147.45
366.72	222.35
366.91	201.29
367.11	196.60
367.31	222.35
367.51	119.37
367.70	180.22
367.90	128.73
368.10	105.32
368.30	149.79
368.49	177.88
368.69	177.88
368.89	250.44
369.09	154.48
369.28	203.63
369.48	205.97
369.68	245.76
369.87	257.46
370.07	220.01
370.27	271.50
370.47	320.65
370.66	451.72
370.86	447.04
371.06	514.92
371.25	524.28
371.45	514.92
371.65	510.24
371.84	535.98
372.04	521.94
372.24	547.69
372.44	454.06
372.63	617.90
372.83	608.54
373.03	713.86
373.22	578.11
373.42	601.52
373.62	641.31
373.81	615.56
374.01	688.12
374.21	627.26
374.40	627.26
374.60	615.56
374.79	580.45
374.99	692.80
375.19	678.76
375.38	629.60
375.58	627.26
375.78	718.54
375.97	606.20
376.17	629.60
376.37	638.97
376.56	655.35
376.76	653.01
376.95	676.41
377.15	678.76
377.35	730.25
377.54	739.61
377.74	826.21
377.93	655.35
378.13	650.67
378.33	674.07
378.52	692.80
378.72	734.93
378.91	739.61
379.11	711.52
379.31	645.99
379.50	650.67
379.70	709.18
379.89	695.14
380.09	704.50
380.28	734.93
380.48	800.46
380.68	711.52
380.87	758.33
381.07	741.95
381.26	739.61
381.46	802.80
381.65	744.29
381.85	777.06
382.04	798.12
382.24	851.96
382.43	732.59
382.63	788.76
382.83	744.29
383.02	837.91
383.22	786.42
383.41	744.29
383.61	748.97
383.80	844.93
384.00	758.33
384.19	842.59
384.39	734.93
384.58	826.21
384.78	894.08
384.97	807.48
385.17	798.12
385.36	816.85
385.56	868.34
385.75	826.21
385.95	873.02
386.14	901.11
386.34	812.17
386.53	863.66
386.72	840.25
386.92	887.06
387.11	870.68
387.31	882.38
387.50	919.83
387.70	917.49
387.89	940.90
388.09	912.81
388.28	915.15
388.48	1018.13
388.67	894.08
388.86	978.34
389.06	901.11
389.25	992.39
389.45	968.98
389.64	896.43
389.84	1006.43
390.03	1071.97
390.22	985.37
390.42	966.64
390.61	919.83
390.81	1013.45
391.00	961.96
391.19	1022.81
391.39	1048.56
391.58	1025.15
391.78	994.73
391.97	1064.94
392.16	990.05
392.36	1088.35
392.55	1109.41
392.75	1135.16
392.94	1111.75
393.13	954.94
393.33	1034.52
393.52	1074.31
393.71	1022.81
393.91	1088.35
394.10	1036.86
394.29	1078.99
394.49	1067.28
394.68	1151.54
394.88	1064.94
395.07	1179.63
395.26	1186.65
395.46	1170.27
395.65	1219.42
395.84	1139.84
396.04	1261.55
396.23	1205.38
396.42	1167.93
396.62	1256.87
396.81	1156.22
397.00	1228.78
397.19	1149.20
397.39	1191.33
397.58	1198.35
397.77	1242.82
397.97	1231.12
398.16	1315.38
398.35	1268.57
398.55	1280.27
398.74	1249.85
398.93	1387.94
399.12	1287.29
399.32	1329.42
399.51	1338.79
399.70	1409.00
399.90	1313.04
400.09	1355.17
400.28	1338.79
400.47	1303.68
400.67	1401.98
400.86	1411.34
401.05	1444.11
401.24	1437.09
401.44	1369.21
401.63	1530.71
401.82	1411.34
402.01	1366.87
402.21	1490.92
402.40	1586.88
402.59	1462.83
402.78	1481.56
402.97	1549.43
403.17	1411.34
403.36	1554.12
403.55	1659.44
403.74	1558.80
403.93	1605.61
404.13	1621.99
404.32	1645.40
404.51	1626.67
404.70	1629.01
404.89	1549.43
405.09	1612.63
405.28	1678.16
405.47	1743.70
405.66	1631.35
405.85	1734.34
406.05	1741.36
406.24	1748.38
406.43	1811.57
406.62	1769.44
406.81	1839.66
407.00	1750.72
407.20	1736.68
407.39	1729.66
407.58	1788.17
407.77	1865.41
407.96	1813.92
408.15	1891.15
408.34	1874.77
408.54	1905.20
408.73	1830.30
408.92	1923.92
409.11	1909.88
409.30	2005.84
409.49	1998.82
409.68	2066.69
409.87	1987.11
410.07	2040.95
410.26	2050.31
410.45	2052.65
410.64	2008.18
410.83	2186.06
411.02	2174.36
411.21	2186.06
411.40	2146.27
411.59	2167.34
411.78	2129.89
411.98	2253.94
412.17	2263.30
412.36	2172.02
412.55	2303.09
412.74	2380.32
412.93	2436.50
413.12	2431.82
413.31	2422.45
413.50	2459.90
413.69	2387.35
413.88	2509.05
414.07	2415.43
414.26	2502.03
414.45	2562.89
414.64	2544.16
414.83	2485.65
415.02	2651.83
415.22	2654.17
415.41	2677.57
415.60	2722.04
415.79	2661.19
415.98	2752.47
416.17	2698.64
416.36	2750.13
416.55	2773.53
416.74	2820.35
416.93	2885.88
417.12	2930.35
417.31	2956.10
417.50	2839.07
417.69	2998.23
417.88	2839.07
418.07	3016.95
418.26	2998.23
418.45	3045.04
418.64	3159.72
418.83	3045.04
419.02	3023.97
419.21	3016.95
419.39	3150.36
419.58	3098.87
419.77	3052.06
419.96	3162.06
420.15	3255.69
420.34	3148.02
420.53	3183.13
420.72	3201.85
420.91	3262.71
421.10	3222.92
421.29	3236.96
421.48	3178.45
421.67	3232.28
421.86	3307.18
422.05	3349.31
422.24	3337.60
422.43	3424.20
422.61	3349.31
422.80	3506.12
422.99	3431.23
423.18	3510.80
423.37	3428.88
423.56	3421.86
423.75	3496.76
423.94	3279.09
424.13	3234.62
424.32	3267.39
424.50	3473.36
424.69	3611.45
424.88	3524.85
425.07	3349.31
425.26	3433.57
425.45	3407.82
425.64	3384.41
425.83	3447.61
426.01	3501.44
426.20	3421.86
426.39	3466.33
426.58	3501.44
426.77	3590.38
426.96	3574.00
427.15	3644.21
427.33	3625.49
427.52	3606.77
427.71	3623.15
427.90	3574.00
428.09	3634.85
428.28	3714.43
428.46	3712.09
428.65	3700.39
428.84	3770.60
429.03	3705.07
429.22	3740.18
429.40	3698.05
429.59	3772.94
429.78	3761.24
429.97	3637.19
430.16	3756.56
430.34	3873.59
430.53	3899.33
430.72	3786.99
430.91	3913.38
431.10	3768.26
431.28	3915.72
431.47	4142.75
431.66	3983.59
431.85	3969.55
432.03	4100.62
432.22	4105.30
432.41	4009.34
432.60	4161.47
432.79	4086.58
432.97	4147.43
433.16	4067.85
433.35	4037.42
433.54	4177.86
433.72	4273.82
433.91	4170.83
434.10	4086.58
434.28	4100.62
434.47	4320.63
434.66	4196.58
434.85	4318.29
435.03	4440.00
435.22	4407.23
435.41	4444.68
435.59	4425.95
435.78	4454.04
435.97	4421.27
436.16	4409.57
436.34	4421.27
436.53	4561.70
436.72	4568.73
436.90	4409.57
437.09	4432.97
437.28	4369.78
437.46	4638.94
437.65	4695.11
437.84	4601.49
438.02	4587.45
438.21	4697.46
438.40	4594.47
438.58	4664.69
438.77	4758.31
438.96	4863.63
439.14	4753.63
439.33	4947.89
439.52	5004.07
439.70	4940.87
439.89	5097.69
440.08	5139.82
440.26	5074.28
440.45	4980.66
440.63	5109.39
440.82	5207.69
441.01	5219.39
441.19	5114.07
441.38	5245.14
441.57	5305.99
441.75	5191.31
441.94	5359.83
442.12	5376.21
442.31	5453.45
442.50	5453.45
442.68	5511.96
442.87	5413.66
443.05	5458.13
443.24	5659.42
443.43	5577.50
443.61	5575.16
443.80	5729.63
443.98	5467.49
444.17	5462.81
444.35	5703.89
444.54	5734.31
444.73	5734.31
444.91	5643.03
445.10	5757.72
445.28	5657.07
445.47	5610.26
445.65	5551.75
445.84	5827.93
446.02	5844.32
446.21	5731.97
446.39	5898.15
446.58	5877.09
446.77	5715.59
446.95	5696.86
447.14	5600.90
447.32	5818.57
447.51	5893.47
447.69	5841.98
447.88	5715.59
448.06	5919.21
448.25	5879.43
448.43	5699.20
448.62	5795.17
448.80	5860.70
448.99	5919.21
449.17	5877.09
449.36	5746.02
449.54	5823.25
449.73	6008.16
449.91	6209.44
450.10	6099.44
450.28	6132.20
450.46	5933.26
450.65	6099.44
450.83	6171.99
451.02	6059.65
451.20	6235.19
451.39	6225.82
451.57	6218.80
451.76	6115.82
451.94	6176.67
452.13	6396.68
452.31	6289.02
452.49	6331.15
452.68	6399.02
452.86	6368.60
453.05	6410.73
453.23	6410.73
453.42	6279.66
453.60	6345.19
453.78	6546.48
453.97	6373.28
454.15	6499.67
454.34	6286.68
454.52	6518.39
454.70	6626.06
454.89	6392.00
455.07	6600.31
455.26	6616.69
455.44	6682.23
455.62	6658.82
455.81	6719.68
455.99	6836.70
456.17	6663.51
456.36	6754.79
456.54	7101.19
456.73	7105.87
456.91	6991.18
457.09	7178.42
457.28	7063.74
457.46	6993.52
457.64	7119.91
457.83	7080.12
458.01	7098.84
458.19	7148.00
458.38	7037.99
458.56	7400.77
458.74	7152.68
458.93	7164.38
459.11	7211.19
459.29	7176.08
459.48	7173.74
459.66	7351.62
459.84	7337.58
460.03	7412.48
460.21	7136.29
460.39	7330.56
460.57	7330.56
460.76	7421.84
460.94	7440.56
461.12	7227.57
461.31	7531.84
461.49	7480.35
461.67	7531.84
461.85	7712.07
462.04	7733.13
462.22	8077.19
462.40	7779.94
462.59	7700.36
462.77	7822.07
462.95	7838.45
463.13	7838.45
463.32	7913.35
463.50	8058.46
463.68	7805.69
463.86	7908.67
464.05	8042.08
464.23	7836.11
464.41	7901.65
464.59	7934.42
464.78	8032.72
464.96	8145.06
465.14	7716.75
465.32	8145.06
465.50	8098.25
465.69	8056.12
465.87	8128.68
466.05	8208.26
466.23	8140.38
466.41	8273.79
466.60	8393.16
466.78	8215.28
466.96	8201.24
467.14	8201.24
467.32	8428.27
467.51	8519.55
467.69	8217.62
467.87	8149.75
468.05	8397.84
468.23	8336.99
468.41	8308.90
468.60	8432.95
468.78	8615.51
468.96	8533.59
469.14	8610.83
469.32	8905.74
469.50	8601.47
469.69	8655.30
469.87	8683.39
470.05	8744.24
470.23	8872.97
470.41	8835.52
470.59	8926.80
470.77	8943.19
470.95	8807.44
471.14	8908.08
471.32	8849.57
471.50	9149.15
471.68	9034.47
471.86	8915.10
472.04	9179.58
472.22	9284.91
472.40	9273.20
472.58	9481.51
472.77	9284.91
472.95	9521.30
473.13	9734.29
473.31	9504.92
473.49	9575.13
473.67	9408.95
473.85	9427.68
474.03	9832.59
474.21	9802.16
474.39	9591.52
474.57	9895.78
474.75	10033.88
474.93	9977.70
475.12	10033.88
475.30	10099.41
475.48	10169.63
475.66	10270.27
475.84	9914.51
476.02	10284.31
476.20	10190.69
476.38	10408.36
476.56	10394.32
476.74	10525.39
476.92	10361.55
477.10	10518.37
477.28	10721.99
477.46	10736.04
477.64	10920.94
477.82	10960.73
478.00	11138.61
478.18	11056.69
478.36	11108.18
478.54	11279.04
478.72	11728.42
478.90	11398.41
479.08	11805.66
479.26	11595.01
479.44	11590.33
479.62	11943.75
479.80	12023.33
479.98	12025.67
480.16	12341.64
480.34	12140.36
480.52	12294.83
480.70	12540.59
480.88	12259.73
481.06	12503.14
481.24	12421.22
481.41	12697.41
481.59	12741.88
481.77	13029.76
481.95	12704.43
482.13	12999.34
482.31	13116.36
482.49	13383.18
482.67	13455.74
482.85	13572.77
483.03	13532.98
483.21	13757.67
483.39	13689.79
483.57	14017.47
483.74	14010.45
483.92	14164.92
484.10	14232.80
484.28	14506.64
484.46	14670.48
484.64	14532.39
484.82	14321.74
485.00	14871.76
485.18	15042.62
485.35	15143.27
485.53	15304.76
485.71	15154.97
485.89	15695.63
486.07	15506.05
486.25	15513.07
486.43	15627.76
486.61	15662.86
486.78	15960.11
486.96	16119.27
487.14	16152.04
487.32	16046.71
487.50	16163.74
487.68	16163.74
487.85	16383.75
488.03	16596.74
488.21	17029.74
488.39	17011.01
488.57	17114.00
488.75	17392.52
488.92	17635.94
489.10	17680.41
489.28	17624.23
489.46	18108.72
489.64	17877.01
489.81	18284.26
489.99	18253.84
490.17	18420.02
490.35	18305.33
490.53	18412.99
490.70	18787.48
490.88	18817.91
491.06	18876.42
491.24	18766.42
491.41	19044.94
491.59	19166.65
491.77	19000.47
491.95	19644.12
492.13	19557.52
492.30	19779.87
492.48	20039.67
492.66	19922.64
492.84	19967.11
493.01	20252.66
493.19	20379.04
493.37	20552.24
493.54	20732.47
493.72	20641.18
493.90	20629.48
494.08	20585.01
494.25	21198.23
494.43	21099.93
494.61	21170.15
494.79	21465.05
494.96	21331.64
495.14	21701.45
495.32	21935.50
495.49	21717.83
495.67	21647.61
495.85	22192.96
496.02	22361.48
496.20	22735.96
496.38	22333.39
496.55	22815.54
496.73	22991.08
496.91	22628.30
497.09	22806.18
497.26	22862.35
497.44	22918.53
497.62	23426.42
497.79	23618.35
497.97	23435.78
498.14	23419.40
498.32	23700.26
498.50	24105.18
498.67	24538.18
498.85	24060.71
499.03	24081.77
499.20	24257.31
499.38	24257.31
499.56	24318.17
499.73	24533.50
499.91	24823.72
500.08	25156.08
500.26	24634.14
500.44	24617.75
500.61	25043.73
500.79	24891.60
500.97	24999.26
501.14	25582.06
501.32	25612.48
501.49	25385.45
501.67	25589.08
501.84	26012.71
502.02	25415.88
502.20	25942.50
502.37	26096.97
502.55	25710.78
502.72	26064.21
502.90	26057.18
503.07	26052.50
503.25	26225.70
503.43	26249.11
503.60	26548.70
503.78	26689.13
503.95	26478.48
504.13	26719.56
504.30	26731.26
504.48	26977.01
504.65	26892.76
504.83	27337.46
505.01	27700.24
505.18	27379.59
505.36	27428.74
505.53	27351.50
505.71	27744.71
505.88	27653.43
506.06	27641.73
506.23	27489.59
506.41	27651.09
506.58	27606.62
506.76	27960.04
506.93	28135.58
507.11	27924.93
507.28	28407.08
507.46	28276.01
507.63	28048.98
507.81	28758.16
507.98	28189.41
508.16	28741.78
508.33	28910.30
508.50	29013.28
508.68	28589.64
508.85	29109.24
509.03	29102.22
509.20	29233.29
509.38	29544.58
509.55	29193.50
509.73	29413.51
509.90	29476.71
510.08	29689.70
510.25	29694.38
510.42	29809.06
510.60	30010.35
510.77	30206.95
510.95	30597.82
511.12	30335.68
511.30	30398.88
511.47	30298.23
511.64	30583.78
511.82	30494.84
511.99	30581.44
512.17	30520.59
512.34	30389.52
512.51	30810.81
512.69	31199.34
512.86	30775.70
513.04	31543.40
513.21	31271.90
513.38	31239.13
513.56	31679.15
513.73	31098.70
513.90	31281.26
514.08	31522.34
514.25	31786.82
514.43	31763.41
514.60	31885.12
514.77	31655.75
514.95	31962.36
515.12	32165.98
515.29	31910.86
515.47	32084.06
515.64	32191.73
515.81	32177.68
515.99	32306.41
516.16	32416.42
516.33	32428.12
516.51	32631.75
516.68	32465.57
516.85	32823.67
517.03	32882.19
517.20	33139.65
517.37	32826.01
517.54	32514.72
517.72	32821.33
517.89	33020.28
518.06	33141.99
518.24	33364.34
518.41	33546.90
518.58	33298.80
518.75	33493.07
518.93	33731.80
519.10	33820.74
519.27	33631.16
519.45	33549.24
519.62	33881.60
519.79	33766.91
519.96	33881.60
520.14	34000.96
520.31	33689.67
520.48	34532.26
520.65	34057.14
520.83	34597.80
521.00	34569.71
521.17	34747.59
521.34	34651.63
521.52	34857.60
521.69	34412.90
521.86	34651.63
522.03	34803.77
522.20	35288.26
522.38	35543.38
522.55	35281.24
522.72	35534.01
522.89	35070.59
523.07	35744.66
523.24	35718.92
523.41	35826.58
523.58	35480.18
523.75	35651.04
523.92	35414.65
524.10	36112.13
524.27	35840.62
524.44	35927.22
524.61	35934.24
524.78	35866.37
524.96	36280.64
525.13	36112.13
525.30	36306.39
525.47	36247.88
525.64	36130.85
525.81	36205.75
525.98	36734.71
526.16	36280.64
526.33	36112.13
526.50	36636.41
526.67	36503.00
526.84	36587.25
527.01	36898.55
527.18	36856.42
527.36	37392.40
527.53	37223.88
527.70	37179.41
527.87	37537.51
528.04	37350.27
528.21	37062.38
528.38	37317.50
528.55	37106.85
528.72	37165.37
528.89	37172.39
529.07	37497.72
529.24	36872.80
529.41	37928.38
529.58	37853.48
529.75	37640.50
529.92	37818.38
530.09	37799.65
530.26	38115.62
530.43	38014.98
530.60	37581.98
530.77	38270.10
530.94	37972.85
531.11	38188.18
531.28	38204.56
531.46	38227.97
531.63	38356.70
531.80	38260.74
531.97	38370.74
532.14	38583.73
532.31	38424.57
532.48	38586.07
532.65	39086.95
532.82	38967.58
532.99	39150.14
533.16	38710.12
533.33	39297.59
533.50	39243.76
533.67	38693.74
533.84	38567.35
534.01	39255.46
534.18	38902.04
534.35	39154.82
534.52	39529.31
534.69	39730.59
534.86	39313.98
535.03	39379.51
535.20	39405.26
535.37	39782.09
535.54	39754.00
535.71	39716.55
535.88	39943.58
536.05	40084.01
536.22	40093.38
536.38	39702.51
536.55	39601.86
536.72	40210.40
536.89	40184.66
537.06	40100.40
537.23	40266.58
537.40	40126.14
537.57	40222.11
537.74	39966.99
537.91	40439.78
538.08	40465.52
538.25	40282.96
538.42	40318.07
538.59	40556.80
538.75	40432.75
538.92	40655.11
539.09	40912.56
539.26	41095.13
539.43	40477.22
539.60	41003.85
539.77	40587.23
539.94	41179.39
540.11	40821.28
540.28	41230.88
540.44	41008.53
540.61	40982.78
540.78	41214.49
540.95	41338.54
541.12	41415.78
541.29	41109.17
541.46	41392.37
541.62	41624.09
541.79	41926.02
541.96	41563.23
542.13	41024.91
542.30	41406.42
542.47	41532.81
542.63	41570.25
542.80	42148.37
542.97	41921.34
543.14	42131.98
543.31	41797.29
543.48	42103.90
543.64	42335.61
543.81	42408.17
543.98	42457.32
544.15	42471.36
544.32	42600.09
544.48	42897.34
544.65	42586.05
544.82	42370.72
544.99	42401.14
545.16	42258.37
545.32	42087.51
545.49	42838.83
545.66	42789.67
545.83	43250.76
546.00	42887.98
546.16	42969.90
546.33	43030.75
546.50	42639.88
546.67	43229.69
546.83	42160.07
547.00	42974.58
547.17	42925.42
547.34	43079.90
547.50	43372.47
547.67	43611.20
547.84	43187.56
548.00	43459.07
548.17	43379.49
548.34	43768.02
548.51	43489.49
548.67	43896.75
548.84	43096.28
549.01	43625.25
549.18	43388.85
549.34	44067.61
549.51	43409.92
549.68	43491.83
549.84	44020.80
550.01	43391.19
550.18	43503.54
550.34	43386.51
550.51	44065.27
550.68	44226.76
550.84	43620.56
551.01	44149.53
551.18	43908.45
551.34	44198.68
551.51	44091.01
551.68	43917.81
551.84	44205.70
552.01	43915.47
552.18	44385.92
552.34	43875.68
552.51	44130.80
552.68	44144.84
552.84	44446.77
553.01	44334.43
553.18	44226.76
553.34	44500.61
553.51	44488.90
553.67	45109.14
553.84	44554.44
554.01	44711.25
554.17	44652.74
554.34	45067.02
554.51	44863.39
554.67	44842.32
554.84	45081.06
555.00	44699.55
555.17	44952.33
555.33	44949.99
555.50	44699.55
555.67	45284.68
555.83	45024.89
556.00	45034.25
556.16	45240.21
556.33	45195.74
556.50	45057.65
556.66	44942.97
556.83	44748.70
556.99	45759.81
557.16	45492.99
557.32	45212.13
557.49	45483.63
557.65	44975.73
557.82	45551.51
557.98	45038.93
558.15	45347.88
558.32	45394.69
558.48	45694.28
558.65	45366.60
558.81	45207.45
558.98	45209.79
559.14	45614.70
559.31	45467.25
559.47	45460.23
559.64	45525.76
559.80	45717.68
559.97	45846.41
560.13	45179.36
560.30	46103.87
560.46	45354.90
560.63	45799.60
560.79	46019.61
560.96	46122.60
561.12	46043.02
561.29	45579.59
561.45	46040.68
561.61	45804.28
561.78	45918.97
561.94	46073.45
562.11	45888.54
562.27	45808.96
562.44	45446.18
562.60	46218.56
562.77	46431.55
562.93	45823.01
563.10	46057.06
563.26	46117.92
563.42	46274.73
563.59	46106.21
563.75	46078.13
563.92	46447.93
564.08	46066.42
564.24	46508.79
564.41	46244.30
564.57	46122.60
564.74	46356.65
564.90	46487.72
565.07	46253.67
565.23	46387.08
565.39	46270.05
565.56	46766.24
565.72	46363.67
565.88	46614.11
566.05	46258.35
566.21	46794.33
566.38	46323.88
566.54	46450.27
566.70	46639.86
566.87	46375.37
567.03	46377.72
567.19	46766.24
567.36	46347.29
567.52	46710.07
567.68	46656.24
567.85	46546.23
568.01	46995.62
568.17	46789.65
568.34	46660.92
568.50	46820.08
568.66	46574.32
568.83	46883.27
568.99	46714.75
569.15	47033.07
569.32	46773.27
569.48	46382.40
569.64	46930.08
569.81	46454.95
569.97	46780.29
570.13	46948.81
570.30	46616.45
570.46	47100.94
570.62	46887.95
570.78	46735.82
570.95	46993.28
571.11	47501.17
571.27	46916.04
571.43	46775.61
571.60	46787.31
571.76	47016.68
571.92	46593.04
572.09	46829.44
572.25	47091.58
572.41	46967.53
572.57	46988.60
572.74	47395.85
572.90	46855.18
573.06	47264.78
573.22	47150.09
573.38	47442.66
573.55	46990.94
573.71	47292.86
573.87	47484.79
574.03	47054.13
574.20	47313.93
574.36	46873.91
574.52	47430.96
574.68	47409.89
574.84	47805.44
575.01	47604.16
575.17	46883.27
575.33	47269.46
575.49	47393.51
575.65	47433.30
575.82	47592.45
575.98	47377.12
576.14	47515.22
576.30	47800.76
576.46	47386.49
576.62	46756.88
576.79	47517.56
576.95	47044.77
577.11	46637.51
577.27	47295.21
577.43	47379.46
577.59	47042.43
577.75	47100.94
577.92	47035.41
578.08	46939.44
578.24	46941.78
578.40	47475.43
578.56	47723.52
578.72	47449.68
578.88	47122.01
579.04	47377.12
579.21	47096.26
579.37	47533.94
579.53	47445.00
579.69	47821.83
579.85	47440.32
580.01	47306.91
580.17	47697.78
580.33	47512.88
580.49	47538.62
580.65	47236.69
580.82	47562.03
580.98	47430.96
581.14	46962.85
581.30	47805.44
581.46	47702.46
581.62	47487.13
581.78	47351.38
581.94	47615.86
582.10	47515.22
582.26	47562.03
582.42	47292.86
582.58	47393.51
582.74	47721.18
582.90	47629.90
583.06	47627.56
583.22	47580.75
583.38	47765.65
583.54	47847.57
583.70	47309.25
583.86	47920.13
584.02	47538.62
584.18	47585.43
584.34	47922.47
584.50	48273.55
584.66	47866.30
584.82	47903.74
584.98	48044.18
585.14	47966.94
585.30	47503.51
585.46	47800.76
585.62	47973.96
585.78	47735.23
585.94	47810.12
586.10	47683.73
586.26	47386.49
586.42	47421.59
586.58	47784.38
586.74	47512.88
586.90	47339.68
587.06	47447.34
587.22	47980.98
587.38	47342.02
587.54	48100.35
587.70	47945.87
587.86	47566.71
588.02	47552.66
588.18	47941.19
588.34	47861.61
588.49	47590.11
588.65	47798.42
588.81	47971.62
588.97	47887.36
589.13	47880.34
589.29	47760.97
589.45	48058.22
589.61	48168.22
589.77	47723.52
589.93	48065.24
