SpectraSuite Data File
++++++++++++++++++++++++++++++++++++
Date: Fri Oct 25 11:22:56 EDT 2013
User: price-jones
Dark Spectrum Present: No
Reference Spectrum Present: No
Number of Sampled Component Spectra: 1
Spectrometers: USB2+H05261
Integration Time (usec): 100000 (USB2+H05261)
Spectra Averaged: 1 (USB2+H05261)
Boxcar Smoothing: 0 (USB2+H05261)
Correct for Electrical Dark: No (USB2+H05261)
Strobe/Lamp Enabled: No (USB2+H05261)
Correct for Detector Non-linearity: No (USB2+H05261)
Correct for Stray Light: No (USB2+H05261)
Number of Pixels in Processed Spectrum: 2048
>>>>>Begin Processed Spectral Data<<<<<
365.73	189.58
365.92	189.58
366.12	189.58
366.32	88.94
366.52	119.37
366.72	191.92
366.91	84.26
367.11	168.52
367.31	117.03
367.51	65.54
367.70	166.18
367.90	180.22
368.10	95.96
368.30	131.07
368.49	86.60
368.69	173.20
368.89	86.60
369.09	105.32
369.28	110.01
369.48	198.95
369.68	161.50
369.87	191.92
370.07	191.92
370.27	220.01
370.47	308.95
370.66	641.31
370.86	599.18
371.06	648.33
371.25	629.60
371.45	643.65
371.65	718.54
371.84	702.16
372.04	688.12
372.24	697.48
372.44	655.35
372.63	671.73
372.83	716.20
373.03	711.52
373.22	697.48
373.42	730.25
373.62	798.12
373.81	837.91
374.01	866.00
374.21	866.00
374.40	763.01
374.60	821.53
374.79	854.30
374.99	751.31
375.19	807.48
375.38	861.32
375.58	863.66
375.78	877.70
375.97	875.36
376.17	854.30
376.37	868.34
376.56	887.06
376.76	882.38
376.95	835.57
377.15	910.47
377.35	861.32
377.54	826.21
377.74	842.59
377.93	877.70
378.13	894.08
378.33	959.62
378.52	823.87
378.72	966.64
378.91	1071.97
379.11	971.32
379.31	1004.09
379.50	978.34
379.70	924.51
379.89	1027.50
380.09	964.30
380.28	945.58
380.48	968.98
380.68	990.05
380.87	997.07
381.07	1088.35
381.26	1004.09
381.46	1020.47
381.65	1036.86
381.85	1053.24
382.04	1055.58
382.24	1139.84
382.43	950.26
382.63	1069.62
382.83	976.00
383.02	978.34
383.22	1132.82
383.41	1046.22
383.61	1057.92
383.80	1109.41
384.00	1191.33
384.19	1142.18
384.39	1128.14
384.58	1102.39
384.78	1188.99
384.97	1174.95
385.17	1179.63
385.36	1198.35
385.56	1188.99
385.75	1200.69
385.95	1224.10
386.14	1160.91
386.34	1165.59
386.53	1247.51
386.72	1233.46
386.92	1277.93
387.11	1284.95
387.31	1282.61
387.50	1308.36
387.70	1205.38
387.89	1245.16
388.09	1252.19
388.28	1308.36
388.48	1277.93
388.67	1341.13
388.86	1392.62
389.06	1287.29
389.25	1430.07
389.45	1404.32
389.64	1331.76
389.84	1357.51
390.03	1369.21
390.22	1401.98
390.42	1385.60
390.61	1483.90
390.81	1383.26
391.00	1376.24
391.19	1490.92
391.39	1502.62
391.58	1493.26
391.78	1467.52
391.97	1418.36
392.16	1455.81
392.36	1493.26
392.55	1556.46
392.75	1551.78
392.94	1516.67
393.13	1530.71
393.33	1612.63
393.52	1519.01
393.71	1598.59
393.91	1533.05
394.10	1589.22
394.29	1750.72
394.49	1565.82
394.68	1629.01
394.88	1659.44
395.07	1699.23
395.26	1680.50
395.46	1629.01
395.65	1685.19
395.84	1631.35
396.04	1820.94
396.23	1727.32
396.42	1762.42
396.62	1717.95
396.81	1797.53
397.00	1760.08
397.19	1783.49
397.39	1806.89
397.58	1816.26
397.77	1834.98
397.97	1860.73
398.16	1837.32
398.35	1942.64
398.55	1802.21
398.74	1919.24
398.93	1996.48
399.12	1809.23
399.32	1879.45
399.51	1914.56
399.70	1919.24
399.90	1984.77
400.09	1949.67
400.28	2026.90
400.47	1998.82
400.67	2221.17
400.86	2104.14
401.05	2080.74
401.24	2036.27
401.44	2120.53
401.63	2218.83
401.82	2122.87
402.01	2069.03
402.21	2148.61
402.40	2167.34
402.59	2209.47
402.78	2118.18
402.97	2179.04
403.17	2174.36
403.36	2312.45
403.55	2249.25
403.74	2413.09
403.93	2466.92
404.13	2366.28
404.32	2380.32
404.51	2356.92
404.70	2506.71
404.89	2401.39
405.09	2434.16
405.28	2476.29
405.47	2539.48
405.66	2492.67
405.85	2642.46
406.05	2572.25
406.24	2495.01
406.43	2511.39
406.62	2614.38
406.81	2691.62
407.00	2523.10
407.20	2581.61
407.39	2698.64
407.58	2752.47
407.77	2747.79
407.96	2764.17
408.15	2829.71
408.34	2820.35
408.54	2878.86
408.73	2693.96
408.92	2836.73
409.11	2890.56
409.30	2881.20
409.49	2841.41
409.68	2993.55
409.87	2918.65
410.07	3148.02
410.26	2960.78
410.45	3021.63
410.64	3007.59
410.83	3094.19
411.02	3080.14
411.21	3138.66
411.40	3176.11
411.59	3213.56
411.78	3255.69
411.98	3082.49
412.17	3248.66
412.36	3318.88
412.55	3426.54
412.74	3452.29
412.93	3482.72
413.12	3337.60
413.31	3517.83
413.50	3566.98
413.69	3634.85
413.88	3691.02
414.07	3599.74
414.26	3641.87
414.45	3613.79
414.64	3515.48
414.83	3796.35
415.02	3922.74
415.22	3955.51
415.41	3943.80
415.60	4058.49
415.79	3946.14
415.98	4044.45
416.17	4095.94
416.36	3953.16
416.55	4004.66
416.74	4156.79
416.93	4159.13
417.12	4124.02
417.31	4229.35
417.50	4241.05
417.69	4416.59
417.88	4341.69
418.07	4372.12
418.26	4383.82
418.45	4493.83
418.64	4393.19
418.83	4383.82
419.02	4365.10
419.21	4498.51
419.39	4671.71
419.58	4505.53
419.77	4432.97
419.96	4741.93
420.15	4739.58
420.34	4589.79
420.53	4524.26
420.72	4718.52
420.91	4732.56
421.10	4812.14
421.29	4777.03
421.48	4770.01
421.67	4945.55
421.86	4849.59
422.05	4847.25
422.24	4896.40
422.43	5008.75
422.61	4870.65
422.80	4950.23
422.99	4854.27
423.18	5029.81
423.37	5093.01
423.56	5123.43
423.75	4961.94
423.94	4905.76
424.13	4676.39
424.32	4809.80
424.50	4933.85
424.69	5048.54
424.88	5198.33
425.07	5011.09
425.26	4929.17
425.45	4968.96
425.64	4985.34
425.83	4931.51
426.01	5088.32
426.20	5069.60
426.39	4999.38
426.58	5097.69
426.77	5027.47
426.96	5107.05
427.15	5184.29
427.33	5172.58
427.52	5100.03
427.71	5369.19
427.90	5383.23
428.09	5390.25
428.28	5416.00
428.46	5352.81
428.65	5338.76
428.84	5570.48
429.03	5575.16
429.22	5320.04
429.40	5579.84
429.59	5521.32
429.78	5327.06
429.97	5352.81
430.16	5570.48
430.34	5687.50
430.53	5874.74
430.72	5820.91
430.91	5769.42
431.10	5664.10
431.28	5778.78
431.47	5933.26
431.66	6022.20
431.85	5727.29
432.03	5961.34
432.22	6066.67
432.41	6008.16
432.60	6073.69
432.79	6066.67
432.97	5944.96
433.16	6054.97
433.35	6029.22
433.54	6162.63
433.72	6179.01
433.91	6040.92
434.10	6399.02
434.28	6251.57
434.47	6324.13
434.66	6303.06
434.85	6335.83
435.03	6148.59
435.22	6284.34
435.41	6394.34
435.59	6394.34
435.78	6504.35
435.97	6457.54
436.16	6513.71
436.34	6623.72
436.53	6609.67
436.72	6541.80
436.90	6485.62
437.09	6707.98
437.28	6560.52
437.46	6764.15
437.65	6717.34
437.84	6881.18
438.02	6832.02
438.21	6953.73
438.40	6703.29
438.58	7173.74
438.77	7035.65
438.96	6991.18
439.14	7136.29
439.33	7117.57
439.52	7255.66
439.70	7028.63
439.89	7407.80
440.08	7400.77
440.26	7351.62
440.45	7323.54
440.63	7700.36
440.82	7620.78
441.01	7454.61
441.19	7683.98
441.38	7901.65
441.57	7906.33
441.75	7812.71
441.94	8013.99
442.12	7953.14
442.31	8011.65
442.50	8187.19
442.68	8070.17
442.87	7918.03
443.05	8182.51
443.24	8236.35
443.43	8264.43
443.61	8446.99
443.80	8451.67
443.98	8074.85
444.17	7981.23
444.35	8114.64
444.54	8425.93
444.73	8315.92
444.91	8402.52
445.10	8407.20
445.28	8432.95
445.47	8269.11
445.65	8313.58
445.84	8402.52
446.02	8545.30
446.21	8477.42
446.39	8472.74
446.58	8517.21
446.77	8444.65
446.95	8491.46
447.14	8472.74
447.32	8706.79
447.51	8531.25
447.69	8514.87
447.88	8727.86
448.06	8655.30
448.25	8573.38
448.43	8798.07
448.62	8559.34
448.80	8629.56
448.99	8603.81
449.17	8931.48
449.36	8779.35
449.54	8982.98
449.73	9022.77
449.91	9071.92
450.10	9060.21
450.28	9139.79
450.46	9135.11
450.65	8980.64
450.83	9100.00
451.02	9275.54
451.20	9184.26
451.39	9266.18
451.57	9275.54
451.76	9167.88
451.94	9282.56
452.13	9259.16
452.31	9411.29
452.49	9174.90
452.68	9479.17
452.86	9437.04
453.05	9556.41
453.23	9598.54
453.42	9451.08
453.60	9486.19
453.78	9657.05
453.97	9465.13
454.15	9610.24
454.34	9558.75
454.52	9914.51
454.70	9916.85
454.89	9830.25
455.07	9877.06
455.26	9881.74
455.44	9888.76
455.62	9928.55
455.81	9891.10
455.99	10078.35
456.17	10410.70
456.36	10272.61
456.54	10471.56
456.73	10436.45
456.91	10443.47
457.09	10518.37
457.28	10874.13
457.46	10263.25
457.64	10654.12
457.83	10820.30
458.01	10576.88
458.19	10733.70
458.38	10478.58
458.56	10752.42
458.74	10937.32
458.93	10810.93
459.11	10934.98
459.29	10733.70
459.48	10986.47
459.66	11066.05
459.84	11056.69
460.03	11267.34
460.21	11220.53
460.39	11150.31
460.57	11061.37
460.76	11185.42
460.94	11260.32
461.12	11262.66
461.31	11295.43
461.49	11220.53
461.67	11379.68
461.85	11580.97
462.04	11391.39
462.22	11859.49
462.40	11791.62
462.59	11494.37
462.77	11545.86
462.95	11620.76
463.13	11761.19
463.32	11822.05
463.50	11922.69
463.68	11751.83
463.86	11765.87
464.05	11744.81
464.23	11847.79
464.41	11988.22
464.59	11882.90
464.78	12320.58
464.96	12140.36
465.14	12053.76
465.32	12072.48
465.50	12238.66
465.69	12175.47
465.87	12482.08
466.05	12152.06
466.23	12348.67
466.41	12482.08
466.60	12500.80
466.78	12236.32
466.96	12322.92
467.14	12381.43
467.32	12444.63
467.51	12610.81
467.69	12313.56
467.87	12578.04
468.05	12519.53
468.23	12751.24
468.41	12678.68
468.60	12875.29
468.78	12945.50
468.96	12748.90
469.14	12795.71
469.32	13022.74
469.50	13020.40
469.69	13125.72
469.87	13315.31
470.05	13296.58
470.23	13226.37
470.41	13373.82
470.59	13659.37
470.77	13621.92
470.95	13366.80
471.14	13638.30
471.32	13348.08
471.50	13642.98
471.68	13722.56
471.86	13673.41
472.04	13914.48
472.22	13951.93
472.40	13909.80
472.58	14054.92
472.77	14202.37
472.95	14288.97
473.13	14567.49
473.31	14223.44
473.49	14279.61
473.67	14188.33
473.85	14083.00
474.03	14658.78
474.21	14869.42
474.39	14611.96
474.57	14972.41
474.75	14972.41
474.93	15281.36
475.12	15115.18
475.30	15197.10
475.48	15047.30
475.66	15573.92
475.84	15166.67
476.02	15585.63
476.20	15300.08
476.38	15824.36
476.56	16229.27
476.74	16353.32
476.92	16130.97
477.10	16091.18
477.28	16503.12
477.46	16430.56
477.64	16573.33
477.82	16643.55
478.00	17315.28
478.18	17001.65
478.36	16975.91
478.54	17383.16
478.72	17472.10
478.90	17488.48
479.08	17855.95
479.26	18108.72
479.44	17954.25
479.62	17933.18
479.80	18267.88
479.98	18317.03
480.16	18597.90
480.34	18396.61
480.52	19136.22
480.70	18672.79
480.88	18761.73
481.06	18972.38
481.24	19044.94
481.41	19131.54
481.59	19442.83
481.77	19644.12
481.95	19796.25
482.13	20067.75
482.31	19969.45
482.49	20449.26
482.67	20350.96
482.85	20533.52
483.03	20652.89
483.21	21099.93
483.39	21078.86
483.57	21263.77
483.74	21399.52
483.92	21561.02
484.10	21586.76
484.28	22001.04
484.46	22017.42
484.64	22747.67
484.82	22389.56
485.00	22632.98
485.18	22822.56
485.35	23304.71
485.53	23255.56
485.71	23325.78
485.89	23962.40
486.07	23447.49
486.25	23623.03
486.43	23709.63
486.61	24254.97
486.78	24180.07
486.96	24151.99
487.14	24975.86
487.32	24840.11
487.50	25287.15
487.68	24945.43
487.85	25539.93
488.03	25802.07
488.21	26251.45
488.39	25912.07
488.57	26548.70
488.75	26569.76
488.92	26710.19
489.10	26902.12
489.28	27047.23
489.46	27337.46
489.64	27267.24
489.81	27978.76
489.99	27946.00
490.17	28397.72
490.35	28481.98
490.53	28308.78
490.70	28575.60
490.88	28720.71
491.06	29188.82
491.24	29149.03
491.41	29488.41
491.59	29734.17
491.77	29972.90
491.95	29572.67
492.13	30108.65
492.30	29909.71
492.48	30581.44
492.66	30522.93
492.84	30668.04
493.01	30937.20
493.19	31040.18
493.37	31622.98
493.54	31606.59
493.72	31868.73
493.90	32067.68
494.08	32023.21
494.25	32528.77
494.43	32414.08
494.61	32907.93
494.79	32706.65
494.96	32929.00
495.14	33383.06
495.32	33397.10
495.49	33394.76
495.67	33380.72
495.85	34092.24
496.02	34136.71
496.20	34518.22
496.38	34728.87
496.55	34401.19
496.73	35374.86
496.91	34752.27
497.09	34979.31
497.26	35700.19
497.44	35077.61
497.62	35959.99
497.79	36378.95
497.97	35545.72
498.14	36088.72
498.32	36666.83
498.50	36818.97
498.67	37165.37
498.85	36835.35
499.03	36999.19
499.20	37141.96
499.38	37266.01
499.56	37757.52
499.73	37207.50
499.91	37537.51
500.08	37933.06
500.26	38148.39
500.44	38132.01
500.61	38260.74
500.79	37720.07
500.97	38623.52
501.14	38897.36
501.32	38845.87
501.49	39082.27
501.67	39000.35
501.84	39356.11
502.02	39615.91
502.20	39447.39
502.37	39688.46
502.55	39962.31
502.72	39931.88
502.90	40355.52
503.07	39768.04
503.25	39686.12
503.43	40170.61
503.60	40320.41
503.78	40648.08
503.95	40884.48
504.13	41099.81
504.30	41340.88
504.48	40968.74
504.65	40971.08
504.83	41116.19
505.01	41418.12
505.18	41586.64
505.36	42068.79
505.53	42155.39
505.71	42417.53
505.88	42244.33
506.06	41848.78
506.23	42546.26
506.41	42328.59
506.58	42843.51
506.76	42691.37
506.93	43103.31
507.11	42691.37
507.28	42749.88
507.46	43323.32
507.63	43786.74
507.81	43442.68
507.98	43217.99
508.16	43524.60
508.33	44091.01
508.50	43728.23
508.68	43997.39
508.85	44102.71
509.03	44313.36
509.20	44374.22
509.38	44645.72
509.55	44521.67
509.73	45258.94
509.90	45034.25
510.08	44938.29
510.25	44837.64
510.42	45420.44
510.60	45261.28
510.77	45488.31
510.95	45570.23
511.12	45457.88
511.30	45577.25
511.47	46073.45
511.64	45806.62
511.82	46396.44
511.99	45727.05
512.17	46508.79
512.34	46052.38
512.51	46497.08
512.69	47019.02
512.86	47054.13
513.04	47093.92
513.21	47189.88
513.38	47002.64
513.56	47700.12
513.73	47122.01
513.90	47337.33
514.08	47164.14
514.25	47459.04
514.43	47714.16
514.60	47859.27
514.77	47842.89
514.95	47866.30
515.12	48126.10
515.29	48055.88
515.47	48245.46
515.64	48739.32
515.81	48315.68
515.99	49010.82
516.16	49123.16
516.33	48708.89
516.51	49074.01
516.68	48931.24
516.85	49059.97
517.03	49113.80
517.20	49394.67
517.37	49401.69
517.54	49181.68
517.72	49450.84
517.89	49272.96
518.06	49485.95
518.24	49404.03
518.41	49544.46
518.58	49900.22
518.75	49509.35
518.93	49918.95
519.10	49879.16
519.27	50185.77
519.45	49727.02
519.62	50555.57
519.79	49951.71
519.96	50258.32
520.14	50464.29
520.31	50747.50
520.48	50679.62
520.65	50691.32
520.83	51049.42
521.00	51407.53
521.17	50897.29
521.34	51033.04
521.52	50986.23
521.69	51030.70
521.86	51447.32
522.03	51707.12
522.20	51742.22
522.38	52165.86
522.55	51885.00
522.72	51751.59
522.89	51576.04
523.07	51910.74
523.24	51899.04
523.41	51908.40
523.58	51833.50
523.75	52231.40
523.92	52266.50
524.10	52245.44
524.27	52552.05
524.44	52376.51
524.61	52371.83
524.78	52676.10
524.96	52575.45
525.13	52797.80
525.30	52912.49
525.47	52741.63
525.64	52877.38
525.81	53022.50
525.98	52842.27
526.16	53015.47
526.33	52868.02
526.50	53212.08
526.67	53113.78
526.84	53261.23
527.01	53109.10
527.18	53013.13
527.36	53141.86
527.53	53389.96
527.70	53916.58
527.87	53614.65
528.04	53366.55
528.21	53813.60
528.38	53773.81
528.55	53769.13
528.72	53670.82
528.89	53525.71
529.07	53621.67
529.24	53977.43
529.41	54143.61
529.58	53970.41
529.75	53865.09
529.92	54309.79
530.09	54057.01
530.26	54468.95
530.43	54377.67
530.60	54106.16
530.77	54059.35
530.94	54291.07
531.11	54555.55
531.28	54581.29
531.46	54738.11
531.63	54960.46
531.80	54578.95
531.97	55000.25
532.14	54836.41
532.31	54614.06
532.48	54871.52
532.65	54969.82
532.82	55082.17
532.99	54974.50
533.16	54780.24
533.33	55220.26
533.50	55323.24
533.67	55103.23
533.84	55054.08
534.01	55215.58
534.18	55292.82
534.35	55501.12
534.52	55437.93
534.69	55569.00
534.86	55522.19
535.03	55140.68
535.20	55461.33
535.37	55674.32
535.54	55667.30
535.71	55377.08
535.88	55650.92
536.05	55910.72
536.22	55899.01
536.38	55828.80
536.55	56130.73
536.72	55868.59
536.89	55976.25
537.06	56044.13
537.23	56025.40
537.40	55758.58
537.57	55882.63
537.74	56116.68
537.91	56273.50
538.08	56193.92
538.25	56142.43
538.42	56198.60
538.59	56369.46
538.75	56158.81
538.92	56210.31
539.09	56413.93
539.26	56324.99
539.43	56423.29
539.60	56486.49
539.77	56371.80
539.94	56963.96
540.11	56722.88
540.28	56610.54
540.44	56762.67
540.61	56676.07
540.78	56776.72
540.95	56886.72
541.12	56776.72
541.29	56633.94
541.46	56734.59
541.62	56699.48
541.79	56858.63
541.96	56390.53
542.13	57062.26
542.30	56884.38
542.47	57050.56
542.63	57092.69
542.80	57059.92
542.97	57411.00
543.14	57467.17
543.31	57345.47
543.48	57418.02
543.64	57619.31
543.81	57703.57
543.98	57485.90
544.15	57764.42
544.32	57771.44
544.48	57972.73
544.65	57584.20
544.82	57631.01
544.99	57338.44
545.16	57535.05
545.32	57790.17
545.49	58003.16
545.66	58038.26
545.83	57841.66
546.00	58087.42
546.16	58056.99
546.33	57794.85
546.50	57616.97
546.67	58117.84
546.83	57881.45
547.00	58054.65
547.17	57984.43
547.34	58223.17
547.50	58267.64
547.67	58440.84
547.84	58031.24
548.00	58504.03
548.17	58438.50
548.34	58482.97
548.51	58422.11
548.67	58506.37
548.84	58316.79
549.01	58618.72
549.18	58543.82
549.34	58623.40
549.51	58365.94
549.68	58576.59
549.84	58504.03
550.01	58728.72
550.18	58466.58
550.34	58705.32
550.51	58747.45
550.68	58684.25
550.84	58419.77
551.01	58901.92
551.18	58731.06
551.34	58810.64
551.51	58805.96
551.68	58859.79
551.84	58850.43
552.01	58742.77
552.18	59035.33
552.34	58883.20
552.51	59042.35
552.68	58831.71
552.84	59011.93
553.01	59215.55
553.18	59051.72
553.34	59323.22
553.51	58993.20
553.67	59157.04
553.84	59388.75
554.01	59124.27
554.17	59271.73
554.34	59316.20
554.51	59126.61
554.67	59355.99
554.84	59189.81
555.00	59107.89
555.17	59054.06
555.33	59222.58
555.50	59283.43
555.67	59290.45
555.83	59419.18
556.00	59487.06
556.16	59831.11
556.33	59510.46
556.50	59461.31
556.66	59671.96
556.83	59344.28
556.99	59704.73
557.16	59821.75
557.32	59779.62
557.49	59842.82
557.65	59491.74
557.82	59664.94
557.98	59798.35
558.15	59716.43
558.32	59821.75
558.48	59552.59
558.65	59594.72
558.81	59807.71
558.98	59742.17
559.14	60044.10
559.31	59896.65
559.47	59955.16
559.64	59920.05
559.80	60037.08
559.97	60243.05
560.13	59842.82
560.30	59859.20
560.46	59824.09
560.63	60114.32
560.79	59938.78
560.96	60170.49
561.12	60147.09
561.29	60140.07
561.45	60065.17
561.61	60102.62
561.78	60177.51
561.94	59913.03
562.11	60142.41
562.27	60067.51
562.44	60189.22
562.60	60271.14
562.77	60245.39
562.93	60184.54
563.10	60406.89
563.26	60058.15
563.42	60437.31
563.59	60273.48
563.75	60472.42
563.92	60233.69
564.08	60374.12
564.24	60437.31
564.41	60416.25
564.57	60460.72
564.74	60329.65
564.90	60369.44
565.07	60271.14
565.23	60308.58
565.39	60257.09
565.56	60378.80
565.72	60353.05
565.88	60491.15
566.05	60168.15
566.21	60500.51
566.38	60369.44
566.54	60477.10
566.70	60692.43
566.87	60589.45
567.03	60336.67
567.19	60666.69
567.36	60502.85
567.52	60622.22
567.68	60676.05
567.85	60673.71
568.01	60788.39
568.17	60498.17
568.34	60715.84
568.50	60423.27
568.66	60420.93
568.83	60818.82
568.99	60776.69
569.15	60535.62
569.32	60757.97
569.48	60678.39
569.64	60830.52
569.81	60676.05
569.97	60533.28
570.13	60626.90
570.30	60708.82
570.46	60882.02
570.62	60704.13
570.78	60818.82
570.95	60680.73
571.11	60818.82
571.27	60818.82
571.43	60638.60
571.60	60917.12
571.76	60769.67
571.92	60910.10
572.09	60795.42
572.25	60977.98
572.41	60725.20
572.57	61015.43
572.74	60994.36
572.90	60898.40
573.06	61059.90
573.22	60647.96
573.38	60973.30
573.55	60874.99
573.71	60982.66
573.87	60811.80
574.03	60779.03
574.20	61078.62
574.36	60734.56
574.52	60926.49
574.68	61087.98
574.84	61003.72
575.01	61024.79
575.17	61027.13
575.33	60977.98
575.49	60767.33
575.65	61104.37
575.82	61031.81
575.98	61087.98
576.14	61125.43
576.30	61017.77
576.46	60975.64
576.62	61024.79
576.79	61050.53
576.95	60846.91
577.11	61242.46
577.27	61052.87
577.43	61090.32
577.59	60980.32
577.75	60811.80
577.92	60912.44
578.08	61113.73
578.24	61162.88
578.40	61181.60
578.56	61293.95
578.72	61137.13
578.88	61181.60
579.04	61312.67
579.21	61160.54
579.37	61162.88
579.53	61214.37
579.69	60973.30
579.85	61048.19
580.01	61258.84
580.17	61069.26
580.33	61050.53
580.49	61151.18
580.65	61125.43
580.82	60963.93
580.98	60963.93
581.14	60942.87
581.30	61284.59
581.46	61113.73
581.62	61354.80
581.78	61158.20
581.94	61284.59
582.10	61006.06
582.26	61003.72
582.42	61055.21
582.58	61305.65
582.74	61193.31
582.90	61062.24
583.06	61104.37
583.22	60907.76
583.38	61146.50
583.54	61242.46
583.70	61326.72
583.86	61092.66
584.02	61148.84
584.18	61322.04
584.34	60996.70
584.50	61251.82
584.66	61200.33
584.82	61214.37
584.98	61434.38
585.14	61172.24
585.30	61179.26
585.46	61315.01
585.62	61427.36
585.78	61312.67
585.94	61010.74
586.10	61148.84
586.26	61448.42
586.42	61305.65
586.58	61219.05
586.74	61254.16
586.90	61275.22
587.06	61183.94
587.22	61371.19
587.38	61333.74
587.54	61202.67
587.70	61502.26
587.86	61427.36
588.02	61413.32
588.18	61399.27
588.34	61345.44
588.49	61174.58
