SpectraSuite Data File
++++++++++++++++++++++++++++++++++++
Date: Fri Oct 25 11:22:32 EDT 2013
User: price-jones
Dark Spectrum Present: No
Reference Spectrum Present: No
Number of Sampled Component Spectra: 1
Spectrometers: USB2+H05261
Integration Time (usec): 100000 (USB2+H05261)
Spectra Averaged: 1 (USB2+H05261)
Boxcar Smoothing: 0 (USB2+H05261)
Correct for Electrical Dark: No (USB2+H05261)
Strobe/Lamp Enabled: No (USB2+H05261)
Correct for Detector Non-linearity: No (USB2+H05261)
Correct for Stray Light: No (USB2+H05261)
Number of Pixels in Processed Spectrum: 2048
>>>>>Begin Processed Spectral Data<<<<<
365.73	252.78
365.92	252.78
366.12	252.78
366.32	128.73
366.52	140.43
366.72	112.35
366.91	110.01
367.11	93.62
367.31	81.92
367.51	168.52
367.70	107.66
367.90	196.60
368.10	182.56
368.30	91.28
368.49	135.75
368.69	166.18
368.89	126.39
369.09	102.98
369.28	93.62
369.48	166.18
369.68	212.99
369.87	210.65
370.07	149.79
370.27	198.95
370.47	297.25
370.66	521.94
370.86	617.90
371.06	671.73
371.25	664.71
371.45	610.88
371.65	617.90
371.84	711.52
372.04	676.41
372.24	697.48
372.44	676.41
372.63	755.99
372.83	795.78
373.03	692.80
373.22	763.01
373.42	765.36
373.62	772.38
373.81	835.57
374.01	737.27
374.21	777.06
374.40	784.08
374.60	830.89
374.79	725.57
374.99	833.23
375.19	816.85
375.38	866.00
375.58	912.81
375.78	903.45
375.97	779.40
376.17	840.25
376.37	847.27
376.56	959.62
376.76	816.85
376.95	856.64
377.15	905.79
377.35	884.72
377.54	938.55
377.74	858.98
377.93	840.25
378.13	924.51
378.33	887.06
378.52	891.74
378.72	945.58
378.91	966.64
379.11	940.90
379.31	952.60
379.50	896.43
379.70	926.85
379.89	1039.20
380.09	908.13
380.28	924.51
380.48	1043.88
380.68	947.92
380.87	990.05
381.07	1095.37
381.26	1118.78
381.46	978.34
381.65	1057.92
381.85	1064.94
382.04	1043.88
382.24	1001.75
382.43	1172.61
382.63	1006.43
382.83	1036.86
383.02	1128.14
383.22	1217.08
383.41	1034.52
383.61	1022.81
383.80	1184.31
384.00	1086.01
384.19	1118.78
384.39	1078.99
384.58	1116.44
384.78	1181.97
384.97	1069.62
385.17	1184.31
385.36	1200.69
385.56	1116.44
385.75	1160.91
385.95	1153.88
386.14	1299.00
386.34	1128.14
386.53	1198.35
386.72	1233.46
386.92	1268.57
387.11	1284.95
387.31	1179.63
387.50	1238.14
387.70	1144.52
387.89	1315.38
388.09	1240.48
388.28	1359.85
388.48	1352.83
388.67	1313.04
388.86	1334.11
389.06	1362.19
389.25	1369.21
389.45	1355.17
389.64	1313.04
389.84	1413.68
390.03	1331.76
390.22	1357.51
390.42	1418.36
390.61	1373.89
390.81	1469.86
391.00	1481.56
391.19	1394.96
391.39	1423.05
391.58	1549.43
391.78	1352.83
391.97	1521.35
392.16	1451.13
392.36	1411.34
392.55	1481.56
392.75	1493.26
392.94	1591.56
393.13	1612.63
393.33	1533.05
393.52	1593.90
393.71	1561.14
393.91	1638.38
394.10	1596.25
394.29	1671.14
394.49	1612.63
394.68	1633.69
394.88	1600.93
395.07	1689.87
395.26	1626.67
395.46	1675.82
395.65	1675.82
395.84	1767.10
396.04	1942.64
396.23	1811.57
396.42	1832.64
396.62	1858.39
396.81	1682.85
397.00	1755.40
397.19	1827.96
397.39	1804.55
397.58	1762.42
397.77	1790.51
397.97	1781.15
398.16	1832.64
398.35	1872.43
398.55	1935.62
398.74	1902.86
398.93	1898.17
399.12	1851.36
399.32	1844.34
399.51	1980.09
399.70	2033.93
399.90	2008.18
400.09	1928.60
400.28	2094.78
400.47	2010.52
400.67	1989.46
400.86	2090.10
401.05	2120.53
401.24	2106.48
401.44	2200.10
401.63	2181.38
401.82	2162.66
402.01	2155.63
402.21	2186.06
402.40	2190.74
402.59	2167.34
402.78	2310.11
402.97	2296.07
403.17	2246.91
403.36	2310.11
403.55	2317.13
403.74	2284.36
403.93	2401.39
404.13	2298.41
404.32	2394.37
404.51	2375.64
404.70	2499.69
404.89	2422.45
405.09	2600.34
405.28	2497.35
405.47	2588.63
405.66	2403.73
405.85	2445.86
406.05	2530.12
406.24	2700.98
406.43	2551.18
406.62	2672.89
406.81	2686.94
407.00	2541.82
407.20	2476.29
407.39	2698.64
407.58	2813.32
407.77	2626.08
407.96	2806.30
408.15	2729.06
408.34	2696.30
408.54	2981.84
408.73	2853.11
408.92	2862.48
409.11	2857.79
409.30	2878.86
409.49	2965.46
409.68	3059.08
409.87	2967.80
410.07	3023.97
410.26	3084.83
410.45	2958.44
410.64	2949.08
410.83	3190.15
411.02	3028.65
411.21	3162.06
411.40	3192.49
411.59	3187.81
411.78	3302.50
411.98	3220.58
412.17	3405.48
412.36	3421.86
412.55	3307.18
412.74	3396.12
412.93	3391.44
413.12	3421.86
413.31	3566.98
413.50	3494.42
413.69	3531.87
413.88	3597.40
414.07	3716.77
414.26	3630.17
414.45	3763.58
414.64	3637.19
414.83	3864.22
415.02	3826.78
415.22	3885.29
415.41	3946.14
415.60	3990.61
415.79	3908.69
415.98	4039.76
416.17	4023.38
416.36	3805.71
416.55	4049.13
416.74	4070.19
416.93	4250.41
417.12	4135.73
417.31	4329.99
417.50	4163.81
417.69	4283.18
417.88	4383.82
418.07	4219.99
418.26	4234.03
418.45	4381.48
418.64	4437.66
418.83	4423.61
419.02	4550.00
419.21	4418.93
419.39	4568.73
419.58	4557.02
419.77	4465.74
419.96	4566.39
420.15	4720.86
420.34	4610.86
420.53	4755.97
420.72	4772.35
420.91	4758.31
421.10	4894.06
421.29	5048.54
421.48	4753.63
421.67	4695.11
421.86	4774.69
422.05	4788.74
422.24	4791.08
422.43	5116.41
422.61	4873.00
422.80	4961.94
422.99	5067.26
423.18	5022.79
423.37	5043.85
423.56	5069.60
423.75	4917.47
423.94	4821.50
424.13	4706.82
424.32	4788.74
424.50	4973.64
424.69	5144.50
424.88	5221.74
425.07	5006.41
425.26	4954.91
425.45	4915.12
425.64	5022.79
425.83	5104.71
426.01	5149.18
426.20	5231.10
426.39	5064.92
426.58	5071.94
426.77	5198.33
426.96	5214.71
427.15	5181.95
427.33	5345.78
427.52	5252.16
427.71	5467.49
427.90	5418.34
428.09	5392.59
428.28	5530.69
428.46	5362.17
428.65	5465.15
428.84	5530.69
429.03	5490.90
429.22	5430.04
429.40	5535.37
429.59	5570.48
429.78	5408.98
429.97	5291.95
430.16	5441.75
430.34	5638.35
430.53	5837.30
430.72	5816.23
430.91	5746.02
431.10	5748.36
431.28	5837.30
431.47	5891.13
431.66	5975.39
431.85	5914.53
432.03	6057.31
432.22	6022.20
432.41	5944.96
432.60	5935.60
432.79	6143.91
432.97	5977.73
433.16	6319.45
433.35	6038.58
433.54	6204.76
433.72	6214.12
433.91	6242.21
434.10	6134.54
434.28	6246.89
434.47	6211.78
434.66	6251.57
434.85	6487.96
435.03	6590.95
435.22	6347.53
435.41	6637.76
435.59	6401.37
435.78	6480.94
435.97	6464.56
436.16	6452.86
436.34	6654.14
436.53	6619.04
436.72	6604.99
436.90	6595.63
437.09	6834.36
437.28	6509.03
437.46	6691.59
437.65	6675.21
437.84	6817.98
438.02	6841.39
438.21	6967.77
438.40	6806.28
438.58	6956.07
438.77	7300.13
438.96	6960.75
439.14	7206.51
439.33	7286.09
439.52	7311.83
439.70	7272.04
439.89	7487.37
440.08	7489.71
440.26	7545.89
440.45	7424.18
440.63	7569.29
440.82	7751.85
441.01	7552.91
441.19	7754.19
441.38	7868.88
441.57	7793.98
441.75	7950.80
441.94	8198.90
442.12	8248.05
442.31	8203.58
442.50	8290.18
442.68	8053.78
442.87	8053.78
443.05	8234.00
443.24	8313.58
443.43	8191.88
443.61	8500.83
443.80	8617.85
443.98	8271.45
444.17	7936.76
444.35	8430.61
444.54	8542.96
444.73	8397.84
444.91	8407.20
445.10	8477.42
445.28	8482.10
445.47	8215.28
445.65	8425.93
445.84	8617.85
446.02	8638.92
446.21	8638.92
446.39	8479.76
446.58	8517.21
446.77	8669.34
446.95	8390.82
447.14	8599.13
447.32	8397.84
447.51	8540.61
447.69	8514.87
447.88	8503.17
448.06	8760.63
448.25	8568.70
448.43	8542.96
448.62	8561.68
448.80	8664.66
448.99	8524.23
449.17	8814.46
449.36	8688.07
449.54	9018.08
449.73	8896.38
449.91	9015.74
450.10	9139.79
450.28	9139.79
450.46	9181.92
450.65	9186.60
450.83	9415.98
451.02	9156.18
451.20	9298.95
451.39	9341.08
451.57	9177.24
451.76	9135.11
451.94	9172.56
452.13	9411.29
452.31	9472.15
452.49	9355.12
452.68	9547.05
452.86	9324.69
453.05	9671.09
453.23	9603.22
453.42	9535.34
453.60	9448.74
453.78	9521.30
453.97	9474.49
454.15	9738.97
454.34	9610.24
454.52	9778.76
454.70	9975.36
454.89	9809.19
455.07	10047.92
455.26	9916.85
455.44	10200.05
455.62	10003.45
455.81	10129.84
455.99	10080.69
456.17	10099.41
456.36	10190.69
456.54	10356.87
456.73	10272.61
456.91	10527.73
457.09	10602.63
457.28	10726.68
457.46	10490.28
457.64	11042.65
457.83	10523.05
458.01	10527.73
458.19	10916.26
458.38	10689.23
458.56	10876.47
458.74	10970.09
458.93	10766.46
459.11	11035.63
459.29	10951.37
459.48	10881.15
459.66	10843.70
459.84	11054.35
460.03	11213.51
460.21	11084.78
460.39	11087.12
460.57	11300.11
460.76	11445.22
460.94	11286.06
461.12	11206.48
461.31	11637.14
461.49	11454.58
461.67	11236.91
461.85	11428.84
462.04	11407.77
462.22	11922.69
462.40	11908.65
462.59	11658.21
462.77	11531.82
462.95	12002.27
463.13	11819.71
463.32	12056.10
463.50	11756.51
463.68	11990.56
463.86	11808.00
464.05	11896.94
464.23	11868.86
464.41	12233.98
464.59	12002.27
464.78	12292.49
464.96	12095.89
465.14	12093.55
465.32	12212.92
465.50	12112.27
465.69	12573.36
465.87	12329.94
466.05	12383.77
466.23	12262.07
466.41	12414.20
466.60	12695.07
466.78	12418.88
466.96	12325.26
467.14	12643.57
467.32	12776.98
467.51	12622.51
467.69	12320.58
467.87	12439.95
468.05	12917.42
468.23	12533.57
468.41	12662.30
468.60	12669.32
468.78	12868.27
468.96	12610.81
469.14	13144.45
469.32	13102.32
469.50	12971.25
469.69	13008.70
469.87	12982.95
470.05	13530.64
470.23	13123.38
470.41	13418.29
470.59	13434.68
470.77	13334.03
470.95	13352.76
471.14	13652.34
471.32	13319.99
471.50	13947.25
471.68	14040.87
471.86	13699.16
472.04	13944.91
472.22	14216.41
472.40	14171.94
472.58	13893.42
472.77	14059.60
472.95	14356.85
473.13	14492.60
473.31	14127.47
473.49	14209.39
473.67	14347.48
473.85	14471.53
474.03	14651.75
474.21	14712.61
474.39	14731.33
474.57	14888.15
474.75	15190.08
474.93	15426.47
475.12	14974.75
475.30	15360.94
475.48	15192.42
475.66	15499.03
475.84	15384.34
476.02	15520.09
476.20	15609.03
476.38	15953.09
476.56	16074.80
476.74	16175.44
476.92	15981.18
477.10	15927.35
477.28	16545.25
477.46	16585.04
477.64	16666.95
477.82	16905.69
478.00	17289.54
478.18	17032.08
478.36	17069.53
478.54	17001.65
478.72	17542.32
478.90	17757.64
479.08	17696.79
479.26	18153.20
479.44	17858.29
479.62	18071.28
479.80	18232.77
479.98	18361.50
480.16	18576.83
480.34	18525.34
480.52	18948.98
480.70	18637.69
480.88	18845.99
481.06	18909.19
481.24	18967.70
481.41	19192.39
481.59	19613.69
481.77	20009.24
481.95	19969.45
482.13	19978.81
482.31	20318.19
482.49	20566.29
482.67	20524.16
482.85	20786.30
483.03	20945.45
483.21	21287.17
483.39	21170.15
483.57	21238.02
483.74	21589.10
483.92	21593.78
484.10	21376.11
484.28	21764.64
484.46	22211.68
484.64	22656.39
484.82	22384.88
485.00	22586.17
485.18	22857.67
485.35	22918.53
485.53	23131.51
485.71	23571.54
485.89	24142.63
486.07	23800.91
486.25	23995.17
486.43	24006.87
486.61	24339.23
486.78	24446.90
486.96	24311.14
487.14	24603.71
487.32	24802.66
487.50	25252.04
487.68	25294.17
487.85	25682.70
488.03	25893.35
488.21	26384.86
488.39	26174.21
488.57	26492.52
488.75	26658.70
488.92	26897.44
489.10	27374.91
489.28	27075.32
489.46	27761.09
489.64	27536.40
489.81	27798.54
489.99	28320.48
490.17	27676.83
490.35	28606.03
490.53	28528.79
490.70	29156.05
490.88	28388.36
491.06	29280.10
491.24	29427.56
491.41	29556.28
491.59	29799.70
491.77	29619.48
491.95	30057.16
492.13	30356.75
492.30	30197.59
492.48	30342.70
492.66	30466.75
492.84	30986.35
493.01	30876.35
493.19	31035.50
493.37	31522.34
493.54	31700.22
493.72	31990.44
493.90	31756.39
494.08	32308.76
494.25	32542.81
494.43	32390.67
494.61	32465.57
494.79	33015.60
494.96	32910.27
495.14	32847.08
495.32	33560.94
495.49	33813.72
495.67	33631.16
495.85	33802.02
496.02	34726.53
496.20	34330.98
496.38	34600.14
496.55	34869.30
496.73	35531.67
496.91	35131.44
497.09	35248.47
497.26	35185.27
497.44	35316.34
497.62	35587.85
497.79	36203.41
497.97	35910.84
498.14	36266.60
498.32	36903.23
498.50	36985.15
498.67	37193.45
498.85	36964.08
499.03	37088.13
499.20	37319.84
499.38	37226.22
499.56	37586.66
499.73	37493.04
499.91	37855.82
500.08	38265.42
500.26	37818.38
500.44	38239.67
500.61	38220.95
500.79	38572.03
500.97	38581.39
501.14	39063.54
501.32	39100.99
501.49	39419.30
501.67	39161.84
501.84	39400.58
502.02	39278.87
502.20	39779.74
502.37	39688.46
502.55	39873.37
502.72	39761.02
502.90	40072.31
503.07	39941.24
503.25	40156.57
503.43	40266.58
503.60	40404.67
503.78	40346.15
503.95	40706.60
504.13	40919.59
504.30	41055.34
504.48	41078.74
504.65	41495.36
504.83	41394.71
505.01	41918.99
505.18	41570.25
505.36	42288.80
505.53	41605.36
505.71	42232.63
505.88	42047.72
506.06	42000.91
506.23	42696.05
506.41	42450.30
506.58	43019.05
506.76	42682.01
506.93	43367.79
507.11	42518.17
507.28	43131.39
507.46	43250.76
507.63	43489.49
507.81	43587.80
507.98	43646.31
508.16	44245.49
508.33	43540.99
508.50	44142.50
508.68	43995.05
508.85	44687.85
509.03	44598.91
509.20	44692.53
509.38	44844.66
509.55	45006.16
509.73	45305.75
509.90	44884.45
510.08	45097.44
510.25	45127.87
510.42	45170.00
510.60	45462.57
510.77	45968.12
510.95	45986.85
511.12	45514.06
511.30	45780.88
511.47	46307.50
511.64	46117.92
511.82	46602.41
511.99	46185.79
512.17	46382.40
512.34	46391.76
512.51	46902.00
512.69	47044.77
512.86	46689.01
513.04	47077.54
513.21	47131.37
513.38	47194.56
513.56	47192.22
513.73	47351.38
513.90	47351.38
514.08	47234.35
514.25	48177.59
514.43	47849.91
514.60	48200.99
514.77	47775.02
514.95	48479.52
515.12	48081.63
515.29	48177.59
515.47	48521.65
515.64	48699.53
515.81	48502.92
515.99	48666.76
516.16	48842.30
516.33	49317.43
516.51	49113.80
516.68	48989.75
516.85	49237.85
517.03	49137.21
517.20	49647.44
517.37	49074.01
517.54	49661.49
517.72	49626.38
517.89	49481.27
518.06	49652.12
518.24	49815.96
518.41	49932.99
518.58	50134.28
518.75	49717.66
518.93	49888.52
519.10	49940.01
519.27	50347.26
519.45	50429.18
519.62	50492.38
519.79	50497.06
519.96	50539.19
520.14	50649.19
520.31	50419.82
520.48	50918.35
520.65	51058.79
520.83	50965.17
521.00	51126.66
521.17	50897.29
521.34	51016.66
521.52	51140.71
521.69	51341.99
521.86	51559.66
522.03	51641.58
522.20	51683.71
522.38	51931.81
522.55	51777.33
522.72	51980.96
522.89	51859.25
523.07	51910.74
523.24	52067.56
523.41	51798.40
523.58	51840.53
523.75	52411.62
523.92	52156.50
524.10	52535.66
524.27	52530.98
524.44	52456.09
524.61	52446.72
524.78	52842.27
524.96	52802.49
525.13	52669.08
525.30	52905.47
525.47	53076.33
525.64	52802.49
525.81	53062.29
525.98	53291.66
526.16	52898.45
526.33	53188.67
526.50	53448.47
526.67	53219.10
526.84	53310.38
527.01	53474.22
527.18	53441.45
527.36	53467.20
527.53	53378.26
527.70	53785.51
527.87	53703.59
528.04	53673.16
528.21	53628.69
528.38	53778.49
528.55	54073.40
528.72	53827.64
528.89	53909.56
529.07	53837.00
529.24	53727.00
529.41	53776.15
529.58	54143.61
529.75	53961.05
529.92	54223.19
530.09	54160.00
530.26	54094.46
530.43	54492.35
530.60	54368.30
530.77	54363.62
530.94	54581.29
531.11	54506.40
531.28	54440.86
531.46	54677.25
531.63	54670.23
531.80	54920.67
531.97	54665.55
532.14	54948.76
532.31	54749.81
532.48	54990.89
532.65	54869.18
532.82	54958.12
532.99	54981.52
533.16	54920.67
533.33	55269.41
533.50	55363.03
533.67	55061.10
533.84	55131.32
534.01	55044.72
534.18	55435.59
534.35	55407.50
534.52	55533.89
534.69	55594.74
534.86	55716.45
535.03	55578.36
535.20	55585.38
535.37	55379.42
535.54	55819.44
535.71	55470.70
535.88	55732.84
536.05	55781.99
536.22	55845.18
536.38	56072.21
536.55	56020.72
536.72	55908.38
536.89	55796.03
537.06	56207.97
537.23	56069.87
537.40	55999.66
537.57	56163.50
537.74	56355.42
537.91	56294.56
538.08	56275.84
538.25	56175.20
538.42	56193.92
538.59	56566.07
538.75	56243.07
538.92	56303.93
539.09	56474.79
539.26	56460.74
539.43	56687.78
539.60	56570.75
539.77	56935.87
539.94	56870.34
540.11	56554.36
540.28	56694.80
540.44	57031.83
540.61	56821.19
540.78	56610.54
540.95	56774.37
541.12	56882.04
541.29	56617.56
541.46	56935.87
541.62	56973.32
541.79	57064.60
541.96	56757.99
542.13	56996.73
542.30	56877.36
542.47	57230.78
542.63	57141.84
542.80	57303.34
542.97	57450.79
543.14	57628.67
543.31	57202.69
543.48	57509.30
543.64	57771.44
543.81	57654.42
543.98	57546.75
544.15	57687.18
544.32	57694.21
544.48	57811.23
544.65	57715.27
544.82	57827.62
544.99	57635.69
545.16	57874.43
545.32	57755.06
545.49	57998.48
545.66	58047.63
545.83	57759.74
546.00	57993.79
546.16	58089.76
546.33	57900.17
546.50	57935.28
546.67	57925.92
546.83	57670.80
547.00	58078.05
547.17	58136.57
547.34	58059.33
547.50	58274.66
547.67	58581.27
547.84	58461.90
548.00	58482.97
548.17	58466.58
548.34	58564.88
548.51	58665.53
548.67	58550.84
548.84	58466.58
549.01	58436.16
549.18	58501.69
549.34	58473.60
549.51	58506.37
549.68	58791.92
549.84	58719.36
550.01	58707.66
550.18	58681.91
550.34	58878.52
550.51	58993.20
550.68	58817.66
550.84	58660.85
551.01	58873.84
551.18	58691.27
551.34	59089.16
551.51	58838.73
551.68	58922.99
551.84	59018.95
552.01	58829.37
552.18	59330.24
552.34	58906.60
552.51	59138.32
552.68	58838.73
552.84	59133.63
553.01	59330.24
553.18	59035.33
553.34	59339.60
553.51	59178.10
553.67	59283.43
553.84	59346.62
554.01	59370.03
554.17	59278.75
554.34	59276.41
554.51	59203.85
554.67	59458.97
554.84	59494.08
555.00	59367.69
555.17	59220.23
555.33	59363.01
555.50	59332.58
555.67	59461.31
555.83	59592.38
556.00	59550.25
556.16	59627.49
556.33	59744.51
556.50	59632.17
556.66	59831.11
556.83	59545.57
556.99	59737.49
557.16	59735.15
557.32	59994.95
557.49	59920.05
557.65	59744.51
557.82	59693.02
557.98	59732.81
558.15	59650.89
558.32	59803.03
558.48	59936.44
558.65	59629.83
558.81	59868.56
558.98	59983.25
559.14	60065.17
559.31	60093.25
559.47	59964.52
559.64	59835.80
559.80	59992.61
559.97	60076.87
560.13	60034.74
560.30	59917.71
560.46	59999.63
560.63	60004.31
560.79	60072.19
560.96	60301.56
561.12	60306.24
561.29	60161.13
561.45	60397.52
561.61	59929.42
561.78	60060.49
561.94	60037.08
562.11	60104.96
562.27	60226.66
562.44	60542.64
562.60	60378.80
562.77	60413.91
562.93	60261.77
563.10	60193.90
563.26	60048.78
563.42	60500.51
563.59	60355.39
563.75	60547.32
563.92	60486.46
564.08	60404.55
564.24	60542.64
564.41	60458.38
564.57	60594.13
564.74	60493.49
564.90	60456.04
565.07	60271.14
565.23	60647.96
565.39	60481.78
565.56	60528.59
565.72	60114.32
565.88	60439.65
566.05	60631.58
566.21	60542.64
566.38	60587.11
566.54	60842.23
566.70	60664.35
566.87	60694.77
567.03	60566.04
567.19	60743.92
567.36	60669.03
567.52	60626.90
567.68	60788.39
567.85	60608.17
568.01	60842.23
568.17	60643.28
568.34	60772.01
568.50	60624.56
568.66	60626.90
568.83	60680.73
568.99	60804.78
569.15	60774.35
569.32	60729.88
569.48	60516.89
569.64	60828.18
569.81	60680.73
569.97	60619.88
570.13	60694.77
570.30	60633.92
570.46	60814.14
570.62	61029.47
570.78	60987.34
570.95	60849.25
571.11	60942.87
571.27	60905.42
571.43	60919.46
571.60	61052.87
571.76	61052.87
571.92	60959.25
572.09	60800.10
572.25	61083.30
572.41	60912.44
572.57	60893.72
572.74	61059.90
572.90	60987.34
573.06	60905.42
573.22	61010.74
573.38	60877.33
573.55	60999.04
573.71	61118.41
573.87	61034.15
574.03	60898.40
574.20	60977.98
574.36	60872.65
574.52	60912.44
574.68	61055.21
574.84	61347.78
575.01	61219.05
575.17	60919.46
575.33	61132.45
575.49	61153.52
575.65	61195.65
575.82	61172.24
575.98	60945.21
576.14	61315.01
576.30	61160.54
576.46	61179.26
576.62	61059.90
576.79	61020.11
576.95	60954.57
577.11	60882.02
577.27	61109.05
577.43	61099.68
577.59	61134.79
577.75	61015.43
577.92	60872.65
578.08	61116.07
578.24	61258.84
578.40	61195.65
578.56	61097.34
578.72	61158.20
578.88	61399.27
579.04	61331.40
579.21	61090.32
579.37	61340.76
579.53	61261.18
579.69	61069.26
579.85	61286.93
580.01	61307.99
580.17	61080.96
580.33	61172.24
580.49	61326.72
580.65	61237.78
580.82	61050.53
580.98	61153.52
581.14	61095.00
581.30	61354.80
581.46	61195.65
581.62	61385.23
581.78	61151.18
581.94	61174.58
582.10	61413.32
582.26	61247.14
582.42	61207.35
582.58	61322.04
582.74	61130.11
582.90	61158.20
583.06	61247.14
583.22	61027.13
583.38	61254.16
583.54	61160.54
583.70	61317.35
583.86	61350.12
584.02	61286.93
584.18	61307.99
584.34	61205.01
584.50	61312.67
584.66	61139.47
584.82	61113.73
584.98	61441.40
585.14	61244.80
585.30	61268.20
585.46	61296.29
585.62	61272.88
585.78	61532.68
585.94	61343.10
586.10	61275.22
586.26	61446.08
586.42	61584.18
586.58	61352.46
586.74	61497.58
586.90	61272.88
587.06	61319.70
587.22	61399.27
587.38	61371.19
587.54	61687.16
587.70	61485.87
587.86	61600.56
588.02	61523.32
588.18	61544.39
588.34	61427.36
588.49	61375.87
