SpectraSuite Data File
++++++++++++++++++++++++++++++++++++
Date: Fri Oct 25 11:25:09 EDT 2013
User: price-jones
Dark Spectrum Present: No
Reference Spectrum Present: No
Number of Sampled Component Spectra: 1
Spectrometers: USB2+H05261
Integration Time (usec): 100000 (USB2+H05261)
Spectra Averaged: 1 (USB2+H05261)
Boxcar Smoothing: 0 (USB2+H05261)
Correct for Electrical Dark: No (USB2+H05261)
Strobe/Lamp Enabled: No (USB2+H05261)
Correct for Detector Non-linearity: No (USB2+H05261)
Correct for Stray Light: No (USB2+H05261)
Number of Pixels in Processed Spectrum: 2048
>>>>>Begin Processed Spectral Data<<<<<
365.73	220.01
365.92	220.01
366.12	220.01
366.32	152.13
366.52	168.52
366.72	180.22
366.91	128.73
367.11	133.41
367.31	93.62
367.51	163.84
367.70	110.01
367.90	154.48
368.10	163.84
368.30	110.01
368.49	107.66
368.69	168.52
368.89	147.45
369.09	142.77
369.28	175.54
369.48	124.05
369.68	215.33
369.87	243.42
370.07	196.60
370.27	271.50
370.47	327.68
370.66	552.37
370.86	599.18
371.06	615.56
371.25	697.48
371.45	653.01
371.65	699.82
371.84	697.48
372.04	557.05
372.24	732.59
372.44	725.57
372.63	690.46
372.83	755.99
373.03	720.88
373.22	753.65
373.42	767.70
373.62	760.67
373.81	784.08
374.01	819.19
374.21	741.95
374.40	734.93
374.60	758.33
374.79	784.08
374.99	837.91
375.19	821.53
375.38	800.46
375.58	840.25
375.78	826.21
375.97	844.93
376.17	968.98
376.37	912.81
376.56	800.46
376.76	870.68
376.95	828.55
377.15	880.04
377.35	880.04
377.54	929.19
377.74	922.17
377.93	891.74
378.13	875.36
378.33	912.81
378.52	868.34
378.72	910.47
378.91	945.58
379.11	964.30
379.31	882.38
379.50	994.73
379.70	1015.79
379.89	985.37
380.09	987.71
380.28	945.58
380.48	973.66
380.68	924.51
380.87	983.02
381.07	1015.79
381.26	1050.90
381.46	1046.22
381.65	1004.09
381.85	1018.13
382.04	990.05
382.24	1039.20
382.43	1107.07
382.63	1008.77
382.83	1160.91
383.02	1137.50
383.22	1093.03
383.41	1083.67
383.61	1043.88
383.80	1125.80
384.00	1137.50
384.19	1142.18
384.39	1128.14
384.58	1132.82
384.78	1142.18
384.97	1086.01
385.17	1118.78
385.36	1130.48
385.56	1088.35
385.75	1095.37
385.95	1181.97
386.14	1158.57
386.34	1203.04
386.53	1153.88
386.72	1289.64
386.92	1233.46
387.11	1214.74
387.31	1226.44
387.50	1153.88
387.70	1179.63
387.89	1259.21
388.09	1228.78
388.28	1306.02
388.48	1252.19
388.67	1228.78
388.86	1254.53
389.06	1348.15
389.25	1434.75
389.45	1359.85
389.64	1376.24
389.84	1359.85
390.03	1397.30
390.22	1320.06
390.42	1324.74
390.61	1306.02
390.81	1394.96
391.00	1455.81
391.19	1476.88
391.39	1423.05
391.58	1416.02
391.78	1458.15
391.97	1416.02
392.16	1413.68
392.36	1453.47
392.55	1406.66
392.75	1476.88
392.94	1490.92
393.13	1481.56
393.33	1570.50
393.52	1631.35
393.71	1626.67
393.91	1680.50
394.10	1575.18
394.29	1561.14
394.49	1530.71
394.68	1685.19
394.88	1619.65
395.07	1603.27
395.26	1621.99
395.46	1682.85
395.65	1727.32
395.84	1715.61
396.04	1863.07
396.23	1696.89
396.42	1755.40
396.62	1823.28
396.81	1736.68
397.00	1713.27
397.19	1689.87
397.39	1830.30
397.58	1804.55
397.77	1802.21
397.97	1748.38
398.16	1867.75
398.35	1849.02
398.55	1884.13
398.74	1935.62
398.93	1874.77
399.12	1912.22
399.32	1940.30
399.51	1902.86
399.70	2047.97
399.90	1846.68
400.09	1914.56
400.28	2029.24
400.47	2080.74
400.67	2157.97
400.86	2062.01
401.05	2066.69
401.24	1989.46
401.44	2204.78
401.63	2125.21
401.82	2115.84
402.01	2057.33
402.21	2132.23
402.40	2197.76
402.59	2197.76
402.78	2118.18
402.97	2267.98
403.17	2209.47
403.36	2296.07
403.55	2356.92
403.74	2356.92
403.93	2445.86
404.13	2406.07
404.32	2406.07
404.51	2356.92
404.70	2385.01
404.89	2321.81
405.09	2466.92
405.28	2403.73
405.47	2452.88
405.66	2385.01
405.85	2555.86
406.05	2445.86
406.24	2469.27
406.43	2656.51
406.62	2614.38
406.81	2649.49
407.00	2593.31
407.20	2679.91
407.39	2597.99
407.58	2705.66
407.77	2651.83
407.96	2733.75
408.15	2628.42
408.34	2546.50
408.54	2799.28
408.73	2651.83
408.92	2829.71
409.11	2923.33
409.30	2860.13
409.49	2841.41
409.68	2890.56
409.87	2928.01
410.07	3009.93
410.26	3026.31
410.45	2925.67
410.64	3028.65
410.83	3026.31
411.02	3021.63
411.21	3204.19
411.40	3208.87
411.59	3274.41
411.78	3155.04
411.98	3138.66
412.17	3288.45
412.36	3288.45
412.55	3393.78
412.74	3309.52
412.93	3328.24
413.12	3342.28
413.31	3515.48
413.50	3440.59
413.69	3510.80
413.88	3700.39
414.07	3576.34
414.26	3562.30
414.45	3602.08
414.64	3688.68
414.83	3702.73
415.02	3737.84
415.22	3756.56
415.41	3808.05
415.60	3906.35
415.79	3779.97
415.98	3770.60
416.17	4051.47
416.36	4042.11
416.55	3896.99
416.74	3896.99
416.93	4051.47
417.12	4077.21
417.31	4198.92
417.50	4107.64
417.69	4311.27
417.88	4215.30
418.07	4191.90
418.26	4266.80
418.45	4266.80
418.64	4542.98
418.83	4341.69
419.02	4395.53
419.21	4425.95
419.39	4418.93
419.58	4383.82
419.77	4376.80
419.96	4454.04
420.15	4678.73
420.34	4692.77
420.53	4610.86
420.72	4720.86
420.91	4711.50
421.10	4669.37
421.29	4837.89
421.48	4758.31
421.67	4770.01
421.86	4774.69
422.05	4772.35
422.24	4788.74
422.43	4898.74
422.61	4826.18
422.80	5069.60
422.99	4896.40
423.18	4887.04
423.37	4961.94
423.56	4994.70
423.75	4819.16
423.94	4706.82
424.13	4557.02
424.32	4734.90
424.50	4957.25
424.69	5022.79
424.88	5097.69
425.07	5013.43
425.26	4830.87
425.45	4938.53
425.64	4882.36
425.83	4938.53
426.01	5067.26
426.20	5212.37
426.39	4994.70
426.58	4947.89
426.77	4961.94
426.96	5078.96
427.15	5167.90
427.33	5163.22
427.52	5289.61
427.71	5233.44
427.90	5177.26
428.09	5343.44
428.28	5343.44
428.46	5277.91
428.65	5390.25
428.84	5502.60
429.03	5589.20
429.22	5352.81
429.40	5481.53
429.59	5252.16
429.78	5221.74
429.97	5245.14
430.16	5523.66
430.34	5659.42
430.53	5678.14
430.72	5724.95
430.91	5699.20
431.10	5593.88
431.28	5746.02
431.47	5710.91
431.66	5736.65
431.85	5795.17
432.03	5834.96
432.22	5870.06
432.41	5975.39
432.60	5982.41
432.79	5902.83
432.97	6022.20
433.16	6038.58
433.35	6005.81
433.54	6052.63
433.72	5989.43
433.91	5926.24
434.10	6073.69
434.28	6176.67
434.47	6174.33
434.66	6200.08
434.85	6169.65
435.03	6169.65
435.22	6019.86
435.41	6333.49
435.59	6574.56
435.78	6361.58
435.97	6277.32
436.16	6377.96
436.34	6401.37
436.53	6553.50
436.72	6565.20
436.90	6394.34
437.09	6707.98
437.28	6473.92
437.46	6668.19
437.65	6403.71
437.84	6686.91
438.02	6588.61
438.21	6787.55
438.40	6724.36
438.58	6951.39
438.77	6958.41
438.96	6869.47
439.14	6913.94
439.33	7187.79
439.52	7325.88
439.70	7166.72
439.89	7234.60
440.08	7178.42
440.26	7304.81
440.45	7314.17
440.63	7463.97
440.82	7550.57
441.01	7332.90
441.19	7487.37
441.38	7667.60
441.57	7798.66
441.75	7662.91
441.94	7770.58
442.12	7847.82
442.31	7967.18
442.50	8004.63
442.68	8222.30
442.87	8051.44
443.05	8145.06
443.24	8355.71
443.43	8002.29
443.61	8205.92
443.80	8353.37
443.98	8147.40
444.17	7995.27
444.35	8128.68
444.54	8423.59
444.73	8358.05
444.91	8269.11
445.10	8287.84
445.28	8079.53
445.47	8252.73
445.65	8140.38
445.84	8243.37
446.02	8400.18
446.21	8542.96
446.39	8320.60
446.58	8442.31
446.77	8367.42
446.95	8276.13
447.14	8442.31
447.32	8458.70
447.51	8421.25
447.69	8526.57
447.88	8414.23
448.06	8465.72
448.25	8418.91
448.43	8589.77
448.62	8596.79
448.80	8400.18
448.99	8648.28
449.17	8737.22
449.36	8561.68
449.54	8875.31
449.73	9083.62
449.91	8674.03
450.10	8856.59
450.28	8987.66
450.46	9240.44
450.65	9090.64
450.83	9064.89
451.02	8943.19
451.20	9102.34
451.39	9184.26
451.57	9008.72
451.76	9025.11
451.94	9186.60
452.13	9172.56
452.31	9242.78
452.49	9146.81
452.68	9200.65
452.86	9238.09
453.05	9296.61
453.23	9509.60
453.42	9296.61
453.60	9259.16
453.78	9341.08
453.97	9378.53
454.15	9523.64
454.34	9437.04
454.52	9607.90
454.70	9783.44
454.89	9523.64
455.07	9783.44
455.26	9762.37
455.44	9785.78
455.62	9612.58
455.81	9874.72
455.99	9914.51
456.17	10083.03
456.36	9968.34
456.54	10153.24
456.73	10195.37
456.91	10462.19
457.09	10464.54
457.28	10377.94
457.46	10319.42
457.64	10604.97
457.83	10537.09
458.01	10160.27
458.19	10724.33
458.38	10569.86
458.56	10700.93
458.74	10614.33
458.93	10583.90
459.11	10600.29
459.29	10832.00
459.48	10839.02
459.66	10850.72
459.84	10700.93
460.03	11042.65
460.21	10827.32
460.39	10927.96
460.57	10946.69
460.76	11344.58
460.94	11325.85
461.12	11143.29
461.31	11201.80
461.49	11183.08
461.67	11047.33
461.85	11569.27
462.04	11082.44
462.22	11733.11
462.40	11611.40
462.59	11585.65
462.77	11365.64
462.95	11456.92
463.13	11433.52
463.32	11389.05
463.50	11754.17
463.68	11705.02
463.86	11941.41
464.05	11456.92
464.23	11728.42
464.41	11999.93
464.59	11625.44
464.78	12255.04
464.96	11892.26
465.14	11899.28
465.32	12074.82
465.50	12067.80
465.69	12374.41
465.87	11896.94
466.05	12051.42
466.23	12194.19
466.41	12152.06
466.60	12259.73
466.78	12018.65
466.96	11971.84
467.14	12147.38
467.32	12346.33
467.51	12287.81
467.69	11929.71
467.87	12407.18
468.05	12428.24
468.23	12372.07
468.41	12266.75
468.60	12657.62
468.78	12491.44
468.96	12402.50
469.14	12858.90
469.32	12847.20
469.50	12367.39
469.69	13102.32
469.87	13109.34
470.05	12947.84
470.23	13151.47
470.41	13158.49
470.59	13167.85
470.77	13217.01
470.95	13172.54
471.14	13563.40
471.32	13081.25
471.50	13575.11
471.68	13444.04
471.86	13710.86
472.04	13703.84
472.22	13743.63
472.40	13738.94
472.58	13701.50
472.77	13912.14
472.95	14207.05
473.13	14202.37
473.31	14010.45
473.49	14235.14
473.67	14005.77
473.85	14071.30
474.03	14537.07
474.21	14544.09
474.39	14719.63
474.57	14689.20
474.75	14883.47
474.93	15012.20
475.12	15075.39
475.30	15044.96
475.48	14993.47
475.66	15103.48
475.84	15087.09
476.02	15384.34
476.20	15456.90
476.38	15559.88
476.56	15878.19
476.74	16016.29
476.92	15690.95
477.10	15562.22
477.28	15978.84
477.46	15962.45
477.64	16140.33
477.82	16421.20
478.00	16929.09
478.18	16418.86
478.36	16500.78
478.54	16999.31
478.72	16908.03
478.90	17116.34
479.08	17331.67
479.26	17500.19
479.44	17645.30
479.62	17741.26
479.80	17692.11
479.98	18068.94
480.16	18272.56
480.34	18284.26
480.52	18518.32
480.70	18740.67
480.88	18272.56
481.06	18792.16
481.24	18927.91
481.41	18972.38
481.59	19201.76
481.77	19494.32
481.95	19410.06
482.13	19316.44
482.31	19641.78
482.49	20095.84
482.67	20203.50
482.85	20205.84
483.03	20479.69
483.21	20753.53
483.39	20732.47
483.57	20690.34
483.74	20961.84
483.92	21333.98
484.10	21240.36
484.28	21619.53
484.46	21752.94
484.64	22097.00
484.82	21968.27
485.00	22422.33
485.18	22588.51
485.35	22696.17
485.53	22532.34
485.71	22836.61
485.89	23215.77
486.07	23115.13
486.25	22955.97
486.43	23552.81
486.61	23758.78
486.78	23686.22
486.96	23885.17
487.14	24180.07
487.32	24723.08
487.50	24697.33
487.68	24917.34
487.85	25057.78
488.03	25450.99
488.21	25989.31
488.39	25841.85
488.57	25972.92
488.75	25839.51
488.92	26164.85
489.10	26441.03
489.28	26338.05
489.46	26590.83
489.64	26890.41
489.81	27887.48
489.99	27424.06
490.17	27573.85
490.35	28086.43
490.53	27728.33
490.70	28254.95
490.88	28177.71
491.06	28687.95
491.24	28809.65
491.41	28985.19
491.59	28954.77
491.77	28671.56
491.95	29294.14
492.13	29837.15
492.30	29532.88
492.48	29921.41
492.66	30204.61
492.84	30223.34
493.01	30328.66
493.19	30621.23
493.37	30684.42
493.54	31206.36
493.72	30874.01
493.90	31061.25
494.08	31421.69
494.25	31878.10
494.43	31817.24
494.61	32194.07
494.79	32503.02
494.96	32158.96
495.14	32563.87
495.32	32978.15
495.49	32865.80
495.67	33207.52
495.85	33312.84
496.02	33092.83
496.20	33654.56
496.38	34148.42
496.55	33785.63
496.73	34742.91
496.91	34204.59
497.09	34560.35
497.26	34794.40
497.44	34579.07
497.62	34932.50
497.79	35454.44
497.97	35402.94
498.14	35901.48
498.32	35786.79
498.50	35812.54
498.67	36077.02
498.85	36355.54
499.03	36472.57
499.20	36779.18
499.38	36566.19
499.56	37060.04
499.73	36877.48
499.91	37235.58
500.08	37429.85
500.26	37525.81
500.44	37507.08
500.61	37823.06
500.79	37504.74
500.97	37996.26
501.14	38380.10
501.32	38319.25
501.49	38717.14
501.67	38595.43
501.84	38986.30
502.02	38909.07
502.20	38452.66
502.37	39105.67
502.55	39070.56
502.72	38998.01
502.90	39391.22
503.07	39583.14
503.25	39384.19
503.43	39246.10
503.60	39658.04
503.78	40041.88
503.95	40222.11
504.13	40498.29
504.30	39892.09
504.48	40479.57
504.65	40421.05
504.83	40524.04
505.01	41116.19
505.18	41235.56
505.36	41273.01
505.53	40772.13
505.71	41265.99
505.88	41401.74
506.06	41832.39
506.23	41570.25
506.41	41752.82
506.58	41956.44
506.76	42206.88
506.93	42398.80
507.11	42288.80
507.28	42330.93
507.46	42284.12
507.63	42719.46
507.81	43248.42
507.98	42300.50
508.16	42871.59
508.33	43227.35
508.50	43199.27
508.68	43185.22
508.85	43833.55
509.03	43454.39
509.20	43922.49
509.38	44402.30
509.55	44395.28
509.73	44399.96
509.90	44175.27
510.08	44622.31
510.25	44619.97
510.42	44725.30
510.60	44596.57
510.77	44856.37
510.95	45354.90
511.12	45209.79
511.30	44816.58
511.47	45139.57
511.64	45148.93
511.82	45624.06
511.99	45474.27
512.17	45649.81
512.34	45741.09
512.51	45902.59
512.69	46377.72
512.86	46363.67
513.04	46155.36
513.21	46579.00
513.38	46408.14
513.56	47079.88
513.73	46560.28
513.90	46801.35
514.08	46770.93
514.25	47028.38
514.43	47194.56
514.60	47533.94
514.77	47157.11
514.95	47510.53
515.12	47276.48
515.29	47475.43
515.47	47653.31
515.64	47901.40
515.81	47908.43
515.99	47894.38
516.16	48217.38
516.33	48074.60
516.51	48353.13
516.68	48418.66
516.85	48287.59
517.03	48332.06
517.20	48790.81
517.37	48442.07
517.54	48701.87
517.72	48989.75
517.89	49041.24
518.06	48858.68
518.24	49045.93
518.41	49095.08
518.58	49127.84
518.75	49116.14
518.93	49177.00
519.10	49277.64
519.27	49724.68
519.45	49310.41
519.62	49883.84
519.79	49624.04
519.96	49703.62
520.14	50300.45
520.31	49661.49
520.48	50471.31
520.65	50195.13
520.83	50415.14
521.00	50616.43
521.17	50305.13
521.34	50742.81
521.52	50768.56
521.69	50468.97
521.86	50644.51
522.03	50789.62
522.20	50925.38
522.38	51030.70
522.55	51150.07
522.72	51152.41
522.89	51150.07
523.07	51533.92
523.24	51210.92
523.41	51325.61
523.58	51262.41
523.75	51643.92
523.92	51503.49
524.10	51723.50
524.27	51882.66
524.44	51784.35
524.61	51980.96
524.78	52100.32
524.96	51922.44
525.13	52046.49
525.30	52034.79
525.47	52198.63
525.64	52009.04
525.81	52184.58
525.98	52383.53
526.16	52435.02
526.33	52306.29
526.50	52451.41
526.67	52556.73
526.84	52666.73
527.01	52825.89
527.18	52683.12
527.36	52949.94
527.53	52765.04
527.70	53258.89
527.87	53066.97
528.04	52811.85
528.21	53001.43
528.38	53471.88
528.55	53322.08
528.72	53183.99
528.89	53361.87
529.07	53263.57
529.24	53282.30
529.41	53504.65
529.58	53429.75
529.75	53532.73
529.92	53820.62
530.09	53862.75
530.26	53970.41
530.43	53853.39
530.60	53631.04
530.77	53607.63
530.94	54274.68
531.11	53680.19
531.28	54014.88
531.46	54174.04
531.63	54143.61
531.80	54000.84
531.97	54274.68
532.14	54234.89
532.31	54487.67
532.48	54602.36
532.65	54473.63
532.82	54293.41
532.99	54649.17
533.16	54351.92
533.33	54838.75
533.50	54815.35
533.67	54433.84
533.84	54375.33
534.01	54735.77
534.18	54602.36
534.35	55159.41
534.52	54871.52
534.69	55030.68
534.86	55449.63
535.03	54829.39
535.20	55018.97
535.37	55281.11
535.54	55119.62
535.71	54981.52
535.88	55325.58
536.05	55313.88
536.22	55515.17
536.38	55487.08
536.55	55468.36
536.72	55657.94
536.89	55348.99
537.06	55332.60
537.23	55360.69
537.40	55580.70
537.57	55641.56
537.74	55707.09
537.91	55852.20
538.08	55791.35
538.25	55716.45
538.42	55641.56
538.59	56053.49
538.75	55772.63
538.92	55679.00
539.09	55983.27
539.26	55917.74
539.43	56009.02
539.60	55964.55
539.77	56088.60
539.94	56324.99
540.11	56236.05
540.28	56104.98
540.44	56191.58
540.61	56364.78
540.78	56317.97
540.95	56236.05
541.12	56072.21
541.29	56301.59
541.46	56547.34
541.62	56303.93
541.79	56512.23
541.96	56348.40
542.13	56271.16
542.30	56413.93
542.47	56788.42
542.63	56622.24
542.80	56711.18
542.97	57130.14
543.14	57092.69
543.31	56870.34
543.48	56921.83
543.64	57343.12
543.81	57183.97
543.98	57200.35
544.15	57399.30
544.32	57303.34
544.48	57361.85
544.65	57165.24
544.82	57272.91
544.99	57261.21
545.16	57176.95
545.32	57174.61
545.49	57490.58
545.66	57593.56
545.83	57549.09
546.00	57546.75
546.16	57441.43
546.33	57296.31
546.50	57389.94
546.67	57602.92
546.83	57392.28
547.00	57616.97
547.17	57614.63
547.34	57481.22
547.50	57769.10
547.67	58054.65
547.84	58019.54
548.00	58059.33
548.17	58059.33
548.34	57942.30
548.51	57865.06
548.67	58071.03
548.84	58019.54
549.01	57888.47
549.18	58012.52
549.34	58291.04
549.51	58232.53
549.68	58206.78
549.84	58279.34
550.01	58384.66
550.18	58017.20
550.34	58480.63
550.51	58197.42
550.68	58258.27
550.84	58251.25
551.01	58305.09
551.18	58492.33
551.34	58274.66
551.51	58436.16
551.68	58480.63
551.84	58344.87
552.01	58274.66
552.18	58415.09
552.34	58340.19
552.51	58915.96
552.68	58330.83
552.84	58494.67
553.01	58817.66
553.18	58698.30
553.34	58890.22
553.51	58567.23
553.67	58585.95
553.84	58873.84
554.01	58747.45
554.17	58862.13
554.34	59023.63
554.51	58946.39
554.67	58885.54
554.84	58808.30
555.00	59096.19
555.17	58958.09
555.33	58885.54
555.50	58564.88
555.67	58817.66
555.83	58965.12
556.00	59157.04
556.16	59304.49
556.33	59098.53
556.50	59135.98
556.66	59400.46
556.83	59072.78
556.99	59295.13
557.16	59302.15
557.32	59367.69
557.49	59449.61
557.65	59107.89
557.82	59157.04
557.98	59131.29
558.15	59355.99
558.32	59402.80
558.48	59421.52
558.65	59124.27
558.81	59405.14
558.98	59377.05
559.14	59412.16
559.31	59573.66
559.47	59461.31
559.64	59632.17
559.80	59594.72
559.97	59765.58
560.13	59597.06
560.30	59753.88
560.46	59693.02
560.63	59690.68
560.79	59568.97
560.96	59688.34
561.12	59683.66
561.29	59540.89
561.45	59812.39
561.61	59639.19
561.78	59657.91
561.94	59641.53
562.11	59728.13
562.27	59840.48
562.44	59884.95
562.60	59838.14
562.77	59847.50
562.93	59788.98
563.10	59859.20
563.26	59716.43
563.42	60151.77
563.59	60027.72
563.75	59788.98
563.92	59718.77
564.08	59678.98
564.24	60013.68
564.41	60097.94
564.57	59999.63
564.74	59980.91
564.90	60032.40
565.07	60142.41
565.23	59978.57
565.39	60090.91
565.56	60044.10
565.72	60100.28
565.88	60083.89
566.05	59887.29
566.21	60072.19
566.38	60074.53
566.54	60097.94
566.70	60165.81
566.87	60303.90
567.03	60268.79
567.19	60336.67
567.36	60144.75
567.52	60214.96
567.68	60446.68
567.85	60299.22
568.01	60357.74
568.17	60039.42
568.34	60086.23
568.50	60200.92
568.66	60355.39
568.83	60392.84
568.99	60261.77
569.15	60299.22
569.32	60331.99
569.48	60303.90
569.64	60430.29
569.81	60465.40
569.97	60016.02
570.13	60385.82
570.30	60250.07
570.46	60449.02
570.62	60519.23
570.78	60371.78
570.95	60376.46
571.11	60399.86
571.27	60313.26
571.43	60495.83
571.60	60615.19
571.76	60392.84
571.92	60519.23
572.09	60502.85
572.25	60441.99
572.41	60467.74
572.57	60533.28
572.74	60598.81
572.90	60500.51
573.06	60528.59
573.22	60446.68
573.38	60491.15
573.55	60411.57
573.71	60575.40
573.87	60664.35
574.03	60411.57
574.20	60561.36
574.36	60512.21
574.52	60596.47
574.68	60610.51
574.84	60678.39
575.01	60512.21
575.17	60633.92
575.33	60498.17
575.49	60575.40
575.65	60610.51
575.82	60591.79
575.98	60764.99
576.14	60797.76
576.30	60680.73
576.46	60718.18
576.62	60346.03
576.79	60629.24
576.95	60559.02
577.11	60666.69
577.27	60877.33
577.43	60680.73
577.59	60561.36
577.75	60657.32
577.92	60673.71
578.08	60629.24
578.24	60935.85
578.40	60739.24
578.56	60917.12
578.72	60994.36
578.88	60776.69
579.04	60865.63
579.21	60589.45
579.37	60800.10
579.53	60928.83
579.69	60563.70
579.85	60706.47
580.01	60542.64
580.17	60647.96
580.33	60823.50
580.49	60975.64
580.65	60804.78
580.82	60863.29
580.98	60734.56
581.14	60797.76
581.30	60963.93
581.46	60851.59
581.62	60973.30
581.78	60699.45
581.94	60996.70
582.10	60793.07
582.26	60467.74
582.42	60825.84
582.58	60783.71
582.74	60832.86
582.90	60832.86
583.06	61038.83
583.22	60676.05
583.38	60743.92
583.54	60851.59
583.70	60856.27
583.86	60774.35
584.02	60678.39
584.18	60886.70
584.34	60914.78
584.50	60828.18
584.66	60786.05
584.82	60781.37
584.98	60949.89
585.14	61099.68
585.30	60783.71
585.46	61034.15
585.62	60910.10
585.78	61118.41
585.94	60673.71
586.10	60821.16
586.26	60736.90
586.42	60959.25
586.58	60945.21
586.74	60961.59
586.90	60760.31
587.06	60968.61
587.22	60977.98
587.38	60954.57
587.54	61078.62
587.70	61095.00
587.86	60790.73
588.02	60814.14
588.18	61186.28
588.34	60860.95
588.49	60924.14
