SpectraSuite Data File
++++++++++++++++++++++++++++++++++++
Date: Fri Oct 25 10:48:04 EDT 2013
User: price-jones
Dark Spectrum Present: No
Reference Spectrum Present: No
Number of Sampled Component Spectra: 1
Spectrometers: USB2+H05261
Integration Time (usec): 100000 (USB2+H05261)
Spectra Averaged: 1 (USB2+H05261)
Boxcar Smoothing: 0 (USB2+H05261)
Correct for Electrical Dark: No (USB2+H05261)
Strobe/Lamp Enabled: No (USB2+H05261)
Correct for Detector Non-linearity: No (USB2+H05261)
Correct for Stray Light: No (USB2+H05261)
Number of Pixels in Processed Spectrum: 2048
>>>>>Begin Processed Spectral Data<<<<<
365.73	74.90
365.92	74.90
366.12	74.90
366.32	79.58
366.52	77.24
366.72	7.02
366.91	4.68
367.11	58.51
367.31	53.83
367.51	81.92
367.70	70.22
367.90	56.17
368.10	21.06
368.30	95.96
368.49	44.47
368.69	84.26
368.89	60.85
369.09	79.58
369.28	46.81
369.48	100.64
369.68	91.28
369.87	102.98
370.07	102.98
370.27	128.73
370.47	273.84
370.66	341.72
370.86	468.11
371.06	423.64
371.25	524.28
371.45	479.81
371.65	482.15
371.84	402.57
372.04	451.72
372.24	484.49
372.44	461.09
372.63	500.87
372.83	599.18
373.03	564.07
373.22	437.68
373.42	557.05
373.62	514.92
373.81	505.56
374.01	606.20
374.21	533.64
374.40	484.49
374.60	578.11
374.79	531.30
374.99	503.22
375.19	578.11
375.38	554.71
375.58	486.83
375.78	603.86
375.97	538.32
376.17	596.84
376.37	580.45
376.56	543.00
376.76	617.90
376.95	585.13
377.15	601.52
377.35	559.39
377.54	608.54
377.74	547.69
377.93	552.37
378.13	578.11
378.33	620.24
378.52	608.54
378.72	538.32
378.91	585.13
379.11	636.63
379.31	617.90
379.50	545.34
379.70	589.82
379.89	622.58
380.09	681.10
380.28	664.71
380.48	669.39
380.68	587.47
380.87	550.03
381.07	603.86
381.26	664.71
381.46	681.10
381.65	751.31
381.85	674.07
382.04	641.31
382.24	645.99
382.43	660.03
382.63	662.37
382.83	716.20
383.02	739.61
383.22	739.61
383.41	664.71
383.61	725.57
383.80	725.57
384.00	772.38
384.19	739.61
384.39	615.56
384.58	685.78
384.78	744.29
384.97	739.61
385.17	702.16
385.36	784.08
385.56	795.78
385.75	755.99
385.95	758.33
386.14	814.51
386.34	660.03
386.53	844.93
386.72	716.20
386.92	894.08
387.11	830.89
387.31	802.80
387.50	786.42
387.70	777.06
387.89	894.08
388.09	819.19
388.28	807.48
388.48	833.23
388.67	924.51
388.86	786.42
389.06	908.13
389.25	952.60
389.45	952.60
389.64	851.96
389.84	994.73
390.03	947.92
390.22	1004.09
390.42	894.08
390.61	863.66
390.81	816.85
391.00	940.90
391.19	966.64
391.39	978.34
391.58	971.32
391.78	1062.60
391.97	926.85
392.16	884.72
392.36	990.05
392.55	1029.84
392.75	922.17
392.94	997.07
393.13	1055.58
393.33	943.24
393.52	966.64
393.71	968.98
393.91	954.94
394.10	985.37
394.29	978.34
394.49	1067.28
394.68	1057.92
394.88	1163.25
395.07	1011.11
395.26	1039.20
395.46	1132.82
395.65	1086.01
395.84	1107.07
396.04	1057.92
396.23	1123.46
396.42	1163.25
396.62	1139.84
396.81	1114.10
397.00	1153.88
397.19	1165.59
397.39	1299.00
397.58	1179.63
397.77	1111.75
397.97	1217.08
398.16	1254.53
398.35	1242.82
398.55	1165.59
398.74	1294.32
398.93	1245.16
399.12	1245.16
399.32	1327.08
399.51	1324.74
399.70	1331.76
399.90	1401.98
400.09	1355.17
400.28	1352.83
400.47	1383.26
400.67	1385.60
400.86	1390.28
401.05	1409.00
401.24	1394.96
401.44	1432.41
401.63	1427.73
401.82	1467.52
402.01	1511.99
402.21	1554.12
402.40	1558.80
402.59	1472.20
402.78	1469.86
402.97	1432.41
403.17	1603.27
403.36	1607.95
403.55	1458.15
403.74	1596.25
403.93	1600.93
404.13	1680.50
404.32	1626.67
404.51	1610.29
404.70	1596.25
404.89	1645.40
405.09	1722.63
405.28	1657.10
405.47	1715.61
405.66	1645.40
405.85	1696.89
406.05	1685.19
406.24	1760.08
406.43	1724.97
406.62	1825.62
406.81	1856.04
407.00	1788.17
407.20	1769.44
407.39	1884.13
407.58	1919.24
407.77	1802.21
407.96	1956.69
408.15	2057.33
408.34	1952.01
408.54	1935.62
408.73	1895.83
408.92	1942.64
409.11	2003.50
409.30	1856.04
409.49	1942.64
409.68	1996.48
409.87	1893.49
410.07	2017.54
410.26	2097.12
410.45	2094.78
410.64	2132.23
410.83	2160.31
411.02	2094.78
411.21	2214.15
411.40	2326.49
411.59	2251.60
411.78	2296.07
411.98	2129.89
412.17	2275.00
412.36	2335.85
412.55	2377.98
412.74	2354.58
412.93	2483.31
413.12	2284.36
413.31	2459.90
413.50	2478.63
413.69	2513.74
413.88	2457.56
414.07	2473.95
414.26	2459.90
414.45	2485.65
414.64	2572.25
414.83	2555.86
415.02	2614.38
415.22	2651.83
415.41	2708.00
415.60	2722.04
415.79	2839.07
415.98	2712.68
416.17	2750.13
416.36	2700.98
416.55	2719.70
416.74	2764.17
416.93	2796.94
417.12	2897.58
417.31	2920.99
417.50	2888.22
417.69	3012.27
417.88	2998.23
418.07	3124.62
418.26	2986.52
418.45	3005.25
418.64	3143.34
418.83	3077.80
419.02	3243.98
419.21	3108.23
419.39	3258.03
419.58	3059.08
419.77	3080.14
419.96	3248.66
420.15	3232.28
420.34	3262.71
420.53	3234.62
420.72	3325.90
420.91	3302.50
421.10	3307.18
421.29	3297.81
421.48	3169.09
421.67	3337.60
421.86	3157.38
422.05	3346.97
422.24	3169.09
422.43	3356.33
422.61	3358.67
422.80	3550.59
422.99	3435.91
423.18	3431.23
423.37	3461.65
423.56	3487.40
423.75	3475.70
423.94	3356.33
424.13	3241.64
424.32	3274.41
424.50	3543.57
424.69	3496.76
424.88	3609.11
425.07	3456.97
425.26	3398.46
425.45	3471.01
425.64	3524.85
425.83	3480.38
426.01	3538.89
426.20	3508.46
426.39	3492.08
426.58	3529.53
426.77	3641.87
426.96	3665.28
427.15	3599.74
427.33	3616.13
427.52	3489.74
427.71	3737.84
427.90	3632.51
428.09	3548.25
428.28	3740.18
428.46	3669.96
428.65	3709.75
428.84	3826.78
429.03	3847.84
429.22	3590.38
429.40	3758.90
429.59	3646.55
429.78	3559.95
429.97	3660.60
430.16	3707.41
430.34	3667.62
430.53	3864.22
430.72	3845.50
430.91	3831.46
431.10	3920.40
431.28	3997.64
431.47	4098.28
431.66	4018.70
431.85	3887.63
432.03	4025.72
432.22	4058.49
432.41	4088.92
432.60	4205.94
432.79	4152.11
432.97	4166.15
433.16	4182.54
433.35	4177.86
433.54	4016.36
433.72	4227.01
433.91	4198.92
434.10	4189.56
434.28	4292.54
434.47	4212.96
434.66	4348.72
434.85	4292.54
435.03	4353.40
435.22	4395.53
435.41	4475.10
435.59	4292.54
435.78	4442.34
435.97	4484.47
436.16	4475.10
436.34	4505.53
436.53	4568.73
436.72	4678.73
436.90	4444.68
437.09	4578.09
437.28	4500.85
437.46	4617.88
437.65	4547.66
437.84	4655.33
438.02	4683.41
438.21	4723.20
438.40	4578.09
438.58	4807.46
438.77	4844.91
438.96	4870.65
439.14	4781.71
439.33	4978.32
439.52	4896.40
439.70	5008.75
439.89	4980.66
440.08	5004.07
440.26	4983.00
440.45	5053.22
440.63	5118.75
440.82	5210.03
441.01	5273.23
441.19	5200.67
441.38	5249.82
441.57	5305.99
441.75	5277.91
441.94	5383.23
442.12	5444.09
442.31	5579.84
442.50	5448.77
442.68	5490.90
442.87	5481.53
443.05	5593.88
443.24	5666.44
443.43	5600.90
443.61	5645.37
443.80	5767.08
443.98	5530.69
444.17	5551.75
444.35	5788.14
444.54	5762.40
444.73	5788.14
444.91	5589.20
445.10	5593.88
445.28	5753.04
445.47	5589.20
445.65	5689.84
445.84	5666.44
446.02	5755.38
446.21	5741.33
446.39	5783.46
446.58	5884.11
446.77	5792.83
446.95	5628.99
447.14	5879.43
447.32	5909.85
447.51	5760.06
447.69	5706.23
447.88	5989.43
448.06	6073.69
448.25	5942.62
448.43	5998.79
448.62	5916.87
448.80	5940.28
448.99	6097.10
449.17	5982.41
449.36	5813.89
449.54	6031.56
449.73	6230.51
449.91	6155.61
450.10	6183.70
450.28	6258.59
450.46	6333.49
450.65	6148.59
450.83	6415.41
451.02	6239.87
451.20	6291.36
451.39	6235.19
451.57	6272.64
451.76	6225.82
451.94	6265.61
452.13	6373.28
452.31	6345.19
452.49	6267.95
452.68	6492.65
452.86	6335.83
453.05	6502.01
453.23	6417.75
453.42	6361.58
453.60	6450.52
453.78	6478.60
453.97	6352.21
454.15	6450.52
454.34	6380.30
454.52	6626.06
454.70	6635.42
454.89	6642.44
455.07	6626.06
455.26	6686.91
455.44	6707.98
455.62	6932.67
455.81	6597.97
455.99	6888.20
456.17	6939.69
456.36	6782.87
456.54	6867.13
456.73	7115.23
456.91	7227.57
457.09	7145.66
457.28	7164.38
457.46	6984.16
457.64	7239.28
457.83	7140.97
458.01	6930.33
458.19	7363.33
458.38	7180.76
458.56	7487.37
458.74	7171.40
458.93	7169.06
459.11	7365.67
459.29	7274.38
459.48	7279.07
459.66	7220.55
459.84	7370.35
460.03	7515.46
460.21	7307.15
460.39	7342.26
460.57	7520.14
460.76	7365.67
460.94	7588.02
461.12	7496.74
461.31	7871.22
461.49	7452.27
461.67	7410.14
461.85	7566.95
462.04	7742.49
462.22	8131.02
462.40	7733.13
462.59	8013.99
462.77	7836.11
462.95	8086.55
463.13	7903.99
463.32	7939.10
463.50	8065.49
463.68	7988.25
463.86	7894.63
464.05	7903.99
464.23	7808.03
464.41	7992.93
464.59	7798.66
464.78	8100.59
464.96	8112.30
465.14	7772.92
465.32	8046.76
465.50	7934.42
465.69	8074.85
465.87	8004.63
466.05	7971.86
466.23	8105.28
466.41	8173.15
466.60	8418.91
466.78	8173.15
466.96	8226.98
467.14	8145.06
467.32	8542.96
467.51	8402.52
467.69	8149.75
467.87	8454.02
468.05	8589.77
468.23	8475.08
468.41	8465.72
468.60	8428.27
468.78	8571.04
468.96	8355.71
469.14	8374.44
469.32	8713.81
469.50	8365.07
469.69	8542.96
469.87	8781.69
470.05	8636.58
470.23	8863.61
470.41	8737.22
470.59	8905.74
470.77	8861.27
470.95	8992.34
471.14	8959.57
471.32	8781.69
471.50	9153.84
471.68	9022.77
471.86	8915.10
472.04	9158.52
472.22	9486.19
472.40	9151.49
472.58	9268.52
472.77	9362.14
472.95	9301.29
473.13	9628.96
473.31	9476.83
473.49	9261.50
473.67	9362.14
473.85	9453.42
474.03	9565.77
474.21	9708.54
474.39	9731.95
474.57	9853.66
474.75	9961.32
474.93	9802.16
475.12	10052.60
475.30	9764.72
475.48	10031.54
475.66	10139.20
475.84	10052.60
476.02	10310.06
476.20	10115.80
476.38	10377.94
476.56	10443.47
476.74	10520.71
476.92	10537.09
477.10	10485.60
477.28	10621.35
477.46	10752.42
477.64	10590.92
477.82	11136.27
478.00	11140.95
478.18	11234.57
478.36	11194.78
478.54	11204.14
478.72	11288.40
478.90	11527.14
479.08	11681.61
479.26	11545.86
479.44	11597.35
479.62	11763.53
479.80	11873.54
479.98	11784.60
480.16	12313.56
480.34	11873.54
480.52	12128.66
480.70	12325.26
480.88	12161.42
481.06	12187.17
481.24	12322.92
481.41	12664.64
481.59	12568.68
481.77	12922.10
481.95	12753.58
482.13	12919.76
482.31	13156.15
482.49	13282.54
482.67	13315.31
482.85	13373.82
483.03	13603.19
483.21	13518.93
483.39	13642.98
483.57	13624.26
483.74	13685.11
483.92	14251.52
484.10	13853.63
484.28	14090.02
484.46	14508.98
484.64	14501.96
484.82	14406.00
485.00	14485.58
485.18	14946.66
485.35	14960.70
485.53	14803.89
485.71	14820.27
485.89	14705.59
486.07	14808.57
486.25	15208.80
486.43	15073.05
486.61	15506.05
486.78	15737.76
486.96	15833.72
487.14	15672.23
487.32	16037.35
487.50	16053.73
487.68	16453.97
487.85	16432.90
488.03	16500.78
488.21	16828.45
488.39	16711.42
488.57	16802.71
488.75	17039.10
488.92	17170.17
489.10	17495.50
489.28	17415.93
489.46	17497.84
489.64	17579.76
489.81	17935.53
489.99	18045.53
490.17	18190.64
490.35	18277.24
490.53	18101.70
490.70	18202.35
490.88	18492.57
491.06	18651.73
491.24	18504.28
491.41	18658.75
491.59	19168.99
491.77	18738.33
491.95	18941.96
492.13	19147.92
492.30	19623.05
492.48	19419.42
492.66	19857.10
492.84	19194.73
493.01	19943.70
493.19	19456.87
493.37	20372.02
493.54	19850.08
493.72	20493.73
493.90	20561.61
494.08	20180.10
494.25	20685.65
494.43	20954.82
494.61	20936.09
494.79	21139.72
494.96	20622.46
495.14	20922.05
495.32	21916.78
495.49	21783.37
495.67	21717.83
495.85	21504.84
496.02	21991.67
496.20	22043.17
496.38	21745.92
496.55	22043.17
496.73	22597.87
496.91	22382.54
497.09	22412.97
497.26	22586.17
497.44	22696.17
497.62	22958.31
497.79	23190.03
497.97	22785.12
498.14	22799.16
498.32	23007.47
498.50	23410.04
498.67	23747.08
498.85	23484.94
499.03	23655.79
499.20	23805.59
499.38	23655.79
499.56	23953.04
499.73	24212.84
499.91	24088.79
500.08	23981.13
500.26	24114.54
500.44	24329.87
500.61	24217.52
500.79	24098.16
500.97	24589.67
501.14	24830.74
501.32	24992.24
501.49	24882.24
501.67	24989.90
501.84	25034.37
502.02	24694.99
502.20	25165.44
502.37	25521.20
502.55	25493.12
502.72	25514.18
502.90	25432.26
503.07	25348.00
503.25	25219.27
503.43	25799.73
503.60	25928.45
503.78	25612.48
503.95	25862.92
504.13	26068.89
504.30	26202.30
504.48	26588.49
504.65	26178.89
504.83	26806.16
505.01	26387.20
505.18	26897.44
505.36	27033.19
505.53	26689.13
505.71	26733.60
505.88	27407.67
506.06	27072.98
506.23	27023.83
506.41	26810.84
506.58	27199.37
506.76	26855.31
506.93	27400.65
507.11	27412.35
507.28	27407.67
507.46	27356.18
507.63	27449.80
507.81	27803.22
507.98	27501.29
508.16	27892.16
508.33	28053.66
508.50	27922.59
508.68	27920.25
508.85	28704.33
509.03	28133.24
509.20	28205.80
509.38	28751.14
509.55	28751.14
509.73	28793.27
509.90	28566.24
510.08	28704.33
510.25	28589.64
510.42	29048.39
510.60	29270.74
510.77	29308.19
510.95	29450.96
511.12	28851.78
511.30	29235.63
511.47	29696.72
511.64	29682.67
511.82	29677.99
511.99	29467.34
512.17	29790.34
512.34	29474.37
512.51	29876.94
512.69	30089.93
512.86	29874.60
513.04	30078.22
513.21	30096.95
513.38	29799.70
513.56	30267.81
513.73	30611.87
513.90	30368.45
514.08	29841.83
514.25	30822.51
514.43	30663.36
514.60	30712.51
514.77	30866.98
514.95	30958.27
515.12	30499.52
515.29	31040.18
515.47	31068.27
515.64	31503.61
515.81	30888.05
515.99	31136.15
516.16	31543.40
516.33	31337.43
516.51	31473.18
516.68	31470.84
516.85	31426.37
517.03	31641.70
517.20	31538.72
517.37	31571.49
517.54	31899.16
517.72	31892.14
517.89	31807.88
518.06	32114.49
518.24	32063.00
518.41	31985.76
518.58	32297.05
518.75	31721.28
518.93	32165.98
519.10	32238.54
519.27	32119.17
519.45	32299.39
519.62	32425.78
519.79	32769.84
519.96	32783.88
520.14	32924.32
520.31	32833.04
520.48	32807.29
520.65	33020.28
520.83	33141.99
521.00	33209.86
521.17	33181.77
521.34	33230.93
521.52	33404.13
521.69	33237.95
521.86	33795.00
522.03	33947.13
522.20	33553.92
522.38	33914.36
522.55	33570.30
522.72	33795.00
522.89	33710.74
523.07	33954.15
523.24	33687.33
523.41	34550.99
523.58	34267.78
523.75	34340.34
523.92	34483.11
524.10	34504.18
524.27	34171.82
524.44	34424.60
524.61	34476.09
524.78	34639.93
524.96	34710.14
525.13	34513.54
525.30	35199.32
525.47	35150.17
525.64	35344.43
525.81	34742.91
525.98	34923.13
526.16	34890.37
526.33	35187.61
526.50	35442.73
526.67	34958.24
526.84	35126.76
527.01	34962.92
527.18	35206.34
527.36	35208.68
527.53	35821.90
527.70	36044.25
527.87	35864.03
528.04	35590.19
528.21	35835.94
528.38	35985.74
528.55	36505.34
528.72	35899.14
528.89	36465.55
529.07	36236.17
529.24	35922.54
529.41	36222.13
529.58	35901.48
529.75	36233.83
529.92	36182.34
530.09	36460.87
530.26	36280.64
530.43	36678.54
530.60	36416.40
530.77	36432.78
530.94	36706.62
531.11	36510.02
531.28	36760.45
531.46	36645.77
531.63	36744.07
531.80	37055.36
531.97	36767.48
532.14	36849.39
532.31	36893.86
532.48	36835.35
532.65	37460.27
532.82	37193.45
532.99	37057.70
533.16	37043.66
533.33	37226.22
533.50	37315.16
533.67	37640.50
533.84	37258.99
534.01	37240.26
534.18	37649.86
534.35	37783.27
534.52	37546.87
534.69	37820.72
534.86	37970.51
535.03	37675.60
535.20	38007.96
535.37	38174.14
535.54	38234.99
535.71	38110.94
535.88	37523.47
536.05	38162.43
536.22	38218.61
536.38	38316.91
536.55	38469.04
536.72	38249.03
536.89	38080.52
537.06	37951.79
537.23	38705.44
537.40	38667.99
537.57	38707.78
537.74	38738.21
537.91	38796.72
538.08	38574.37
538.25	38305.21
538.42	38274.78
538.59	38440.96
538.75	38574.37
538.92	38951.20
539.09	38808.42
539.26	38443.30
539.43	39105.67
539.60	38644.59
539.77	39210.99
539.94	39033.11
540.11	38932.47
540.28	38710.12
540.44	39082.27
540.61	38967.58
540.78	38951.20
540.95	38969.92
541.12	39037.80
541.29	39023.75
541.46	39234.40
541.62	39409.94
541.79	39428.66
541.96	39009.71
542.13	39519.95
542.30	39311.64
542.47	39686.12
542.63	39393.56
542.80	39126.74
542.97	39913.16
543.14	39931.88
543.31	39934.22
543.48	40250.19
543.64	40252.53
543.81	39915.50
543.98	40287.64
544.15	40336.79
544.32	40301.68
544.48	40500.63
544.65	40512.33
544.82	40357.86
544.99	40252.53
545.16	40411.69
545.32	39917.84
545.49	40500.63
545.66	40451.48
545.83	40854.05
546.00	40882.14
546.16	40996.82
546.33	40671.49
546.50	40245.51
546.67	40631.70
546.83	40201.04
547.00	40488.93
547.17	40933.63
547.34	40608.29
547.50	41031.93
547.67	41378.33
547.84	40994.48
548.00	41179.39
548.17	41373.65
548.34	41170.02
548.51	41404.08
548.67	41368.97
548.84	41577.28
549.01	41132.57
549.18	41701.32
549.34	41645.15
549.51	41762.18
549.68	41691.96
549.84	41766.86
550.01	41874.52
550.18	41331.52
550.34	41560.89
550.51	41474.29
550.68	41404.08
550.84	41221.52
551.01	41624.09
551.18	41549.19
551.34	41635.79
551.51	41673.24
551.68	41668.56
551.84	41799.63
552.01	41680.26
552.18	42045.38
552.34	41345.56
552.51	41759.84
552.68	41743.45
552.84	41921.34
553.01	42190.50
553.18	42211.56
553.34	42031.34
553.51	41708.35
553.67	42274.76
553.84	42227.95
554.01	42436.25
554.17	42529.87
554.34	42609.45
554.51	42389.44
554.67	42656.26
554.84	42658.60
555.00	42319.23
555.17	42288.80
555.33	42738.18
555.50	42602.43
555.67	42438.59
555.83	42607.11
556.00	42799.04
556.16	42796.70
556.33	42773.29
556.50	42775.63
556.66	42817.76
556.83	42253.69
556.99	42520.51
557.16	42628.18
557.32	43026.07
557.49	42775.63
557.65	42284.12
557.82	42855.21
557.98	42747.54
558.15	42902.02
558.32	43175.86
558.48	42981.60
558.65	43107.99
558.81	42717.12
558.98	43070.54
559.14	42913.72
559.31	42691.37
559.47	43299.91
559.64	43089.26
559.80	43269.48
559.97	43189.91
560.13	42756.91
560.30	43281.19
560.46	43335.02
560.63	42930.11
560.79	42965.21
560.96	43299.91
561.12	43208.63
561.29	43473.11
561.45	43012.02
561.61	43356.08
561.78	43122.03
561.94	43196.93
562.11	43695.46
562.27	43285.87
562.44	43304.59
562.60	43330.34
562.77	43646.31
562.93	43445.02
563.10	43461.41
563.26	43246.08
563.42	43267.14
563.59	43180.54
563.75	43419.28
563.92	43009.68
564.08	43676.74
564.24	43356.08
564.41	43330.34
564.57	43641.63
564.74	43997.39
564.90	43723.55
565.07	43452.05
565.23	43264.80
565.39	43676.74
565.56	43739.93
565.72	43384.17
565.88	43779.72
566.05	43702.48
566.21	43711.84
566.38	43688.44
566.54	43964.62
566.70	44102.71
566.87	44318.04
567.03	43538.65
567.19	44025.48
567.36	43896.75
567.52	43400.55
567.68	43723.55
567.85	44212.72
568.01	43952.92
568.17	43269.48
568.34	43772.70
568.50	43627.59
568.66	43653.33
568.83	43910.79
568.99	43531.62
569.15	43892.07
569.32	43580.78
569.48	43672.06
569.64	44034.84
569.81	43995.05
569.97	43475.45
570.13	43988.03
570.30	43571.41
570.46	43718.87
570.62	43772.70
570.78	43594.82
570.95	43459.07
571.11	44399.96
571.27	43360.76
571.43	44051.22
571.60	44112.08
571.76	43629.93
571.92	44158.89
572.09	43707.16
572.25	44062.93
572.41	44191.65
572.57	44229.10
572.74	44626.99
572.90	44332.09
573.06	44128.46
573.22	44336.77
573.38	44154.21
573.55	44016.11
573.71	44205.70
573.87	43786.74
574.03	43641.63
574.20	44318.04
574.36	44186.97
574.52	44069.95
574.68	44533.37
574.84	44144.84
575.01	44170.59
575.17	44414.01
575.33	43990.37
575.49	43566.73
575.65	44168.25
575.82	44488.90
575.98	44713.59
576.14	44233.78
576.30	44130.80
576.46	44203.36
576.62	44336.77
576.79	43803.13
576.95	43990.37
577.11	44055.90
577.27	44259.53
577.43	44643.38
577.59	44191.65
577.75	44121.44
577.92	43831.21
578.08	43995.05
578.24	43943.56
578.40	44374.22
578.56	44271.23
578.72	44189.31
578.88	44453.79
579.04	44116.76
579.21	44041.86
579.37	43878.02
579.53	44367.20
579.69	44025.48
579.85	44109.74
580.01	44030.16
580.17	43885.04
580.33	44938.29
580.49	44416.35
580.65	44362.51
580.82	44339.11
580.98	44615.29
581.14	44271.23
581.30	44388.26
581.46	44381.24
581.62	44772.11
581.78	44210.38
581.94	44563.80
582.10	44369.54
582.26	44299.32
582.42	44786.15
582.58	43828.87
582.74	44706.57
582.90	44306.34
583.06	43901.43
583.22	44762.75
583.38	44692.53
583.54	44542.74
583.70	44582.52
583.86	44184.63
584.02	44287.62
584.18	44491.24
584.34	44570.82
584.50	44472.52
584.66	44423.37
584.82	44383.58
584.98	44252.51
585.14	44505.29
585.30	44479.54
585.46	44428.05
585.62	44170.59
585.78	44184.63
585.94	44189.31
586.10	44383.58
586.26	44217.40
586.42	44542.74
586.58	44493.58
586.74	44245.49
586.90	44470.18
587.06	44615.29
587.22	44746.36
587.38	44521.67
587.54	44758.06
587.70	44552.10
587.86	44694.87
588.02	44074.63
588.18	44191.65
588.34	44694.87
588.49	44198.68
588.65	44194.00
588.81	44406.98
588.97	44404.64
589.13	43793.76
589.29	44308.68
589.45	44629.34
589.61	44598.91
589.77	44671.46
589.93	44453.79
590.08	44879.77
590.24	44776.79
590.40	44715.93
