SpectraSuite Data File
++++++++++++++++++++++++++++++++++++
Date: Fri Oct 25 10:43:38 EDT 2013
User: price-jones
Dark Spectrum Present: No
Reference Spectrum Present: No
Number of Sampled Component Spectra: 1
Spectrometers: USB2+H05261
Integration Time (usec): 100000 (USB2+H05261)
Spectra Averaged: 1 (USB2+H05261)
Boxcar Smoothing: 0 (USB2+H05261)
Correct for Electrical Dark: No (USB2+H05261)
Strobe/Lamp Enabled: No (USB2+H05261)
Correct for Detector Non-linearity: No (USB2+H05261)
Correct for Stray Light: No (USB2+H05261)
Number of Pixels in Processed Spectrum: 2048
>>>>>Begin Processed Spectral Data<<<<<
365.73	112.35
365.92	112.35
366.12	112.35
366.32	53.83
366.52	53.83
366.72	53.83
366.91	0.00
367.11	53.83
367.31	42.13
367.51	21.06
367.70	67.88
367.90	2.34
368.10	0.00
368.30	53.83
368.49	67.88
368.69	11.70
368.89	2.34
369.09	81.92
369.28	63.19
369.48	42.13
369.68	60.85
369.87	58.51
370.07	44.47
370.27	81.92
370.47	173.20
370.66	388.53
370.86	447.04
371.06	442.36
371.25	458.74
371.45	423.64
371.65	477.47
371.84	498.53
372.04	411.93
372.24	465.77
372.44	409.59
372.63	416.62
372.83	489.17
373.03	477.47
373.22	447.04
373.42	524.28
373.62	538.32
373.81	550.03
374.01	594.50
374.21	521.94
374.40	510.24
374.60	573.43
374.79	589.82
374.99	540.66
375.19	617.90
375.38	587.47
375.58	615.56
375.78	629.60
375.97	613.22
376.17	615.56
376.37	564.07
376.56	653.01
376.76	676.41
376.95	596.84
377.15	624.92
377.35	636.63
377.54	601.52
377.74	601.52
377.93	596.84
378.13	645.99
378.33	671.73
378.52	582.79
378.72	748.97
378.91	634.29
379.11	641.31
379.31	706.84
379.50	559.39
379.70	650.67
379.89	629.60
380.09	711.52
380.28	608.54
380.48	711.52
380.68	667.05
380.87	671.73
381.07	678.76
381.26	837.91
381.46	699.82
381.65	667.05
381.85	716.20
382.04	777.06
382.24	643.65
382.43	662.37
382.63	737.27
382.83	741.95
383.02	725.57
383.22	779.40
383.41	662.37
383.61	713.86
383.80	802.80
384.00	688.12
384.19	732.59
384.39	770.04
384.58	774.72
384.78	774.72
384.97	835.57
385.17	833.23
385.36	823.87
385.56	753.65
385.75	809.83
385.95	891.74
386.14	732.59
386.34	830.89
386.53	809.83
386.72	877.70
386.92	919.83
387.11	847.27
387.31	926.85
387.50	854.30
387.70	870.68
387.89	866.00
388.09	854.30
388.28	882.38
388.48	861.32
388.67	924.51
388.86	940.90
389.06	973.66
389.25	994.73
389.45	954.94
389.64	973.66
389.84	1053.24
390.03	983.02
390.22	999.41
390.42	957.28
390.61	1006.43
390.81	1041.54
391.00	1121.12
391.19	1071.97
391.39	1076.65
391.58	1046.22
391.78	1074.31
391.97	1153.88
392.16	1013.45
392.36	1081.33
392.55	1050.90
392.75	987.71
392.94	1022.81
393.13	889.40
393.33	898.77
393.52	1076.65
393.71	1053.24
393.91	1104.73
394.10	1170.27
394.29	1184.31
394.49	1181.97
394.68	1207.72
394.88	1324.74
395.07	1259.21
395.26	1139.84
395.46	1266.23
395.65	1200.69
395.84	1172.61
396.04	1212.40
396.23	1203.04
396.42	1137.50
396.62	1193.67
396.81	1266.23
397.00	1203.04
397.19	1343.47
397.39	1383.26
397.58	1343.47
397.77	1390.28
397.97	1423.05
398.16	1404.32
398.35	1497.94
398.55	1481.56
398.74	1486.24
398.93	1584.54
399.12	1572.84
399.32	1504.96
399.51	1481.56
399.70	1540.07
399.90	1504.96
400.09	1614.97
400.28	1640.72
400.47	1638.38
400.67	1633.69
400.86	1668.80
401.05	1701.57
401.24	1696.89
401.44	1757.74
401.63	1720.29
401.82	1664.12
402.01	1673.48
402.21	1858.39
402.40	1797.53
402.59	1694.55
402.78	1788.17
402.97	1879.45
403.17	1837.32
403.36	1823.28
403.55	1884.13
403.74	1774.13
403.93	1781.15
404.13	1937.96
404.32	1954.35
404.51	1816.26
404.70	1898.17
404.89	1909.88
405.09	2015.20
405.28	1949.67
405.47	1893.49
405.66	1921.58
405.85	1952.01
406.05	1949.67
406.24	2108.82
406.43	2026.90
406.62	2062.01
406.81	2115.84
407.00	2097.12
407.20	2120.53
407.39	2064.35
407.58	2050.31
407.77	2279.68
407.96	2249.25
408.15	2401.39
408.34	2258.62
408.54	2286.70
408.73	2289.04
408.92	2298.41
409.11	2375.64
409.30	2291.38
409.49	2237.55
409.68	2373.30
409.87	2366.28
410.07	2342.88
410.26	2347.56
410.45	2342.88
410.64	2420.11
410.83	2504.37
411.02	2555.86
411.21	2616.72
411.40	2616.72
411.59	2679.91
411.78	2633.10
411.98	2597.99
412.17	2708.00
412.36	2757.15
412.55	2818.00
412.74	2775.88
412.93	2825.03
413.12	2780.56
413.31	2916.31
413.50	2890.56
413.69	2864.82
413.88	3070.78
414.07	2944.39
414.26	2878.86
414.45	2953.76
414.64	3166.74
414.83	3199.51
415.02	2881.20
415.22	3073.12
415.41	3091.85
415.60	3117.59
415.79	3251.00
415.98	3375.05
416.17	3349.31
416.36	3143.34
416.55	3192.49
416.74	3351.65
416.93	3260.37
417.12	3358.67
417.31	3384.41
417.50	3473.36
417.69	3471.01
417.88	3463.99
418.07	3520.17
418.26	3442.93
418.45	3637.19
418.64	3674.64
418.83	3611.45
419.02	3513.14
419.21	3534.21
419.39	3653.58
419.58	3545.91
419.77	3627.83
419.96	3707.41
420.15	3782.31
420.34	3662.94
420.53	3789.33
420.72	3927.42
420.91	3761.24
421.10	3889.97
421.29	3915.72
421.48	3847.84
421.67	3997.64
421.86	3896.99
422.05	3758.90
422.24	3623.15
422.43	3798.69
422.61	3730.81
422.80	3911.04
422.99	3920.40
423.18	4058.49
423.37	4086.58
423.56	3950.82
423.75	3995.29
423.94	3950.82
424.13	3810.39
424.32	3904.01
424.50	3920.40
424.69	4086.58
424.88	3995.29
425.07	4072.53
425.26	3974.23
425.45	3988.27
425.64	3946.14
425.83	4028.06
426.01	4156.79
426.20	3960.19
426.39	4032.74
426.58	4121.68
426.77	3950.82
426.96	4084.23
427.15	3934.44
427.33	4128.70
427.52	4091.26
427.71	4159.13
427.90	4243.39
428.09	4191.90
428.28	4219.99
428.46	4112.32
428.65	4304.25
428.84	4332.33
429.03	4379.14
429.22	4184.88
429.40	4304.25
429.59	4154.45
429.78	3866.56
429.97	3974.23
430.16	4058.49
430.34	4329.99
430.53	4102.96
430.72	4189.56
430.91	4306.59
431.10	4386.16
431.28	4645.96
431.47	4685.75
431.66	4734.90
431.85	4479.79
432.03	4674.05
432.22	4765.33
432.41	4709.16
432.60	4781.71
432.79	4826.18
432.97	4791.08
433.16	4844.91
433.35	4681.07
433.54	4599.15
433.72	4744.27
433.91	4730.22
434.10	4716.18
434.28	4858.95
434.47	4842.57
434.66	5083.64
434.85	5078.96
435.03	4973.64
435.22	4931.51
435.41	5181.95
435.59	5032.15
435.78	5170.24
435.97	5020.45
436.16	5181.95
436.34	5151.52
436.53	5249.82
436.72	5305.99
436.90	5116.41
437.09	5404.30
437.28	5142.16
437.46	5205.35
437.65	5041.51
437.84	5212.37
438.02	5214.71
438.21	5362.17
438.40	5238.12
438.58	5432.38
438.77	5509.62
438.96	5392.59
439.14	5621.97
439.33	5738.99
439.52	5713.25
439.70	5668.78
439.89	5713.25
440.08	5720.27
440.26	5727.29
440.45	5717.93
440.63	5806.87
440.82	5909.85
441.01	5998.79
441.19	6235.19
441.38	6174.33
441.57	6272.64
441.75	6377.96
441.94	6321.79
442.12	6303.06
442.31	6396.68
442.50	6305.40
442.68	6342.85
442.87	6387.32
443.05	6424.77
443.24	6736.06
443.43	6511.37
443.61	6534.78
443.80	6684.57
443.98	6338.17
444.17	6356.90
444.35	6747.76
444.54	6745.42
444.73	6532.44
444.91	6689.25
445.10	6555.84
445.28	6654.14
445.47	6333.49
445.65	6642.44
445.84	6546.48
446.02	6600.31
446.21	6586.27
446.39	6581.59
446.58	6827.34
446.77	6642.44
446.95	6513.71
447.14	6778.19
447.32	6813.30
447.51	6707.98
447.69	6789.89
447.88	6796.92
448.06	6707.98
448.25	6942.03
448.43	6750.10
448.62	6899.90
448.80	6839.05
448.99	7047.35
449.17	6913.94
449.36	6960.75
449.54	7204.17
449.73	7049.69
449.91	7110.55
450.10	7360.98
450.28	7384.39
450.46	7344.60
450.65	7304.81
450.83	7379.71
451.02	7332.90
451.20	7571.63
451.39	7449.93
451.57	7213.53
451.76	7239.28
451.94	7368.01
452.13	7297.79
452.31	7325.88
452.49	7117.57
452.68	7316.51
452.86	7243.96
453.05	7330.56
453.23	7379.71
453.42	7342.26
453.60	7419.50
453.78	7522.48
453.97	7517.80
454.15	7318.86
454.34	7351.62
454.52	7637.17
454.70	7520.14
454.89	7602.06
455.07	7569.29
455.26	7658.23
455.44	7754.19
455.62	7754.19
455.81	7758.88
455.99	7866.54
456.17	8084.21
456.36	8049.10
456.54	7943.78
456.73	8013.99
456.91	8271.45
457.09	8313.58
457.28	8519.55
457.46	8114.64
457.64	8161.45
457.83	8131.02
458.01	8013.99
458.19	8348.69
458.38	8278.47
458.56	8236.35
458.74	8353.37
458.93	8409.54
459.11	8360.39
459.29	8435.29
459.48	8451.67
459.66	8388.48
459.84	8505.51
460.03	8451.67
460.21	8617.85
460.39	8549.98
460.57	8699.77
460.76	8610.83
460.94	8863.61
461.12	8805.10
461.31	8575.72
461.49	8613.17
461.67	8699.77
461.85	8933.82
462.04	8912.76
462.22	9364.48
462.40	8987.66
462.59	8961.91
462.77	8898.72
462.95	9069.58
463.13	9015.74
463.32	8987.66
463.50	9081.28
463.68	9266.18
463.86	8947.87
464.05	9022.77
464.23	9004.04
464.41	9198.31
464.59	8987.66
464.78	9081.28
464.96	9256.82
465.14	9305.97
465.32	9523.64
465.50	9406.61
465.69	9235.75
465.87	9308.31
466.05	9102.34
466.23	9378.53
466.41	9317.67
466.60	9462.79
466.78	9198.31
466.96	9455.76
467.14	9317.67
467.32	9483.85
467.51	9598.54
467.69	9202.99
467.87	9413.63
468.05	9554.07
468.23	9483.85
468.41	9446.40
468.60	9717.90
468.78	9664.07
468.96	9607.90
469.14	9816.21
469.32	9799.82
469.50	9666.41
469.69	9909.83
469.87	9975.36
470.05	9949.62
470.23	9916.85
470.41	9884.08
470.59	9937.91
470.77	9980.04
470.95	10239.84
471.14	10319.42
471.32	10003.45
471.50	10478.58
471.68	10466.88
471.86	10436.45
472.04	10532.41
472.22	10675.18
472.40	10230.48
472.58	10499.64
472.77	10492.62
472.95	10672.84
473.13	11115.20
473.31	10363.89
473.49	10546.45
473.67	10670.50
473.85	10839.02
474.03	10979.45
474.21	11157.33
474.39	10949.03
474.57	11201.80
474.75	11283.72
474.93	11332.87
475.12	11307.13
475.30	11344.58
475.48	11314.15
475.66	11384.37
475.84	11281.38
476.02	11470.97
476.20	11417.13
476.38	11618.42
476.56	12081.85
476.74	11995.25
476.92	11941.41
477.10	11969.50
477.28	12121.63
477.46	12187.17
477.64	12294.83
477.82	12634.21
478.00	12704.43
478.18	12685.70
478.36	12758.26
478.54	13022.74
478.72	12784.01
478.90	13149.13
479.08	13111.68
479.26	13221.69
479.44	13273.18
479.62	13493.19
479.80	13319.99
479.98	13472.12
480.16	13862.99
480.34	13750.65
480.52	14045.55
480.70	13865.33
480.88	13802.14
481.06	13872.36
481.24	13963.64
481.41	14534.73
481.59	14457.49
481.77	14406.00
481.95	14413.02
482.13	14647.07
482.31	14644.73
482.49	14871.76
482.67	15094.11
482.85	15267.31
483.03	15445.20
483.21	15428.81
483.39	15777.55
483.57	15625.42
483.74	15903.94
483.92	15857.13
484.10	15653.50
484.28	15896.92
484.46	16175.44
484.64	16484.39
484.82	16107.57
485.00	16505.46
485.18	16671.64
485.35	16748.87
485.53	16318.22
485.71	16383.75
485.89	16884.62
486.07	16425.88
486.25	16634.19
486.43	16947.82
486.61	17277.83
486.78	16943.14
486.96	17476.78
487.14	17755.30
487.32	17745.94
487.50	17951.91
487.68	18328.74
487.85	18743.01
488.03	18750.03
488.21	18707.90
488.39	18757.05
488.57	18576.83
488.75	18876.42
488.92	19276.65
489.10	19564.54
489.28	19384.32
489.46	19887.53
489.64	19819.66
489.81	20091.16
489.99	20161.37
490.17	20432.88
490.35	20355.64
490.53	20418.83
490.70	20620.12
490.88	20851.83
491.06	21181.85
491.24	20933.75
491.41	21008.65
491.59	20975.88
491.77	20905.66
491.95	21074.18
492.13	21511.86
492.30	21788.05
492.48	21841.88
492.66	21860.60
492.84	22331.05
493.01	22249.13
493.19	22228.07
493.37	22412.97
493.54	22359.14
493.72	22876.40
493.90	22836.61
494.08	22906.82
494.25	23112.79
494.43	23562.17
494.61	23424.08
494.79	23440.47
494.96	23915.59
495.14	23864.10
495.32	23941.34
495.49	23931.98
495.67	23988.15
495.85	24432.85
496.02	24584.99
496.20	24292.42
496.38	24608.39
496.55	24746.48
496.73	25495.46
496.91	25048.41
497.09	25317.57
497.26	25722.49
497.44	25364.39
497.62	25074.16
497.79	25413.54
497.97	25411.20
498.14	25490.77
498.32	25626.53
498.50	25947.18
498.67	25900.37
498.85	26438.69
499.03	26214.00
499.20	26747.64
499.38	26513.59
499.56	26625.93
499.73	26534.65
499.91	26960.63
500.08	26731.26
500.26	26347.41
500.44	26656.36
500.61	26918.50
500.79	26902.12
500.97	27063.61
501.14	27417.04
501.32	27257.88
501.49	27398.31
501.67	27248.52
501.84	27819.61
502.02	27913.23
502.20	27571.51
502.37	28004.51
502.55	28112.17
502.72	28126.22
502.90	28009.19
503.07	28414.10
503.25	28444.53
503.43	28243.24
503.60	28519.43
503.78	28198.77
503.95	28786.25
504.13	28458.57
504.30	28854.12
504.48	28692.63
504.65	29165.42
504.83	29219.25
505.01	29331.59
505.18	29214.57
505.36	29820.77
505.53	29457.98
505.71	29612.46
505.88	30345.05
506.06	29598.41
506.23	29923.75
506.41	29979.92
506.58	29947.15
506.76	30295.89
506.93	30373.13
507.11	30213.98
507.28	30565.06
507.46	29949.50
507.63	30148.44
507.81	30747.62
507.98	30572.08
508.16	30174.19
508.33	30707.83
508.50	30927.84
508.68	31058.91
508.85	31594.89
509.03	30888.05
509.20	31253.17
509.38	31541.06
509.55	31648.72
509.73	31747.03
509.90	31512.97
510.08	31648.72
510.25	31637.02
510.42	31660.43
510.60	31880.44
510.77	32133.21
510.95	32280.67
511.12	32023.21
511.30	32367.27
511.47	32725.37
511.64	32416.42
511.82	32606.00
511.99	32402.38
512.17	32797.93
512.34	32346.20
512.51	33048.36
512.69	32746.44
512.86	33200.50
513.04	33282.42
513.21	33163.05
513.38	32608.34
513.56	33057.73
513.73	32905.59
513.90	33319.87
514.08	33200.50
514.25	33081.13
514.43	33383.06
514.60	33734.14
514.77	33614.77
514.95	33577.33
515.12	33933.09
515.29	33582.01
515.47	34183.52
515.64	34253.74
515.81	33940.11
515.99	34005.64
516.16	33804.36
516.33	33951.81
516.51	34220.97
516.68	33387.74
516.85	33219.22
517.03	33811.38
517.20	34323.96
517.37	34349.70
517.54	34944.20
517.72	34328.64
517.89	34340.34
518.06	34476.09
518.24	34335.66
518.41	34738.23
518.58	35077.61
518.75	34419.92
518.93	35342.09
519.10	34534.60
519.27	35260.17
519.45	35358.47
519.62	35192.30
519.79	35665.08
519.96	35761.05
520.14	35562.10
520.31	35828.92
520.48	35775.09
520.65	35756.36
520.83	36287.67
521.00	35941.27
521.17	36395.33
521.34	35864.03
521.52	35948.29
521.69	36481.93
521.86	37036.64
522.03	36177.66
522.20	36470.23
522.38	36685.56
522.55	36914.93
522.72	36503.00
522.89	36350.86
523.07	37254.31
523.24	36966.42
523.41	37170.05
523.58	37446.23
523.75	37497.72
523.92	37626.45
524.10	37675.60
524.27	37607.73
524.44	37448.57
524.61	37715.39
524.78	37528.15
524.96	37942.42
525.13	37792.63
525.30	37855.82
525.47	38190.52
525.64	37640.50
525.81	37570.28
525.98	37635.81
526.16	37682.62
526.33	37666.24
526.50	38000.94
526.67	37551.56
526.84	37603.05
527.01	37181.75
527.18	37804.33
527.36	38480.75
527.53	38682.03
527.70	38698.42
527.87	38749.91
528.04	38487.77
528.21	38249.03
528.38	38967.58
528.55	39082.27
528.72	39611.23
528.89	38658.63
529.07	39278.87
529.24	39157.16
529.41	38766.29
529.58	38815.44
529.75	38703.10
529.92	39150.14
530.09	39351.43
530.26	39384.19
530.43	39674.42
530.60	39342.06
530.77	39606.55
530.94	40119.12
531.11	39388.88
531.28	40044.23
531.46	39784.43
531.63	40144.87
531.80	39295.25
531.97	39927.20
532.14	39852.30
532.31	39154.82
532.48	39648.68
532.65	39693.15
532.82	39503.56
532.99	40039.54
533.16	39796.13
533.33	40301.68
533.50	40268.92
533.67	40189.34
533.84	39959.97
534.01	40397.65
534.18	40517.01
534.35	40395.31
534.52	40463.18
534.69	40563.82
534.86	40877.46
535.03	40449.14
535.20	40669.15
535.37	40919.59
535.54	40938.31
535.71	40954.69
535.88	40917.25
536.05	41165.34
536.22	40701.92
536.38	40898.52
536.55	40837.67
536.72	40924.27
536.89	40844.69
537.06	41408.76
537.23	41017.89
537.40	41588.98
537.57	41617.07
537.74	41394.71
537.91	41755.16
538.08	41544.51
538.25	41338.54
538.42	41242.58
538.59	41375.99
538.75	41539.83
538.92	41610.04
539.09	41495.36
539.26	41593.66
539.43	41792.61
539.60	41755.16
539.77	41361.95
539.94	41523.44
540.11	41792.61
540.28	42033.68
540.44	41654.51
540.61	41860.48
540.78	41687.28
540.95	41722.39
541.12	41415.78
541.29	42176.45
541.46	41998.57
541.62	42139.00
541.79	42569.66
541.96	41918.99
542.13	42333.27
542.30	41975.17
542.47	42443.27
542.63	42522.85
542.80	42588.39
542.97	42508.81
543.14	42827.12
543.31	42546.26
543.48	42679.67
543.64	43414.60
543.81	43079.90
543.98	42682.01
544.15	42806.06
544.32	43196.93
544.48	43302.25
544.65	43477.79
544.82	43323.32
544.99	42918.40
545.16	43159.48
545.32	43012.02
545.49	43555.03
545.66	43875.68
545.83	43267.14
546.00	43438.00
546.16	43512.90
546.33	43690.78
546.50	43793.76
546.67	43430.98
546.83	43309.27
547.00	43615.88
547.17	43751.63
547.34	43075.22
547.50	43475.45
547.67	43580.78
547.84	44292.30
548.00	44100.37
548.17	44002.07
548.34	43875.68
548.51	44032.50
548.67	44315.70
548.84	43744.61
549.01	43735.25
549.18	43856.96
549.34	43887.39
549.51	44130.80
549.68	44121.44
549.84	44126.12
550.01	44343.79
550.18	43995.05
550.34	44191.65
550.51	44023.14
550.68	44135.48
550.84	43814.83
551.01	44271.23
551.18	44460.82
551.34	44362.51
551.51	44949.99
551.68	44612.95
551.84	44460.82
552.01	44250.17
552.18	44521.67
552.34	44524.01
552.51	44306.34
552.68	44231.44
552.84	44224.42
553.01	44477.20
553.18	44418.69
553.34	44072.29
553.51	44289.96
553.67	44423.37
553.84	45123.19
554.01	44966.37
554.17	45104.46
554.34	44596.57
554.51	44978.07
554.67	44928.92
554.84	45031.91
555.00	44952.33
555.17	44662.10
555.33	45045.95
555.50	44917.22
555.67	45310.43
555.83	45141.91
556.00	44964.03
556.16	45603.00
556.33	45031.91
556.50	44971.05
556.66	45525.76
556.83	45113.83
556.99	44989.78
557.16	45326.81
557.32	45303.41
557.49	45900.25
557.65	45425.12
557.82	45408.73
557.98	45614.70
558.15	45375.97
558.32	45017.86
558.48	44870.41
558.65	45109.14
558.81	45081.06
558.98	45251.92
559.14	45298.73
559.31	45694.28
559.47	45523.42
559.64	45680.24
559.80	45298.73
559.97	45544.48
560.13	45081.06
560.30	45514.06
560.46	45727.05
560.63	45872.16
560.79	45488.31
560.96	46253.67
561.12	45492.99
561.29	45326.81
561.45	45804.28
561.61	45652.15
561.78	45233.19
561.94	45535.12
562.11	45317.45
562.27	45418.10
562.44	45834.71
562.60	45961.10
562.77	46068.76
562.93	45705.98
563.10	45928.33
563.26	45254.26
563.42	46075.79
563.59	45748.11
563.75	45586.61
563.92	45691.94
564.08	45710.66
564.24	46316.86
564.41	45897.91
564.57	45935.35
564.74	45708.32
564.90	45509.38
565.07	45539.80
565.23	46375.37
565.39	45813.65
565.56	45794.92
565.72	45670.87
565.88	45823.01
566.05	45804.28
566.21	45394.69
566.38	45631.08
566.54	45528.10
566.70	46043.02
566.87	46419.84
567.03	46361.33
567.19	46138.98
567.36	46450.27
567.52	46169.41
567.68	45996.21
567.85	45921.31
568.01	46052.38
568.17	45853.44
568.34	46071.10
568.50	46363.67
568.66	46003.23
568.83	46328.56
568.99	45893.22
569.15	45998.55
569.32	45834.71
569.48	46192.81
569.64	46469.00
569.81	46138.98
569.97	45869.82
570.13	46197.49
570.30	45535.12
570.46	45825.35
570.62	45481.29
570.78	45858.12
570.95	45914.29
571.11	46045.36
571.27	45832.37
571.43	46162.39
571.60	45986.85
571.76	46218.56
571.92	45970.46
572.09	46209.20
572.25	45956.42
572.41	46138.98
572.57	46604.75
572.74	46564.96
572.90	46302.82
573.06	46204.52
573.22	46670.28
573.38	46408.14
573.55	46089.83
573.71	46174.09
573.87	46387.08
574.03	45972.80
574.20	46621.13
574.36	46581.34
574.52	46347.29
574.68	46059.40
574.84	46288.77
575.01	46143.66
575.17	46174.09
575.33	46265.37
575.49	46330.90
575.65	46185.79
575.82	46316.86
575.98	45923.65
576.14	46169.41
576.30	46398.78
576.46	45883.86
576.62	46036.00
576.79	45853.44
576.95	45993.87
577.11	46532.19
577.27	46272.39
577.43	46300.48
577.59	46312.18
577.75	46057.06
577.92	45808.96
578.08	45668.53
578.24	46085.15
578.40	46305.16
578.56	46761.56
578.72	46281.75
578.88	46256.01
579.04	46197.49
579.21	45633.42
579.37	46164.73
579.53	46532.19
579.69	46141.32
579.85	46515.81
580.01	46202.18
580.17	45799.60
580.33	46110.89
580.49	46579.00
580.65	46281.75
580.82	46553.26
580.98	46490.06
581.14	46417.50
581.30	46253.67
581.46	46340.27
581.62	46220.90
581.78	46417.50
581.94	46401.12
582.10	46171.75
582.26	46789.65
582.42	46485.38
582.58	46454.95
582.74	46504.10
582.90	46724.11
583.06	46569.64
583.22	46689.01
583.38	46419.84
583.54	46635.17
583.70	46380.06
583.86	46869.23
584.02	46300.48
584.18	46679.64
584.34	46256.01
584.50	46010.25
584.66	46272.39
584.82	46188.13
584.98	46403.46
585.14	46649.22
585.30	46616.45
585.46	46258.35
585.62	46529.85
585.78	46277.07
585.94	45811.31
586.10	46234.94
586.26	46169.41
586.42	46553.26
586.58	46703.05
586.74	46382.40
586.90	46244.30
587.06	46211.54
587.22	46777.95
587.38	46663.26
587.54	46646.88
587.70	46728.80
587.86	46190.47
588.02	46237.28
588.18	46621.13
588.34	45755.13
588.49	45684.92
588.65	45851.09
588.81	45853.44
588.97	45977.48
589.13	45858.12
589.29	46288.77
589.45	45904.93
589.61	45951.74
589.77	46600.07
589.93	46508.79
