SpectraSuite Data File
++++++++++++++++++++++++++++++++++++
Date: Fri Oct 25 10:47:28 EDT 2013
User: price-jones
Dark Spectrum Present: No
Reference Spectrum Present: No
Number of Sampled Component Spectra: 1
Spectrometers: USB2+H05261
Integration Time (usec): 100000 (USB2+H05261)
Spectra Averaged: 1 (USB2+H05261)
Boxcar Smoothing: 0 (USB2+H05261)
Correct for Electrical Dark: No (USB2+H05261)
Strobe/Lamp Enabled: No (USB2+H05261)
Correct for Detector Non-linearity: No (USB2+H05261)
Correct for Stray Light: No (USB2+H05261)
Number of Pixels in Processed Spectrum: 2048
>>>>>Begin Processed Spectral Data<<<<<
365.73	107.66
365.92	107.66
366.12	107.66
366.32	72.56
366.52	49.15
366.72	93.62
366.91	30.43
367.11	53.83
367.31	0.00
367.51	2.34
367.70	0.00
367.90	81.92
368.10	0.00
368.30	25.75
368.49	56.17
368.69	51.49
368.89	0.00
369.09	0.00
369.28	88.94
369.48	67.88
369.68	131.07
369.87	88.94
370.07	105.32
370.27	198.95
370.47	234.05
370.66	362.78
370.86	365.12
371.06	472.79
371.25	465.77
371.45	477.47
371.65	433.00
371.84	458.74
372.04	458.74
372.24	451.72
372.44	479.81
372.63	535.98
372.83	521.94
373.03	550.03
373.22	550.03
373.42	475.13
373.62	634.29
373.81	472.79
374.01	489.17
374.21	543.00
374.40	538.32
374.60	580.45
374.79	507.90
374.99	517.26
375.19	554.71
375.38	543.00
375.58	568.75
375.78	524.28
375.97	557.05
376.17	624.92
376.37	561.73
376.56	601.52
376.76	578.11
376.95	519.60
377.15	521.94
377.35	641.31
377.54	650.67
377.74	582.79
377.93	622.58
378.13	622.58
378.33	643.65
378.52	545.34
378.72	662.37
378.91	645.99
379.11	648.33
379.31	622.58
379.50	592.16
379.70	643.65
379.89	720.88
380.09	599.18
380.28	594.50
380.48	702.16
380.68	685.78
380.87	613.22
381.07	739.61
381.26	671.73
381.46	683.44
381.65	662.37
381.85	770.04
382.04	692.80
382.24	671.73
382.43	631.94
382.63	669.39
382.83	667.05
383.02	774.72
383.22	727.91
383.41	683.44
383.61	784.08
383.80	678.76
384.00	669.39
384.19	730.25
384.39	849.61
384.58	713.86
384.78	741.95
384.97	741.95
385.17	753.65
385.36	718.54
385.56	784.08
385.75	779.40
385.95	779.40
386.14	807.48
386.34	781.74
386.53	683.44
386.72	739.61
386.92	755.99
387.11	734.93
387.31	739.61
387.50	809.83
387.70	805.14
387.89	816.85
388.09	788.76
388.28	802.80
388.48	786.42
388.67	880.04
388.86	826.21
389.06	802.80
389.25	940.90
389.45	805.14
389.64	798.12
389.84	936.21
390.03	903.45
390.22	889.40
390.42	973.66
390.61	800.46
390.81	877.70
391.00	887.06
391.19	968.98
391.39	973.66
391.58	952.60
391.78	987.71
391.97	976.00
392.16	950.26
392.36	966.64
392.55	903.45
392.75	1034.52
392.94	891.74
393.13	931.53
393.33	882.38
393.52	961.96
393.71	987.71
393.91	1001.75
394.10	999.41
394.29	1053.24
394.49	1048.56
394.68	1137.50
394.88	1107.07
395.07	1043.88
395.26	1137.50
395.46	1144.52
395.65	1039.20
395.84	1011.11
396.04	1184.31
396.23	1158.57
396.42	1093.03
396.62	997.07
396.81	1128.14
397.00	1048.56
397.19	1123.46
397.39	1174.95
397.58	1259.21
397.77	1205.38
397.97	1245.16
398.16	1235.80
398.35	1238.14
398.55	1256.87
398.74	1270.91
398.93	1357.51
399.12	1310.70
399.32	1266.23
399.51	1306.02
399.70	1315.38
399.90	1322.40
400.09	1352.83
400.28	1355.17
400.47	1399.64
400.67	1383.26
400.86	1437.09
401.05	1373.89
401.24	1366.87
401.44	1462.83
401.63	1495.60
401.82	1406.66
402.01	1500.28
402.21	1448.79
402.40	1514.33
402.59	1507.30
402.78	1434.75
402.97	1561.14
403.17	1519.01
403.36	1563.48
403.55	1586.88
403.74	1652.42
403.93	1540.07
404.13	1563.48
404.32	1535.39
404.51	1640.72
404.70	1582.20
404.89	1558.80
405.09	1689.87
405.28	1631.35
405.47	1617.31
405.66	1652.42
405.85	1746.04
406.05	1645.40
406.24	1736.68
406.43	1813.92
406.62	1844.34
406.81	1837.32
407.00	1790.51
407.20	1713.27
407.39	1760.08
407.58	1909.88
407.77	1923.92
407.96	1884.13
408.15	1973.07
408.34	1867.75
408.54	1968.39
408.73	1909.88
408.92	1884.13
409.11	2012.86
409.30	2052.65
409.49	2045.63
409.68	1994.14
409.87	1998.82
410.07	2024.56
410.26	2087.76
410.45	2099.46
410.64	2148.61
410.83	2195.42
411.02	2104.14
411.21	2188.40
411.40	2125.21
411.59	2352.24
411.78	2216.49
411.98	2282.02
412.17	2223.51
412.36	2270.32
412.55	2289.04
412.74	2413.09
412.93	2438.84
413.12	2352.24
413.31	2555.86
413.50	2394.37
413.69	2574.59
413.88	2567.57
414.07	2462.24
414.26	2469.27
414.45	2574.59
414.64	2586.29
414.83	2537.14
415.02	2509.05
415.22	2719.70
415.41	2719.70
415.60	2698.64
415.79	2677.57
415.98	2754.81
416.17	2827.37
416.36	2775.88
416.55	2733.75
416.74	2857.79
416.93	2979.50
417.12	2862.48
417.31	2771.19
417.50	2860.13
417.69	2925.67
417.88	3028.65
418.07	2834.39
418.26	2935.03
418.45	2984.18
418.64	3208.87
418.83	3082.49
419.02	3141.00
419.21	3180.79
419.39	3169.09
419.58	3246.32
419.77	3091.85
419.96	3187.81
420.15	3141.00
420.34	3056.74
420.53	3225.26
420.72	3316.54
420.91	3328.24
421.10	3236.96
421.29	3323.56
421.48	3344.63
421.67	3403.14
421.86	3304.84
422.05	3424.20
422.24	3279.09
422.43	3344.63
422.61	3236.96
422.80	3482.72
422.99	3405.48
423.18	3468.67
423.37	3449.95
423.56	3417.18
423.75	3372.71
423.94	3426.54
424.13	3290.79
424.32	3281.43
424.50	3522.51
424.69	3653.58
424.88	3524.85
425.07	3517.83
425.26	3515.48
425.45	3449.95
425.64	3517.83
425.83	3513.14
426.01	3501.44
426.20	3513.14
426.39	3545.91
426.58	3414.84
426.77	3473.36
426.96	3517.83
427.15	3503.78
427.33	3630.17
427.52	3637.19
427.71	3609.11
427.90	3620.81
428.09	3709.75
428.28	3529.53
428.46	3730.81
428.65	3691.02
428.84	3620.81
429.03	3789.33
429.22	3637.19
429.40	3728.47
429.59	3758.90
429.78	3501.44
429.97	3473.36
430.16	3702.73
430.34	3777.62
430.53	3693.37
430.72	3833.80
430.91	3880.61
431.10	3908.69
431.28	4023.38
431.47	4109.98
431.66	4088.92
431.85	3934.44
432.03	4114.66
432.22	4318.29
432.41	3967.21
432.60	4023.38
432.79	3969.55
432.97	4173.18
433.16	4081.89
433.35	4037.42
433.54	4145.09
433.72	4051.47
433.91	4219.99
434.10	4280.84
434.28	4140.41
434.47	4341.69
434.66	4313.61
434.85	4264.46
435.03	4432.97
435.22	4285.52
435.41	4365.10
435.59	4475.10
435.78	4484.47
435.97	4528.94
436.16	4418.93
436.34	4505.53
436.53	4454.04
436.72	4702.14
436.90	4358.08
437.09	4540.64
437.28	4655.33
437.46	4493.83
437.65	4545.32
437.84	4573.41
438.02	4594.47
438.21	4681.07
438.40	4571.07
438.58	4732.56
438.77	4917.47
438.96	4814.48
439.14	4933.85
439.33	5027.47
439.52	5078.96
439.70	5128.11
439.89	5067.26
440.08	4985.34
440.26	4877.68
440.45	5135.14
440.63	5097.69
440.82	5376.21
441.01	5114.07
441.19	5408.98
441.38	5273.23
441.57	5294.29
441.75	5324.72
441.94	5549.41
442.12	5486.22
442.31	5572.82
442.50	5469.83
442.68	5521.32
442.87	5509.62
443.05	5591.54
443.24	5703.89
443.43	5540.05
443.61	5694.52
443.80	5636.01
443.98	5631.33
444.17	5507.28
444.35	5610.26
444.54	5774.10
444.73	5844.32
444.91	5799.85
445.10	5710.91
445.28	5778.78
445.47	5652.39
445.65	5701.54
445.84	5811.55
446.02	5738.99
446.21	5689.84
446.39	5788.14
446.58	5865.38
446.77	5816.23
446.95	5701.54
447.14	5741.33
447.32	5959.00
447.51	5926.24
447.69	5778.78
447.88	5959.00
448.06	5811.55
448.25	5863.04
448.43	5879.43
448.62	5802.19
448.80	5954.32
448.99	5872.40
449.17	6071.35
449.36	6099.44
449.54	6071.35
449.73	6092.41
449.91	5977.73
450.10	6132.20
450.28	6104.12
450.46	6143.91
450.65	6122.84
450.83	6333.49
451.02	6174.33
451.20	6253.91
451.39	6333.49
451.57	6186.04
451.76	6300.72
451.94	6286.68
452.13	6377.96
452.31	6258.59
452.49	6197.74
452.68	6361.58
452.86	6548.82
453.05	6600.31
453.23	6516.05
453.42	6436.47
453.60	6312.42
453.78	6490.31
453.97	6363.92
454.15	6588.61
454.34	6384.98
454.52	6684.57
454.70	6518.39
454.89	6555.84
455.07	6520.73
455.26	6693.93
455.44	6642.44
455.62	6801.60
455.81	6789.89
455.99	6932.67
456.17	6731.38
456.36	6780.53
456.54	6843.73
456.73	6984.16
456.91	7066.08
457.09	7225.23
457.28	7152.68
457.46	7180.76
457.64	7199.49
457.83	7194.81
458.01	7117.57
458.19	7309.49
458.38	7314.17
458.56	7185.44
458.74	7192.47
458.93	7286.09
459.11	7234.60
459.29	7258.00
459.48	7302.47
459.66	7384.39
459.84	7419.50
460.03	7494.40
460.21	7414.82
460.39	7424.18
460.57	7410.14
460.76	7358.64
460.94	7604.40
461.12	7470.99
461.31	7681.64
461.49	7578.65
461.67	7506.10
461.85	7707.38
462.04	7840.79
462.22	8236.35
462.40	7761.22
462.59	7691.00
462.77	7889.95
462.95	7885.26
463.13	7868.88
463.32	7880.58
463.50	8102.93
463.68	7894.63
463.86	8051.44
464.05	7693.34
464.23	7918.03
464.41	7871.22
464.59	7878.24
464.78	8112.30
464.96	7941.44
465.14	7918.03
465.32	8067.83
465.50	8299.54
465.69	8264.43
465.87	8133.36
466.05	8346.35
466.23	8161.45
466.41	8088.89
466.60	8383.80
466.78	8142.72
466.96	8273.79
467.14	8257.41
467.32	8432.95
467.51	8505.51
467.69	8006.97
467.87	8367.42
468.05	8470.40
468.23	8306.56
468.41	8439.97
468.60	8395.50
468.78	8531.25
468.96	8414.23
469.14	8748.92
469.32	8685.73
469.50	8552.32
469.69	8617.85
469.87	8990.00
470.05	8706.79
470.23	8751.26
470.41	8669.34
470.59	8856.59
470.77	8685.73
470.95	8994.68
471.14	9102.34
471.32	8835.52
471.50	9125.75
471.68	9062.55
471.86	8840.20
472.04	9100.00
472.22	9441.72
472.40	9130.43
472.58	9195.96
472.77	9500.23
472.95	9521.30
473.13	9540.02
473.31	9245.12
473.49	9259.16
473.67	9650.03
473.85	9425.34
474.03	9596.20
474.21	9818.55
474.39	9724.93
474.57	9970.68
474.75	9877.06
474.93	9994.09
475.12	9947.28
475.30	10139.20
475.48	10061.96
475.66	10120.48
475.84	10153.24
476.02	10171.97
476.20	10076.01
476.38	10396.66
476.56	10759.44
476.74	10630.71
476.92	10504.32
477.10	10497.30
477.28	10810.93
477.46	10752.42
477.64	10759.44
477.82	10832.00
478.00	11185.42
478.18	11360.96
478.36	11386.71
478.54	11220.53
478.72	11435.86
478.90	11679.27
479.08	11531.82
479.26	11719.06
479.44	11641.82
479.62	11712.04
479.80	11798.64
479.98	11901.62
480.16	12149.72
480.34	12011.63
480.52	12334.62
480.70	12135.68
480.88	12245.68
481.06	12273.77
481.24	12369.73
481.41	12585.06
481.59	12802.73
481.77	13111.68
481.95	13004.02
482.13	12854.22
482.31	13013.38
482.49	13376.16
482.67	13301.26
482.85	13291.90
483.03	13411.27
483.21	13565.74
483.39	13551.70
483.57	13650.00
483.74	13832.57
483.92	13701.50
484.10	13862.99
484.28	14129.81
484.46	14420.04
484.64	14724.31
484.82	14431.74
485.00	14333.44
485.18	14410.68
485.35	14778.14
485.53	14731.33
485.71	14874.10
485.89	15454.56
486.07	15281.36
486.25	15426.47
486.43	15234.55
486.61	15403.07
486.78	15435.83
486.96	15861.81
487.14	15917.98
487.32	15824.36
487.50	16093.52
487.68	16105.23
487.85	16554.61
488.03	16498.44
488.21	16968.88
488.39	16678.66
488.57	16875.26
488.75	16968.88
488.92	17088.25
489.10	17504.87
489.28	17165.49
489.46	17710.83
489.64	17783.39
489.81	17900.42
489.99	18045.53
490.17	18066.60
490.35	18291.29
490.53	18274.90
490.70	18455.12
490.88	18520.66
491.06	18906.85
491.24	18738.33
491.41	18876.42
491.59	18904.51
491.77	18993.45
491.95	19206.44
492.13	18881.10
492.30	19424.11
492.48	19665.18
492.66	19580.92
492.84	19520.07
493.01	19690.93
493.19	20201.16
493.37	20236.27
493.54	20208.19
493.72	20355.64
493.90	20430.54
494.08	20830.77
494.25	20680.97
494.43	21240.36
494.61	21170.15
494.79	21319.94
494.96	20933.75
495.14	20985.24
495.32	21268.45
495.49	21626.55
495.67	21743.58
495.85	21825.50
496.02	21898.05
496.20	22097.00
496.38	21989.33
496.55	22232.75
496.73	22817.88
496.91	22530.00
497.09	22537.02
497.26	22892.78
497.44	22506.59
497.62	22724.26
497.79	23131.51
497.97	23049.60
498.14	23208.75
498.32	23440.47
498.50	23255.56
498.67	23578.56
498.85	23508.34
499.03	23597.28
499.20	23861.76
499.38	24079.43
499.56	24002.19
499.73	24093.47
499.91	23814.95
500.08	24341.57
500.26	24247.95
500.44	24376.68
500.61	24180.07
500.79	24666.91
500.97	24615.41
501.14	24847.13
501.32	24985.22
501.49	24844.79
501.67	24863.51
501.84	25151.40
502.02	25118.63
502.20	25242.68
502.37	25280.13
502.55	25378.43
502.72	25666.31
502.90	25699.08
503.07	25523.54
503.25	25745.89
503.43	25598.44
503.60	25736.53
503.78	25694.40
503.95	25565.67
504.13	26078.25
504.30	26431.67
504.48	26103.99
504.65	26274.85
504.83	26429.33
505.01	26511.25
505.18	26658.70
505.36	26672.74
505.53	26710.19
505.71	26972.33
505.88	27026.17
506.06	26829.56
506.23	27049.57
506.41	26892.76
506.58	27321.07
506.76	27365.54
506.93	27278.94
507.11	27271.92
507.28	27445.12
507.46	27016.80
507.63	27653.43
507.81	27786.84
507.98	27709.60
508.16	27491.93
508.33	27955.36
508.50	28060.68
508.68	28166.01
508.85	28568.58
509.03	28058.34
509.20	28580.28
509.38	28634.11
509.55	28872.85
509.73	28566.24
509.90	28856.46
510.08	28819.02
510.25	28744.12
510.42	28809.65
510.60	28779.23
510.77	28877.53
510.95	28954.77
511.12	29139.67
511.30	29542.24
511.47	29490.75
511.64	29729.48
511.82	30075.88
511.99	29511.81
512.17	29530.54
512.34	29890.98
512.51	29832.47
512.69	30398.88
512.86	30108.65
513.04	30110.99
513.21	30258.45
513.38	30211.64
513.56	30307.60
513.73	30267.81
513.90	30092.27
514.08	30728.89
514.25	30342.70
514.43	30822.51
514.60	30698.47
514.77	31056.57
514.95	30932.52
515.12	30733.57
515.29	30752.30
515.47	31264.88
515.64	30941.88
515.81	31267.22
515.99	31278.92
516.16	31424.03
516.33	31299.98
516.51	31702.56
516.68	31573.83
516.85	31260.20
517.03	31599.57
517.20	31522.34
517.37	31538.72
517.54	31835.97
517.72	32065.34
517.89	31920.23
518.06	31620.64
518.24	32114.49
518.41	31606.59
518.58	32191.73
518.75	31679.15
518.93	32390.67
519.10	31997.46
519.27	32226.84
519.45	32163.64
519.62	32477.27
519.79	32488.98
519.96	33186.46
520.14	33141.99
520.31	32875.16
520.48	33319.87
520.65	32779.20
520.83	33188.80
521.00	33078.79
521.17	33034.32
521.34	32863.46
521.52	33464.98
521.69	33399.44
521.86	33605.41
522.03	33453.28
522.20	33457.96
522.38	33350.29
522.55	33642.86
522.72	33848.83
522.89	33729.46
523.07	33851.17
523.24	33832.44
523.41	34288.85
523.58	34150.76
523.75	34349.70
523.92	34635.25
524.10	34780.36
524.27	34504.18
524.44	34550.99
524.61	34906.75
524.78	34824.83
524.96	34703.12
525.13	35143.14
525.30	35082.29
525.47	35089.31
525.64	35049.52
525.81	34876.32
525.98	34923.13
526.16	34923.13
526.33	34749.93
526.50	35374.86
526.67	35070.59
526.84	35047.18
527.01	34714.83
527.18	35414.65
527.36	35262.51
527.53	35494.22
527.70	35512.95
527.87	35927.22
528.04	35789.13
528.21	35637.00
528.38	35318.68
528.55	35566.78
528.72	35840.62
528.89	36348.52
529.07	36252.56
529.24	35613.59
529.41	36067.66
529.58	36191.70
529.75	35887.43
529.92	36540.44
530.09	36364.90
530.26	36514.70
530.43	36282.98
530.60	36453.84
530.77	36809.61
530.94	36535.76
531.11	36907.91
531.28	36484.27
531.46	36765.14
531.63	36926.63
531.80	36907.91
531.97	36561.51
532.14	36680.88
532.31	36657.47
532.48	37345.59
532.65	37284.73
532.82	36896.20
532.99	37120.90
533.16	37106.85
533.33	37366.65
533.50	37144.30
533.67	37240.26
533.84	37123.24
534.01	37151.32
534.18	37455.59
534.35	38043.07
534.52	37457.93
534.69	37792.63
534.86	37614.75
535.03	37460.27
535.20	37675.60
535.37	38455.00
535.54	37984.55
535.71	37813.70
535.88	38080.52
536.05	38323.93
536.22	37982.21
536.38	38321.59
536.55	38293.50
536.72	38026.68
536.89	37752.84
537.06	38171.80
537.23	38251.38
537.40	37956.47
537.57	38459.68
537.74	38494.79
537.91	38780.34
538.08	38939.49
538.25	38408.19
538.42	38712.46
538.59	38873.96
538.75	38246.69
538.92	38726.50
539.09	39016.73
539.26	39002.69
539.43	38787.36
539.60	38939.49
539.77	38794.38
539.94	38632.88
540.11	39079.92
540.28	39044.82
540.44	38796.72
540.61	39178.23
540.78	39040.14
540.95	39161.84
541.12	38948.85
541.29	39395.90
541.46	39056.52
541.62	39276.53
541.79	39768.04
541.96	39054.18
542.13	39262.49
542.30	39185.25
542.47	39388.88
542.63	39576.12
542.80	39564.42
542.97	39775.06
543.14	40041.88
543.31	40121.46
543.48	40147.21
543.64	40708.94
543.81	40350.84
543.98	40395.31
544.15	40261.90
544.32	40552.12
544.48	40367.22
544.65	40786.18
544.82	40484.25
544.99	39754.00
545.16	40416.37
545.32	40292.32
545.49	40493.61
545.66	40545.10
545.83	40570.85
546.00	40751.07
546.16	40627.02
546.33	40502.97
546.50	40196.36
546.67	40898.52
546.83	40259.55
547.00	40680.85
547.17	40638.72
547.34	40250.19
547.50	41088.10
547.67	41373.65
547.84	40933.63
548.00	41427.48
548.17	41067.04
548.34	41457.91
548.51	40989.80
548.67	40987.46
548.84	41481.31
549.01	40931.29
549.18	41242.58
549.34	41467.27
549.51	41556.21
549.68	41640.47
549.84	41134.92
550.01	41783.24
550.18	41268.33
550.34	41413.44
550.51	41574.94
550.68	41593.66
550.84	40879.80
551.01	41354.93
551.18	41717.71
551.34	41223.86
551.51	41907.29
551.68	41476.63
551.84	41888.57
552.01	41949.42
552.18	41893.25
552.34	41682.60
552.51	41998.57
552.68	41729.41
552.84	42359.02
553.01	41841.76
553.18	41797.29
553.34	42113.26
553.51	42281.78
553.67	42192.84
553.84	42370.72
554.01	42359.02
554.17	42380.08
554.34	42417.53
554.51	42134.32
554.67	42710.10
554.84	42600.09
555.00	42586.05
555.17	41797.29
555.33	42057.09
555.50	42300.50
555.67	42457.32
555.83	42410.51
556.00	42567.32
556.16	42768.61
556.33	43007.34
556.50	42433.91
556.66	42855.21
556.83	42321.57
556.99	43115.01
557.16	42787.33
557.32	43086.92
557.49	42684.35
557.65	42333.27
557.82	42792.01
557.98	42691.37
558.15	42632.86
558.32	42880.95
558.48	42810.74
558.65	43110.33
558.81	42735.84
558.98	43040.11
559.14	43084.58
559.31	43253.10
559.47	42766.27
559.64	43253.10
559.80	43077.56
559.97	43213.31
560.13	43175.86
560.30	43049.47
560.46	42843.51
560.63	43452.05
560.79	43084.58
560.96	43625.25
561.12	43267.14
561.29	43512.90
561.45	43414.60
561.61	43482.47
561.78	43065.86
561.94	43140.75
562.11	43274.16
562.27	43220.33
562.44	43360.76
562.60	43430.98
562.77	43480.13
562.93	43468.43
563.10	43721.21
563.26	43313.95
563.42	43517.58
563.59	43290.55
563.75	43267.14
563.92	43613.54
564.08	43665.03
564.24	43978.67
564.41	43938.88
564.57	43290.55
564.74	43814.83
564.90	43339.70
565.07	43449.70
565.23	43236.72
565.39	43569.07
565.56	43828.87
565.72	43201.61
565.88	43538.65
566.05	43831.21
566.21	43913.13
566.38	43475.45
566.54	43746.95
566.70	43466.09
566.87	44009.09
567.03	43667.37
567.19	44198.68
567.36	43992.71
567.52	43826.53
567.68	44091.01
567.85	43335.02
568.01	43903.77
568.17	43594.82
568.34	43786.74
568.50	43765.68
568.66	43690.78
568.83	44016.11
568.99	43658.01
569.15	43892.07
569.32	43966.96
569.48	43779.72
569.64	44182.29
569.81	44285.28
569.97	44032.50
570.13	44367.20
570.30	44112.08
570.46	43849.94
570.62	43751.63
570.78	43674.40
570.95	44048.88
571.11	43693.12
571.27	44231.44
571.43	43873.34
571.60	43992.71
571.76	43990.37
571.92	43480.13
572.09	44055.90
572.25	43667.37
572.41	44081.65
572.57	44210.38
572.74	44509.97
572.90	43964.62
573.06	44046.54
573.22	44371.88
573.38	44149.53
573.55	43695.46
573.71	44247.83
573.87	44184.63
574.03	43988.03
574.20	44079.31
574.36	44130.80
574.52	43908.45
574.68	44385.92
574.84	44186.97
575.01	43800.79
575.17	44030.16
575.33	43995.05
575.49	44069.95
575.65	44643.38
575.82	44549.76
575.98	44348.47
576.14	44619.97
576.30	44189.31
576.46	44229.10
576.62	43934.20
576.79	43863.98
576.95	43672.06
577.11	44406.98
577.27	44397.62
577.43	44744.02
577.59	44133.14
577.75	44018.46
577.92	44039.52
578.08	43852.28
578.24	43899.09
578.40	44025.48
578.56	44278.25
578.72	44657.42
578.88	44364.85
579.04	44364.85
579.21	43875.68
579.37	44648.06
579.53	44479.54
579.69	44233.78
579.85	44481.88
580.01	44264.21
580.17	44266.55
580.33	44610.61
580.49	44531.03
580.65	44835.30
580.82	44250.17
580.98	44168.25
581.14	44205.70
581.30	44521.67
581.46	44282.94
581.62	44095.69
581.78	43981.01
581.94	44591.89
582.10	44364.85
582.26	44605.93
582.42	44215.06
582.58	44425.71
582.74	44484.22
582.90	44383.58
583.06	44477.20
583.22	44458.48
583.38	44409.32
583.54	43999.73
583.70	44289.96
583.86	44112.08
584.02	43952.92
584.18	44804.88
584.34	44325.07
584.50	44701.89
584.66	44673.81
584.82	43812.49
584.98	44713.59
585.14	44481.88
585.30	44282.94
585.46	44355.49
585.62	44409.32
585.78	44119.10
585.94	43697.80
586.10	44715.93
586.26	44013.77
586.42	44357.83
586.58	44631.68
586.74	44065.27
586.90	44367.20
587.06	44519.33
587.22	44350.81
587.38	44320.38
587.54	44921.90
587.70	44495.92
587.86	44968.71
588.02	44406.98
588.18	44825.94
588.34	44341.45
588.49	44332.09
588.65	44421.03
588.81	44570.82
588.97	44458.48
589.13	44112.08
589.29	44233.78
589.45	44711.25
589.61	44449.11
589.77	44861.05
589.93	44378.90
590.08	44959.35
590.24	44842.32
590.40	44793.17
