SpectraSuite Data File
++++++++++++++++++++++++++++++++++++
Date: Fri Oct 25 10:44:30 EDT 2013
User: price-jones
Dark Spectrum Present: No
Reference Spectrum Present: No
Number of Sampled Component Spectra: 1
Spectrometers: USB2+H05261
Integration Time (usec): 100000 (USB2+H05261)
Spectra Averaged: 1 (USB2+H05261)
Boxcar Smoothing: 0 (USB2+H05261)
Correct for Electrical Dark: No (USB2+H05261)
Strobe/Lamp Enabled: No (USB2+H05261)
Correct for Detector Non-linearity: No (USB2+H05261)
Correct for Stray Light: No (USB2+H05261)
Number of Pixels in Processed Spectrum: 2048
>>>>>Begin Processed Spectral Data<<<<<
365.73	88.94
365.92	88.94
366.12	88.94
366.32	79.58
366.52	0.00
366.72	16.38
366.91	7.02
367.11	32.77
367.31	42.13
367.51	0.00
367.70	28.09
367.90	58.51
368.10	0.00
368.30	49.15
368.49	93.62
368.69	9.36
368.89	74.90
369.09	49.15
369.28	56.17
369.48	70.22
369.68	81.92
369.87	77.24
370.07	32.77
370.27	114.69
370.47	210.65
370.66	435.34
370.86	440.02
371.06	507.90
371.25	482.15
371.45	402.57
371.65	465.77
371.84	400.23
372.04	407.25
372.24	465.77
372.44	498.53
372.63	451.72
372.83	433.00
373.03	461.09
373.22	526.62
373.42	482.15
373.62	528.96
373.81	512.58
374.01	465.77
374.21	505.56
374.40	505.56
374.60	540.66
374.79	479.81
374.99	540.66
375.19	676.41
375.38	568.75
375.58	669.39
375.78	526.62
375.97	566.41
376.17	657.69
376.37	550.03
376.56	592.16
376.76	564.07
376.95	589.82
377.15	603.86
377.35	608.54
377.54	634.29
377.74	631.94
377.93	566.41
378.13	648.33
378.33	641.31
378.52	596.84
378.72	660.03
378.91	667.05
379.11	678.76
379.31	636.63
379.50	606.20
379.70	688.12
379.89	706.84
380.09	613.22
380.28	608.54
380.48	676.41
380.68	674.07
380.87	650.67
381.07	716.20
381.26	741.95
381.46	702.16
381.65	753.65
381.85	690.46
382.04	685.78
382.24	760.67
382.43	777.06
382.63	655.35
382.83	655.35
383.02	772.38
383.22	676.41
383.41	755.99
383.61	690.46
383.80	791.10
384.00	781.74
384.19	753.65
384.39	779.40
384.58	732.59
384.78	732.59
384.97	711.52
385.17	753.65
385.36	800.46
385.56	723.23
385.75	873.02
385.95	748.97
386.14	812.17
386.34	781.74
386.53	828.55
386.72	788.76
386.92	748.97
387.11	767.70
387.31	802.80
387.50	844.93
387.70	784.08
387.89	802.80
388.09	795.78
388.28	856.64
388.48	861.32
388.67	912.81
388.86	896.43
389.06	926.85
389.25	1025.15
389.45	884.72
389.64	894.08
389.84	896.43
390.03	889.40
390.22	968.98
390.42	912.81
390.61	884.72
390.81	1008.77
391.00	1043.88
391.19	1118.78
391.39	1008.77
391.58	990.05
391.78	1057.92
391.97	1041.54
392.16	1015.79
392.36	964.30
392.55	994.73
392.75	1039.20
392.94	987.71
393.13	1036.86
393.33	978.34
393.52	985.37
393.71	1032.18
393.91	1029.84
394.10	1004.09
394.29	1203.04
394.49	1203.04
394.68	1207.72
394.88	1093.03
395.07	1235.80
395.26	1128.14
395.46	1121.12
395.65	1217.08
395.84	1111.75
396.04	1231.12
396.23	1158.57
396.42	1100.05
396.62	1132.82
396.81	1156.22
397.00	1160.91
397.19	1212.40
397.39	1310.70
397.58	1266.23
397.77	1219.42
397.97	1334.11
398.16	1313.04
398.35	1385.60
398.55	1299.00
398.74	1411.34
398.93	1460.49
399.12	1362.19
399.32	1444.11
399.51	1394.96
399.70	1507.30
399.90	1451.13
400.09	1519.01
400.28	1547.09
400.47	1490.92
400.67	1596.25
400.86	1563.48
401.05	1528.37
401.24	1462.83
401.44	1535.39
401.63	1579.86
401.82	1610.29
402.01	1661.78
402.21	1783.49
402.40	1619.65
402.59	1645.40
402.78	1680.50
402.97	1610.29
403.17	1689.87
403.36	1696.89
403.55	1717.95
403.74	1724.97
403.93	1706.25
404.13	1689.87
404.32	1849.02
404.51	1813.92
404.70	1863.07
404.89	1930.94
405.09	1856.04
405.28	1837.32
405.47	1884.13
405.66	1907.54
405.85	1877.11
406.05	1877.11
406.24	1867.75
406.43	1956.69
406.62	1900.52
406.81	1975.41
407.00	1846.68
407.20	1877.11
407.39	2008.18
407.58	2111.16
407.77	2010.52
407.96	2064.35
408.15	2054.99
408.34	2099.46
408.54	2214.15
408.73	2143.93
408.92	2370.96
409.11	2099.46
409.30	2101.80
409.49	2190.74
409.68	2101.80
409.87	2204.78
410.07	2204.78
410.26	2349.90
410.45	2300.75
410.64	2293.72
410.83	2321.81
411.02	2380.32
411.21	2394.37
411.40	2492.67
411.59	2555.86
411.78	2431.82
411.98	2574.59
412.17	2579.27
412.36	2466.92
412.55	2471.61
412.74	2572.25
412.93	2614.38
413.12	2555.86
413.31	2740.77
413.50	2757.15
413.69	2808.64
413.88	2757.15
414.07	2787.58
414.26	2878.86
414.45	2808.64
414.64	2740.77
414.83	2789.92
415.02	2785.24
415.22	3019.29
415.41	2925.67
415.60	2839.07
415.79	3119.93
415.98	2993.55
416.17	3014.61
416.36	3145.68
416.55	3047.38
416.74	3094.19
416.93	3138.66
417.12	3255.69
417.31	3101.21
417.50	3131.64
417.69	3232.28
417.88	3180.79
418.07	3358.67
418.26	3339.94
418.45	3274.41
418.64	3440.59
418.83	3379.73
419.02	3435.91
419.21	3396.12
419.39	3442.93
419.58	3363.35
419.77	3410.16
419.96	3585.70
420.15	3365.69
420.34	3454.63
420.53	3723.79
420.72	3662.94
420.91	3669.96
421.10	3559.95
421.29	3618.47
421.48	3595.06
421.67	3644.21
421.86	3665.28
422.05	3644.21
422.24	3524.85
422.43	3627.83
422.61	3562.30
422.80	3662.94
422.99	3700.39
423.18	3735.50
423.37	3831.46
423.56	3728.47
423.75	3843.16
423.94	3676.98
424.13	3492.08
424.32	3513.14
424.50	3786.99
424.69	3794.01
424.88	3857.20
425.07	3716.77
425.26	3768.26
425.45	3651.24
425.64	3866.56
425.83	3861.88
426.01	3864.22
426.20	3904.01
426.39	3932.10
426.58	3791.67
426.77	3772.94
426.96	3889.97
427.15	3850.18
427.33	3810.39
427.52	3927.42
427.71	4004.66
427.90	3801.03
428.09	4014.02
428.28	3882.95
428.46	3946.14
428.65	4009.34
428.84	4098.28
429.03	4175.52
429.22	4067.85
429.40	3899.33
429.59	3932.10
429.78	3737.84
429.97	3831.46
430.16	4016.36
430.34	3918.06
430.53	4088.92
430.72	4046.79
430.91	3995.29
431.10	4114.66
431.28	4409.57
431.47	4280.84
431.66	4540.64
431.85	4306.59
432.03	4313.61
432.22	4554.68
432.41	4369.78
432.60	4568.73
432.79	4435.32
432.97	4538.30
433.16	4437.66
433.35	4538.30
433.54	4435.32
433.72	4493.83
433.91	4589.79
434.10	4608.51
434.28	4568.73
434.47	4554.68
434.66	4678.73
434.85	4674.05
435.03	4720.86
435.22	4706.82
435.41	4795.76
435.59	5020.45
435.78	4957.25
435.97	5022.79
436.16	4894.06
436.34	4940.87
436.53	4849.59
436.72	5064.92
436.90	4814.48
437.09	4858.95
437.28	4940.87
437.46	4882.36
437.65	4840.23
437.84	4968.96
438.02	4973.64
438.21	4990.02
438.40	4868.31
438.58	5055.56
438.77	5179.61
438.96	5226.42
439.14	5289.61
439.33	5369.19
439.52	5380.89
439.70	5305.99
439.89	5514.30
440.08	5401.96
440.26	5420.68
440.45	5577.50
440.63	5549.41
440.82	5638.35
441.01	5668.78
441.19	5692.18
441.38	5841.98
441.57	5731.97
441.75	5839.64
441.94	6045.60
442.12	5935.60
442.31	6115.82
442.50	5951.98
442.68	6005.81
442.87	6176.67
443.05	5982.41
443.24	5961.34
443.43	6296.04
443.61	6195.40
443.80	6291.36
443.98	6326.47
444.17	5959.00
444.35	6169.65
444.54	6132.20
444.73	6270.30
444.91	6218.80
445.10	5956.66
445.28	6139.23
445.47	6136.88
445.65	6033.90
445.84	6174.33
446.02	6279.66
446.21	6319.45
446.39	6345.19
446.58	6413.07
446.77	6314.77
446.95	6155.61
447.14	6328.81
447.32	6424.77
447.51	6279.66
447.69	6263.27
447.88	6349.87
448.06	6307.74
448.25	6413.07
448.43	6429.45
448.62	6310.08
448.80	6319.45
448.99	6565.20
449.17	6506.69
449.36	6480.94
449.54	6569.88
449.73	6654.14
449.91	6794.58
450.10	6614.35
450.28	6937.35
450.46	6853.09
450.65	6991.18
450.83	6820.32
451.02	6909.26
451.20	6956.07
451.39	7007.56
451.57	6813.30
451.76	6935.01
451.94	6850.75
452.13	7063.74
452.31	6899.90
452.49	6841.39
452.68	6689.25
452.86	6895.22
453.05	7059.06
453.23	7124.59
453.42	6885.86
453.60	6913.94
453.78	7087.14
453.97	6935.01
454.15	6871.81
454.34	7145.66
454.52	7255.66
454.70	7068.42
454.89	6956.07
455.07	7178.42
455.26	7482.69
455.44	7239.28
455.62	7360.98
455.81	7304.81
455.99	7321.20
456.17	7405.46
456.36	7583.34
456.54	7564.61
456.73	7562.27
456.91	7772.92
457.09	7691.00
457.28	7693.34
457.46	7557.59
457.64	7660.57
457.83	7524.82
458.01	7768.24
458.19	7925.05
458.38	7719.09
458.56	7894.63
458.74	7925.05
458.93	7974.21
459.11	7999.95
459.29	7964.84
459.48	7885.26
459.66	7971.86
459.84	7918.03
460.03	8098.25
460.21	8105.28
460.39	8163.79
460.57	8198.90
460.76	7985.91
460.94	8294.86
461.12	8383.80
461.31	8327.63
461.49	8201.24
461.67	8238.69
461.85	8549.98
462.04	8344.01
462.22	8578.06
462.40	8526.57
462.59	8365.07
462.77	8463.38
462.95	8407.20
463.13	8568.70
463.32	8699.77
463.50	8624.87
463.68	8737.22
463.86	8624.87
464.05	8575.72
464.23	8472.74
464.41	8582.74
464.59	8608.49
464.78	8868.29
464.96	8711.47
465.14	8765.31
465.32	8697.43
465.50	8716.16
465.69	8788.71
465.87	8905.74
466.05	8959.57
466.23	8805.10
466.41	8788.71
466.60	9172.56
466.78	8905.74
466.96	8854.25
467.14	8971.27
467.32	8973.61
467.51	9198.31
467.69	8788.71
467.87	8961.91
468.05	9256.82
468.23	9214.69
468.41	9146.81
468.60	9294.27
468.78	9057.87
468.96	9048.51
469.14	9352.78
469.32	9298.95
469.50	8987.66
469.69	9441.72
469.87	9352.78
470.05	9472.15
470.23	9544.70
470.41	9387.89
470.59	9446.40
470.77	9462.79
470.95	9598.54
471.14	9652.37
471.32	9488.53
471.50	9764.72
471.68	10026.86
471.86	9858.34
472.04	9804.50
472.22	10143.88
472.40	9863.02
472.58	10108.77
472.77	10068.98
472.95	10083.03
473.13	10476.24
473.31	10174.31
473.49	9982.38
473.67	9954.30
473.85	10200.05
474.03	10658.80
474.21	10455.17
474.39	10471.56
474.57	10499.64
474.75	10658.80
474.93	10686.89
475.12	10806.25
475.30	10616.67
475.48	10752.42
475.66	10832.00
475.84	10843.70
476.02	10977.11
476.20	10949.03
476.38	11159.67
476.56	11386.71
476.74	11159.67
476.92	11272.02
477.10	11143.29
477.28	11517.78
477.46	11466.28
477.64	11499.05
477.82	11875.88
478.00	11852.47
478.18	11941.41
478.36	11976.52
478.54	11997.59
478.72	12056.10
478.90	12362.71
479.08	12489.10
479.26	12564.00
479.44	12711.45
479.62	12816.77
479.80	12886.99
479.98	12858.90
480.16	12980.61
480.34	13123.38
480.52	13294.24
480.70	13153.81
480.88	13130.41
481.06	13467.44
481.24	13521.27
481.41	13635.96
481.59	13692.13
481.77	13987.04
481.95	13942.57
482.13	13841.93
482.31	14249.18
482.49	14415.36
482.67	14132.15
482.85	14312.38
483.03	14480.89
483.21	14658.78
483.39	14703.25
483.57	14518.34
483.74	14881.13
483.92	15143.27
484.10	14888.15
484.28	15276.68
484.46	15506.05
484.64	15707.34
484.82	15473.28
485.00	15683.93
485.18	15955.43
485.35	15913.30
485.53	15580.95
485.71	15609.03
485.89	15983.52
486.07	15833.72
486.25	16006.92
486.43	16058.42
486.61	16374.39
486.78	16477.37
486.96	16695.04
487.14	17011.01
487.32	17188.89
487.50	17406.56
487.68	17666.36
487.85	17528.27
488.03	17729.56
488.21	17963.61
488.39	17764.67
488.57	17844.24
488.75	18141.49
488.92	18319.37
489.10	18609.60
489.28	18595.56
489.46	18927.91
489.64	18895.14
489.81	19318.78
489.99	19440.49
490.17	19419.42
490.35	19747.10
490.53	19625.39
490.70	19510.71
490.88	19529.43
491.06	20226.91
491.24	20215.21
491.41	19697.95
491.59	20088.82
491.77	20236.27
491.95	20381.38
492.13	20566.29
492.30	20676.29
492.48	20552.24
492.66	21055.46
492.84	21165.46
493.01	21352.71
493.19	21076.52
493.37	21345.69
493.54	21778.68
493.72	21832.52
493.90	22047.85
494.08	22033.80
494.25	22305.31
494.43	22302.96
494.61	22471.48
494.79	22705.54
494.96	22689.15
495.14	22391.91
495.32	22710.22
495.49	22794.48
495.67	22953.63
495.85	23218.11
496.02	23522.38
496.20	23442.81
496.38	23229.82
496.55	23756.44
496.73	23847.72
496.91	24070.07
497.09	24091.13
497.26	24065.39
497.44	24151.99
497.62	24194.12
497.79	24472.64
497.97	24582.65
498.14	24594.35
498.32	24645.84
498.50	24575.62
498.67	24797.98
498.85	24898.62
499.03	25188.85
499.20	25254.38
499.38	25546.95
499.56	25446.30
499.73	25514.18
499.91	25528.22
500.08	25891.01
500.26	25277.79
500.44	25584.40
500.61	25542.27
500.79	25989.31
500.97	25888.67
501.14	26309.96
501.32	25872.28
501.49	26129.74
501.67	26324.01
501.84	26380.18
502.02	26403.58
502.20	27042.55
502.37	26803.82
502.55	26899.78
502.72	26988.72
502.90	27164.26
503.07	27197.02
503.25	27077.66
503.43	27037.87
503.60	27021.48
503.78	26967.65
503.95	27264.90
504.13	27723.65
504.30	27527.04
504.48	27782.16
504.65	28037.28
504.83	28140.26
505.01	28308.78
505.18	27924.93
505.36	28514.75
505.53	28140.26
505.71	28723.05
505.88	28386.02
506.06	28268.99
506.23	28788.59
506.41	28556.88
506.58	28842.42
506.76	29322.23
506.93	28713.69
507.11	29008.60
507.28	28877.53
507.46	28961.79
507.63	28837.74
507.81	29310.53
507.98	28898.59
508.16	29956.52
508.33	29778.64
508.50	29589.05
508.68	30078.22
508.85	30221.00
509.03	30199.93
509.20	30139.08
509.38	30443.35
509.55	30621.23
509.73	30029.07
509.90	30476.12
510.08	30408.24
510.25	30059.50
510.42	30768.68
510.60	30906.77
510.77	31021.46
510.95	30976.99
511.12	30775.70
511.30	30857.62
511.47	30988.69
511.64	31419.35
511.82	31442.76
511.99	31070.61
512.17	31461.48
512.34	31260.20
512.51	31599.57
512.69	31784.48
512.86	32004.49
513.04	31756.39
513.21	31828.95
513.38	32088.74
513.56	31819.58
513.73	31800.86
513.90	32198.75
514.08	32048.96
514.25	32311.10
514.43	32147.26
514.60	32261.94
514.77	32353.23
514.95	32959.42
515.12	32634.09
515.29	32325.14
515.47	33270.72
515.64	33078.79
515.81	32744.09
515.99	32657.49
516.16	32968.79
516.33	32500.68
516.51	32952.40
516.68	32669.20
516.85	32566.21
517.03	32968.79
517.20	33235.61
517.37	33008.58
517.54	33523.49
517.72	33174.75
517.89	33120.92
518.06	33174.75
518.24	32907.93
518.41	33385.40
518.58	33385.40
518.75	33706.05
518.93	34377.79
519.10	33567.96
519.27	34026.71
519.45	34258.42
519.62	34361.40
519.79	34246.72
519.96	34328.64
520.14	34728.87
520.31	34270.12
520.48	34698.44
520.65	34448.00
520.83	34974.63
521.00	35264.85
521.17	35019.10
521.34	34981.65
521.52	35103.35
521.69	34918.45
521.86	35239.11
522.03	35211.02
522.20	35433.37
522.38	35405.28
522.55	35218.04
522.72	35854.67
522.89	35651.04
523.07	35262.51
523.24	35342.09
523.41	36016.16
523.58	35833.60
523.75	36428.10
523.92	35908.50
524.10	36013.82
524.27	36355.54
524.44	35959.99
524.61	36353.20
524.78	36847.05
524.96	37191.11
525.13	36730.03
525.30	36411.71
525.47	36744.07
525.64	37099.83
525.81	36552.15
525.98	36830.67
526.16	36608.32
526.33	36570.87
526.50	36603.64
526.67	36584.91
526.84	36463.21
527.01	36975.78
527.18	36875.14
527.36	37251.97
527.53	37617.09
527.70	37500.06
527.87	37525.81
528.04	37017.91
528.21	37198.13
528.38	37118.56
528.55	37947.11
528.72	37860.51
528.89	37975.19
529.07	37640.50
529.24	37418.14
529.41	37762.20
529.58	38148.39
529.75	38010.30
529.92	37572.62
530.09	38003.28
530.26	38211.59
530.43	38094.56
530.60	37794.97
530.77	37977.53
530.94	38223.29
531.11	38108.60
531.28	38473.73
531.46	38665.65
531.63	38682.03
531.80	38630.54
531.97	38314.57
532.14	38258.40
532.31	38347.34
532.48	38539.26
532.65	38876.30
532.82	38380.10
532.99	39285.89
533.16	38698.42
533.33	38855.23
533.50	39250.78
533.67	39131.42
533.84	38785.02
534.01	38759.27
534.18	39295.25
534.35	39056.52
534.52	39304.62
534.69	39709.53
534.86	39648.68
535.03	39452.07
535.20	39512.92
535.37	39952.94
535.54	39779.74
535.71	39622.93
535.88	39526.97
536.05	39281.21
536.22	39941.24
536.38	39978.69
536.55	39372.49
536.72	39889.75
536.89	39419.30
537.06	39793.79
537.23	39772.72
537.40	39985.71
537.57	39526.97
537.74	40292.32
537.91	40421.05
538.08	40179.98
538.25	40128.48
538.42	40285.30
538.59	40282.96
538.75	40142.53
538.92	40184.66
539.09	40264.24
539.26	40671.49
539.43	40224.45
539.60	40397.65
539.77	40540.42
539.94	40603.61
540.11	40215.08
540.28	40402.33
540.44	40481.91
540.61	40605.95
540.78	40130.83
540.95	40491.27
541.12	40840.01
541.29	40849.37
541.46	40989.80
541.62	40697.24
541.79	41097.47
541.96	40715.96
542.13	40781.49
542.30	40713.62
542.47	41378.33
542.63	40928.95
542.80	41010.87
542.97	41951.76
543.14	41652.17
543.31	41301.09
543.48	41322.16
543.64	42113.26
543.81	42117.94
543.98	41862.82
544.15	41766.86
544.32	42328.59
544.48	42270.08
544.65	41820.69
544.82	41764.52
544.99	41818.35
545.16	42148.37
545.32	41727.07
545.49	42380.08
545.66	42190.50
545.83	42450.30
546.00	42480.72
546.16	42286.46
546.33	42094.53
546.50	42024.32
546.67	42169.43
546.83	42314.55
547.00	42337.95
547.17	42017.30
547.34	42106.24
547.50	42609.45
547.67	42731.16
547.84	42724.14
548.00	43012.02
548.17	42593.07
548.34	42766.27
548.51	43360.76
548.67	42602.43
548.84	43061.18
549.01	42628.18
549.18	42768.61
549.34	42499.45
549.51	42719.46
549.68	42766.27
549.84	42848.19
550.01	42979.26
550.18	42990.96
550.34	43267.14
550.51	42925.42
550.68	43089.26
550.84	42873.93
551.01	43784.40
551.18	42850.53
551.34	43344.38
551.51	42948.83
551.68	43426.30
551.84	43056.50
552.01	43590.14
552.18	43325.66
552.34	43295.23
552.51	43522.26
552.68	43278.85
552.84	43737.59
553.01	43447.36
553.18	43594.82
553.34	43620.56
553.51	43295.23
553.67	43363.11
553.84	44037.18
554.01	43693.12
554.17	43320.98
554.34	44074.63
554.51	43683.76
554.67	43639.29
554.84	43931.86
555.00	44142.50
555.17	43866.32
555.33	44098.03
555.50	43655.67
555.67	43966.96
555.83	44041.86
556.00	43931.86
556.16	44652.74
556.33	43999.73
556.50	44041.86
556.66	44275.91
556.83	44072.29
556.99	44074.63
557.16	44194.00
557.32	43917.81
557.49	44547.42
557.65	44215.06
557.82	44161.23
557.98	44233.78
558.15	44154.21
558.32	44196.34
558.48	44322.72
558.65	44140.16
558.81	43969.30
558.98	44201.02
559.14	44381.24
559.31	44046.54
559.47	44680.83
559.64	44809.56
559.80	44844.66
559.97	44261.87
560.13	44196.34
560.30	44191.65
560.46	44680.83
560.63	44720.62
560.79	44524.01
560.96	44596.57
561.12	44835.30
561.29	44463.16
561.45	44540.39
561.61	44739.34
561.78	44500.61
561.94	44612.95
562.11	44582.52
562.27	44191.65
562.44	44907.86
562.60	44891.48
562.77	44636.36
562.93	44811.90
563.10	45113.83
563.26	44175.27
563.42	44657.42
563.59	44734.66
563.75	44528.69
563.92	45001.48
564.08	45001.48
564.24	44849.35
564.41	44751.04
564.57	44563.80
564.74	44919.56
564.90	44933.60
565.07	44783.81
565.23	44428.05
565.39	44919.56
565.56	45322.13
565.72	44718.28
565.88	45027.23
566.05	44615.29
566.21	44524.01
566.38	44612.95
566.54	44872.75
566.70	45090.42
566.87	45457.88
567.03	44924.24
567.19	45518.74
567.36	45137.23
567.52	44802.53
567.68	45256.60
567.85	45188.72
568.01	45031.91
568.17	45216.81
568.34	45223.83
568.50	45872.16
568.66	44678.49
568.83	45057.65
568.99	45315.11
569.15	45162.98
569.32	45146.59
569.48	45270.64
569.64	45280.00
569.81	44975.73
569.97	45244.90
570.13	45261.28
570.30	45155.96
570.46	44842.32
570.62	44912.54
570.78	44889.13
570.95	45364.26
571.11	45390.01
571.27	44687.85
571.43	44952.33
571.60	44818.92
571.76	44896.16
571.92	45457.88
572.09	45057.65
572.25	45275.32
572.41	44804.88
572.57	45076.38
572.74	45455.54
572.90	45577.25
573.06	45439.16
573.22	45230.85
573.38	45158.30
573.55	44737.00
573.71	45256.60
573.87	45205.11
574.03	45043.61
574.20	45811.31
574.36	45102.12
574.52	45338.52
574.68	45504.70
574.84	45415.76
575.01	45045.95
575.17	45233.19
575.33	45095.10
575.49	45017.86
575.65	45099.78
575.82	45542.14
575.98	45460.23
576.14	45411.07
576.30	45560.87
576.46	45109.14
576.62	45308.09
576.79	45275.32
576.95	44737.00
577.11	45488.31
577.27	45406.39
577.43	45680.24
577.59	44996.80
577.75	45310.43
577.92	45109.14
578.08	45088.08
578.24	44861.05
578.40	45357.24
578.56	45509.38
578.72	45591.30
578.88	45661.51
579.04	45846.41
579.21	45287.03
579.37	45984.51
579.53	45560.87
579.69	45523.42
579.85	45612.36
580.01	45467.25
580.17	45455.54
580.33	45640.45
580.49	45448.52
580.65	45687.26
580.82	45464.91
580.98	45008.50
581.14	45642.79
581.30	45766.84
581.46	45558.53
581.62	45586.61
581.78	45626.40
581.94	45872.16
582.10	45296.39
582.26	45563.21
582.42	45436.82
582.58	45406.39
582.74	45514.06
582.90	45600.66
583.06	45380.65
583.22	45443.84
583.38	45986.85
583.54	46110.89
583.70	45762.15
583.86	45296.39
584.02	45284.68
584.18	45619.38
584.34	45544.48
584.50	45701.30
584.66	45177.02
584.82	45521.08
584.98	45771.52
585.14	45460.23
585.30	45390.01
585.46	45549.17
585.62	45184.04
585.78	45392.35
585.94	45397.03
586.10	45701.30
586.26	45375.97
586.42	45956.42
586.58	45558.53
586.74	45106.80
586.90	45371.28
587.06	45144.25
587.22	45317.45
587.38	45509.38
587.54	45378.31
587.70	45689.60
587.86	45652.15
588.02	45394.69
588.18	45713.00
588.34	45275.32
588.49	44870.41
588.65	45193.40
588.81	44823.60
588.97	45404.05
589.13	45371.28
589.29	45525.76
589.45	45123.19
589.61	45268.30
589.77	45659.17
589.93	45640.45
590.08	45588.95
