SpectraSuite Data File
++++++++++++++++++++++++++++++++++++
Date: Fri Oct 25 11:25:41 EDT 2013
User: price-jones
Dark Spectrum Present: No
Reference Spectrum Present: No
Number of Sampled Component Spectra: 1
Spectrometers: USB2+H05261
Integration Time (usec): 100000 (USB2+H05261)
Spectra Averaged: 1 (USB2+H05261)
Boxcar Smoothing: 0 (USB2+H05261)
Correct for Electrical Dark: No (USB2+H05261)
Strobe/Lamp Enabled: No (USB2+H05261)
Correct for Detector Non-linearity: No (USB2+H05261)
Correct for Stray Light: No (USB2+H05261)
Number of Pixels in Processed Spectrum: 2048
>>>>>Begin Processed Spectral Data<<<<<
365.73	229.37
365.92	229.37
366.12	229.37
366.32	152.13
366.52	156.82
366.72	180.22
366.91	147.45
367.11	152.13
367.31	86.60
367.51	138.09
367.70	170.86
367.90	203.63
368.10	154.48
368.30	189.58
368.49	191.92
368.69	100.64
368.89	67.88
369.09	170.86
369.28	217.67
369.48	184.90
369.68	238.73
369.87	231.71
370.07	215.33
370.27	262.14
370.47	308.95
370.66	648.33
370.86	636.63
371.06	685.78
371.25	725.57
371.45	617.90
371.65	648.33
371.84	690.46
372.04	718.54
372.24	699.82
372.44	692.80
372.63	819.19
372.83	798.12
373.03	767.70
373.22	805.14
373.42	727.91
373.62	697.48
373.81	781.74
374.01	826.21
374.21	805.14
374.40	821.53
374.60	880.04
374.79	812.17
374.99	784.08
375.19	858.98
375.38	826.21
375.58	781.74
375.78	802.80
375.97	870.68
376.17	863.66
376.37	802.80
376.56	868.34
376.76	833.23
376.95	800.46
377.15	922.17
377.35	898.77
377.54	929.19
377.74	898.77
377.93	875.36
378.13	877.70
378.33	894.08
378.52	908.13
378.72	1006.43
378.91	994.73
379.11	924.51
379.31	959.62
379.50	954.94
379.70	938.55
379.89	912.81
380.09	968.98
380.28	973.66
380.48	973.66
380.68	992.39
380.87	990.05
381.07	978.34
381.26	943.24
381.46	990.05
381.65	1008.77
381.85	1064.94
382.04	1034.52
382.24	1074.31
382.43	1165.59
382.63	1109.41
382.83	1102.39
383.02	1135.16
383.22	1205.38
383.41	1111.75
383.61	1139.84
383.80	1191.33
384.00	1078.99
384.19	1039.20
384.39	1200.69
384.58	1193.67
384.78	1139.84
384.97	1188.99
385.17	1149.20
385.36	1081.33
385.56	1165.59
385.75	1156.22
385.95	1196.01
386.14	1228.78
386.34	1135.16
386.53	1224.10
386.72	1198.35
386.92	1348.15
387.11	1247.51
387.31	1259.21
387.50	1331.76
387.70	1301.34
387.89	1207.72
388.09	1238.14
388.28	1240.48
388.48	1345.81
388.67	1331.76
388.86	1263.89
389.06	1303.68
389.25	1336.45
389.45	1315.38
389.64	1362.19
389.84	1427.73
390.03	1420.71
390.22	1373.89
390.42	1453.47
390.61	1357.51
390.81	1453.47
391.00	1479.22
391.19	1458.15
391.39	1446.45
391.58	1514.33
391.78	1462.83
391.97	1490.92
392.16	1514.33
392.36	1556.46
392.55	1519.01
392.75	1533.05
392.94	1472.20
393.13	1535.39
393.33	1509.65
393.52	1528.37
393.71	1591.56
393.91	1556.46
394.10	1603.27
394.29	1584.54
394.49	1657.10
394.68	1572.84
394.88	1579.86
395.07	1631.35
395.26	1680.50
395.46	1671.14
395.65	1694.55
395.84	1682.85
396.04	1748.38
396.23	1781.15
396.42	1717.95
396.62	1757.74
396.81	1839.66
397.00	1729.66
397.19	1813.92
397.39	1806.89
397.58	1825.62
397.77	1729.66
397.97	1680.50
398.16	1849.02
398.35	1921.58
398.55	1923.92
398.74	1970.73
398.93	1914.56
399.12	1933.28
399.32	1867.75
399.51	1980.09
399.70	2019.88
399.90	1872.43
400.09	2026.90
400.28	2059.67
400.47	1907.54
400.67	1982.43
400.86	2087.76
401.05	2022.22
401.24	1898.17
401.44	2118.18
401.63	2127.55
401.82	2190.74
402.01	2094.78
402.21	2141.59
402.40	2249.25
402.59	2195.42
402.78	2104.14
402.97	2195.42
403.17	2270.32
403.36	2242.23
403.55	2223.51
403.74	2333.51
403.93	2335.85
404.13	2429.48
404.32	2319.47
404.51	2410.75
404.70	2349.90
404.89	2305.43
405.09	2485.65
405.28	2448.20
405.47	2438.84
405.66	2630.76
405.85	2539.48
406.05	2462.24
406.24	2462.24
406.43	2569.91
406.62	2642.46
406.81	2731.41
407.00	2605.02
407.20	2544.16
407.39	2658.85
407.58	2818.00
407.77	2715.02
407.96	2668.21
408.15	2820.35
408.34	2597.99
408.54	2717.36
408.73	2768.85
408.92	2874.18
409.11	2857.79
409.30	2881.20
409.49	2848.43
409.68	2864.82
409.87	2857.79
410.07	2972.48
410.26	3059.08
410.45	2942.05
410.64	3047.38
410.83	3091.85
411.02	3164.40
411.21	3197.17
411.40	3152.70
411.59	3255.69
411.78	3243.98
411.98	3155.04
412.17	3243.98
412.36	3255.69
412.55	3330.58
412.74	3433.57
412.93	3318.88
413.12	3424.20
413.31	3534.21
413.50	3466.33
413.69	3456.97
413.88	3599.74
414.07	3396.12
414.26	3674.64
414.45	3700.39
414.64	3639.53
414.83	3695.71
415.02	3719.11
415.22	3906.35
415.41	3801.03
415.60	3906.35
415.79	3822.09
415.98	3861.88
416.17	3915.72
416.36	3885.29
416.55	4004.66
416.74	3971.89
416.93	3950.82
417.12	4070.19
417.31	4056.15
417.50	4224.67
417.69	4222.33
417.88	4280.84
418.07	4229.35
418.26	4472.76
418.45	4273.82
418.64	4472.76
418.83	4432.97
419.02	4290.20
419.21	4418.93
419.39	4559.36
419.58	4610.86
419.77	4365.10
419.96	4428.29
420.15	4582.77
420.34	4606.17
420.53	4695.11
420.72	4596.81
420.91	4671.71
421.10	4657.67
421.29	4727.88
421.48	4657.67
421.67	4716.18
421.86	4629.58
422.05	4692.77
422.24	4835.55
422.43	4781.71
422.61	4826.18
422.80	4961.94
422.99	4812.14
423.18	4964.28
423.37	4950.23
423.56	4957.25
423.75	4805.12
423.94	4798.10
424.13	4475.10
424.32	4777.03
424.50	5060.24
424.69	4947.89
424.88	5093.01
425.07	4849.59
425.26	4912.78
425.45	4980.66
425.64	4933.85
425.83	4777.03
426.01	5118.75
426.20	5074.28
426.39	4924.49
426.58	5060.24
426.77	5029.81
426.96	5085.98
427.15	5085.98
427.33	5294.29
427.52	5130.45
427.71	5380.89
427.90	5095.35
428.09	5289.61
428.28	5109.39
428.46	5254.50
428.65	5277.91
428.84	5476.85
429.03	5441.75
429.22	5224.08
429.40	5289.61
429.59	5416.00
429.78	5252.16
429.97	5364.51
430.16	5502.60
430.34	5593.88
430.53	5570.48
430.72	5757.72
430.91	5612.60
431.10	5621.97
431.28	5638.35
431.47	5708.57
431.66	5769.42
431.85	5851.34
432.03	5930.92
432.22	6085.39
432.41	5879.43
432.60	5837.30
432.79	5996.45
432.97	5893.47
433.16	6043.26
433.35	5973.05
433.54	5977.73
433.72	6118.16
433.91	6005.81
434.10	6282.00
434.28	6179.01
434.47	6061.99
434.66	6160.29
434.85	6251.57
435.03	6427.11
435.22	6422.43
435.41	6497.33
435.59	6242.21
435.78	6401.37
435.97	6574.56
436.16	6476.26
436.34	6392.00
436.53	6349.87
436.72	6600.31
436.90	6487.96
437.09	6455.20
437.28	6562.86
437.46	6497.33
437.65	6551.16
437.84	6691.59
438.02	6855.43
438.21	6612.01
438.40	6539.46
438.58	6899.90
438.77	7035.65
438.96	6909.26
439.14	7005.22
439.33	7190.13
439.52	7098.84
439.70	7323.54
439.89	7344.60
440.08	7372.69
440.26	7339.92
440.45	7328.22
440.63	7382.05
440.82	7742.49
441.01	7400.77
441.19	7691.00
441.38	7634.83
441.57	7496.74
441.75	7803.35
441.94	7801.01
442.12	7969.52
442.31	7925.05
442.50	7882.92
442.68	8018.68
442.87	7985.91
443.05	8093.57
443.24	8180.17
443.43	8205.92
443.61	8241.03
443.80	8468.06
443.98	7936.76
444.17	7761.22
444.35	8339.33
444.54	8376.78
444.73	8236.35
444.91	8039.74
445.10	8432.95
445.28	8372.10
445.47	8194.22
445.65	8128.68
445.84	8315.92
446.02	8493.80
446.21	8353.37
446.39	8322.94
446.58	8578.06
446.77	8255.07
446.95	8128.68
447.14	8372.10
447.32	8652.96
447.51	8308.90
447.69	8217.62
447.88	8449.33
448.06	8540.61
448.25	8304.22
448.43	8613.17
448.62	8641.26
448.80	8582.74
448.99	8545.30
449.17	8662.32
449.36	8615.51
449.54	8891.70
449.73	8821.48
449.91	8879.99
450.10	9121.07
450.28	9004.04
450.46	9177.24
450.65	8978.30
450.83	8868.29
451.02	8819.14
451.20	9071.92
451.39	8936.17
451.57	9137.45
451.76	9036.81
451.94	9074.26
452.13	9085.96
452.31	9170.22
452.49	9085.96
452.68	9535.34
452.86	9135.11
453.05	9589.17
453.23	9528.32
453.42	9432.36
453.60	9317.67
453.78	9544.70
453.97	9336.40
454.15	9425.34
454.34	9514.28
454.52	9535.34
454.70	9694.50
454.89	9586.83
455.07	9729.61
455.26	9813.87
455.44	9804.50
455.62	9970.68
455.81	9860.68
455.99	9949.62
456.17	9989.41
456.36	9947.28
456.54	10146.22
456.73	10326.44
456.91	10396.66
457.09	10176.65
457.28	10328.78
457.46	10146.22
457.64	10417.72
457.83	10497.30
458.01	10438.79
458.19	10525.39
458.38	10265.59
458.56	10572.20
458.74	10759.44
458.93	10700.93
459.11	10663.48
459.29	10668.16
459.48	10757.10
459.66	10902.22
459.84	10916.26
460.03	10920.94
460.21	11103.50
460.39	10953.71
460.57	11033.29
460.76	11089.46
460.94	11061.37
461.12	11314.15
461.31	10923.28
461.49	11059.03
461.67	10951.37
461.85	11314.15
462.04	11386.71
462.22	11747.15
462.40	11513.10
462.59	11456.92
462.77	11302.45
462.95	11700.34
463.13	11508.41
463.32	11798.64
463.50	11613.74
463.68	11761.19
463.86	11859.49
464.05	11499.05
464.23	11749.49
464.41	11871.20
464.59	11613.74
464.78	12173.13
464.96	11985.88
465.14	11906.31
465.32	11808.00
465.50	12182.49
465.69	12128.66
465.87	11864.18
466.05	11864.18
466.23	11960.14
466.41	12191.85
466.60	12421.22
466.78	12226.96
466.96	12168.45
467.14	12315.90
467.32	12393.14
467.51	12470.37
467.69	11978.86
467.87	12297.17
468.05	12699.75
468.23	12348.67
468.41	12369.73
468.60	12627.19
468.78	12688.04
468.96	12599.10
469.14	12856.56
469.32	12760.60
469.50	12634.21
469.69	13022.74
469.87	13025.08
470.05	13139.77
470.23	12989.97
470.41	13114.02
470.59	13209.98
470.77	13191.26
470.95	13350.42
471.14	13301.26
471.32	13025.08
471.50	13488.51
471.68	13425.31
471.86	13483.83
472.04	13680.43
472.22	14045.55
472.40	13584.47
472.58	13820.86
472.77	14017.47
472.95	13935.55
473.13	14464.51
473.31	14132.15
473.49	14293.65
473.67	13977.68
473.85	14075.98
474.03	14389.61
474.21	14459.83
474.39	14602.60
474.57	14588.56
474.75	14644.73
474.93	14733.67
475.12	14979.43
475.30	14972.41
475.48	15044.96
475.66	14927.94
475.84	14972.41
476.02	15325.83
476.20	15424.13
476.38	15489.67
476.56	15765.85
476.74	15845.43
476.92	15744.78
477.10	15609.03
477.28	16123.95
477.46	15971.82
477.64	16166.08
477.82	16613.12
478.00	16985.27
478.18	16608.44
478.36	16830.79
478.54	17034.42
478.72	17055.48
478.90	17240.39
479.08	17521.25
479.26	17806.80
479.44	17387.84
479.62	17523.59
479.80	17769.35
479.98	17987.02
480.16	18867.06
480.34	18223.41
480.52	18597.90
480.70	18410.65
480.88	18321.71
481.06	18562.79
481.24	18499.59
481.41	18633.00
481.59	19534.11
481.77	18939.62
481.95	19255.59
482.13	19730.72
482.31	19658.16
482.49	20219.89
482.67	20229.25
482.85	20170.74
483.03	20493.73
483.21	20580.33
483.39	20924.39
483.57	20592.03
483.74	21371.43
483.92	21074.18
484.10	21247.38
484.28	21614.85
484.46	21806.77
484.64	22209.34
484.82	21717.83
485.00	22174.24
485.18	22604.89
485.35	22981.72
485.53	22728.94
485.71	23138.54
485.89	23559.83
486.07	23304.71
486.25	23234.50
486.43	23477.91
486.61	23786.86
486.78	24105.18
486.96	23711.97
487.14	24458.60
487.32	24201.14
487.50	24662.22
487.68	24519.45
487.85	25050.75
488.03	25074.16
488.21	25462.69
488.39	25539.93
488.57	25979.95
488.75	25881.64
488.92	26211.66
489.10	26403.58
489.28	26438.69
489.46	26967.65
489.64	26651.68
489.81	27325.75
489.99	27597.26
490.17	27686.20
490.35	28285.37
490.53	28128.56
490.70	28577.94
490.88	28133.24
491.06	28690.29
491.24	28594.32
491.41	28842.42
491.59	29118.60
491.77	29275.42
491.95	29221.59
492.13	29722.46
492.30	29699.06
492.48	29373.72
492.66	29947.15
492.84	30321.64
493.01	30422.28
493.19	30501.86
493.37	30862.30
493.54	31253.17
493.72	31751.71
493.90	31173.60
494.08	31637.02
494.25	32095.77
494.43	31945.97
494.61	31899.16
494.79	32229.18
494.96	32528.77
495.14	32470.25
495.32	32755.80
495.49	33177.09
495.67	32793.25
495.85	33034.32
496.02	33450.94
496.20	33621.80
496.38	33614.77
496.55	34155.44
496.73	34829.51
496.91	34480.77
497.09	34836.53
497.26	34986.33
497.44	34532.26
497.62	34822.49
497.79	35615.93
497.97	34930.16
498.14	35611.25
498.32	35702.53
498.50	35849.99
498.67	36432.78
498.85	36268.94
499.03	36243.20
499.20	36418.74
499.38	36343.84
499.56	36655.13
499.73	36964.08
499.91	37123.24
500.08	37333.89
500.26	36964.08
500.44	37041.32
500.61	37801.99
500.79	37591.34
500.97	37799.65
501.14	38522.88
501.32	38487.77
501.49	38321.59
501.67	38412.87
501.84	38916.09
502.02	38642.24
502.20	39241.42
502.37	38768.63
502.55	39091.63
502.72	39690.80
502.90	39449.73
503.07	39353.77
503.25	39210.99
503.43	39248.44
503.60	39541.01
503.78	39920.18
503.95	40034.86
504.13	40196.36
504.30	40355.52
504.48	40322.75
504.65	40856.39
504.83	40755.75
505.01	40973.42
505.18	40734.68
505.36	41516.42
505.53	40973.42
505.71	41340.88
505.88	41404.08
506.06	41270.67
506.23	41265.99
506.41	41584.30
506.58	41907.29
506.76	42171.77
506.93	42113.26
507.11	42354.33
507.28	41841.76
507.46	42742.86
507.63	42677.33
507.81	42637.54
507.98	42658.60
508.16	42754.57
508.33	42855.21
508.50	43054.15
508.68	43428.64
508.85	43693.12
509.03	43739.93
509.20	43730.57
509.38	43730.57
509.55	44467.84
509.73	44149.53
509.90	44851.69
510.08	44313.36
510.25	44741.68
510.42	44481.88
510.60	44582.52
510.77	44982.76
510.95	45394.69
511.12	44582.52
511.30	44949.99
511.47	45226.17
511.64	45392.35
511.82	45497.67
511.99	45617.04
512.17	45546.82
512.34	45677.90
512.51	46213.88
512.69	46195.15
512.86	45968.12
513.04	46487.72
513.21	46408.14
513.38	46419.84
513.56	46969.87
513.73	46660.92
513.90	47096.26
514.08	46391.76
514.25	47070.51
514.43	47068.17
514.60	47276.48
514.77	47206.26
514.95	47320.95
515.12	47353.72
515.29	47618.20
515.47	48058.22
515.64	47419.25
515.81	48009.07
515.99	48193.97
516.16	48311.00
516.33	48133.12
516.51	48619.95
516.68	47903.74
516.85	48245.46
517.03	48456.11
517.20	48580.16
517.37	48334.40
517.54	48732.29
517.72	48933.58
517.89	48807.19
518.06	48744.00
518.24	49167.63
518.41	49235.51
518.58	49125.50
518.75	48959.33
518.93	49223.81
519.10	49015.50
519.27	49537.44
519.45	49303.38
519.62	49474.24
519.79	49610.00
519.96	50096.83
520.14	49947.03
520.31	50057.04
520.48	49804.26
520.65	49720.00
520.83	50560.25
521.00	50380.03
521.17	50347.26
521.34	50461.95
521.52	50534.51
521.69	50586.00
521.86	50564.93
522.03	51011.98
522.20	50934.74
522.38	51412.21
522.55	51182.84
522.72	50939.42
522.89	50981.55
523.07	51435.61
523.24	51554.98
523.41	51480.08
523.58	51208.58
523.75	51538.60
523.92	51611.15
524.10	51662.64
524.27	51863.93
524.44	52048.83
524.61	51594.77
524.78	52107.35
524.96	52299.27
525.13	51622.86
525.30	52081.60
525.47	52704.18
525.64	52643.33
525.81	52343.74
525.98	52767.38
526.16	52294.59
526.33	52624.60
526.50	53139.52
526.67	52636.31
526.84	52875.04
527.01	52676.10
527.18	52580.13
527.36	52671.42
527.53	52746.31
527.70	53207.40
527.87	53261.23
528.04	52748.65
528.21	53139.52
528.38	53151.23
528.55	53263.57
528.72	53392.30
528.89	53244.85
529.07	53602.95
529.24	52992.07
529.41	53429.75
529.58	53532.73
529.75	53315.06
529.92	53694.23
530.09	53815.94
530.26	53834.66
530.43	53925.94
530.60	53577.20
530.77	53829.98
530.94	54014.88
531.11	53712.95
531.28	53968.07
531.46	54087.44
531.63	54005.52
531.80	54113.19
531.97	54246.60
532.14	54370.64
532.31	54131.91
532.48	54693.64
532.65	54211.49
532.82	54337.88
532.99	54740.45
533.16	54204.47
533.33	54747.47
533.50	54787.26
533.67	54614.06
533.84	54513.42
534.01	54759.17
534.18	54749.81
534.35	54981.52
534.52	54658.53
534.69	54801.30
534.86	55025.99
535.03	54911.31
535.20	54948.76
535.37	55143.02
535.54	55271.75
535.71	55000.25
535.88	55503.46
536.05	55449.63
536.22	55442.61
536.38	55526.87
536.55	55281.11
536.72	55569.00
536.89	55384.10
537.06	55358.35
537.23	55749.22
537.40	55569.00
537.57	55480.06
537.74	55786.67
537.91	55760.92
538.08	55580.70
538.25	55704.75
538.42	55903.70
538.59	56067.53
538.75	55739.86
538.92	55962.21
539.09	55838.16
539.26	56034.77
539.43	55793.69
539.60	56341.38
539.77	56067.53
539.94	56250.09
540.11	56222.01
540.28	56320.31
540.44	56210.31
540.61	56198.60
540.78	56310.95
540.95	56264.14
541.12	56147.11
541.29	56109.66
541.46	56554.36
541.62	56273.50
541.79	56385.85
541.96	56142.43
542.13	56495.85
542.30	56329.67
542.47	56554.36
542.63	56683.09
542.80	56535.64
542.97	56875.02
543.14	57118.43
543.31	57008.43
543.48	56914.81
543.64	57317.38
543.81	57305.68
543.98	57172.27
544.15	57188.65
544.32	57340.78
544.48	57446.11
544.65	57277.59
544.82	57144.18
544.99	57169.93
545.16	57111.41
545.32	57329.08
545.49	57677.82
545.66	57666.12
545.83	57420.36
546.00	57504.62
546.16	57429.72
546.33	57382.91
546.50	57343.12
546.67	57656.76
546.83	57326.74
547.00	57584.20
547.17	57766.76
547.34	57752.72
547.50	57640.37
547.67	57848.68
547.84	57790.17
548.00	57691.86
548.17	58087.42
548.34	57937.62
548.51	58068.69
548.67	58129.54
548.84	57846.34
549.01	57808.89
549.18	57925.92
549.34	58267.64
549.51	57996.13
549.68	58143.59
549.84	58042.95
550.01	58248.91
550.18	58199.76
550.34	58305.09
550.51	58302.74
550.68	58323.81
550.84	58071.03
551.01	58459.56
551.18	58389.34
551.34	58473.60
551.51	58564.88
551.68	58459.56
551.84	58286.36
552.01	58464.24
552.18	58504.03
552.34	58260.62
552.51	58550.84
552.68	58567.23
552.84	58599.99
553.01	58997.88
553.18	58691.27
553.34	58817.66
553.51	58494.67
553.67	58702.98
553.84	58918.31
554.01	58890.22
554.17	58969.80
554.34	58922.99
554.51	58918.31
554.67	58962.78
554.84	58777.87
555.00	58824.68
555.17	58941.71
555.33	58585.95
555.50	58747.45
555.67	58768.51
555.83	59028.31
556.00	58960.44
556.16	59255.34
556.33	59082.14
556.50	59030.65
556.66	59365.35
556.83	58908.94
556.99	59374.71
557.16	59250.66
557.32	59377.05
557.49	59477.69
557.65	59025.97
557.82	59297.47
557.98	59164.06
558.15	59332.58
558.32	59636.85
558.48	59157.04
558.65	59377.05
558.81	59440.24
558.98	59302.15
559.14	59739.83
559.31	59491.74
559.47	59454.29
559.64	59632.17
559.80	59559.61
559.97	59728.13
560.13	59657.91
560.30	59540.89
560.46	59700.04
560.63	59861.54
560.79	59571.32
560.96	59784.30
561.12	59655.57
561.29	59503.44
561.45	59714.09
561.61	59676.64
561.78	59732.81
561.94	59662.60
562.11	59758.56
562.27	59664.94
562.44	59934.10
562.60	59868.56
562.77	59889.63
562.93	59784.30
563.10	59976.23
563.26	59765.58
563.42	60114.32
563.59	59906.01
563.75	59758.56
563.92	60048.78
564.08	59868.56
564.24	60030.06
564.41	60058.15
564.57	60100.28
564.74	60275.82
564.90	59831.11
565.07	60072.19
565.23	60006.65
565.39	59786.64
565.56	60016.02
565.72	59978.57
565.88	60023.04
566.05	59882.61
566.21	60065.17
566.38	60069.85
566.54	59973.89
566.70	60299.22
566.87	60177.51
567.03	59898.99
567.19	60549.66
567.36	60214.96
567.52	60189.22
567.68	60456.04
567.85	60282.84
568.01	60282.84
568.17	60198.58
568.34	60320.29
568.50	60058.15
568.66	60259.43
568.83	60219.64
568.99	60224.32
569.15	60362.42
569.32	60186.88
569.48	60275.82
569.64	60317.95
569.81	60205.60
569.97	60310.92
570.13	60247.73
570.30	60151.77
570.46	60294.54
570.62	60470.08
570.78	60383.48
570.95	60280.50
571.11	60371.78
571.27	60219.64
571.43	60336.67
571.60	60409.23
571.76	60402.21
571.92	60535.62
572.09	60437.31
572.25	60294.54
572.41	60301.56
572.57	60486.46
572.74	60755.63
572.90	60472.42
573.06	60519.23
573.22	60369.44
573.38	60446.68
573.55	60498.17
573.71	60633.92
573.87	60568.38
574.03	60266.45
574.20	60587.11
574.36	60540.30
574.52	60514.55
574.68	60573.06
574.84	60823.50
575.01	60736.90
575.17	60306.24
575.33	60552.00
575.49	60481.78
575.65	60608.17
575.82	60977.98
575.98	60748.60
576.14	60769.67
576.30	60779.03
576.46	60549.66
576.62	60591.79
576.79	60502.85
576.95	60540.30
577.11	60795.42
577.27	60692.43
577.43	60858.61
577.59	60563.70
577.75	60622.22
577.92	60509.87
578.08	60650.30
578.24	60750.94
578.40	61146.50
578.56	60898.40
578.72	60615.19
578.88	61006.06
579.04	60851.59
579.21	60640.94
579.37	60830.52
579.53	60884.36
579.69	60486.46
579.85	60772.01
580.01	60537.96
580.17	60736.90
580.33	60722.86
580.49	60889.04
580.65	60942.87
580.82	60797.76
580.98	60563.70
581.14	60591.79
581.30	60917.12
581.46	60945.21
581.62	60882.02
581.78	60865.63
581.94	60685.41
582.10	60601.15
582.26	60727.54
582.42	60772.01
582.58	60797.76
582.74	60783.71
582.90	60860.95
583.06	60823.50
583.22	60472.42
583.38	60687.75
583.54	60797.76
583.70	60743.92
583.86	60931.17
584.02	60828.18
584.18	60781.37
584.34	60804.78
584.50	60783.71
584.66	60664.35
584.82	60774.35
584.98	61076.28
585.14	60860.95
585.30	60835.20
585.46	60924.14
585.62	60947.55
585.78	60942.87
585.94	60764.99
586.10	60954.57
586.26	60952.23
586.42	60952.23
586.58	61064.58
586.74	60711.16
586.90	60935.85
587.06	60947.55
587.22	60706.47
587.38	61085.64
587.54	60963.93
587.70	61036.49
587.86	61020.11
588.02	60874.99
588.18	61045.85
588.34	60884.36
588.49	60898.40
