SpectraSuite Data File
++++++++++++++++++++++++++++++++++++
Date: Fri Oct 25 11:33:17 EDT 2013
User: price-jones
Dark Spectrum Present: No
Reference Spectrum Present: No
Number of Sampled Component Spectra: 1
Spectrometers: USB2+H05261
Integration Time (usec): 100000 (USB2+H05261)
Spectra Averaged: 1 (USB2+H05261)
Boxcar Smoothing: 0 (USB2+H05261)
Correct for Electrical Dark: No (USB2+H05261)
Strobe/Lamp Enabled: No (USB2+H05261)
Correct for Detector Non-linearity: No (USB2+H05261)
Correct for Stray Light: No (USB2+H05261)
Number of Pixels in Processed Spectrum: 2048
>>>>>Begin Processed Spectral Data<<<<<
365.73	278.52
365.92	278.52
366.12	278.52
366.32	227.03
366.52	205.97
366.72	189.58
366.91	196.60
367.11	166.18
367.31	210.65
367.51	154.48
367.70	170.86
367.90	191.92
368.10	145.11
368.30	128.73
368.49	168.52
368.69	168.52
368.89	248.10
369.09	198.95
369.28	198.95
369.48	170.86
369.68	210.65
369.87	236.39
370.07	271.50
370.27	224.69
370.47	287.89
370.66	479.81
370.86	493.85
371.06	479.81
371.25	571.09
371.45	545.34
371.65	503.22
371.84	550.03
372.04	543.00
372.24	524.28
372.44	550.03
372.63	608.54
372.83	566.41
373.03	603.86
373.22	596.84
373.42	578.11
373.62	540.66
373.81	638.97
374.01	594.50
374.21	585.13
374.40	669.39
374.60	685.78
374.79	603.86
374.99	627.26
375.19	631.94
375.38	641.31
375.58	641.31
375.78	653.01
375.97	688.12
376.17	807.48
376.37	643.65
376.56	723.23
376.76	671.73
376.95	634.29
377.15	765.36
377.35	706.84
377.54	688.12
377.74	667.05
377.93	662.37
378.13	683.44
378.33	751.31
378.52	638.97
378.72	667.05
378.91	744.29
379.11	753.65
379.31	763.01
379.50	617.90
379.70	718.54
379.89	711.52
380.09	709.18
380.28	741.95
380.48	763.01
380.68	676.41
380.87	690.46
381.07	767.70
381.26	844.93
381.46	737.27
381.65	720.88
381.85	744.29
382.04	720.88
382.24	784.08
382.43	784.08
382.63	814.51
382.83	791.10
383.02	837.91
383.22	816.85
383.41	798.12
383.61	835.57
383.80	830.89
384.00	826.21
384.19	851.96
384.39	854.30
384.58	844.93
384.78	863.66
384.97	847.27
385.17	805.14
385.36	896.43
385.56	828.55
385.75	847.27
385.95	882.38
386.14	851.96
386.34	877.70
386.53	896.43
386.72	837.91
386.92	940.90
387.11	866.00
387.31	919.83
387.50	884.72
387.70	809.83
387.89	882.38
388.09	983.02
388.28	901.11
388.48	919.83
388.67	898.77
388.86	922.17
389.06	854.30
389.25	898.77
389.45	950.26
389.64	971.32
389.84	868.34
390.03	912.81
390.22	1069.62
390.42	1008.77
390.61	978.34
390.81	919.83
391.00	957.28
391.19	1034.52
391.39	997.07
391.58	1060.26
391.78	985.37
391.97	1022.81
392.16	1029.84
392.36	1036.86
392.55	1088.35
392.75	1074.31
392.94	1057.92
393.13	1060.26
393.33	1013.45
393.52	1109.41
393.71	1067.28
393.91	1076.65
394.10	1167.93
394.29	1224.10
394.49	1188.99
394.68	1240.48
394.88	1177.29
395.07	1121.12
395.26	1137.50
395.46	1158.57
395.65	1179.63
395.84	1198.35
396.04	1167.93
396.23	1062.60
396.42	1219.42
396.62	1203.04
396.81	1254.53
397.00	1217.08
397.19	1240.48
397.39	1203.04
397.58	1320.06
397.77	1203.04
397.97	1299.00
398.16	1249.85
398.35	1275.59
398.55	1327.08
398.74	1390.28
398.93	1313.04
399.12	1369.21
399.32	1409.00
399.51	1350.49
399.70	1378.58
399.90	1355.17
400.09	1380.92
400.28	1425.39
400.47	1317.72
400.67	1371.55
400.86	1366.87
401.05	1425.39
401.24	1462.83
401.44	1474.54
401.63	1425.39
401.82	1413.68
402.01	1497.94
402.21	1495.60
402.40	1502.62
402.59	1526.03
402.78	1420.71
402.97	1526.03
403.17	1526.03
403.36	1547.09
403.55	1483.90
403.74	1593.90
403.93	1584.54
404.13	1528.37
404.32	1640.72
404.51	1516.67
404.70	1647.74
404.89	1598.59
405.09	1650.08
405.28	1645.40
405.47	1708.59
405.66	1666.46
405.85	1724.97
406.05	1736.68
406.24	1724.97
406.43	1715.61
406.62	1727.32
406.81	1760.08
407.00	1783.49
407.20	1827.96
407.39	1823.28
407.58	1809.23
407.77	1886.47
407.96	1959.03
408.15	1984.77
408.34	1987.11
408.54	1926.26
408.73	1898.17
408.92	1895.83
409.11	1909.88
409.30	1961.37
409.49	2087.76
409.68	2022.22
409.87	2052.65
410.07	2062.01
410.26	2047.97
410.45	1984.77
410.64	2188.40
410.83	2188.40
411.02	2113.50
411.21	2221.17
411.40	2230.53
411.59	2263.30
411.78	2209.47
411.98	2087.76
412.17	2162.66
412.36	2331.17
412.55	2317.13
412.74	2331.17
412.93	2305.43
413.12	2321.81
413.31	2441.18
413.50	2466.92
413.69	2377.98
413.88	2516.08
414.07	2495.01
414.26	2565.23
414.45	2450.54
414.64	2588.63
414.83	2567.57
415.02	2553.52
415.22	2544.16
415.41	2782.90
415.60	2787.58
415.79	2644.81
415.98	2724.38
416.17	2780.56
416.36	2640.12
416.55	2794.60
416.74	2883.54
416.93	2813.32
417.12	2843.75
417.31	2949.08
417.50	2869.50
417.69	2939.71
417.88	2935.03
418.07	2967.80
418.26	3075.46
418.45	2906.95
418.64	3162.06
418.83	3063.76
419.02	2965.46
419.21	3110.57
419.39	3094.19
419.58	3112.91
419.77	3030.99
419.96	3115.25
420.15	3098.87
420.34	3159.72
420.53	3215.90
420.72	3281.43
420.91	3105.89
421.10	3318.88
421.29	3330.58
421.48	3339.94
421.67	3232.28
421.86	3342.28
422.05	3311.86
422.24	3435.91
422.43	3382.07
422.61	3438.25
422.80	3508.46
422.99	3361.01
423.18	3613.79
423.37	3520.17
423.56	3501.44
423.75	3375.05
423.94	3375.05
424.13	3171.43
424.32	3463.99
424.50	3449.95
424.69	3618.47
424.88	3524.85
425.07	3414.84
425.26	3419.52
425.45	3433.57
425.64	3524.85
425.83	3372.71
426.01	3489.74
426.20	3569.32
426.39	3471.01
426.58	3421.86
426.77	3424.20
426.96	3517.83
427.15	3524.85
427.33	3590.38
427.52	3562.30
427.71	3648.90
427.90	3714.43
428.09	3803.37
428.28	3719.11
428.46	3836.14
428.65	3751.88
428.84	3847.84
429.03	3824.44
429.22	3761.24
429.40	3808.05
429.59	3777.62
429.78	3700.39
429.97	3648.90
430.16	3709.75
430.34	3918.06
430.53	3894.65
430.72	4018.70
430.91	3859.54
431.10	3829.12
431.28	4037.42
431.47	4056.15
431.66	4091.26
431.85	4011.68
432.03	4014.02
432.22	4107.64
432.41	4152.11
432.60	4128.70
432.79	4107.64
432.97	4283.18
433.16	3943.80
433.35	4044.45
433.54	4102.96
433.72	4175.52
433.91	4264.46
434.10	4243.39
434.28	4383.82
434.47	4175.52
434.66	4367.44
434.85	4290.20
435.03	4390.84
435.22	4294.88
435.41	4435.32
435.59	4374.46
435.78	4472.76
435.97	4409.57
436.16	4397.87
436.34	4479.79
436.53	4489.15
436.72	4535.96
436.90	4400.21
437.09	4533.62
437.28	4498.51
437.46	4538.30
437.65	4664.69
437.84	4465.74
438.02	4765.33
438.21	4758.31
438.40	4667.03
438.58	4777.03
438.77	4802.78
438.96	4774.69
439.14	4793.42
439.33	4968.96
439.52	5074.28
439.70	4912.78
439.89	5008.75
440.08	4990.02
440.26	5055.56
440.45	5069.60
440.63	4964.28
440.82	5249.82
441.01	5083.64
441.19	5345.78
441.38	5247.48
441.57	5336.42
441.75	5322.38
441.94	5406.64
442.12	5586.86
442.31	5364.51
442.50	5427.70
442.68	5490.90
442.87	5500.26
443.05	5488.56
443.24	5675.80
443.43	5579.84
443.61	5685.16
443.80	5767.08
443.98	5565.79
444.17	5390.25
444.35	5509.62
444.54	5692.18
444.73	5710.91
444.91	5556.43
445.10	5788.14
445.28	5776.44
445.47	5640.69
445.65	5678.14
445.84	5713.25
446.02	5685.16
446.21	5741.33
446.39	5687.50
446.58	5764.74
446.77	5834.96
446.95	5813.89
447.14	5724.95
447.32	5951.98
447.51	5769.42
447.69	5685.16
447.88	5774.10
448.06	6001.13
448.25	5764.74
448.43	5907.51
448.62	5884.11
448.80	5823.25
448.99	5944.96
449.17	6012.84
449.36	5949.64
449.54	5975.39
449.73	6054.97
449.91	5984.75
450.10	6169.65
450.28	6202.42
450.46	6422.43
450.65	6223.48
450.83	6253.91
451.02	6061.99
451.20	6249.23
451.39	6300.72
451.57	6164.97
451.76	6225.82
451.94	6193.06
452.13	6228.17
452.31	6410.73
452.49	6345.19
452.68	6476.26
452.86	6434.13
453.05	6518.39
453.23	6518.39
453.42	6445.84
453.60	6450.52
453.78	6373.28
453.97	6616.69
454.15	6406.05
454.34	6392.00
454.52	6656.48
454.70	6502.01
454.89	6658.82
455.07	6696.27
455.26	6619.04
455.44	6775.85
455.62	6759.47
455.81	6848.41
455.99	6883.52
456.17	6972.46
456.36	6867.13
456.54	7070.76
456.73	6860.11
456.91	6984.16
457.09	7009.90
457.28	7077.78
457.46	6995.86
457.64	7185.44
457.83	7148.00
458.01	7042.67
458.19	7234.60
458.38	7115.23
458.56	7260.34
458.74	7197.15
458.93	7220.55
459.11	7133.95
459.29	7192.47
459.48	7300.13
459.66	7265.02
459.84	7335.24
460.03	7475.67
460.21	7407.80
460.39	7342.26
460.57	7480.35
460.76	7637.17
460.94	7384.39
461.12	7501.42
461.31	7637.17
461.49	7627.81
461.67	7524.82
461.85	7730.79
462.04	7889.95
462.22	8025.70
462.40	7808.03
462.59	7779.94
462.77	7648.87
462.95	7744.83
463.13	7859.52
463.32	7779.94
463.50	7845.48
463.68	7868.88
463.86	8128.68
464.05	7798.66
464.23	8023.36
464.41	8163.79
464.59	7934.42
464.78	7953.14
464.96	8006.97
465.14	8166.13
465.32	8100.59
465.50	8280.82
465.69	8187.19
465.87	8262.09
466.05	8224.64
466.23	8196.56
466.41	8266.77
466.60	8353.37
466.78	8191.88
466.96	8177.83
467.14	8142.72
467.32	8482.10
467.51	8432.95
467.69	8042.08
467.87	8355.71
468.05	8409.54
468.23	8285.50
468.41	8477.42
468.60	8306.56
468.78	8631.90
468.96	8667.00
469.14	8779.35
469.32	8784.03
469.50	8496.14
469.69	8936.17
469.87	8580.40
470.05	8697.43
470.23	8872.97
470.41	8912.76
470.59	8835.52
470.77	8999.36
470.95	9027.45
471.14	9074.26
471.32	8774.67
471.50	9078.94
471.68	9156.18
471.86	9334.06
472.04	9261.50
472.22	9462.79
472.40	9231.07
472.58	9261.50
472.77	9666.41
472.95	9476.83
473.13	9851.31
473.31	9352.78
473.49	9568.11
473.67	9507.26
473.85	9490.87
474.03	9631.30
474.21	9664.07
474.39	9982.38
474.57	9837.27
474.75	10104.09
474.93	10024.51
475.12	9982.38
475.30	10267.93
475.48	10148.56
475.66	10078.35
475.84	10230.48
476.02	10155.58
476.20	10548.79
476.38	10270.27
476.56	10616.67
476.74	10647.10
476.92	10490.28
477.10	10937.32
477.28	10780.51
477.46	10827.32
477.64	10984.13
477.82	11075.42
478.00	11328.19
478.18	11384.37
478.36	11529.48
478.54	11496.71
478.72	11686.29
478.90	11515.44
479.08	11620.76
479.26	11768.21
479.44	11838.43
479.62	11630.12
479.80	12121.63
479.98	11992.90
480.16	12304.20
480.34	12439.95
480.52	12374.41
480.70	12425.90
480.88	12301.86
481.06	12601.44
481.24	12226.96
481.41	12533.57
481.59	12872.95
481.77	13109.34
481.95	13011.04
482.13	13160.83
482.31	13413.61
482.49	13334.03
482.67	13406.59
482.85	13451.06
483.03	13757.67
483.21	14008.11
483.39	13989.38
483.57	13811.50
483.74	14005.77
483.92	14183.65
484.10	14408.34
484.28	14389.61
484.46	14534.73
484.64	14787.50
484.82	14626.01
485.00	14972.41
485.18	15016.88
485.35	15428.81
485.53	15255.61
485.71	15311.78
485.89	15583.29
486.07	15204.12
486.25	15751.81
486.43	15822.02
486.61	15917.98
486.78	16016.29
486.96	15925.00
487.14	16294.81
487.32	16004.58
487.50	16219.91
487.68	16622.48
487.85	16844.84
488.03	16908.03
488.21	17125.70
488.39	17167.83
488.57	17186.55
488.75	17315.28
488.92	17624.23
489.10	17762.33
489.28	17685.09
489.46	18001.06
489.64	17640.62
489.81	17980.00
489.99	18015.10
490.17	18450.44
490.35	18733.65
490.53	18897.49
490.70	18988.77
490.88	18740.67
491.06	19131.54
491.24	19122.18
491.41	19248.57
491.59	19475.60
491.77	19431.13
491.95	19445.17
492.13	19580.92
492.30	19894.55
492.48	20046.69
492.66	20025.62
492.84	19960.09
493.01	20313.51
493.19	20264.36
493.37	20519.48
493.54	20503.09
493.72	20975.88
493.90	20929.07
494.08	20936.09
494.25	21111.63
494.43	21135.04
494.61	21755.28
494.79	21546.97
494.96	21310.58
495.14	21509.52
495.32	21769.32
495.49	22078.27
495.67	22005.72
495.85	22462.12
496.02	22499.57
496.20	22403.61
496.38	22410.63
496.55	22366.16
496.73	23197.05
496.91	22883.42
497.09	22923.21
497.26	23229.82
497.44	22806.18
497.62	23222.80
497.79	23761.12
497.97	23585.58
498.14	23728.35
498.32	24175.39
498.50	23943.68
498.67	23880.49
498.85	23812.61
499.03	24166.03
499.20	24465.62
499.38	24496.05
499.56	24748.82
499.73	24636.48
499.91	25017.99
500.08	25015.65
500.26	24627.12
500.44	24924.36
500.61	25039.05
500.79	25245.02
500.97	25216.93
501.14	25769.30
501.32	25788.02
501.49	25617.16
501.67	25610.14
501.84	25963.56
502.02	25968.24
502.20	25848.88
502.37	25912.07
502.55	25748.23
502.72	26082.93
502.90	26132.08
503.07	25886.32
503.25	26445.71
503.43	26391.88
503.60	26642.32
503.78	26513.59
503.95	26588.49
504.13	27044.89
504.30	27267.24
504.48	26906.80
504.65	27028.51
504.83	27344.48
505.01	27527.04
505.18	27288.31
505.36	27625.34
505.53	27468.53
505.71	27475.55
505.88	28006.85
506.06	27779.82
506.23	27594.92
506.41	27871.10
506.58	27871.10
506.76	27988.13
506.93	28505.38
507.11	28084.09
507.28	28694.97
507.46	28409.42
507.63	28587.30
507.81	28926.68
507.98	28680.92
508.16	28790.93
508.33	29001.58
508.50	29207.55
508.68	28517.09
508.85	29383.09
509.03	29366.70
509.20	29535.22
509.38	29551.60
509.55	29804.38
509.73	29511.81
509.90	29586.71
510.08	29841.83
510.25	29668.63
510.42	29830.13
510.60	30068.86
510.77	30590.80
510.95	30309.94
511.12	30188.23
511.30	29984.60
511.47	30429.30
511.64	30419.94
511.82	30843.58
511.99	30728.89
512.17	31381.90
512.34	30536.97
512.51	30897.41
512.69	31192.32
512.86	31213.38
513.04	31534.04
513.21	31386.58
513.38	31445.10
513.56	31370.20
513.73	31260.20
513.90	32046.62
514.08	31445.10
514.25	31924.91
514.43	31920.23
514.60	31625.32
514.77	31924.91
514.95	32278.33
515.12	31906.18
515.29	32030.23
515.47	32428.12
515.64	32472.59
515.81	32299.39
515.99	32830.69
516.16	32540.47
516.33	33006.23
516.51	32683.24
516.68	32837.72
516.85	32905.59
517.03	32748.78
517.20	32966.45
517.37	33097.52
517.54	32889.21
517.72	32994.53
517.89	33137.30
518.06	33544.56
518.24	33528.17
518.41	33638.18
518.58	33284.76
518.75	33474.34
518.93	33661.58
519.10	33666.27
519.27	34005.64
519.45	34040.75
519.62	33738.82
519.79	33727.12
519.96	33923.72
520.14	33869.89
520.31	34110.97
520.48	34176.50
520.65	34763.98
520.83	34899.73
521.00	34370.77
521.17	34623.54
521.34	34773.34
521.52	34986.33
521.69	34728.87
521.86	35580.82
522.03	35309.32
522.20	35065.91
522.38	35711.89
522.55	35679.13
522.72	35140.80
522.89	35658.06
523.07	35637.00
523.24	35543.38
523.41	35772.75
523.58	35618.27
523.75	35796.15
523.92	35424.01
524.10	35732.96
524.27	35983.40
524.44	35969.35
524.61	36449.16
524.78	36051.27
524.96	36638.75
525.13	36294.69
525.30	36521.72
525.47	36282.98
525.64	36641.09
525.81	36615.34
525.98	37020.25
526.16	36486.61
526.33	36566.19
526.50	37001.53
526.67	36879.82
526.84	37247.29
527.01	36769.82
527.18	37242.60
527.36	37539.85
527.53	37141.96
527.70	37703.69
527.87	37069.40
528.04	37551.56
528.21	37603.05
528.38	37462.61
528.55	37581.98
528.72	37378.36
528.89	37790.29
529.07	37347.93
529.24	37493.04
529.41	37827.74
529.58	37467.30
529.75	38148.39
529.92	38213.93
530.09	38019.66
530.26	38167.12
530.43	38092.22
530.60	38019.66
530.77	37947.11
530.94	38279.46
531.11	38094.56
531.28	38295.85
531.46	38792.04
531.63	38829.49
531.80	38525.22
531.97	38937.15
532.14	38698.42
532.31	38520.54
532.48	39196.95
532.65	38778.00
532.82	38953.54
532.99	39110.35
533.16	38974.60
533.33	39061.20
533.50	39608.89
533.67	39503.56
533.84	39147.80
534.01	39023.75
534.18	39220.36
534.35	39407.60
534.52	39494.20
534.69	39597.18
534.86	39943.58
535.03	39360.79
535.20	39735.27
535.37	39416.96
535.54	40072.31
535.71	40334.45
535.88	39756.34
536.05	39997.41
536.22	39957.63
536.38	40325.09
536.55	39901.45
536.72	40339.13
536.89	40243.17
537.06	39985.71
537.23	40107.42
537.40	40179.98
537.57	40453.82
537.74	40414.03
537.91	40451.48
538.08	40795.54
538.25	39920.18
538.42	40657.45
538.59	41074.06
538.75	40718.30
538.92	41198.11
539.09	41006.19
539.26	41214.49
539.43	41265.99
539.60	40893.84
539.77	40662.13
539.94	41038.95
540.11	41034.27
540.28	41270.67
540.44	41265.99
540.61	41418.12
540.78	41387.69
540.95	41488.34
541.12	41406.42
541.29	40903.20
541.46	41729.41
541.62	41621.75
541.79	41521.10
541.96	41125.55
542.13	41357.27
542.30	41827.71
542.47	41867.50
542.63	41886.23
542.80	41876.86
542.97	42452.64
543.14	42270.08
543.31	42607.11
543.48	42181.13
543.64	42834.14
543.81	42309.86
543.98	42714.78
544.15	42515.83
544.32	42759.25
544.48	42951.17
544.65	42876.27
544.82	42506.47
544.99	42511.15
545.16	42705.41
545.32	42192.84
545.49	43089.26
545.66	43374.81
545.83	42939.47
546.00	43117.35
546.16	42974.58
546.33	42829.46
546.50	42686.69
546.67	42890.32
546.83	42815.42
547.00	42876.27
547.17	43110.33
547.34	43232.04
547.50	43112.67
547.67	43590.14
547.84	42953.51
548.00	43438.00
548.17	43707.16
548.34	43201.61
548.51	44065.27
548.67	43711.84
548.84	43646.31
549.01	43466.09
549.18	43442.68
549.34	44023.14
549.51	43861.64
549.68	43978.67
549.84	43702.48
550.01	43927.17
550.18	43604.18
550.34	43873.34
550.51	44074.63
550.68	43950.58
550.84	43576.09
551.01	44264.21
551.18	43821.85
551.34	44076.97
551.51	44624.65
551.68	44418.69
551.84	44140.16
552.01	43840.57
552.18	44615.29
552.34	44219.74
552.51	44458.48
552.68	44128.46
552.84	44296.98
553.01	44383.58
553.18	44491.24
553.34	44776.79
553.51	44341.45
553.67	44278.25
553.84	44886.79
554.01	44626.99
554.17	44603.59
554.34	44669.12
554.51	44715.93
554.67	45277.66
554.84	44961.69
555.00	45102.12
555.17	44907.86
555.33	45368.94
555.50	44781.47
555.67	45352.56
555.83	44954.67
556.00	45507.04
556.16	45811.31
556.33	45308.09
556.50	45425.12
556.66	45404.05
556.83	45148.93
556.99	45628.74
557.16	45485.97
557.32	45570.23
557.49	45979.82
557.65	45467.25
557.82	45670.87
557.98	45439.16
558.15	45598.32
558.32	45883.86
558.48	45380.65
558.65	45911.95
558.81	45741.09
558.98	45771.52
559.14	45797.26
559.31	45137.23
559.47	45808.96
559.64	45984.51
559.80	45911.95
559.97	45635.77
560.13	45965.78
560.30	45890.88
560.46	46382.40
560.63	45893.22
560.79	45989.19
560.96	46059.40
561.12	46426.87
561.29	46546.23
561.45	46398.78
561.61	46075.79
561.78	45954.08
561.94	46129.62
562.11	45979.82
562.27	46461.97
562.44	46260.69
562.60	46169.41
562.77	45975.14
562.93	46000.89
563.10	46248.99
563.26	46354.31
563.42	46555.60
563.59	46045.36
563.75	46195.15
563.92	46328.56
564.08	45972.80
564.24	46499.42
564.41	46068.76
564.57	46417.50
564.74	46520.49
564.90	46504.10
565.07	46307.50
565.23	46377.72
565.39	46700.71
565.56	46604.75
565.72	46494.74
565.88	46721.77
566.05	46801.35
566.21	46483.04
566.38	46583.68
566.54	46567.30
566.70	46710.07
566.87	46913.70
567.03	47051.79
567.19	46728.80
567.36	46630.49
567.52	46681.98
567.68	47327.97
567.85	46873.91
568.01	46930.08
568.17	46894.97
568.34	47201.58
568.50	47147.75
568.66	47075.19
568.83	46611.77
568.99	46993.28
569.15	46787.31
569.32	47056.47
569.48	46953.49
569.64	47547.98
569.81	46784.97
569.97	47634.58
570.13	47540.96
570.30	46920.72
570.46	47248.39
570.62	46651.56
570.78	46759.22
570.95	46951.15
571.11	47192.22
571.27	46660.92
571.43	47044.77
571.60	47004.98
571.76	47047.11
571.92	47040.09
572.09	46436.23
572.25	46831.78
572.41	47051.79
572.57	47267.12
572.74	47566.71
572.90	47547.98
573.06	47634.58
573.22	47650.97
573.38	47569.05
573.55	47334.99
573.71	47473.09
573.87	47222.65
574.03	47353.72
574.20	47232.01
574.36	47594.79
574.52	47054.13
574.68	47428.62
574.84	47501.17
575.01	47838.21
575.17	47517.56
575.33	47159.45
575.49	47505.85
575.65	47601.82
575.82	47592.45
575.98	47377.12
576.14	47356.06
576.30	48067.58
576.46	47051.79
576.62	47510.53
576.79	47531.60
576.95	47393.51
577.11	47349.04
577.27	47606.50
577.43	47370.10
577.59	47173.50
577.75	47442.66
577.92	47232.01
578.08	47292.86
578.24	47831.19
578.40	47842.89
578.56	47735.23
578.72	47704.80
578.88	47494.15
579.04	47782.04
579.21	47636.92
579.37	47969.28
579.53	47386.49
579.69	47608.84
579.85	47676.71
580.01	47583.09
580.17	47653.31
580.33	47767.99
580.49	48123.75
580.65	47789.06
580.82	47639.26
580.98	47201.58
581.14	47426.28
581.30	48032.47
581.46	47508.19
581.62	47690.76
581.78	47648.63
581.94	47845.23
582.10	47503.51
582.26	47723.52
582.42	47625.22
582.58	47709.48
582.74	47742.25
582.90	47580.75
583.06	47995.03
583.22	47901.40
583.38	47817.14
583.54	47641.60
583.70	47992.68
583.86	47742.25
584.02	47650.97
584.18	48217.38
584.34	48053.54
584.50	47777.36
584.66	48102.69
584.82	47601.82
584.98	48156.52
585.14	47861.61
585.30	47807.78
585.46	48051.20
585.62	47674.37
585.78	47870.98
585.94	47023.70
586.10	47796.08
586.26	47337.33
586.42	47536.28
586.58	48322.70
586.74	47913.11
586.90	47709.48
587.06	47393.51
587.22	47969.28
587.38	47578.41
587.54	47665.01
587.70	48034.81
587.86	48090.99
588.02	47819.49
588.18	47749.27
588.34	47833.53
588.49	48203.33
588.65	47885.02
588.81	47711.82
588.97	48119.07
589.13	47924.81
589.29	47702.46
589.45	47866.30
589.61	48315.68
589.77	48282.91
589.93	47618.20
