SpectraSuite Data File
++++++++++++++++++++++++++++++++++++
Date: Fri Oct 25 11:23:26 EDT 2013
User: price-jones
Dark Spectrum Present: No
Reference Spectrum Present: No
Number of Sampled Component Spectra: 1
Spectrometers: USB2+H05261
Integration Time (usec): 100000 (USB2+H05261)
Spectra Averaged: 1 (USB2+H05261)
Boxcar Smoothing: 0 (USB2+H05261)
Correct for Electrical Dark: No (USB2+H05261)
Strobe/Lamp Enabled: No (USB2+H05261)
Correct for Detector Non-linearity: No (USB2+H05261)
Correct for Stray Light: No (USB2+H05261)
Number of Pixels in Processed Spectrum: 2048
>>>>>Begin Processed Spectral Data<<<<<
365.73	182.56
365.92	182.56
366.12	182.56
366.32	187.24
366.52	140.43
366.72	163.84
366.91	72.56
367.11	70.22
367.31	140.43
367.51	67.88
367.70	65.54
367.90	119.37
368.10	135.75
368.30	184.90
368.49	105.32
368.69	177.88
368.89	231.71
369.09	133.41
369.28	145.11
369.48	175.54
369.68	196.60
369.87	142.77
370.07	159.16
370.27	236.39
370.47	227.03
370.66	606.20
370.86	627.26
371.06	613.22
371.25	617.90
371.45	690.46
371.65	791.10
371.84	655.35
372.04	601.52
372.24	723.23
372.44	767.70
372.63	716.20
372.83	786.42
373.03	748.97
373.22	671.73
373.42	765.36
373.62	795.78
373.81	823.87
374.01	784.08
374.21	823.87
374.40	779.40
374.60	870.68
374.79	746.63
374.99	828.55
375.19	844.93
375.38	868.34
375.58	800.46
375.78	821.53
375.97	788.76
376.17	924.51
376.37	851.96
376.56	957.28
376.76	880.04
376.95	943.24
377.15	863.66
377.35	828.55
377.54	905.79
377.74	861.32
377.93	784.08
378.13	856.64
378.33	952.60
378.52	868.34
378.72	922.17
378.91	950.26
379.11	882.38
379.31	961.96
379.50	866.00
379.70	978.34
379.89	1022.81
380.09	1008.77
380.28	936.21
380.48	1018.13
380.68	985.37
380.87	926.85
381.07	1050.90
381.26	1064.94
381.46	1018.13
381.65	1135.16
381.85	1036.86
382.04	1011.11
382.24	1090.69
382.43	1069.62
382.63	1029.84
382.83	1004.09
383.02	1090.69
383.22	1018.13
383.41	1088.35
383.61	1163.25
383.80	1170.27
384.00	1149.20
384.19	1104.73
384.39	1137.50
384.58	1177.29
384.78	1205.38
384.97	1198.35
385.17	1107.07
385.36	1151.54
385.56	1022.81
385.75	1193.67
385.95	1093.03
386.14	1193.67
386.34	1167.93
386.53	1214.74
386.72	1156.22
386.92	1214.74
387.11	1270.91
387.31	1324.74
387.50	1261.55
387.70	1277.93
387.89	1261.55
388.09	1291.98
388.28	1296.66
388.48	1252.19
388.67	1275.59
388.86	1291.98
389.06	1306.02
389.25	1409.00
389.45	1409.00
389.64	1345.81
389.84	1369.21
390.03	1453.47
390.22	1390.28
390.42	1350.49
390.61	1369.21
390.81	1327.08
391.00	1373.89
391.19	1519.01
391.39	1460.49
391.58	1514.33
391.78	1486.24
391.97	1462.83
392.16	1366.87
392.36	1490.92
392.55	1600.93
392.75	1495.60
392.94	1490.92
393.13	1523.69
393.33	1563.48
393.52	1638.38
393.71	1549.43
393.91	1582.20
394.10	1500.28
394.29	1612.63
394.49	1624.33
394.68	1689.87
394.88	1680.50
395.07	1682.85
395.26	1568.16
395.46	1544.75
395.65	1696.89
395.84	1722.63
396.04	1832.64
396.23	1783.49
396.42	1760.08
396.62	1762.42
396.81	1771.79
397.00	1732.00
397.19	1776.47
397.39	1771.79
397.58	1825.62
397.77	1804.55
397.97	1937.96
398.16	1921.58
398.35	1877.11
398.55	1832.64
398.74	1935.62
398.93	1930.94
399.12	1947.33
399.32	1891.15
399.51	2010.52
399.70	1935.62
399.90	1966.05
400.09	1963.71
400.28	1966.05
400.47	1982.43
400.67	2015.20
400.86	2111.16
401.05	2115.84
401.24	2169.68
401.44	2101.80
401.63	2085.42
401.82	2071.37
402.01	2057.33
402.21	2157.97
402.40	2260.96
402.59	2209.47
402.78	2251.60
402.97	2286.70
403.17	2237.55
403.36	2246.91
403.55	2193.08
403.74	2345.22
403.93	2403.73
404.13	2452.88
404.32	2277.34
404.51	2466.92
404.70	2394.37
404.89	2335.85
405.09	2525.44
405.28	2560.55
405.47	2523.10
405.66	2544.16
405.85	2537.14
406.05	2537.14
406.24	2633.10
406.43	2530.12
406.62	2693.96
406.81	2668.21
407.00	2679.91
407.20	2696.30
407.39	2581.61
407.58	2761.83
407.77	2771.19
407.96	2740.77
408.15	2677.57
408.34	2820.35
408.54	2626.08
408.73	2750.13
408.92	2815.66
409.11	2942.05
409.30	2925.67
409.49	3005.25
409.68	2850.77
409.87	2956.10
410.07	3112.91
410.26	3077.80
410.45	2946.73
410.64	3131.64
410.83	3066.10
411.02	3038.02
411.21	3101.21
411.40	3136.32
411.59	3218.24
411.78	3260.37
411.98	3176.11
412.17	3272.07
412.36	3316.54
412.55	3478.04
412.74	3368.03
412.93	3335.26
413.12	3375.05
413.31	3627.83
413.50	3482.72
413.69	3522.51
413.88	3543.57
414.07	3564.64
414.26	3665.28
414.45	3672.30
414.64	3700.39
414.83	3794.01
415.02	3714.43
415.22	3714.43
415.41	3950.82
415.60	3887.63
415.79	3962.53
415.98	4044.45
416.17	3887.63
416.36	3861.88
416.55	3922.74
416.74	4095.94
416.93	4121.68
417.12	4180.20
417.31	4102.96
417.50	3999.98
417.69	4287.86
417.88	4325.31
418.07	4273.82
418.26	4346.37
418.45	4243.39
418.64	4449.36
418.83	4404.89
419.02	4400.21
419.21	4383.82
419.39	4594.47
419.58	4547.66
419.77	4470.42
419.96	4547.66
420.15	4606.17
420.34	4559.36
420.53	4507.87
420.72	4664.69
420.91	4681.07
421.10	4819.16
421.29	4816.82
421.48	4606.17
421.67	4947.89
421.86	4873.00
422.05	4774.69
422.24	4891.72
422.43	4730.22
422.61	4887.04
422.80	5032.15
422.99	5081.30
423.18	4997.04
423.37	5074.28
423.56	4994.70
423.75	4915.12
423.94	4798.10
424.13	4500.85
424.32	4842.57
424.50	5064.92
424.69	5100.03
424.88	5083.64
425.07	4924.49
425.26	5020.45
425.45	4947.89
425.64	5130.45
425.83	5146.84
426.01	5153.86
426.20	5301.31
426.39	5013.43
426.58	5088.32
426.77	5064.92
426.96	5125.77
427.15	5144.50
427.33	5200.67
427.52	5217.05
427.71	5338.76
427.90	5128.11
428.09	5179.61
428.28	5308.34
428.46	5376.21
428.65	5200.67
428.84	5600.90
429.03	5497.92
429.22	5472.17
429.40	5369.19
429.59	5547.07
429.78	5252.16
429.97	5249.82
430.16	5341.10
430.34	5741.33
430.53	5687.50
430.72	5626.65
430.91	5799.85
431.10	5643.03
431.28	5846.66
431.47	5813.89
431.66	5841.98
431.85	5806.87
432.03	5816.23
432.22	5870.06
432.41	6092.41
432.60	5900.49
432.79	5811.55
432.97	6183.70
433.16	6010.50
433.35	5856.02
433.54	5874.74
433.72	6202.42
433.91	6066.67
434.10	6071.35
434.28	6188.38
434.47	6401.37
434.66	6279.66
434.85	6190.72
435.03	6307.74
435.22	6239.87
435.41	6518.39
435.59	6553.50
435.78	6466.90
435.97	6399.02
436.16	6239.87
436.34	6527.75
436.53	6363.92
436.72	6621.38
436.90	6417.75
437.09	6581.59
437.28	6436.47
437.46	6759.47
437.65	6637.76
437.84	6698.61
438.02	6612.01
438.21	6736.06
438.40	6895.22
438.58	6801.60
438.77	7213.53
438.96	6911.60
439.14	6860.11
439.33	7126.93
439.52	7342.26
439.70	7077.78
439.89	7318.86
440.08	7344.60
440.26	7431.20
440.45	7463.97
440.63	7508.44
440.82	7693.34
441.01	7604.40
441.19	7733.13
441.38	7733.13
441.57	7826.75
441.75	7850.16
441.94	8023.36
442.12	7946.12
442.31	8116.98
442.50	8116.98
442.68	7885.26
442.87	8170.81
443.05	8116.98
443.24	8091.23
443.43	8107.62
443.61	8128.68
443.80	8617.85
443.98	8079.53
444.17	7882.92
444.35	8114.64
444.54	8119.32
444.73	8278.47
444.91	8114.64
445.10	8585.08
445.28	8468.06
445.47	8234.00
445.65	8404.86
445.84	8545.30
446.02	8456.36
446.21	8620.19
446.39	8215.28
446.58	8439.97
446.77	8636.58
446.95	8512.53
447.14	8517.21
447.32	8472.74
447.51	8641.26
447.69	8339.33
447.88	8571.04
448.06	8697.43
448.25	8669.34
448.43	8620.19
448.62	8748.92
448.80	8767.65
448.99	8589.77
449.17	8734.88
449.36	8720.84
449.54	9011.06
449.73	8973.61
449.91	9135.11
450.10	8924.46
450.28	9247.46
450.46	9067.24
450.65	9090.64
450.83	9102.34
451.02	8966.59
451.20	9071.92
451.39	9167.88
451.57	9238.09
451.76	9165.54
451.94	9109.36
452.13	9394.91
452.31	9235.75
452.49	9268.52
452.68	9404.27
452.86	9507.26
453.05	9441.72
453.23	9577.47
453.42	9497.89
453.60	9174.90
453.78	9687.48
453.97	9706.20
454.15	9610.24
454.34	9525.98
454.52	9853.66
454.70	9617.26
454.89	9827.91
455.07	9856.00
455.26	9841.95
455.44	10113.45
455.62	9958.98
455.81	9827.91
455.99	9881.74
456.17	10001.11
456.36	10200.05
456.54	10279.63
456.73	10300.70
456.91	10424.75
457.09	10562.84
457.28	10494.96
457.46	10363.89
457.64	10761.78
457.83	10501.98
458.01	10434.11
458.19	10672.84
458.38	10485.60
458.56	10792.21
458.74	10637.73
458.93	10593.26
459.11	10890.51
459.29	10897.53
459.48	10703.27
459.66	10834.34
459.84	11140.95
460.03	11215.85
460.21	11103.50
460.39	11049.67
460.57	10944.34
460.76	11314.15
460.94	11225.21
461.12	11145.63
461.31	11351.60
461.49	11171.38
461.67	11435.86
461.85	11698.00
462.04	11559.91
462.22	11426.50
462.40	11836.09
462.59	11630.12
462.77	11618.42
462.95	11454.58
463.13	11658.21
463.32	11751.83
463.50	11812.68
463.68	11913.33
463.86	11946.09
464.05	11793.96
464.23	11859.49
464.41	11957.80
464.59	11658.21
464.78	12231.64
464.96	12191.85
465.14	11936.73
465.32	12049.08
465.50	12334.62
465.69	12339.30
465.87	12182.49
466.05	12107.59
466.23	12353.35
466.41	12269.09
466.60	12442.29
466.78	12411.86
466.96	12381.43
467.14	12528.89
467.32	12465.69
467.51	12500.80
467.69	12194.19
467.87	12470.37
468.05	12762.94
468.23	12526.55
468.41	12622.51
468.60	12622.51
468.78	12828.48
468.96	12608.47
469.14	12816.77
469.32	12968.91
469.50	12786.35
469.69	13046.15
469.87	13053.17
470.05	12989.97
470.23	13415.95
470.41	13327.01
470.59	13593.83
470.77	13268.50
470.95	13345.73
471.14	13654.69
471.32	13207.64
471.50	13633.62
471.68	13586.81
471.86	13958.96
472.04	13706.18
472.22	13994.06
472.40	13687.45
472.58	13998.74
472.77	14132.15
472.95	14157.90
473.13	14876.44
473.31	14057.26
473.49	14333.44
473.67	13923.85
473.85	14143.86
474.03	14686.86
474.21	14857.72
474.39	14560.47
474.57	14862.40
474.75	14977.09
474.93	15241.57
475.12	14743.03
475.30	15220.50
475.48	15166.67
475.66	15236.89
475.84	15164.33
476.02	15344.55
476.20	15353.91
476.38	16009.26
476.56	16084.16
476.74	16074.80
476.92	15936.71
477.10	15840.75
477.28	16072.46
477.46	16315.87
477.64	16507.80
477.82	16519.50
478.00	16999.31
478.18	16758.24
478.36	17146.76
478.54	17343.37
478.72	17504.87
478.90	17371.46
479.08	17722.54
479.26	17657.00
479.44	17923.82
479.62	17994.04
479.80	18059.57
479.98	18125.11
480.16	18721.95
480.34	18445.76
480.52	18518.32
480.70	18558.11
480.88	18525.34
481.06	18757.05
481.24	18623.64
481.41	19154.94
481.59	19431.13
481.77	19550.49
481.95	19639.44
482.13	19772.85
482.31	19971.79
482.49	20512.46
482.67	20130.95
482.85	20547.56
483.03	20652.89
483.21	21219.30
483.39	20950.14
483.57	21071.84
483.74	21149.08
483.92	21497.82
484.10	21202.91
484.28	21734.21
484.46	21914.44
484.64	22539.36
484.82	21984.65
485.00	22565.10
485.18	23150.24
485.35	23278.97
485.53	22696.17
485.71	23173.64
485.89	23304.71
486.07	23328.12
486.25	23576.22
486.43	23812.61
486.61	24126.24
486.78	24093.47
486.96	24147.31
487.14	24687.97
487.32	24769.89
487.50	25025.01
487.68	25036.71
487.85	25446.30
488.03	26003.35
488.21	25975.27
488.39	26106.34
488.57	26490.18
488.75	26265.49
488.92	26714.87
489.10	26977.01
489.28	26691.47
489.46	27400.65
489.64	27480.23
489.81	27641.73
489.99	27894.50
490.17	27669.81
490.35	28306.44
490.53	28367.29
490.70	28421.13
490.88	28716.03
491.06	28741.78
491.24	29062.43
491.41	28943.06
491.59	29507.13
491.77	29212.23
491.95	29975.24
492.13	30047.80
492.30	30122.69
492.48	30078.22
492.66	30466.75
492.84	30492.50
493.01	30658.68
493.19	30817.83
493.37	31094.02
493.54	30906.77
493.72	31758.73
493.90	31576.17
494.08	31995.12
494.25	32098.11
494.43	32063.00
494.61	32371.95
494.79	32547.49
494.96	32907.93
495.14	32978.15
495.32	33280.08
495.49	33633.50
495.67	33284.76
495.85	34031.39
496.02	33954.15
496.20	34036.07
496.38	34263.10
496.55	34375.45
496.73	34955.90
496.91	34525.24
497.09	35037.82
497.26	34955.90
497.44	35215.70
497.62	35739.98
497.79	36128.51
497.97	35700.19
498.14	36088.72
498.32	36297.03
498.50	36481.93
498.67	36594.28
498.85	36666.83
499.03	36711.30
499.20	36903.23
499.38	36610.66
499.56	37579.64
499.73	37422.83
499.91	37565.60
500.08	37691.99
500.26	37652.20
500.44	38099.24
500.61	38426.92
500.79	37666.24
500.97	38124.99
501.14	38843.53
501.32	38562.67
501.49	38541.60
501.67	39309.30
501.84	38738.21
502.02	38810.76
502.20	39335.04
502.37	39555.05
502.55	39358.45
502.72	39548.03
502.90	39379.51
503.07	40201.04
503.25	40187.00
503.43	39725.91
503.60	40184.66
503.78	40355.52
503.95	40161.25
504.13	40636.38
504.30	41165.34
504.48	40500.63
504.65	40500.63
504.83	40849.37
505.01	41301.09
505.18	41148.96
505.36	41736.43
505.53	41324.50
505.71	41633.45
505.88	42040.70
506.06	41635.79
506.23	41785.58
506.41	42007.94
506.58	42162.41
506.76	42302.84
506.93	42775.63
507.11	42155.39
507.28	42897.34
507.46	43185.22
507.63	43332.68
507.81	43711.84
507.98	42827.12
508.16	43468.43
508.33	43182.88
508.50	43784.40
508.68	43351.40
508.85	43878.02
509.03	44205.70
509.20	44121.44
509.38	44304.00
509.55	44376.56
509.73	44746.36
509.90	44828.28
510.08	45015.52
510.25	44959.35
510.42	44807.22
510.60	45067.02
510.77	45757.47
510.95	45773.86
511.12	45366.60
511.30	45315.11
511.47	45823.01
511.64	45708.32
511.82	45944.72
511.99	45879.18
512.17	45975.14
512.34	45797.26
512.51	46642.20
512.69	46705.39
512.86	46672.62
513.04	46859.87
513.21	46590.70
513.38	47178.18
513.56	47248.39
513.73	46993.28
513.90	47145.41
514.08	47416.91
514.25	47292.86
514.43	47679.05
514.60	47522.24
514.77	47840.55
514.95	48025.45
515.12	47882.68
515.29	47746.93
515.47	47988.00
515.64	48329.72
515.81	47791.40
515.99	48919.54
516.16	49059.97
516.33	48612.93
516.51	48952.30
516.68	48535.69
516.85	48659.74
517.03	49146.57
517.20	49052.95
517.37	48982.73
517.54	49301.04
517.72	49055.29
517.89	49052.95
518.06	49436.80
518.24	49263.60
518.41	49230.83
518.58	49392.33
518.75	49647.44
518.93	50344.92
519.10	49839.37
519.27	49888.52
519.45	49937.67
519.62	50045.33
519.79	49998.52
519.96	50225.56
520.14	50316.84
520.31	50223.22
520.48	50539.19
520.65	50375.35
520.83	50962.82
521.00	50859.84
521.17	50911.33
521.34	50831.75
521.52	50604.72
521.69	50941.76
521.86	50993.25
522.03	51325.61
522.20	51341.99
522.38	51852.23
522.55	51311.56
522.72	51643.92
522.89	51423.91
523.07	51725.84
523.24	51758.61
523.41	51924.78
523.58	51632.22
523.75	51920.10
523.92	52074.58
524.10	52339.06
524.27	52062.88
524.44	52456.09
524.61	52346.08
524.78	52479.49
524.96	52289.91
525.13	52640.99
525.30	52584.82
525.47	52842.27
525.64	52303.95
525.81	52931.22
525.98	52786.10
526.16	52416.30
526.33	52638.65
526.50	52886.74
526.67	52807.17
526.84	53137.18
527.01	53106.76
527.18	53226.12
527.36	53188.67
527.53	53263.57
527.70	53441.45
527.87	53312.72
528.04	53352.51
528.21	53481.24
528.38	53462.52
528.55	53701.25
528.72	53462.52
528.89	53478.90
529.07	53673.16
529.24	53722.32
529.41	53755.08
529.58	53848.71
529.75	53879.13
529.92	53984.46
530.09	54028.93
530.26	54478.31
530.43	54337.88
530.60	54244.26
530.77	53902.54
530.94	54045.31
531.11	54089.78
531.28	54129.57
531.46	54260.64
531.63	54532.14
531.80	54429.16
531.97	54784.92
532.14	54560.23
532.31	54707.68
532.48	54805.98
532.65	54857.48
532.82	54782.58
532.99	54642.15
533.16	54857.48
533.33	54993.23
533.50	54951.10
533.67	54869.18
533.84	54766.20
534.01	54993.23
534.18	55175.79
534.35	55414.52
534.52	55360.69
534.69	55395.80
534.86	55440.27
535.03	55278.77
535.20	55292.82
535.37	55428.57
535.54	55531.55
535.71	55381.76
535.88	55664.96
536.05	55789.01
536.22	55791.35
536.38	55861.57
536.55	55894.33
536.72	55569.00
536.89	55604.11
537.06	55709.43
537.23	55856.88
537.40	55817.10
537.57	55856.88
537.74	55796.03
537.91	56278.18
538.08	56097.96
538.25	55657.94
538.42	55971.57
538.59	56317.97
538.75	56142.43
538.92	56254.78
539.09	56500.53
539.26	56411.59
539.43	56385.85
539.60	56481.81
539.77	56332.01
539.94	56612.88
540.11	56430.32
540.28	56516.92
540.44	56715.86
540.61	56374.14
540.78	56439.68
540.95	56537.98
541.12	56481.81
541.29	56584.79
541.46	56610.54
541.62	56617.56
541.79	56736.93
541.96	56432.66
542.13	56720.54
542.30	56566.07
542.47	56882.04
542.63	56968.64
542.80	56949.92
542.97	57190.99
543.14	57247.16
543.31	57223.76
543.48	57251.84
543.64	57567.82
543.81	57572.50
543.98	57373.55
544.15	57352.49
544.32	57551.43
544.48	57654.42
544.65	57240.14
544.82	57509.30
544.99	57521.01
545.16	57682.50
545.32	57614.63
545.49	57684.84
545.66	57799.53
545.83	57780.81
546.00	57844.00
546.16	57642.71
546.33	57546.75
546.50	57513.98
546.67	58103.80
546.83	57635.69
547.00	57998.48
547.17	57705.91
547.34	58099.12
547.50	58078.05
547.67	58028.90
547.84	58195.08
548.00	58188.06
548.17	58534.46
548.34	58375.30
548.51	58368.28
548.67	58365.94
548.84	58211.46
549.01	58162.31
549.18	58291.04
549.34	58305.09
549.51	58337.85
549.68	58422.11
549.84	58539.14
550.01	58731.06
550.18	58419.77
550.34	58429.13
550.51	58639.78
550.68	58747.45
550.84	58445.52
551.01	58768.51
551.18	58492.33
551.34	58564.88
551.51	58693.61
551.68	58677.23
551.84	58770.85
552.01	58592.97
552.18	58866.81
552.34	58822.34
552.51	58775.53
552.68	58726.38
552.84	58820.00
553.01	59032.99
553.18	58848.09
553.34	59009.59
553.51	58759.15
553.67	58876.18
553.84	59126.61
554.01	59047.04
554.17	58974.48
554.34	59040.01
554.51	59157.04
554.67	59208.53
554.84	59124.27
555.00	59278.75
555.17	59105.55
555.33	59173.42
555.50	59213.21
555.67	58993.20
555.83	59189.81
556.00	59267.05
556.16	59428.54
556.33	59526.84
556.50	59421.52
556.66	59700.04
556.83	59313.86
556.99	59508.12
557.16	59522.16
557.32	59407.48
557.49	59732.81
557.65	59473.01
557.82	59545.57
557.98	59597.06
558.15	59629.83
558.32	59662.60
558.48	59784.30
558.65	59585.36
558.81	59543.23
558.98	59618.13
559.14	59573.66
559.31	59669.62
559.47	59875.58
559.64	59826.43
559.80	59781.96
559.97	59880.27
560.13	59601.74
560.30	59714.09
560.46	59803.03
560.63	59906.01
560.79	60097.94
560.96	59842.82
561.12	59938.78
561.29	59817.07
561.45	59999.63
561.61	59999.63
561.78	59990.27
561.94	59913.03
562.11	59735.15
562.27	59999.63
562.44	60102.62
562.60	60233.69
562.77	60221.98
562.93	60041.76
563.10	60177.51
563.26	60060.49
563.42	60275.82
563.59	60168.15
563.75	60177.51
563.92	60016.02
564.08	60055.81
564.24	60259.43
564.41	60217.30
564.57	60158.79
564.74	60456.04
564.90	60268.79
565.07	60163.47
565.23	60381.14
565.39	60336.67
565.56	60217.30
565.72	60245.39
565.88	60294.54
566.05	60339.01
566.21	60418.59
566.38	60317.95
566.54	60542.64
566.70	60542.64
566.87	60397.52
567.03	60465.40
567.19	60577.75
567.36	60413.91
567.52	60334.33
567.68	60563.70
567.85	60626.90
568.01	60547.32
568.17	60458.38
568.34	60413.91
568.50	60322.63
568.66	60544.98
568.83	60460.72
568.99	60409.23
569.15	60486.46
569.32	60626.90
569.48	60470.08
569.64	60809.46
569.81	60647.96
569.97	60530.93
570.13	60573.06
570.30	60395.18
570.46	60713.50
570.62	60734.56
570.78	60556.68
570.95	60685.41
571.11	60804.78
571.27	60437.31
571.43	60706.47
571.60	60683.07
571.76	60680.73
571.92	60863.29
572.09	60615.19
572.25	60940.53
572.41	60917.12
572.57	60729.88
572.74	60935.85
572.90	60640.94
573.06	60694.77
573.22	60734.56
573.38	60697.11
573.55	60662.00
573.71	60921.80
573.87	60872.65
574.03	60678.39
574.20	60701.79
574.36	60549.66
574.52	60945.21
574.68	60893.72
574.84	60814.14
575.01	61043.51
575.17	60823.50
575.33	60690.09
575.49	60673.71
575.65	60849.25
575.82	60935.85
575.98	60966.27
576.14	61034.15
576.30	60790.73
576.46	60966.27
576.62	60905.42
576.79	60844.57
576.95	60629.24
577.11	61050.53
577.27	60907.76
577.43	60867.97
577.59	60860.95
577.75	60942.87
577.92	60722.86
578.08	60858.61
578.24	60676.05
578.40	61151.18
578.56	61003.72
578.72	61062.24
578.88	61078.62
579.04	61235.44
579.21	60963.93
579.37	61010.74
579.53	61186.28
579.69	60942.87
579.85	60821.16
580.01	60992.02
580.17	60624.56
580.33	61125.43
580.49	61008.40
580.65	61031.81
580.82	60992.02
580.98	61048.19
581.14	60849.25
581.30	61151.18
581.46	60942.87
581.62	61071.60
581.78	60961.59
581.94	61036.49
582.10	60968.61
582.26	61095.00
582.42	60926.49
582.58	61160.54
582.74	61062.24
582.90	61020.11
583.06	61078.62
583.22	60926.49
583.38	61073.94
583.54	61186.28
583.70	60996.70
583.86	60940.53
584.02	60987.34
584.18	61179.26
584.34	61186.28
584.50	60844.57
584.66	61001.38
584.82	61090.32
584.98	61071.60
585.14	61141.81
585.30	60926.49
585.46	61109.05
585.62	61139.47
585.78	61329.06
585.94	61078.62
586.10	60985.00
586.26	61050.53
586.42	61223.73
586.58	61312.67
586.74	61109.05
586.90	61076.28
587.06	61373.53
587.22	61282.25
587.38	61385.23
587.54	61429.70
587.70	61237.78
587.86	61099.68
588.02	61197.99
588.18	61291.61
588.34	61048.19
588.49	61099.68
