SpectraSuite Data File
++++++++++++++++++++++++++++++++++++
Date: Fri Oct 25 11:25:56 EDT 2013
User: price-jones
Dark Spectrum Present: No
Reference Spectrum Present: No
Number of Sampled Component Spectra: 1
Spectrometers: USB2+H05261
Integration Time (usec): 100000 (USB2+H05261)
Spectra Averaged: 1 (USB2+H05261)
Boxcar Smoothing: 0 (USB2+H05261)
Correct for Electrical Dark: No (USB2+H05261)
Strobe/Lamp Enabled: No (USB2+H05261)
Correct for Detector Non-linearity: No (USB2+H05261)
Correct for Stray Light: No (USB2+H05261)
Number of Pixels in Processed Spectrum: 2048
>>>>>Begin Processed Spectral Data<<<<<
365.73	212.99
365.92	212.99
366.12	212.99
366.32	184.90
366.52	159.16
366.72	189.58
366.91	74.90
367.11	81.92
367.31	81.92
367.51	124.05
367.70	117.03
367.90	166.18
368.10	194.26
368.30	142.77
368.49	156.82
368.69	173.20
368.89	161.50
369.09	133.41
369.28	187.24
369.48	119.37
369.68	198.95
369.87	170.86
370.07	201.29
370.27	220.01
370.47	320.65
370.66	617.90
370.86	683.44
371.06	713.86
371.25	716.20
371.45	615.56
371.65	589.82
371.84	660.03
372.04	660.03
372.24	786.42
372.44	753.65
372.63	758.33
372.83	697.48
373.03	744.29
373.22	847.27
373.42	781.74
373.62	809.83
373.81	755.99
374.01	807.48
374.21	786.42
374.40	744.29
374.60	882.38
374.79	805.14
374.99	858.98
375.19	765.36
375.38	880.04
375.58	805.14
375.78	847.27
375.97	837.91
376.17	976.00
376.37	912.81
376.56	858.98
376.76	891.74
376.95	898.77
377.15	856.64
377.35	983.02
377.54	987.71
377.74	889.40
377.93	894.08
378.13	812.17
378.33	952.60
378.52	961.96
378.72	933.87
378.91	968.98
379.11	1013.45
379.31	868.34
379.50	849.61
379.70	978.34
379.89	1032.18
380.09	957.28
380.28	994.73
380.48	978.34
380.68	983.02
380.87	997.07
381.07	1086.01
381.26	1055.58
381.46	1034.52
381.65	999.41
381.85	1036.86
382.04	994.73
382.24	1067.28
382.43	987.71
382.63	1046.22
382.83	1069.62
383.02	1011.11
383.22	1200.69
383.41	1086.01
383.61	1116.44
383.80	1132.82
384.00	1128.14
384.19	1018.13
384.39	1107.07
384.58	1006.43
384.78	1104.73
384.97	1214.74
385.17	1118.78
385.36	1186.65
385.56	1104.73
385.75	1165.59
385.95	1170.27
386.14	1186.65
386.34	1214.74
386.53	1219.42
386.72	1193.67
386.92	1242.82
387.11	1252.19
387.31	1289.64
387.50	1200.69
387.70	1226.44
387.89	1289.64
388.09	1247.51
388.28	1296.66
388.48	1224.10
388.67	1380.92
388.86	1306.02
389.06	1291.98
389.25	1357.51
389.45	1453.47
389.64	1289.64
389.84	1334.11
390.03	1446.45
390.22	1390.28
390.42	1385.60
390.61	1411.34
390.81	1427.73
391.00	1331.76
391.19	1420.71
391.39	1540.07
391.58	1390.28
391.78	1504.96
391.97	1483.90
392.16	1486.24
392.36	1483.90
392.55	1474.54
392.75	1495.60
392.94	1556.46
393.13	1465.18
393.33	1551.78
393.52	1462.83
393.71	1640.72
393.91	1549.43
394.10	1514.33
394.29	1657.10
394.49	1497.94
394.68	1572.84
394.88	1621.99
395.07	1661.78
395.26	1685.19
395.46	1788.17
395.65	1654.76
395.84	1741.36
396.04	1792.85
396.23	1746.04
396.42	1701.57
396.62	1647.74
396.81	1739.02
397.00	1771.79
397.19	1717.95
397.39	1802.21
397.58	1886.47
397.77	1823.28
397.97	1806.89
398.16	1867.75
398.35	1919.24
398.55	1741.36
398.74	1844.34
398.93	1856.04
399.12	1966.05
399.32	1912.22
399.51	1998.82
399.70	2076.06
399.90	1982.43
400.09	1980.09
400.28	2125.21
400.47	2019.88
400.67	2155.63
400.86	2101.80
401.05	1975.41
401.24	2146.27
401.44	2090.10
401.63	2160.31
401.82	2157.97
402.01	2115.84
402.21	2211.81
402.40	2218.83
402.59	2136.91
402.78	2200.10
402.97	2197.76
403.17	2176.70
403.36	2244.57
403.55	2363.94
403.74	2345.22
403.93	2335.85
404.13	2403.73
404.32	2410.75
404.51	2321.81
404.70	2406.07
404.89	2326.49
405.09	2450.54
405.28	2553.52
405.47	2396.71
405.66	2434.16
405.85	2555.86
406.05	2485.65
406.24	2576.93
406.43	2497.35
406.62	2548.84
406.81	2651.83
407.00	2530.12
407.20	2558.21
407.39	2668.21
407.58	2729.06
407.77	2745.45
407.96	2703.32
408.15	2750.13
408.34	2743.11
408.54	2738.43
408.73	2829.71
408.92	2846.09
409.11	2902.26
409.30	2890.56
409.49	3000.57
409.68	2853.11
409.87	2890.56
410.07	2993.55
410.26	3014.61
410.45	3012.27
410.64	3091.85
410.83	3108.23
411.02	3115.25
411.21	3073.12
411.40	3096.53
411.59	3206.53
411.78	3190.15
411.98	3150.36
412.17	3358.67
412.36	3330.58
412.55	3370.37
412.74	3370.37
412.93	3435.91
413.12	3433.57
413.31	3597.40
413.50	3382.07
413.69	3424.20
413.88	3667.62
414.07	3581.02
414.26	3585.70
414.45	3616.13
414.64	3735.50
414.83	3763.58
415.02	3609.11
415.22	3822.09
415.41	3913.38
415.60	3796.35
415.79	3932.10
415.98	4056.15
416.17	3950.82
416.36	4067.85
416.55	3964.87
416.74	4077.21
416.93	4011.68
417.12	4142.75
417.31	4173.18
417.50	3969.55
417.69	4292.54
417.88	4142.75
418.07	4280.84
418.26	4447.02
418.45	4329.99
418.64	4409.57
418.83	4376.80
419.02	4362.76
419.21	4470.42
419.39	4561.70
419.58	4519.57
419.77	4348.72
419.96	4512.55
420.15	4585.11
420.34	4538.30
420.53	4660.01
420.72	4512.55
420.91	4730.22
421.10	4772.35
421.29	4545.32
421.48	4739.58
421.67	4678.73
421.86	4854.27
422.05	4816.82
422.24	4805.12
422.43	5039.17
422.61	4856.61
422.80	4807.46
422.99	4828.53
423.18	4938.53
423.37	5100.03
423.56	4954.91
423.75	4868.31
423.94	4830.87
424.13	4599.15
424.32	4704.48
424.50	4943.21
424.69	5048.54
424.88	5090.67
425.07	5055.56
425.26	4910.44
425.45	4980.66
425.64	4931.51
425.83	4966.62
426.01	4889.38
426.20	5013.43
426.39	5041.51
426.58	4980.66
426.77	5029.81
426.96	5153.86
427.15	5291.95
427.33	5266.21
427.52	5228.76
427.71	5195.99
427.90	5210.03
428.09	5259.18
428.28	5336.42
428.46	5497.92
428.65	5364.51
428.84	5556.43
429.03	5469.83
429.22	5296.63
429.40	5488.56
429.59	5547.07
429.78	5294.29
429.97	5305.99
430.16	5444.09
430.34	5469.83
430.53	5516.64
430.72	5612.60
430.91	5694.52
431.10	5547.07
431.28	5769.42
431.47	5795.17
431.66	5717.93
431.85	5624.31
432.03	5804.53
432.22	5944.96
432.41	5928.58
432.60	5860.70
432.79	6040.92
432.97	5944.96
433.16	5982.41
433.35	5987.09
433.54	6015.18
433.72	6106.46
433.91	6057.31
434.10	6150.93
434.28	5994.11
434.47	6239.87
434.66	6162.63
434.85	6314.77
435.03	6347.53
435.22	6223.48
435.41	6633.08
435.59	6469.24
435.78	6602.65
435.97	6403.71
436.16	6324.13
436.34	6370.94
436.53	6464.56
436.72	6567.54
436.90	6607.33
437.09	6396.68
437.28	6387.32
437.46	6567.54
437.65	6644.78
437.84	6630.74
438.02	6712.66
438.21	6846.07
438.40	6813.30
438.58	7021.61
438.77	6970.12
438.96	6944.37
439.14	6874.15
439.33	7124.59
439.52	7068.42
439.70	7208.85
439.89	7431.20
440.08	7307.15
440.26	7403.11
440.45	7295.45
440.63	7309.49
440.82	7595.04
441.01	7644.19
441.19	7667.60
441.38	7831.43
441.57	7789.30
441.75	7840.79
441.94	7822.07
442.12	7803.35
442.31	8042.08
442.50	7911.01
442.68	7936.76
442.87	8016.33
443.05	7964.84
443.24	8280.82
443.43	8269.11
443.61	8226.98
443.80	8486.78
443.98	7885.26
444.17	7974.21
444.35	8191.88
444.54	8442.31
444.73	8184.85
444.91	8306.56
445.10	8276.13
445.28	8362.73
445.47	8180.17
445.65	8341.67
445.84	8414.23
446.02	8360.39
446.21	8304.22
446.39	8454.02
446.58	8461.04
446.77	8360.39
446.95	8294.86
447.14	8538.27
447.32	8486.78
447.51	8351.03
447.69	8320.60
447.88	8402.52
448.06	8489.12
448.25	8409.54
448.43	8566.36
448.62	8585.08
448.80	8617.85
448.99	8753.60
449.17	8681.05
449.36	8695.09
449.54	8905.74
449.73	8894.04
449.91	9036.81
450.10	9078.94
450.28	8833.18
450.46	8762.97
450.65	9104.68
450.83	9034.47
451.02	9128.09
451.20	9100.00
451.39	8966.59
451.57	9039.15
451.76	9128.09
451.94	9125.75
452.13	9287.25
452.31	9186.60
452.49	9233.41
452.68	9439.38
452.86	9387.89
453.05	9284.91
453.23	9516.62
453.42	9378.53
453.60	9554.07
453.78	9563.43
453.97	9404.27
454.15	9317.67
454.34	9406.61
454.52	9727.27
454.70	9673.43
454.89	9621.94
455.07	9645.35
455.26	9827.91
455.44	10022.17
455.62	9706.20
455.81	9989.41
455.99	10092.39
456.17	9961.32
456.36	10108.77
456.54	10190.69
456.73	10197.71
456.91	10368.57
457.09	10359.21
457.28	10600.29
457.46	10214.10
457.64	10445.81
457.83	10417.72
458.01	10476.24
458.19	10698.59
458.38	10527.73
458.56	10513.69
458.74	10796.89
458.93	10761.78
459.11	10459.85
459.29	10663.48
459.48	10794.55
459.66	10691.57
459.84	10911.58
460.03	11021.58
460.21	11059.03
460.39	10745.40
460.57	11066.05
460.76	11068.39
460.94	11304.79
461.12	11255.64
461.31	11091.80
461.49	11112.86
461.67	11204.14
461.85	11421.81
462.04	11431.18
462.22	11791.62
462.40	11569.27
462.59	11566.93
462.77	11470.97
462.95	11679.27
463.13	11672.25
463.32	11765.87
463.50	11676.93
463.68	11758.85
463.86	11910.99
464.05	11613.74
464.23	11580.97
464.41	11840.77
464.59	11379.68
464.78	12074.82
464.96	11812.68
465.14	11646.51
465.32	11896.94
465.50	12011.63
465.69	11997.59
465.87	12170.79
466.05	12215.26
466.23	12159.08
466.41	11903.96
466.60	12435.27
466.78	12154.40
466.96	12126.32
467.14	12315.90
467.32	12327.60
467.51	12580.38
467.69	12329.94
467.87	12486.76
468.05	12355.69
468.23	12201.21
468.41	12624.85
468.60	12617.83
468.78	12624.85
468.96	12381.43
469.14	12760.60
469.32	13032.10
469.50	12615.49
469.69	12926.78
469.87	13177.22
470.05	12681.02
470.23	13167.85
470.41	13062.53
470.59	13256.79
470.77	13455.74
470.95	13205.30
471.14	13530.64
471.32	13062.53
471.50	13476.80
471.68	13727.24
471.86	13767.03
472.04	13577.45
472.22	14012.79
472.40	13624.26
472.58	13795.12
472.77	14038.53
472.95	14029.17
473.13	14621.33
473.31	13846.61
473.49	14019.81
473.67	14075.98
473.85	14389.61
474.03	14710.27
474.21	14441.11
474.39	14817.93
474.57	14635.37
474.75	15101.14
474.93	14963.04
475.12	14775.80
475.30	15166.67
475.48	14888.15
475.66	15087.09
475.84	14923.26
476.02	15183.06
476.20	15459.24
476.38	15382.00
476.56	15899.26
476.74	15950.75
476.92	15885.22
477.10	15674.57
477.28	15995.22
477.46	16072.46
477.64	16264.38
477.82	16547.59
478.00	16938.46
478.18	16917.39
478.36	16755.90
478.54	17022.72
478.72	17294.22
478.90	17439.33
479.08	17666.36
479.26	17619.55
479.44	17619.55
479.62	17898.08
479.80	18008.08
479.98	18162.56
480.16	18417.68
480.34	18288.95
480.52	18553.43
480.70	18204.69
480.88	18497.25
481.06	18574.49
481.24	18747.69
481.41	19133.88
481.59	19124.52
481.77	19335.17
481.95	19372.61
482.13	19639.44
482.31	19557.52
482.49	20168.40
482.67	19981.15
482.85	20423.51
483.03	20458.62
483.21	20868.22
483.39	21022.69
483.57	20732.47
483.74	20900.98
483.92	21289.51
484.10	21209.93
484.28	22043.17
484.46	21640.59
484.64	22024.44
484.82	21905.07
485.00	22492.55
485.18	22654.05
485.35	23122.15
485.53	22759.37
485.71	22916.19
485.89	23220.45
486.07	22820.22
486.25	22871.72
486.43	23604.30
486.61	23807.93
486.78	23917.93
486.96	24077.09
487.14	24500.73
487.32	24449.24
487.50	24741.80
487.68	24893.94
487.85	25287.15
488.03	25202.89
488.21	25472.05
488.39	25546.95
488.57	26101.65
488.75	26249.11
488.92	26609.55
489.10	26773.39
489.28	26452.73
489.46	27229.79
489.64	26717.22
489.81	27424.06
489.99	27728.33
490.17	27339.80
490.35	28217.50
490.53	28063.02
490.70	28283.03
490.88	28030.26
491.06	28748.80
491.24	28645.82
491.41	28751.14
491.59	29039.03
491.77	29443.94
491.95	29504.79
492.13	29940.13
492.30	29876.94
492.48	29933.11
492.66	30185.89
492.84	29912.05
493.01	30675.06
493.19	30618.89
493.37	30836.56
493.54	30862.30
493.72	31508.29
493.90	31552.76
494.08	31669.79
494.25	31716.60
494.43	32004.49
494.61	32376.63
494.79	32261.94
494.96	32477.27
495.14	32507.70
495.32	32938.36
495.49	32971.13
495.67	33280.08
495.85	33221.56
496.02	33577.33
496.20	33675.63
496.38	33914.36
496.55	34216.29
496.73	34850.58
496.91	34562.69
497.09	34508.86
497.26	34806.11
497.44	34876.32
497.62	35248.47
497.79	35543.38
497.97	35208.68
498.14	35674.45
498.32	35618.27
498.50	36156.60
498.67	36503.00
498.85	36669.17
499.03	36575.55
499.20	36678.54
499.38	36926.63
499.56	37003.87
499.73	37148.98
499.91	37326.86
500.08	37474.32
500.26	37378.36
500.44	37294.10
500.61	37677.94
500.79	37682.62
500.97	37996.26
501.14	38286.48
501.32	38747.57
501.49	38129.67
501.67	38307.55
501.84	39138.44
502.02	38986.30
502.20	39110.35
502.37	38913.75
502.55	39143.12
502.72	39744.64
502.90	39220.36
503.07	39419.30
503.25	39805.49
503.43	39473.13
503.60	40156.57
503.78	40456.16
503.95	40648.08
504.13	40261.90
504.30	40737.02
504.48	40114.44
504.65	40608.29
504.83	40985.12
505.01	41254.28
505.18	41219.17
505.36	41347.90
505.53	40952.35
505.71	41420.46
505.88	41361.95
506.06	41226.20
506.23	42014.96
506.41	41734.09
506.58	41930.70
506.76	42232.63
506.93	42759.25
507.11	42394.12
507.28	42286.46
507.46	42939.47
507.63	42506.47
507.81	43077.56
507.98	42658.60
508.16	43143.09
508.33	43351.40
508.50	43548.01
508.68	43419.28
508.85	43784.40
509.03	43620.56
509.20	44191.65
509.38	43945.90
509.55	44027.82
509.73	44430.39
509.90	44428.05
510.08	44449.11
510.25	44343.79
510.42	44811.90
510.60	44772.11
510.77	45099.78
510.95	45172.34
511.12	44940.63
511.30	44942.97
511.47	45542.14
511.64	45715.34
511.82	45893.22
511.99	45530.44
512.17	45727.05
512.34	46265.37
512.51	46007.91
512.69	46476.02
512.86	46089.83
513.04	46579.00
513.21	46012.59
513.38	46438.57
513.56	47229.67
513.73	46560.28
513.90	46806.03
514.08	46784.97
514.25	47119.66
514.43	47430.96
514.60	47407.55
514.77	47365.42
514.95	47711.82
515.12	47604.16
515.29	47634.58
515.47	47913.11
515.64	47896.72
515.81	47552.66
515.99	47742.25
516.16	48362.49
516.33	47955.24
516.51	48367.17
516.68	48268.87
516.85	48416.32
517.03	48814.21
517.20	48854.00
517.37	48692.50
517.54	49010.82
517.72	48846.98
517.89	48935.92
518.06	49125.50
518.24	49118.48
518.41	49404.03
518.58	49085.72
518.75	49345.51
518.93	49628.72
519.10	48996.77
519.27	49544.46
519.45	49497.65
519.62	49743.41
519.79	49932.99
519.96	50225.56
520.14	50225.56
520.31	49886.18
520.48	50272.37
520.65	50129.59
520.83	50394.07
521.00	50944.10
521.17	50239.60
521.34	50656.21
521.52	50990.91
521.69	50850.48
521.86	50717.07
522.03	50955.80
522.20	51131.34
522.38	50993.25
522.55	51182.84
522.72	51309.22
522.89	51246.03
523.07	51814.78
523.24	51512.85
523.41	51688.39
523.58	51395.82
523.75	51456.68
523.92	51466.04
524.10	51742.22
524.27	51838.18
524.44	52004.36
524.61	52002.02
524.78	52053.51
524.96	52062.88
525.13	52123.73
525.30	52175.22
525.47	52416.30
525.64	52486.51
525.81	52669.08
525.98	52795.46
526.16	52133.09
526.33	52720.57
526.50	52896.11
526.67	52978.03
526.84	52912.49
527.01	52591.84
527.18	52758.02
527.36	52795.46
527.53	52762.70
527.70	53319.74
527.87	53048.24
528.04	52851.64
528.21	53305.70
528.38	53368.90
528.55	53354.85
528.72	53263.57
528.89	53446.13
529.07	53116.12
529.24	53588.91
529.41	53914.24
529.58	53593.59
529.75	53738.70
529.92	53801.89
530.09	53727.00
530.26	54035.95
530.43	53806.58
530.60	53741.04
530.77	53752.74
530.94	54199.79
531.11	54010.20
531.28	54045.31
531.46	54281.70
531.63	54176.38
531.80	54101.48
531.97	54323.83
532.14	54649.17
532.31	54225.53
532.48	54178.72
532.65	54550.87
532.82	54457.24
532.99	54585.97
533.16	54450.22
533.33	54717.04
533.50	54894.92
533.67	54625.76
533.84	54532.14
534.01	54885.56
534.18	54705.34
534.35	55077.49
534.52	55079.83
534.69	55049.40
534.86	55285.79
535.03	54925.35
535.20	55246.00
535.37	55220.26
535.54	55271.75
535.71	55119.62
535.88	55430.91
536.05	55421.55
536.22	55622.83
536.38	55346.65
536.55	55606.45
536.72	55583.04
536.89	55487.08
537.06	55625.17
537.23	55842.84
537.40	55505.80
537.57	55695.39
537.74	55763.26
537.91	55994.98
538.08	55866.25
538.25	55473.04
538.42	55906.04
538.59	56069.87
538.75	55941.14
538.92	56310.95
539.09	56193.92
539.26	55997.32
539.43	56112.00
539.60	56287.54
539.77	56439.68
539.94	56210.31
540.11	56294.56
540.28	56402.23
540.44	56301.59
540.61	56392.87
540.78	56229.03
540.95	56652.67
541.12	56413.93
541.29	56601.18
541.46	56170.52
541.62	56465.42
541.79	56610.54
541.96	56547.34
542.13	56498.19
542.30	56427.98
542.47	56725.22
542.63	56814.16
542.80	56706.50
542.97	57109.07
543.14	57062.26
543.31	57083.33
543.48	56954.60
543.64	57354.83
543.81	57504.62
543.98	57190.99
544.15	57069.28
544.32	57272.91
544.48	57546.75
544.65	57130.14
544.82	57485.90
544.99	57244.82
545.16	57366.53
545.32	57270.57
545.49	57544.41
545.66	57567.82
545.83	57525.69
546.00	57628.67
546.16	57462.49
546.33	57691.86
546.50	57546.75
546.67	57776.12
546.83	57085.67
547.00	57715.27
547.17	57581.86
547.34	57750.38
547.50	57909.53
547.67	58061.67
547.84	57860.38
548.00	57841.66
548.17	58003.16
548.34	58113.16
548.51	58342.53
548.67	58122.52
548.84	58188.06
549.01	58246.57
549.18	58026.56
549.34	58251.25
549.51	58382.32
549.68	58459.56
549.84	58527.44
550.01	58356.58
550.18	58365.94
550.34	58623.40
550.51	58382.32
550.68	58361.26
550.84	58148.27
551.01	58349.56
551.18	58412.75
551.34	58408.07
551.51	58253.59
551.68	58447.86
551.84	58553.18
552.01	58466.58
552.18	58614.04
552.34	58370.62
552.51	58585.95
552.68	58504.03
552.84	58766.17
553.01	58651.48
553.18	58735.74
553.34	58932.35
553.51	58731.06
553.67	58599.99
553.84	58756.81
554.01	59049.38
554.17	58960.44
554.34	59011.93
554.51	58965.12
554.67	58876.18
554.84	59016.61
555.00	58995.54
555.17	59114.91
555.33	58925.33
555.50	59072.78
555.67	58862.13
555.83	59210.87
556.00	58986.18
556.16	59355.99
556.33	59234.28
556.50	58981.50
556.66	59288.11
556.83	59241.30
556.99	59386.41
557.16	59147.68
557.32	59522.16
557.49	59590.04
557.65	59400.46
557.82	59393.43
557.98	59302.15
558.15	59393.43
558.32	59400.46
558.48	59201.51
558.65	59564.29
558.81	59379.39
558.98	59580.68
559.14	59414.50
559.31	59777.28
559.47	59678.98
559.64	59662.60
559.80	59480.03
559.97	59643.87
560.13	59461.31
560.30	59531.53
560.46	59611.10
560.63	59639.19
560.79	59819.41
560.96	59760.90
561.12	59739.83
561.29	59767.92
561.45	59718.77
561.61	59863.88
561.78	59751.54
561.94	59742.17
562.11	59854.52
562.27	59969.21
562.44	60006.65
562.60	59992.61
562.77	59896.65
562.93	59791.33
563.10	60121.34
563.26	59863.88
563.42	60102.62
563.59	59896.65
563.75	59833.46
563.92	60004.31
564.08	59781.96
564.24	60027.72
564.41	60032.40
564.57	59868.56
564.74	60030.06
564.90	60034.74
565.07	60013.68
565.23	60214.96
565.39	60102.62
565.56	60116.66
565.72	60074.53
565.88	60119.00
566.05	59994.95
566.21	59929.42
566.38	60163.47
566.54	60111.98
566.70	60327.31
566.87	60231.35
567.03	60212.62
567.19	60243.05
567.36	60240.71
567.52	60299.22
567.68	60369.44
567.85	60339.01
568.01	60413.91
568.17	60030.06
568.34	60427.95
568.50	60097.94
568.66	60299.22
568.83	60324.97
568.99	60446.68
569.15	60453.70
569.32	60427.95
569.48	60198.58
569.64	60357.74
569.81	60182.19
569.97	60339.01
570.13	60364.76
570.30	60566.04
570.46	60280.50
570.62	60430.29
570.78	60322.63
570.95	60186.88
571.11	60547.32
571.27	60470.08
571.43	60626.90
571.60	60467.74
571.76	60430.29
571.92	60683.07
572.09	60528.59
572.25	60549.66
572.41	60402.21
572.57	60512.21
572.74	60704.13
572.90	60317.95
573.06	60580.09
573.22	60533.28
573.38	60685.41
573.55	60437.31
573.71	60687.75
573.87	60809.46
574.03	60441.99
574.20	60636.26
574.36	60465.40
574.52	60566.04
574.68	60678.39
574.84	60736.90
575.01	60739.24
575.17	60830.52
575.33	60727.54
575.49	60563.70
575.65	60631.58
575.82	60626.90
575.98	60860.95
576.14	60942.87
576.30	60748.60
576.46	60640.94
576.62	60844.57
576.79	60739.24
576.95	60629.24
577.11	60884.36
577.27	60877.33
577.43	60748.60
577.59	60619.88
577.75	60657.32
577.92	60495.83
578.08	60673.71
578.24	60839.89
578.40	60779.03
578.56	60860.95
578.72	60903.08
578.88	60793.07
579.04	60896.06
579.21	60584.77
579.37	60849.25
579.53	60835.20
579.69	60598.81
579.85	60598.81
580.01	60612.85
580.17	60725.20
580.33	60849.25
580.49	60788.39
580.65	60760.31
580.82	60802.44
580.98	60811.80
581.14	60701.79
581.30	60898.40
581.46	60790.73
581.62	60837.54
581.78	60804.78
581.94	60652.64
582.10	60907.76
582.26	60891.38
582.42	60720.52
582.58	60898.40
582.74	60842.23
582.90	60977.98
583.06	60891.38
583.22	60842.23
583.38	60942.87
583.54	60790.73
583.70	60673.71
583.86	60839.89
584.02	60919.46
584.18	61066.92
584.34	60882.02
584.50	60860.95
584.66	60767.33
584.82	60664.35
584.98	61055.21
585.14	60863.29
585.30	60835.20
585.46	60992.02
585.62	61064.58
585.78	60975.64
585.94	60666.69
586.10	60996.70
586.26	60886.70
586.42	61165.22
586.58	60999.04
586.74	61001.38
586.90	61099.68
587.06	61073.94
587.22	61057.56
587.38	60903.08
587.54	61006.06
587.70	61179.26
587.86	61045.85
588.02	60921.80
588.18	61165.22
588.34	61181.60
588.49	61183.94
