SpectraSuite Data File
++++++++++++++++++++++++++++++++++++
Date: Fri Oct 25 11:25:44 EDT 2013
User: price-jones
Dark Spectrum Present: No
Reference Spectrum Present: No
Number of Sampled Component Spectra: 1
Spectrometers: USB2+H05261
Integration Time (usec): 100000 (USB2+H05261)
Spectra Averaged: 1 (USB2+H05261)
Boxcar Smoothing: 0 (USB2+H05261)
Correct for Electrical Dark: No (USB2+H05261)
Strobe/Lamp Enabled: No (USB2+H05261)
Correct for Detector Non-linearity: No (USB2+H05261)
Correct for Stray Light: No (USB2+H05261)
Number of Pixels in Processed Spectrum: 2048
>>>>>Begin Processed Spectral Data<<<<<
365.73	212.99
365.92	212.99
366.12	212.99
366.32	173.20
366.52	168.52
366.72	224.69
366.91	60.85
367.11	145.11
367.31	93.62
367.51	140.43
367.70	88.94
367.90	161.50
368.10	147.45
368.30	138.09
368.49	63.19
368.69	152.13
368.89	187.24
369.09	152.13
369.28	222.35
369.48	145.11
369.68	196.60
369.87	222.35
370.07	191.92
370.27	180.22
370.47	330.02
370.66	568.75
370.86	667.05
371.06	723.23
371.25	770.04
371.45	690.46
371.65	681.10
371.84	704.50
372.04	660.03
372.24	657.69
372.44	713.86
372.63	744.29
372.83	727.91
373.03	739.61
373.22	739.61
373.42	711.52
373.62	744.29
373.81	711.52
374.01	784.08
374.21	828.55
374.40	788.76
374.60	800.46
374.79	847.27
374.99	774.72
375.19	901.11
375.38	758.33
375.58	770.04
375.78	889.40
375.97	837.91
376.17	784.08
376.37	854.30
376.56	809.83
376.76	861.32
376.95	851.96
377.15	887.06
377.35	910.47
377.54	917.49
377.74	943.24
377.93	910.47
378.13	866.00
378.33	1011.11
378.52	887.06
378.72	926.85
378.91	952.60
379.11	936.21
379.31	919.83
379.50	945.58
379.70	1029.84
379.89	910.47
380.09	1043.88
380.28	1055.58
380.48	1015.79
380.68	1039.20
380.87	985.37
381.07	1025.15
381.26	964.30
381.46	933.87
381.65	1006.43
381.85	1057.92
382.04	1001.75
382.24	1062.60
382.43	1069.62
382.63	1107.07
382.83	952.60
383.02	1102.39
383.22	1139.84
383.41	1081.33
383.61	1116.44
383.80	1018.13
384.00	1135.16
384.19	1088.35
384.39	1062.60
384.58	1177.29
384.78	1064.94
384.97	1132.82
385.17	1130.48
385.36	1057.92
385.56	1121.12
385.75	1104.73
385.95	1153.88
386.14	1193.67
386.34	1235.80
386.53	1174.95
386.72	1231.12
386.92	1198.35
387.11	1160.91
387.31	1240.48
387.50	1317.72
387.70	1256.87
387.89	1252.19
388.09	1268.57
388.28	1240.48
388.48	1308.36
388.67	1390.28
388.86	1282.61
389.06	1322.40
389.25	1348.15
389.45	1266.23
389.64	1427.73
389.84	1291.98
390.03	1371.55
390.22	1427.73
390.42	1390.28
390.61	1390.28
390.81	1369.21
391.00	1488.58
391.19	1411.34
391.39	1472.20
391.58	1483.90
391.78	1458.15
391.97	1451.13
392.16	1479.22
392.36	1558.80
392.55	1427.73
392.75	1549.43
392.94	1570.50
393.13	1448.79
393.33	1565.82
393.52	1547.09
393.71	1500.28
393.91	1629.01
394.10	1629.01
394.29	1603.27
394.49	1486.24
394.68	1629.01
394.88	1643.06
395.07	1600.93
395.26	1668.80
395.46	1640.72
395.65	1802.21
395.84	1741.36
396.04	1792.85
396.23	1839.66
396.42	1729.66
396.62	1645.40
396.81	1767.10
397.00	1823.28
397.19	1823.28
397.39	1764.76
397.58	1762.42
397.77	1825.62
397.97	1832.64
398.16	1820.94
398.35	1839.66
398.55	1888.81
398.74	1851.36
398.93	1973.07
399.12	1912.22
399.32	1914.56
399.51	1877.11
399.70	2052.65
399.90	1928.60
400.09	1947.33
400.28	2099.46
400.47	2012.86
400.67	1963.71
400.86	2118.18
401.05	2064.35
401.24	2146.27
401.44	2022.22
401.63	2139.25
401.82	2062.01
402.01	2097.12
402.21	2090.10
402.40	2148.61
402.59	2172.02
402.78	2162.66
402.97	2251.60
403.17	2279.68
403.36	2293.72
403.55	2310.11
403.74	2277.34
403.93	2279.68
404.13	2380.32
404.32	2317.13
404.51	2401.39
404.70	2319.47
404.89	2396.71
405.09	2429.48
405.28	2434.16
405.47	2466.92
405.66	2502.03
405.85	2495.01
406.05	2537.14
406.24	2600.34
406.43	2495.01
406.62	2588.63
406.81	2672.89
407.00	2588.63
407.20	2600.34
407.39	2679.91
407.58	2640.12
407.77	2656.51
407.96	2803.96
408.15	2579.27
408.34	2626.08
408.54	2829.71
408.73	2736.09
408.92	2761.83
409.11	2810.98
409.30	2839.07
409.49	2841.41
409.68	2820.35
409.87	2902.26
410.07	3096.53
410.26	3005.25
410.45	2965.46
410.64	3000.57
410.83	3059.08
411.02	3110.57
411.21	3066.10
411.40	3129.30
411.59	3159.72
411.78	3272.07
411.98	3138.66
412.17	3236.96
412.36	3325.90
412.55	3227.60
412.74	3480.38
412.93	3442.93
413.12	3318.88
413.31	3431.23
413.50	3471.01
413.69	3398.46
413.88	3695.71
414.07	3641.87
414.26	3585.70
414.45	3686.34
414.64	3669.96
414.83	3552.93
415.02	3782.31
415.22	3794.01
415.41	3911.04
415.60	3873.59
415.79	3978.91
415.98	4014.02
416.17	3847.84
416.36	3962.53
416.55	4002.32
416.74	4046.79
416.93	4140.41
417.12	4224.67
417.31	4227.01
417.50	4072.53
417.69	4327.65
417.88	4180.20
418.07	4231.69
418.26	4283.18
418.45	4376.80
418.64	4428.29
418.83	4463.40
419.02	4500.85
419.21	4465.74
419.39	4559.36
419.58	4297.22
419.77	4393.19
419.96	4475.10
420.15	4535.96
420.34	4519.57
420.53	4603.83
420.72	4657.67
420.91	4681.07
421.10	4638.94
421.29	4587.45
421.48	4711.50
421.67	4720.86
421.86	4758.31
422.05	4753.63
422.24	4851.93
422.43	4840.23
422.61	4800.44
422.80	4971.30
422.99	4851.93
423.18	5015.77
423.37	5235.78
423.56	4889.38
423.75	4880.02
423.94	4805.12
424.13	4582.77
424.32	4704.48
424.50	4983.00
424.69	5132.79
424.88	5132.79
425.07	4954.91
425.26	4908.10
425.45	4980.66
425.64	5032.15
425.83	5034.49
426.01	5085.98
426.20	5238.12
426.39	5151.52
426.58	5078.96
426.77	4959.60
426.96	5043.85
427.15	5228.76
427.33	5238.12
427.52	5006.41
427.71	5170.24
427.90	5207.69
428.09	5366.85
428.28	5380.89
428.46	5308.34
428.65	5404.30
428.84	5481.53
429.03	5437.06
429.22	5327.06
429.40	5497.92
429.59	5474.51
429.78	5350.46
429.97	5245.14
430.16	5547.07
430.34	5652.39
430.53	5785.80
430.72	5504.94
430.91	5540.05
431.10	5551.75
431.28	5769.42
431.47	5710.91
431.66	5884.11
431.85	5858.36
432.03	5713.25
432.22	5968.37
432.41	5813.89
432.60	5930.92
432.79	5916.87
432.97	5905.17
433.16	5989.43
433.35	5895.81
433.54	6066.67
433.72	6176.67
433.91	6113.48
434.10	6183.70
434.28	6108.80
434.47	6188.38
434.66	6188.38
434.85	6167.31
435.03	6328.81
435.22	6132.20
435.41	6417.75
435.59	6345.19
435.78	6513.71
435.97	6267.95
436.16	6303.06
436.34	6377.96
436.53	6567.54
436.72	6832.02
436.90	6429.45
437.09	6595.63
437.28	6614.35
437.46	6576.91
437.65	6593.29
437.84	6846.07
438.02	6808.62
438.21	6707.98
438.40	6810.96
438.58	6754.79
438.77	7030.97
438.96	6949.05
439.14	7105.87
439.33	7059.06
439.52	7140.97
439.70	7225.23
439.89	7524.82
440.08	7279.07
440.26	7190.13
440.45	7234.60
440.63	7482.69
440.82	7405.46
441.01	7662.91
441.19	7588.02
441.38	7651.21
441.57	7716.75
441.75	7740.15
441.94	8079.53
442.12	7875.90
442.31	8093.57
442.50	8100.59
442.68	8018.68
442.87	7913.35
443.05	7946.12
443.24	8088.89
443.43	8072.51
443.61	8124.00
443.80	8280.82
443.98	7960.16
444.17	7899.31
444.35	8437.63
444.54	8205.92
444.73	8362.73
444.91	8336.99
445.10	8341.67
445.28	8360.39
445.47	8301.88
445.65	8194.22
445.84	8381.46
446.02	8374.44
446.21	8360.39
446.39	8299.54
446.58	8393.16
446.77	8355.71
446.95	8292.52
447.14	8414.23
447.32	8758.28
447.51	8463.38
447.69	8423.59
447.88	8358.05
448.06	8456.36
448.25	8512.53
448.43	8435.29
448.62	8667.00
448.80	8667.00
448.99	8526.57
449.17	8737.22
449.36	8645.94
449.54	8608.49
449.73	8854.25
449.91	8905.74
450.10	8877.65
450.28	8978.30
450.46	9041.49
450.65	8933.82
450.83	9130.43
451.02	8833.18
451.20	9167.88
451.39	9327.03
451.57	9146.81
451.76	9011.06
451.94	9041.49
452.13	9413.63
452.31	9434.70
452.49	9132.77
452.68	9430.02
452.86	9441.72
453.05	9287.25
453.23	9685.14
453.42	9284.91
453.60	9317.67
453.78	9516.62
453.97	9444.06
454.15	9605.56
454.34	9385.55
454.52	9689.82
454.70	9720.24
454.89	9626.62
455.07	9717.90
455.26	9830.25
455.44	9858.34
455.62	9870.04
455.81	9818.55
455.99	10085.37
456.17	9818.55
456.36	9853.66
456.54	9980.04
456.73	10118.14
456.91	10551.14
457.09	10424.75
457.28	10459.85
457.46	10267.93
457.64	10593.26
457.83	10277.29
458.01	10452.83
458.19	10626.03
458.38	10391.98
458.56	10747.74
458.74	10679.86
458.93	10530.07
459.11	10516.03
459.29	10560.50
459.48	10780.51
459.66	10752.42
459.84	10743.06
460.03	11082.44
460.21	11000.52
460.39	11028.60
460.57	10878.81
460.76	10972.43
460.94	11260.32
461.12	11250.96
461.31	11005.20
461.49	10988.82
461.67	11077.76
461.85	11583.31
462.04	11234.57
462.22	11566.93
462.40	11515.44
462.59	11538.84
462.77	11466.28
462.95	11726.08
463.13	11648.85
463.32	11578.63
463.50	11595.01
463.68	11536.50
463.86	11618.42
464.05	11487.35
464.23	11580.97
464.41	11873.54
464.59	11485.01
464.78	12100.57
464.96	11953.12
465.14	11751.83
465.32	12009.29
465.50	12196.53
465.69	12042.06
465.87	12088.87
466.05	12016.31
466.23	12046.74
466.41	12287.81
466.60	12468.03
466.78	12416.54
466.96	12229.30
467.14	12086.53
467.32	12425.90
467.51	12311.22
467.69	12100.57
467.87	12276.11
468.05	12554.63
468.23	12358.03
468.41	12617.83
468.60	12517.18
468.78	12690.38
468.96	12617.83
469.14	12805.07
469.32	12774.64
469.50	12587.40
469.69	13107.00
469.87	13097.64
470.05	12835.50
470.23	13111.68
470.41	13076.57
470.59	13195.94
470.77	13151.47
470.95	13132.75
471.14	13233.39
471.32	12769.96
471.50	13418.29
471.68	13528.30
471.86	13657.03
472.04	13474.46
472.22	13909.80
472.40	13748.31
472.58	13654.69
472.77	13958.96
472.95	14181.31
473.13	14464.51
473.31	14033.85
473.49	14366.21
473.67	13830.23
473.85	14464.51
474.03	14525.36
474.21	14403.66
474.39	14712.61
474.57	14679.84
474.75	14682.18
474.93	14817.93
475.12	14918.57
475.30	14881.13
475.48	14979.43
475.66	15047.30
475.84	15044.96
476.02	15236.89
476.20	15115.18
476.38	15627.76
476.56	15964.79
476.74	16032.67
476.92	15878.19
477.10	15728.40
477.28	16006.92
477.46	16002.24
477.64	16327.58
477.82	16369.71
478.00	16645.89
478.18	16645.89
478.36	16901.01
478.54	17151.45
478.72	17088.25
478.90	17198.26
479.08	17561.04
479.26	17444.01
479.44	17752.96
479.62	17624.23
479.80	17907.44
479.98	17865.31
480.16	18389.59
480.34	18342.78
480.52	18335.76
480.70	18284.26
480.88	18480.87
481.06	18843.65
481.24	18738.33
481.41	19056.64
481.59	19276.65
481.77	19566.88
481.95	19288.35
482.13	19562.20
482.31	19627.73
482.49	20243.29
482.67	20318.19
482.85	20442.24
483.03	20404.79
483.21	20603.74
483.39	20985.24
483.57	20524.16
483.74	20975.88
483.92	21427.60
484.10	21348.03
484.28	21371.43
484.46	21928.48
484.64	22302.96
484.82	21872.31
485.00	22640.00
485.18	22628.30
485.35	22977.04
485.53	22824.90
485.71	22815.54
485.89	23295.35
486.07	23260.24
486.25	23501.32
486.43	23651.11
486.61	23861.76
486.78	24037.30
486.96	24088.79
487.14	24437.53
487.32	24257.31
487.50	24929.05
487.68	24634.14
487.85	25343.32
488.03	25373.75
488.21	25544.61
488.39	25668.66
488.57	26118.04
488.75	25752.91
488.92	26389.54
489.10	26623.59
489.28	26586.15
489.46	26747.64
489.64	26780.41
489.81	27159.58
489.99	27866.42
490.17	27672.15
490.35	28238.56
490.53	28119.20
490.70	28151.96
490.88	28100.47
491.06	28671.56
491.24	29024.98
491.41	29041.37
491.59	28945.41
491.77	29324.57
491.95	29315.21
492.13	29755.23
492.30	29558.63
492.48	29898.00
492.66	30202.27
492.84	30082.91
493.01	30373.13
493.19	30370.79
493.37	30969.97
493.54	31089.34
493.72	31285.94
493.90	31358.50
494.08	31454.46
494.25	31793.84
494.43	31931.93
494.61	32278.33
494.79	32336.84
494.96	31889.80
495.14	32493.66
495.32	33223.90
495.49	33277.74
495.67	33001.55
495.85	33319.87
496.02	33626.48
496.20	33769.25
496.38	33846.49
496.55	33979.90
496.73	34300.55
496.91	34375.45
497.09	34525.24
497.26	34548.65
497.44	34572.05
497.62	35093.99
497.79	35168.89
497.97	35182.93
498.14	35824.24
498.32	35957.65
498.50	36458.52
498.67	36517.04
498.85	36500.65
499.03	36034.89
499.20	36774.50
499.38	36980.46
499.56	36629.38
499.73	36947.70
499.91	37376.01
500.08	37525.81
500.26	37518.79
500.44	37666.24
500.61	37659.22
500.79	37539.85
500.97	37654.54
501.14	38462.02
501.32	38359.04
501.49	38267.76
501.67	38487.77
501.84	38817.78
502.02	38855.23
502.20	38546.28
502.37	39129.08
502.55	39271.85
502.72	39482.50
502.90	39210.99
503.07	39433.35
503.25	39819.53
503.43	39337.38
503.60	39971.67
503.78	40116.78
503.95	39889.75
504.13	40069.97
504.30	40191.68
504.48	40292.32
504.65	40381.26
504.83	40704.26
505.01	41078.74
505.18	41158.32
505.36	41294.07
505.53	41280.03
505.71	41383.01
505.88	41366.63
506.06	41209.81
506.23	42029.00
506.41	41696.64
506.58	41834.74
506.76	42082.83
506.93	42335.61
507.11	42080.49
507.28	42637.54
507.46	42866.91
507.63	42911.38
507.81	42902.02
507.98	42855.21
508.16	43054.15
508.33	43033.09
508.50	43440.34
508.68	43281.19
508.85	43482.47
509.03	43707.16
509.20	43828.87
509.38	44062.93
509.55	44002.07
509.73	44280.60
509.90	44783.81
510.08	44381.24
510.25	44638.70
510.42	44619.97
510.60	44531.03
510.77	44924.24
510.95	45184.04
511.12	45102.12
511.30	44549.76
511.47	44931.26
511.64	45759.81
511.82	45867.48
511.99	45319.79
512.17	45558.53
512.34	45722.37
512.51	46218.56
512.69	46181.11
512.86	46382.40
513.04	46375.37
513.21	46424.53
513.38	46387.08
513.56	46424.53
513.73	46469.00
513.90	46724.11
514.08	47065.83
514.25	47166.48
514.43	46930.08
514.60	47459.04
514.77	47262.44
514.95	47779.70
515.12	47459.04
515.29	47164.14
515.47	47798.42
515.64	47807.78
515.81	47236.69
515.99	48250.14
516.16	48184.61
516.33	48210.35
516.51	48327.38
516.68	48385.89
516.85	48252.48
517.03	49177.00
517.20	48673.78
517.37	48215.04
517.54	48655.06
517.72	48786.13
517.89	48968.69
518.06	49017.84
518.24	49312.75
518.41	48945.28
518.58	49312.75
518.75	49373.60
518.93	49495.31
519.10	49455.52
519.27	49378.28
519.45	49595.95
519.62	49736.38
519.79	49921.29
519.96	49848.73
520.14	50003.20
520.31	49521.05
520.48	50204.49
520.65	50251.30
520.83	50279.39
521.00	50274.71
521.17	50096.83
521.34	50461.95
521.52	50387.05
521.69	50869.20
521.86	50696.00
522.03	51070.49
522.20	51166.45
522.38	51463.70
522.55	51199.22
522.72	51367.74
522.89	51203.90
523.07	51606.47
523.24	51594.77
523.41	51452.00
523.58	51384.12
523.75	51756.27
523.92	51573.70
524.10	51840.53
524.27	51880.31
524.44	51791.37
524.61	51915.42
524.78	51892.02
524.96	52037.13
525.13	52058.20
525.30	52350.76
525.47	52376.51
525.64	52348.42
525.81	52428.00
525.98	52453.75
526.16	52589.50
526.33	52498.22
526.50	52896.11
526.67	52615.24
526.84	52596.52
527.01	52463.11
527.18	52783.76
527.36	52800.15
527.53	52811.85
527.70	53083.35
527.87	53263.57
528.04	53017.82
528.21	53371.24
528.38	53212.08
528.55	53429.75
528.72	53497.62
528.89	53614.65
529.07	53396.98
529.24	53092.71
529.41	53539.75
529.58	53612.31
529.75	53478.90
529.92	53738.70
530.09	53846.36
530.26	54068.72
530.43	53923.60
530.60	53485.92
530.77	53656.78
530.94	54192.76
531.11	53748.06
531.28	53848.71
531.46	53897.86
531.63	54218.51
531.80	53993.82
531.97	54312.13
532.14	54087.44
532.31	54452.56
532.48	54410.43
532.65	54623.42
532.82	54377.67
532.99	54475.97
533.16	54277.02
533.33	54663.21
533.50	54773.22
533.67	54742.79
533.84	54604.70
534.01	54630.44
534.18	54536.82
534.35	55208.56
534.52	54958.12
534.69	55145.36
534.86	55054.08
535.03	54777.90
535.20	55000.25
535.37	55229.62
535.54	55267.07
535.71	55213.24
535.88	55496.44
536.05	55295.16
536.22	55557.30
536.38	55482.40
536.55	55325.58
536.72	55346.65
536.89	55386.44
537.06	55199.19
537.23	55643.90
537.40	55508.14
537.57	55781.99
537.74	55561.98
537.91	55877.95
538.08	55569.00
538.25	55625.17
538.42	55503.46
538.59	55962.21
538.75	55763.26
538.92	55716.45
539.09	55964.55
539.26	55966.89
539.43	55941.14
539.60	56144.77
539.77	56285.20
539.94	56545.00
540.11	56388.19
540.28	56261.80
540.44	56212.65
540.61	56299.25
540.78	56156.47
540.95	56362.44
541.12	56217.33
541.29	56278.18
541.46	56545.00
541.62	56533.30
541.79	56500.53
541.96	56186.90
542.13	56671.39
542.30	56547.34
542.47	56762.67
542.63	56842.25
542.80	56849.27
542.97	56959.28
543.14	57013.11
543.31	57008.43
543.48	57205.03
543.64	57073.96
543.81	57277.59
543.98	57125.46
544.15	57205.03
544.32	57284.61
544.48	57221.42
544.65	57181.63
544.82	57209.71
544.99	57148.86
545.16	57478.88
545.32	57219.08
545.49	57399.30
545.66	57490.58
545.83	57406.32
546.00	57598.24
546.16	57680.16
546.33	57609.95
546.50	57394.62
546.67	57822.93
546.83	57528.03
547.00	57616.97
547.17	57588.88
547.34	57710.59
547.50	57820.59
547.67	57762.08
547.84	57865.06
548.00	58049.97
548.17	58010.18
548.34	58087.42
548.51	58017.20
548.67	58017.20
548.84	58108.48
549.01	58007.84
549.18	58017.20
549.34	58206.78
549.51	58143.59
549.68	58377.64
549.84	58185.72
550.01	58344.87
550.18	58138.91
550.34	58309.77
550.51	58195.08
550.68	58218.49
550.84	58134.23
551.01	58398.71
551.18	58403.39
551.34	58248.91
551.51	58408.07
551.68	58443.18
551.84	58487.65
552.01	58260.62
552.18	58454.88
552.34	58464.24
552.51	58543.82
552.68	58536.80
552.84	58452.54
553.01	58890.22
553.18	58836.39
553.34	58735.74
553.51	58616.38
553.67	58831.71
553.84	58892.56
554.01	58899.58
554.17	58808.30
554.34	58880.86
554.51	58590.63
554.67	58883.20
554.84	58869.15
555.00	58899.58
555.17	59075.12
555.33	58920.65
555.50	59028.31
555.67	59032.99
555.83	58880.86
556.00	59061.08
556.16	58934.69
556.33	59091.51
556.50	59302.15
556.66	59100.87
556.83	59035.33
556.99	59119.59
557.16	59325.56
557.32	59416.84
557.49	59568.97
557.65	59222.58
557.82	59206.19
557.98	59168.74
558.15	59398.12
558.32	59332.58
558.48	59229.60
558.65	59220.23
558.81	59236.62
558.98	59447.27
559.14	59604.08
559.31	59426.20
559.47	59664.94
559.64	59599.40
559.80	59412.16
559.97	59688.34
560.13	59458.97
560.30	59826.43
560.46	59405.14
560.63	59650.89
560.79	59625.15
560.96	59934.10
561.12	59554.93
561.29	59702.38
561.45	59683.66
561.61	59730.47
561.78	59786.64
561.94	59531.53
562.11	59786.64
562.27	59962.18
562.44	59845.16
562.60	59817.07
562.77	59903.67
562.93	59737.49
563.10	60013.68
563.26	59859.20
563.42	60128.36
563.59	59887.29
563.75	59711.75
563.92	59810.05
564.08	59835.80
564.24	60030.06
564.41	59917.71
564.57	60205.60
564.74	60048.78
564.90	60025.38
565.07	60041.76
565.23	60126.02
565.39	60086.23
565.56	60126.02
565.72	59915.37
565.88	60198.58
566.05	60013.68
566.21	60006.65
566.38	60037.08
566.54	60018.36
566.70	60065.17
566.87	60109.64
567.03	60044.10
567.19	60289.86
567.36	60191.56
567.52	60217.30
567.68	60308.58
567.85	60193.90
568.01	60275.82
568.17	60121.34
568.34	60343.69
568.50	60427.95
568.66	60065.17
568.83	60385.82
568.99	60437.31
569.15	60240.71
569.32	60301.56
569.48	60119.00
569.64	60453.70
569.81	60250.07
569.97	60116.66
570.13	60458.38
570.30	60182.19
570.46	60280.50
570.62	60402.21
570.78	60247.73
570.95	60432.63
571.11	60509.87
571.27	60409.23
571.43	60463.06
571.60	60566.04
571.76	60416.25
571.92	60331.99
572.09	60430.29
572.25	60444.33
572.41	60467.74
572.57	60575.40
572.74	60605.83
572.90	60622.22
573.06	60458.38
573.22	60645.62
573.38	60432.63
573.55	60629.24
573.71	60779.03
573.87	60530.93
574.03	60722.86
574.20	60720.52
574.36	60392.84
574.52	60575.40
574.68	60584.77
574.84	60767.33
575.01	60692.43
575.17	60601.15
575.33	60477.10
575.49	60554.34
575.65	60467.74
575.82	60657.32
575.98	60945.21
576.14	60987.34
576.30	60699.45
576.46	60673.71
576.62	60664.35
576.79	60598.81
576.95	60516.89
577.11	60687.75
577.27	60652.64
577.43	60589.45
577.59	60676.05
577.75	60493.49
577.92	60516.89
578.08	60931.17
578.24	60685.41
578.40	60767.33
578.56	61029.47
578.72	60739.24
578.88	61001.38
579.04	60734.56
579.21	60657.32
579.37	60692.43
579.53	60839.89
579.69	60643.28
579.85	60828.18
580.01	60706.47
580.17	60509.87
580.33	60872.65
580.49	60755.63
580.65	60811.80
580.82	60720.52
580.98	60657.32
581.14	60608.17
581.30	60959.25
581.46	60781.37
581.62	60933.51
581.78	60865.63
581.94	60980.32
582.10	60783.71
582.26	60938.19
582.42	60701.79
582.58	60954.57
582.74	60968.61
582.90	60760.31
583.06	60786.05
583.22	60662.00
583.38	60804.78
583.54	60786.05
583.70	60832.86
583.86	60863.29
584.02	60907.76
584.18	60926.49
584.34	60736.90
584.50	60748.60
584.66	60767.33
584.82	60699.45
584.98	61076.28
585.14	60999.04
585.30	60830.52
585.46	60933.51
585.62	60926.49
585.78	61064.58
585.94	60582.43
586.10	60891.38
586.26	60968.61
586.42	60961.59
586.58	60938.19
586.74	60954.57
586.90	60790.73
587.06	60802.44
587.22	60926.49
587.38	60961.59
587.54	61130.11
587.70	61137.13
587.86	60992.02
588.02	60907.76
588.18	61296.29
588.34	61095.00
588.49	61066.92
