SpectraSuite Data File
++++++++++++++++++++++++++++++++++++
Date: Fri Oct 25 11:33:08 EDT 2013
User: price-jones
Dark Spectrum Present: No
Reference Spectrum Present: No
Number of Sampled Component Spectra: 1
Spectrometers: USB2+H05261
Integration Time (usec): 100000 (USB2+H05261)
Spectra Averaged: 1 (USB2+H05261)
Boxcar Smoothing: 0 (USB2+H05261)
Correct for Electrical Dark: No (USB2+H05261)
Strobe/Lamp Enabled: No (USB2+H05261)
Correct for Detector Non-linearity: No (USB2+H05261)
Correct for Stray Light: No (USB2+H05261)
Number of Pixels in Processed Spectrum: 2048
>>>>>Begin Processed Spectral Data<<<<<
365.73	297.25
365.92	297.25
366.12	297.25
366.32	217.67
366.52	177.88
366.72	201.29
366.91	191.92
367.11	201.29
367.31	133.41
367.51	203.63
367.70	152.13
367.90	217.67
368.10	201.29
368.30	135.75
368.49	236.39
368.69	210.65
368.89	208.31
369.09	201.29
369.28	177.88
369.48	198.95
369.68	220.01
369.87	133.41
370.07	243.42
370.27	196.60
370.47	344.06
370.66	463.43
370.86	535.98
371.06	603.86
371.25	582.79
371.45	547.69
371.65	503.22
371.84	643.65
372.04	557.05
372.24	592.16
372.44	592.16
372.63	648.33
372.83	629.60
373.03	615.56
373.22	592.16
373.42	660.03
373.62	638.97
373.81	699.82
374.01	622.58
374.21	702.16
374.40	575.77
374.60	589.82
374.79	547.69
374.99	650.67
375.19	660.03
375.38	723.23
375.58	695.14
375.78	706.84
375.97	636.63
376.17	716.20
376.37	655.35
376.56	744.29
376.76	755.99
376.95	711.52
377.15	660.03
377.35	641.31
377.54	650.67
377.74	650.67
377.93	667.05
378.13	732.59
378.33	723.23
378.52	760.67
378.72	744.29
378.91	636.63
379.11	655.35
379.31	634.29
379.50	755.99
379.70	723.23
379.89	819.19
380.09	732.59
380.28	727.91
380.48	718.54
380.68	741.95
380.87	753.65
381.07	716.20
381.26	763.01
381.46	861.32
381.65	816.85
381.85	772.38
382.04	779.40
382.24	709.18
382.43	800.46
382.63	772.38
382.83	821.53
383.02	770.04
383.22	753.65
383.41	819.19
383.61	786.42
383.80	844.93
384.00	814.51
384.19	833.23
384.39	807.48
384.58	844.93
384.78	814.51
384.97	868.34
385.17	884.72
385.36	908.13
385.56	875.36
385.75	908.13
385.95	889.40
386.14	931.53
386.34	854.30
386.53	835.57
386.72	826.21
386.92	912.81
387.11	905.79
387.31	889.40
387.50	919.83
387.70	884.72
387.89	842.59
388.09	873.02
388.28	870.68
388.48	870.68
388.67	926.85
388.86	908.13
389.06	919.83
389.25	877.70
389.45	933.87
389.64	1004.09
389.84	931.53
390.03	1020.47
390.22	940.90
390.42	968.98
390.61	945.58
390.81	961.96
391.00	983.02
391.19	1006.43
391.39	1055.58
391.58	1027.50
391.78	997.07
391.97	961.96
392.16	1050.90
392.36	1062.60
392.55	1111.75
392.75	1062.60
392.94	1100.05
393.13	1146.86
393.33	1076.65
393.52	1114.10
393.71	1095.37
393.91	1116.44
394.10	1090.69
394.29	1071.97
394.49	1132.82
394.68	1203.04
394.88	1004.09
395.07	1139.84
395.26	1153.88
395.46	1139.84
395.65	1086.01
395.84	1179.63
396.04	1242.82
396.23	1247.51
396.42	1196.01
396.62	1247.51
396.81	1240.48
397.00	1338.79
397.19	1200.69
397.39	1268.57
397.58	1256.87
397.77	1217.08
397.97	1266.23
398.16	1217.08
398.35	1303.68
398.55	1210.06
398.74	1198.35
398.93	1343.47
399.12	1327.08
399.32	1270.91
399.51	1277.93
399.70	1315.38
399.90	1371.55
400.09	1427.73
400.28	1423.05
400.47	1362.19
400.67	1416.02
400.86	1413.68
401.05	1467.52
401.24	1469.86
401.44	1481.56
401.63	1390.28
401.82	1575.18
402.01	1486.24
402.21	1570.50
402.40	1558.80
402.59	1509.65
402.78	1549.43
402.97	1462.83
403.17	1535.39
403.36	1537.73
403.55	1526.03
403.74	1612.63
403.93	1614.97
404.13	1584.54
404.32	1603.27
404.51	1605.61
404.70	1680.50
404.89	1643.06
405.09	1729.66
405.28	1685.19
405.47	1659.44
405.66	1657.10
405.85	1654.76
406.05	1699.23
406.24	1746.04
406.43	1771.79
406.62	1781.15
406.81	1891.15
407.00	1785.83
407.20	1741.36
407.39	1792.85
407.58	1888.81
407.77	1916.90
407.96	1753.06
408.15	1851.36
408.34	1816.26
408.54	1989.46
408.73	1912.22
408.92	1902.86
409.11	1942.64
409.30	2026.90
409.49	1987.11
409.68	2083.08
409.87	1921.58
410.07	2064.35
410.26	2125.21
410.45	2087.76
410.64	2127.55
410.83	2033.93
411.02	2057.33
411.21	2209.47
411.40	2237.55
411.59	2183.72
411.78	2242.23
411.98	2132.23
412.17	2260.96
412.36	2214.15
412.55	2270.32
412.74	2349.90
412.93	2333.51
413.12	2396.71
413.31	2392.03
413.50	2251.60
413.69	2431.82
413.88	2574.59
414.07	2483.31
414.26	2490.33
414.45	2476.29
414.64	2438.84
414.83	2628.42
415.02	2647.15
415.22	2654.17
415.41	2794.60
415.60	2691.62
415.79	2630.76
415.98	2738.43
416.17	2743.11
416.36	2799.28
416.55	2740.77
416.74	2853.11
416.93	2771.19
417.12	2808.64
417.31	2925.67
417.50	2899.92
417.69	2890.56
417.88	3028.65
418.07	2986.52
418.26	3002.91
418.45	2939.71
418.64	3030.99
418.83	2981.84
419.02	3023.97
419.21	3192.49
419.39	3192.49
419.58	3075.46
419.77	3028.65
419.96	3138.66
420.15	3166.74
420.34	3199.51
420.53	3150.36
420.72	3297.81
420.91	3218.24
421.10	3339.94
421.29	3262.71
421.48	3218.24
421.67	3414.84
421.86	3356.33
422.05	3449.95
422.24	3361.01
422.43	3386.76
422.61	3353.99
422.80	3314.20
422.99	3382.07
423.18	3452.29
423.37	3449.95
423.56	3454.63
423.75	3473.36
423.94	3447.61
424.13	3293.13
424.32	3293.13
424.50	3370.37
424.69	3520.17
424.88	3506.12
425.07	3449.95
425.26	3363.35
425.45	3424.20
425.64	3412.50
425.83	3365.69
426.01	3478.04
426.20	3590.38
426.39	3604.42
426.58	3431.23
426.77	3531.87
426.96	3595.06
427.15	3517.83
427.33	3754.22
427.52	3595.06
427.71	3557.61
427.90	3693.37
428.09	3630.17
428.28	3791.67
428.46	3726.13
428.65	3672.30
428.84	3758.90
429.03	3864.22
429.22	3786.99
429.40	3761.24
429.59	3751.88
429.78	3620.81
429.97	3637.19
430.16	3882.95
430.34	3892.31
430.53	4037.42
430.72	3810.39
430.91	3988.27
431.10	3906.35
431.28	3978.91
431.47	3920.40
431.66	4016.36
431.85	4018.70
432.03	4102.96
432.22	4032.74
432.41	3955.51
432.60	4074.87
432.79	4065.51
432.97	4138.07
433.16	4191.90
433.35	4056.15
433.54	4243.39
433.72	4133.39
433.91	4149.77
434.10	4287.86
434.28	4189.56
434.47	4301.90
434.66	4290.20
434.85	4339.35
435.03	4421.27
435.22	4449.36
435.41	4442.34
435.59	4362.76
435.78	4285.52
435.97	4404.89
436.16	4447.02
436.34	4430.63
436.53	4496.17
436.72	4610.86
436.90	4393.19
437.09	4517.23
437.28	4491.49
437.46	4589.79
437.65	4559.36
437.84	4704.48
438.02	4704.48
438.21	4578.09
438.40	4580.43
438.58	4777.03
438.77	4931.51
438.96	4795.76
439.14	4830.87
439.33	4940.87
439.52	4840.23
439.70	4968.96
439.89	4865.97
440.08	5036.83
440.26	5036.83
440.45	4954.91
440.63	5146.84
440.82	5093.01
441.01	5184.29
441.19	4990.02
441.38	5305.99
441.57	5317.70
441.75	5376.21
441.94	5390.25
442.12	5437.06
442.31	5423.02
442.50	5385.57
442.68	5486.22
442.87	5483.88
443.05	5624.31
443.24	5659.42
443.43	5486.22
443.61	5467.49
443.80	5825.59
443.98	5526.00
444.17	5490.90
444.35	5621.97
444.54	5811.55
444.73	5664.10
444.91	5577.50
445.10	5776.44
445.28	5715.59
445.47	5659.42
445.65	5825.59
445.84	5633.67
446.02	5881.77
446.21	5701.54
446.39	5603.24
446.58	5816.23
446.77	5734.31
446.95	5607.92
447.14	5689.84
447.32	5816.23
447.51	5846.66
447.69	5776.44
447.88	5844.32
448.06	5874.74
448.25	5729.63
448.43	5874.74
448.62	5872.40
448.80	5937.94
448.99	6052.63
449.17	6029.22
449.36	5757.72
449.54	5921.56
449.73	6125.18
449.91	6136.88
450.10	6143.91
450.28	6108.80
450.46	6197.74
450.65	6106.46
450.83	6242.21
451.02	6289.02
451.20	6340.51
451.39	6303.06
451.57	6125.18
451.76	6251.57
451.94	6218.80
452.13	6335.83
452.31	6237.53
452.49	6202.42
452.68	6394.34
452.86	6436.47
453.05	6494.99
453.23	6565.20
453.42	6260.93
453.60	6413.07
453.78	6457.54
453.97	6455.20
454.15	6537.12
454.34	6420.09
454.52	6576.91
454.70	6675.21
454.89	6609.67
455.07	6726.70
455.26	6604.99
455.44	6792.23
455.62	6672.87
455.81	6700.95
455.99	6874.15
456.17	6754.79
456.36	6719.68
456.54	7023.95
456.73	6965.43
456.91	7103.53
457.09	7075.44
457.28	7173.74
457.46	7059.06
457.64	7162.04
457.83	7225.23
458.01	7070.76
458.19	7180.76
458.38	7183.10
458.56	7260.34
458.74	7110.55
458.93	7236.94
459.11	7166.72
459.29	7178.42
459.48	7269.70
459.66	7157.36
459.84	7524.82
460.03	7494.40
460.21	7391.41
460.39	7241.62
460.57	7588.02
460.76	7442.90
460.94	7592.70
461.12	7735.47
461.31	7595.04
461.49	7602.06
461.67	7379.71
461.85	7852.50
462.04	7763.56
462.22	8149.75
462.40	7899.31
462.59	7852.50
462.77	7791.64
462.95	7854.84
463.13	7955.48
463.32	7831.43
463.50	8161.45
463.68	7903.99
463.86	7892.29
464.05	8018.68
464.23	8002.29
464.41	8067.83
464.59	7836.11
464.78	8079.53
464.96	8074.85
465.14	7936.76
465.32	8088.89
465.50	8149.75
465.69	8236.35
465.87	8156.77
466.05	7894.63
466.23	8187.19
466.41	8231.66
466.60	8329.97
466.78	8304.22
466.96	8344.01
467.14	8210.60
467.32	8348.69
467.51	8470.40
467.69	8304.22
467.87	8505.51
468.05	8393.16
468.23	8627.21
468.41	8505.51
468.60	8465.72
468.78	8531.25
468.96	8482.10
469.14	8704.45
469.32	8709.13
469.50	8353.37
469.69	8748.92
469.87	8699.77
470.05	8814.46
470.23	8809.78
470.41	8786.37
470.59	8917.44
470.77	8877.65
470.95	9022.77
471.14	9060.21
471.32	8889.35
471.50	9125.75
471.68	9202.99
471.86	9263.84
472.04	9226.39
472.22	9394.91
472.40	9348.10
472.58	9291.93
472.77	9394.91
472.95	9399.59
473.13	9778.76
473.31	9626.62
473.49	9764.72
473.67	9540.02
473.85	9610.24
474.03	9813.87
474.21	9685.14
474.39	9785.78
474.57	9694.50
474.75	9900.47
474.93	10108.77
475.12	9977.70
475.30	9970.68
475.48	10127.50
475.66	10366.23
475.84	10092.39
476.02	10310.06
476.20	10499.64
476.38	10445.81
476.56	10651.78
476.74	10499.64
476.92	10427.09
477.10	10579.22
477.28	10546.45
477.46	10820.30
477.64	10836.68
477.82	11084.78
478.00	11339.90
478.18	11103.50
478.36	11454.58
478.54	11386.71
478.72	11253.30
478.90	11688.64
479.08	11716.72
479.26	12006.95
479.44	11751.83
479.62	11857.15
479.80	11903.96
479.98	11934.39
480.16	12262.07
480.34	11960.14
480.52	12203.55
480.70	12365.05
480.88	12135.68
481.06	12486.76
481.24	12489.10
481.41	12575.70
481.59	12716.13
481.77	12901.03
481.95	12891.67
482.13	13167.85
482.31	12884.65
482.49	13556.38
482.67	13483.83
482.85	13664.05
483.03	13776.39
483.21	13750.65
483.39	14132.15
483.57	13951.93
483.74	13942.57
483.92	14083.00
484.10	14010.45
484.28	14530.05
484.46	14738.35
484.64	14801.55
484.82	14874.10
485.00	14860.06
485.18	15098.80
485.35	15159.65
485.53	14949.00
485.71	15101.14
485.89	15438.17
486.07	15344.55
486.25	15550.52
486.43	15695.63
486.61	15875.85
486.78	15971.82
486.96	15861.81
487.14	16276.09
487.32	16266.72
487.50	16496.10
487.68	16638.87
487.85	17067.19
488.03	16830.79
488.21	17195.92
488.39	16924.41
488.57	17383.16
488.75	17343.37
488.92	17848.93
489.10	17778.71
489.28	17699.13
489.46	17909.78
489.64	17797.43
489.81	18380.23
489.99	18235.11
490.17	18239.79
490.35	18539.38
490.53	18869.40
490.70	18941.96
490.88	18838.97
491.06	19089.41
491.24	19042.60
491.41	19300.06
491.59	18937.27
491.77	19349.21
491.95	19520.07
492.13	19894.55
492.30	19920.30
492.48	19854.76
492.66	19932.00
492.84	19983.49
493.01	20226.91
493.19	20067.75
493.37	20266.70
493.54	20821.41
493.72	20524.16
493.90	20725.44
494.08	21043.76
494.25	21036.74
494.43	20802.68
494.61	21692.08
494.79	21390.16
494.96	21703.79
495.14	21785.71
495.32	22071.25
495.49	22237.43
495.67	21968.27
495.85	22097.00
496.02	22309.99
496.20	22410.63
496.38	22640.00
496.55	22857.67
496.73	23119.81
496.91	23108.11
497.09	22796.82
497.26	22944.27
497.44	23508.34
497.62	23344.50
497.79	23571.54
497.97	23627.71
498.14	23627.71
498.32	23718.99
498.50	23868.78
498.67	24058.37
498.85	24063.05
499.03	24091.13
499.20	24212.84
499.38	24297.10
499.56	24608.39
499.73	24809.68
499.91	24704.35
500.08	24978.20
500.26	24617.75
500.44	24755.85
500.61	25039.05
500.79	25111.61
500.97	24938.41
501.14	25135.01
501.32	25397.15
501.49	25355.02
501.67	25816.11
501.84	25797.38
502.02	25649.93
502.20	25984.63
502.37	26010.37
502.55	26064.21
502.72	26319.32
502.90	26324.01
503.07	26281.88
503.25	26712.53
503.43	26354.43
503.60	26768.71
503.78	26536.99
503.95	26944.25
504.13	26679.77
504.30	27199.37
504.48	27143.19
504.65	27276.60
504.83	27300.01
505.01	26862.33
505.18	27400.65
505.36	27868.76
505.53	27627.68
505.71	27363.20
505.88	27695.56
506.06	27632.36
506.23	28037.28
506.41	28081.75
506.58	27957.70
506.76	27988.13
506.93	28194.09
507.11	28364.95
507.28	28456.23
507.46	28311.12
507.63	28130.90
507.81	28727.74
507.98	28367.29
508.16	28912.64
508.33	28608.37
508.50	28989.88
508.68	29172.44
508.85	29209.89
509.03	28891.57
509.20	29427.56
509.38	30008.01
509.55	29455.64
509.73	29542.24
509.90	29582.03
510.08	30033.75
510.25	29783.32
510.42	29778.64
510.60	30352.07
510.77	29860.55
510.95	30424.62
511.12	30209.29
511.30	30508.88
511.47	30515.90
511.64	30616.55
511.82	30955.93
511.99	30075.88
512.17	30911.46
512.34	30759.32
512.51	30955.93
512.69	31220.41
512.86	31311.69
513.04	31482.55
513.21	31161.89
513.38	31407.65
513.56	31129.12
513.73	31538.72
513.90	31014.44
514.08	31260.20
514.25	32009.17
514.43	31742.35
514.60	31833.63
514.77	32074.70
514.95	32348.54
515.12	31995.12
515.29	32093.43
515.47	32051.30
515.64	32336.84
515.81	32149.60
515.99	32395.35
516.16	33209.86
516.33	32680.90
516.51	32751.12
516.68	32456.21
516.85	33053.05
517.03	33074.11
517.20	33069.43
517.37	33015.60
517.54	33362.00
517.72	33352.63
517.89	33280.08
518.06	33656.90
518.24	33242.63
518.41	33439.23
518.58	33385.40
518.75	33528.17
518.93	34068.84
519.10	33338.59
519.27	33975.22
519.45	33991.60
519.62	34007.98
519.79	34106.29
519.96	33930.75
520.14	34405.88
520.31	34099.26
520.48	34366.09
520.65	34656.31
520.83	34487.79
521.00	34583.76
521.17	34515.88
521.34	35063.57
521.52	34930.16
521.69	34754.61
521.86	35309.32
522.03	35416.99
522.20	35199.32
522.38	35309.32
522.55	35168.89
522.72	34960.58
522.89	35386.56
523.07	35557.42
523.24	35445.07
523.41	35442.73
523.58	35250.81
523.75	36240.86
523.92	35536.35
524.10	35906.16
524.27	35873.39
524.44	35976.37
524.61	35875.73
524.78	36346.18
524.96	36334.48
525.13	36381.29
525.30	36683.22
525.47	36362.56
525.64	36514.70
525.81	36912.59
525.98	36694.92
526.16	36746.41
526.33	36510.02
526.50	36811.95
526.67	36603.64
526.84	37179.41
527.01	36858.76
527.18	36931.31
527.36	37638.15
527.53	37219.20
527.70	37373.67
527.87	37055.36
528.04	37069.40
528.21	37366.65
528.38	37469.64
528.55	37462.61
528.72	37074.09
528.89	37193.45
529.07	37233.24
529.24	37652.20
529.41	37998.60
529.58	37832.42
529.75	37883.91
529.92	38080.52
530.09	37755.18
530.26	38239.67
530.43	38115.62
530.60	38080.52
530.77	38223.29
530.94	38195.20
531.11	38029.02
531.28	38192.86
531.46	38602.46
531.63	38649.27
531.80	38335.63
531.97	38609.48
532.14	38740.55
532.31	38541.60
532.48	39227.38
532.65	39028.43
532.82	38911.41
532.99	38487.77
533.16	38824.81
533.33	39206.31
533.50	38998.01
533.67	39054.18
533.84	39119.71
534.01	39203.97
534.18	39124.40
534.35	39784.43
534.52	39636.97
534.69	39742.30
534.86	39924.86
535.03	39288.23
535.20	40093.38
535.37	39814.85
535.54	40194.02
535.71	39976.35
535.88	39634.63
536.05	39468.45
536.22	40137.85
536.38	39665.06
536.55	40332.11
536.72	40154.23
536.89	40060.61
537.06	39878.05
537.23	40343.81
537.40	40168.27
537.57	40018.48
537.74	40109.76
537.91	40650.42
538.08	40589.57
538.25	40285.30
538.42	40816.60
538.59	40919.59
538.75	40547.44
538.92	40596.59
539.09	41074.06
539.26	40950.01
539.43	40753.41
539.60	40713.62
539.77	40832.99
539.94	41223.86
540.11	41436.84
540.28	41273.01
540.44	41420.46
540.61	41134.92
540.78	41315.14
540.95	41703.67
541.12	41228.54
541.29	41368.97
541.46	41333.86
541.62	41308.11
541.79	41368.97
541.96	41448.55
542.13	41177.04
542.30	41614.72
542.47	41752.82
542.63	41827.71
542.80	41752.82
542.97	42047.72
543.14	42192.84
543.31	42174.11
543.48	41811.33
543.64	42714.78
543.81	42391.78
543.98	42660.94
544.15	42270.08
544.32	42270.08
544.48	42979.26
544.65	42349.65
544.82	42401.14
544.99	42120.28
545.16	42822.44
545.32	42799.04
545.49	43007.34
545.66	43402.89
545.83	42948.83
546.00	42843.51
546.16	43100.97
546.33	42885.64
546.50	42728.82
546.67	43564.39
546.83	42705.41
547.00	42801.38
547.17	42932.45
547.34	43337.36
547.50	43276.51
547.67	43615.88
547.84	43381.83
548.00	43583.12
548.17	44353.15
548.34	43454.39
548.51	43761.00
548.67	44013.77
548.84	43470.77
549.01	43580.78
549.18	43742.27
549.34	43997.39
549.51	44205.70
549.68	43578.43
549.84	43728.23
550.01	43768.02
550.18	43667.37
550.34	44280.60
550.51	44116.76
550.68	44669.12
550.84	43620.56
551.01	44301.66
551.18	43964.62
551.34	44147.18
551.51	44257.19
551.68	43894.41
551.84	44423.37
552.01	44397.62
552.18	44463.16
552.34	44409.32
552.51	44577.84
552.68	43840.57
552.84	44411.67
553.01	44404.64
553.18	44432.73
553.34	44650.40
553.51	44472.52
553.67	44914.88
553.84	44573.16
554.01	44500.61
554.17	44570.82
554.34	44795.51
554.51	45113.83
554.67	45284.68
554.84	45134.89
555.00	45057.65
555.17	45099.78
555.33	45144.25
555.50	45050.63
555.67	45155.96
555.83	44802.53
556.00	45045.95
556.16	45214.47
556.33	45272.98
556.50	45038.93
556.66	45415.76
556.83	45413.41
556.99	45727.05
557.16	45577.25
557.32	45455.54
557.49	45474.27
557.65	45373.63
557.82	45420.44
557.98	45537.46
558.15	45490.65
558.32	45691.94
558.48	45467.25
558.65	45663.85
558.81	45907.27
558.98	45790.24
559.14	45298.73
559.31	45916.63
559.47	45535.12
559.64	46054.72
559.80	45954.08
559.97	46143.66
560.13	45680.24
560.30	45705.98
560.46	45825.35
560.63	46052.38
560.79	46138.98
560.96	46225.58
561.12	46291.12
561.29	46445.59
561.45	46272.39
561.61	46192.81
561.78	46064.08
561.94	45890.88
562.11	45942.38
562.27	46377.72
562.44	46007.91
562.60	46230.26
562.77	46403.46
562.93	45909.61
563.10	46286.43
563.26	46459.63
563.42	46759.22
563.59	46021.95
563.75	45872.16
563.92	46286.43
564.08	46347.29
564.24	46307.50
564.41	46560.28
564.57	46405.80
564.74	46323.88
564.90	46272.39
565.07	46621.13
565.23	46363.67
565.39	46258.35
565.56	46457.29
565.72	46555.60
565.88	46490.06
566.05	46719.43
566.21	46536.87
566.38	46712.41
566.54	46426.87
566.70	46604.75
566.87	46890.29
567.03	46878.59
567.19	46937.10
567.36	46773.27
567.52	46724.11
567.68	46965.19
567.85	47068.17
568.01	46646.88
568.17	46820.08
568.34	47234.35
568.50	46511.13
568.66	46419.84
568.83	46515.81
568.99	46939.44
569.15	46358.99
569.32	47447.34
569.48	46843.48
569.64	47077.54
569.81	46958.17
569.97	47093.92
570.13	47391.17
570.30	46801.35
570.46	46658.58
570.62	46911.36
570.78	47044.77
570.95	46850.50
571.11	47421.59
571.27	47114.98
571.43	46752.20
571.60	47189.88
571.76	46813.05
571.92	47023.70
572.09	46902.00
572.25	46876.25
572.41	47065.83
572.57	47330.31
572.74	47562.03
572.90	47086.90
573.06	47192.22
573.22	47587.77
573.38	47072.85
573.55	46925.40
573.71	47674.37
573.87	47550.32
574.03	47400.53
574.20	47470.75
574.36	47395.85
574.52	47374.78
574.68	47234.35
574.84	47725.86
575.01	47753.95
575.17	47447.34
575.33	47407.55
575.49	47096.26
575.65	47447.34
575.82	47353.72
575.98	47143.07
576.14	47711.82
576.30	47580.75
576.46	47487.13
576.62	47220.31
576.79	47140.73
576.95	47143.07
577.11	47615.86
577.27	47054.13
577.43	47391.17
577.59	47503.51
577.75	47065.83
577.92	47175.84
578.08	47648.63
578.24	47330.31
578.40	47861.61
578.56	47681.39
578.72	47213.29
578.88	47351.38
579.04	47157.11
579.21	47636.92
579.37	47363.08
579.53	47964.60
579.69	47461.38
579.85	47608.84
580.01	47356.06
580.17	47358.40
580.33	47810.12
580.49	47178.18
580.65	47913.11
580.82	47351.38
580.98	47435.64
581.14	47124.35
581.30	47517.56
581.46	47510.53
581.62	47496.49
581.78	47285.84
581.94	47669.69
582.10	48126.10
582.26	47772.67
582.42	47657.99
582.58	47732.89
582.74	47735.23
582.90	47882.68
583.06	48161.20
583.22	47655.65
583.38	47496.49
583.54	48116.73
583.70	47650.97
583.86	47819.49
584.02	47714.16
584.18	48016.09
584.34	47765.65
584.50	47810.12
584.66	47983.32
584.82	47669.69
584.98	47866.30
585.14	48020.77
585.30	47402.87
585.46	47812.46
585.62	47791.40
585.78	47796.08
585.94	47531.60
586.10	47828.85
586.26	47512.88
586.42	47920.13
586.58	47510.53
586.74	47999.71
586.90	47337.33
587.06	47552.66
587.22	48044.18
587.38	47913.11
587.54	48112.05
587.70	48390.58
587.86	48088.65
588.02	47524.58
588.18	48062.90
588.34	47409.89
588.49	47976.30
588.65	47608.84
588.81	47636.92
588.97	48163.54
589.13	47597.13
589.29	47915.45
589.45	48060.56
589.61	48318.02
589.77	48140.14
589.93	47873.32
