SpectraSuite Data File
++++++++++++++++++++++++++++++++++++
Date: Fri Oct 25 10:44:07 EDT 2013
User: price-jones
Dark Spectrum Present: No
Reference Spectrum Present: No
Number of Sampled Component Spectra: 1
Spectrometers: USB2+H05261
Integration Time (usec): 100000 (USB2+H05261)
Spectra Averaged: 1 (USB2+H05261)
Boxcar Smoothing: 0 (USB2+H05261)
Correct for Electrical Dark: No (USB2+H05261)
Strobe/Lamp Enabled: No (USB2+H05261)
Correct for Detector Non-linearity: No (USB2+H05261)
Correct for Stray Light: No (USB2+H05261)
Number of Pixels in Processed Spectrum: 2048
>>>>>Begin Processed Spectral Data<<<<<
365.73	86.60
365.92	86.60
366.12	86.60
366.32	51.49
366.52	28.09
366.72	58.51
366.91	32.77
367.11	21.06
367.31	91.28
367.51	28.09
367.70	37.45
367.90	39.79
368.10	63.19
368.30	21.06
368.49	70.22
368.69	23.41
368.89	98.30
369.09	16.38
369.28	56.17
369.48	2.34
369.68	60.85
369.87	30.43
370.07	98.30
370.27	175.54
370.47	138.09
370.66	294.91
370.86	383.85
371.06	465.77
371.25	475.13
371.45	418.96
371.65	421.30
371.84	444.70
372.04	489.17
372.24	491.51
372.44	500.87
372.63	507.90
372.83	512.58
373.03	496.19
373.22	545.34
373.42	543.00
373.62	472.79
373.81	528.96
374.01	601.52
374.21	617.90
374.40	517.26
374.60	550.03
374.79	545.34
374.99	585.13
375.19	524.28
375.38	617.90
375.58	592.16
375.78	533.64
375.97	617.90
376.17	585.13
376.37	589.82
376.56	606.20
376.76	559.39
376.95	641.31
377.15	599.18
377.35	592.16
377.54	564.07
377.74	657.69
377.93	695.14
378.13	702.16
378.33	667.05
378.52	660.03
378.72	645.99
378.91	629.60
379.11	608.54
379.31	636.63
379.50	575.77
379.70	674.07
379.89	697.48
380.09	695.14
380.28	704.50
380.48	716.20
380.68	833.23
380.87	706.84
381.07	777.06
381.26	788.76
381.46	723.23
381.65	697.48
381.85	720.88
382.04	734.93
382.24	851.96
382.43	655.35
382.63	716.20
382.83	702.16
383.02	671.73
383.22	781.74
383.41	678.76
383.61	718.54
383.80	835.57
384.00	774.72
384.19	695.14
384.39	835.57
384.58	741.95
384.78	840.25
384.97	772.38
385.17	863.66
385.36	786.42
385.56	931.53
385.75	826.21
385.95	802.80
386.14	814.51
386.34	725.57
386.53	863.66
386.72	866.00
386.92	842.59
387.11	912.81
387.31	844.93
387.50	856.64
387.70	849.61
387.89	882.38
388.09	866.00
388.28	844.93
388.48	908.13
388.67	901.11
388.86	896.43
389.06	985.37
389.25	1015.79
389.45	966.64
389.64	973.66
389.84	1018.13
390.03	1004.09
390.22	1036.86
390.42	940.90
390.61	1034.52
390.81	1039.20
391.00	997.07
391.19	1076.65
391.39	1043.88
391.58	1043.88
391.78	1039.20
391.97	1095.37
392.16	1071.97
392.36	1008.77
392.55	1011.11
392.75	922.17
392.94	1067.28
393.13	1034.52
393.33	1020.47
393.52	1029.84
393.71	1128.14
393.91	1104.73
394.10	1139.84
394.29	1064.94
394.49	1104.73
394.68	1193.67
394.88	1240.48
395.07	1212.40
395.26	1282.61
395.46	1160.91
395.65	1252.19
395.84	1212.40
396.04	1240.48
396.23	1163.25
396.42	1235.80
396.62	1165.59
396.81	1231.12
397.00	1261.55
397.19	1266.23
397.39	1362.19
397.58	1420.71
397.77	1423.05
397.97	1357.51
398.16	1383.26
398.35	1448.79
398.55	1488.58
398.74	1507.30
398.93	1467.52
399.12	1523.69
399.32	1483.90
399.51	1437.09
399.70	1469.86
399.90	1612.63
400.09	1540.07
400.28	1497.94
400.47	1598.59
400.67	1675.82
400.86	1645.40
401.05	1629.01
401.24	1671.14
401.44	1722.63
401.63	1692.21
401.82	1764.76
402.01	1734.34
402.21	1743.70
402.40	1776.47
402.59	1689.87
402.78	1722.63
402.97	1703.91
403.17	1764.76
403.36	1781.15
403.55	2012.86
403.74	2031.58
403.93	1825.62
404.13	1884.13
404.32	1888.81
404.51	1778.81
404.70	1863.07
404.89	1853.70
405.09	1947.33
405.28	1909.88
405.47	1881.79
405.66	1851.36
405.85	1856.04
406.05	2019.88
406.24	1991.80
406.43	1998.82
406.62	2083.08
406.81	2132.23
407.00	2022.22
407.20	2019.88
407.39	2076.06
407.58	2202.44
407.77	2200.10
407.96	2188.40
408.15	2200.10
408.34	2146.27
408.54	2249.25
408.73	2223.51
408.92	2200.10
409.11	2368.62
409.30	2333.51
409.49	2235.21
409.68	2265.64
409.87	2284.36
410.07	2221.17
410.26	2333.51
410.45	2298.41
410.64	2319.47
410.83	2366.28
411.02	2438.84
411.21	2682.25
411.40	2523.10
411.59	2626.08
411.78	2576.93
411.98	2574.59
412.17	2675.23
412.36	2600.34
412.55	2726.72
412.74	2663.53
412.93	2684.59
413.12	2649.49
413.31	2764.17
413.50	2768.85
413.69	2789.92
413.88	2970.14
414.07	2946.73
414.26	2897.58
414.45	2883.54
414.64	2949.08
414.83	2956.10
415.02	3042.70
415.22	2995.89
415.41	3094.19
415.60	3194.83
415.79	3096.53
415.98	3155.04
416.17	3276.75
416.36	3169.09
416.55	3213.56
416.74	3269.73
416.93	3295.47
417.12	3215.90
417.31	3323.56
417.50	3243.98
417.69	3424.20
417.88	3382.07
418.07	3445.27
418.26	3461.65
418.45	3466.33
418.64	3536.55
418.83	3501.44
419.02	3623.15
419.21	3581.02
419.39	3599.74
419.58	3478.04
419.77	3463.99
419.96	3620.81
420.15	3595.06
420.34	3695.71
420.53	3765.92
420.72	3803.37
420.91	3810.39
421.10	3777.62
421.29	3927.42
421.48	3676.98
421.67	3808.05
421.86	3899.33
422.05	3658.26
422.24	3669.96
422.43	3772.94
422.61	3815.07
422.80	3833.80
422.99	3894.65
423.18	3817.41
423.37	3875.93
423.56	3887.63
423.75	3999.98
423.94	3981.25
424.13	3658.26
424.32	3716.77
424.50	4042.11
424.69	3953.16
424.88	3999.98
425.07	3789.33
425.26	3777.62
425.45	3934.44
425.64	3878.27
425.83	3873.59
426.01	3988.27
426.20	3899.33
426.39	3918.06
426.58	3791.67
426.77	3978.91
426.96	3817.41
427.15	3948.48
427.33	4014.02
427.52	4004.66
427.71	4074.87
427.90	4182.54
428.09	4049.13
428.28	4229.35
428.46	4145.09
428.65	4049.13
428.84	4269.14
429.03	4203.60
429.22	3976.57
429.40	4161.47
429.59	4079.55
429.78	3920.40
429.97	3913.38
430.16	3978.91
430.34	4159.13
430.53	4131.05
430.72	4133.39
430.91	4180.20
431.10	4173.18
431.28	4468.08
431.47	4528.94
431.66	4587.45
431.85	4360.42
432.03	4620.22
432.22	4608.51
432.41	4615.54
432.60	4739.58
432.79	4751.29
432.97	4641.28
433.16	4744.27
433.35	4638.94
433.54	4615.54
433.72	4777.03
433.91	4641.28
434.10	4667.03
434.28	4695.11
434.47	4718.52
434.66	4884.70
434.85	4924.49
435.03	5046.20
435.22	4873.00
435.41	5128.11
435.59	4971.30
435.78	5123.43
435.97	5111.73
436.16	5020.45
436.34	5093.01
436.53	5062.58
436.72	5308.34
436.90	5219.39
437.09	5259.18
437.28	5142.16
437.46	5062.58
437.65	5247.48
437.84	5121.09
438.02	5111.73
438.21	5336.42
438.40	5193.65
438.58	5439.40
438.77	5277.91
438.96	5313.02
439.14	5465.15
439.33	5736.65
439.52	5568.13
439.70	5469.83
439.89	5610.26
440.08	5715.59
440.26	5781.12
440.45	5820.91
440.63	5954.32
440.82	5944.96
441.01	5870.06
441.19	5933.26
441.38	5928.58
441.57	5944.96
441.75	6148.59
441.94	6270.30
442.12	6204.76
442.31	6298.38
442.50	6232.85
442.68	6218.80
442.87	6370.94
443.05	6174.33
443.24	6492.65
443.43	6485.62
443.61	6441.15
443.80	6715.00
443.98	6314.77
444.17	6216.46
444.35	6422.43
444.54	6597.97
444.73	6654.14
444.91	6338.17
445.10	6504.35
445.28	6312.42
445.47	6459.88
445.65	6406.05
445.84	6607.33
446.02	6513.71
446.21	6649.46
446.39	6647.12
446.58	6715.00
446.77	6712.66
446.95	6499.67
447.14	6705.63
447.32	6778.19
447.51	6555.84
447.69	6787.55
447.88	6738.40
448.06	6726.70
448.25	6843.73
448.43	6696.27
448.62	6722.02
448.80	6836.70
448.99	6897.56
449.17	6773.51
449.36	6935.01
449.54	6864.79
449.73	7028.63
449.91	7260.34
450.10	7187.79
450.28	7159.70
450.46	7166.72
450.65	7173.74
450.83	7159.70
451.02	7225.23
451.20	7239.28
451.39	7218.21
451.57	7122.25
451.76	7173.74
451.94	7112.89
452.13	7131.61
452.31	7157.36
452.49	6939.69
452.68	7073.10
452.86	7126.93
453.05	7274.38
453.23	7272.04
453.42	7328.22
453.60	7166.72
453.78	7419.50
453.97	7396.09
454.15	7346.94
454.34	7417.16
454.52	7461.63
454.70	7513.12
454.89	7419.50
455.07	7438.22
455.26	7616.10
455.44	7721.43
455.62	7602.06
455.81	7749.51
455.99	7850.16
456.17	7775.26
456.36	7758.88
456.54	7683.98
456.73	8016.33
456.91	8021.02
457.09	8154.43
457.28	8236.35
457.46	7871.22
457.64	8058.46
457.83	8095.91
458.01	7962.50
458.19	8313.58
458.38	8215.28
458.56	8425.93
458.74	8170.81
458.93	8091.23
459.11	8229.32
459.29	8243.37
459.48	8336.99
459.66	8397.84
459.84	8234.00
460.03	8531.25
460.21	8503.17
460.39	8688.07
460.57	8603.81
460.76	8461.04
460.94	8809.78
461.12	8564.02
461.31	8734.88
461.49	8655.30
461.67	8648.28
461.85	8769.99
462.04	8760.63
462.22	9261.50
462.40	8833.18
462.59	8847.22
462.77	8844.88
462.95	8816.80
463.13	8741.90
463.32	8896.38
463.50	8854.25
463.68	9029.79
463.86	9090.64
464.05	8905.74
464.23	8847.22
464.41	9055.53
464.59	8842.54
464.78	9224.05
464.96	8997.02
465.14	9015.74
465.32	9343.42
465.50	9207.67
465.69	9404.27
465.87	9032.13
466.05	9034.47
466.23	9151.49
466.41	8875.31
466.60	9200.65
466.78	9039.15
466.96	9207.67
467.14	9266.18
467.32	9390.23
467.51	9394.91
467.69	9165.54
467.87	9558.75
468.05	9483.85
468.23	9366.82
468.41	9380.87
468.60	9317.67
468.78	9575.13
468.96	9518.96
469.14	9509.60
469.32	9605.56
469.50	9465.13
469.69	9872.38
469.87	9692.16
470.05	9907.49
470.23	9802.16
470.41	9767.06
470.59	10085.37
470.77	9930.89
470.95	9954.30
471.14	10031.54
471.32	9926.21
471.50	10153.24
471.68	10300.70
471.86	10401.34
472.04	10408.36
472.22	10707.95
472.40	10214.10
472.58	10291.34
472.77	10509.01
472.95	10246.87
473.13	10820.30
473.31	10476.24
473.49	10441.13
473.67	10668.16
473.85	10579.22
474.03	10913.92
474.21	10946.69
474.39	10967.75
474.57	11049.67
474.75	11147.97
474.93	11353.94
475.12	11227.55
475.30	11082.44
475.48	11213.51
475.66	11232.23
475.84	11269.68
476.02	11372.66
476.20	11470.97
476.38	11613.74
476.56	11903.96
476.74	11927.37
476.92	11878.22
477.10	11957.80
477.28	12051.42
477.46	11999.93
477.64	12063.12
477.82	12327.60
478.00	12416.54
478.18	12444.63
478.36	12397.82
478.54	12503.14
478.72	12767.62
478.90	12903.37
479.08	13128.06
479.26	13163.17
479.44	13128.06
479.62	13163.17
479.80	13188.92
479.98	13399.57
480.16	13678.09
480.34	13348.08
480.52	13696.82
480.70	13792.78
480.88	13603.19
481.06	13900.44
481.24	13970.66
481.41	14108.75
481.59	14258.54
481.77	14075.98
481.95	14406.00
482.13	14679.84
482.31	14501.96
482.49	14906.87
482.67	14918.57
482.85	15042.62
483.03	15321.15
483.21	15330.51
483.39	15131.56
483.57	15276.68
483.74	15583.29
483.92	15522.43
484.10	15658.18
484.28	15953.09
484.46	15882.88
484.64	16318.22
484.82	16088.84
485.00	16140.33
485.18	16573.33
485.35	16446.94
485.53	16107.57
485.71	16095.86
485.89	16517.16
486.07	16575.67
486.25	16496.10
486.43	16730.15
486.61	17011.01
486.78	17132.72
486.96	17242.73
487.14	17790.41
487.32	17818.50
487.50	17827.86
487.68	18003.40
487.85	18310.01
488.03	18412.99
488.21	18530.02
488.39	18511.30
488.57	18864.72
488.75	18981.74
488.92	18892.80
489.10	19255.59
489.28	19302.40
489.46	19648.80
489.64	19704.97
489.81	19812.63
489.99	20119.24
490.17	20187.12
490.35	20706.72
490.53	20112.22
490.70	20582.67
490.88	20538.20
491.06	20629.48
491.24	20760.55
491.41	20826.09
491.59	20744.17
491.77	20915.03
491.95	21123.33
492.13	21355.05
492.30	21397.18
492.48	21891.03
492.66	21949.54
492.84	21844.22
493.01	21996.35
493.19	21958.91
493.37	22015.08
493.54	22305.31
493.72	22518.29
493.90	22588.51
494.08	22831.93
494.25	23101.09
494.43	22981.72
494.61	23386.63
494.79	23157.26
494.96	23227.48
495.14	23573.88
495.32	23908.57
495.49	23463.87
495.67	23927.30
495.85	24182.42
496.02	24194.12
496.20	23985.81
496.38	24467.96
496.55	24891.60
496.73	24898.62
496.91	25041.39
497.09	24950.11
497.26	25216.93
497.44	25418.22
497.62	25083.52
497.79	25390.13
497.97	25245.02
498.14	25331.62
498.32	25373.75
498.50	25458.01
498.67	26249.11
498.85	25867.60
499.03	25928.45
499.20	25926.11
499.38	26314.64
499.56	26412.95
499.73	26066.55
499.91	26712.53
500.08	26204.64
500.26	26579.12
500.44	26874.03
500.61	26368.48
500.79	26799.13
500.97	26768.71
501.14	27147.87
501.32	27335.12
501.49	27058.93
501.67	27089.36
501.84	27707.26
502.02	27353.84
502.20	27503.64
502.37	27962.38
502.55	28063.02
502.72	28264.31
502.90	28093.45
503.07	28081.75
503.25	28360.27
503.43	27611.30
503.60	28233.88
503.78	28343.89
503.95	28367.29
504.13	28247.93
504.30	28432.83
504.48	28474.96
504.65	29050.73
504.83	28809.65
505.01	29163.08
505.18	29078.82
505.36	29465.00
505.53	29734.17
505.71	29252.02
505.88	29661.61
506.06	29521.18
506.23	29415.85
506.41	29607.78
506.58	29951.84
506.76	29804.38
506.93	30146.10
507.11	30033.75
507.28	30029.07
507.46	29717.78
507.63	30125.04
507.81	30824.86
507.98	30118.01
508.16	30403.56
508.33	30817.83
508.50	30543.99
508.68	30759.32
508.85	31253.17
509.03	31297.64
509.20	31473.18
509.38	31295.30
509.55	31007.42
509.73	31021.46
509.90	31391.26
510.08	31405.31
510.25	31325.73
510.42	31381.90
510.60	31524.68
510.77	31831.29
510.95	32114.49
511.12	32259.60
511.30	32114.49
511.47	32311.10
511.64	32559.19
511.82	32863.46
511.99	31716.60
512.17	32615.37
512.34	32154.28
512.51	32154.28
512.69	32716.01
512.86	33027.30
513.04	32531.11
513.21	33003.89
513.38	32814.31
513.56	32821.33
513.73	32811.97
513.90	32926.66
514.08	33308.16
514.25	32744.09
514.43	33305.82
514.60	33146.67
514.77	33202.84
514.95	33909.68
515.12	33195.82
515.29	33617.11
515.47	34235.02
515.64	33970.54
515.81	33673.29
515.99	33991.60
516.16	33570.30
516.33	33401.79
516.51	33294.12
516.68	33479.02
516.85	33387.74
517.03	33544.56
517.20	33649.88
517.37	34284.17
517.54	34368.43
517.72	34639.93
517.89	33921.38
518.06	34316.93
518.24	34026.71
518.41	34361.40
518.58	34796.74
518.75	34686.74
518.93	35101.01
519.10	34719.51
519.27	34927.81
519.45	35145.48
519.62	35281.24
519.79	35351.45
519.96	35089.31
520.14	35751.68
520.31	35260.17
520.48	35601.89
520.65	35632.32
520.83	35363.15
521.00	36205.75
521.17	36243.20
521.34	36397.67
521.52	35864.03
521.69	36210.43
521.86	36201.07
522.03	35896.80
522.20	36708.96
522.38	36158.94
522.55	36512.36
522.72	36217.45
522.89	36154.26
523.07	36678.54
523.24	36542.78
523.41	36975.78
523.58	36851.73
523.75	37010.89
523.92	36959.40
524.10	37092.81
524.27	37235.58
524.44	36992.17
524.61	37551.56
524.78	37546.87
524.96	37923.70
525.13	37624.11
525.30	37794.97
525.47	37820.72
525.64	37888.59
525.81	37418.14
525.98	37570.28
526.16	37401.76
526.33	37539.85
526.50	37790.29
526.67	37038.98
526.84	37600.71
527.01	37406.44
527.18	37694.33
527.36	38251.38
527.53	38057.11
527.70	38361.38
527.87	38522.88
528.04	38345.00
528.21	38595.43
528.38	38288.82
528.55	38848.21
528.72	38770.97
528.89	39159.50
529.07	38871.62
529.24	39019.07
529.41	38703.10
529.58	38745.23
529.75	39108.01
529.92	38923.11
530.09	39077.58
530.26	39470.79
530.43	39533.99
530.60	38979.28
530.77	39466.11
530.94	39777.40
531.11	39405.26
531.28	39356.11
531.46	39414.62
531.63	39800.81
531.80	39491.86
531.97	39433.35
532.14	38815.44
532.31	39143.12
532.48	39622.93
532.65	39658.04
532.82	39526.97
532.99	39744.64
533.16	39754.00
533.33	40306.37
533.50	40196.36
533.67	40065.29
533.84	40142.53
534.01	39995.07
534.18	39643.99
534.35	39913.16
534.52	40229.13
534.69	40521.69
534.86	40617.66
535.03	40477.22
535.20	41254.28
535.37	40889.16
535.54	40942.99
535.71	40634.04
535.88	40865.75
536.05	40954.69
536.22	40832.99
536.38	41057.68
536.55	40629.36
536.72	40994.48
536.89	40236.15
537.06	40755.75
537.23	40945.33
537.40	41179.39
537.57	41038.95
537.74	41441.53
537.91	41275.35
538.08	41347.90
538.25	41125.55
538.42	41013.21
538.59	41549.19
538.75	41041.29
538.92	41401.74
539.09	41663.88
539.26	41177.04
539.43	41577.28
539.60	41694.30
539.77	41415.78
539.94	41350.24
540.11	41954.10
540.28	41713.03
540.44	41729.41
540.61	41794.95
540.78	41361.95
540.95	41507.06
541.12	41525.78
541.29	41827.71
541.46	41926.02
541.62	41801.97
541.79	42136.66
541.96	41504.72
542.13	41911.97
542.30	42363.70
542.47	41942.40
542.63	41780.90
542.80	42150.71
542.97	42433.91
543.14	42621.16
543.31	42663.28
543.48	43124.37
543.64	43232.04
543.81	43044.79
543.98	43091.60
544.15	42642.22
544.32	42906.70
544.48	42920.74
544.65	42749.88
544.82	42784.99
544.99	42672.65
545.16	43023.73
545.32	42815.42
545.49	43344.38
545.66	43000.32
545.83	43253.10
546.00	43456.73
546.16	43356.08
546.33	42976.92
546.50	43021.39
546.67	43480.13
546.83	43351.40
547.00	43349.06
547.17	42831.80
547.34	43318.64
547.50	43583.12
547.67	43358.42
547.84	43510.56
548.00	43484.81
548.17	43608.86
548.34	44013.77
548.51	43929.51
548.67	43309.27
548.84	43636.95
549.01	44004.41
549.18	43676.74
549.34	44299.32
549.51	43941.22
549.68	43447.36
549.84	43952.92
550.01	44495.92
550.18	43913.13
550.34	44133.14
550.51	44252.51
550.68	43636.95
550.84	43917.81
551.01	44341.45
551.18	43564.39
551.34	44154.21
551.51	44395.28
551.68	44648.06
551.84	44559.12
552.01	44381.24
552.18	44247.83
552.34	43938.88
552.51	44378.90
552.68	44477.20
552.84	44760.40
553.01	44414.01
553.18	44348.47
553.34	44584.86
553.51	44430.39
553.67	44648.06
553.84	45015.52
554.01	44624.65
554.17	45242.56
554.34	45015.52
554.51	44498.26
554.67	44924.24
554.84	44832.96
555.00	45006.16
555.17	44622.31
555.33	44844.66
555.50	44823.60
555.67	44765.09
555.83	44645.72
556.00	45155.96
556.16	45031.91
556.33	45162.98
556.50	45256.60
556.66	45050.63
556.83	44685.51
556.99	44992.12
557.16	45209.79
557.32	45357.24
557.49	45134.89
557.65	45298.73
557.82	45141.91
557.98	45319.79
558.15	45261.28
558.32	45170.00
558.48	44783.81
558.65	45289.37
558.81	45319.79
558.98	44919.56
559.14	45256.60
559.31	45088.08
559.47	45610.02
559.64	45619.38
559.80	45336.18
559.97	45441.50
560.13	45083.40
560.30	45207.45
560.46	45380.65
560.63	45572.57
560.79	45813.65
560.96	45801.94
561.12	45549.17
561.29	45385.33
561.45	45743.43
561.61	45256.60
561.78	45441.50
561.94	45017.86
562.11	45294.05
562.27	45305.75
562.44	45588.95
562.60	45574.91
562.77	45897.91
562.93	45560.87
563.10	45815.99
563.26	45399.37
563.42	45769.18
563.59	45570.23
563.75	45853.44
563.92	46181.11
564.08	45869.82
564.24	45780.88
564.41	45701.30
564.57	46031.32
564.74	45867.48
564.90	45916.63
565.07	45675.55
565.23	45488.31
565.39	45900.25
565.56	45867.48
565.72	45336.18
565.88	46141.32
566.05	45411.07
566.21	45727.05
566.38	45818.33
566.54	46082.81
566.70	46160.05
566.87	46543.89
567.03	45762.15
567.19	46026.63
567.36	46307.50
567.52	45958.76
567.68	45621.72
567.85	46050.04
568.01	45942.38
568.17	45998.55
568.34	45961.10
568.50	46183.45
568.66	45918.97
568.83	45647.47
568.99	45607.68
569.15	46183.45
569.32	45911.95
569.48	45755.13
569.64	46183.45
569.81	46380.06
569.97	45823.01
570.13	46490.06
570.30	45539.80
570.46	45738.75
570.62	45743.43
570.78	45603.00
570.95	45766.84
571.11	46040.68
571.27	45928.33
571.43	45752.79
571.60	46363.67
571.76	46227.92
571.92	45909.61
572.09	46595.38
572.25	45972.80
572.41	46326.22
572.57	46391.76
572.74	46667.94
572.90	45888.54
573.06	46344.95
573.22	46202.18
573.38	46089.83
573.55	45766.84
573.71	46541.55
573.87	46433.89
574.03	46024.29
574.20	46174.09
574.36	46206.86
574.52	45780.88
574.68	45923.65
574.84	45951.74
575.01	45986.85
575.17	46026.63
575.33	46080.47
575.49	45556.19
575.65	46131.96
575.82	46127.28
575.98	46342.61
576.14	46405.80
576.30	46300.48
576.46	46082.81
576.62	46033.66
576.79	46190.47
576.95	45975.14
577.11	46204.52
577.27	46066.42
577.43	46340.27
577.59	45682.58
577.75	45696.62
577.92	45780.88
578.08	46082.81
578.24	45792.58
578.40	46183.45
578.56	46305.16
578.72	46162.39
578.88	46536.87
579.04	46368.35
579.21	45947.06
579.37	46270.05
579.53	46321.54
579.69	46319.20
579.85	46263.03
580.01	46199.83
580.17	46286.43
580.33	46373.03
580.49	46078.13
580.65	46639.86
580.82	46199.83
580.98	45921.31
581.14	45656.83
581.30	46136.64
581.46	46447.93
581.62	46305.16
581.78	46326.22
581.94	46550.91
582.10	45965.78
582.26	46485.38
582.42	46202.18
582.58	46361.33
582.74	46202.18
582.90	46223.24
583.06	46328.56
583.22	46183.45
583.38	46260.69
583.54	46555.60
583.70	46375.37
583.86	46340.27
584.02	46195.15
584.18	46167.07
584.34	46019.61
584.50	46422.19
584.66	46295.80
584.82	46176.43
584.98	46724.11
585.14	46628.15
585.30	46213.88
585.46	46815.40
585.62	45935.35
585.78	46457.29
585.94	46195.15
586.10	46312.18
586.26	46171.75
586.42	46445.59
586.58	46405.80
586.74	45965.78
586.90	45895.56
587.06	46146.00
587.22	46333.24
587.38	46094.51
587.54	46557.94
587.70	46571.98
587.86	45925.99
588.02	46588.36
588.18	46351.97
588.34	46380.06
588.49	45471.93
588.65	45368.94
588.81	45837.05
588.97	45888.54
589.13	45921.31
589.29	46171.75
589.45	46246.65
589.61	45909.61
589.77	46183.45
589.93	46452.61
