SpectraSuite Data File
++++++++++++++++++++++++++++++++++++
Date: Fri Oct 25 11:23:15 EDT 2013
User: price-jones
Dark Spectrum Present: No
Reference Spectrum Present: No
Number of Sampled Component Spectra: 1
Spectrometers: USB2+H05261
Integration Time (usec): 100000 (USB2+H05261)
Spectra Averaged: 1 (USB2+H05261)
Boxcar Smoothing: 0 (USB2+H05261)
Correct for Electrical Dark: No (USB2+H05261)
Strobe/Lamp Enabled: No (USB2+H05261)
Correct for Detector Non-linearity: No (USB2+H05261)
Correct for Stray Light: No (USB2+H05261)
Number of Pixels in Processed Spectrum: 2048
>>>>>Begin Processed Spectral Data<<<<<
365.73	280.86
365.92	280.86
366.12	280.86
366.32	86.60
366.52	91.28
366.72	180.22
366.91	145.11
367.11	154.48
367.31	142.77
367.51	32.77
367.70	72.56
367.90	107.66
368.10	100.64
368.30	121.71
368.49	84.26
368.69	135.75
368.89	107.66
369.09	126.39
369.28	166.18
369.48	217.67
369.68	154.48
369.87	145.11
370.07	161.50
370.27	163.84
370.47	318.31
370.66	514.92
370.86	599.18
371.06	671.73
371.25	678.76
371.45	681.10
371.65	667.05
371.84	671.73
372.04	620.24
372.24	683.44
372.44	653.01
372.63	699.82
372.83	674.07
373.03	737.27
373.22	765.36
373.42	699.82
373.62	699.82
373.81	772.38
374.01	767.70
374.21	868.34
374.40	791.10
374.60	882.38
374.79	788.76
374.99	784.08
375.19	952.60
375.38	821.53
375.58	826.21
375.78	908.13
375.97	837.91
376.17	873.02
376.37	795.78
376.56	870.68
376.76	875.36
376.95	875.36
377.15	903.45
377.35	933.87
377.54	870.68
377.74	896.43
377.93	849.61
378.13	842.59
378.33	961.96
378.52	903.45
378.72	947.92
378.91	997.07
379.11	929.19
379.31	931.53
379.50	997.07
379.70	976.00
379.89	971.32
380.09	1020.47
380.28	912.81
380.48	957.28
380.68	905.79
380.87	987.71
381.07	983.02
381.26	1034.52
381.46	1069.62
381.65	1001.75
381.85	1015.79
382.04	1011.11
382.24	1064.94
382.43	1086.01
382.63	1078.99
382.83	1039.20
383.02	1193.67
383.22	1160.91
383.41	1233.46
383.61	1118.78
383.80	1142.18
384.00	1114.10
384.19	1137.50
384.39	1163.25
384.58	1062.60
384.78	1214.74
384.97	1050.90
385.17	1207.72
385.36	1132.82
385.56	1116.44
385.75	1174.95
385.95	1144.52
386.14	1184.31
386.34	1210.06
386.53	1177.29
386.72	1177.29
386.92	1207.72
387.11	1252.19
387.31	1181.97
387.50	1284.95
387.70	1280.27
387.89	1263.89
388.09	1252.19
388.28	1261.55
388.48	1224.10
388.67	1362.19
388.86	1291.98
389.06	1310.70
389.25	1357.51
389.45	1313.04
389.64	1306.02
389.84	1343.47
390.03	1357.51
390.22	1397.30
390.42	1401.98
390.61	1376.24
390.81	1434.75
391.00	1444.11
391.19	1432.41
391.39	1406.66
391.58	1462.83
391.78	1460.49
391.97	1437.09
392.16	1423.05
392.36	1551.78
392.55	1535.39
392.75	1406.66
392.94	1483.90
393.13	1432.41
393.33	1554.12
393.52	1507.30
393.71	1647.74
393.91	1460.49
394.10	1575.18
394.29	1696.89
394.49	1640.72
394.68	1652.42
394.88	1593.90
395.07	1776.47
395.26	1713.27
395.46	1701.57
395.65	1682.85
395.84	1748.38
396.04	1809.23
396.23	1717.95
396.42	1729.66
396.62	1783.49
396.81	1809.23
397.00	1753.06
397.19	1797.53
397.39	1799.87
397.58	1893.49
397.77	1834.98
397.97	1893.49
398.16	1902.86
398.35	1827.96
398.55	1809.23
398.74	1879.45
398.93	1944.99
399.12	1980.09
399.32	1944.99
399.51	2052.65
399.70	2059.67
399.90	1928.60
400.09	1954.35
400.28	2064.35
400.47	2120.53
400.67	2040.95
400.86	2120.53
401.05	2069.03
401.24	2038.61
401.44	2162.66
401.63	2136.91
401.82	2181.38
402.01	2160.31
402.21	2179.04
402.40	2143.93
402.59	2207.13
402.78	2186.06
402.97	2258.62
403.17	2195.42
403.36	2218.83
403.55	2282.02
403.74	2258.62
403.93	2303.09
404.13	2373.30
404.32	2415.43
404.51	2314.79
404.70	2431.82
404.89	2377.98
405.09	2499.69
405.28	2415.43
405.47	2548.84
405.66	2431.82
405.85	2516.08
406.05	2586.29
406.24	2530.12
406.43	2471.61
406.62	2635.44
406.81	2654.17
407.00	2602.68
407.20	2583.95
407.39	2642.46
407.58	2761.83
407.77	2752.47
407.96	2745.45
408.15	2738.43
408.34	2724.38
408.54	2843.75
408.73	2829.71
408.92	2916.31
409.11	2916.31
409.30	2956.10
409.49	2930.35
409.68	2827.37
409.87	2967.80
410.07	2981.84
410.26	3185.47
410.45	3152.70
410.64	3028.65
410.83	3105.89
411.02	3073.12
411.21	3206.53
411.40	3213.56
411.59	3300.16
411.78	3218.24
411.98	3337.60
412.17	3157.38
412.36	3304.84
412.55	3508.46
412.74	3375.05
412.93	3459.31
413.12	3358.67
413.31	3625.49
413.50	3517.83
413.69	3471.01
413.88	3716.77
414.07	3693.37
414.26	3625.49
414.45	3716.77
414.64	3772.94
414.83	3768.26
415.02	3777.62
415.22	3871.25
415.41	3812.73
415.60	3936.78
415.79	3892.31
415.98	3967.21
416.17	3939.12
416.36	4044.45
416.55	4044.45
416.74	4273.82
416.93	4037.42
417.12	4243.39
417.31	4222.33
417.50	4264.46
417.69	4421.27
417.88	4243.39
418.07	4271.48
418.26	4283.18
418.45	4425.95
418.64	4479.79
418.83	4297.22
419.02	4421.27
419.21	4559.36
419.39	4554.68
419.58	4444.68
419.77	4447.02
419.96	4510.21
420.15	4631.92
420.34	4531.28
420.53	4634.26
420.72	4669.37
420.91	4704.48
421.10	4716.18
421.29	4873.00
421.48	4758.31
421.67	4873.00
421.86	4910.44
422.05	4856.61
422.24	4835.55
422.43	4884.70
422.61	4880.02
422.80	4936.19
422.99	4973.64
423.18	4882.36
423.37	5083.64
423.56	4875.34
423.75	4983.00
423.94	4823.84
424.13	4760.65
424.32	4751.29
424.50	5011.09
424.69	5135.14
424.88	4997.04
425.07	5053.22
425.26	4952.57
425.45	5001.72
425.64	4877.68
425.83	4919.81
426.01	5046.20
426.20	5146.84
426.39	5165.56
426.58	5195.99
426.77	5039.17
426.96	5268.55
427.15	5041.51
427.33	5217.05
427.52	5324.72
427.71	5261.52
427.90	5219.39
428.09	5128.11
428.28	5481.53
428.46	5355.15
428.65	5261.52
428.84	5455.79
429.03	5575.16
429.22	5298.97
429.40	5401.96
429.59	5394.93
429.78	5462.81
429.97	5394.93
430.16	5547.07
430.34	5678.14
430.53	5668.78
430.72	5657.07
430.91	5757.72
431.10	5701.54
431.28	5748.36
431.47	5764.74
431.66	5996.45
431.85	5926.24
432.03	5942.62
432.22	5930.92
432.41	5912.19
432.60	6092.41
432.79	5926.24
432.97	6038.58
433.16	5940.28
433.35	5984.75
433.54	6125.18
433.72	6193.06
433.91	6221.14
434.10	6277.32
434.28	6190.72
434.47	6282.00
434.66	6286.68
434.85	6422.43
435.03	6473.92
435.22	6335.83
435.41	6455.20
435.59	6562.86
435.78	6516.05
435.97	6651.80
436.16	6377.96
436.34	6473.92
436.53	6513.71
436.72	6895.22
436.90	6413.07
437.09	6586.27
437.28	6644.78
437.46	6789.89
437.65	6719.68
437.84	6630.74
438.02	6710.32
438.21	6913.94
438.40	6846.07
438.58	6939.69
438.77	7063.74
438.96	7150.34
439.14	7389.07
439.33	7061.40
439.52	7241.62
439.70	7194.81
439.89	7342.26
440.08	7412.48
440.26	7496.74
440.45	7405.46
440.63	7653.55
440.82	7679.30
441.01	7382.05
441.19	7609.08
441.38	7826.75
441.57	7669.94
441.75	7918.03
441.94	8161.45
442.12	8053.78
442.31	8159.11
442.50	8018.68
442.68	8100.59
442.87	8163.79
443.05	8180.17
443.24	8212.94
443.43	8210.60
443.61	8280.82
443.80	8549.98
443.98	8308.90
444.17	7878.24
444.35	8248.05
444.54	8339.33
444.73	8308.90
444.91	8519.55
445.10	8332.31
445.28	8421.25
445.47	8283.16
445.65	8320.60
445.84	8517.21
446.02	8657.64
446.21	8500.83
446.39	8297.20
446.58	8692.75
446.77	8732.54
446.95	8383.80
447.14	8383.80
447.32	8517.21
447.51	8674.03
447.69	8381.46
447.88	8645.94
448.06	8638.92
448.25	8512.53
448.43	8699.77
448.62	8769.99
448.80	8634.24
448.99	8772.33
449.17	8594.45
449.36	8952.55
449.54	8837.86
449.73	9006.38
449.91	9095.32
450.10	8990.00
450.28	9156.18
450.46	8971.27
450.65	9149.15
450.83	9219.37
451.02	9282.56
451.20	9181.92
451.39	9156.18
451.57	9226.39
451.76	9114.05
451.94	9303.63
452.13	9504.92
452.31	9287.25
452.49	9231.07
452.68	9488.53
452.86	9481.51
453.05	9474.49
453.23	9415.98
453.42	9504.92
453.60	9345.76
453.78	9502.58
453.97	9624.28
454.15	9710.88
454.34	9399.59
454.52	9764.72
454.70	9909.83
454.89	9851.31
455.07	9919.19
455.26	9881.74
455.44	10148.56
455.62	9898.13
455.81	10164.95
455.99	9954.30
456.17	10160.27
456.36	10143.88
456.54	10160.27
456.73	10469.22
456.91	10441.13
457.09	10663.48
457.28	10738.38
457.46	10413.04
457.64	10663.48
457.83	10644.76
458.01	10483.26
458.19	10766.46
458.38	10567.52
458.56	10773.49
458.74	10848.38
458.93	10815.62
459.11	10860.09
459.29	10611.99
459.48	10787.53
459.66	10956.05
459.84	10895.19
460.03	11028.60
460.21	11047.33
460.39	10925.62
460.57	11094.14
460.76	11393.73
460.94	11307.13
461.12	11068.39
461.31	11239.25
461.49	11084.78
461.67	11269.68
461.85	11618.42
462.04	11384.37
462.22	11576.29
462.40	11758.85
462.59	11576.29
462.77	11580.97
462.95	11840.77
463.13	11564.59
463.32	11510.75
463.50	11730.76
463.68	12079.50
463.86	11873.54
464.05	11889.92
464.23	11899.28
464.41	12112.27
464.59	11810.34
464.78	12280.79
464.96	12046.74
465.14	12011.63
465.32	12159.08
465.50	12334.62
465.69	12271.43
465.87	12081.85
466.05	12376.75
466.23	12219.94
466.41	12304.20
466.60	12538.25
466.78	12278.45
466.96	12273.77
467.14	12503.14
467.32	12613.15
467.51	12423.56
467.69	12376.75
467.87	12388.46
468.05	12416.54
468.23	12540.59
468.41	12669.32
468.60	12641.23
468.78	12931.46
468.96	12519.53
469.14	13001.68
469.32	13088.28
469.50	12870.61
469.69	13090.62
469.87	13181.90
470.05	13256.79
470.23	13245.09
470.41	13090.62
470.59	13378.50
470.77	13329.35
470.95	13434.68
471.14	13589.15
471.32	13319.99
471.50	13699.16
471.68	13624.26
471.86	13586.81
472.04	13673.41
472.22	13851.29
472.40	13673.41
472.58	13839.59
472.77	14293.65
472.95	14373.23
473.13	14771.12
473.31	14050.24
473.49	14237.48
473.67	14406.00
473.85	14324.08
474.03	14677.50
474.21	14799.21
474.39	14867.08
474.57	14927.94
474.75	15019.22
474.93	15108.16
475.12	15110.50
475.30	15108.16
475.48	15091.77
475.66	15527.11
475.84	15365.62
476.02	15374.98
476.20	15531.80
476.38	15932.03
476.56	16306.51
476.74	15826.70
476.92	15925.00
477.10	15913.30
477.28	16184.80
477.46	16404.81
477.64	16711.42
477.82	16428.22
478.00	17060.16
478.18	16973.56
478.36	17114.00
478.54	17118.68
478.72	17488.48
478.90	17600.83
479.08	17549.34
479.26	18073.62
479.44	17731.90
479.62	17862.97
479.80	18314.69
479.98	18211.71
480.16	18820.25
480.34	18768.76
480.52	18698.54
480.70	18743.01
480.88	18700.88
481.06	18857.70
481.24	19197.07
481.41	19068.34
481.59	19494.32
481.77	19765.82
481.95	19791.57
482.13	19894.55
482.31	20009.24
482.49	20327.55
482.67	20149.67
482.85	20580.33
483.03	20816.72
483.21	20926.73
483.39	20798.00
483.57	21055.46
483.74	21111.63
483.92	21551.65
484.10	21563.36
484.28	22190.62
484.46	21994.01
484.64	22775.75
484.82	22345.09
485.00	22642.34
485.18	23168.96
485.35	23147.90
485.53	23204.07
485.71	23391.31
485.89	23594.94
486.07	23496.64
486.25	23913.25
486.43	23534.09
486.61	24060.71
486.78	24278.38
486.96	24329.87
487.14	24807.34
487.32	24702.01
487.50	25017.99
487.68	24936.07
487.85	25647.59
488.03	25741.21
488.21	26057.18
488.39	26190.59
488.57	26494.86
488.75	26689.13
488.92	26562.74
489.10	26923.18
489.28	27098.72
489.46	27026.17
489.64	27161.92
489.81	27852.38
489.99	28479.64
490.17	28163.67
490.35	28105.15
490.53	28088.77
490.70	29219.25
490.88	28575.60
491.06	29521.18
491.24	28854.12
491.41	29343.30
491.59	29930.77
491.77	29383.09
491.95	29996.31
492.13	30295.89
492.30	30176.53
492.48	30164.82
492.66	30075.88
492.84	30345.05
493.01	31035.50
493.19	30988.69
493.37	31105.72
493.54	31559.78
493.72	31611.28
493.90	31831.29
494.08	32297.05
494.25	32390.67
494.43	32479.61
494.61	32332.16
494.79	32699.62
494.96	32598.98
495.14	33097.52
495.32	33090.49
495.49	33549.24
495.67	33432.21
495.85	33708.40
496.02	33809.04
496.20	33975.22
496.38	34794.40
496.55	34492.47
496.73	35110.38
496.91	35061.22
497.09	35117.40
497.26	35512.95
497.44	35225.06
497.62	35440.39
497.79	35988.08
497.97	35676.79
498.14	36137.87
498.32	36608.32
498.50	36498.31
498.67	36980.46
498.85	36575.55
499.03	37364.31
499.20	36889.18
499.38	37193.45
499.56	36961.74
499.73	37525.81
499.91	37799.65
500.08	38256.06
500.26	37567.94
500.44	38309.89
500.61	38249.03
500.79	38487.77
500.97	38464.36
501.14	38649.27
501.32	39009.71
501.49	38569.69
501.67	39126.74
501.84	39636.97
502.02	39358.45
502.20	39487.18
502.37	39477.82
502.55	39484.84
502.72	39800.81
502.90	40261.90
503.07	39941.24
503.25	40421.05
503.43	40095.72
503.60	40360.20
503.78	40531.06
503.95	40336.79
504.13	40727.66
504.30	40758.09
504.48	40556.80
504.65	40830.65
504.83	41273.01
505.01	41624.09
505.18	41511.74
505.36	41956.44
505.53	41406.42
505.71	41914.31
505.88	41841.76
506.06	41537.49
506.23	42326.25
506.41	41881.55
506.58	42464.34
506.76	42361.36
506.93	42939.47
507.11	42398.80
507.28	43007.34
507.46	42806.06
507.63	43112.67
507.81	43442.68
507.98	43393.53
508.16	43250.76
508.33	43938.88
508.50	43636.95
508.68	43892.07
508.85	44329.75
509.03	44137.82
509.20	44334.43
509.38	44699.55
509.55	44568.48
509.73	44678.49
509.90	45006.16
510.08	44924.24
510.25	45151.27
510.42	45123.19
510.60	45310.43
510.77	45823.01
510.95	45684.92
511.12	45392.35
511.30	45675.55
511.47	45720.02
511.64	45935.35
511.82	46230.26
511.99	45951.74
512.17	46384.74
512.34	46036.00
512.51	46515.81
512.69	47157.11
512.86	46894.97
513.04	46848.16
513.21	46951.15
513.38	46925.40
513.56	47070.51
513.73	46930.08
513.90	47323.29
514.08	47091.58
514.25	47667.35
514.43	47660.33
514.60	48016.09
514.77	47835.87
514.95	48222.06
515.12	47517.56
515.29	48105.03
515.47	48500.58
515.64	48570.80
515.81	48046.52
515.99	48641.01
516.16	49013.16
516.33	49010.82
516.51	48816.55
516.68	48797.83
516.85	48971.03
517.03	48851.66
517.20	49345.51
517.37	48956.99
517.54	49219.13
517.72	49294.02
517.89	49687.23
518.06	49790.22
518.24	49567.87
518.41	49392.33
518.58	49827.66
518.75	49373.60
518.93	49942.35
519.10	49822.98
519.27	50468.97
519.45	50244.28
519.62	50134.28
519.79	50424.50
519.96	50234.92
520.14	50302.79
520.31	50209.17
520.48	50560.25
520.65	50586.00
520.83	51026.02
521.00	50899.63
521.17	50967.51
521.34	50857.50
521.52	51049.42
521.69	51138.36
521.86	51447.32
522.03	51302.20
522.20	51681.37
522.38	51585.41
522.55	51817.12
522.72	51587.75
522.89	51702.43
523.07	51894.36
523.24	52002.02
523.41	51657.96
523.58	51709.46
523.75	52126.07
523.92	52065.22
524.10	52236.08
524.27	52282.89
524.44	52126.07
524.61	52360.12
524.78	52200.97
524.96	52463.11
525.13	52598.86
525.30	52875.04
525.47	53078.67
525.64	52561.41
525.81	52547.37
525.98	52879.72
526.16	52652.69
526.33	52809.51
526.50	53111.44
526.67	52987.39
526.84	53219.10
527.01	53069.31
527.18	53020.16
527.36	53169.95
527.53	53207.40
527.70	53605.29
527.87	53642.74
528.04	53364.21
528.21	53635.72
528.38	53488.26
528.55	53696.57
528.72	53502.31
528.89	53820.62
529.07	53635.72
529.24	53385.28
529.41	53820.62
529.58	53785.51
529.75	54047.65
529.92	53984.46
530.09	53907.22
530.26	54197.44
530.43	54120.21
530.60	53914.24
530.77	54073.40
530.94	54482.99
531.11	54246.60
531.28	54363.62
531.46	54478.31
531.63	54459.58
531.80	54368.30
531.97	54749.81
532.14	54738.11
532.31	54789.60
532.48	54880.88
532.65	54969.82
532.82	54817.69
532.99	54747.47
533.16	54869.18
533.33	54974.50
533.50	55126.64
533.67	55096.21
533.84	54794.28
534.01	55157.06
534.18	55009.61
534.35	55636.87
534.52	55348.99
534.69	55370.05
534.86	55496.44
535.03	55316.22
535.20	55491.76
535.37	55704.75
535.54	55412.18
535.71	55526.87
535.88	55676.66
536.05	55496.44
536.22	55679.00
536.38	55751.56
536.55	55882.63
536.72	55763.26
536.89	55863.91
537.06	55772.63
537.23	55875.61
537.40	55786.67
537.57	55894.33
537.74	55978.59
537.91	56348.40
538.08	55966.89
538.25	56023.06
538.42	56055.83
538.59	56334.35
538.75	56130.73
538.92	56252.44
539.09	56388.19
539.26	56418.61
539.43	56301.59
539.60	56313.29
539.77	56692.46
539.94	56655.01
540.11	56596.49
540.28	56685.43
540.44	56912.47
540.61	56676.07
540.78	56378.82
540.95	56734.59
541.12	56690.12
541.29	56575.43
541.46	56748.63
541.62	56853.95
541.79	56830.55
541.96	56699.48
542.13	56713.52
542.30	56856.29
542.47	56879.70
542.63	57205.03
542.80	57146.52
542.97	57308.02
543.14	57387.60
543.31	57308.02
543.48	57530.37
543.64	57614.63
543.81	57614.63
543.98	57460.15
544.15	57570.16
544.32	57659.10
544.48	57874.43
544.65	57530.37
544.82	57666.12
544.99	57581.86
545.16	57736.34
545.32	57783.15
545.49	57902.51
545.66	57825.28
545.83	57858.04
546.00	58026.56
546.16	57806.55
546.33	57715.27
546.50	57951.66
546.67	57794.85
546.83	57492.92
547.00	57921.24
547.17	57911.88
547.34	58234.87
547.50	58272.32
547.67	58185.72
547.84	58145.93
548.00	58300.40
548.17	58576.59
548.34	58206.78
548.51	58382.32
548.67	58384.66
548.84	58398.71
549.01	58394.03
549.18	58468.92
549.34	58508.71
549.51	58553.18
549.68	58356.58
549.84	58480.63
550.01	58525.10
550.18	58405.73
550.34	58553.18
550.51	58749.79
550.68	58560.20
550.84	58576.59
551.01	58997.88
551.18	58756.81
551.34	58745.11
551.51	58710.00
551.68	58738.08
551.84	58761.49
552.01	58681.91
552.18	58878.52
552.34	58747.45
552.51	58904.26
552.68	58777.87
552.84	58770.85
553.01	59021.29
553.18	59084.48
553.34	59030.65
553.51	58913.62
553.67	59121.93
553.84	59133.63
554.01	58983.84
554.17	59077.46
554.34	59363.01
554.51	59290.45
554.67	59250.66
554.84	59187.47
555.00	59299.81
555.17	59201.51
555.33	59346.62
555.50	59178.10
555.67	59189.81
555.83	59196.83
556.00	59374.71
556.16	59550.25
556.33	59437.90
556.50	59482.37
556.66	59599.40
556.83	59491.74
556.99	59522.16
557.16	59543.23
557.32	59585.36
557.49	59753.88
557.65	59351.30
557.82	59416.84
557.98	59578.34
558.15	59601.74
558.32	59650.89
558.48	59578.34
558.65	59632.17
558.81	59676.64
558.98	59826.43
559.14	59732.81
559.31	59861.54
559.47	59863.88
559.64	59948.14
559.80	59941.12
559.97	59859.20
560.13	59901.33
560.30	59833.46
560.46	59798.35
560.63	59913.03
560.79	60030.06
560.96	60018.36
561.12	60072.19
561.29	59913.03
561.45	59973.89
561.61	60013.68
561.78	59906.01
561.94	59875.58
562.11	59976.23
562.27	60069.85
562.44	59980.91
562.60	60205.60
562.77	60252.41
562.93	59994.95
563.10	60245.39
563.26	60109.64
563.42	60322.63
563.59	60175.17
563.75	60039.42
563.92	60434.97
564.08	60250.07
564.24	60376.46
564.41	60186.88
564.57	60224.32
564.74	60310.92
564.90	60275.82
565.07	60154.11
565.23	60231.35
565.39	60140.07
565.56	60259.43
565.72	60261.77
565.88	60350.71
566.05	60238.37
566.21	60444.33
566.38	60317.95
566.54	60484.12
566.70	60767.33
566.87	60570.72
567.03	60409.23
567.19	60694.77
567.36	60505.19
567.52	60441.99
567.68	60725.20
567.85	60636.26
568.01	60547.32
568.17	60327.31
568.34	60713.50
568.50	60554.34
568.66	60580.09
568.83	60725.20
568.99	60423.27
569.15	60650.30
569.32	60615.19
569.48	60566.04
569.64	60825.84
569.81	60746.26
569.97	60498.17
570.13	60694.77
570.30	60568.38
570.46	60669.03
570.62	60837.54
570.78	60783.71
570.95	60772.01
571.11	60987.34
571.27	60645.62
571.43	60662.00
571.60	61020.11
571.76	60844.57
571.92	60926.49
572.09	60919.46
572.25	60996.70
572.41	60736.90
572.57	60835.20
572.74	61073.94
572.90	60750.94
573.06	60795.42
573.22	60959.25
573.38	60823.50
573.55	60900.74
573.71	61160.54
573.87	60980.32
574.03	60720.52
574.20	60940.53
574.36	60790.73
574.52	60814.14
574.68	61003.72
574.84	61010.74
575.01	61041.17
575.17	60921.80
575.33	60898.40
575.49	60846.91
575.65	61083.30
575.82	60938.19
575.98	60926.49
576.14	61258.84
576.30	60987.34
576.46	61006.06
576.62	60940.53
576.79	61151.18
576.95	60870.31
577.11	61090.32
577.27	61127.77
577.43	60898.40
577.59	60800.10
577.75	60867.97
577.92	60800.10
578.08	61027.13
578.24	60926.49
578.40	60973.30
578.56	61013.08
578.72	61244.80
578.88	60858.61
579.04	61305.65
579.21	60921.80
579.37	61190.97
579.53	61226.07
579.69	60898.40
579.85	61052.87
580.01	61118.41
580.17	60867.97
580.33	61123.09
580.49	61265.86
580.65	61123.09
580.82	60985.00
580.98	60931.17
581.14	60966.27
581.30	61205.01
581.46	60844.57
581.62	61258.84
581.78	60970.96
581.94	61209.69
582.10	61247.14
582.26	61083.30
582.42	61031.81
582.58	61097.34
582.74	61071.60
582.90	61240.12
583.06	61183.94
583.22	61020.11
583.38	61158.20
583.54	61303.31
583.70	61244.80
583.86	61193.31
584.02	61193.31
584.18	61385.23
584.34	61228.41
584.50	61132.45
584.66	61141.81
584.82	60942.87
584.98	61258.84
585.14	61207.35
585.30	60987.34
585.46	61205.01
585.62	61099.68
585.78	61448.42
585.94	61078.62
586.10	61293.95
586.26	61284.59
586.42	61275.22
586.58	61492.89
586.74	61244.80
586.90	61268.20
587.06	61223.73
587.22	61312.67
587.38	61368.85
587.54	61504.60
587.70	61151.18
587.86	61389.91
588.02	61205.01
588.18	61244.80
588.34	61429.70
588.49	61284.59
