SpectraSuite Data File
++++++++++++++++++++++++++++++++++++
Date: Fri Oct 25 11:23:02 EDT 2013
User: price-jones
Dark Spectrum Present: No
Reference Spectrum Present: No
Number of Sampled Component Spectra: 1
Spectrometers: USB2+H05261
Integration Time (usec): 100000 (USB2+H05261)
Spectra Averaged: 1 (USB2+H05261)
Boxcar Smoothing: 0 (USB2+H05261)
Correct for Electrical Dark: No (USB2+H05261)
Strobe/Lamp Enabled: No (USB2+H05261)
Correct for Detector Non-linearity: No (USB2+H05261)
Correct for Stray Light: No (USB2+H05261)
Number of Pixels in Processed Spectrum: 2048
>>>>>Begin Processed Spectral Data<<<<<
365.73	271.50
365.92	271.50
366.12	271.50
366.32	112.35
366.52	133.41
366.72	51.49
366.91	126.39
367.11	149.79
367.31	60.85
367.51	100.64
367.70	95.96
367.90	88.94
368.10	105.32
368.30	98.30
368.49	124.05
368.69	140.43
368.89	124.05
369.09	117.03
369.28	98.30
369.48	159.16
369.68	152.13
369.87	180.22
370.07	142.77
370.27	252.78
370.47	283.20
370.66	433.00
370.86	547.69
371.06	613.22
371.25	709.18
371.45	662.37
371.65	655.35
371.84	631.94
372.04	685.78
372.24	697.48
372.44	751.31
372.63	734.93
372.83	725.57
373.03	767.70
373.22	765.36
373.42	671.73
373.62	816.85
373.81	760.67
374.01	821.53
374.21	854.30
374.40	819.19
374.60	826.21
374.79	786.42
374.99	837.91
375.19	798.12
375.38	807.48
375.58	821.53
375.78	828.55
375.97	826.21
376.17	833.23
376.37	835.57
376.56	889.40
376.76	940.90
376.95	844.93
377.15	866.00
377.35	926.85
377.54	851.96
377.74	854.30
377.93	863.66
378.13	950.26
378.33	917.49
378.52	952.60
378.72	863.66
378.91	903.45
379.11	882.38
379.31	1001.75
379.50	968.98
379.70	997.07
379.89	943.24
380.09	983.02
380.28	994.73
380.48	985.37
380.68	964.30
380.87	1004.09
381.07	1008.77
381.26	1064.94
381.46	978.34
381.65	1018.13
381.85	1111.75
382.04	1067.28
382.24	1036.86
382.43	983.02
382.63	1170.27
382.83	1107.07
383.02	1062.60
383.22	1121.12
383.41	1081.33
383.61	1076.65
383.80	1102.39
384.00	1144.52
384.19	1128.14
384.39	1086.01
384.58	1165.59
384.78	1144.52
384.97	1170.27
385.17	1153.88
385.36	1184.31
385.56	1100.05
385.75	1146.86
385.95	1156.22
386.14	1090.69
386.34	1172.61
386.53	1165.59
386.72	1287.29
386.92	1226.44
387.11	1240.48
387.31	1242.82
387.50	1233.46
387.70	1224.10
387.89	1273.25
388.09	1371.55
388.28	1263.89
388.48	1224.10
388.67	1280.27
388.86	1261.55
389.06	1378.58
389.25	1383.26
389.45	1357.51
389.64	1317.72
389.84	1383.26
390.03	1439.43
390.22	1474.54
390.42	1380.92
390.61	1366.87
390.81	1390.28
391.00	1474.54
391.19	1462.83
391.39	1329.42
391.58	1455.81
391.78	1500.28
391.97	1497.94
392.16	1493.26
392.36	1540.07
392.55	1540.07
392.75	1519.01
392.94	1561.14
393.13	1481.56
393.33	1502.62
393.52	1462.83
393.71	1666.46
393.91	1603.27
394.10	1598.59
394.29	1584.54
394.49	1483.90
394.68	1685.19
394.88	1502.62
395.07	1575.18
395.26	1614.97
395.46	1589.22
395.65	1633.69
395.84	1696.89
396.04	1797.53
396.23	1720.29
396.42	1727.32
396.62	1820.94
396.81	1687.53
397.00	1689.87
397.19	1851.36
397.39	1818.60
397.58	1902.86
397.77	1792.85
397.97	1884.13
398.16	1799.87
398.35	1849.02
398.55	1898.17
398.74	1881.79
398.93	1954.35
399.12	1919.24
399.32	1998.82
399.51	1914.56
399.70	2017.54
399.90	1905.20
400.09	1968.39
400.28	2050.31
400.47	2010.52
400.67	1961.37
400.86	2050.31
401.05	2064.35
401.24	2073.71
401.44	2155.63
401.63	2176.70
401.82	2183.72
402.01	2069.03
402.21	2195.42
402.40	2174.36
402.59	2230.53
402.78	2333.51
402.97	2239.89
403.17	2253.94
403.36	2331.17
403.55	2242.23
403.74	2385.01
403.93	2267.98
404.13	2394.37
404.32	2370.96
404.51	2321.81
404.70	2385.01
404.89	2445.86
405.09	2359.26
405.28	2462.24
405.47	2410.75
405.66	2497.35
405.85	2525.44
406.05	2574.59
406.24	2581.61
406.43	2574.59
406.62	2640.12
406.81	2569.91
407.00	2572.25
407.20	2649.49
407.39	2546.50
407.58	2750.13
407.77	2745.45
407.96	2820.35
408.15	2820.35
408.34	2672.89
408.54	2827.37
408.73	2925.67
408.92	2785.24
409.11	2860.13
409.30	2890.56
409.49	2850.77
409.68	2848.43
409.87	2970.14
410.07	3035.67
410.26	3023.97
410.45	3091.85
410.64	3169.09
410.83	3047.38
411.02	3059.08
411.21	3126.96
411.40	3314.20
411.59	3276.75
411.78	3192.49
411.98	3103.55
412.17	3337.60
412.36	3325.90
412.55	3309.52
412.74	3485.06
412.93	3365.69
413.12	3372.71
413.31	3478.04
413.50	3468.67
413.69	3550.59
413.88	3588.04
414.07	3616.13
414.26	3658.26
414.45	3616.13
414.64	3719.11
414.83	3889.97
415.02	3698.05
415.22	3838.48
415.41	3899.33
415.60	3913.38
415.79	3936.78
415.98	3941.46
416.17	4074.87
416.36	3850.18
416.55	3904.01
416.74	4025.72
416.93	4128.70
417.12	3999.98
417.31	4180.20
417.50	4266.80
417.69	4397.87
417.88	4227.01
418.07	4166.15
418.26	4353.40
418.45	4409.57
418.64	4379.14
418.83	4475.10
419.02	4376.80
419.21	4596.81
419.39	4645.96
419.58	4603.83
419.77	4297.22
419.96	4484.47
420.15	4676.39
420.34	4622.56
420.53	4695.11
420.72	4608.51
420.91	4697.46
421.10	4788.74
421.29	4851.93
421.48	4751.29
421.67	4903.42
421.86	4755.97
422.05	4971.30
422.24	4774.69
422.43	4856.61
422.61	4975.98
422.80	4966.62
422.99	4793.42
423.18	4938.53
423.37	4957.25
423.56	4908.10
423.75	4966.62
423.94	4887.04
424.13	4697.46
424.32	4727.88
424.50	5020.45
424.69	5078.96
424.88	5195.99
425.07	4985.34
425.26	4901.08
425.45	4992.36
425.64	5048.54
425.83	5048.54
426.01	5064.92
426.20	5195.99
426.39	5228.76
426.58	4957.25
426.77	5095.35
426.96	5149.18
427.15	5235.78
427.33	5235.78
427.52	5142.16
427.71	5200.67
427.90	5252.16
428.09	5341.10
428.28	5284.93
428.46	5387.91
428.65	5413.66
428.84	5551.75
429.03	5645.37
429.22	5418.34
429.40	5666.44
429.59	5516.64
429.78	5195.99
429.97	5294.29
430.16	5448.77
430.34	5626.65
430.53	5706.23
430.72	5753.04
430.91	5664.10
431.10	5610.26
431.28	5687.50
431.47	5804.53
431.66	5982.41
431.85	5865.38
432.03	5933.26
432.22	5975.39
432.41	5930.92
432.60	5930.92
432.79	5973.05
432.97	5970.71
433.16	5996.45
433.35	5982.41
433.54	6160.29
433.72	6090.07
433.91	6188.38
434.10	6164.97
434.28	6127.52
434.47	6289.02
434.66	6312.42
434.85	6377.96
435.03	6303.06
435.22	6326.47
435.41	6619.04
435.59	6401.37
435.78	6548.82
435.97	6497.33
436.16	6384.98
436.34	6752.45
436.53	6509.03
436.72	6663.51
436.90	6513.71
437.09	6726.70
437.28	6502.01
437.46	6576.91
437.65	6614.35
437.84	6731.38
438.02	6803.94
438.21	6752.45
438.40	6750.10
438.58	6953.73
438.77	7014.59
438.96	7021.61
439.14	7211.19
439.33	7283.75
439.52	7236.94
439.70	7370.35
439.89	7339.92
440.08	7536.52
440.26	7405.46
440.45	7442.90
440.63	7494.40
440.82	7585.68
441.01	7571.63
441.19	7637.17
441.38	7838.45
441.57	7808.03
441.75	7868.88
441.94	7906.33
442.12	8079.53
442.31	8152.09
442.50	8154.43
442.68	8325.29
442.87	8051.44
443.05	8184.85
443.24	8320.60
443.43	8313.58
443.61	8414.23
443.80	8655.30
443.98	8058.46
444.17	7953.14
444.35	8315.92
444.54	8411.89
444.73	8299.54
444.91	8325.29
445.10	8461.04
445.28	8458.70
445.47	8390.82
445.65	8395.50
445.84	8458.70
446.02	8564.02
446.21	8566.36
446.39	8554.66
446.58	8575.72
446.77	8545.30
446.95	8311.24
447.14	8542.96
447.32	8449.33
447.51	8362.73
447.69	8458.70
447.88	8594.45
448.06	8489.12
448.25	8622.53
448.43	8667.00
448.62	8784.03
448.80	8711.47
448.99	8667.00
449.17	8861.27
449.36	8753.60
449.54	8872.97
449.73	9085.96
449.91	9057.87
450.10	9205.33
450.28	9095.32
450.46	9226.39
450.65	9067.24
450.83	9151.49
451.02	9338.74
451.20	9359.80
451.39	9174.90
451.57	9053.19
451.76	9205.33
451.94	9226.39
452.13	9310.65
452.31	9460.45
452.49	9308.31
452.68	9565.77
452.86	9453.42
453.05	9348.10
453.23	9514.28
453.42	9383.21
453.60	9373.85
453.78	9593.86
453.97	9514.28
454.15	9490.87
454.34	9479.17
454.52	9769.40
454.70	9713.22
454.89	9909.83
455.07	9977.70
455.26	9863.02
455.44	10118.14
455.62	9987.07
455.81	9961.32
455.99	10104.09
456.17	10178.99
456.36	10239.84
456.54	10281.97
456.73	10459.85
456.91	10649.44
457.09	10644.76
457.28	10534.75
457.46	10186.01
457.64	10883.49
457.83	10609.65
458.01	10698.59
458.19	10853.06
458.38	10604.97
458.56	10949.03
458.74	10670.50
458.93	10668.16
459.11	10693.91
459.29	10738.38
459.48	11131.59
459.66	11091.80
459.84	10846.04
460.03	11211.17
460.21	11052.01
460.39	10977.11
460.57	10822.64
460.76	11363.30
460.94	11164.36
461.12	11433.52
461.31	11414.79
461.49	11201.80
461.67	11386.71
461.85	11520.12
462.04	11386.71
462.22	11515.44
462.40	11793.96
462.59	11707.36
462.77	11538.84
462.95	11857.15
463.13	11754.17
463.32	11676.93
463.50	11559.91
463.68	11882.90
463.86	12175.47
464.05	11723.74
464.23	12020.99
464.41	12072.48
464.59	11843.11
464.78	12093.55
464.96	11992.90
465.14	11946.09
465.32	12241.00
465.50	12243.34
465.69	12114.61
465.87	12355.69
466.05	12418.88
466.23	12212.92
466.41	12304.20
466.60	12666.98
466.78	12290.15
466.96	12184.83
467.14	12456.33
467.32	12472.71
467.51	12741.88
467.69	12252.70
467.87	12512.50
468.05	12744.22
468.23	12507.82
468.41	12706.77
468.60	12690.38
468.78	12652.94
468.96	12774.64
469.14	12996.99
469.32	13128.06
469.50	12772.30
469.69	13102.32
469.87	13074.23
470.05	13247.43
470.23	13427.65
470.41	13245.09
470.59	13425.31
470.77	13254.45
470.95	13315.31
471.14	13687.45
471.32	13460.42
471.50	13685.11
471.68	13778.73
471.86	13951.93
472.04	13640.64
472.22	14127.47
472.40	13846.61
472.58	14050.24
472.77	14153.22
472.95	14253.86
473.13	14771.12
473.31	14024.49
473.49	14164.92
473.67	14176.62
473.85	14356.85
474.03	14689.20
474.21	14675.16
474.39	14853.04
474.57	14822.61
474.75	15087.09
474.93	14923.26
475.12	15080.07
475.30	15248.59
475.48	15056.67
475.66	15276.68
475.84	15047.30
476.02	15569.24
476.20	15466.26
476.38	15616.05
476.56	16318.22
476.74	16046.71
476.92	16013.95
477.10	16112.25
477.28	16140.33
477.46	16489.07
477.64	16449.28
477.82	16776.96
478.00	16886.97
478.18	16641.21
478.36	17106.98
478.54	17310.60
478.72	17315.28
478.90	17465.08
479.08	17855.95
479.26	17720.20
479.44	17802.11
479.62	17877.01
479.80	18190.64
479.98	18054.89
480.16	18883.44
480.34	18298.31
480.52	18820.25
480.70	18785.14
480.88	18806.20
481.06	19026.21
481.24	19227.50
481.41	19435.81
481.59	19190.05
481.77	19604.33
481.95	19454.53
482.13	19667.52
482.31	19772.85
482.49	20606.08
482.67	20414.15
482.85	20781.62
483.03	20758.21
483.21	21172.49
483.39	21392.50
483.57	21139.72
483.74	21528.25
483.92	21561.02
484.10	21516.54
484.28	21823.16
484.46	22431.69
484.64	22129.77
484.82	22106.36
485.00	22778.09
485.18	22958.31
485.35	23278.97
485.53	22848.31
485.71	23311.74
485.89	23520.04
486.07	23388.97
486.25	23777.50
486.43	23831.33
486.61	24315.83
486.78	24350.93
486.96	24212.84
487.14	24671.59
487.32	24531.15
487.50	25521.20
487.68	25142.03
487.85	25734.19
488.03	25652.27
488.21	25839.51
488.39	25989.31
488.57	26326.35
488.75	26363.79
488.92	26597.85
489.10	27007.44
489.28	26630.62
489.46	27271.92
489.64	27449.80
489.81	27742.37
489.99	27646.41
490.17	27845.35
490.35	28348.57
490.53	28470.28
490.70	28840.08
490.88	28491.34
491.06	29020.30
491.24	28797.95
491.41	29160.73
491.59	29729.48
491.77	29352.66
491.95	29799.70
492.13	29956.52
492.30	30143.76
492.48	30462.07
492.66	30499.52
492.84	30773.36
493.01	31002.74
493.19	30614.21
493.37	31541.06
493.54	31431.05
493.72	31756.39
493.90	31782.13
494.08	32217.47
494.25	32411.74
494.43	32608.34
494.61	32624.73
494.79	32758.14
494.96	33106.88
495.14	33401.79
495.32	33624.14
495.49	33394.76
495.67	33464.98
495.85	33759.89
496.02	34225.65
496.20	34115.65
496.38	34448.00
496.55	34176.50
496.73	34998.03
496.91	34836.53
497.09	35276.55
497.26	35557.42
497.44	35400.60
497.62	35269.53
497.79	36016.16
497.97	35723.60
498.14	36203.41
498.32	36655.13
498.50	36231.49
498.67	36531.08
498.85	36755.77
499.03	37177.07
499.20	37181.75
499.38	37359.63
499.56	37331.54
499.73	37074.09
499.91	37392.40
500.08	38071.15
500.26	37453.25
500.44	37890.93
500.61	37841.78
500.79	38162.43
500.97	38698.42
501.14	39021.41
501.32	39091.63
501.49	38913.75
501.67	39012.05
501.84	39440.37
502.02	39262.49
502.20	39409.94
502.37	39241.42
502.55	39533.99
502.72	39674.42
502.90	39941.24
503.07	39798.47
503.25	40252.53
503.43	40332.11
503.60	40205.72
503.78	40605.95
503.95	41001.50
504.13	40694.89
504.30	40753.41
504.48	40655.11
504.65	40856.39
504.83	41481.31
505.01	41420.46
505.18	41713.03
505.36	41654.51
505.53	41460.25
505.71	41605.36
505.88	42199.86
506.06	42415.19
506.23	42096.88
506.41	42181.13
506.58	42499.45
506.76	42602.43
506.93	42773.29
507.11	42876.27
507.28	42672.65
507.46	42951.17
507.63	43454.39
507.81	43641.63
507.98	43215.65
508.16	43203.95
508.33	44175.27
508.50	43608.86
508.68	43999.73
508.85	44175.27
509.03	44018.46
509.20	44502.95
509.38	44844.66
509.55	44767.43
509.73	44914.88
509.90	45244.90
510.08	45237.87
510.25	44945.31
510.42	44914.88
510.60	45237.87
510.77	45184.04
510.95	45666.19
511.12	45291.71
511.30	45380.65
511.47	45982.16
511.64	45811.31
511.82	46457.29
511.99	45776.20
512.17	46581.34
512.34	46176.43
512.51	46883.27
512.69	46581.34
512.86	46373.03
513.04	46911.36
513.21	47213.29
513.38	47129.03
513.56	47423.93
513.73	47037.75
513.90	47344.36
514.08	47299.89
514.25	47370.10
514.43	47721.18
514.60	47454.36
514.77	47779.70
514.95	47875.66
515.12	47995.03
515.29	47814.80
515.47	48318.02
515.64	48296.95
515.81	48086.31
515.99	48514.62
516.16	48549.73
516.33	48652.72
516.51	48807.19
516.68	48711.23
516.85	48964.01
517.03	49076.35
517.20	49720.00
517.37	49165.29
517.54	49191.04
517.72	49521.05
517.89	49385.30
518.06	49717.66
518.24	49429.77
518.41	49310.41
518.58	49691.91
518.75	49628.72
518.93	49638.08
519.10	49837.03
519.27	50071.08
519.45	49956.39
519.62	50302.79
519.79	50293.43
519.96	50279.39
520.14	50335.56
520.31	50384.71
520.48	50382.37
520.65	50497.06
520.83	50862.18
521.00	50944.10
521.17	51189.86
521.34	51019.00
521.52	51409.87
521.69	50986.23
521.86	51224.96
522.03	51344.33
522.20	51562.00
522.38	51721.16
522.55	51676.69
522.72	51943.51
522.89	51629.88
523.07	51840.53
523.24	51978.62
523.41	51767.97
523.58	51646.26
523.75	52020.75
523.92	51828.82
524.10	52605.88
524.27	52367.15
524.44	52481.83
524.61	52116.71
524.78	52706.52
524.96	52575.45
525.13	52725.25
525.30	52701.84
525.47	52980.37
525.64	52907.81
525.81	53015.47
525.98	53020.16
526.16	52790.78
526.33	53097.39
526.50	53195.70
526.67	53088.03
526.84	53415.71
527.01	53233.14
527.18	53228.46
527.36	53041.22
527.53	53333.79
527.70	53719.98
527.87	53687.21
528.04	53415.71
528.21	53780.83
528.38	53460.18
528.55	53888.49
528.72	53762.11
528.89	53825.30
529.07	53794.87
529.24	53750.40
529.41	53998.50
529.58	53958.71
529.75	53684.87
529.92	53977.43
530.09	54012.54
530.26	54129.57
530.43	54113.19
530.60	54218.51
530.77	54152.97
530.94	54157.66
531.11	54295.75
531.28	54672.57
531.46	54754.49
531.63	54621.08
531.80	54700.66
531.97	54855.14
532.14	54674.91
532.31	54906.63
532.48	54885.56
532.65	54930.03
532.82	54656.19
532.99	54803.64
533.16	54798.96
533.33	55196.85
533.50	55561.98
533.67	55075.15
533.84	55210.90
534.01	54976.84
534.18	55236.64
534.35	55386.44
534.52	55150.04
534.69	55700.07
534.86	55281.11
535.03	55554.96
535.20	55531.55
535.37	55547.93
535.54	55629.85
535.71	55508.14
535.88	55442.61
536.05	55648.58
536.22	56023.06
536.38	55700.07
536.55	56034.77
536.72	55929.44
536.89	55552.62
537.06	55657.94
537.23	56137.75
537.40	55835.82
537.57	55770.28
537.74	56184.56
537.91	56205.62
538.08	56076.90
538.25	55917.74
538.42	56095.62
538.59	56488.83
538.75	56172.86
538.92	56175.20
539.09	56633.94
539.26	56254.78
539.43	56435.00
539.60	56683.09
539.77	56603.52
539.94	56697.14
540.11	56402.23
540.28	56598.83
540.44	56474.79
540.61	56968.64
540.78	56666.71
540.95	56750.97
541.12	56832.89
541.29	56591.81
541.46	56811.82
541.62	56877.36
541.79	56832.89
541.96	56704.16
542.13	56814.16
542.30	57059.92
542.47	56868.00
542.63	57050.56
542.80	57202.69
542.97	57336.10
543.14	57347.81
543.31	57214.40
543.48	57392.28
543.64	57586.54
543.81	57455.47
543.98	57474.20
544.15	57549.09
544.32	57801.87
544.48	57785.49
544.65	57661.44
544.82	57757.40
544.99	57563.14
545.16	57726.97
545.32	57654.42
545.49	58174.02
545.66	57958.69
545.83	57879.11
546.00	57956.35
546.16	57841.66
546.33	57963.37
546.50	57757.40
546.67	57996.13
546.83	57897.83
547.00	57951.66
547.17	57989.11
547.34	58024.22
547.50	58136.57
547.67	58403.39
547.84	58248.91
548.00	58389.34
548.17	58527.44
548.34	58145.93
548.51	58323.81
548.67	58347.21
548.84	58548.50
549.01	58309.77
549.18	58440.84
549.34	58431.47
549.51	58461.90
549.68	58522.76
549.84	58628.08
550.01	58534.46
550.18	58501.69
550.34	58632.76
550.51	58848.09
550.68	58688.93
550.84	58417.43
551.01	58908.94
551.18	58569.57
551.34	58646.80
551.51	58721.70
551.68	58628.08
551.84	58890.22
552.01	58777.87
552.18	58915.96
552.34	58656.17
552.51	58866.81
552.68	58869.15
552.84	59021.29
553.01	59051.72
553.18	59107.89
553.34	59014.27
553.51	58927.67
553.67	58848.09
553.84	59306.83
554.01	59171.08
554.17	58990.86
554.34	59295.13
554.51	59110.23
554.67	59306.83
554.84	59152.36
555.00	59316.20
555.17	59194.49
555.33	59276.41
555.50	59320.88
555.67	59213.21
555.83	59124.27
556.00	59341.94
556.16	59767.92
556.33	59599.40
556.50	59629.83
556.66	59697.70
556.83	59281.09
556.99	59557.27
557.16	59629.83
557.32	59667.28
557.49	59814.73
557.65	59683.66
557.82	59526.84
557.98	59655.57
558.15	59529.19
558.32	59728.13
558.48	59416.84
558.65	59676.64
558.81	59643.87
558.98	59742.17
559.14	59690.68
559.31	59903.67
559.47	59702.38
559.64	59751.54
559.80	59927.08
559.97	59957.50
560.13	59891.97
560.30	59826.43
560.46	59987.93
560.63	60060.49
560.79	59730.47
560.96	60030.06
561.12	59884.95
561.29	60009.00
561.45	60140.07
561.61	59884.95
561.78	59959.84
561.94	59992.61
562.11	60095.60
562.27	59901.33
562.44	60193.90
562.60	60100.28
562.77	60210.28
562.93	59983.25
563.10	59936.44
563.26	60128.36
563.42	60439.65
563.59	60266.45
563.75	60411.57
563.92	60289.86
564.08	60172.83
564.24	60463.06
564.41	60079.21
564.57	60374.12
564.74	60126.02
564.90	60266.45
565.07	60296.88
565.23	60388.16
565.39	60315.61
565.56	60458.38
565.72	60495.83
565.88	60610.51
566.05	60231.35
566.21	60296.88
566.38	60446.68
566.54	60554.34
566.70	60711.16
566.87	60500.51
567.03	60505.19
567.19	60488.80
567.36	60322.63
567.52	60437.31
567.68	60544.98
567.85	60547.32
568.01	60683.07
568.17	60456.04
568.34	60683.07
568.50	60610.51
568.66	60570.72
568.83	60491.15
568.99	60495.83
569.15	60441.99
569.32	60554.34
569.48	60683.07
569.64	60884.36
569.81	60708.82
569.97	60629.24
570.13	60746.26
570.30	60631.58
570.46	60741.58
570.62	60622.22
570.78	60519.23
570.95	60732.22
571.11	60769.67
571.27	60659.66
571.43	60739.24
571.60	60816.48
571.76	60563.70
571.92	60741.58
572.09	60570.72
572.25	60825.84
572.41	60573.06
572.57	60804.78
572.74	61064.58
572.90	60870.31
573.06	60830.52
573.22	60844.57
573.38	61064.58
573.55	60999.04
573.71	61055.21
573.87	60842.23
574.03	60638.60
574.20	60947.55
574.36	60764.99
574.52	60999.04
574.68	60896.06
574.84	61052.87
575.01	61071.60
575.17	60858.61
575.33	60970.96
575.49	60706.47
575.65	60872.65
575.82	60823.50
575.98	61155.86
576.14	61202.67
576.30	61181.60
576.46	60994.36
576.62	60921.80
576.79	60786.05
576.95	60891.38
577.11	61080.96
577.27	60931.17
577.43	61071.60
577.59	60891.38
577.75	60755.63
577.92	61109.05
578.08	60954.57
578.24	61106.71
578.40	61146.50
578.56	60987.34
578.72	60994.36
578.88	61279.91
579.04	61270.54
579.21	61008.40
579.37	61319.70
579.53	61298.63
579.69	60999.04
579.85	61076.28
580.01	61181.60
580.17	60811.80
580.33	61219.05
580.49	61272.88
580.65	61113.73
580.82	61055.21
580.98	61034.15
581.14	60907.76
581.30	61312.67
581.46	61109.05
581.62	61230.75
581.78	61235.44
581.94	61261.18
582.10	61010.74
582.26	61132.45
582.42	61158.20
582.58	61244.80
582.74	60931.17
582.90	61139.47
583.06	61076.28
583.22	60757.97
583.38	61169.90
583.54	61373.53
583.70	61261.18
583.86	61289.27
584.02	61062.24
584.18	61425.02
584.34	61275.22
584.50	61106.71
584.66	60975.64
584.82	60996.70
584.98	61439.06
585.14	61286.93
585.30	61052.87
585.46	61331.40
585.62	61223.73
585.78	61305.65
585.94	61087.98
586.10	61202.67
586.26	61289.27
586.42	61188.63
586.58	61661.41
586.74	61153.52
586.90	61193.31
587.06	61073.94
587.22	61254.16
587.38	61357.14
587.54	61645.03
587.70	61399.27
587.86	61097.34
588.02	61303.31
588.18	61378.21
588.34	61219.05
588.49	61336.08
