SpectraSuite Data File
++++++++++++++++++++++++++++++++++++
Date: Fri Oct 25 11:23:18 EDT 2013
User: price-jones
Dark Spectrum Present: No
Reference Spectrum Present: No
Number of Sampled Component Spectra: 1
Spectrometers: USB2+H05261
Integration Time (usec): 100000 (USB2+H05261)
Spectra Averaged: 1 (USB2+H05261)
Boxcar Smoothing: 0 (USB2+H05261)
Correct for Electrical Dark: No (USB2+H05261)
Strobe/Lamp Enabled: No (USB2+H05261)
Correct for Detector Non-linearity: No (USB2+H05261)
Correct for Stray Light: No (USB2+H05261)
Number of Pixels in Processed Spectrum: 2048
>>>>>Begin Processed Spectral Data<<<<<
365.73	145.11
365.92	145.11
366.12	145.11
366.32	149.79
366.52	208.31
366.72	81.92
366.91	102.98
367.11	189.58
367.31	131.07
367.51	63.19
367.70	65.54
367.90	114.69
368.10	138.09
368.30	84.26
368.49	42.13
368.69	187.24
368.89	128.73
369.09	161.50
369.28	203.63
369.48	201.29
369.68	156.82
369.87	215.33
370.07	241.08
370.27	271.50
370.47	365.12
370.66	657.69
370.86	629.60
371.06	653.01
371.25	692.80
371.45	627.26
371.65	601.52
371.84	662.37
372.04	641.31
372.24	718.54
372.44	681.10
372.63	662.37
372.83	753.65
373.03	737.27
373.22	795.78
373.42	814.51
373.62	819.19
373.81	837.91
374.01	774.72
374.21	791.10
374.40	844.93
374.60	863.66
374.79	812.17
374.99	833.23
375.19	912.81
375.38	898.77
375.58	777.06
375.78	788.76
375.97	814.51
376.17	866.00
376.37	835.57
376.56	800.46
376.76	933.87
376.95	873.02
377.15	873.02
377.35	966.64
377.54	924.51
377.74	889.40
377.93	858.98
378.13	936.21
378.33	968.98
378.52	912.81
378.72	961.96
378.91	905.79
379.11	933.87
379.31	954.94
379.50	912.81
379.70	992.39
379.89	976.00
380.09	999.41
380.28	943.24
380.48	990.05
380.68	964.30
380.87	968.98
381.07	992.39
381.26	1013.45
381.46	947.92
381.65	994.73
381.85	1069.62
382.04	1088.35
382.24	1048.56
382.43	1032.18
382.63	1057.92
382.83	1067.28
383.02	1128.14
383.22	1149.20
383.41	1160.91
383.61	1086.01
383.80	1142.18
384.00	1123.46
384.19	1060.26
384.39	1078.99
384.58	1142.18
384.78	1158.57
384.97	1235.80
385.17	1146.86
385.36	1193.67
385.56	1170.27
385.75	1123.46
385.95	1121.12
386.14	1214.74
386.34	1146.86
386.53	1252.19
386.72	1205.38
386.92	1228.78
387.11	1294.32
387.31	1306.02
387.50	1228.78
387.70	1151.54
387.89	1284.95
388.09	1261.55
388.28	1362.19
388.48	1228.78
388.67	1320.06
388.86	1331.76
389.06	1343.47
389.25	1352.83
389.45	1357.51
389.64	1308.36
389.84	1359.85
390.03	1387.94
390.22	1357.51
390.42	1331.76
390.61	1296.66
390.81	1303.68
391.00	1479.22
391.19	1507.30
391.39	1371.55
391.58	1390.28
391.78	1474.54
391.97	1558.80
392.16	1455.81
392.36	1476.88
392.55	1509.65
392.75	1514.33
392.94	1479.22
393.13	1502.62
393.33	1458.15
393.52	1629.01
393.71	1497.94
393.91	1589.22
394.10	1584.54
394.29	1659.44
394.49	1668.80
394.68	1614.97
394.88	1659.44
395.07	1643.06
395.26	1743.70
395.46	1675.82
395.65	1734.34
395.84	1638.38
396.04	1827.96
396.23	1776.47
396.42	1708.59
396.62	1685.19
396.81	1858.39
397.00	1769.44
397.19	1820.94
397.39	1739.02
397.58	1914.56
397.77	1818.60
397.97	1813.92
398.16	1877.11
398.35	1935.62
398.55	1811.57
398.74	1886.47
398.93	2026.90
399.12	2019.88
399.32	2054.99
399.51	2005.84
399.70	2066.69
399.90	1980.09
400.09	1989.46
400.28	2024.56
400.47	2083.08
400.67	1970.73
400.86	2031.58
401.05	2118.18
401.24	2183.72
401.44	2127.55
401.63	2218.83
401.82	2104.14
402.01	2214.15
402.21	2162.66
402.40	2190.74
402.59	2195.42
402.78	2235.21
402.97	2331.17
403.17	2317.13
403.36	2265.64
403.55	2221.17
403.74	2417.77
403.93	2321.81
404.13	2387.35
404.32	2417.77
404.51	2420.11
404.70	2441.18
404.89	2375.64
405.09	2654.17
405.28	2415.43
405.47	2586.29
405.66	2588.63
405.85	2560.55
406.05	2532.46
406.24	2583.95
406.43	2595.65
406.62	2726.72
406.81	2752.47
407.00	2635.44
407.20	2689.28
407.39	2590.97
407.58	2780.56
407.77	2712.68
407.96	2682.25
408.15	2693.96
408.34	2761.83
408.54	2836.73
408.73	2787.58
408.92	2871.84
409.11	2892.90
409.30	3002.91
409.49	2928.01
409.68	2899.92
409.87	2923.33
410.07	2939.71
410.26	2977.16
410.45	3038.02
410.64	3117.59
410.83	3143.34
411.02	3108.23
411.21	3325.90
411.40	3087.17
411.59	3288.45
411.78	3155.04
411.98	3253.34
412.17	3251.00
412.36	3361.01
412.55	3398.46
412.74	3524.85
412.93	3431.23
413.12	3389.10
413.31	3646.55
413.50	3541.23
413.69	3480.38
413.88	3686.34
414.07	3515.48
414.26	3705.07
414.45	3688.68
414.64	3688.68
414.83	3744.86
415.02	3695.71
415.22	3716.77
415.41	3770.60
415.60	3915.72
415.79	4112.32
415.98	4140.41
416.17	4028.06
416.36	3957.85
416.55	4070.19
416.74	4032.74
416.93	4063.17
417.12	4107.64
417.31	4147.43
417.50	4191.90
417.69	4329.99
417.88	4334.67
418.07	4311.27
418.26	4372.12
418.45	4339.35
418.64	4332.33
418.83	4573.41
419.02	4353.40
419.21	4622.56
419.39	4531.28
419.58	4610.86
419.77	4390.84
419.96	4442.34
420.15	4629.58
420.34	4781.71
420.53	4779.37
420.72	4667.03
420.91	4819.16
421.10	4952.57
421.29	4898.74
421.48	4662.35
421.67	4734.90
421.86	4828.53
422.05	4898.74
422.24	4912.78
422.43	4966.62
422.61	4912.78
422.80	4964.28
422.99	5114.07
423.18	5146.84
423.37	5025.13
423.56	4999.38
423.75	4952.57
423.94	4938.53
424.13	4800.44
424.32	4751.29
424.50	4807.46
424.69	5109.39
424.88	5130.45
425.07	4929.17
425.26	5039.17
425.45	5008.75
425.64	4975.98
425.83	4968.96
426.01	5205.35
426.20	4985.34
426.39	5142.16
426.58	5149.18
426.77	5184.29
426.96	5217.05
427.15	5125.77
427.33	5160.88
427.52	5153.86
427.71	5301.31
427.90	5420.68
428.09	5465.15
428.28	5406.64
428.46	5355.15
428.65	5320.04
428.84	5504.94
429.03	5507.28
429.22	5474.51
429.40	5530.69
429.59	5523.66
429.78	5444.09
429.97	5289.61
430.16	5481.53
430.34	5678.14
430.53	5731.97
430.72	5645.37
430.91	5706.23
431.10	5738.99
431.28	5888.79
431.47	5813.89
431.66	5736.65
431.85	5741.33
432.03	5970.71
432.22	6054.97
432.41	5982.41
432.60	5914.53
432.79	6064.33
432.97	6160.29
433.16	6174.33
433.35	6122.84
433.54	6289.02
433.72	6239.87
433.91	6029.22
434.10	6127.52
434.28	6085.39
434.47	6394.34
434.66	6328.81
434.85	6377.96
435.03	6487.96
435.22	6267.95
435.41	6619.04
435.59	6499.67
435.78	6483.28
435.97	6593.29
436.16	6593.29
436.34	6590.95
436.53	6499.67
436.72	6724.36
436.90	6361.58
437.09	6768.83
437.28	6619.04
437.46	6726.70
437.65	6918.62
437.84	6988.84
438.02	6785.21
438.21	6712.66
438.40	6796.92
438.58	7246.30
438.77	7143.32
438.96	7059.06
439.14	7218.21
439.33	7246.30
439.52	7332.90
439.70	7236.94
439.89	7562.27
440.08	7485.03
440.26	7438.22
440.45	7508.44
440.63	7566.95
440.82	7805.69
441.01	7489.71
441.19	7562.27
441.38	7679.30
441.57	7592.70
441.75	7845.48
441.94	8095.91
442.12	7995.27
442.31	8161.45
442.50	8035.06
442.68	8145.06
442.87	8072.51
443.05	8205.92
443.24	8248.05
443.43	8276.13
443.61	8278.47
443.80	8454.02
443.98	8154.43
444.17	7861.86
444.35	8456.36
444.54	8634.24
444.73	8294.86
444.91	8423.59
445.10	8507.85
445.28	8374.44
445.47	8327.63
445.65	8652.96
445.84	8519.55
446.02	8688.07
446.21	8456.36
446.39	8479.76
446.58	8718.50
446.77	8617.85
446.95	8414.23
447.14	8461.04
447.32	8601.47
447.51	8734.88
447.69	8587.43
447.88	8650.62
448.06	8613.17
448.25	8713.81
448.43	8645.94
448.62	8521.89
448.80	8734.88
448.99	8741.90
449.17	8894.04
449.36	8877.65
449.54	8894.04
449.73	9004.04
449.91	8992.34
450.10	9200.65
450.28	9151.49
450.46	9137.45
450.65	9184.26
450.83	9085.96
451.02	9165.54
451.20	9273.20
451.39	9373.85
451.57	9118.73
451.76	9165.54
451.94	9369.16
452.13	9465.13
452.31	9312.99
452.49	9214.69
452.68	9420.66
452.86	9343.42
453.05	9537.68
453.23	9544.70
453.42	9647.69
453.60	9383.21
453.78	9708.54
453.97	9715.56
454.15	9586.83
454.34	9659.39
454.52	9909.83
454.70	9762.37
454.89	9909.83
455.07	9930.89
455.26	10127.50
455.44	10129.84
455.62	10040.90
455.81	9937.91
455.99	9980.04
456.17	10134.52
456.36	10307.72
456.54	10244.52
456.73	10324.10
456.91	10640.08
457.09	10310.06
457.28	10567.52
457.46	10394.32
457.64	10525.39
457.83	10630.71
458.01	10597.95
458.19	10878.81
458.38	10429.43
458.56	10855.40
458.74	10686.89
458.93	10970.09
459.11	10801.57
459.29	10726.68
459.48	10946.69
459.66	10890.51
459.84	11159.67
460.03	11346.92
460.21	11171.38
460.39	11115.20
460.57	11211.17
460.76	11021.58
460.94	11164.36
461.12	11295.43
461.31	11363.30
461.49	11089.46
461.67	11204.14
461.85	11391.39
462.04	11555.22
462.22	11559.91
462.40	11751.83
462.59	11454.58
462.77	11669.91
462.95	11925.03
463.13	11683.95
463.32	11836.09
463.50	11775.24
463.68	11763.53
463.86	11875.88
464.05	11616.08
464.23	11838.43
464.41	11969.50
464.59	11712.04
464.78	12290.15
464.96	12039.72
465.14	12093.55
465.32	12194.19
465.50	12208.23
465.69	12163.76
465.87	12311.22
466.05	12222.28
466.23	12496.12
466.41	12425.90
466.60	12678.68
466.78	12404.84
466.96	12526.55
467.14	12585.06
467.32	12425.90
467.51	12760.60
467.69	12299.52
467.87	12606.13
468.05	12903.37
468.23	12805.07
468.41	12594.42
468.60	12784.01
468.78	12971.25
468.96	12901.03
469.14	12952.52
469.32	12947.84
469.50	12868.27
469.69	13193.60
469.87	13397.23
470.05	13263.82
470.23	13561.06
470.41	13415.95
470.59	13193.60
470.77	13406.59
470.95	13392.55
471.14	13720.22
471.32	13352.76
471.50	13764.69
471.68	13722.56
471.86	13975.34
472.04	13848.95
472.22	14216.41
472.40	14026.83
472.58	14134.50
472.77	14267.91
472.95	14298.33
473.13	14707.93
473.31	14595.58
473.49	14052.58
473.67	14200.03
473.85	14497.28
474.03	14927.94
474.21	14799.21
474.39	15089.43
474.57	14888.15
474.75	15000.49
474.93	15059.01
475.12	15164.33
475.30	15117.52
475.48	15150.29
475.66	15309.44
475.84	15616.05
476.02	15573.92
476.20	15564.56
476.38	15812.66
476.56	15946.07
476.74	16308.85
476.92	16269.06
477.10	16187.14
477.28	15990.54
477.46	16449.28
477.64	16519.50
477.82	16826.11
478.00	16842.50
478.18	16875.26
478.36	17221.66
478.54	17362.09
478.72	17453.37
478.90	17551.68
479.08	17675.73
479.26	17874.67
479.44	17841.90
479.62	18082.98
479.80	18349.80
479.98	18359.16
480.16	18766.42
480.34	18583.85
480.52	18993.45
480.70	19147.92
480.88	18801.52
481.06	19112.81
481.24	18930.25
481.41	19655.82
481.59	19665.18
481.77	19555.18
481.95	19789.23
482.13	20238.61
482.31	19957.75
482.49	20585.01
482.67	20526.50
482.85	20652.89
483.03	20695.02
483.21	21001.63
483.39	21312.92
483.57	21404.20
483.74	21369.09
483.92	21837.20
484.10	21703.79
484.28	21954.22
484.46	22235.09
484.64	22471.48
484.82	22080.61
485.00	22492.55
485.18	22852.99
485.35	23112.79
485.53	23218.11
485.71	23262.58
485.89	23843.04
486.07	23616.01
486.25	23758.78
486.43	23953.04
486.61	23995.17
486.78	24308.80
486.96	24592.01
487.14	24966.49
487.32	24751.17
487.50	25132.67
487.68	25514.18
487.85	25902.71
488.03	25802.07
488.21	26377.84
488.39	26120.38
488.57	26120.38
488.75	26401.24
488.92	26740.62
489.10	27405.33
489.28	26857.65
489.46	27618.32
489.64	27566.83
489.81	27782.16
489.99	27985.79
490.17	28077.07
490.35	28458.57
490.53	28425.81
490.70	28624.75
490.88	28383.68
491.06	29095.20
491.24	29167.76
491.41	29364.36
491.59	29773.95
491.77	29649.91
491.95	29935.45
492.13	30349.73
492.30	30410.58
492.48	30731.23
492.66	30820.17
492.84	30937.20
493.01	31482.55
493.19	31000.40
493.37	31386.58
493.54	31274.24
493.72	32025.55
493.90	31927.25
494.08	32430.46
494.25	32685.58
494.43	32126.19
494.61	32896.23
494.79	32809.63
494.96	33242.63
495.14	33315.19
495.32	33570.30
495.49	33780.95
495.67	33640.52
495.85	33996.28
496.02	34670.36
496.20	34462.05
496.38	34309.91
496.55	34403.53
496.73	35077.61
496.91	34941.86
497.09	35220.38
497.26	35110.38
497.44	35241.45
497.62	35611.25
497.79	36568.53
497.97	35864.03
498.14	36879.82
498.32	36477.25
498.50	36425.76
498.67	37219.20
498.85	37277.71
499.03	36947.70
499.20	37401.76
499.38	37701.35
499.56	37869.87
499.73	37837.10
499.91	37883.91
500.08	38115.62
500.26	37916.68
500.44	38103.92
500.61	38595.43
500.79	38396.49
500.97	38429.26
501.14	39026.09
501.32	38787.36
501.49	39007.37
501.67	39330.36
501.84	39655.70
502.02	39344.41
502.20	39768.04
502.37	39945.92
502.55	39711.87
502.72	39852.30
502.90	39976.35
503.07	40275.94
503.25	40477.22
503.43	40664.47
503.60	40758.09
503.78	40966.40
503.95	40587.23
504.13	40793.20
504.30	40971.08
504.48	40793.20
504.65	41155.98
504.83	41163.00
505.01	41654.51
505.18	41935.38
505.36	42457.32
505.53	41731.75
505.71	42363.70
505.88	42431.57
506.06	41911.97
506.23	42368.38
506.41	42838.83
506.58	42841.17
506.76	42728.82
506.93	42911.38
507.11	42611.79
507.28	43278.85
507.46	43196.93
507.63	42958.19
507.81	43880.36
507.98	43115.01
508.16	43826.53
508.33	44086.33
508.50	43716.53
508.68	44542.74
508.85	44329.75
509.03	44385.92
509.20	44516.99
509.38	44699.55
509.55	44507.63
509.73	44971.05
509.90	44889.13
510.08	44832.96
510.25	45350.22
510.42	45001.48
510.60	45933.01
510.77	45401.71
510.95	45869.82
511.12	45586.61
511.30	45961.10
511.47	46113.23
511.64	46204.52
511.82	46279.41
511.99	46389.42
512.17	46583.68
512.34	46555.60
512.51	46710.07
512.69	46986.25
512.86	46939.44
513.04	47540.96
513.21	46972.21
513.38	47297.55
513.56	47536.28
513.73	47124.35
513.90	47044.77
514.08	47271.80
514.25	47903.74
514.43	47784.38
514.60	47992.68
514.77	47732.89
514.95	48193.97
515.12	48142.48
515.29	48399.94
515.47	48278.23
515.64	48531.01
515.81	48486.54
515.99	48233.76
516.16	49057.63
516.33	48889.11
516.51	48947.62
516.68	48980.39
516.85	49301.04
517.03	49361.90
517.20	49446.16
517.37	48952.30
517.54	49275.30
517.72	49172.31
517.89	49481.27
518.06	49911.92
518.24	49727.02
518.41	49738.72
518.58	49614.68
518.75	49766.81
518.93	50178.75
519.10	49886.18
519.27	50361.31
519.45	50202.15
519.62	50445.57
519.79	50365.99
519.96	50452.59
520.14	50300.45
520.31	50667.92
520.48	50773.24
520.65	50674.94
520.83	51150.07
521.00	50761.54
521.17	51070.49
521.34	51461.36
521.52	51217.94
521.69	51426.25
521.86	51615.83
522.03	51484.76
522.20	51943.51
522.38	51840.53
522.55	51557.32
522.72	51597.11
522.89	51887.34
523.07	51767.97
523.24	52037.13
523.41	52240.76
523.58	51672.01
523.75	51772.65
523.92	52090.96
524.10	52561.41
524.27	52285.23
524.44	52327.36
524.61	52399.91
524.78	52514.60
524.96	52701.84
525.13	52673.76
525.30	52802.49
525.47	52905.47
525.64	52828.23
525.81	52631.63
525.98	53064.63
526.16	52903.13
526.33	52861.00
526.50	53308.04
526.67	53195.70
526.84	53261.23
527.01	53162.93
527.18	53375.92
527.36	53389.96
527.53	53474.22
527.70	53776.15
527.87	53811.26
528.04	53284.64
528.21	53506.99
528.38	53727.00
528.55	53984.46
528.72	53815.94
528.89	53829.98
529.07	53553.80
529.24	53848.71
529.41	53958.71
529.58	54199.79
529.75	53947.01
529.92	54059.35
530.09	54246.60
530.26	54195.10
530.43	54452.56
530.60	54206.81
530.77	53951.69
530.94	54342.56
531.11	54391.71
531.28	54574.27
531.46	54574.27
531.63	54637.47
531.80	54829.39
531.97	54618.74
532.14	54906.63
532.31	54967.48
532.48	54944.08
532.65	54862.16
532.82	54864.50
532.99	54897.27
533.16	55009.61
533.33	55222.60
533.50	55627.51
533.67	55065.78
533.84	54920.67
534.01	55262.39
534.18	55412.18
534.35	55440.27
534.52	55484.74
534.69	55655.60
534.86	55494.10
535.03	55320.90
535.20	55674.32
535.37	55707.09
535.54	55821.78
535.71	55676.66
535.88	55697.73
536.05	55679.00
536.22	56123.71
536.38	56016.04
536.55	55950.51
536.72	55973.91
536.89	55868.59
537.06	55840.50
537.23	56016.04
537.40	56214.99
537.57	55929.44
537.74	56158.81
537.91	56172.86
538.08	56271.16
538.25	55966.89
538.42	56254.78
538.59	56425.64
538.75	56245.41
538.92	56425.64
539.09	56554.36
539.26	56390.53
539.43	56376.48
539.60	56528.62
539.77	56573.09
539.94	56940.55
540.11	56615.22
540.28	56776.72
540.44	56921.83
540.61	56575.43
540.78	56685.43
540.95	56816.50
541.12	56790.76
541.29	56978.00
541.46	56903.10
541.62	56884.38
541.79	56975.66
541.96	56484.15
542.13	57031.83
542.30	56821.19
542.47	57102.05
542.63	57109.07
542.80	57176.95
542.97	57261.21
543.14	57675.48
543.31	57572.50
543.48	57499.94
543.64	57790.17
543.81	57619.31
543.98	57801.87
544.15	57602.92
544.32	57708.25
544.48	57855.70
544.65	57623.99
544.82	57602.92
544.99	57804.21
545.16	57876.77
545.32	57701.23
545.49	58073.37
545.66	58007.84
545.83	57963.37
546.00	57792.51
546.16	57785.49
546.33	57888.47
546.50	57762.08
546.67	58064.01
546.83	57766.76
547.00	58183.38
547.17	58127.20
547.34	58010.18
547.50	58267.64
547.67	58202.10
547.84	58295.72
548.00	58592.97
548.17	58585.95
548.34	58426.79
548.51	58560.20
548.67	58485.31
548.84	58550.84
549.01	58468.92
549.18	58541.48
549.34	58571.91
549.51	58431.47
549.68	58756.81
549.84	58901.92
550.01	58808.30
550.18	58323.81
550.34	58831.71
550.51	58625.74
550.68	58592.97
550.84	58567.23
551.01	59014.27
551.18	58995.54
551.34	58719.36
551.51	58808.30
551.68	59007.25
551.84	58979.16
552.01	58639.78
552.18	59128.95
552.34	58850.43
552.51	58869.15
552.68	58897.24
552.84	59068.10
553.01	59348.96
553.18	59096.19
553.34	59412.16
553.51	59032.99
553.67	59145.34
553.84	59433.22
554.01	59227.26
554.17	59264.70
554.34	59421.52
554.51	59360.67
554.67	59365.35
554.84	59112.57
555.00	59288.11
555.17	59182.79
555.33	59288.11
555.50	59143.00
555.67	59248.32
555.83	59346.62
556.00	59339.60
556.16	59693.02
556.33	59634.51
556.50	59587.70
556.66	59662.60
556.83	59611.10
556.99	59681.32
557.16	59709.41
557.32	59442.59
557.49	59824.09
557.65	59533.87
557.82	59622.81
557.98	59643.87
558.15	59676.64
558.32	59875.58
558.48	59643.87
558.65	59688.34
558.81	59739.83
558.98	60034.74
559.14	60051.12
559.31	59875.58
559.47	60020.70
559.64	59973.89
559.80	60163.47
559.97	60102.62
560.13	59859.20
560.30	60292.20
560.46	59943.46
560.63	60144.75
560.79	60116.66
560.96	60172.83
561.12	59856.86
561.29	60193.90
561.45	60051.12
561.61	60231.35
561.78	60025.38
561.94	60151.77
562.11	59994.95
562.27	60303.90
562.44	60205.60
562.60	60411.57
562.77	60310.92
562.93	59976.23
563.10	60406.89
563.26	60016.02
563.42	60324.97
563.59	60236.03
563.75	60418.59
563.92	60191.56
564.08	60514.55
564.24	60505.19
564.41	60420.93
564.57	60303.90
564.74	60425.61
564.90	60385.82
565.07	60453.70
565.23	60547.32
565.39	60465.40
565.56	60446.68
565.72	60329.65
565.88	60413.91
566.05	60240.71
566.21	60278.16
566.38	60392.84
566.54	60523.91
566.70	60683.07
566.87	60669.03
567.03	60514.55
567.19	60573.06
567.36	60704.13
567.52	60608.17
567.68	60774.35
567.85	60561.36
568.01	60729.88
568.17	60406.89
568.34	60823.50
568.50	60664.35
568.66	60657.32
568.83	60743.92
568.99	60781.37
569.15	60727.54
569.32	60434.97
569.48	60776.69
569.64	60835.20
569.81	60708.82
569.97	60743.92
570.13	60800.10
570.30	60486.46
570.46	60996.70
570.62	60743.92
570.78	60860.95
570.95	60811.80
571.11	60879.67
571.27	60877.33
571.43	60797.76
571.60	60952.23
571.76	61027.13
571.92	60814.14
572.09	60846.91
572.25	60914.78
572.41	60807.12
572.57	61010.74
572.74	61286.93
572.90	61006.06
573.06	60982.66
573.22	60912.44
573.38	60797.76
573.55	60907.76
573.71	61223.73
573.87	61045.85
574.03	60790.73
574.20	60863.29
574.36	60968.61
574.52	60977.98
574.68	61017.77
574.84	61029.47
575.01	61059.90
575.17	61076.28
575.33	60900.74
575.49	61069.26
575.65	61076.28
575.82	61102.03
575.98	60977.98
576.14	61373.53
576.30	61095.00
576.46	60900.74
576.62	61022.45
576.79	61116.07
576.95	60849.25
577.11	60973.30
577.27	61181.60
577.43	61106.71
577.59	60940.53
577.75	61099.68
577.92	60870.31
578.08	61162.88
578.24	60982.66
578.40	61165.22
578.56	61237.78
578.72	61190.97
578.88	61109.05
579.04	61319.70
579.21	61209.69
579.37	61293.95
579.53	61331.40
579.69	61151.18
579.85	60912.44
580.01	61099.68
580.17	61069.26
580.33	61476.51
580.49	61485.87
580.65	61132.45
580.82	60999.04
580.98	61022.45
581.14	61066.92
581.30	61520.98
581.46	61113.73
581.62	61247.14
581.78	61160.54
581.94	61247.14
582.10	61041.17
582.26	61183.94
582.42	61120.75
582.58	61366.51
582.74	60942.87
582.90	61226.07
583.06	61254.16
583.22	61169.90
583.38	61385.23
583.54	61209.69
583.70	61162.88
583.86	61485.87
584.02	61188.63
584.18	61286.93
584.34	61272.88
584.50	61312.67
584.66	61312.67
584.82	61080.96
584.98	61303.31
585.14	61326.72
585.30	60980.32
585.46	61237.78
585.62	61132.45
585.78	61254.16
585.94	61219.05
586.10	61279.91
586.26	61319.70
586.42	61387.57
586.58	61565.45
586.74	61240.12
586.90	61448.42
587.06	61298.63
587.22	61495.24
587.38	61230.75
587.54	61354.80
587.70	61443.74
587.86	61368.85
588.02	61270.54
588.18	61462.47
588.34	61169.90
588.49	61286.93
