SpectraSuite Data File
++++++++++++++++++++++++++++++++++++
Date: Fri Oct 25 10:44:47 EDT 2013
User: price-jones
Dark Spectrum Present: No
Reference Spectrum Present: No
Number of Sampled Component Spectra: 1
Spectrometers: USB2+H05261
Integration Time (usec): 100000 (USB2+H05261)
Spectra Averaged: 1 (USB2+H05261)
Boxcar Smoothing: 0 (USB2+H05261)
Correct for Electrical Dark: No (USB2+H05261)
Strobe/Lamp Enabled: No (USB2+H05261)
Correct for Detector Non-linearity: No (USB2+H05261)
Correct for Stray Light: No (USB2+H05261)
Number of Pixels in Processed Spectrum: 2048
>>>>>Begin Processed Spectral Data<<<<<
365.73	72.56
365.92	72.56
366.12	72.56
366.32	16.38
366.52	18.72
366.72	35.11
366.91	0.00
367.11	56.17
367.31	18.72
367.51	0.00
367.70	28.09
367.90	88.94
368.10	0.00
368.30	21.06
368.49	44.47
368.69	16.38
368.89	145.11
369.09	0.00
369.28	25.75
369.48	9.36
369.68	0.00
369.87	39.79
370.07	65.54
370.27	124.05
370.47	259.80
370.66	397.89
370.86	393.21
371.06	430.66
371.25	470.45
371.45	447.04
371.65	458.74
371.84	407.25
372.04	369.80
372.24	458.74
372.44	437.68
372.63	397.89
372.83	493.85
373.03	468.11
373.22	507.90
373.42	479.81
373.62	477.47
373.81	503.22
374.01	573.43
374.21	505.56
374.40	514.92
374.60	535.98
374.79	531.30
374.99	407.25
375.19	535.98
375.38	531.30
375.58	543.00
375.78	587.47
375.97	566.41
376.17	564.07
376.37	606.20
376.56	608.54
376.76	533.64
376.95	653.01
377.15	557.05
377.35	608.54
377.54	571.09
377.74	585.13
377.93	575.77
378.13	629.60
378.33	669.39
378.52	662.37
378.72	589.82
378.91	613.22
379.11	655.35
379.31	596.84
379.50	566.41
379.70	594.50
379.89	645.99
380.09	578.11
380.28	643.65
380.48	664.71
380.68	648.33
380.87	592.16
381.07	517.26
381.26	648.33
381.46	641.31
381.65	706.84
381.85	763.01
382.04	638.97
382.24	636.63
382.43	564.07
382.63	545.34
382.83	688.12
383.02	681.10
383.22	664.71
383.41	638.97
383.61	706.84
383.80	763.01
384.00	685.78
384.19	720.88
384.39	699.82
384.58	678.76
384.78	791.10
384.97	765.36
385.17	748.97
385.36	699.82
385.56	716.20
385.75	767.70
385.95	702.16
386.14	866.00
386.34	849.61
386.53	753.65
386.72	697.48
386.92	842.59
387.11	753.65
387.31	798.12
387.50	748.97
387.70	716.20
387.89	758.33
388.09	856.64
388.28	856.64
388.48	791.10
388.67	863.66
388.86	903.45
389.06	856.64
389.25	894.08
389.45	926.85
389.64	943.24
389.84	868.34
390.03	945.58
390.22	868.34
390.42	940.90
390.61	997.07
390.81	896.43
391.00	1034.52
391.19	1048.56
391.39	1043.88
391.58	917.49
391.78	959.62
391.97	929.19
392.16	889.40
392.36	976.00
392.55	957.28
392.75	973.66
392.94	1050.90
393.13	936.21
393.33	915.15
393.52	926.85
393.71	978.34
393.91	1060.26
394.10	999.41
394.29	1055.58
394.49	1050.90
394.68	1018.13
394.88	1137.50
395.07	1130.48
395.26	1153.88
395.46	1158.57
395.65	1100.05
395.84	1135.16
396.04	1186.65
396.23	1153.88
396.42	1114.10
396.62	1109.41
396.81	1179.63
397.00	1125.80
397.19	1177.29
397.39	1235.80
397.58	1174.95
397.77	1191.33
397.97	1217.08
398.16	1233.46
398.35	1266.23
398.55	1249.85
398.74	1268.57
398.93	1327.08
399.12	1320.06
399.32	1383.26
399.51	1373.89
399.70	1366.87
399.90	1331.76
400.09	1432.41
400.28	1427.73
400.47	1345.81
400.67	1479.22
400.86	1401.98
401.05	1474.54
401.24	1486.24
401.44	1507.30
401.63	1479.22
401.82	1479.22
402.01	1507.30
402.21	1589.22
402.40	1535.39
402.59	1535.39
402.78	1490.92
402.97	1535.39
403.17	1561.14
403.36	1612.63
403.55	1626.67
403.74	1626.67
403.93	1706.25
404.13	1724.97
404.32	1727.32
404.51	1687.53
404.70	1724.97
404.89	1715.61
405.09	1816.26
405.28	1692.21
405.47	1724.97
405.66	1755.40
405.85	1785.83
406.05	1771.79
406.24	1891.15
406.43	1858.39
406.62	1792.85
406.81	1947.33
407.00	1863.07
407.20	1790.51
407.39	1769.44
407.58	1856.04
407.77	1888.81
407.96	1968.39
408.15	1966.05
408.34	1961.37
408.54	1989.46
408.73	1966.05
408.92	2008.18
409.11	2106.48
409.30	2113.50
409.49	2001.16
409.68	2080.74
409.87	1998.82
410.07	2108.82
410.26	2019.88
410.45	2200.10
410.64	2352.24
410.83	2153.29
411.02	2263.30
411.21	2331.17
411.40	2289.04
411.59	2392.03
411.78	2366.28
411.98	2277.34
412.17	2363.94
412.36	2375.64
412.55	2434.16
412.74	2392.03
412.93	2389.69
413.12	2429.48
413.31	2490.33
413.50	2513.74
413.69	2569.91
413.88	2581.61
414.07	2555.86
414.26	2736.09
414.45	2658.85
414.64	2672.89
414.83	2579.27
415.02	2581.61
415.22	2836.73
415.41	2731.41
415.60	2848.43
415.79	2848.43
415.98	2874.18
416.17	2796.94
416.36	2829.71
416.55	2932.69
416.74	2846.09
416.93	2860.13
417.12	3040.36
417.31	2925.67
417.50	2981.84
417.69	3101.21
417.88	3068.44
418.07	3028.65
418.26	3066.10
418.45	3014.61
418.64	3084.83
418.83	3213.56
419.02	3054.40
419.21	3218.24
419.39	3239.30
419.58	3157.38
419.77	3098.87
419.96	3349.31
420.15	3318.88
420.34	3227.60
420.53	3335.26
420.72	3440.59
420.91	3370.37
421.10	3475.70
421.29	3370.37
421.48	3337.60
421.67	3407.82
421.86	3403.14
422.05	3466.33
422.24	3304.84
422.43	3346.97
422.61	3447.61
422.80	3604.42
422.99	3520.17
423.18	3534.21
423.37	3494.42
423.56	3520.17
423.75	3433.57
423.94	3489.74
424.13	3251.00
424.32	3370.37
424.50	3597.40
424.69	3604.42
424.88	3674.64
425.07	3571.66
425.26	3471.01
425.45	3365.69
425.64	3494.42
425.83	3609.11
426.01	3606.77
426.20	3466.33
426.39	3665.28
426.58	3695.71
426.77	3445.27
426.96	3599.74
427.15	3700.39
427.33	3674.64
427.52	3695.71
427.71	3709.75
427.90	3705.07
428.09	3714.43
428.28	3707.41
428.46	3791.67
428.65	3789.33
428.84	4014.02
429.03	3955.51
429.22	3873.59
429.40	3861.88
429.59	3789.33
429.78	3693.37
429.97	3620.81
430.16	3810.39
430.34	3822.09
430.53	3747.20
430.72	3803.37
430.91	3784.65
431.10	3978.91
431.28	4086.58
431.47	4219.99
431.66	4065.51
431.85	3978.91
432.03	4105.30
432.22	4285.52
432.41	4119.34
432.60	4248.07
432.79	4236.37
432.97	4252.75
433.16	4276.16
433.35	4243.39
433.54	4266.80
433.72	4205.94
433.91	4238.71
434.10	4262.12
434.28	4372.12
434.47	4381.48
434.66	4617.88
434.85	4479.79
435.03	4470.42
435.22	4409.57
435.41	4624.90
435.59	4318.29
435.78	4566.39
435.97	4538.30
436.16	4535.96
436.34	4578.09
436.53	4615.54
436.72	4575.75
436.90	4512.55
437.09	4695.11
437.28	4615.54
437.46	4744.27
437.65	4748.95
437.84	4884.70
438.02	4847.25
438.21	4727.88
438.40	4596.81
438.58	4814.48
438.77	5125.77
438.96	4807.46
439.14	4851.93
439.33	4973.64
439.52	5142.16
439.70	4973.64
439.89	5121.09
440.08	5184.29
440.26	5181.95
440.45	5233.44
440.63	5193.65
440.82	5247.48
441.01	5315.36
441.19	5376.21
441.38	5511.96
441.57	5259.18
441.75	5586.86
441.94	5628.99
442.12	5689.84
442.31	5617.29
442.50	5523.66
442.68	5603.24
442.87	5678.14
443.05	5584.52
443.24	5870.06
443.43	5736.65
443.61	5701.54
443.80	5827.93
443.98	5774.10
444.17	5708.57
444.35	5734.31
444.54	5935.60
444.73	5940.28
444.91	5816.23
445.10	5823.25
445.28	5809.21
445.47	5774.10
445.65	5764.74
445.84	5994.11
446.02	6015.18
446.21	5977.73
446.39	5968.37
446.58	5891.13
446.77	6038.58
446.95	5895.81
447.14	6008.16
447.32	6015.18
447.51	6019.86
447.69	5935.60
447.88	6022.20
448.06	5991.77
448.25	5951.98
448.43	6230.51
448.62	6162.63
448.80	5968.37
448.99	6069.01
449.17	6164.97
449.36	6136.88
449.54	6487.96
449.73	6307.74
449.91	6282.00
450.10	6401.37
450.28	6424.77
450.46	6494.99
450.65	6373.28
450.83	6354.55
451.02	6366.26
451.20	6375.62
451.39	6502.01
451.57	6427.11
451.76	6492.65
451.94	6518.39
452.13	6537.12
452.31	6324.13
452.49	6363.92
452.68	6651.80
452.86	6448.18
453.05	6661.16
453.23	6717.34
453.42	6466.90
453.60	6537.12
453.78	6612.01
453.97	6663.51
454.15	6583.93
454.34	6686.91
454.52	6796.92
454.70	6733.72
454.89	6810.96
455.07	6644.78
455.26	6733.72
455.44	6970.12
455.62	7131.61
455.81	6998.20
455.99	7133.95
456.17	7000.54
456.36	7054.37
456.54	7208.85
456.73	7185.44
456.91	7300.13
457.09	7267.36
457.28	7529.50
457.46	7250.98
457.64	7400.77
457.83	7119.91
458.01	7197.15
458.19	7433.54
458.38	7360.98
458.56	7456.95
458.74	7513.12
458.93	7246.30
459.11	7559.93
459.29	7555.25
459.48	7569.29
459.66	7466.31
459.84	7543.55
460.03	7740.15
460.21	7896.97
460.39	7770.58
460.57	7829.09
460.76	7847.82
460.94	7779.94
461.12	7992.93
461.31	7864.20
461.49	7777.60
461.67	7742.49
461.85	7948.46
462.04	7667.60
462.22	8180.17
462.40	8013.99
462.59	7925.05
462.77	7962.50
462.95	8156.77
463.13	8056.12
463.32	7864.20
463.50	8229.32
463.68	7981.23
463.86	7971.86
464.05	8159.11
464.23	8070.17
464.41	8154.43
464.59	7946.12
464.78	8336.99
464.96	8266.77
465.14	8234.00
465.32	8393.16
465.50	8351.03
465.69	8428.27
465.87	8156.77
466.05	8390.82
466.23	8245.71
466.41	8353.37
466.60	8659.98
466.78	8259.75
466.96	8367.42
467.14	8519.55
467.32	8449.33
467.51	8784.03
467.69	8374.44
467.87	8542.96
468.05	8470.40
468.23	8568.70
468.41	8400.18
468.60	8592.11
468.78	8779.35
468.96	8692.75
469.14	8954.89
469.32	8912.76
469.50	8622.53
469.69	8849.57
469.87	8997.02
470.05	8952.55
470.23	9011.06
470.41	8945.53
470.59	9186.60
470.77	8903.40
470.95	9156.18
471.14	9273.20
471.32	9034.47
471.50	9486.19
471.68	9174.90
471.86	9439.38
472.04	9455.76
472.22	9664.07
472.40	9231.07
472.58	9483.85
472.77	9355.12
472.95	9621.94
473.13	9727.27
473.31	9533.00
473.49	9462.79
473.67	9820.89
473.85	9565.77
474.03	9851.31
474.21	10129.84
474.39	10090.05
474.57	10136.86
474.75	10101.75
474.93	10207.08
475.12	10195.37
475.30	10164.95
475.48	10551.14
475.66	10408.36
475.84	10270.27
476.02	10340.49
476.20	10335.81
476.38	10616.67
476.56	10796.89
476.74	10506.66
476.92	10904.56
477.10	10782.85
477.28	10862.43
477.46	11126.91
477.64	11204.14
477.82	11152.65
478.00	11330.53
478.18	11171.38
478.36	11468.62
478.54	11695.66
478.72	11468.62
478.90	11690.98
479.08	11957.80
479.26	11733.11
479.44	11845.45
479.62	11850.13
479.80	12196.53
479.98	12168.45
480.16	12456.33
480.34	12400.16
480.52	12638.89
480.70	12444.63
480.88	12456.33
481.06	12723.15
481.24	12514.84
481.41	12758.26
481.59	13233.39
481.77	13081.25
481.95	12987.63
482.13	13284.88
482.31	13439.36
482.49	13507.23
482.67	13633.62
482.85	13741.29
483.03	13888.74
483.21	13820.86
483.39	14010.45
483.57	14125.13
483.74	14256.20
483.92	14391.95
484.10	14059.60
484.28	14352.16
484.46	14829.63
484.64	14780.48
484.82	14635.37
485.00	14712.61
485.18	15077.73
485.35	15438.17
485.53	14876.44
485.71	15009.86
485.89	15435.83
486.07	15108.16
486.25	15517.75
486.43	15728.40
486.61	15740.10
486.78	15859.47
486.96	15960.11
487.14	16264.38
487.32	16116.93
487.50	16535.88
487.68	16720.79
487.85	16844.84
488.03	16882.28
488.21	17193.58
488.39	16959.52
488.57	17221.66
488.75	17226.34
488.92	17696.79
489.10	18033.83
489.28	17633.60
489.46	17848.93
489.64	17750.62
489.81	18277.24
489.99	18391.93
490.17	18703.22
490.35	18810.89
490.53	18457.46
490.70	18988.77
490.88	18892.80
491.06	19262.61
491.24	18841.31
491.41	18974.72
491.59	19307.08
491.77	19344.53
491.95	19180.69
492.13	19719.01
492.30	19924.98
492.48	19756.46
492.66	20072.43
492.84	19934.34
493.01	20287.76
493.19	20376.70
493.37	20400.11
493.54	20638.84
493.72	20439.90
493.90	20943.11
494.08	21015.67
494.25	20947.79
494.43	21701.45
494.61	21483.78
494.79	21535.27
494.96	21516.54
495.14	21610.17
495.32	21598.46
495.49	21961.25
495.67	22134.45
495.85	21996.35
496.02	22192.96
496.20	22405.95
496.38	22317.01
496.55	22625.96
496.73	23166.62
496.91	22871.72
497.09	22640.00
497.26	23108.11
497.44	22988.74
497.62	23307.05
497.79	23285.99
497.97	23555.15
498.14	23733.03
498.32	23623.03
498.50	23295.35
498.67	24308.80
498.85	24060.71
499.03	23861.76
499.20	24065.39
499.38	24416.47
499.56	24285.40
499.73	24336.89
499.91	24290.08
500.08	24863.51
500.26	24215.18
500.44	24629.46
500.61	24732.44
500.79	24795.64
500.97	25057.78
501.14	25165.44
501.32	25493.12
501.49	25394.81
501.67	25165.44
501.84	25301.19
502.02	25355.02
502.20	25619.50
502.37	25612.48
502.55	25891.01
502.72	25867.60
502.90	25820.79
503.07	25682.70
503.25	26129.74
503.43	25902.71
503.60	26218.68
503.78	26099.31
503.95	26258.47
504.13	25979.95
504.30	26632.96
504.48	26541.68
504.65	26808.50
504.83	26733.60
505.01	27009.78
505.18	27108.08
505.36	27400.65
505.53	27386.61
505.71	27606.62
505.88	27449.80
506.06	27276.60
506.23	27548.11
506.41	27157.24
506.58	27414.69
506.76	27587.89
506.93	27742.37
507.11	27674.49
507.28	27646.41
507.46	27620.66
507.63	27885.14
507.81	27999.83
507.98	28039.62
508.16	28041.96
508.33	28528.79
508.50	28453.89
508.68	28718.37
508.85	29214.57
509.03	28446.87
509.20	28582.62
509.38	29130.31
509.55	28800.29
509.73	28936.04
509.90	28779.23
510.08	29097.54
510.25	29149.03
510.42	29259.04
510.60	29511.81
510.77	29752.89
510.95	30026.73
511.12	29834.81
511.30	29722.46
511.47	30099.29
511.64	29839.49
511.82	30199.93
511.99	29738.85
512.17	30232.70
512.34	30438.67
512.51	30466.75
512.69	30609.53
512.86	30703.15
513.04	30831.88
513.21	30621.23
513.38	30756.98
513.56	30651.66
513.73	31049.55
513.90	31185.30
514.08	31033.16
514.25	31433.39
514.43	31461.48
514.60	31152.53
514.77	31257.85
514.95	31297.64
515.12	31349.14
515.29	30925.50
515.47	31957.67
515.64	31648.72
515.81	31288.28
515.99	31611.28
516.16	31711.92
516.33	31630.00
516.51	31672.13
516.68	31417.01
516.85	31482.55
517.03	31351.48
517.20	31611.28
517.37	31821.92
517.54	32137.90
517.72	31800.86
517.89	32142.58
518.06	32226.84
518.24	32362.59
518.41	32339.18
518.58	32217.47
518.75	32545.15
518.93	32781.54
519.10	32355.57
519.27	32992.19
519.45	32886.87
519.62	32957.08
519.79	32968.79
519.96	33109.22
520.14	33156.03
520.31	33090.49
520.48	33352.63
520.65	33345.61
520.83	33696.69
521.00	33504.77
521.17	33722.44
521.34	33816.06
521.52	33766.91
521.69	33848.83
521.86	33752.87
522.03	33809.04
522.20	33996.28
522.38	33839.47
522.55	34047.77
522.72	34197.57
522.89	34646.95
523.07	34398.85
523.24	34340.34
523.41	34499.50
523.58	34539.29
523.75	34888.03
523.92	34607.16
524.10	35030.80
524.27	34981.65
524.44	34742.91
524.61	34948.88
524.78	35288.26
524.96	35545.72
525.13	35519.97
525.30	35426.35
525.47	35321.02
525.64	35278.89
525.81	35271.87
525.98	35225.06
526.16	35274.21
526.33	35108.04
526.50	35585.50
526.67	35412.31
526.84	35302.30
527.01	35405.28
527.18	35538.69
527.36	35974.03
527.53	36175.32
527.70	36357.88
527.87	36123.83
528.04	36353.20
528.21	35772.75
528.38	35838.28
528.55	36402.35
528.72	36268.94
528.89	36807.26
529.07	36320.43
529.24	36425.76
529.41	36641.09
529.58	36568.53
529.75	36748.75
529.92	36816.63
530.09	36968.76
530.26	36891.52
530.43	36753.43
530.60	36343.84
530.77	36739.39
530.94	37106.85
531.11	36608.32
531.28	37092.81
531.46	36807.26
531.63	37425.17
531.80	36989.83
531.97	37062.38
532.14	36634.06
532.31	37160.69
532.48	37263.67
532.65	37567.94
532.82	37226.22
532.99	37659.22
533.16	37390.06
533.33	37663.90
533.50	37820.72
533.67	37825.40
533.84	37809.01
534.01	37713.05
534.18	37708.37
534.35	38099.24
534.52	37757.52
534.69	38274.78
534.86	38019.66
535.03	38101.58
535.20	38532.24
535.37	38639.90
535.54	38717.14
535.71	38553.30
535.88	38541.60
536.05	38220.95
536.22	38810.76
536.38	38513.52
536.55	38705.44
536.72	38115.62
536.89	38632.88
537.06	38642.24
537.23	38026.68
537.40	38246.69
537.57	38714.80
537.74	38703.10
537.91	39302.28
538.08	39103.33
538.25	38529.90
538.42	38810.76
538.59	39023.75
538.75	38691.40
538.92	38960.56
539.09	39108.01
539.26	39185.25
539.43	39051.84
539.60	39281.21
539.77	38824.81
539.94	39597.18
540.11	39246.10
540.28	39208.65
540.44	39428.66
540.61	39339.72
540.78	39299.94
540.95	39248.44
541.12	39360.79
541.29	39194.61
541.46	39599.52
541.62	39576.12
541.79	39938.90
541.96	39426.32
542.13	39833.58
542.30	39955.29
542.47	39955.29
542.63	40100.40
542.80	39908.47
542.97	40399.99
543.14	40547.44
543.31	40259.55
543.48	40325.09
543.64	40973.42
543.81	40664.47
543.98	40374.24
544.15	40786.18
544.32	41148.96
544.48	40933.63
544.65	40683.19
544.82	40891.50
544.99	40250.19
545.16	40786.18
545.32	40507.65
545.49	41153.64
545.66	41134.92
545.83	41134.92
546.00	41198.11
546.16	40999.16
546.33	41310.46
546.50	40823.62
546.67	41141.94
546.83	40879.80
547.00	41373.65
547.17	40769.79
547.34	41078.74
547.50	41132.57
547.67	41474.29
547.84	41404.08
548.00	41326.84
548.17	41680.26
548.34	41420.46
548.51	41787.92
548.67	41757.50
548.84	41708.35
549.01	41394.71
549.18	41457.91
549.34	41893.25
549.51	42401.14
549.68	41471.95
549.84	42054.75
550.01	42080.49
550.18	42078.15
550.34	41904.95
550.51	41720.05
550.68	42014.96
550.84	41495.36
551.01	42216.24
551.18	41759.84
551.34	42029.00
551.51	42497.11
551.68	42258.37
551.84	41977.51
552.01	42150.71
552.18	42246.67
552.34	41446.21
552.51	42139.00
552.68	41986.87
552.84	42284.12
553.01	42719.46
553.18	42071.13
553.34	42195.18
553.51	41748.14
553.67	42101.56
553.84	42536.90
554.01	42326.25
554.17	43079.90
554.34	42859.89
554.51	42309.86
554.67	43112.67
554.84	42799.04
555.00	42625.84
555.17	42686.69
555.33	42981.60
555.50	42546.26
555.67	42557.96
555.83	42902.02
556.00	42887.98
556.16	43026.07
556.33	42787.33
556.50	42979.26
556.66	43241.40
556.83	42520.51
556.99	43171.18
557.16	43344.38
557.32	42864.57
557.49	43189.91
557.65	42873.93
557.82	42583.71
557.98	42979.26
558.15	43374.81
558.32	43246.08
558.48	43016.71
558.65	42780.31
558.81	43007.34
558.98	42850.53
559.14	43070.54
559.31	43438.00
559.47	43110.33
559.64	43749.29
559.80	43225.01
559.97	43145.44
560.13	43196.93
560.30	43222.67
560.46	42946.49
560.63	43679.08
560.79	43882.70
560.96	43936.54
561.12	43475.45
561.29	43531.62
561.45	43367.79
561.61	43405.23
561.78	43632.27
561.94	43367.79
562.11	43426.30
562.27	43381.83
562.44	43871.00
562.60	44030.16
562.77	44013.77
562.93	44009.09
563.10	43510.56
563.26	43182.88
563.42	43667.37
563.59	43543.33
563.75	43550.35
563.92	43782.06
564.08	43941.22
564.24	43950.58
564.41	43704.82
564.57	44296.98
564.74	43700.14
564.90	43730.57
565.07	43608.86
565.23	43430.98
565.39	43784.40
565.56	43538.65
565.72	43613.54
565.88	43416.94
566.05	43473.11
566.21	43737.59
566.38	43899.09
566.54	43536.30
566.70	44261.87
566.87	44130.80
567.03	44109.74
567.19	44311.02
567.36	44268.89
567.52	43606.52
567.68	43969.30
567.85	43810.15
568.01	44072.29
568.17	43859.30
568.34	44114.42
568.50	43969.30
568.66	44046.54
568.83	44072.29
568.99	43370.13
569.15	43847.60
569.32	43973.98
569.48	44053.56
569.64	44069.95
569.81	44109.74
569.97	44189.31
570.13	43978.67
570.30	43723.55
570.46	44058.24
570.62	44093.35
570.78	43824.19
570.95	43849.94
571.11	44367.20
571.27	43990.37
571.43	44243.15
571.60	43693.12
571.76	44137.82
571.92	43903.77
572.09	43728.23
572.25	43892.07
572.41	43924.83
572.57	44491.24
572.74	44479.54
572.90	44123.78
573.06	44364.85
573.22	44346.13
573.38	43943.56
573.55	43941.22
573.71	44231.44
573.87	44350.81
574.03	43856.96
574.20	44046.54
574.36	44428.05
574.52	44212.72
574.68	44222.08
574.84	44184.63
575.01	44154.21
575.17	44186.97
575.33	44259.53
575.49	44135.48
575.65	44355.49
575.82	44318.04
575.98	44044.20
576.14	44692.53
576.30	44549.76
576.46	44313.36
576.62	43889.73
576.79	44121.44
576.95	44105.06
577.11	44294.64
577.27	44053.56
577.43	44147.18
577.59	44222.08
577.75	43749.29
577.92	44041.86
578.08	44404.64
578.24	43756.32
578.40	44247.83
578.56	44399.96
578.72	44112.08
578.88	44226.76
579.04	44329.75
579.21	44573.16
579.37	44596.57
579.53	44325.07
579.69	44287.62
579.85	44336.77
580.01	44493.58
580.17	44261.87
580.33	44638.70
580.49	44313.36
580.65	44390.60
580.82	44652.74
580.98	44463.16
581.14	44287.62
581.30	44718.28
581.46	44540.39
581.62	44928.92
581.78	44329.75
581.94	44861.05
582.10	44320.38
582.26	44329.75
582.42	44547.42
582.58	44421.03
582.74	44692.53
582.90	44737.00
583.06	44580.18
583.22	44566.14
583.38	44718.28
583.54	44713.59
583.70	44568.48
583.86	44406.98
584.02	43948.24
584.18	44655.08
584.34	44570.82
584.50	44591.89
584.66	44458.48
584.82	44502.95
584.98	44821.26
585.14	44648.06
585.30	44612.95
585.46	44261.87
585.62	44472.52
585.78	44395.28
585.94	44367.20
586.10	44325.07
586.26	44554.44
586.42	44945.31
586.58	44900.84
586.74	44645.72
586.90	44617.63
587.06	44128.46
587.22	44701.89
587.38	44229.10
587.54	45022.54
587.70	44720.62
587.86	44669.12
588.02	44554.44
588.18	44528.69
588.34	44285.28
588.49	44041.86
588.65	43730.57
588.81	44105.06
588.97	44287.62
589.13	44472.52
589.29	44121.44
589.45	44399.96
589.61	44210.38
589.77	44971.05
589.93	44713.59
590.08	45076.38
590.24	44582.52
590.40	44631.68
