SpectraSuite Data File
++++++++++++++++++++++++++++++++++++
Date: Fri Oct 25 11:34:29 EDT 2013
User: price-jones
Dark Spectrum Present: No
Reference Spectrum Present: No
Number of Sampled Component Spectra: 1
Spectrometers: USB2+H05261
Integration Time (usec): 100000 (USB2+H05261)
Spectra Averaged: 1 (USB2+H05261)
Boxcar Smoothing: 0 (USB2+H05261)
Correct for Electrical Dark: No (USB2+H05261)
Strobe/Lamp Enabled: No (USB2+H05261)
Correct for Detector Non-linearity: No (USB2+H05261)
Correct for Stray Light: No (USB2+H05261)
Number of Pixels in Processed Spectrum: 2048
>>>>>Begin Processed Spectral Data<<<<<
365.73	304.27
365.92	304.27
366.12	304.27
366.32	168.52
366.52	224.69
366.72	234.05
366.91	224.69
367.11	203.63
367.31	149.79
367.51	180.22
367.70	201.29
367.90	215.33
368.10	156.82
368.30	161.50
368.49	138.09
368.69	227.03
368.89	222.35
369.09	191.92
369.28	194.26
369.48	294.91
369.68	229.37
369.87	203.63
370.07	177.88
370.27	271.50
370.47	276.18
370.66	444.70
370.86	493.85
371.06	493.85
371.25	582.79
371.45	538.32
371.65	519.60
371.84	503.22
372.04	505.56
372.24	543.00
372.44	524.28
372.63	566.41
372.83	571.09
373.03	615.56
373.22	554.71
373.42	571.09
373.62	559.39
373.81	627.26
374.01	718.54
374.21	655.35
374.40	599.18
374.60	671.73
374.79	641.31
374.99	671.73
375.19	608.54
375.38	688.12
375.58	601.52
375.78	582.79
375.97	718.54
376.17	774.72
376.37	634.29
376.56	690.46
376.76	653.01
376.95	720.88
377.15	720.88
377.35	655.35
377.54	711.52
377.74	688.12
377.93	638.97
378.13	697.48
378.33	744.29
378.52	664.71
378.72	653.01
378.91	716.20
379.11	610.88
379.31	657.69
379.50	706.84
379.70	685.78
379.89	720.88
380.09	702.16
380.28	648.33
380.48	688.12
380.68	774.72
380.87	720.88
381.07	702.16
381.26	788.76
381.46	727.91
381.65	772.38
381.85	755.99
382.04	676.41
382.24	793.44
382.43	816.85
382.63	664.71
382.83	730.25
383.02	730.25
383.22	823.87
383.41	676.41
383.61	763.01
383.80	770.04
384.00	674.07
384.19	767.70
384.39	730.25
384.58	816.85
384.78	898.77
384.97	802.80
385.17	770.04
385.36	849.61
385.56	821.53
385.75	847.27
385.95	823.87
386.14	842.59
386.34	816.85
386.53	809.83
386.72	922.17
386.92	912.81
387.11	856.64
387.31	842.59
387.50	884.72
387.70	851.96
387.89	915.15
388.09	866.00
388.28	938.55
388.48	844.93
388.67	891.74
388.86	929.19
389.06	894.08
389.25	903.45
389.45	957.28
389.64	905.79
389.84	1013.45
390.03	966.64
390.22	929.19
390.42	1008.77
390.61	912.81
390.81	940.90
391.00	919.83
391.19	997.07
391.39	959.62
391.58	1020.47
391.78	938.55
391.97	961.96
392.16	980.68
392.36	1074.31
392.55	1020.47
392.75	1081.33
392.94	940.90
393.13	940.90
393.33	997.07
393.52	1027.50
393.71	1029.84
393.91	1020.47
394.10	978.34
394.29	1081.33
394.49	1064.94
394.68	1050.90
394.88	1062.60
395.07	1130.48
395.26	1062.60
395.46	1104.73
395.65	1116.44
395.84	1177.29
396.04	1137.50
396.23	1116.44
396.42	1156.22
396.62	1118.78
396.81	1228.78
397.00	1203.04
397.19	1132.82
397.39	1130.48
397.58	1231.12
397.77	1123.46
397.97	1191.33
398.16	1170.27
398.35	1308.36
398.55	1128.14
398.74	1364.53
398.93	1275.59
399.12	1324.74
399.32	1268.57
399.51	1287.29
399.70	1338.79
399.90	1287.29
400.09	1284.95
400.28	1364.53
400.47	1376.24
400.67	1317.72
400.86	1280.27
401.05	1366.87
401.24	1371.55
401.44	1380.92
401.63	1411.34
401.82	1404.32
402.01	1446.45
402.21	1366.87
402.40	1451.13
402.59	1441.77
402.78	1446.45
402.97	1523.69
403.17	1369.21
403.36	1453.47
403.55	1488.58
403.74	1519.01
403.93	1481.56
404.13	1612.63
404.32	1621.99
404.51	1556.46
404.70	1563.48
404.89	1607.95
405.09	1612.63
405.28	1626.67
405.47	1551.78
405.66	1645.40
405.85	1610.29
406.05	1650.08
406.24	1748.38
406.43	1673.48
406.62	1673.48
406.81	1760.08
407.00	1682.85
407.20	1739.02
407.39	1732.00
407.58	1746.04
407.77	1802.21
407.96	1816.26
408.15	1734.34
408.34	1774.13
408.54	1907.54
408.73	1905.20
408.92	1830.30
409.11	1799.87
409.30	1837.32
409.49	1996.48
409.68	1844.34
409.87	1968.39
410.07	1935.62
410.26	1940.30
410.45	1895.83
410.64	1944.99
410.83	2085.42
411.02	2047.97
411.21	2165.00
411.40	1994.14
411.59	2097.12
411.78	2146.27
411.98	2054.99
412.17	2043.29
412.36	2118.18
412.55	2176.70
412.74	2356.92
412.93	2291.38
413.12	2256.28
413.31	2377.98
413.50	2310.11
413.69	2298.41
413.88	2392.03
414.07	2286.70
414.26	2417.77
414.45	2518.42
414.64	2548.84
414.83	2516.08
415.02	2530.12
415.22	2602.68
415.41	2586.29
415.60	2588.63
415.79	2560.55
415.98	2555.86
416.17	2740.77
416.36	2647.15
416.55	2637.78
416.74	2691.62
416.93	2778.22
417.12	2626.08
417.31	2675.23
417.50	2773.53
417.69	2850.77
417.88	2867.16
418.07	2686.94
418.26	2724.38
418.45	2768.85
418.64	2988.86
418.83	2967.80
419.02	2860.13
419.21	2860.13
419.39	2822.69
419.58	3061.42
419.77	2944.39
419.96	3012.27
420.15	3019.29
420.34	2944.39
420.53	3080.14
420.72	3122.27
420.91	3075.46
421.10	3190.15
421.29	3187.81
421.48	3096.53
421.67	3145.68
421.86	3258.03
422.05	3272.07
422.24	3108.23
422.43	3133.98
422.61	3248.66
422.80	3375.05
422.99	3377.39
423.18	3213.56
423.37	3318.88
423.56	3269.73
423.75	3342.28
423.94	3124.62
424.13	3054.40
424.32	3222.92
424.50	3234.62
424.69	3377.39
424.88	3337.60
425.07	3236.96
425.26	3255.69
425.45	3342.28
425.64	3384.41
425.83	3351.65
426.01	3323.56
426.20	3314.20
426.39	3375.05
426.58	3398.46
426.77	3410.16
426.96	3405.48
427.15	3478.04
427.33	3485.06
427.52	3274.41
427.71	3501.44
427.90	3473.36
428.09	3431.23
428.28	3471.01
428.46	3485.06
428.65	3466.33
428.84	3550.59
429.03	3644.21
429.22	3393.78
429.40	3742.52
429.59	3641.87
429.78	3492.08
429.97	3555.27
430.16	3599.74
430.34	3709.75
430.53	3613.79
430.72	3707.41
430.91	3620.81
431.10	3714.43
431.28	3742.52
431.47	3875.93
431.66	3901.67
431.85	3667.62
432.03	3882.95
432.22	3871.25
432.41	3843.16
432.60	4037.42
432.79	3887.63
432.97	3927.42
433.16	3981.25
433.35	4023.38
433.54	3929.76
433.72	4058.49
433.91	4109.98
434.10	3997.64
434.28	3985.93
434.47	4138.07
434.66	4093.60
434.85	4138.07
435.03	4217.65
435.22	4109.98
435.41	4255.09
435.59	4016.36
435.78	4273.82
435.97	4241.05
436.16	4152.11
436.34	4362.76
436.53	4217.65
436.72	4318.29
436.90	4187.22
437.09	4250.41
437.28	4306.59
437.46	4339.35
437.65	4470.42
437.84	4393.19
438.02	4493.83
438.21	4486.81
438.40	4440.00
438.58	4573.41
438.77	4578.09
438.96	4482.13
439.14	4624.90
439.33	4535.96
439.52	4674.05
439.70	4697.46
439.89	4814.48
440.08	4821.50
440.26	4858.95
440.45	4905.76
440.63	4936.19
440.82	4908.10
441.01	4755.97
441.19	5020.45
441.38	5081.30
441.57	5004.07
441.75	4971.30
441.94	5041.51
442.12	5261.52
442.31	5203.01
442.50	5399.62
442.68	5205.35
442.87	5181.95
443.05	5263.86
443.24	5242.80
443.43	5320.04
443.61	5331.74
443.80	5455.79
443.98	5151.52
444.17	5139.82
444.35	5423.02
444.54	5453.45
444.73	5373.87
444.91	5425.36
445.10	5408.98
445.28	5373.87
445.47	5427.70
445.65	5327.06
445.84	5472.17
446.02	5451.11
446.21	5521.32
446.39	5397.28
446.58	5551.75
446.77	5425.36
446.95	5256.84
447.14	5434.72
447.32	5572.82
447.51	5420.68
447.69	5448.77
447.88	5394.93
448.06	5401.96
448.25	5542.39
448.43	5502.60
448.62	5621.97
448.80	5439.40
448.99	5703.89
449.17	5673.46
449.36	5605.58
449.54	5860.70
449.73	5743.67
449.91	5832.62
450.10	5809.21
450.28	5804.53
450.46	5788.14
450.65	5879.43
450.83	5865.38
451.02	5818.57
451.20	5944.96
451.39	5930.92
451.57	5811.55
451.76	5966.03
451.94	5776.44
452.13	6052.63
452.31	6022.20
452.49	6017.52
452.68	6169.65
452.86	6038.58
453.05	6153.27
453.23	6160.29
453.42	6195.40
453.60	5973.05
453.78	6197.74
453.97	6047.94
454.15	6164.97
454.34	6001.13
454.52	6207.10
454.70	6345.19
454.89	6207.10
455.07	6246.89
455.26	6406.05
455.44	6305.40
455.62	6244.55
455.81	6429.45
455.99	6436.47
456.17	6506.69
456.36	6399.02
456.54	6604.99
456.73	6595.63
456.91	6686.91
457.09	6768.83
457.28	6686.91
457.46	6658.82
457.64	6810.96
457.83	6684.57
458.01	6595.63
458.19	6895.22
458.38	6867.13
458.56	6946.71
458.74	6836.70
458.93	6806.28
459.11	6963.09
459.29	6965.43
459.48	6937.35
459.66	7108.21
459.84	6972.46
460.03	6984.16
460.21	6878.83
460.39	7250.98
460.57	7197.15
460.76	7258.00
460.94	7288.43
461.12	7171.40
461.31	7162.04
461.49	7208.85
461.67	7297.79
461.85	7358.64
462.04	7414.82
462.22	7730.79
462.40	7588.02
462.59	7363.33
462.77	7337.58
462.95	7456.95
463.13	7536.52
463.32	7468.65
463.50	7517.80
463.68	7592.70
463.86	7595.04
464.05	7562.27
464.23	7623.12
464.41	7562.27
464.59	7360.98
464.78	7679.30
464.96	7639.51
465.14	7679.30
465.32	7758.88
465.50	7770.58
465.69	7747.17
465.87	7754.19
466.05	7791.64
466.23	7660.57
466.41	7763.56
466.60	8088.89
466.78	7995.27
466.96	7763.56
467.14	7887.61
467.32	7887.61
467.51	8084.21
467.69	7885.26
467.87	8011.65
468.05	8013.99
468.23	7948.46
468.41	7953.14
468.60	8306.56
468.78	8198.90
468.96	8072.51
469.14	8177.83
469.32	8376.78
469.50	8196.56
469.69	8365.07
469.87	8489.12
470.05	8297.20
470.23	8404.86
470.41	8463.38
470.59	8486.78
470.77	8374.44
470.95	8238.69
471.14	8725.52
471.32	8386.14
471.50	8683.39
471.68	8627.21
471.86	8798.07
472.04	8802.75
472.22	9055.53
472.40	8603.81
472.58	8772.33
472.77	8929.14
472.95	8917.44
473.13	9109.36
473.31	8833.18
473.49	9071.92
473.67	9027.45
473.85	9107.02
474.03	9282.56
474.21	9554.07
474.39	9420.66
474.57	9217.03
474.75	9434.70
474.93	9486.19
475.12	9432.36
475.30	9745.99
475.48	9535.34
475.66	9727.27
475.84	9645.35
476.02	9685.14
476.20	9804.50
476.38	9982.38
476.56	10232.82
476.74	10134.52
476.92	10010.47
477.10	10162.61
477.28	10129.84
477.46	10169.63
477.64	10225.80
477.82	10555.82
478.00	10616.67
478.18	10427.09
478.36	10754.76
478.54	10857.75
478.72	11056.69
478.90	10827.32
479.08	11087.12
479.26	11136.27
479.44	11159.67
479.62	11176.06
479.80	11454.58
479.98	11545.86
480.16	11634.80
480.34	11555.22
480.52	11683.95
480.70	11735.45
480.88	11520.12
481.06	11812.68
481.24	11934.39
481.41	12011.63
481.59	12173.13
481.77	12219.94
481.95	12510.16
482.13	12575.70
482.31	12526.55
482.49	12711.45
482.67	12966.57
482.85	12718.47
483.03	12957.21
483.21	12847.20
483.39	13142.11
483.57	13177.22
483.74	13167.85
483.92	13390.20
484.10	13291.90
484.28	13572.77
484.46	13987.04
484.64	14167.26
484.82	13736.60
485.00	14120.45
485.18	14160.24
485.35	14368.55
485.53	14422.38
485.71	14394.29
485.89	14684.52
486.07	14494.94
486.25	14623.67
486.43	14668.14
486.61	14862.40
486.78	15087.09
486.96	15016.88
487.14	15426.47
487.32	15389.02
487.50	15407.75
487.68	15667.55
487.85	16039.69
488.03	15899.26
488.21	16212.89
488.39	16142.67
488.57	16280.77
488.75	16627.17
488.92	16641.21
489.10	16435.24
489.28	16648.23
489.46	17149.11
489.64	16901.01
489.81	17521.25
489.99	17121.02
490.17	17579.76
490.35	17439.33
490.53	17558.70
490.70	17624.23
490.88	17895.74
491.06	17919.14
491.24	18059.57
491.41	17942.55
491.59	18321.71
491.77	18157.88
491.95	18618.96
492.13	18759.39
492.30	18661.09
492.48	18904.51
492.66	19161.97
492.84	18867.06
493.01	19094.09
493.19	19026.21
493.37	19187.71
493.54	19433.47
493.72	19740.08
493.90	19700.29
494.08	19749.44
494.25	19990.52
494.43	20283.08
494.61	20177.76
494.79	20341.60
494.96	20428.20
495.14	20498.41
495.32	20554.58
495.49	20657.57
495.67	20835.45
495.85	21015.67
496.02	21057.80
496.20	21209.93
496.38	21081.21
496.55	21135.04
496.73	21909.75
496.91	21483.78
497.09	21806.77
497.26	21813.79
497.44	21818.47
497.62	21790.39
497.79	22427.01
497.97	22106.36
498.14	22560.42
498.32	22403.61
498.50	22848.31
498.67	22970.02
498.85	22422.33
499.03	22831.93
499.20	22902.14
499.38	23344.50
499.56	23105.77
499.73	23527.06
499.91	23503.66
500.08	23578.56
500.26	23690.90
500.44	23852.40
500.61	23527.06
500.79	23662.82
500.97	23641.75
501.14	24306.46
501.32	24416.47
501.49	23964.75
501.67	24254.97
501.84	24290.08
502.02	24474.98
502.20	24369.66
502.37	24467.96
502.55	24444.56
502.72	24760.53
502.90	24339.23
503.07	24856.49
503.25	24896.28
503.43	25027.35
503.60	24856.49
503.78	25233.32
503.95	25118.63
504.13	25652.27
504.30	25598.44
504.48	25525.88
504.65	25553.97
504.83	25776.32
505.01	25832.49
505.18	25898.03
505.36	26244.43
505.53	25640.57
505.71	26064.21
505.88	26202.30
506.06	26197.62
506.23	26230.38
506.41	26143.78
506.58	26504.23
506.76	26373.16
506.93	26419.97
507.11	26731.26
507.28	26565.08
507.46	26787.43
507.63	26780.41
507.81	26909.14
507.98	26852.97
508.16	27314.05
508.33	27321.07
508.50	27257.88
508.68	27190.00
508.85	27969.40
509.03	27543.42
509.20	27615.98
509.38	28067.70
509.55	27868.76
509.73	28114.52
509.90	27821.95
510.08	28320.48
510.25	28107.49
510.42	28505.38
510.60	28121.54
510.77	28187.07
510.95	28268.99
511.12	28294.74
511.30	28514.75
511.47	28666.88
511.64	28467.94
511.82	28751.14
511.99	28620.07
512.17	29170.10
512.34	29118.60
512.51	29146.69
512.69	29514.16
512.86	29956.52
513.04	29366.70
513.21	29317.55
513.38	29483.73
513.56	29673.31
513.73	29153.71
513.90	30010.35
514.08	29607.78
514.25	29743.53
514.43	29951.84
514.60	30387.18
514.77	30017.37
514.95	30562.72
515.12	29963.54
515.29	30239.72
515.47	30668.04
515.64	30639.95
515.81	30740.60
515.99	30448.03
516.16	31173.60
516.33	30728.89
516.51	30693.79
516.68	30527.61
516.85	31124.44
517.03	31133.81
517.20	31208.70
517.37	31248.49
517.54	31065.93
517.72	31431.05
517.89	31150.19
518.06	31676.81
518.24	31417.01
518.41	31632.34
518.58	31683.83
518.75	31164.23
518.93	31875.76
519.10	31875.76
519.27	31969.38
519.45	32158.96
519.62	31779.79
519.79	32519.40
519.96	32584.94
520.14	32526.42
520.31	32397.70
520.48	32439.82
520.65	32694.94
520.83	33053.05
521.00	32835.38
521.17	33191.14
521.34	32861.12
521.52	33008.58
521.69	32879.85
521.86	33029.64
522.03	33118.58
522.20	33123.26
522.38	33570.30
522.55	33422.85
522.72	33464.98
522.89	33247.31
523.07	33663.93
523.24	33343.27
523.41	33837.12
523.58	33586.69
523.75	33619.46
523.92	33684.99
524.10	33958.83
524.27	34265.44
524.44	34157.78
524.61	34223.31
524.78	34377.79
524.96	34270.12
525.13	34389.49
525.30	34827.17
525.47	34452.69
525.64	34375.45
525.81	34642.27
525.98	34946.54
526.16	34323.96
526.33	34576.73
526.50	35075.27
526.67	34803.77
526.84	35112.72
527.01	35030.80
527.18	34827.17
527.36	34934.84
527.53	35627.63
527.70	35409.96
527.87	35695.51
528.04	35012.07
528.21	35297.62
528.38	35143.14
528.55	35459.12
528.72	35461.46
528.89	35431.03
529.07	35388.90
529.24	35508.27
529.41	35505.93
529.58	35531.67
529.75	35742.32
529.92	36023.19
530.09	35880.41
530.26	35828.92
530.43	35985.74
530.60	35992.76
530.77	36201.07
530.94	35971.69
531.11	36194.04
531.28	36156.60
531.46	36603.64
531.63	36701.94
531.80	36023.19
531.97	36659.81
532.14	36624.70
532.31	36390.65
532.48	36715.98
532.65	37029.62
532.82	36624.70
532.99	37006.21
533.16	37046.00
533.33	37104.51
533.50	37404.10
533.67	37090.47
533.84	37001.53
534.01	37125.58
534.18	37525.81
534.35	37301.12
534.52	37598.37
534.69	37177.07
534.86	37776.25
535.03	37329.20
535.20	37258.99
535.37	37666.24
535.54	37521.13
535.71	37720.07
535.88	37727.10
536.05	37865.19
536.22	38267.76
536.38	38281.80
536.55	37713.05
536.72	37951.79
536.89	37963.49
537.06	38047.75
537.23	38190.52
537.40	38110.94
537.57	37970.51
537.74	37785.61
537.91	38066.47
538.08	38319.25
538.25	37965.83
538.42	38246.69
538.59	38763.95
538.75	38658.63
538.92	38778.00
539.09	38852.89
539.26	38256.06
539.43	38653.95
539.60	38852.89
539.77	38417.55
539.94	38808.42
540.11	39063.54
540.28	39180.57
540.44	38775.66
540.61	38906.73
540.78	39040.14
540.95	38892.68
541.12	38471.39
541.29	38759.27
541.46	39152.48
541.62	39260.15
541.79	38974.60
541.96	39005.03
542.13	39250.78
542.30	38955.88
542.47	39192.27
542.63	39707.19
542.80	39943.58
542.97	39800.81
543.14	40060.61
543.31	39889.75
543.48	40074.65
543.64	40329.77
543.81	40212.74
543.98	40381.26
544.15	39849.96
544.32	40091.04
544.48	40484.25
544.65	40444.46
544.82	40299.34
544.99	39814.85
545.16	39978.69
545.32	40524.04
545.49	40882.14
545.66	40694.89
545.83	40854.05
546.00	40552.12
546.16	40877.46
546.33	40624.68
546.50	40690.21
546.67	40783.83
546.83	40320.41
547.00	41036.61
547.17	40863.41
547.34	40744.05
547.50	40912.56
547.67	41219.17
547.84	41060.02
548.00	41081.08
548.17	41551.53
548.34	41153.64
548.51	41455.57
548.67	41090.44
548.84	41352.58
549.01	41001.50
549.18	41048.32
549.34	41736.43
549.51	41418.12
549.68	41338.54
549.84	41179.39
550.01	41865.16
550.18	41366.63
550.34	41195.77
550.51	41345.56
550.68	42160.07
550.84	41303.43
551.01	42199.86
551.18	41771.54
551.34	41663.88
551.51	41757.50
551.68	41790.27
551.84	41918.99
552.01	41874.52
552.18	41605.36
552.34	41303.43
552.51	42064.11
552.68	41525.78
552.84	42188.16
553.01	42368.38
553.18	42326.25
553.34	42293.48
553.51	41975.17
553.67	42227.95
553.84	42387.10
554.01	42775.63
554.17	42717.12
554.34	42600.09
554.51	42646.90
554.67	42836.48
554.84	42759.25
555.00	42679.67
555.17	42494.77
555.33	42431.57
555.50	42478.38
555.67	42719.46
555.83	42916.06
556.00	42787.33
556.16	43222.67
556.33	42967.55
556.50	43026.07
556.66	43166.50
556.83	42590.73
556.99	43009.68
557.16	43351.40
557.32	43201.61
557.49	43105.65
557.65	43239.06
557.82	42836.48
557.98	43054.15
558.15	43241.40
558.32	43414.60
558.48	42972.24
558.65	43398.21
558.81	43360.76
558.98	43136.07
559.14	43028.41
559.31	43150.12
559.47	43175.86
559.64	43669.72
559.80	43487.15
559.97	43901.43
560.13	43430.98
560.30	43452.05
560.46	43917.81
560.63	43728.23
560.79	43342.04
560.96	43636.95
561.12	43730.57
561.29	43742.27
561.45	43913.13
561.61	43756.32
561.78	43725.89
561.94	43910.79
562.11	43522.26
562.27	43587.80
562.44	43828.87
562.60	44116.76
562.77	43779.72
562.93	43863.98
563.10	44116.76
563.26	43828.87
563.42	44240.81
563.59	43557.37
563.75	43672.06
563.92	44067.61
564.08	43587.80
564.24	44137.82
564.41	43679.08
564.57	43892.07
564.74	44219.74
564.90	43650.99
565.07	44023.14
565.23	43646.31
565.39	43973.98
565.56	44481.88
565.72	44095.69
565.88	44179.95
566.05	43920.15
566.21	44191.65
566.38	44105.06
566.54	44243.15
566.70	44289.96
566.87	44474.86
567.03	43861.64
567.19	44697.21
567.36	44282.94
567.52	44023.14
567.68	44598.91
567.85	44591.89
568.01	44622.31
568.17	44053.56
568.34	44879.77
568.50	44566.14
568.66	44261.87
568.83	44673.81
568.99	44486.56
569.15	44266.55
569.32	44280.60
569.48	44877.43
569.64	44683.17
569.81	44856.37
569.97	44470.18
570.13	44734.66
570.30	44514.65
570.46	44889.13
570.62	44828.28
570.78	44128.46
570.95	44903.18
571.11	44961.69
571.27	44641.04
571.43	44458.48
571.60	44577.84
571.76	44566.14
571.92	44570.82
572.09	45034.25
572.25	44524.01
572.41	44268.89
572.57	44477.20
572.74	44879.77
572.90	44495.92
573.06	44708.91
573.22	45109.14
573.38	44708.91
573.55	44524.01
573.71	45120.85
573.87	45177.02
574.03	45043.61
574.20	44889.13
574.36	44861.05
574.52	44961.69
574.68	45059.99
574.84	45172.34
575.01	44971.05
575.17	44865.73
575.33	45317.45
575.49	44584.86
575.65	45514.06
575.82	44910.20
575.98	44769.77
576.14	45366.60
576.30	44835.30
576.46	44870.41
576.62	44893.82
576.79	44900.84
576.95	45209.79
577.11	44673.81
577.27	44973.39
577.43	45085.74
577.59	45022.54
577.75	44807.22
577.92	44741.68
578.08	45158.30
578.24	45104.46
578.40	45287.03
578.56	45193.40
578.72	44816.58
578.88	45598.32
579.04	45162.98
579.21	44484.22
579.37	44968.71
579.53	45350.22
579.69	45045.95
579.85	44678.49
580.01	45078.72
580.17	45148.93
580.33	45406.39
580.49	45375.97
580.65	44996.80
580.82	45235.53
580.98	45160.64
581.14	45027.23
581.30	45368.94
581.46	45008.50
581.62	45254.26
581.78	44987.44
581.94	45652.15
582.10	44858.71
582.26	45146.59
582.42	44863.39
582.58	44999.14
582.74	45441.50
582.90	45165.32
583.06	45305.75
583.22	45158.30
583.38	45247.24
583.54	44802.53
583.70	45645.13
583.86	45359.58
584.02	45099.78
584.18	45579.59
584.34	45296.39
584.50	45778.54
584.66	45392.35
584.82	45668.53
584.98	45635.77
585.14	45352.56
585.30	45298.73
585.46	44952.33
585.62	45092.76
585.78	45603.00
585.94	45022.54
586.10	45338.52
586.26	45537.46
586.42	45570.23
586.58	45366.60
586.74	45188.72
586.90	45588.95
587.06	45397.03
587.22	45530.44
587.38	45436.82
587.54	45996.21
587.70	45621.72
587.86	45502.35
588.02	45020.20
588.18	45048.29
588.34	45413.41
588.49	45373.63
588.65	45357.24
588.81	45724.71
588.97	45675.55
589.13	45359.58
589.29	45418.10
589.45	45514.06
589.61	45509.38
589.77	45897.91
589.93	45064.67
590.08	45663.85
