SpectraSuite Data File
++++++++++++++++++++++++++++++++++++
Date: Fri Oct 25 11:33:27 EDT 2013
User: price-jones
Dark Spectrum Present: No
Reference Spectrum Present: No
Number of Sampled Component Spectra: 1
Spectrometers: USB2+H05261
Integration Time (usec): 100000 (USB2+H05261)
Spectra Averaged: 1 (USB2+H05261)
Boxcar Smoothing: 0 (USB2+H05261)
Correct for Electrical Dark: No (USB2+H05261)
Strobe/Lamp Enabled: No (USB2+H05261)
Correct for Detector Non-linearity: No (USB2+H05261)
Correct for Stray Light: No (USB2+H05261)
Number of Pixels in Processed Spectrum: 2048
>>>>>Begin Processed Spectral Data<<<<<
365.73	327.68
365.92	327.68
366.12	327.68
366.32	194.26
366.52	180.22
366.72	234.05
366.91	147.45
367.11	217.67
367.31	203.63
367.51	154.48
367.70	182.56
367.90	149.79
368.10	170.86
368.30	170.86
368.49	198.95
368.69	173.20
368.89	215.33
369.09	191.92
369.28	175.54
369.48	180.22
369.68	262.14
369.87	222.35
370.07	278.52
370.27	285.55
370.47	308.95
370.66	461.09
370.86	482.15
371.06	521.94
371.25	603.86
371.45	479.81
371.65	528.96
371.84	535.98
372.04	608.54
372.24	585.13
372.44	514.92
372.63	587.47
372.83	580.45
373.03	669.39
373.22	674.07
373.42	573.43
373.62	662.37
373.81	627.26
374.01	702.16
374.21	664.71
374.40	678.76
374.60	683.44
374.79	671.73
374.99	641.31
375.19	643.65
375.38	653.01
375.58	662.37
375.78	641.31
375.97	699.82
376.17	695.14
376.37	692.80
376.56	657.69
376.76	629.60
376.95	648.33
377.15	709.18
377.35	727.91
377.54	727.91
377.74	648.33
377.93	655.35
378.13	671.73
378.33	671.73
378.52	716.20
378.72	755.99
378.91	748.97
379.11	676.41
379.31	709.18
379.50	683.44
379.70	788.76
379.89	718.54
380.09	690.46
380.28	699.82
380.48	711.52
380.68	791.10
380.87	763.01
381.07	699.82
381.26	739.61
381.46	770.04
381.65	671.73
381.85	683.44
382.04	770.04
382.24	765.36
382.43	727.91
382.63	727.91
382.83	770.04
383.02	779.40
383.22	802.80
383.41	720.88
383.61	873.02
383.80	889.40
384.00	763.01
384.19	781.74
384.39	765.36
384.58	849.61
384.78	823.87
384.97	774.72
385.17	830.89
385.36	849.61
385.56	889.40
385.75	809.83
385.95	891.74
386.14	851.96
386.34	868.34
386.53	873.02
386.72	788.76
386.92	891.74
387.11	814.51
387.31	877.70
387.50	882.38
387.70	774.72
387.89	791.10
388.09	938.55
388.28	933.87
388.48	919.83
388.67	987.71
388.86	870.68
389.06	985.37
389.25	964.30
389.45	957.28
389.64	912.81
389.84	957.28
390.03	947.92
390.22	894.08
390.42	898.77
390.61	905.79
390.81	943.24
391.00	1034.52
391.19	997.07
391.39	997.07
391.58	976.00
391.78	997.07
391.97	992.39
392.16	973.66
392.36	964.30
392.55	1050.90
392.75	1107.07
392.94	999.41
393.13	1090.69
393.33	1069.62
393.52	1039.20
393.71	1043.88
393.91	1025.15
394.10	1067.28
394.29	1100.05
394.49	1053.24
394.68	1102.39
394.88	1130.48
395.07	1158.57
395.26	1151.54
395.46	1165.59
395.65	1203.04
395.84	1233.46
396.04	1259.21
396.23	1181.97
396.42	1198.35
396.62	1132.82
396.81	1196.01
397.00	1210.06
397.19	1228.78
397.39	1125.80
397.58	1228.78
397.77	1188.99
397.97	1296.66
398.16	1231.12
398.35	1240.48
398.55	1301.34
398.74	1376.24
398.93	1343.47
399.12	1301.34
399.32	1277.93
399.51	1338.79
399.70	1455.81
399.90	1366.87
400.09	1409.00
400.28	1334.11
400.47	1320.06
400.67	1427.73
400.86	1362.19
401.05	1338.79
401.24	1348.15
401.44	1348.15
401.63	1425.39
401.82	1423.05
402.01	1394.96
402.21	1455.81
402.40	1413.68
402.59	1556.46
402.78	1474.54
402.97	1579.86
403.17	1476.88
403.36	1570.50
403.55	1432.41
403.74	1586.88
403.93	1624.33
404.13	1722.63
404.32	1495.60
404.51	1596.25
404.70	1652.42
404.89	1603.27
405.09	1727.32
405.28	1661.78
405.47	1633.69
405.66	1659.44
405.85	1774.13
406.05	1696.89
406.24	1736.68
406.43	1675.82
406.62	1830.30
406.81	1886.47
407.00	1870.09
407.20	1734.34
407.39	1792.85
407.58	1790.51
407.77	1870.09
407.96	1860.73
408.15	1968.39
408.34	1860.73
408.54	1921.58
408.73	1949.67
408.92	1959.03
409.11	1984.77
409.30	2031.58
409.49	1930.94
409.68	2012.86
409.87	1980.09
410.07	2024.56
410.26	2054.99
410.45	2122.87
410.64	2134.57
410.83	2139.25
411.02	2183.72
411.21	2235.21
411.40	2181.38
411.59	2106.48
411.78	2253.94
411.98	2174.36
412.17	2230.53
412.36	2258.62
412.55	2237.55
412.74	2321.81
412.93	2361.60
413.12	2253.94
413.31	2392.03
413.50	2347.56
413.69	2392.03
413.88	2429.48
414.07	2504.37
414.26	2469.27
414.45	2590.97
414.64	2471.61
414.83	2612.04
415.02	2607.36
415.22	2635.44
415.41	2607.36
415.60	2616.72
415.79	2656.51
415.98	2715.02
416.17	2733.75
416.36	2834.39
416.55	2752.47
416.74	2787.58
416.93	2806.30
417.12	2803.96
417.31	2909.29
417.50	2911.63
417.69	2944.39
417.88	3016.95
418.07	2874.18
418.26	3021.63
418.45	2984.18
418.64	3117.59
418.83	3014.61
419.02	2981.84
419.21	3159.72
419.39	3070.78
419.58	3035.67
419.77	3014.61
419.96	3096.53
420.15	3119.93
420.34	3222.92
420.53	3103.55
420.72	3131.64
420.91	3098.87
421.10	3232.28
421.29	3396.12
421.48	3131.64
421.67	3316.54
421.86	3283.77
422.05	3283.77
422.24	3412.50
422.43	3396.12
422.61	3265.05
422.80	3302.50
422.99	3265.05
423.18	3412.50
423.37	3466.33
423.56	3489.74
423.75	3478.04
423.94	3356.33
424.13	3178.45
424.32	3157.38
424.50	3520.17
424.69	3681.66
424.88	3396.12
425.07	3382.07
425.26	3536.55
425.45	3536.55
425.64	3349.31
425.83	3382.07
426.01	3496.76
426.20	3513.14
426.39	3471.01
426.58	3459.31
426.77	3407.82
426.96	3435.91
427.15	3508.46
427.33	3487.40
427.52	3515.48
427.71	3625.49
427.90	3583.36
428.09	3552.93
428.28	3620.81
428.46	3637.19
428.65	3686.34
428.84	3810.39
429.03	3735.50
429.22	3674.64
429.40	3791.67
429.59	3751.88
429.78	3733.15
429.97	3564.64
430.16	3667.62
430.34	3733.15
430.53	3929.76
430.72	3817.41
430.91	3850.18
431.10	3768.26
431.28	4044.45
431.47	3882.95
431.66	3913.38
431.85	3829.12
432.03	4004.66
432.22	4081.89
432.41	4112.32
432.60	3960.19
432.79	4203.60
432.97	4077.21
433.16	4098.28
433.35	3983.59
433.54	3985.93
433.72	4133.39
433.91	4313.61
434.10	4306.59
434.28	4217.65
434.47	4156.79
434.66	4262.12
434.85	4262.12
435.03	4355.74
435.22	4432.97
435.41	4437.66
435.59	4351.06
435.78	4306.59
435.97	4362.76
436.16	4332.33
436.34	4287.86
436.53	4447.02
436.72	4542.98
436.90	4542.98
437.09	4526.60
437.28	4486.81
437.46	4571.07
437.65	4622.56
437.84	4479.79
438.02	4566.39
438.21	4533.62
438.40	4685.75
438.58	4835.55
438.77	4809.80
438.96	4643.62
439.14	5001.72
439.33	4933.85
439.52	4849.59
439.70	5006.41
439.89	5050.88
440.08	5125.77
440.26	5039.17
440.45	5006.41
440.63	5219.39
440.82	5137.48
441.01	5093.01
441.19	5130.45
441.38	5203.01
441.57	5359.83
441.75	5275.57
441.94	5467.49
442.12	5416.00
442.31	5551.75
442.50	5432.38
442.68	5355.15
442.87	5467.49
443.05	5423.02
443.24	5785.80
443.43	5469.83
443.61	5486.22
443.80	5830.27
443.98	5509.62
444.17	5401.96
444.35	5439.40
444.54	5678.14
444.73	5790.49
444.91	5535.37
445.10	5678.14
445.28	5460.47
445.47	5579.84
445.65	5556.43
445.84	5703.89
446.02	5556.43
446.21	5694.52
446.39	5643.03
446.58	5888.79
446.77	5617.29
446.95	5561.11
447.14	5856.02
447.32	5738.99
447.51	5671.12
447.69	5771.76
447.88	5743.67
448.06	5926.24
448.25	5692.18
448.43	5905.17
448.62	5769.42
448.80	5748.36
448.99	5834.96
449.17	5923.90
449.36	5954.32
449.54	6078.37
449.73	6047.94
449.91	5928.58
450.10	6094.76
450.28	6242.21
450.46	6218.80
450.65	6265.61
450.83	6071.35
451.02	6277.32
451.20	6139.23
451.39	6282.00
451.57	6181.35
451.76	6038.58
451.94	6181.35
452.13	6284.34
452.31	6197.74
452.49	6253.91
452.68	6368.60
452.86	6251.57
453.05	6370.94
453.23	6445.84
453.42	6401.37
453.60	6380.30
453.78	6525.41
453.97	6457.54
454.15	6232.85
454.34	6384.98
454.52	6640.10
454.70	6649.46
454.89	6607.33
455.07	6413.07
455.26	6600.31
455.44	6740.74
455.62	6696.27
455.81	6595.63
455.99	6782.87
456.17	6787.55
456.36	6642.44
456.54	6771.17
456.73	6841.39
456.91	6930.33
457.09	6897.56
457.28	7201.83
457.46	7136.29
457.64	7105.87
457.83	7241.62
458.01	7075.44
458.19	7145.66
458.38	7066.08
458.56	6899.90
458.74	7040.33
458.93	7213.53
459.11	7288.43
459.29	7225.23
459.48	7204.17
459.66	7145.66
459.84	7335.24
460.03	7370.35
460.21	7311.83
460.39	7281.41
460.57	7414.82
460.76	7424.18
460.94	7564.61
461.12	7447.58
461.31	7431.20
461.49	7520.14
461.67	7454.61
461.85	7557.59
462.04	7620.78
462.22	8028.04
462.40	7850.16
462.59	7733.13
462.77	7782.28
462.95	7627.81
463.13	7653.55
463.32	7960.16
463.50	8004.63
463.68	7934.42
463.86	7899.31
464.05	7815.05
464.23	7801.01
464.41	8102.93
464.59	7880.58
464.78	8124.00
464.96	7995.27
465.14	7995.27
465.32	8325.29
465.50	8112.30
465.69	8109.96
465.87	8140.38
466.05	8091.23
466.23	8266.77
466.41	8074.85
466.60	8365.07
466.78	8182.51
466.96	8224.64
467.14	8187.19
467.32	8332.31
467.51	8470.40
467.69	8131.02
467.87	8353.37
468.05	8446.99
468.23	8290.18
468.41	8336.99
468.60	8304.22
468.78	8454.02
468.96	8477.42
469.14	8575.72
469.32	8587.43
469.50	8461.04
469.69	8688.07
469.87	8875.31
470.05	8732.54
470.23	8772.33
470.41	8973.61
470.59	8840.20
470.77	8809.78
470.95	9048.51
471.14	9025.11
471.32	8762.97
471.50	8952.55
471.68	8926.80
471.86	8959.57
472.04	9132.77
472.22	9151.49
472.40	9029.79
472.58	9114.05
472.77	9371.50
472.95	9387.89
473.13	9516.62
473.31	9366.82
473.49	9369.16
473.67	9514.28
473.85	9547.05
474.03	9753.01
474.21	9715.56
474.39	9795.14
474.57	9598.54
474.75	10190.69
474.93	9907.49
475.12	9916.85
475.30	10115.80
475.48	10080.69
475.66	10244.52
475.84	9980.04
476.02	10171.97
476.20	10300.70
476.38	10352.19
476.56	10637.73
476.74	10537.09
476.92	10354.53
477.10	10291.34
477.28	10794.55
477.46	10548.79
477.64	10848.38
477.82	10824.98
478.00	11218.19
478.18	11236.91
478.36	11176.06
478.54	11297.77
478.72	11508.41
478.90	11583.31
479.08	11585.65
479.26	11735.45
479.44	11573.95
479.62	11868.86
479.80	11903.96
479.98	11953.12
480.16	12266.75
480.34	12013.97
480.52	12245.68
480.70	12456.33
480.88	12205.89
481.06	12465.69
481.24	12259.73
481.41	12589.74
481.59	12730.17
481.77	12952.52
481.95	12821.45
482.13	12901.03
482.31	12849.54
482.49	13366.80
482.67	13446.38
482.85	13439.36
483.03	13703.84
483.21	13514.25
483.39	13717.88
483.57	13708.52
483.74	13678.09
483.92	13764.69
484.10	14029.17
484.28	14153.22
484.46	14499.62
484.64	14551.11
484.82	14544.09
485.00	14864.74
485.18	14686.86
485.35	14822.61
485.53	14862.40
485.71	15044.96
485.89	15412.43
486.07	15183.06
486.25	15386.68
486.43	15440.51
486.61	15712.02
486.78	15798.62
486.96	15939.05
487.14	16114.59
487.32	16208.21
487.50	16290.13
487.68	16339.28
487.85	16718.45
488.03	16931.44
488.21	16704.40
488.39	17003.99
488.57	17200.60
488.75	17076.55
488.92	17539.97
489.10	17500.19
489.28	17671.04
489.46	17956.59
489.64	17469.76
489.81	18104.04
489.99	18230.43
490.17	18401.29
490.35	18501.93
490.53	18724.29
490.70	18761.73
490.88	18476.19
491.06	18946.64
491.24	19101.11
491.41	19192.39
491.59	19082.39
491.77	19396.02
491.95	19211.12
492.13	19510.71
492.30	19297.72
492.48	19976.47
492.66	19728.38
492.84	19791.57
493.01	20294.79
493.19	20196.48
493.37	20463.30
493.54	20325.21
493.72	20929.07
493.90	20606.08
494.08	20746.51
494.25	20915.03
494.43	20753.53
494.61	21179.51
494.79	21289.51
494.96	21099.93
495.14	21441.65
495.32	21769.32
495.49	21792.73
495.67	21612.51
495.85	21923.80
496.02	22391.91
496.20	22331.05
496.38	22082.95
496.55	22293.60
496.73	22555.74
496.91	22750.01
497.09	22834.27
497.26	22913.84
497.44	23028.53
497.62	22869.37
497.79	23159.60
497.97	23555.15
498.14	23283.65
498.32	23672.18
498.50	23498.98
498.67	23824.31
498.85	23765.80
499.03	24276.04
499.20	23843.04
499.38	24226.89
499.56	24283.06
499.73	24489.03
499.91	24599.03
500.08	24533.50
500.26	24648.18
500.44	24896.28
500.61	24978.20
500.79	24697.33
500.97	24760.53
501.14	25357.36
501.32	25259.06
501.49	25340.98
501.67	25212.25
501.84	25436.94
502.02	25568.01
502.20	25593.76
502.37	25963.56
502.55	25638.23
502.72	26249.11
502.90	26008.03
503.07	25818.45
503.25	25968.24
503.43	25968.24
503.60	26405.92
503.78	26466.78
503.95	26134.42
504.13	26464.44
504.30	26766.37
504.48	26742.96
504.65	26738.28
504.83	27016.80
505.01	27208.73
505.18	26647.00
505.36	27075.32
505.53	27321.07
505.71	27178.30
505.88	27281.28
506.06	27648.75
506.23	27768.12
506.41	27381.93
506.58	27805.56
506.76	27871.10
506.93	28313.46
507.11	27803.22
507.28	28318.14
507.46	27929.61
507.63	28423.47
507.81	28393.04
507.98	28009.19
508.16	28236.22
508.33	28849.44
508.50	28425.81
508.68	28479.64
508.85	28879.87
509.03	28940.72
509.20	29003.92
509.38	29347.98
509.55	29240.31
509.73	29275.42
509.90	29453.30
510.08	29390.11
510.25	29710.76
510.42	29586.71
510.60	29656.93
510.77	29720.12
510.95	29890.98
511.12	30024.39
511.30	29886.30
511.47	29993.97
511.64	30272.49
511.82	30410.58
511.99	30394.20
512.17	30309.94
512.34	30246.74
512.51	30878.69
512.69	31068.27
512.86	30335.68
513.04	30855.28
513.21	31012.10
513.38	31056.57
513.56	31384.24
513.73	31108.06
513.90	31260.20
514.08	31122.10
514.25	31477.86
514.43	31601.91
514.60	31550.42
514.77	31676.81
514.95	31756.39
515.12	31768.09
515.29	31887.46
515.47	31981.08
515.64	32119.17
515.81	31920.23
515.99	32023.21
516.16	32500.68
516.33	32329.82
516.51	32030.23
516.68	32460.89
516.85	32493.66
517.03	32627.07
517.20	32465.57
517.37	32669.20
517.54	32659.84
517.72	32711.33
517.89	32940.70
518.06	32615.37
518.24	32863.46
518.41	32938.36
518.58	33324.55
518.75	32933.68
518.93	33359.66
519.10	32952.40
519.27	33289.44
519.45	33516.47
519.62	33542.22
519.79	33591.37
519.96	33385.40
520.14	34015.01
520.31	33507.11
520.48	34103.95
520.65	34052.45
520.83	34349.70
521.00	34422.26
521.17	34146.08
521.34	34487.79
521.52	34539.29
521.69	34483.11
521.86	34508.86
522.03	34450.35
522.20	35213.36
522.38	35351.45
522.55	34773.34
522.72	34768.66
522.89	35049.52
523.07	35578.48
523.24	34848.24
523.41	35646.36
523.58	35330.39
523.75	35637.00
523.92	35122.08
524.10	35763.39
524.27	35519.97
524.44	35831.26
524.61	35384.22
524.78	35950.63
524.96	36259.58
525.13	36315.75
525.30	36329.80
525.47	36301.71
525.64	36257.24
525.81	36172.98
525.98	36229.15
526.16	36308.73
526.33	36121.49
526.50	36474.91
526.67	36266.60
526.84	36727.69
527.01	36542.78
527.18	36343.84
527.36	36964.08
527.53	36872.80
527.70	37371.33
527.87	37170.05
528.04	36591.94
528.21	37221.54
528.38	37273.03
528.55	37266.01
528.72	37165.37
528.89	36973.44
529.07	37046.00
529.24	37280.05
529.41	37057.70
529.58	37579.64
529.75	37560.92
529.92	37434.53
530.09	37633.47
530.26	38113.28
530.43	37893.27
530.60	37607.73
530.77	37401.76
530.94	37916.68
531.11	37900.29
531.28	38260.74
531.46	38239.67
531.63	38520.54
531.80	38099.24
531.97	38307.55
532.14	38342.66
532.31	38206.90
532.48	38401.17
532.65	38319.25
532.82	38462.02
532.99	38801.40
533.16	38340.32
533.33	38937.15
533.50	38960.56
533.67	39086.95
533.84	38693.74
534.01	38792.04
534.18	38782.68
534.35	39419.30
534.52	39419.30
534.69	39590.16
534.86	39533.99
535.03	39337.38
535.20	39264.83
535.37	39311.64
535.54	39665.06
535.71	39047.16
535.88	39592.50
536.05	39826.56
536.22	39765.70
536.38	39824.22
536.55	39716.55
536.72	39821.87
536.89	39587.82
537.06	39964.65
537.23	40147.21
537.40	39564.42
537.57	39943.58
537.74	39569.10
537.91	40046.57
538.08	39583.14
538.25	40088.70
538.42	40163.59
538.59	40762.77
538.75	40144.87
538.92	40662.13
539.09	40650.42
539.26	40402.33
539.43	40547.44
539.60	40243.17
539.77	40261.90
539.94	40842.35
540.11	41237.90
540.28	40650.42
540.44	40711.28
540.61	41053.00
540.78	40931.29
540.95	40559.14
541.12	40790.86
541.29	41013.21
541.46	41230.88
541.62	41104.49
541.79	41219.17
541.96	41088.10
542.13	40821.28
542.30	41331.52
542.47	41191.09
542.63	41528.13
542.80	41581.96
542.97	41970.49
543.14	41904.95
543.31	41488.34
543.48	41717.71
543.64	42010.28
543.81	41977.51
543.98	41813.67
544.15	41982.19
544.32	42548.60
544.48	42408.17
544.65	42417.53
544.82	42380.08
544.99	41993.89
545.16	42419.87
545.32	42403.49
545.49	42609.45
545.66	43115.01
545.83	42813.08
546.00	42700.73
546.16	42838.83
546.33	42604.77
546.50	42864.57
546.67	42618.81
546.83	42410.51
547.00	42625.84
547.17	42724.14
547.34	42525.19
547.50	43063.52
547.67	43217.99
547.84	42932.45
548.00	42707.76
548.17	43292.89
548.34	43105.65
548.51	43058.84
548.67	43126.71
548.84	43253.10
549.01	43416.94
549.18	43639.29
549.34	43536.30
549.51	43592.48
549.68	43332.68
549.84	43428.64
550.01	43243.74
550.18	43725.89
550.34	43332.68
550.51	43868.66
550.68	43728.23
550.84	43468.43
551.01	43672.06
551.18	43323.32
551.34	43735.25
551.51	44100.37
551.68	43508.22
551.84	43674.40
552.01	43973.98
552.18	43831.21
552.34	43927.17
552.51	43901.43
552.68	43391.19
552.84	43922.49
553.01	44334.43
553.18	44154.21
553.34	43908.45
553.51	44500.61
553.67	44491.24
553.84	44456.14
554.01	44217.40
554.17	44353.15
554.34	44832.96
554.51	44367.20
554.67	44713.59
554.84	44968.71
555.00	44795.51
555.17	44465.50
555.33	44685.51
555.50	44711.25
555.67	44502.95
555.83	45104.46
556.00	44921.90
556.16	45485.97
556.33	45158.30
556.50	44940.63
556.66	44942.97
556.83	44467.84
556.99	45102.12
557.16	45223.83
557.32	45069.36
557.49	45162.98
557.65	44879.77
557.82	45336.18
557.98	45352.56
558.15	45022.54
558.32	44861.05
558.48	45003.82
558.65	45270.64
558.81	45504.70
558.98	45457.88
559.14	45167.66
559.31	45659.17
559.47	45200.43
559.64	45364.26
559.80	45689.60
559.97	45698.96
560.13	45504.70
560.30	45340.86
560.46	45848.75
560.63	45811.31
560.79	45581.93
560.96	45792.58
561.12	46150.68
561.29	45921.31
561.45	45780.88
561.61	46017.27
561.78	45801.94
561.94	45722.37
562.11	45764.49
562.27	45808.96
562.44	45785.56
562.60	45787.90
562.77	45893.22
562.93	45783.22
563.10	45832.37
563.26	45925.99
563.42	46241.96
563.59	45965.78
563.75	45851.09
563.92	45631.08
564.08	45558.53
564.24	46284.09
564.41	45921.31
564.57	46134.30
564.74	46354.31
564.90	45930.67
565.07	45818.33
565.23	45773.86
565.39	46085.15
565.56	46443.25
565.72	46211.54
565.88	46354.31
566.05	46328.56
566.21	46036.00
566.38	46541.55
566.54	46267.71
566.70	46120.26
566.87	46370.69
567.03	46370.69
567.19	46251.33
567.36	46604.75
567.52	46401.12
567.68	46904.34
567.85	46574.32
568.01	46632.83
568.17	46211.54
568.34	46396.44
568.50	46440.91
568.66	45853.44
568.83	46424.53
568.99	46410.48
569.15	46429.21
569.32	46501.76
569.48	46347.29
569.64	46560.28
569.81	46803.69
569.97	46408.14
570.13	46440.91
570.30	46358.99
570.46	46726.46
570.62	46557.94
570.78	46637.51
570.95	46817.74
571.11	46766.24
571.27	46693.69
571.43	46351.97
571.60	46848.16
571.76	46417.50
571.92	46651.56
572.09	46887.95
572.25	46763.90
572.41	46398.78
572.57	46518.15
572.74	47110.30
572.90	47086.90
573.06	47000.30
573.22	46831.78
573.38	46728.80
573.55	47058.81
573.71	47044.77
573.87	46871.57
574.03	46845.82
574.20	47501.17
574.36	46864.55
574.52	47119.66
574.68	46464.32
574.84	47004.98
575.01	47213.29
575.17	47004.98
575.33	47267.12
575.49	47395.85
575.65	47299.89
575.82	46754.54
575.98	46925.40
576.14	47377.12
576.30	47466.06
576.46	47283.50
576.62	47150.09
576.79	47021.36
576.95	46939.44
577.11	47054.13
577.27	46756.88
577.43	47030.72
577.59	47253.08
577.75	47143.07
577.92	46869.23
578.08	47224.99
578.24	47159.45
578.40	47388.83
578.56	47377.12
578.72	46878.59
578.88	47187.54
579.04	47241.37
579.21	47004.98
579.37	47070.51
579.53	47543.30
579.69	47098.60
579.85	47276.48
580.01	46836.46
580.17	47143.07
580.33	47503.51
580.49	47105.62
580.65	47325.63
580.82	46960.51
580.98	47072.85
581.14	47196.90
581.30	47206.26
581.46	46990.94
581.62	46878.59
581.78	47161.79
581.94	47068.17
582.10	47189.88
582.26	47117.32
582.42	47250.74
582.58	47587.77
582.74	47519.90
582.90	47667.35
583.06	47477.77
583.22	47103.28
583.38	47700.12
583.54	47337.33
583.70	47487.13
583.86	47611.18
584.02	47150.09
584.18	47957.58
584.34	47702.46
584.50	47531.60
584.66	47466.06
584.82	47222.65
584.98	47346.70
585.14	47676.71
585.30	47412.23
585.46	47353.72
585.62	47618.20
585.78	47096.26
585.94	47199.24
586.10	47222.65
586.26	47171.16
586.42	47217.97
586.58	47449.68
586.74	47407.55
586.90	46958.17
587.06	47269.46
587.22	47442.66
587.38	47285.84
587.54	47503.51
587.70	47735.23
587.86	47775.02
588.02	47543.30
588.18	47721.18
588.34	47625.22
588.49	47454.36
588.65	47241.37
588.81	47592.45
588.97	47646.29
589.13	47505.85
589.29	47477.77
589.45	47384.15
589.61	47735.23
589.77	47798.42
589.93	47573.73
590.08	47861.61
