SpectraSuite Data File
++++++++++++++++++++++++++++++++++++
Date: Fri Oct 25 10:44:02 EDT 2013
User: price-jones
Dark Spectrum Present: No
Reference Spectrum Present: No
Number of Sampled Component Spectra: 1
Spectrometers: USB2+H05261
Integration Time (usec): 100000 (USB2+H05261)
Spectra Averaged: 1 (USB2+H05261)
Boxcar Smoothing: 0 (USB2+H05261)
Correct for Electrical Dark: No (USB2+H05261)
Strobe/Lamp Enabled: No (USB2+H05261)
Correct for Detector Non-linearity: No (USB2+H05261)
Correct for Stray Light: No (USB2+H05261)
Number of Pixels in Processed Spectrum: 2048
>>>>>Begin Processed Spectral Data<<<<<
365.73	210.65
365.92	210.65
366.12	210.65
366.32	4.68
366.52	4.68
366.72	0.00
366.91	9.36
367.11	16.38
367.31	0.00
367.51	65.54
367.70	102.98
367.90	21.06
368.10	39.79
368.30	0.00
368.49	9.36
368.69	70.22
368.89	67.88
369.09	58.51
369.28	88.94
369.48	60.85
369.68	102.98
369.87	65.54
370.07	35.11
370.27	60.85
370.47	110.01
370.66	416.62
370.86	414.27
371.06	435.34
371.25	493.85
371.45	458.74
371.65	489.17
371.84	479.81
372.04	409.59
372.24	451.72
372.44	468.11
372.63	505.56
372.83	449.38
373.03	456.40
373.22	568.75
373.42	477.47
373.62	547.69
373.81	512.58
374.01	613.22
374.21	552.37
374.40	564.07
374.60	552.37
374.79	624.92
374.99	587.47
375.19	603.86
375.38	634.29
375.58	603.86
375.78	648.33
375.97	580.45
376.17	643.65
376.37	631.94
376.56	629.60
376.76	603.86
376.95	615.56
377.15	638.97
377.35	716.20
377.54	667.05
377.74	671.73
377.93	613.22
378.13	748.97
378.33	725.57
378.52	716.20
378.72	730.25
378.91	636.63
379.11	683.44
379.31	641.31
379.50	592.16
379.70	748.97
379.89	645.99
380.09	683.44
380.28	624.92
380.48	660.03
380.68	674.07
380.87	739.61
381.07	730.25
381.26	812.17
381.46	795.78
381.65	720.88
381.85	746.63
382.04	725.57
382.24	685.78
382.43	681.10
382.63	709.18
382.83	699.82
383.02	704.50
383.22	814.51
383.41	755.99
383.61	774.72
383.80	739.61
384.00	802.80
384.19	875.36
384.39	755.99
384.58	781.74
384.78	866.00
384.97	894.08
385.17	866.00
385.36	816.85
385.56	863.66
385.75	795.78
385.95	854.30
386.14	901.11
386.34	842.59
386.53	908.13
386.72	894.08
386.92	915.15
387.11	858.98
387.31	931.53
387.50	947.92
387.70	830.89
387.89	823.87
388.09	910.47
388.28	854.30
388.48	894.08
388.67	854.30
388.86	929.19
389.06	992.39
389.25	938.55
389.45	1109.41
389.64	976.00
389.84	990.05
390.03	1062.60
390.22	1027.50
390.42	1048.56
390.61	1032.18
390.81	957.28
391.00	1062.60
391.19	1048.56
391.39	1081.33
391.58	1053.24
391.78	1179.63
391.97	1118.78
392.16	1100.05
392.36	1025.15
392.55	1006.43
392.75	1121.12
392.94	1025.15
393.13	1146.86
393.33	1008.77
393.52	1029.84
393.71	1156.22
393.91	1104.73
394.10	1198.35
394.29	1263.89
394.49	1245.16
394.68	1231.12
394.88	1198.35
395.07	1317.72
395.26	1179.63
395.46	1273.25
395.65	1273.25
395.84	1273.25
396.04	1315.38
396.23	1163.25
396.42	1181.97
396.62	1200.69
396.81	1245.16
397.00	1245.16
397.19	1254.53
397.39	1263.89
397.58	1455.81
397.77	1451.13
397.97	1444.11
398.16	1425.39
398.35	1528.37
398.55	1626.67
398.74	1563.48
398.93	1509.65
399.12	1542.41
399.32	1561.14
399.51	1519.01
399.70	1652.42
399.90	1659.44
400.09	1598.59
400.28	1736.68
400.47	1685.19
400.67	1654.76
400.86	1659.44
401.05	1757.74
401.24	1703.91
401.44	1781.15
401.63	1753.06
401.82	1703.91
402.01	1804.55
402.21	1790.51
402.40	1799.87
402.59	1795.19
402.78	1818.60
402.97	1755.40
403.17	1839.66
403.36	1907.54
403.55	1884.13
403.74	1956.69
403.93	1919.24
404.13	1937.96
404.32	1987.11
404.51	1879.45
404.70	2045.63
404.89	1842.00
405.09	1998.82
405.28	2057.33
405.47	1975.41
405.66	2026.90
405.85	2059.67
406.05	2050.31
406.24	2169.68
406.43	2111.16
406.62	2143.93
406.81	2155.63
407.00	2040.95
407.20	2225.85
407.39	2136.91
407.58	2204.78
407.77	2279.68
407.96	2389.69
408.15	2338.20
408.34	2321.81
408.54	2223.51
408.73	2200.10
408.92	2401.39
409.11	2286.70
409.30	2495.01
409.49	2324.15
409.68	2312.45
409.87	2326.49
410.07	2403.73
410.26	2483.31
410.45	2370.96
410.64	2595.65
410.83	2623.74
411.02	2548.84
411.21	2658.85
411.40	2612.04
411.59	2743.11
411.78	2717.36
411.98	2710.34
412.17	2733.75
412.36	2668.21
412.55	2834.39
412.74	2864.82
412.93	2808.64
413.12	2775.88
413.31	3096.53
413.50	3016.95
413.69	2869.50
413.88	3152.70
414.07	3014.61
414.26	3054.40
414.45	3108.23
414.64	3021.63
414.83	3157.38
415.02	3129.30
415.22	3089.51
415.41	3061.42
415.60	3258.03
415.79	3248.66
415.98	3391.44
416.17	3407.82
416.36	3328.24
416.55	3447.61
416.74	3424.20
416.93	3414.84
417.12	3300.16
417.31	3398.46
417.50	3211.22
417.69	3618.47
417.88	3623.15
418.07	3492.08
418.26	3494.42
418.45	3634.85
418.64	3740.18
418.83	3803.37
419.02	3719.11
419.21	3665.28
419.39	3574.00
419.58	3538.89
419.77	3674.64
419.96	3716.77
420.15	3744.86
420.34	3737.84
420.53	3927.42
420.72	3981.25
420.91	4002.32
421.10	3861.88
421.29	3801.03
421.48	3999.98
421.67	3929.76
421.86	3988.27
422.05	3812.73
422.24	3880.61
422.43	3953.16
422.61	3922.74
422.80	4014.02
422.99	4009.34
423.18	4011.68
423.37	4081.89
423.56	3985.93
423.75	4065.51
423.94	4028.06
424.13	3866.56
424.32	3925.08
424.50	4117.00
424.69	4266.80
424.88	4191.90
425.07	3882.95
425.26	4037.42
425.45	4091.26
425.64	4074.87
425.83	4126.36
426.01	4194.24
426.20	4117.00
426.39	4138.07
426.58	4081.89
426.77	4084.23
426.96	4201.26
427.15	4091.26
427.33	4077.21
427.52	4168.49
427.71	4276.16
427.90	4308.93
428.09	4285.52
428.28	4203.60
428.46	4402.55
428.65	4430.63
428.84	4524.26
429.03	4547.66
429.22	4252.75
429.40	4156.79
429.59	4168.49
429.78	3936.78
429.97	4046.79
430.16	4161.47
430.34	4222.33
430.53	4344.03
430.72	4315.95
430.91	4290.20
431.10	4475.10
431.28	4629.58
431.47	4725.54
431.66	4716.18
431.85	4575.75
432.03	4774.69
432.22	4828.53
432.41	4828.53
432.60	4898.74
432.79	4805.12
432.97	4863.63
433.16	4873.00
433.35	4854.27
433.54	4699.80
433.72	4748.95
433.91	4798.10
434.10	4968.96
434.28	4924.49
434.47	4863.63
434.66	5090.67
434.85	4851.93
435.03	5167.90
435.22	4985.34
435.41	5392.59
435.59	5214.71
435.78	5167.90
435.97	5315.36
436.16	5266.21
436.34	5371.53
436.53	5327.06
436.72	5523.66
436.90	5261.52
437.09	5392.59
437.28	5224.08
437.46	5305.99
437.65	5331.74
437.84	5359.83
438.02	5341.10
438.21	5315.36
438.40	5373.87
438.58	5549.41
438.77	5682.82
438.96	5563.45
439.14	5631.33
439.33	5722.61
439.52	5797.51
439.70	5832.62
439.89	5804.53
440.08	5849.00
440.26	5858.36
440.45	5982.41
440.63	6069.01
440.82	6253.91
441.01	6038.58
441.19	6342.85
441.38	6431.79
441.57	6345.19
441.75	6319.45
441.94	6520.73
442.12	6361.58
442.31	6480.94
442.50	6415.41
442.68	6380.30
442.87	6445.84
443.05	6647.12
443.24	6874.15
443.43	6544.14
443.61	6670.53
443.80	6773.51
443.98	6665.85
444.17	6544.14
444.35	6780.53
444.54	6937.35
444.73	6768.83
444.91	6558.18
445.10	6773.51
445.28	6665.85
445.47	6665.85
445.65	6672.87
445.84	6815.64
446.02	6897.56
446.21	6696.27
446.39	6743.08
446.58	6939.69
446.77	6696.27
446.95	6918.62
447.14	7037.99
447.32	6979.48
447.51	6867.13
447.69	6956.07
447.88	6888.20
448.06	6993.52
448.25	6998.20
448.43	7009.90
448.62	6988.84
448.80	6817.98
448.99	6895.22
449.17	7016.93
449.36	6874.15
449.54	7115.23
449.73	7403.11
449.91	7288.43
450.10	7470.99
450.28	7599.72
450.46	7503.76
450.65	7368.01
450.83	7468.65
451.02	7311.83
451.20	7492.05
451.39	7538.87
451.57	7494.40
451.76	7339.92
451.94	7634.83
452.13	7571.63
452.31	7571.63
452.49	7311.83
452.68	7424.18
452.86	7281.41
453.05	7414.82
453.23	7501.42
453.42	7440.56
453.60	7527.16
453.78	7562.27
453.97	7683.98
454.15	7662.91
454.34	7550.57
454.52	7812.71
454.70	7793.98
454.89	7735.47
455.07	7798.66
455.26	7796.32
455.44	7969.52
455.62	7868.88
455.81	7974.21
455.99	8098.25
456.17	8285.50
456.36	7988.25
456.54	8208.26
456.73	8245.71
456.91	8414.23
457.09	8472.74
457.28	8269.11
457.46	8383.80
457.64	8475.08
457.83	8184.85
458.01	8208.26
458.19	8430.61
458.38	8451.67
458.56	8428.27
458.74	8615.51
458.93	8542.96
459.11	8652.96
459.29	8603.81
459.48	8517.21
459.66	8601.47
459.84	8711.47
460.03	8748.92
460.21	8695.09
460.39	8784.03
460.57	8769.99
460.76	9064.89
460.94	8975.95
461.12	8924.46
461.31	8856.59
461.49	8835.52
461.67	9025.11
461.85	9050.85
462.04	8929.14
462.22	9540.02
462.40	9329.38
462.59	9011.06
462.77	9092.98
462.95	9177.24
463.13	9235.75
463.32	9245.12
463.50	9397.25
463.68	9298.95
463.86	9420.66
464.05	9095.32
464.23	9188.94
464.41	9411.29
464.59	9121.07
464.78	9366.82
464.96	9376.19
465.14	9231.07
465.32	9542.36
465.50	9413.63
465.69	9715.56
465.87	9771.74
466.05	9291.93
466.23	9558.75
466.41	9570.45
466.60	9635.99
466.78	9561.09
466.96	9502.58
467.14	9621.94
467.32	9479.17
467.51	9940.26
467.69	9572.79
467.87	9537.68
468.05	9909.83
468.23	9624.28
468.41	9973.02
468.60	9757.69
468.78	9809.19
468.96	9806.84
469.14	9984.73
469.32	10015.15
469.50	9846.63
469.69	9935.57
469.87	10239.84
470.05	10178.99
470.23	10291.34
470.41	10148.56
470.59	10031.54
470.77	10141.54
470.95	10162.61
471.14	10415.38
471.32	10202.40
471.50	10513.69
471.68	10586.24
471.86	10656.46
472.04	10785.19
472.22	10953.71
472.40	10424.75
472.58	10726.68
472.77	10860.09
472.95	10857.75
473.13	11318.83
473.31	10916.26
473.49	10846.04
473.67	10832.00
473.85	11136.27
474.03	11367.98
474.21	11288.40
474.39	11297.77
474.57	11344.58
474.75	11414.79
474.93	11321.17
475.12	11524.80
475.30	11583.31
475.48	11456.92
475.66	11499.05
475.84	11489.69
476.02	11939.07
476.20	11730.76
476.38	12079.50
476.56	12147.38
476.74	12315.90
476.92	12088.87
477.10	12058.44
477.28	12308.88
477.46	12360.37
477.64	12685.70
477.82	12898.69
478.00	13149.13
478.18	12669.32
478.36	12601.44
478.54	12929.12
478.72	13149.13
478.90	13373.82
479.08	13530.64
479.26	13490.85
479.44	13420.63
479.62	13696.82
479.80	13572.77
479.98	13839.59
480.16	13912.14
480.34	13921.51
480.52	14193.01
480.70	14253.86
480.88	14038.53
481.06	14305.35
481.24	14478.55
481.41	14537.07
481.59	14689.20
481.77	14904.53
481.95	15110.50
482.13	14932.62
482.31	15094.11
482.49	15363.28
482.67	15398.38
482.85	15421.79
483.03	15695.63
483.21	15541.16
483.39	16009.26
483.57	15723.72
483.74	16248.00
483.92	16170.76
484.10	15782.23
484.28	16292.47
484.46	16512.48
484.64	16840.15
484.82	16269.06
485.00	16589.72
485.18	16678.66
485.35	16938.46
485.53	16629.51
485.71	16547.59
485.89	16889.31
486.07	16891.65
486.25	17212.30
486.43	17479.12
486.61	17729.56
486.78	17397.20
486.96	17813.82
487.14	18211.71
487.32	18270.22
487.50	18658.75
487.68	18654.07
487.85	18714.92
488.03	19009.83
488.21	19051.96
488.39	19119.84
488.57	19229.84
488.75	19089.41
488.92	19592.62
489.10	19976.47
489.28	20175.42
489.46	20044.35
489.64	20044.35
489.81	20479.69
489.99	20587.35
490.17	20699.70
490.35	20992.26
490.53	20915.03
490.70	21186.53
490.88	20875.24
491.06	21322.28
491.24	21172.49
491.41	21202.91
491.59	21326.96
491.77	21504.84
491.95	21448.67
492.13	21900.39
492.30	22057.21
492.48	22349.78
492.66	22590.85
492.84	22272.54
493.01	22515.95
493.19	22295.94
493.37	22616.60
493.54	23073.00
493.72	23218.11
493.90	23213.43
494.08	23613.66
494.25	23751.76
494.43	23850.06
494.61	24208.16
494.79	24030.28
494.96	24151.99
495.14	23999.85
495.32	24496.05
495.49	24290.08
495.67	24418.81
495.85	24737.12
496.02	24783.93
496.20	25296.51
496.38	25256.72
496.55	25029.69
496.73	25628.87
496.91	25324.60
497.09	25551.63
497.26	25678.02
497.44	25909.73
497.62	26127.40
497.79	25912.07
497.97	25776.32
498.14	26321.66
498.32	26408.26
498.50	26670.40
498.67	26558.06
498.85	26485.50
499.03	26960.63
499.20	27178.30
499.38	27131.49
499.56	26768.71
499.73	26998.08
499.91	27281.28
500.08	27374.91
500.26	27133.83
500.44	27377.25
500.61	27094.04
500.79	27440.44
500.97	27349.16
501.14	27777.48
501.32	27875.78
501.49	27873.44
501.67	27737.69
501.84	28046.64
502.02	28060.68
502.20	28496.02
502.37	28566.24
502.55	28439.85
502.72	28629.43
502.90	28725.39
503.07	28741.78
503.25	28659.86
503.43	28767.52
503.60	28802.63
503.78	28865.83
503.95	28917.32
504.13	29113.92
504.30	29364.36
504.48	29338.62
504.65	29338.62
504.83	29645.23
505.01	29834.81
505.18	29570.33
505.36	29930.77
505.53	30293.55
505.71	30670.38
505.88	30036.09
506.06	30274.83
506.23	30593.14
506.41	30354.41
506.58	30569.74
506.76	30726.55
506.93	30764.00
507.11	30675.06
507.28	30799.11
507.46	30918.48
507.63	30637.61
507.81	30984.01
507.98	31012.10
508.16	31119.76
508.33	31292.96
508.50	31442.76
508.68	31646.38
508.85	31882.78
509.03	31721.28
509.20	31817.24
509.38	32367.27
509.55	32222.16
509.73	32074.70
509.90	31924.91
510.08	31847.67
510.25	32400.04
510.42	31791.50
510.60	32435.14
510.77	32617.71
510.95	32865.80
511.12	32870.48
511.30	33235.61
511.47	33284.76
511.64	33404.13
511.82	33415.83
511.99	32779.20
512.17	33041.34
512.34	32985.17
512.51	33333.91
512.69	33656.90
512.86	33237.95
513.04	33586.69
513.21	33633.50
513.38	33046.02
513.56	33741.16
513.73	33450.94
513.90	33748.18
514.08	33673.29
514.25	34178.84
514.43	33879.25
514.60	34169.48
514.77	34155.44
514.95	34368.43
515.12	34370.77
515.29	34532.26
515.47	34394.17
515.64	34778.02
515.81	34251.40
515.99	34850.58
516.16	34558.01
516.33	34059.48
516.51	34342.68
516.68	34174.16
516.85	34169.48
517.03	34249.06
517.20	34611.84
517.37	34824.83
517.54	34885.68
517.72	35030.80
517.89	34719.51
518.06	34668.02
518.24	34646.95
518.41	34885.68
518.58	35402.94
518.75	35587.85
518.93	35714.23
519.10	35297.62
519.27	35772.75
519.45	35494.22
519.62	35842.96
519.79	36395.33
519.96	36261.92
520.14	36416.40
520.31	35969.35
520.48	35974.03
520.65	36067.66
520.83	36652.79
521.00	36610.66
521.17	36720.66
521.34	36531.08
521.52	36692.58
521.69	36884.50
521.86	36989.83
522.03	36973.44
522.20	36968.76
522.38	36989.83
522.55	37628.79
522.72	37200.47
522.89	37703.69
523.07	37570.28
523.24	37060.04
523.41	37404.10
523.58	37834.76
523.75	38134.35
523.92	37982.21
524.10	37584.32
524.27	38094.56
524.44	38230.31
524.61	38328.61
524.78	38515.86
524.96	38408.19
525.13	38499.47
525.30	38749.91
525.47	38731.18
525.64	38667.99
525.81	38417.55
525.98	38543.94
526.16	38096.90
526.33	37769.22
526.50	38340.32
526.67	37500.06
526.84	38038.39
527.01	38103.92
527.18	38525.22
527.36	38836.51
527.53	38649.27
527.70	39494.20
527.87	39299.94
528.04	38983.96
528.21	39166.52
528.38	39318.66
528.55	39679.10
528.72	39541.01
528.89	39674.42
529.07	39501.22
529.24	39543.35
529.41	39674.42
529.58	39398.24
529.75	39271.85
529.92	39915.50
530.09	40140.19
530.26	39854.64
530.43	39908.47
530.60	39796.13
530.77	39959.97
530.94	40341.47
531.11	40067.63
531.28	40369.56
531.46	40278.28
531.63	40224.45
531.80	40423.39
531.97	40161.25
532.14	40254.87
532.31	40187.00
532.48	40507.65
532.65	40495.95
532.82	40133.17
532.99	40664.47
533.16	40474.88
533.33	40678.51
533.50	41258.96
533.67	40823.62
533.84	40645.74
534.01	40418.71
534.18	40823.62
534.35	41467.27
534.52	40854.05
534.69	41256.62
534.86	41825.37
535.03	41432.16
535.20	41759.84
535.37	41902.61
535.54	41944.74
535.71	41521.10
535.88	41724.73
536.05	41628.77
536.22	41488.34
536.38	41698.98
536.55	41528.13
536.72	41727.07
536.89	41366.63
537.06	41764.52
537.23	42281.78
537.40	41839.42
537.57	41610.04
537.74	41881.55
537.91	42213.90
538.08	42321.57
538.25	41993.89
538.42	41797.29
538.59	42555.62
538.75	41926.02
538.92	41933.04
539.09	42344.97
539.26	42560.30
539.43	42342.63
539.60	42717.12
539.77	41900.27
539.94	42323.91
540.11	41937.72
540.28	42230.29
540.44	42253.69
540.61	42146.03
540.78	41944.74
540.95	42614.13
541.12	42335.61
541.29	42693.71
541.46	42735.84
541.62	42873.93
541.79	42857.55
541.96	42387.10
542.13	42651.58
542.30	42337.95
542.47	42808.40
542.63	42986.28
542.80	43037.77
542.97	43388.85
543.14	43288.21
543.31	43068.20
543.48	43487.15
543.64	43812.49
543.81	43807.81
543.98	43629.93
544.15	43246.08
544.32	43992.71
544.48	44023.14
544.65	43847.60
544.82	43805.47
544.99	43459.07
545.16	43981.01
545.32	43477.79
545.49	44404.64
545.66	43868.66
545.83	43765.68
546.00	44236.12
546.16	44261.87
546.33	43962.28
546.50	43910.79
546.67	43803.13
546.83	43995.05
547.00	44013.77
547.17	44105.06
547.34	43882.70
547.50	43988.03
547.67	44399.96
547.84	44119.10
548.00	44266.55
548.17	44182.29
548.34	44458.48
548.51	44933.60
548.67	44486.56
548.84	44626.99
549.01	44584.86
549.18	44552.10
549.34	44081.65
549.51	44755.72
549.68	44851.69
549.84	44807.22
550.01	45214.47
550.18	44545.08
550.34	44423.37
550.51	44502.95
550.68	44856.37
550.84	44516.99
551.01	44954.67
551.18	44781.47
551.34	44570.82
551.51	44783.81
551.68	45186.38
551.84	45177.02
552.01	44779.13
552.18	45141.91
552.34	45029.57
552.51	44987.44
552.68	44980.42
552.84	45481.29
553.01	45399.37
553.18	45516.40
553.34	45818.33
553.51	45090.42
553.67	45244.90
553.84	45401.71
554.01	45659.17
554.17	45727.05
554.34	45502.35
554.51	45588.95
554.67	45790.24
554.84	46003.23
555.00	45235.53
555.17	45663.85
555.33	45689.60
555.50	45502.35
555.67	45738.75
555.83	45701.30
556.00	45769.18
556.16	45984.51
556.33	45301.07
556.50	45677.90
556.66	45750.45
556.83	45251.92
556.99	46260.69
557.16	45893.22
557.32	45947.06
557.49	46148.34
557.65	45542.14
557.82	45708.32
557.98	45806.62
558.15	45766.84
558.32	45750.45
558.48	46164.73
558.65	45509.38
558.81	45553.85
558.98	46122.60
559.14	45865.14
559.31	45750.45
559.47	45914.29
559.64	46452.61
559.80	45895.56
559.97	45993.87
560.13	46019.61
560.30	46256.01
560.46	46162.39
560.63	46321.54
560.79	45872.16
560.96	46220.90
561.12	46415.16
561.29	45874.50
561.45	45825.35
561.61	46176.43
561.78	46122.60
561.94	46241.96
562.11	45830.03
562.27	45937.69
562.44	45689.60
562.60	45996.21
562.77	46518.15
562.93	46054.72
563.10	46782.63
563.26	46106.21
563.42	46440.91
563.59	46326.22
563.75	46115.58
563.92	46553.26
564.08	46408.14
564.24	46972.21
564.41	46309.84
564.57	46323.88
564.74	46450.27
564.90	46054.72
565.07	46267.71
565.23	46417.50
565.39	46438.57
565.56	46621.13
565.72	46169.41
565.88	46398.78
566.05	45984.51
566.21	46204.52
566.38	46466.66
566.54	46047.70
566.70	46454.95
566.87	46808.37
567.03	46581.34
567.19	46838.80
567.36	46986.25
567.52	46490.06
567.68	46838.80
567.85	46686.67
568.01	46684.33
568.17	46284.09
568.34	46363.67
568.50	46555.60
568.66	46426.87
568.83	46569.64
568.99	46487.72
569.15	46586.02
569.32	46007.91
569.48	46321.54
569.64	46738.16
569.81	46677.30
569.97	46595.38
570.13	46529.85
570.30	46244.30
570.46	46164.73
570.62	45886.20
570.78	46288.77
570.95	46146.00
571.11	46263.03
571.27	46756.88
571.43	46520.49
571.60	46745.18
571.76	46784.97
571.92	46808.37
572.09	46497.08
572.25	46541.55
572.41	47075.19
572.57	47234.35
572.74	46740.50
572.90	46719.43
573.06	46312.18
573.22	46604.75
573.38	46696.03
573.55	46759.22
573.71	47175.84
573.87	46923.06
574.03	46658.58
574.20	47166.48
574.36	46993.28
574.52	46820.08
574.68	46911.36
574.84	46731.14
575.01	47019.02
575.17	46602.41
575.33	46108.55
575.49	46506.44
575.65	46710.07
575.82	47009.66
575.98	46447.93
576.14	46733.48
576.30	46803.69
576.46	47035.41
576.62	46745.18
576.79	46920.72
576.95	46375.37
577.11	46366.01
577.27	46920.72
577.43	46773.27
577.59	46660.92
577.75	46176.43
577.92	46361.33
578.08	46211.54
578.24	46836.46
578.40	46483.04
578.56	46918.38
578.72	47072.85
578.88	46813.05
579.04	46988.60
579.21	46314.52
579.37	46808.37
579.53	46735.82
579.69	46972.21
579.85	46852.84
580.01	46738.16
580.17	46803.69
580.33	46726.46
580.49	47140.73
580.65	47274.14
580.82	46810.71
580.98	46394.10
581.14	46817.74
581.30	46934.76
581.46	46728.80
581.62	46607.09
581.78	46429.21
581.94	47297.55
582.10	47037.75
582.26	47103.28
582.42	46817.74
582.58	47255.42
582.74	46674.96
582.90	46777.95
583.06	47152.43
583.22	46796.67
583.38	47271.80
583.54	47002.64
583.70	47009.66
583.86	46691.35
584.02	46700.71
584.18	47058.81
584.34	46504.10
584.50	47000.30
584.66	46817.74
584.82	46721.77
584.98	47000.30
585.14	47030.72
585.30	46824.76
585.46	47033.07
585.62	46820.08
585.78	46651.56
585.94	46267.71
586.10	46845.82
586.26	46529.85
586.42	47047.11
586.58	47342.02
586.74	46869.23
586.90	46454.95
587.06	46916.04
587.22	46981.57
587.38	46714.75
587.54	46803.69
587.70	46911.36
587.86	46930.08
588.02	46822.42
588.18	46857.52
588.34	46696.03
588.49	46717.09
588.65	45715.34
588.81	46483.04
588.97	46424.53
589.13	46148.34
589.29	46513.47
589.45	46855.18
589.61	46728.80
589.77	46827.10
589.93	46948.81
