SpectraSuite Data File
++++++++++++++++++++++++++++++++++++
Date: Fri Oct 25 11:26:19 EDT 2013
User: price-jones
Dark Spectrum Present: No
Reference Spectrum Present: No
Number of Sampled Component Spectra: 1
Spectrometers: USB2+H05261
Integration Time (usec): 100000 (USB2+H05261)
Spectra Averaged: 1 (USB2+H05261)
Boxcar Smoothing: 0 (USB2+H05261)
Correct for Electrical Dark: No (USB2+H05261)
Strobe/Lamp Enabled: No (USB2+H05261)
Correct for Detector Non-linearity: No (USB2+H05261)
Correct for Stray Light: No (USB2+H05261)
Number of Pixels in Processed Spectrum: 2048
>>>>>Begin Processed Spectral Data<<<<<
365.73	245.76
365.92	245.76
366.12	245.76
366.32	217.67
366.52	100.64
366.72	203.63
366.91	138.09
367.11	128.73
367.31	189.58
367.51	156.82
367.70	152.13
367.90	184.90
368.10	182.56
368.30	184.90
368.49	168.52
368.69	159.16
368.89	126.39
369.09	124.05
369.28	163.84
369.48	163.84
369.68	142.77
369.87	224.69
370.07	227.03
370.27	161.50
370.47	297.25
370.66	601.52
370.86	580.45
371.06	676.41
371.25	784.08
371.45	671.73
371.65	763.01
371.84	643.65
372.04	767.70
372.24	702.16
372.44	718.54
372.63	737.27
372.83	774.72
373.03	800.46
373.22	767.70
373.42	821.53
373.62	746.63
373.81	828.55
374.01	795.78
374.21	830.89
374.40	748.97
374.60	959.62
374.79	833.23
374.99	931.53
375.19	833.23
375.38	901.11
375.58	910.47
375.78	866.00
375.97	844.93
376.17	877.70
376.37	889.40
376.56	873.02
376.76	770.04
376.95	816.85
377.15	945.58
377.35	947.92
377.54	875.36
377.74	903.45
377.93	903.45
378.13	915.15
378.33	903.45
378.52	887.06
378.72	933.87
378.91	976.00
379.11	1004.09
379.31	936.21
379.50	947.92
379.70	997.07
379.89	945.58
380.09	922.17
380.28	994.73
380.48	980.68
380.68	976.00
380.87	966.64
381.07	1011.11
381.26	1050.90
381.46	1027.50
381.65	1118.78
381.85	1090.69
382.04	1025.15
382.24	999.41
382.43	1006.43
382.63	1078.99
382.83	1074.31
383.02	1193.67
383.22	1181.97
383.41	1027.50
383.61	1109.41
383.80	1104.73
384.00	1132.82
384.19	1144.52
384.39	1102.39
384.58	1088.35
384.78	1046.22
384.97	1153.88
385.17	1165.59
385.36	1102.39
385.56	1226.44
385.75	1200.69
385.95	1193.67
386.14	1184.31
386.34	1125.80
386.53	1205.38
386.72	1163.25
386.92	1270.91
387.11	1130.48
387.31	1275.59
387.50	1203.04
387.70	1252.19
387.89	1200.69
388.09	1263.89
388.28	1247.51
388.48	1224.10
388.67	1327.08
388.86	1336.45
389.06	1284.95
389.25	1322.40
389.45	1287.29
389.64	1275.59
389.84	1411.34
390.03	1444.11
390.22	1355.17
390.42	1322.40
390.61	1338.79
390.81	1399.64
391.00	1441.77
391.19	1495.60
391.39	1401.98
391.58	1416.02
391.78	1383.26
391.97	1416.02
392.16	1446.45
392.36	1472.20
392.55	1523.69
392.75	1540.07
392.94	1483.90
393.13	1540.07
393.33	1530.71
393.52	1474.54
393.71	1554.12
393.91	1444.11
394.10	1614.97
394.29	1713.27
394.49	1603.27
394.68	1636.03
394.88	1610.29
395.07	1687.53
395.26	1743.70
395.46	1682.85
395.65	1692.21
395.84	1652.42
396.04	1760.08
396.23	1750.72
396.42	1699.23
396.62	1771.79
396.81	1769.44
397.00	1755.40
397.19	1863.07
397.39	1802.21
397.58	1849.02
397.77	1809.23
397.97	2008.18
398.16	1914.56
398.35	1902.86
398.55	1870.09
398.74	1795.19
398.93	1989.46
399.12	1804.55
399.32	1839.66
399.51	1916.90
399.70	2087.76
399.90	2031.58
400.09	1984.77
400.28	2052.65
400.47	1954.35
400.67	2097.12
400.86	2024.56
401.05	2029.24
401.24	2078.40
401.44	2155.63
401.63	2111.16
401.82	2078.40
402.01	2225.85
402.21	2115.84
402.40	2214.15
402.59	2101.80
402.78	2296.07
402.97	2314.79
403.17	2221.17
403.36	2207.13
403.55	2263.30
403.74	2331.17
403.93	2359.26
404.13	2352.24
404.32	2347.56
404.51	2260.96
404.70	2422.45
404.89	2382.67
405.09	2539.48
405.28	2483.31
405.47	2373.30
405.66	2427.14
405.85	2452.88
406.05	2415.43
406.24	2462.24
406.43	2506.71
406.62	2495.01
406.81	2717.36
407.00	2558.21
407.20	2541.82
407.39	2574.59
407.58	2672.89
407.77	2675.23
407.96	2743.11
408.15	2668.21
408.34	2857.79
408.54	2754.81
408.73	2733.75
408.92	2757.15
409.11	2899.92
409.30	2939.71
409.49	2909.29
409.68	2869.50
409.87	2946.73
410.07	2935.03
410.26	3012.27
410.45	2942.05
410.64	3141.00
410.83	3124.62
411.02	3089.51
411.21	3012.27
411.40	3124.62
411.59	3335.26
411.78	3185.47
411.98	3211.22
412.17	3417.18
412.36	3220.58
412.55	3487.40
412.74	3370.37
412.93	3344.63
413.12	3382.07
413.31	3435.91
413.50	3564.64
413.69	3529.53
413.88	3508.46
414.07	3496.76
414.26	3609.11
414.45	3602.08
414.64	3648.90
414.83	3751.88
415.02	3702.73
415.22	3817.41
415.41	3810.39
415.60	3934.44
415.79	3758.90
415.98	3995.29
416.17	4044.45
416.36	4042.11
416.55	3941.46
416.74	3950.82
416.93	4042.11
417.12	4152.11
417.31	4273.82
417.50	4147.43
417.69	4297.22
417.88	4285.52
418.07	4234.03
418.26	4344.03
418.45	4276.16
418.64	4418.93
418.83	4290.20
419.02	4437.66
419.21	4505.53
419.39	4414.25
419.58	4624.90
419.77	4306.59
419.96	4594.47
420.15	4608.51
420.34	4610.86
420.53	4608.51
420.72	4770.01
420.91	4660.01
421.10	4814.48
421.29	4751.29
421.48	4683.41
421.67	4664.69
421.86	4908.10
422.05	4751.29
422.24	4770.01
422.43	4777.03
422.61	4999.38
422.80	4952.57
422.99	4854.27
423.18	4910.44
423.37	4936.19
423.56	4894.06
423.75	4931.51
423.94	4809.80
424.13	4676.39
424.32	4856.61
424.50	4959.60
424.69	5193.65
424.88	5167.90
425.07	4947.89
425.26	4940.87
425.45	4964.28
425.64	4994.70
425.83	4940.87
426.01	5158.54
426.20	5093.01
426.39	4950.23
426.58	4938.53
426.77	5036.83
426.96	5060.24
427.15	5123.43
427.33	5338.76
427.52	5226.42
427.71	5275.57
427.90	5205.35
428.09	5408.98
428.28	5406.64
428.46	5413.66
428.65	5481.53
428.84	5521.32
429.03	5432.38
429.22	5238.12
429.40	5376.21
429.59	5572.82
429.78	5263.86
429.97	5341.10
430.16	5322.38
430.34	5579.84
430.53	5533.03
430.72	5659.42
430.91	5565.79
431.10	5617.29
431.28	5731.97
431.47	5771.76
431.66	5942.62
431.85	5654.73
432.03	5907.51
432.22	5921.56
432.41	5858.36
432.60	5734.31
432.79	5853.68
432.97	5907.51
433.16	6001.13
433.35	6078.37
433.54	6024.54
433.72	6174.33
433.91	6141.57
434.10	6300.72
434.28	6022.20
434.47	6188.38
434.66	6167.31
434.85	6289.02
435.03	6242.21
435.22	6176.67
435.41	6368.60
435.59	6179.01
435.78	6438.81
435.97	6363.92
436.16	6342.85
436.34	6565.20
436.53	6483.28
436.72	6717.34
436.90	6399.02
437.09	6705.63
437.28	6560.52
437.46	6345.19
437.65	6553.50
437.84	6729.04
438.02	6696.27
438.21	6724.36
438.40	6691.59
438.58	7089.48
438.77	7173.74
438.96	6944.37
439.14	6946.71
439.33	7012.24
439.52	7077.78
439.70	7159.70
439.89	7276.73
440.08	7325.88
440.26	7389.07
440.45	7194.81
440.63	7363.33
440.82	7449.93
441.01	7431.20
441.19	7669.94
441.38	7639.51
441.57	7712.07
441.75	7812.71
441.94	7969.52
442.12	8072.51
442.31	7906.33
442.50	7892.29
442.68	7843.14
442.87	7911.01
443.05	8269.11
443.24	8086.55
443.43	8201.24
443.61	8173.15
443.80	8273.79
443.98	8011.65
444.17	7775.26
444.35	8280.82
444.54	8367.42
444.73	8135.70
444.91	8367.42
445.10	8238.69
445.28	8383.80
445.47	8241.03
445.65	8250.39
445.84	8353.37
446.02	8458.70
446.21	8416.57
446.39	8294.86
446.58	8360.39
446.77	8491.46
446.95	8159.11
447.14	8557.00
447.32	8472.74
447.51	8404.86
447.69	8489.12
447.88	8524.23
448.06	8409.54
448.25	8351.03
448.43	8627.21
448.62	8695.09
448.80	8418.91
448.99	8564.02
449.17	8781.69
449.36	8561.68
449.54	8840.20
449.73	8868.29
449.91	8894.04
450.10	8959.57
450.28	9083.62
450.46	9121.07
450.65	8980.64
450.83	8971.27
451.02	8971.27
451.20	9125.75
451.39	9128.09
451.57	9088.30
451.76	9165.54
451.94	9050.85
452.13	9418.32
452.31	9348.10
452.49	9092.98
452.68	9439.38
452.86	9273.20
453.05	9198.31
453.23	9376.19
453.42	9324.69
453.60	9495.55
453.78	9385.55
453.97	9385.55
454.15	9488.53
454.34	9572.79
454.52	9738.97
454.70	9568.11
454.89	9638.33
455.07	9813.87
455.26	9687.48
455.44	9715.56
455.62	9848.97
455.81	9830.25
455.99	10031.54
456.17	10045.58
456.36	10047.92
456.54	10085.37
456.73	10186.01
456.91	10707.95
457.09	10527.73
457.28	10473.90
457.46	10186.01
457.64	10600.29
457.83	10434.11
458.01	10490.28
458.19	10733.70
458.38	10534.75
458.56	10611.99
458.74	10597.95
458.93	10602.63
459.11	10817.96
459.29	10597.95
459.48	10885.83
459.66	10822.64
459.84	11026.26
460.03	11005.20
460.21	10743.06
460.39	11014.56
460.57	10820.30
460.76	11215.85
460.94	11030.94
461.12	11028.60
461.31	11030.94
461.49	11077.76
461.67	11199.46
461.85	11487.35
462.04	11150.31
462.22	11646.51
462.40	11494.37
462.59	11424.15
462.77	11459.26
462.95	11658.21
463.13	11393.73
463.32	11681.61
463.50	11791.62
463.68	11611.40
463.86	11885.24
464.05	11644.17
464.23	11857.15
464.41	11852.47
464.59	11323.51
464.78	11857.15
464.96	11782.26
465.14	11698.00
465.32	12002.27
465.50	11971.84
465.69	12105.25
465.87	12294.83
466.05	11962.48
466.23	12374.41
466.41	12093.55
466.60	12411.86
466.78	11957.80
466.96	12135.68
467.14	12119.29
467.32	12163.76
467.51	12608.47
467.69	12016.31
467.87	12484.42
468.05	12760.60
468.23	12666.98
468.41	12542.93
468.60	12760.60
468.78	12547.61
468.96	12596.76
469.14	12737.20
469.32	13099.98
469.50	12629.53
469.69	13015.72
469.87	13085.94
470.05	13102.32
470.23	13200.62
470.41	13114.02
470.59	13256.79
470.77	13209.98
470.95	13125.72
471.14	13460.42
471.32	13245.09
471.50	13624.26
471.68	13769.37
471.86	13476.80
472.04	13493.19
472.22	13914.48
472.40	13509.57
472.58	13455.74
472.77	14031.51
472.95	14010.45
473.13	14335.78
473.31	13933.21
473.49	14204.71
473.67	14188.33
473.85	14115.77
474.03	14520.68
474.21	14368.55
474.39	14679.84
474.57	14604.94
474.75	14628.35
474.93	14761.76
475.12	14953.68
475.30	15201.78
475.48	15040.28
475.66	15300.08
475.84	14937.30
476.02	15382.00
476.20	15274.34
476.38	15494.35
476.56	15988.20
476.74	15613.71
476.92	15845.43
477.10	15641.80
477.28	16006.92
477.46	15857.13
477.64	16154.38
477.82	16470.35
478.00	16762.92
478.18	16657.59
478.36	16910.37
478.54	17078.89
478.72	16945.48
478.90	17319.96
479.08	17418.27
479.26	17572.74
479.44	17659.34
479.62	17596.15
479.80	18174.26
479.98	18008.08
480.16	18485.55
480.34	18171.92
480.52	18223.41
480.70	18127.45
480.88	18387.25
481.06	18555.77
481.24	18752.37
481.41	18984.09
481.59	19307.08
481.77	19854.76
481.95	19601.99
482.13	19711.99
482.31	19552.84
482.49	20025.62
482.67	20109.88
482.85	20367.34
483.03	20491.39
483.21	20680.97
483.39	20982.90
483.57	20732.47
483.74	21247.38
483.92	21411.22
484.10	21123.33
484.28	21830.18
484.46	21855.92
484.64	22441.06
484.82	21689.74
485.00	22387.22
485.18	22735.96
485.35	22984.06
485.53	22780.43
485.71	23239.18
485.89	23262.58
486.07	23054.28
486.25	23089.38
486.43	23742.39
486.61	23463.87
486.78	23995.17
486.96	23768.14
487.14	24203.48
487.32	24568.60
487.50	24765.21
487.68	25050.75
487.85	25034.37
488.03	25144.38
488.21	25832.49
488.39	25755.26
488.57	26015.05
488.75	26059.52
488.92	26103.99
489.10	26995.74
489.28	26230.38
489.46	26988.72
489.64	26782.75
489.81	27695.56
489.99	27255.54
490.17	27360.86
490.35	27960.04
490.53	28161.33
490.70	28212.82
490.88	28198.77
491.06	28945.41
491.24	28723.05
491.41	29165.42
491.59	29193.50
491.77	29331.59
491.95	29654.59
492.13	29631.18
492.30	29647.57
492.48	30132.06
492.66	29886.30
492.84	30499.52
493.01	30721.87
493.19	30644.63
493.37	31033.16
493.54	30864.64
493.72	31206.36
493.90	31278.92
494.08	31590.21
494.25	31871.07
494.43	31777.45
494.61	32151.94
494.79	32381.31
494.96	32402.38
495.14	32790.91
495.32	32945.38
495.49	32961.76
495.67	32945.38
495.85	33408.81
496.02	33865.21
496.20	33919.04
496.38	34272.46
496.55	34227.99
496.73	34529.92
496.91	34646.95
497.09	34897.39
497.26	34719.51
497.44	34721.85
497.62	34934.84
497.79	36070.00
497.97	35358.47
498.14	35555.08
498.32	36299.37
498.50	36037.23
498.67	36418.74
498.85	35833.60
499.03	36217.45
499.20	36362.56
499.38	36762.79
499.56	36680.88
499.73	37214.52
499.91	36957.06
500.08	37481.34
500.26	37202.82
500.44	37177.07
500.61	37881.57
500.79	37296.44
500.97	37972.85
501.14	38569.69
501.32	38195.20
501.49	38096.90
501.67	38337.98
501.84	38576.71
502.02	38878.64
502.20	39126.74
502.37	38890.34
502.55	39157.16
502.72	39276.53
502.90	39159.50
503.07	39384.19
503.25	39569.10
503.43	39386.54
503.60	39826.56
503.78	40135.51
503.95	39871.03
504.13	40456.16
504.30	40779.15
504.48	40086.36
504.65	40547.44
504.83	41045.97
505.01	41228.54
505.18	41195.77
505.36	41336.20
505.53	41244.92
505.71	41514.08
505.88	41179.39
506.06	41083.42
506.23	41759.84
506.41	41373.65
506.58	41324.50
506.76	42279.44
506.93	42469.02
507.11	42199.86
507.28	42604.77
507.46	42305.18
507.63	42703.07
507.81	43335.02
507.98	42485.40
508.16	42775.63
508.33	43002.66
508.50	43398.21
508.68	43791.42
508.85	43316.29
509.03	43115.01
509.20	43842.92
509.38	44121.44
509.55	44039.52
509.73	44013.77
509.90	44201.02
510.08	44226.76
510.25	44119.10
510.42	44650.40
510.60	44591.89
510.77	45064.67
510.95	45088.08
511.12	45118.51
511.30	45020.20
511.47	45258.94
511.64	45310.43
511.82	45603.00
511.99	45097.44
512.17	45673.21
512.34	45752.79
512.51	45961.10
512.69	46153.02
512.86	46087.49
513.04	46593.04
513.21	46326.22
513.38	46487.72
513.56	46803.69
513.73	46536.87
513.90	47044.77
514.08	46897.31
514.25	47140.73
514.43	47187.54
514.60	47147.75
514.77	47227.33
514.95	47372.44
515.12	47316.27
515.29	47430.96
515.47	47758.63
515.64	47669.69
515.81	47555.00
515.99	48264.19
516.16	48425.68
516.33	48163.54
516.51	48861.02
516.68	47697.78
516.85	48098.01
517.03	48678.46
517.20	48453.77
517.37	48978.05
517.54	48250.14
517.72	48956.99
517.89	49027.20
518.06	49251.89
518.24	48959.33
518.41	48900.81
518.58	49361.90
518.75	48776.76
518.93	49350.20
519.10	49628.72
519.27	49717.66
519.45	49263.60
519.62	49986.82
519.79	49935.33
519.96	49743.41
520.14	50138.96
520.31	49748.09
520.48	50494.72
520.65	49911.92
520.83	50356.63
521.00	50328.54
521.17	50113.21
521.34	50361.31
521.52	50632.81
521.69	50871.54
521.86	50962.82
522.03	50871.54
522.20	51180.49
522.38	51229.65
522.55	51133.68
522.72	51044.74
522.89	51248.37
523.07	51629.88
523.24	51318.59
523.41	51391.14
523.58	51402.85
523.75	51854.57
523.92	51440.29
524.10	52006.70
524.27	51927.13
524.44	51835.84
524.61	52048.83
524.78	51838.18
524.96	51908.40
525.13	51868.61
525.30	52207.99
525.47	52479.49
525.64	52406.94
525.81	52339.06
525.98	52378.85
526.16	52437.36
526.33	52598.86
526.50	52804.83
526.67	52289.91
526.84	52959.30
527.01	52793.12
527.18	52802.49
527.36	52956.96
527.53	53120.80
527.70	53123.14
527.87	53272.93
528.04	53333.79
528.21	53221.44
528.38	53476.56
528.55	53528.05
528.72	53422.73
528.89	53219.10
529.07	53621.67
529.24	53347.83
529.41	53385.28
529.58	53455.50
529.75	53509.33
529.92	53712.95
530.09	53668.48
530.26	53780.83
530.43	53780.83
530.60	53612.31
530.77	53654.44
530.94	53918.92
531.11	53811.26
531.28	54005.52
531.46	53963.39
531.63	54003.18
531.80	54059.35
531.97	54113.19
532.14	54391.71
532.31	54354.26
532.48	54564.91
532.65	54372.99
532.82	54485.33
532.99	54679.60
533.16	54653.85
533.33	54820.03
533.50	54763.85
533.67	54681.94
533.84	54672.57
534.01	54822.37
534.18	54834.07
534.35	55229.62
534.52	54880.88
534.69	55072.81
534.86	55168.77
535.03	54796.62
535.20	55033.02
535.37	55150.04
535.54	55419.20
535.71	55089.19
535.88	55040.04
536.05	55238.98
536.22	55402.82
536.38	55508.14
536.55	55407.50
536.72	55765.60
536.89	55407.50
537.06	55285.79
537.23	55611.13
537.40	55805.39
537.57	55751.56
537.74	55569.00
537.91	55910.72
538.08	55985.61
538.25	55634.53
538.42	55657.94
538.59	55957.53
538.75	55732.84
538.92	56016.04
539.09	56376.48
539.26	56011.36
539.43	55980.93
539.60	56020.72
539.77	56142.43
539.94	56226.69
540.11	56339.04
540.28	56324.99
540.44	56493.51
540.61	56254.78
540.78	56346.06
540.95	56313.29
541.12	56273.50
541.29	56238.39
541.46	56383.51
541.62	56626.92
541.79	56575.43
541.96	56264.14
542.13	56484.15
542.30	56528.62
542.47	56750.97
542.63	56685.43
542.80	56713.52
542.97	57106.73
543.14	56900.76
543.31	56830.55
543.48	57048.22
543.64	57476.54
543.81	57406.32
543.98	57134.82
544.15	57118.43
544.32	57190.99
544.48	57401.64
544.65	57106.73
544.82	57359.51
544.99	57235.46
545.16	57209.71
545.32	57228.44
545.49	57226.10
545.66	57511.64
545.83	57588.88
546.00	57616.97
546.16	57563.14
546.33	57392.28
546.50	57228.44
546.67	57542.07
546.83	57368.87
547.00	57443.77
547.17	57542.07
547.34	57598.24
547.50	57715.27
547.67	57951.66
547.84	57853.36
548.00	58047.63
548.17	58248.91
548.34	57799.53
548.51	58082.73
548.67	58225.51
548.84	58148.27
549.01	57818.25
549.18	58152.95
549.34	58197.42
549.51	58281.68
549.68	58166.99
549.84	58211.46
550.01	58335.51
550.18	58056.99
550.34	58356.58
550.51	58408.07
550.68	58377.64
550.84	58035.92
551.01	58440.84
551.18	58574.25
551.34	58401.05
551.51	58511.05
551.68	58478.28
551.84	58337.85
552.01	58464.24
552.18	58379.98
552.34	58515.73
552.51	58504.03
552.68	58497.01
552.84	58508.71
553.01	58810.64
553.18	58782.55
553.34	58883.20
553.51	58681.91
553.67	58827.02
553.84	58824.68
554.01	58805.96
554.17	58918.31
554.34	58866.81
554.51	59030.65
554.67	58876.18
554.84	58972.14
555.00	58944.05
555.17	58866.81
555.33	59121.93
555.50	58878.52
555.67	58873.84
555.83	58990.86
556.00	58944.05
556.16	59391.09
556.33	59363.01
556.50	59061.08
556.66	59344.28
556.83	58990.86
556.99	59274.07
557.16	59295.13
557.32	59475.35
557.49	59430.88
557.65	59119.59
557.82	59147.68
557.98	59386.41
558.15	59423.86
558.32	59433.22
558.48	59330.24
558.65	59430.88
558.81	59255.34
558.98	59470.67
559.14	59480.03
559.31	59501.10
559.47	59641.53
559.64	59526.84
559.80	59526.84
559.97	59643.87
560.13	59468.33
560.30	59449.61
560.46	59845.16
560.63	59604.08
560.79	59618.13
560.96	59751.54
561.12	59667.28
561.29	59735.15
561.45	59657.91
561.61	59735.15
561.78	59934.10
561.94	59650.89
562.11	59650.89
562.27	59763.24
562.44	59842.82
562.60	60013.68
562.77	59779.62
562.93	59678.98
563.10	59807.71
563.26	59866.22
563.42	60023.04
563.59	59784.30
563.75	59906.01
563.92	59849.84
564.08	59898.99
564.24	60093.25
564.41	59891.97
564.57	60025.38
564.74	60161.13
564.90	60109.64
565.07	60069.85
565.23	60039.42
565.39	59985.59
565.56	59957.50
565.72	60107.30
565.88	60271.14
566.05	60170.49
566.21	59906.01
566.38	60254.75
566.54	60107.30
566.70	60250.07
566.87	60254.75
567.03	60149.43
567.19	60289.86
567.36	60210.28
567.52	60069.85
567.68	60446.68
567.85	60327.31
568.01	60395.18
568.17	60200.92
568.34	60221.98
568.50	60273.48
568.66	60275.82
568.83	60191.56
568.99	60287.52
569.15	60362.42
569.32	60308.58
569.48	60193.90
569.64	60411.57
569.81	60430.29
569.97	60247.73
570.13	60413.91
570.30	60336.67
570.46	60100.28
570.62	60360.08
570.78	60369.44
570.95	60303.90
571.11	60493.49
571.27	60498.17
571.43	60486.46
571.60	60666.69
571.76	60418.59
571.92	60413.91
572.09	60507.53
572.25	60331.99
572.41	60273.48
572.57	60441.99
572.74	60690.09
572.90	60388.16
573.06	60601.15
573.22	60573.06
573.38	60608.17
573.55	60481.78
573.71	60849.25
573.87	60566.04
574.03	60341.35
574.20	60556.68
574.36	60470.08
574.52	60664.35
574.68	60654.98
574.84	60456.04
575.01	60676.05
575.17	60640.94
575.33	60395.18
575.49	60430.29
575.65	60683.07
575.82	60636.26
575.98	60884.36
576.14	60619.88
576.30	60753.29
576.46	60652.64
576.62	60484.12
576.79	60563.70
576.95	60493.49
577.11	60694.77
577.27	60718.18
577.43	60757.97
577.59	60650.30
577.75	60662.00
577.92	60683.07
578.08	60535.62
578.24	60694.77
578.40	60846.91
578.56	60842.23
578.72	60544.98
578.88	60924.14
579.04	60893.72
579.21	60713.50
579.37	60816.48
579.53	60839.89
579.69	60690.09
579.85	60610.51
580.01	60561.36
580.17	60701.79
580.33	60839.89
580.49	60874.99
580.65	60961.59
580.82	60683.07
580.98	60615.19
581.14	60839.89
581.30	61027.13
581.46	60783.71
581.62	60725.20
581.78	60830.52
581.94	60755.63
582.10	60692.43
582.26	60739.24
582.42	60750.94
582.58	60919.46
582.74	60727.54
582.90	60931.17
583.06	60846.91
583.22	60615.19
583.38	60746.26
583.54	60898.40
583.70	61017.77
583.86	60886.70
584.02	60853.93
584.18	61043.51
584.34	60921.80
584.50	61024.79
584.66	60797.76
584.82	60701.79
584.98	61050.53
585.14	60996.70
585.30	60636.26
585.46	60935.85
585.62	61010.74
585.78	61092.66
585.94	60750.94
586.10	60942.87
586.26	60959.25
586.42	60938.19
586.58	61116.07
586.74	60795.42
586.90	60786.05
587.06	60844.57
587.22	60917.12
587.38	61013.08
587.54	60989.68
587.70	61132.45
587.86	60992.02
588.02	61120.75
588.18	60952.23
588.34	61043.51
588.49	61017.77
