SpectraSuite Data File
++++++++++++++++++++++++++++++++++++
Date: Fri Oct 25 10:43:26 EDT 2013
User: price-jones
Dark Spectrum Present: No
Reference Spectrum Present: No
Number of Sampled Component Spectra: 1
Spectrometers: USB2+H05261
Integration Time (usec): 100000 (USB2+H05261)
Spectra Averaged: 1 (USB2+H05261)
Boxcar Smoothing: 0 (USB2+H05261)
Correct for Electrical Dark: No (USB2+H05261)
Strobe/Lamp Enabled: No (USB2+H05261)
Correct for Detector Non-linearity: No (USB2+H05261)
Correct for Stray Light: No (USB2+H05261)
Number of Pixels in Processed Spectrum: 2048
>>>>>Begin Processed Spectral Data<<<<<
365.73	110.01
365.92	110.01
366.12	110.01
366.32	63.19
366.52	16.38
366.72	93.62
366.91	2.34
367.11	25.75
367.31	0.00
367.51	28.09
367.70	4.68
367.90	25.75
368.10	9.36
368.30	32.77
368.49	67.88
368.69	91.28
368.89	0.00
369.09	0.00
369.28	0.00
369.48	60.85
369.68	60.85
369.87	145.11
370.07	51.49
370.27	81.92
370.47	145.11
370.66	313.63
370.86	376.83
371.06	472.79
371.25	477.47
371.45	344.06
371.65	493.85
371.84	421.30
372.04	369.80
372.24	458.74
372.44	435.34
372.63	482.15
372.83	498.53
373.03	538.32
373.22	491.51
373.42	599.18
373.62	519.60
373.81	582.79
374.01	479.81
374.21	510.24
374.40	566.41
374.60	575.77
374.79	559.39
374.99	620.24
375.19	594.50
375.38	564.07
375.58	531.30
375.78	543.00
375.97	573.43
376.17	592.16
376.37	580.45
376.56	573.43
376.76	615.56
376.95	634.29
377.15	655.35
377.35	596.84
377.54	674.07
377.74	613.22
377.93	690.46
378.13	716.20
378.33	603.86
378.52	552.37
378.72	578.11
378.91	571.09
379.11	617.90
379.31	645.99
379.50	610.88
379.70	669.39
379.89	753.65
380.09	629.60
380.28	653.01
380.48	695.14
380.68	699.82
380.87	678.76
381.07	697.48
381.26	739.61
381.46	678.76
381.65	730.25
381.85	753.65
382.04	716.20
382.24	730.25
382.43	718.54
382.63	739.61
382.83	739.61
383.02	723.23
383.22	718.54
383.41	692.80
383.61	770.04
383.80	720.88
384.00	711.52
384.19	746.63
384.39	669.39
384.58	819.19
384.78	772.38
384.97	706.84
385.17	793.44
385.36	718.54
385.56	788.76
385.75	681.10
385.95	767.70
386.14	777.06
386.34	725.57
386.53	924.51
386.72	821.53
386.92	910.47
387.11	816.85
387.31	877.70
387.50	830.89
387.70	830.89
387.89	903.45
388.09	870.68
388.28	847.27
388.48	922.17
388.67	912.81
388.86	880.04
389.06	858.98
389.25	884.72
389.45	910.47
389.64	990.05
389.84	957.28
390.03	945.58
390.22	992.39
390.42	973.66
390.61	961.96
390.81	940.90
391.00	1015.79
391.19	1109.41
391.39	1029.84
391.58	1081.33
391.78	1074.31
391.97	999.41
392.16	997.07
392.36	1118.78
392.55	940.90
392.75	954.94
392.94	959.62
393.13	968.98
393.33	947.92
393.52	994.73
393.71	1146.86
393.91	1036.86
394.10	1053.24
394.29	1118.78
394.49	1055.58
394.68	1149.20
394.88	1313.04
395.07	1228.78
395.26	1207.72
395.46	1135.16
395.65	1238.14
395.84	1086.01
396.04	1287.29
396.23	1151.54
396.42	1160.91
396.62	1107.07
396.81	1207.72
397.00	1238.14
397.19	1224.10
397.39	1299.00
397.58	1306.02
397.77	1282.61
397.97	1299.00
398.16	1359.85
398.35	1343.47
398.55	1425.39
398.74	1432.41
398.93	1589.22
399.12	1504.96
399.32	1441.77
399.51	1446.45
399.70	1556.46
399.90	1507.30
400.09	1596.25
400.28	1561.14
400.47	1617.31
400.67	1624.33
400.86	1516.67
401.05	1535.39
401.24	1614.97
401.44	1701.57
401.63	1647.74
401.82	1720.29
402.01	1746.04
402.21	1673.48
402.40	1706.25
402.59	1652.42
402.78	1746.04
402.97	1797.53
403.17	1776.47
403.36	1703.91
403.55	1898.17
403.74	1863.07
403.93	1778.81
404.13	1839.66
404.32	1757.74
404.51	1872.43
404.70	1863.07
404.89	1872.43
405.09	1867.75
405.28	1900.52
405.47	1942.64
405.66	1867.75
405.85	1898.17
406.05	1877.11
406.24	1919.24
406.43	1937.96
406.62	1884.13
406.81	2097.12
407.00	2080.74
407.20	1973.07
407.39	2052.65
407.58	2054.99
407.77	2136.91
407.96	2111.16
408.15	2097.12
408.34	2073.71
408.54	2197.76
408.73	2242.23
408.92	2172.02
409.11	2342.88
409.30	2244.57
409.49	2289.04
409.68	2228.19
409.87	2200.10
410.07	2251.60
410.26	2328.83
410.45	2338.20
410.64	2349.90
410.83	2347.56
411.02	2342.88
411.21	2483.31
411.40	2509.05
411.59	2567.57
411.78	2443.52
411.98	2499.69
412.17	2565.23
412.36	2546.50
412.55	2525.44
412.74	2675.23
412.93	2637.78
413.12	2708.00
413.31	2920.99
413.50	2649.49
413.69	2684.59
413.88	2801.62
414.07	2778.22
414.26	2778.22
414.45	2862.48
414.64	2958.44
414.83	2864.82
415.02	3033.33
415.22	2855.45
415.41	3047.38
415.60	3070.78
415.79	3115.25
415.98	3150.36
416.17	3122.27
416.36	3183.13
416.55	3000.57
416.74	3281.43
416.93	3087.17
417.12	3269.73
417.31	3218.24
417.50	3328.24
417.69	3372.71
417.88	3489.74
418.07	3318.88
418.26	3346.97
418.45	3384.41
418.64	3564.64
418.83	3449.95
419.02	3480.38
419.21	3304.84
419.39	3494.42
419.58	3400.80
419.77	3353.99
419.96	3592.72
420.15	3749.54
420.34	3625.49
420.53	3531.87
420.72	3812.73
420.91	3707.41
421.10	3665.28
421.29	3777.62
421.48	3756.56
421.67	3815.07
421.86	3733.15
422.05	3871.25
422.24	3716.77
422.43	3669.96
422.61	3747.20
422.80	3899.33
422.99	3791.67
423.18	3871.25
423.37	3857.20
423.56	3988.27
423.75	3852.52
423.94	3941.46
424.13	3616.13
424.32	3709.75
424.50	3889.97
424.69	3936.78
424.88	3913.38
425.07	3819.75
425.26	3929.76
425.45	3829.12
425.64	3838.48
425.83	3838.48
426.01	3887.63
426.20	3906.35
426.39	3971.89
426.58	3967.21
426.77	3857.20
426.96	3901.67
427.15	3978.91
427.33	3922.74
427.52	3901.67
427.71	4091.26
427.90	4053.81
428.09	4004.66
428.28	4021.04
428.46	4131.05
428.65	4114.66
428.84	4149.77
429.03	4145.09
429.22	4007.00
429.40	3976.57
429.59	4042.11
429.78	3936.78
429.97	3840.82
430.16	3922.74
430.34	3908.69
430.53	4065.51
430.72	4039.76
430.91	4152.11
431.10	4313.61
431.28	4411.91
431.47	4545.32
431.66	4463.40
431.85	4402.55
432.03	4533.62
432.22	4571.07
432.41	4456.38
432.60	4645.96
432.79	4676.39
432.97	4652.98
433.16	4643.62
433.35	4629.58
433.54	4440.00
433.72	4601.49
433.91	4437.66
434.10	4596.81
434.28	4669.37
434.47	4765.33
434.66	4681.07
434.85	4802.78
435.03	4748.95
435.22	4882.36
435.41	4990.02
435.59	4931.51
435.78	4990.02
435.97	5071.94
436.16	4910.44
436.34	5018.11
436.53	5006.41
436.72	5135.14
436.90	4821.50
437.09	5053.22
437.28	5008.75
437.46	5135.14
437.65	5114.07
437.84	5095.35
438.02	5139.82
438.21	5071.94
438.40	5184.29
438.58	5235.78
438.77	5298.97
438.96	5277.91
439.14	5392.59
439.33	5526.00
439.52	5582.18
439.70	5521.32
439.89	5469.83
440.08	5495.58
440.26	5497.92
440.45	5357.49
440.63	5746.02
440.82	5722.61
441.01	5846.66
441.19	5757.72
441.38	5907.51
441.57	5816.23
441.75	6038.58
441.94	6108.80
442.12	6253.91
442.31	6179.01
442.50	6167.31
442.68	6132.20
442.87	6104.12
443.05	6118.16
443.24	6296.04
443.43	6202.42
443.61	6272.64
443.80	6436.47
443.98	6129.86
444.17	6155.61
444.35	6427.11
444.54	6356.90
444.73	6480.94
444.91	6312.42
445.10	6361.58
445.28	6312.42
445.47	6312.42
445.65	6471.58
445.84	6523.07
446.02	6377.96
446.21	6312.42
446.39	6382.64
446.58	6597.97
446.77	6457.54
446.95	6331.15
447.14	6595.63
447.32	6539.46
447.51	6392.00
447.69	6473.92
447.88	6387.32
448.06	6319.45
448.25	6710.32
448.43	6609.67
448.62	6689.25
448.80	6548.82
448.99	6696.27
449.17	6616.69
449.36	6616.69
449.54	6843.73
449.73	7012.24
449.91	6981.82
450.10	7096.50
450.28	7096.50
450.46	6817.98
450.65	7112.89
450.83	7187.79
451.02	7108.21
451.20	6942.03
451.39	7337.58
451.57	6927.99
451.76	7002.88
451.94	7021.61
452.13	7171.40
452.31	7089.48
452.49	6892.88
452.68	7129.27
452.86	6998.20
453.05	6860.11
453.23	7185.44
453.42	7150.34
453.60	6991.18
453.78	7300.13
453.97	7255.66
454.15	7176.08
454.34	7370.35
454.52	7346.94
454.70	7414.82
454.89	7148.00
455.07	7363.33
455.26	7293.11
455.44	7461.63
455.62	7674.62
455.81	7414.82
455.99	7662.91
456.17	7714.41
456.36	7559.93
456.54	7779.94
456.73	7730.79
456.91	7908.67
457.09	7861.86
457.28	8278.47
457.46	7693.34
457.64	7932.08
457.83	7997.61
458.01	7922.71
458.19	7866.54
458.38	7922.71
458.56	7939.10
458.74	7852.50
458.93	8009.31
459.11	8023.36
459.29	8119.32
459.48	7995.27
459.66	8023.36
459.84	8369.76
460.03	8383.80
460.21	8292.52
460.39	8325.29
460.57	8280.82
460.76	8395.50
460.94	8390.82
461.12	8596.79
461.31	8514.87
461.49	8617.85
461.67	8400.18
461.85	8599.13
462.04	8414.23
462.22	9083.62
462.40	8645.94
462.59	8601.47
462.77	8627.21
462.95	8692.75
463.13	8685.73
463.32	8648.28
463.50	8922.12
463.68	8772.33
463.86	8884.67
464.05	8634.24
464.23	8692.75
464.41	8980.64
464.59	8678.71
464.78	9139.79
464.96	8957.23
465.14	8865.95
465.32	9128.09
465.50	9153.84
465.69	9139.79
465.87	8798.07
466.05	8933.82
466.23	8968.93
466.41	8999.36
466.60	9130.43
466.78	8908.08
466.96	8856.59
467.14	8994.68
467.32	9193.62
467.51	9219.37
467.69	9104.68
467.87	9107.02
468.05	9270.86
468.23	9071.92
468.41	9401.93
468.60	9392.57
468.78	9537.68
468.96	9268.52
469.14	9425.34
469.32	9476.83
469.50	9502.58
469.69	9399.59
469.87	9696.84
470.05	9640.67
470.23	9430.02
470.41	9603.22
470.59	9624.28
470.77	9607.90
470.95	9741.31
471.14	9753.01
471.32	9692.16
471.50	10115.80
471.68	10129.84
471.86	10036.22
472.04	10188.35
472.22	10319.42
472.40	9720.24
472.58	9961.32
472.77	10289.00
472.95	10427.09
473.13	10593.26
473.31	10258.57
473.49	10223.46
473.67	10366.23
473.85	10647.10
474.03	10609.65
474.21	10787.53
474.39	10637.73
474.57	10658.80
474.75	10890.51
474.93	10803.91
475.12	10881.15
475.30	10960.73
475.48	10970.09
475.66	11082.44
475.84	10956.05
476.02	11040.31
476.20	11145.63
476.38	11323.51
476.56	11674.59
476.74	11761.19
476.92	11651.19
477.10	11672.25
477.28	11779.92
477.46	11793.96
477.64	12032.69
477.82	11948.43
478.00	12271.43
478.18	12439.95
478.36	12231.64
478.54	12276.11
478.72	12180.15
478.90	12615.49
479.08	12784.01
479.26	12711.45
479.44	12800.39
479.62	12875.29
479.80	13125.72
479.98	13149.13
480.16	13245.09
480.34	13209.98
480.52	13540.00
480.70	13465.10
480.88	13315.31
481.06	13631.28
481.24	13914.48
481.41	13830.23
481.59	13867.67
481.77	14183.65
481.95	14148.54
482.13	14298.33
482.31	14284.29
482.49	14523.02
482.67	14462.17
482.85	14548.77
483.03	14906.87
483.21	15143.27
483.39	15426.47
483.57	14869.42
483.74	15150.29
483.92	15269.66
484.10	14967.73
484.28	15374.98
484.46	15697.97
484.64	16042.03
484.82	15676.91
485.00	15756.49
485.18	16191.83
485.35	15964.79
485.53	16037.35
485.71	15899.26
485.89	15990.54
486.07	16189.49
486.25	16156.72
486.43	16418.86
486.61	16812.07
486.78	16912.71
486.96	16968.88
487.14	17226.34
487.32	17486.14
487.50	17556.36
487.68	17619.55
487.85	17886.37
488.03	17933.18
488.21	18328.74
488.39	18324.05
488.57	18012.76
488.75	18640.03
488.92	18441.08
489.10	19075.37
489.28	18780.46
489.46	19140.90
489.64	19297.72
489.81	19552.84
489.99	19662.84
490.17	19861.79
490.35	19906.26
490.53	19941.36
490.70	19775.19
490.88	20006.90
491.06	20500.75
491.24	20194.14
491.41	20245.63
491.59	20603.74
491.77	20290.10
491.95	20671.61
492.13	20924.39
492.30	20936.09
492.48	21427.60
492.66	21451.01
492.84	21172.49
493.01	21434.63
493.19	21474.42
493.37	21668.68
493.54	22057.21
493.72	22015.08
493.90	22054.87
494.08	22553.40
494.25	22682.13
494.43	22773.41
494.61	22892.78
494.79	23026.19
494.96	23068.32
495.14	23358.55
495.32	23122.15
495.49	23143.22
495.67	23309.40
495.85	23543.45
496.02	23836.02
496.20	24133.26
496.38	24133.26
496.55	24109.86
496.73	24662.22
496.91	24135.60
497.09	24526.47
497.26	24694.99
497.44	24355.61
497.62	24877.55
497.79	24961.81
497.97	24711.38
498.14	24826.06
498.32	25135.01
498.50	25151.40
498.67	25458.01
498.85	25282.47
499.03	25696.74
499.20	25975.27
499.38	25415.88
499.56	25862.92
499.73	25727.17
499.91	25926.11
500.08	26052.50
500.26	25710.78
500.44	25872.28
500.61	26242.09
500.79	25628.87
500.97	26127.40
501.14	26546.36
501.32	26677.43
501.49	26742.96
501.67	26658.70
501.84	26918.50
502.02	26647.00
502.20	27335.12
502.37	27087.02
502.55	27002.76
502.72	27651.09
502.90	27494.27
503.07	27501.29
503.25	27716.62
503.43	27613.64
503.60	27576.19
503.78	27704.92
503.95	27632.36
504.13	28013.87
504.30	28081.75
504.48	28112.17
504.65	28432.83
504.83	28212.82
505.01	28341.55
505.18	28264.31
505.36	29120.95
505.53	28793.27
505.71	29266.06
505.88	28971.15
506.06	28662.20
506.23	28985.19
506.41	29116.26
506.58	28989.88
506.76	29355.00
506.93	29720.12
507.11	28856.46
507.28	29542.24
507.46	29450.96
507.63	29549.26
507.81	29804.38
507.98	29366.70
508.16	29666.29
508.33	29944.81
508.50	29890.98
508.68	29991.62
508.85	30731.23
509.03	30455.05
509.20	30438.67
509.38	30813.15
509.55	30677.40
509.73	30852.94
509.90	30515.90
510.08	30955.93
510.25	31105.72
510.42	31021.46
510.60	31103.38
510.77	31103.38
510.95	31185.30
511.12	31307.01
511.30	31529.36
511.47	31735.32
511.64	31880.44
511.82	31632.34
511.99	31714.26
512.17	31704.90
512.34	31426.37
512.51	31985.76
512.69	32189.39
512.86	32030.23
513.04	32629.41
513.21	32278.33
513.38	32577.92
513.56	32004.49
513.73	32247.90
513.90	32800.27
514.08	32512.38
514.25	32697.28
514.43	32730.05
514.60	32535.79
514.77	32496.00
514.95	32755.80
515.12	33233.27
515.29	33209.86
515.47	33085.81
515.64	33340.93
515.81	33455.62
515.99	33048.36
516.16	33305.82
516.33	33144.33
516.51	33254.33
516.68	32517.06
516.85	32196.41
517.03	32807.29
517.20	33380.72
517.37	33858.19
517.54	33933.09
517.72	33357.32
517.89	33205.18
518.06	33497.75
518.24	33546.90
518.41	33811.38
518.58	34000.96
518.75	33893.30
518.93	34401.19
519.10	34267.78
519.27	34012.66
519.45	34714.83
519.62	35005.05
519.79	34876.32
519.96	34927.81
520.14	34848.24
520.31	34604.82
520.48	34941.86
520.65	35119.74
520.83	35138.46
521.00	35005.05
521.17	35424.01
521.34	35494.22
521.52	35714.23
521.69	35426.35
521.86	35393.58
522.03	35655.72
522.20	35828.92
522.38	35812.54
522.55	36044.25
522.72	35679.13
522.89	35887.43
523.07	36238.51
523.24	36247.88
523.41	36325.11
523.58	35990.42
523.75	36641.09
523.92	36584.91
524.10	36629.38
524.27	36673.85
524.44	36645.77
524.61	36596.62
524.78	36622.36
524.96	36765.14
525.13	36666.83
525.30	36978.12
525.47	37254.31
525.64	37151.32
525.81	37247.29
525.98	36856.42
526.16	36858.76
526.33	36528.74
526.50	37062.38
526.67	36652.79
526.84	36868.12
527.01	36854.08
527.18	36811.95
527.36	37212.18
527.53	37572.62
527.70	38134.35
527.87	37593.68
528.04	37792.63
528.21	37804.33
528.38	38101.58
528.55	38014.98
528.72	38012.64
528.89	38288.82
529.07	38323.93
529.24	37830.08
529.41	38007.96
529.58	37947.11
529.75	38099.24
529.92	38160.09
530.09	38696.08
530.26	38408.19
530.43	38349.68
530.60	38424.57
530.77	38827.15
530.94	38747.57
531.11	38698.42
531.28	38892.68
531.46	38916.09
531.63	39459.09
531.80	38457.34
531.97	38656.29
532.14	38998.01
532.31	38305.21
532.48	38845.87
532.65	39023.75
532.82	39070.56
532.99	39082.27
533.16	39175.89
533.33	39604.20
533.50	39241.42
533.67	39124.40
533.84	39440.37
534.01	39426.32
534.18	39328.02
534.35	39552.71
534.52	39505.90
534.69	39997.41
534.86	39871.03
535.03	39702.51
535.20	40137.85
535.37	39952.94
535.54	40271.26
535.71	40109.76
535.88	40381.26
536.05	39910.82
536.22	40343.81
536.38	40378.92
536.55	39856.98
536.72	39861.66
536.89	39997.41
537.06	39929.54
537.23	40570.85
537.40	40917.25
537.57	40020.82
537.74	40488.93
537.91	40479.57
538.08	41233.22
538.25	40297.00
538.42	40680.85
538.59	40744.05
538.75	40100.40
538.92	40650.42
539.09	40247.85
539.26	41392.37
539.43	40957.03
539.60	40287.64
539.77	40858.73
539.94	40800.22
540.11	40748.73
540.28	40886.82
540.44	40875.12
540.61	40631.70
540.78	40376.58
540.95	40889.16
541.12	40734.68
541.29	40816.60
541.46	41361.95
541.62	41181.73
541.79	41420.46
541.96	41233.22
542.13	41057.68
542.30	41352.58
542.47	41509.40
542.63	41497.70
542.80	41298.75
542.97	41397.06
543.14	41872.18
543.31	41947.08
543.48	41923.68
543.64	42115.60
543.81	42103.90
543.98	41858.14
544.15	42218.58
544.32	42223.26
544.48	42284.12
544.65	42457.32
544.82	41963.46
544.99	41949.42
545.16	42059.43
545.32	41961.12
545.49	42452.64
545.66	42714.78
545.83	42312.20
546.00	42738.18
546.16	42827.12
546.33	42234.97
546.50	42010.28
546.67	42508.81
546.83	42082.83
547.00	42527.53
547.17	42354.33
547.34	42611.79
547.50	42625.84
547.67	42997.98
547.84	42363.70
548.00	42902.02
548.17	43070.54
548.34	42993.30
548.51	43793.76
548.67	43189.91
548.84	43454.39
549.01	42696.05
549.18	42775.63
549.34	43168.84
549.51	43323.32
549.68	43807.81
549.84	43426.30
550.01	43201.61
550.18	43129.05
550.34	43281.19
550.51	42962.87
550.68	43449.70
550.84	43040.11
551.01	43496.52
551.18	43309.27
551.34	43419.28
551.51	43550.35
551.68	43714.19
551.84	43452.05
552.01	42974.58
552.18	43440.34
552.34	42852.87
552.51	43526.94
552.68	43622.90
552.84	43793.76
553.01	44083.99
553.18	43756.32
553.34	43770.36
553.51	44168.25
553.67	43798.44
553.84	44491.24
554.01	44446.77
554.17	44332.09
554.34	44133.14
554.51	44158.89
554.67	43978.67
554.84	44086.33
555.00	44006.75
555.17	43667.37
555.33	44376.56
555.50	44100.37
555.67	43700.14
555.83	44334.43
556.00	44224.42
556.16	44509.97
556.33	44158.89
556.50	44912.54
556.66	44081.65
556.83	44065.27
556.99	44397.62
557.16	44575.50
557.32	44299.32
557.49	44470.18
557.65	44299.32
557.82	44521.67
557.98	44421.03
558.15	44596.57
558.32	45052.97
558.48	44371.88
558.65	44671.46
558.81	44161.23
558.98	44226.76
559.14	44591.89
559.31	44472.52
559.47	44519.33
559.64	44477.20
559.80	44549.76
559.97	44711.25
560.13	44287.62
560.30	44802.53
560.46	45099.78
560.63	44673.81
560.79	45265.96
560.96	44877.43
561.12	44596.57
561.29	44790.83
561.45	44809.56
561.61	44629.34
561.78	44446.77
561.94	44488.90
562.11	44451.45
562.27	44774.45
562.44	45165.32
562.60	45165.32
562.77	44872.75
562.93	45186.38
563.10	45509.38
563.26	44856.37
563.42	44884.45
563.59	44893.82
563.75	44968.71
563.92	45392.35
564.08	45160.64
564.24	45280.00
564.41	45116.17
564.57	44844.66
564.74	44912.54
564.90	44893.82
565.07	45549.17
565.23	45258.94
565.39	44694.87
565.56	44999.14
565.72	45162.98
565.88	45249.58
566.05	44638.70
566.21	44732.32
566.38	44664.44
566.54	44790.83
566.70	45542.14
566.87	45240.21
567.03	45411.07
567.19	45659.17
567.36	44919.56
567.52	45839.39
567.68	45193.40
567.85	44868.07
568.01	44856.37
568.17	44575.50
568.34	45792.58
568.50	44858.71
568.66	45184.04
568.83	45645.13
568.99	44961.69
569.15	45270.64
569.32	45062.33
569.48	45113.83
569.64	45385.33
569.81	45432.14
569.97	45361.92
570.13	45408.73
570.30	44992.12
570.46	45071.70
570.62	45020.20
570.78	44938.29
570.95	45228.51
571.11	45170.00
571.27	45516.40
571.43	44928.92
571.60	45207.45
571.76	45233.19
571.92	45186.38
572.09	45525.76
572.25	45378.31
572.41	45539.80
572.57	45701.30
572.74	45839.39
572.90	45296.39
573.06	45380.65
573.22	45359.58
573.38	45113.83
573.55	45167.66
573.71	45502.35
573.87	45380.65
574.03	45453.20
574.20	45378.31
574.36	45064.67
574.52	45701.30
574.68	45006.16
574.84	45549.17
575.01	45574.91
575.17	45202.77
575.33	45254.26
575.49	45081.06
575.65	45471.93
575.82	45701.30
575.98	45649.81
576.14	45642.79
576.30	45553.85
576.46	45390.01
576.62	45715.34
576.79	44996.80
576.95	45207.45
577.11	45556.19
577.27	45640.45
577.43	45282.34
577.59	44952.33
577.75	45022.54
577.92	45256.60
578.08	44938.29
578.24	44945.31
578.40	45542.14
578.56	45471.93
578.72	45839.39
578.88	45350.22
579.04	45703.64
579.21	45668.53
579.37	45462.57
579.53	45698.96
579.69	45322.13
579.85	45336.18
580.01	45818.33
580.17	45698.96
580.33	45333.84
580.49	45277.66
580.65	45663.85
580.82	45815.99
580.98	45200.43
581.14	45315.11
581.30	45687.26
581.46	45329.16
581.62	45780.88
581.78	45155.96
581.94	45696.62
582.10	45925.99
582.26	45291.71
582.42	45462.57
582.58	45544.48
582.74	45881.52
582.90	45546.82
583.06	45862.80
583.22	45675.55
583.38	45757.47
583.54	45581.93
583.70	45483.63
583.86	45701.30
584.02	45443.84
584.18	45720.02
584.34	45942.38
584.50	45504.70
584.66	45727.05
584.82	45361.92
584.98	45530.44
585.14	45687.26
585.30	45364.26
585.46	45689.60
585.62	45291.71
585.78	45420.44
585.94	45495.33
586.10	45331.50
586.26	45406.39
586.42	45404.05
586.58	45448.52
586.74	45872.16
586.90	45645.13
587.06	45345.54
587.22	45757.47
587.38	45427.46
587.54	45645.13
587.70	45825.35
587.86	45460.23
588.02	45958.76
588.18	45876.84
588.34	45130.21
588.49	45378.31
588.65	45226.17
588.81	44926.58
588.97	45289.37
589.13	45277.66
589.29	45652.15
589.45	45254.26
589.61	45668.53
589.77	45675.55
589.93	45808.96
590.08	45516.40
