SpectraSuite Data File
++++++++++++++++++++++++++++++++++++
Date: Fri Oct 25 10:44:30 EDT 2013
User: price-jones
Dark Spectrum Present: No
Reference Spectrum Present: No
Number of Sampled Component Spectra: 1
Spectrometers: USB2+H05261
Integration Time (usec): 100000 (USB2+H05261)
Spectra Averaged: 1 (USB2+H05261)
Boxcar Smoothing: 0 (USB2+H05261)
Correct for Electrical Dark: No (USB2+H05261)
Strobe/Lamp Enabled: No (USB2+H05261)
Correct for Detector Non-linearity: No (USB2+H05261)
Correct for Stray Light: No (USB2+H05261)
Number of Pixels in Processed Spectrum: 2048
>>>>>Begin Processed Spectral Data<<<<<
365.73	114.69
365.92	114.69
366.12	114.69
366.32	28.09
366.52	56.17
366.72	60.85
366.91	0.00
367.11	42.13
367.31	42.13
367.51	0.00
367.70	53.83
367.90	0.00
368.10	79.58
368.30	72.56
368.49	56.17
368.69	84.26
368.89	35.11
369.09	49.15
369.28	35.11
369.48	39.79
369.68	53.83
369.87	51.49
370.07	37.45
370.27	145.11
370.47	198.95
370.66	346.40
370.86	362.78
371.06	444.70
371.25	491.51
371.45	404.91
371.65	428.32
371.84	531.30
372.04	472.79
372.24	463.43
372.44	470.45
372.63	468.11
372.83	568.75
373.03	528.96
373.22	493.85
373.42	486.83
373.62	470.45
373.81	547.69
374.01	493.85
374.21	535.98
374.40	493.85
374.60	594.50
374.79	535.98
374.99	582.79
375.19	573.43
375.38	580.45
375.58	592.16
375.78	645.99
375.97	629.60
376.17	638.97
376.37	582.79
376.56	592.16
376.76	634.29
376.95	554.71
377.15	568.75
377.35	550.03
377.54	617.90
377.74	587.47
377.93	547.69
378.13	636.63
378.33	688.12
378.52	664.71
378.72	580.45
378.91	615.56
379.11	575.77
379.31	650.67
379.50	638.97
379.70	634.29
379.89	627.26
380.09	615.56
380.28	601.52
380.48	671.73
380.68	697.48
380.87	559.39
381.07	575.77
381.26	706.84
381.46	739.61
381.65	657.69
381.85	643.65
382.04	650.67
382.24	741.95
382.43	650.67
382.63	678.76
382.83	725.57
383.02	657.69
383.22	798.12
383.41	681.10
383.61	732.59
383.80	671.73
384.00	702.16
384.19	758.33
384.39	741.95
384.58	737.27
384.78	812.17
384.97	765.36
385.17	690.46
385.36	760.67
385.56	793.44
385.75	753.65
385.95	873.02
386.14	793.44
386.34	755.99
386.53	795.78
386.72	713.86
386.92	844.93
387.11	849.61
387.31	842.59
387.50	866.00
387.70	779.40
387.89	802.80
388.09	823.87
388.28	837.91
388.48	910.47
388.67	889.40
388.86	849.61
389.06	840.25
389.25	819.19
389.45	966.64
389.64	849.61
389.84	957.28
390.03	891.74
390.22	924.51
390.42	926.85
390.61	919.83
390.81	973.66
391.00	983.02
391.19	983.02
391.39	1071.97
391.58	964.30
391.78	1034.52
391.97	1034.52
392.16	961.96
392.36	978.34
392.55	1001.75
392.75	985.37
392.94	961.96
393.13	1032.18
393.33	931.53
393.52	1029.84
393.71	1008.77
393.91	992.39
394.10	1025.15
394.29	1074.31
394.49	1139.84
394.68	1088.35
394.88	1153.88
395.07	1109.41
395.26	1104.73
395.46	1270.91
395.65	1210.06
395.84	1184.31
396.04	1270.91
396.23	1109.41
396.42	1123.46
396.62	1128.14
396.81	1191.33
397.00	1104.73
397.19	1139.84
397.39	1247.51
397.58	1238.14
397.77	1350.49
397.97	1387.94
398.16	1432.41
398.35	1378.58
398.55	1320.06
398.74	1343.47
398.93	1369.21
399.12	1448.79
399.32	1404.32
399.51	1327.08
399.70	1530.71
399.90	1406.66
400.09	1446.45
400.28	1432.41
400.47	1509.65
400.67	1570.50
400.86	1500.28
401.05	1565.82
401.24	1556.46
401.44	1547.09
401.63	1586.88
401.82	1598.59
402.01	1579.86
402.21	1629.01
402.40	1610.29
402.59	1666.46
402.78	1551.78
402.97	1600.93
403.17	1619.65
403.36	1612.63
403.55	1687.53
403.74	1722.63
403.93	1788.17
404.13	1811.57
404.32	1650.08
404.51	1652.42
404.70	1710.93
404.89	1689.87
405.09	1844.34
405.28	1912.22
405.47	1806.89
405.66	1764.76
405.85	1900.52
406.05	1884.13
406.24	1935.62
406.43	1907.54
406.62	1877.11
406.81	2010.52
407.00	1916.90
407.20	1930.94
407.39	1884.13
407.58	1921.58
407.77	1968.39
407.96	1949.67
408.15	2022.22
408.34	2059.67
408.54	2062.01
408.73	2113.50
408.92	2207.13
409.11	2181.38
409.30	2169.68
409.49	2141.59
409.68	2139.25
409.87	2167.34
410.07	2204.78
410.26	2195.42
410.45	2209.47
410.64	2265.64
410.83	2335.85
411.02	2321.81
411.21	2422.45
411.40	2349.90
411.59	2373.30
411.78	2532.46
411.98	2434.16
412.17	2394.37
412.36	2544.16
412.55	2466.92
412.74	2495.01
412.93	2499.69
413.12	2523.10
413.31	2722.04
413.50	2696.30
413.69	2693.96
413.88	2768.85
414.07	2810.98
414.26	2736.09
414.45	2715.02
414.64	2785.24
414.83	2935.03
415.02	2855.45
415.22	2822.69
415.41	2864.82
415.60	2981.84
415.79	2932.69
415.98	3061.42
416.17	3028.65
416.36	3047.38
416.55	2974.82
416.74	3005.25
416.93	2984.18
417.12	3105.89
417.31	3035.67
417.50	3248.66
417.69	3222.92
417.88	3239.30
418.07	3243.98
418.26	3178.45
418.45	3265.05
418.64	3482.72
418.83	3419.52
419.02	3314.20
419.21	3428.88
419.39	3618.47
419.58	3281.43
419.77	3290.79
419.96	3625.49
420.15	3447.61
420.34	3339.94
420.53	3442.93
420.72	3527.19
420.91	3520.17
421.10	3454.63
421.29	3686.34
421.48	3632.51
421.67	3726.13
421.86	3616.13
422.05	3662.94
422.24	3620.81
422.43	3569.32
422.61	3571.66
422.80	3756.56
422.99	3765.92
423.18	3695.71
423.37	3871.25
423.56	3693.37
423.75	3686.34
423.94	3620.81
424.13	3515.48
424.32	3602.08
424.50	3674.64
424.69	3672.30
424.88	3857.20
425.07	3684.00
425.26	3676.98
425.45	3627.83
425.64	3756.56
425.83	3761.24
426.01	3840.82
426.20	3749.54
426.39	3716.77
426.58	3705.07
426.77	3824.44
426.96	3772.94
427.15	3768.26
427.33	3824.44
427.52	3782.31
427.71	3896.99
427.90	3878.27
428.09	3997.64
428.28	3948.48
428.46	4119.34
428.65	3927.42
428.84	4070.19
429.03	4042.11
429.22	3859.54
429.40	3997.64
429.59	3824.44
429.78	3789.33
429.97	3691.02
430.16	3794.01
430.34	3904.01
430.53	3875.93
430.72	4037.42
430.91	4166.15
431.10	4072.53
431.28	4191.90
431.47	4360.42
431.66	4435.32
431.85	4269.14
432.03	4416.59
432.22	4451.70
432.41	4344.03
432.60	4400.21
432.79	4390.84
432.97	4344.03
433.16	4390.84
433.35	4313.61
433.54	4468.08
433.72	4418.93
433.91	4507.87
434.10	4526.60
434.28	4540.64
434.47	4620.22
434.66	4706.82
434.85	4650.64
435.03	4720.86
435.22	4655.33
435.41	4781.71
435.59	4880.02
435.78	4854.27
435.97	4919.81
436.16	4915.12
436.34	4725.54
436.53	4741.93
436.72	4990.02
436.90	4788.74
437.09	4884.70
437.28	4835.55
437.46	4910.44
437.65	4966.62
437.84	4828.53
438.02	4856.61
438.21	4952.57
438.40	4903.42
438.58	5043.85
438.77	5095.35
438.96	5158.54
439.14	5338.76
439.33	5284.93
439.52	5308.34
439.70	5205.35
439.89	5387.91
440.08	5460.47
440.26	5467.49
440.45	5462.81
440.63	5467.49
440.82	5657.07
441.01	5586.86
441.19	5607.92
441.38	5734.31
441.57	5771.76
441.75	5788.14
441.94	5785.80
442.12	5806.87
442.31	5937.94
442.50	6087.73
442.68	5905.17
442.87	6038.58
443.05	6176.67
443.24	6150.93
443.43	6099.44
443.61	6111.14
443.80	6164.97
443.98	5996.45
444.17	6012.84
444.35	6157.95
444.54	6195.40
444.73	6136.88
444.91	6136.88
445.10	6148.59
445.28	6223.48
445.47	6061.99
445.65	6073.69
445.84	6057.31
446.02	6300.72
446.21	6176.67
446.39	6417.75
446.58	6361.58
446.77	6202.42
446.95	6026.88
447.14	6282.00
447.32	6349.87
447.51	6303.06
447.69	6242.21
447.88	6289.02
448.06	6258.59
448.25	6401.37
448.43	6235.19
448.62	6303.06
448.80	6232.85
448.99	6326.47
449.17	6513.71
449.36	6504.35
449.54	6593.29
449.73	6696.27
449.91	6649.46
450.10	6820.32
450.28	6869.47
450.46	6642.44
450.65	6686.91
450.83	6839.05
451.02	6775.85
451.20	6689.25
451.39	6839.05
451.57	6890.54
451.76	6782.87
451.94	6581.59
452.13	6874.15
452.31	7002.88
452.49	6693.93
452.68	6942.03
452.86	6761.81
453.05	6759.47
453.23	6972.46
453.42	6984.16
453.60	6820.32
453.78	6878.83
453.97	6939.69
454.15	7023.95
454.34	6939.69
454.52	7250.98
454.70	6925.65
454.89	7124.59
455.07	7293.11
455.26	7213.53
455.44	7218.21
455.62	7309.49
455.81	7360.98
455.99	7290.77
456.17	7342.26
456.36	7482.69
456.54	7522.48
456.73	7644.19
456.91	7651.21
457.09	7700.36
457.28	7791.64
457.46	7585.68
457.64	7761.22
457.83	7843.14
458.01	7501.42
458.19	7536.52
458.38	7721.43
458.56	7941.44
458.74	7751.85
458.93	7676.96
459.11	7908.67
459.29	7922.71
459.48	7974.21
459.66	7824.41
459.84	7911.01
460.03	8100.59
460.21	8100.59
460.39	8067.83
460.57	7859.52
460.76	8320.60
460.94	8166.13
461.12	8135.70
461.31	8219.96
461.49	8269.11
461.67	7950.80
461.85	8367.42
462.04	8315.92
462.22	8421.25
462.40	8362.73
462.59	8271.45
462.77	8339.33
462.95	8500.83
463.13	8379.12
463.32	8454.02
463.50	8313.58
463.68	8568.70
463.86	8313.58
464.05	8294.86
464.23	8334.65
464.41	8528.91
464.59	8507.85
464.78	8755.94
464.96	8713.81
465.14	8638.92
465.32	8580.40
465.50	8699.77
465.69	8610.83
465.87	8617.85
466.05	8699.77
466.23	8629.56
466.41	8629.56
466.60	9041.49
466.78	8688.07
466.96	8674.03
467.14	8823.82
467.32	8940.85
467.51	9186.60
467.69	8943.19
467.87	8889.35
468.05	8940.85
468.23	9004.04
468.41	9123.41
468.60	9022.77
468.78	9174.90
468.96	9064.89
469.14	9263.84
469.32	9078.94
469.50	9085.96
469.69	9202.99
469.87	9270.86
470.05	9247.46
470.23	9294.27
470.41	9334.06
470.59	9376.19
470.77	9640.67
470.95	9348.10
471.14	9762.37
471.32	9387.89
471.50	9713.22
471.68	9785.78
471.86	9727.27
472.04	9776.42
472.22	10061.96
472.40	9643.01
472.58	9785.78
472.77	9860.68
472.95	9928.55
473.13	10354.53
473.31	9998.77
473.49	10012.81
473.67	10076.01
473.85	10235.16
474.03	10324.10
474.21	10436.45
474.39	10340.49
474.57	10342.83
474.75	10567.52
474.93	10593.26
475.12	10544.11
475.30	10932.64
475.48	10721.99
475.66	10810.93
475.84	10710.29
476.02	11052.01
476.20	10824.98
476.38	11105.84
476.56	11211.17
476.74	11311.81
476.92	11185.42
477.10	11162.01
477.28	11323.51
477.46	11391.39
477.64	11714.38
477.82	11784.60
478.00	11971.84
478.18	11854.81
478.36	11655.87
478.54	12086.53
478.72	12269.09
478.90	12149.72
479.08	12257.39
479.26	12400.16
479.44	12585.06
479.62	12468.03
479.80	12580.38
479.98	12617.83
480.16	13039.12
480.34	12554.63
480.52	13006.36
480.70	13111.68
480.88	12795.71
481.06	13123.38
481.24	13383.18
481.41	13394.89
481.59	13350.42
481.77	13582.13
481.95	13607.87
482.13	13614.90
482.31	13961.30
482.49	14270.25
482.67	14132.15
482.85	14281.95
483.03	14527.71
483.21	14527.71
483.39	14675.16
483.57	14431.74
483.74	14532.39
483.92	14998.15
484.10	14401.32
484.28	15129.22
484.46	15428.81
484.64	15396.04
484.82	15335.19
485.00	15459.24
485.18	15810.32
485.35	15880.53
485.53	15534.14
485.71	15602.01
485.89	15868.83
486.07	15735.42
486.25	15894.58
486.43	16161.40
486.61	16315.87
486.78	16641.21
486.96	16549.93
487.14	17252.09
487.32	16807.39
487.50	17263.79
487.68	17142.08
487.85	17341.03
488.03	17790.41
488.21	17841.90
488.39	17666.36
488.57	17785.73
488.75	18148.51
488.92	18581.51
489.10	18417.68
489.28	18607.26
489.46	19077.71
489.64	18611.94
489.81	19183.03
489.99	19295.38
490.17	19084.73
490.35	19311.76
490.53	19454.53
490.70	19709.65
490.88	19393.68
491.06	19784.55
491.24	19782.21
491.41	20130.95
491.59	20088.82
491.77	20051.37
491.95	20390.75
492.13	20168.40
492.30	20559.27
492.48	20748.85
492.66	21025.03
492.84	20849.49
493.01	21043.76
493.19	20751.19
493.37	21666.34
493.54	20959.50
493.72	21495.48
493.90	21465.05
494.08	21659.32
494.25	22164.87
494.43	22085.30
494.61	22534.68
494.79	22480.85
494.96	22356.80
495.14	22333.39
495.32	22747.67
495.49	22504.25
495.67	22621.28
495.85	23110.45
496.02	23314.08
496.20	23524.72
496.38	23414.72
496.55	23293.01
496.73	24159.01
496.91	23688.56
497.09	23833.68
497.26	24140.29
497.44	24100.50
497.62	24102.84
497.79	24402.43
497.97	24051.34
498.14	24528.81
498.32	24304.12
498.50	24409.45
498.67	24809.68
498.85	24872.87
499.03	24734.78
499.20	25036.71
499.38	25340.98
499.56	25137.35
499.73	25305.87
499.91	25252.04
500.08	25706.10
500.26	25135.01
500.44	25387.79
500.61	25645.25
500.79	25813.77
500.97	26094.63
501.14	26345.07
501.32	25820.79
501.49	25998.67
501.67	26033.78
501.84	26693.81
502.02	26192.94
502.20	26576.78
502.37	26614.23
502.55	26897.44
502.72	26904.46
502.90	27089.36
503.07	26515.93
503.25	26883.39
503.43	26937.23
503.60	26911.48
503.78	27374.91
503.95	27175.96
504.13	27370.22
504.30	27608.96
504.48	27292.99
504.65	27414.69
504.83	27775.14
505.01	28142.60
505.18	27763.43
505.36	28243.24
505.53	28360.27
505.71	28643.48
505.88	28353.25
506.06	28109.83
506.23	28580.28
506.41	28180.05
506.58	28383.68
506.76	28718.37
506.93	28751.14
507.11	28886.89
507.28	28802.63
507.46	28898.59
507.63	29277.76
507.81	28947.75
507.98	28762.84
508.16	29523.52
508.33	29614.80
508.50	29362.02
508.68	29818.42
508.85	29914.39
509.03	29930.77
509.20	29902.68
509.38	29769.27
509.55	30085.25
509.73	30438.67
509.90	30192.91
510.08	29895.66
510.25	29968.22
510.42	30265.47
510.60	30375.47
510.77	30459.73
510.95	31082.31
511.12	30836.56
511.30	30735.92
511.47	31161.89
511.64	30979.33
511.82	31276.58
511.99	30920.82
512.17	31077.63
512.34	31051.89
512.51	31510.63
512.69	31555.10
512.86	31583.19
513.04	31503.61
513.21	31365.52
513.38	31653.40
513.56	31639.36
513.73	31569.15
513.90	31864.05
514.08	31651.06
514.25	31735.32
514.43	31868.73
514.60	32273.65
514.77	31894.48
514.95	32547.49
515.12	32587.28
515.29	32479.61
515.47	32634.09
515.64	32968.79
515.81	32620.05
515.99	32493.66
516.16	32531.11
516.33	32507.70
516.51	32699.62
516.68	32023.21
516.85	32254.92
517.03	32680.90
517.20	32818.99
517.37	33411.15
517.54	33404.13
517.72	33317.53
517.89	33188.80
518.06	32732.39
518.24	33017.94
518.41	33237.95
518.58	33319.87
518.75	33818.40
518.93	33748.18
519.10	33591.37
519.27	33425.19
519.45	33895.64
519.62	34249.06
519.79	33654.56
519.96	33982.24
520.14	34480.77
520.31	34504.18
520.48	34183.52
520.65	34160.12
520.83	34562.69
521.00	34682.06
521.17	34866.96
521.34	34548.65
521.52	34518.22
521.69	34527.58
521.86	35089.31
522.03	35473.16
522.20	35276.55
522.38	35491.88
522.55	35304.64
522.72	34998.03
522.89	35342.09
523.07	35332.73
523.24	35370.18
523.41	35611.25
523.58	35906.16
523.75	35995.10
523.92	35885.09
524.10	35878.07
524.27	36147.23
524.44	36030.21
524.61	36327.45
524.78	36140.21
524.96	36278.30
525.13	36233.83
525.30	36521.72
525.47	36591.94
525.64	36861.10
525.81	36123.83
525.98	36451.50
526.16	36268.94
526.33	36531.08
526.50	36528.74
526.67	36339.16
526.84	36423.42
527.01	36369.58
527.18	35997.44
527.36	36935.99
527.53	37053.02
527.70	37125.58
527.87	37109.19
528.04	37085.79
528.21	37249.63
528.38	37345.59
528.55	37565.60
528.72	37738.80
528.89	37535.17
529.07	37715.39
529.24	37294.10
529.41	37560.92
529.58	37670.92
529.75	37631.13
529.92	38010.30
530.09	37897.95
530.26	38043.07
530.43	38099.24
530.60	37834.76
530.77	37792.63
530.94	38188.18
531.11	38340.32
531.28	38164.78
531.46	37975.19
531.63	38546.28
531.80	38167.12
531.97	38440.96
532.14	38202.22
532.31	38129.67
532.48	38162.43
532.65	38663.31
532.82	38560.33
532.99	38817.78
533.16	38560.33
533.33	38749.91
533.50	38799.06
533.67	38770.97
533.84	38326.27
534.01	38686.71
534.18	38866.94
534.35	38951.20
534.52	38719.48
534.69	38946.51
534.86	39370.15
535.03	39030.77
535.20	39639.31
535.37	39814.85
535.54	39505.90
535.71	39533.99
535.88	39569.10
536.05	39335.04
536.22	39571.44
536.38	39351.43
536.55	39793.79
536.72	39812.51
536.89	39323.34
537.06	39952.94
537.23	39908.47
537.40	39828.90
537.57	39800.81
537.74	39943.58
537.91	39887.41
538.08	39665.06
538.25	39957.63
538.42	39789.11
538.59	40149.55
538.75	40069.97
538.92	40123.80
539.09	40367.22
539.26	40664.47
539.43	40130.83
539.60	40346.15
539.77	40119.12
539.94	40243.17
540.11	39981.03
540.28	40402.33
540.44	40807.24
540.61	40605.95
540.78	39957.63
540.95	40332.11
541.12	40109.76
541.29	40404.67
541.46	40725.32
541.62	40306.37
541.79	40664.47
541.96	40208.06
542.13	40746.39
542.30	40603.61
542.47	40751.07
542.63	41120.87
542.80	41113.85
542.97	41303.43
543.14	41895.59
543.31	41060.02
543.48	41462.59
543.64	41942.40
543.81	42094.53
543.98	41275.35
544.15	41696.64
544.32	41326.84
544.48	42162.41
544.65	41155.98
544.82	41844.10
544.99	41308.11
545.16	42040.70
545.32	41682.60
545.49	42106.24
545.66	41839.42
545.83	41949.42
546.00	42045.38
546.16	42305.18
546.33	42033.68
546.50	41942.40
546.67	42480.72
546.83	41544.51
547.00	42054.75
547.17	42277.10
547.34	42029.00
547.50	42366.04
547.67	42440.93
547.84	42337.95
548.00	42649.24
548.17	42707.76
548.34	42609.45
548.51	42902.02
548.67	42490.09
548.84	43000.32
549.01	42717.12
549.18	42440.93
549.34	42541.58
549.51	42747.54
549.68	43143.09
549.84	42735.84
550.01	42925.42
550.18	42593.07
550.34	43016.71
550.51	42733.50
550.68	42887.98
550.84	42684.35
551.01	42850.53
551.18	42831.80
551.34	43021.39
551.51	43447.36
551.68	42953.51
551.84	43016.71
552.01	43012.02
552.18	43037.77
552.34	42848.19
552.51	43363.11
552.68	43208.63
552.84	43648.65
553.01	43772.70
553.18	43391.19
553.34	43363.11
553.51	43466.09
553.67	43292.89
553.84	43608.86
554.01	43555.03
554.17	43515.24
554.34	43643.97
554.51	43428.64
554.67	43681.42
554.84	43683.76
555.00	43667.37
555.17	43571.41
555.33	43583.12
555.50	43423.96
555.67	43430.98
555.83	43512.90
556.00	43435.66
556.16	44339.11
556.33	43924.83
556.50	43599.50
556.66	44142.50
556.83	43562.05
556.99	44172.93
557.16	44123.78
557.32	44425.71
557.49	44137.82
557.65	44102.71
557.82	44289.96
557.98	44002.07
558.15	44339.11
558.32	43882.70
558.48	44196.34
558.65	43709.50
558.81	43735.25
558.98	43878.02
559.14	44030.16
559.31	43917.81
559.47	44240.81
559.64	44484.22
559.80	44318.04
559.97	44081.65
560.13	44411.67
560.30	44460.82
560.46	44315.70
560.63	44481.88
560.79	44428.05
560.96	44715.93
561.12	44311.02
561.29	44009.09
561.45	44327.41
561.61	44247.83
561.78	44463.16
561.94	44671.46
562.11	44311.02
562.27	44334.43
562.44	44250.17
562.60	44816.58
562.77	44631.68
562.93	44725.30
563.10	44687.85
563.26	44306.34
563.42	44935.95
563.59	44746.36
563.75	44776.79
563.92	44765.09
564.08	44847.00
564.24	44507.63
564.41	45041.27
564.57	44690.19
564.74	44713.59
564.90	44650.40
565.07	44774.45
565.23	44711.25
565.39	44708.91
565.56	44748.70
565.72	44268.89
565.88	44765.09
566.05	44605.93
566.21	44701.89
566.38	44648.06
566.54	44978.07
566.70	45076.38
566.87	45228.51
567.03	44500.61
567.19	45715.34
567.36	44809.56
567.52	44130.80
567.68	45268.30
567.85	44273.57
568.01	45003.82
568.17	44940.63
568.34	44753.38
568.50	44725.30
568.66	44807.22
568.83	45312.77
568.99	44655.08
569.15	44559.12
569.32	44835.30
569.48	44854.03
569.64	45155.96
569.81	45024.89
569.97	44971.05
570.13	44985.10
570.30	45088.08
570.46	44839.98
570.62	44364.85
570.78	44561.46
570.95	44957.01
571.11	44921.90
571.27	45139.57
571.43	44903.18
571.60	44793.17
571.76	44980.42
571.92	44949.99
572.09	44758.06
572.25	44912.54
572.41	45179.36
572.57	45125.53
572.74	45652.15
572.90	44612.95
573.06	45214.47
573.22	45324.47
573.38	45162.98
573.55	45027.23
573.71	44884.45
573.87	45006.16
574.03	44935.95
574.20	45050.63
574.36	44999.14
574.52	45034.25
574.68	45155.96
574.84	45359.58
575.01	44985.10
575.17	45017.86
575.33	45069.36
575.49	45024.89
575.65	45574.91
575.82	45167.66
575.98	45514.06
576.14	45301.07
576.30	45036.59
576.46	45270.64
576.62	45099.78
576.79	45361.92
576.95	44741.68
577.11	44877.43
577.27	44842.32
577.43	45277.66
577.59	45317.45
577.75	44720.62
577.92	44711.25
578.08	45031.91
578.24	45001.48
578.40	45165.32
578.56	45095.10
578.72	45450.86
578.88	45558.53
579.04	45659.17
579.21	45212.13
579.37	45329.16
579.53	45514.06
579.69	45202.77
579.85	45153.62
580.01	45303.41
580.17	45319.79
580.33	44971.05
580.49	45282.34
580.65	45668.53
580.82	45214.47
580.98	45008.50
581.14	45357.24
581.30	45530.44
581.46	45434.48
581.62	45366.60
581.78	45333.84
581.94	45638.11
582.10	45251.92
582.26	45251.92
582.42	45052.97
582.58	45366.60
582.74	45308.09
582.90	45404.05
583.06	45525.76
583.22	45284.68
583.38	45471.93
583.54	45551.51
583.70	45490.65
583.86	45289.37
584.02	45172.34
584.18	45301.07
584.34	45212.13
584.50	45294.05
584.66	45221.49
584.82	45401.71
584.98	45298.73
585.14	45640.45
585.30	45331.50
585.46	45249.58
585.62	45074.04
585.78	45490.65
585.94	45193.40
586.10	45469.59
586.26	44928.92
586.42	45586.61
586.58	45408.73
586.74	45113.83
586.90	45394.69
587.06	45067.02
587.22	44832.96
587.38	44811.90
587.54	45467.25
587.70	45621.72
587.86	45448.52
588.02	45530.44
588.18	45427.46
588.34	45736.41
588.49	45102.12
588.65	44816.58
588.81	45116.17
588.97	45153.62
589.13	45006.16
589.29	45530.44
589.45	45331.50
589.61	45153.62
589.77	45925.99
589.93	45429.80
590.08	46043.02
590.24	45652.15
