SpectraSuite Data File
++++++++++++++++++++++++++++++++++++
Date: Fri Oct 25 11:25:30 EDT 2013
User: price-jones
Dark Spectrum Present: No
Reference Spectrum Present: No
Number of Sampled Component Spectra: 1
Spectrometers: USB2+H05261
Integration Time (usec): 100000 (USB2+H05261)
Spectra Averaged: 1 (USB2+H05261)
Boxcar Smoothing: 0 (USB2+H05261)
Correct for Electrical Dark: No (USB2+H05261)
Strobe/Lamp Enabled: No (USB2+H05261)
Correct for Detector Non-linearity: No (USB2+H05261)
Correct for Stray Light: No (USB2+H05261)
Number of Pixels in Processed Spectrum: 2048
>>>>>Begin Processed Spectral Data<<<<<
365.73	231.71
365.92	231.71
366.12	231.71
366.32	140.43
366.52	72.56
366.72	126.39
366.91	149.79
367.11	74.90
367.31	117.03
367.51	180.22
367.70	124.05
367.90	187.24
368.10	110.01
368.30	110.01
368.49	126.39
368.69	161.50
368.89	131.07
369.09	191.92
369.28	159.16
369.48	189.58
369.68	220.01
369.87	182.56
370.07	255.12
370.27	159.16
370.47	264.48
370.66	568.75
370.86	643.65
371.06	683.44
371.25	667.05
371.45	629.60
371.65	678.76
371.84	645.99
372.04	685.78
372.24	653.01
372.44	702.16
372.63	772.38
372.83	800.46
373.03	798.12
373.22	784.08
373.42	786.42
373.62	821.53
373.81	788.76
374.01	711.52
374.21	751.31
374.40	877.70
374.60	784.08
374.79	856.64
374.99	868.34
375.19	837.91
375.38	842.59
375.58	793.44
375.78	844.93
375.97	884.72
376.17	866.00
376.37	840.25
376.56	931.53
376.76	840.25
376.95	929.19
377.15	924.51
377.35	919.83
377.54	875.36
377.74	842.59
377.93	896.43
378.13	966.64
378.33	896.43
378.52	814.51
378.72	903.45
378.91	851.96
379.11	936.21
379.31	933.87
379.50	819.19
379.70	943.24
379.89	1032.18
380.09	1006.43
380.28	999.41
380.48	1043.88
380.68	1025.15
380.87	973.66
381.07	940.90
381.26	1001.75
381.46	1008.77
381.65	978.34
381.85	971.32
382.04	990.05
382.24	1062.60
382.43	1022.81
382.63	1076.65
382.83	1090.69
383.02	1121.12
383.22	1109.41
383.41	1123.46
383.61	1039.20
383.80	1130.48
384.00	1167.93
384.19	1125.80
384.39	1228.78
384.58	1130.48
384.78	1172.61
384.97	1203.04
385.17	1158.57
385.36	1245.16
385.56	1203.04
385.75	1153.88
385.95	1261.55
386.14	1177.29
386.34	1181.97
386.53	1207.72
386.72	1181.97
386.92	1226.44
387.11	1245.16
387.31	1273.25
387.50	1186.65
387.70	1266.23
387.89	1233.46
388.09	1275.59
388.28	1289.64
388.48	1287.29
388.67	1336.45
388.86	1327.08
389.06	1329.42
389.25	1430.07
389.45	1261.55
389.64	1413.68
389.84	1329.42
390.03	1357.51
390.22	1364.53
390.42	1425.39
390.61	1331.76
390.81	1357.51
391.00	1380.92
391.19	1486.24
391.39	1479.22
391.58	1493.26
391.78	1439.43
391.97	1430.07
392.16	1502.62
392.36	1584.54
392.55	1563.48
392.75	1516.67
392.94	1577.52
393.13	1519.01
393.33	1514.33
393.52	1542.41
393.71	1495.60
393.91	1640.72
394.10	1528.37
394.29	1666.46
394.49	1558.80
394.68	1577.52
394.88	1664.12
395.07	1654.76
395.26	1519.01
395.46	1652.42
395.65	1750.72
395.84	1715.61
396.04	1736.68
396.23	1713.27
396.42	1830.30
396.62	1813.92
396.81	1741.36
397.00	1717.95
397.19	1790.51
397.39	1736.68
397.58	1825.62
397.77	1879.45
397.97	1888.81
398.16	1732.00
398.35	1867.75
398.55	1844.34
398.74	1865.41
398.93	1900.52
399.12	1921.58
399.32	1874.77
399.51	1977.75
399.70	1907.54
399.90	1970.73
400.09	2008.18
400.28	1926.26
400.47	2003.50
400.67	2090.10
400.86	2022.22
401.05	2099.46
401.24	2169.68
401.44	2186.06
401.63	2169.68
401.82	2190.74
402.01	2066.69
402.21	2047.97
402.40	2214.15
402.59	2209.47
402.78	2176.70
402.97	2202.44
403.17	2204.78
403.36	2239.89
403.55	2279.68
403.74	2228.19
403.93	2307.77
404.13	2342.88
404.32	2403.73
404.51	2387.35
404.70	2354.58
404.89	2459.90
405.09	2469.27
405.28	2406.07
405.47	2349.90
405.66	2548.84
405.85	2539.48
406.05	2588.63
406.24	2607.36
406.43	2579.27
406.62	2682.25
406.81	2651.83
407.00	2597.99
407.20	2530.12
407.39	2642.46
407.58	2684.59
407.77	2572.25
407.96	2686.94
408.15	2621.40
408.34	2717.36
408.54	2881.20
408.73	2722.04
408.92	2864.82
409.11	2820.35
409.30	2928.01
409.49	2928.01
409.68	2895.24
409.87	2874.18
410.07	2944.39
410.26	3063.76
410.45	2960.78
410.64	3112.91
410.83	3023.97
411.02	3162.06
411.21	3073.12
411.40	3103.55
411.59	3293.13
411.78	3201.85
411.98	3148.02
412.17	3171.43
412.36	3267.39
412.55	3295.47
412.74	3342.28
412.93	3358.67
413.12	3325.90
413.31	3562.30
413.50	3414.84
413.69	3368.03
413.88	3552.93
414.07	3597.40
414.26	3604.42
414.45	3574.00
414.64	3669.96
414.83	3595.06
415.02	3648.90
415.22	3726.13
415.41	3887.63
415.60	3779.97
415.79	3843.16
415.98	3943.80
416.17	4105.30
416.36	3936.78
416.55	3911.04
416.74	4124.02
416.93	4109.98
417.12	4058.49
417.31	4138.07
417.50	4329.99
417.69	4196.58
417.88	4266.80
418.07	4257.43
418.26	4358.08
418.45	4311.27
418.64	4421.27
418.83	4390.84
419.02	4332.33
419.21	4404.89
419.39	4442.34
419.58	4519.57
419.77	4400.21
419.96	4561.70
420.15	4655.33
420.34	4512.55
420.53	4505.53
420.72	4568.73
420.91	4704.48
421.10	4667.03
421.29	4746.61
421.48	4753.63
421.67	4732.56
421.86	4685.75
422.05	4770.01
422.24	4727.88
422.43	4744.27
422.61	5020.45
422.80	5013.43
422.99	4730.22
423.18	4896.40
423.37	5132.79
423.56	4842.57
423.75	4830.87
423.94	4901.08
424.13	4655.33
424.32	4702.14
424.50	4868.31
424.69	4992.36
424.88	4971.30
425.07	4936.19
425.26	4837.89
425.45	4973.64
425.64	5069.60
425.83	4964.28
426.01	5039.17
426.20	5022.79
426.39	5130.45
426.58	4950.23
426.77	4997.04
426.96	5254.50
427.15	5097.69
427.33	5153.86
427.52	5130.45
427.71	5172.58
427.90	5207.69
428.09	5135.14
428.28	5348.12
428.46	5240.46
428.65	5329.40
428.84	5554.09
429.03	5394.93
429.22	5404.30
429.40	5542.39
429.59	5483.88
429.78	5130.45
429.97	5219.39
430.16	5568.13
430.34	5472.17
430.53	5659.42
430.72	5678.14
430.91	5563.45
431.10	5575.16
431.28	5746.02
431.47	5734.31
431.66	5849.00
431.85	5753.04
432.03	5767.08
432.22	5860.70
432.41	5937.94
432.60	5940.28
432.79	5928.58
432.97	6069.01
433.16	5781.12
433.35	5734.31
433.54	5959.00
433.72	6169.65
433.91	6045.60
434.10	6080.71
434.28	6064.33
434.47	6017.52
434.66	6228.17
434.85	6214.12
435.03	6438.81
435.22	6324.13
435.41	6459.88
435.59	6260.93
435.78	6422.43
435.97	6389.66
436.16	6567.54
436.34	6551.16
436.53	6384.98
436.72	6546.48
436.90	6413.07
437.09	6670.53
437.28	6511.37
437.46	6651.80
437.65	6689.25
437.84	6565.20
438.02	6719.68
438.21	6717.34
438.40	6817.98
438.58	7059.06
438.77	7215.87
438.96	6942.03
439.14	7061.40
439.33	7258.00
439.52	7162.04
439.70	7103.53
439.89	7199.49
440.08	7377.37
440.26	7267.36
440.45	7363.33
440.63	7344.60
440.82	7492.05
441.01	7496.74
441.19	7669.94
441.38	7735.47
441.57	7583.34
441.75	7761.22
441.94	7719.09
442.12	7810.37
442.31	7995.27
442.50	7978.89
442.68	7922.71
442.87	7936.76
443.05	8044.42
443.24	8091.23
443.43	7969.52
443.61	8067.83
443.80	8416.57
443.98	7985.91
444.17	7686.32
444.35	8049.10
444.54	8292.52
444.73	8503.17
444.91	8355.71
445.10	8236.35
445.28	8353.37
445.47	8376.78
445.65	8538.27
445.84	8446.99
446.02	8304.22
446.21	8346.35
446.39	8327.63
446.58	8374.44
446.77	8437.63
446.95	8217.62
447.14	8454.02
447.32	8561.68
447.51	8292.52
447.69	8320.60
447.88	8498.49
448.06	8510.19
448.25	8652.96
448.43	8510.19
448.62	8634.24
448.80	8528.91
448.99	8582.74
449.17	8709.13
449.36	8624.87
449.54	8699.77
449.73	8791.05
449.91	8987.66
450.10	8929.14
450.28	9078.94
450.46	9109.36
450.65	9083.62
450.83	8982.98
451.02	8987.66
451.20	9233.41
451.39	8990.00
451.57	9263.84
451.76	8982.98
451.94	9303.63
452.13	9287.25
452.31	9144.47
452.49	9135.11
452.68	9310.65
452.86	9425.34
453.05	9551.73
453.23	9434.70
453.42	9268.52
453.60	9455.76
453.78	9432.36
453.97	9430.02
454.15	9423.00
454.34	9673.43
454.52	9706.20
454.70	9631.30
454.89	9870.04
455.07	9729.61
455.26	9813.87
455.44	9811.53
455.62	9764.72
455.81	9774.08
455.99	9916.85
456.17	10047.92
456.36	10113.45
456.54	10139.20
456.73	10136.86
456.91	10415.38
457.09	10384.96
457.28	10377.94
457.46	10195.37
457.64	10328.78
457.83	10235.16
458.01	10422.41
458.19	10611.99
458.38	10349.85
458.56	10686.89
458.74	10553.48
458.93	10560.50
459.11	10476.24
459.29	10490.28
459.48	10773.49
459.66	10963.07
459.84	10761.78
460.03	11033.29
460.21	10740.72
460.39	10998.18
460.57	10808.59
460.76	10864.77
460.94	11124.57
461.12	11293.08
461.31	11227.55
461.49	11105.84
461.67	11171.38
461.85	11564.59
462.04	11115.20
462.22	11672.25
462.40	11632.46
462.59	11531.82
462.77	11321.17
462.95	11508.41
463.13	11625.44
463.32	11606.72
463.50	11609.06
463.68	11690.98
463.86	11747.15
464.05	11770.55
464.23	11899.28
464.41	11910.99
464.59	11510.75
464.78	11969.50
464.96	12020.99
465.14	11695.66
465.32	12049.08
465.50	12175.47
465.69	11976.52
465.87	12236.32
466.05	11990.56
466.23	12210.57
466.41	12037.38
466.60	12613.15
466.78	12187.17
466.96	12058.44
467.14	12243.34
467.32	12386.12
467.51	12386.12
467.69	12065.46
467.87	12407.18
468.05	12493.78
468.23	12439.95
468.41	12456.33
468.60	12486.76
468.78	12690.38
468.96	12533.57
469.14	12727.83
469.32	12849.54
469.50	12561.66
469.69	12933.80
469.87	13116.36
470.05	13036.78
470.23	12858.90
470.41	12961.89
470.59	13270.84
470.77	13121.04
470.95	13483.83
471.14	13521.27
471.32	13275.52
471.50	13504.89
471.68	13610.22
471.86	13565.74
472.04	13809.16
472.22	13916.83
472.40	13743.63
472.58	13874.70
472.77	13900.44
472.95	14012.79
473.13	14497.28
473.31	13790.44
473.49	14132.15
473.67	14157.90
473.85	14115.77
474.03	14342.80
474.21	14693.88
474.39	14640.05
474.57	14324.08
474.75	14963.04
474.93	14916.23
475.12	14974.75
475.30	15019.22
475.48	14808.57
475.66	15147.95
475.84	14965.39
476.02	15337.53
476.20	15330.51
476.38	15580.95
476.56	15803.30
476.74	16065.44
476.92	16020.97
477.10	15674.57
477.28	16102.89
477.46	16077.14
477.64	16196.51
477.82	16563.97
478.00	16924.41
478.18	16575.67
478.36	16929.09
478.54	17046.12
478.72	17231.02
478.90	17315.28
479.08	17287.20
479.26	17671.04
479.44	17298.90
479.62	17755.30
479.80	17734.24
479.98	18375.55
480.16	18497.25
480.34	18139.15
480.52	18675.13
480.70	18611.94
480.88	18155.54
481.06	18469.17
481.24	18602.58
481.41	19140.90
481.59	19307.08
481.77	19227.50
481.95	19288.35
482.13	19571.56
482.31	19594.96
482.49	20152.01
482.67	20357.98
482.85	20262.02
483.03	20573.31
483.21	20648.21
483.39	20695.02
483.57	20659.91
483.74	21034.39
483.92	21158.44
484.10	21006.31
484.28	21647.61
484.46	21605.49
484.64	22277.22
484.82	21776.34
485.00	22176.58
485.18	22427.01
485.35	22909.16
485.53	22747.67
485.71	22953.63
485.89	23337.48
486.07	23391.31
486.25	23281.31
486.43	23793.89
486.61	24060.71
486.78	23971.77
486.96	23784.52
487.14	24423.49
487.32	24329.87
487.50	24519.45
487.68	25036.71
487.85	25418.22
488.03	25308.21
488.21	25862.92
488.39	25846.54
488.57	25837.17
488.75	25734.19
488.92	26345.07
489.10	26600.19
489.28	26611.89
489.46	27274.26
489.64	26382.52
489.81	27510.66
489.99	27393.63
490.17	27388.95
490.35	28236.22
490.53	28051.32
490.70	27899.19
490.88	28285.37
491.06	28650.50
491.24	28645.82
491.41	28858.81
491.59	29357.34
491.77	29355.00
491.95	29280.10
492.13	29881.62
492.30	29638.20
492.48	29947.15
492.66	29914.39
492.84	30335.68
493.01	30394.20
493.19	30522.93
493.37	30962.95
493.54	30937.20
493.72	31468.50
493.90	31381.90
494.08	31749.37
494.25	31768.09
494.43	32070.02
494.61	32247.90
494.79	32301.73
494.96	32105.13
495.14	32357.91
495.32	32826.01
495.49	32863.46
495.67	33287.10
495.85	33172.41
496.02	33958.83
496.20	33907.34
496.38	33940.11
496.55	33689.67
496.73	34630.57
496.91	34349.70
497.09	34892.71
497.26	34471.41
497.44	34827.17
497.62	35260.17
497.79	35695.51
497.97	35325.71
498.14	35660.40
498.32	35896.80
498.50	35765.73
498.67	36030.21
498.85	36421.08
499.03	36566.19
499.20	36446.82
499.38	36503.00
499.56	36837.69
499.73	37228.56
499.91	37198.13
500.08	37273.03
500.26	37511.77
500.44	37497.72
500.61	37542.19
500.79	37830.08
500.97	38073.49
501.14	38139.03
501.32	38815.44
501.49	38534.58
501.67	38361.38
501.84	38527.56
502.02	38600.12
502.20	38794.38
502.37	38864.60
502.55	39079.92
502.72	38953.54
502.90	39349.09
503.07	39126.74
503.25	39519.95
503.43	39051.84
503.60	40046.57
503.78	40194.02
503.95	40222.11
504.13	40053.59
504.30	40500.63
504.48	39981.03
504.65	40369.56
504.83	40718.30
505.01	41022.57
505.18	41134.92
505.36	41200.45
505.53	40875.12
505.71	41345.56
505.88	41226.20
506.06	41280.03
506.23	41649.83
506.41	41530.47
506.58	41888.57
506.76	41734.09
506.93	42169.43
507.11	42071.13
507.28	42485.40
507.46	42717.12
507.63	42855.21
507.81	43040.11
507.98	42780.31
508.16	43058.84
508.33	43295.23
508.50	43210.97
508.68	43206.29
508.85	43517.58
509.03	43210.97
509.20	43969.30
509.38	44037.18
509.55	44287.62
509.73	44177.61
509.90	44727.64
510.08	44467.84
510.25	44196.34
510.42	44589.55
510.60	44615.29
510.77	45083.40
510.95	45174.68
511.12	44769.77
511.30	44966.37
511.47	45591.30
511.64	45226.17
511.82	45556.19
511.99	45422.78
512.17	45584.27
512.34	45502.35
512.51	45993.87
512.69	46021.95
512.86	46171.75
513.04	46134.30
513.21	46382.40
513.38	46621.13
513.56	46511.13
513.73	46209.20
513.90	46724.11
514.08	46653.90
514.25	46983.91
514.43	47077.54
514.60	47262.44
514.77	47096.26
514.95	47421.59
515.12	47374.78
515.29	47475.43
515.47	47416.91
515.64	48090.99
515.81	47758.63
515.99	47840.55
516.16	47906.08
516.33	47983.32
516.51	48835.28
516.68	48020.77
516.85	48193.97
517.03	48533.35
517.20	48598.88
517.37	48526.33
517.54	49057.63
517.72	48418.66
517.89	48839.96
518.06	49268.28
518.24	48760.38
518.41	48935.92
518.58	49160.61
518.75	49244.87
518.93	49544.46
519.10	49516.37
519.27	49319.77
519.45	49528.08
519.62	49703.62
519.79	49750.43
519.96	49932.99
520.14	50000.86
520.31	49464.88
520.48	50216.19
520.65	50251.30
520.83	50248.96
521.00	50501.74
521.17	50356.63
521.34	50405.78
521.52	50710.05
521.69	50450.25
521.86	50829.41
522.03	51100.92
522.20	50831.75
522.38	51730.52
522.55	50890.27
522.72	51136.02
522.89	51615.83
523.07	51285.82
523.24	50784.94
523.41	51779.67
523.58	51196.88
523.75	51372.42
523.92	51557.32
524.10	51948.19
524.27	51861.59
524.44	51910.74
524.61	51676.69
524.78	52203.31
524.96	51896.70
525.13	52243.10
525.30	51936.49
525.47	52074.58
525.64	52287.57
525.81	52619.92
525.98	52526.30
526.16	52313.31
526.33	52275.87
526.50	52727.59
526.67	52355.44
526.84	52825.89
527.01	52484.17
527.18	52608.22
527.36	53036.54
527.53	52573.11
527.70	53139.52
527.87	53165.27
528.04	53099.73
528.21	53399.32
528.38	53106.76
528.55	53429.75
528.72	53193.36
528.89	53301.02
529.07	53401.66
529.24	53113.78
529.41	53258.89
529.58	53614.65
529.75	53577.20
529.92	53469.54
530.09	53420.39
530.26	53982.12
530.43	53762.11
530.60	53308.04
530.77	53818.28
530.94	53785.51
531.11	53712.95
531.28	53769.13
531.46	54181.06
531.63	54092.12
531.80	54148.29
531.97	54307.45
532.14	54541.50
532.31	54370.64
532.48	54454.90
532.65	54398.73
532.82	54326.17
532.99	54541.50
533.16	54260.64
533.33	54770.88
533.50	54958.12
533.67	54731.09
533.84	54644.49
534.01	54981.52
534.18	54981.52
534.35	55290.48
534.52	55044.72
534.69	54972.16
534.86	55009.61
535.03	54595.34
535.20	55084.51
535.37	55243.66
535.54	55091.53
535.71	55171.11
535.88	55370.05
536.05	55470.70
536.22	55421.55
536.38	55257.71
536.55	55388.78
536.72	55480.06
536.89	55477.72
537.06	55241.32
537.23	55515.17
537.40	55515.17
537.57	55475.38
537.74	55505.80
537.91	56053.49
538.08	55793.69
538.25	55653.26
538.42	55664.96
538.59	56018.38
538.75	55671.98
538.92	56198.60
539.09	56065.19
539.26	56002.00
539.43	56212.65
539.60	56053.49
539.77	55971.57
539.94	56268.82
540.11	56381.16
540.28	55983.27
540.44	56238.39
540.61	56484.15
540.78	56112.00
540.95	56355.42
541.12	56058.17
541.29	56100.30
541.46	56437.34
541.62	56545.00
541.79	56427.98
541.96	56210.31
542.13	56493.51
542.30	56514.58
542.47	56603.52
542.63	56722.88
542.80	56657.35
542.97	56870.34
543.14	57102.05
543.31	56921.83
543.48	57116.09
543.64	57200.35
543.81	57279.93
543.98	57041.20
544.15	57134.82
544.32	57284.61
544.48	57504.62
544.65	57167.58
544.82	57240.14
544.99	57263.55
545.16	57392.28
545.32	57308.02
545.49	57537.39
545.66	57535.05
545.83	57659.10
546.00	57684.84
546.16	57525.69
546.33	57284.61
546.50	57219.08
546.67	57574.84
546.83	57411.00
547.00	57663.78
547.17	57478.88
547.34	57804.21
547.50	57865.06
547.67	57794.85
547.84	57640.37
548.00	58066.35
548.17	58014.86
548.34	57860.38
548.51	58101.46
548.67	57904.85
548.84	58064.01
549.01	58080.39
549.18	58129.54
549.34	57965.71
549.51	58248.91
549.68	58319.13
549.84	58258.27
550.01	58293.38
550.18	58258.27
550.34	58333.17
550.51	58363.60
550.68	58452.54
550.84	57968.05
551.01	58541.48
551.18	58372.96
551.34	58522.76
551.51	58408.07
551.68	58539.14
551.84	58518.07
552.01	58363.60
552.18	58653.82
552.34	58433.81
552.51	58773.19
552.68	58443.18
552.84	58506.37
553.01	58698.30
553.18	58639.78
553.34	58789.58
553.51	58571.91
553.67	58670.21
553.84	58812.98
554.01	58745.11
554.17	58843.41
554.34	58728.72
554.51	58695.95
554.67	58927.67
554.84	59084.48
555.00	58733.40
555.17	58962.78
555.33	59004.91
555.50	58920.65
555.67	58822.34
555.83	58962.78
556.00	58866.81
556.16	59072.78
556.33	59320.88
556.50	59260.02
556.66	59133.63
556.83	58993.20
556.99	59222.58
557.16	59334.92
557.32	59318.54
557.49	59346.62
557.65	59299.81
557.82	59229.60
557.98	59334.92
558.15	59203.85
558.32	59348.96
558.48	59196.83
558.65	59168.74
558.81	59470.67
558.98	59309.18
559.14	59700.04
559.31	59531.53
559.47	59540.89
559.64	59498.76
559.80	59564.29
559.97	59568.97
560.13	59494.08
560.30	59503.44
560.46	59636.85
560.63	59714.09
560.79	59639.19
560.96	59714.09
561.12	59887.29
561.29	59636.85
561.45	59629.83
561.61	59594.72
561.78	59554.93
561.94	59606.42
562.11	59494.08
562.27	59524.50
562.44	59625.15
562.60	59884.95
562.77	59845.16
562.93	59517.48
563.10	59842.82
563.26	59821.75
563.42	59931.76
563.59	59976.23
563.75	59994.95
563.92	59873.24
564.08	59849.84
564.24	59924.74
564.41	60058.15
564.57	59962.18
564.74	59882.61
564.90	60170.49
565.07	59922.40
565.23	59987.93
565.39	60093.25
565.56	59987.93
565.72	59973.89
565.88	59997.29
566.05	60175.17
566.21	60058.15
566.38	60104.96
566.54	60179.85
566.70	60364.76
566.87	59971.55
567.03	60048.78
567.19	60498.17
567.36	60133.04
567.52	59999.63
567.68	60474.76
567.85	60320.29
568.01	60369.44
568.17	60144.75
568.34	60360.08
568.50	60191.56
568.66	60336.67
568.83	60257.09
568.99	60315.61
569.15	60140.07
569.32	60205.60
569.48	59959.84
569.64	60474.76
569.81	60399.86
569.97	60140.07
570.13	60353.05
570.30	60343.69
570.46	60362.42
570.62	60425.61
570.78	60537.96
570.95	60252.41
571.11	60460.72
571.27	60446.68
571.43	60425.61
571.60	60467.74
571.76	60378.80
571.92	60477.10
572.09	60533.28
572.25	60376.46
572.41	60432.63
572.57	60336.67
572.74	60430.29
572.90	60413.91
573.06	60491.15
573.22	60505.19
573.38	60516.89
573.55	60542.64
573.71	60636.26
573.87	60446.68
574.03	60392.84
574.20	60533.28
574.36	60416.25
574.52	60582.43
574.68	60547.32
574.84	60743.92
575.01	60704.13
575.17	60481.78
575.33	60535.62
575.49	60439.65
575.65	60582.43
575.82	60629.24
575.98	60622.22
576.14	60853.93
576.30	60615.19
576.46	60669.03
576.62	60683.07
576.79	60743.92
576.95	60453.70
577.11	60720.52
577.27	60741.58
577.43	60704.13
577.59	60882.02
577.75	60669.03
577.92	60640.94
578.08	60640.94
578.24	60800.10
578.40	60996.70
578.56	60781.37
578.72	60669.03
578.88	60821.16
579.04	60992.02
579.21	60921.80
579.37	60945.21
579.53	60736.90
579.69	60537.96
579.85	60624.56
580.01	60654.98
580.17	60626.90
580.33	60734.56
580.49	60811.80
580.65	60774.35
580.82	60734.56
580.98	60814.14
581.14	60591.79
581.30	60987.34
581.46	60580.09
581.62	60886.70
581.78	60760.31
581.94	60790.73
582.10	60844.57
582.26	60793.07
582.42	60753.29
582.58	60853.93
582.74	60568.38
582.90	60697.11
583.06	60919.46
583.22	60725.20
583.38	60823.50
583.54	60636.26
583.70	60676.05
583.86	60811.80
584.02	60575.40
584.18	61071.60
584.34	60802.44
584.50	60917.12
584.66	60800.10
584.82	60669.03
584.98	61207.35
585.14	60982.66
585.30	60769.67
585.46	60889.04
585.62	60851.59
585.78	61022.45
585.94	60828.18
586.10	60889.04
586.26	60856.27
586.42	60903.08
586.58	61057.56
586.74	61022.45
586.90	60823.50
587.06	61027.13
587.22	60935.85
587.38	60837.54
587.54	60849.25
587.70	61052.87
587.86	60753.29
588.02	61008.40
588.18	60893.72
588.34	60764.99
588.49	61102.03
