SpectraSuite Data File
++++++++++++++++++++++++++++++++++++
Date: Fri Oct 25 10:44:15 EDT 2013
User: price-jones
Dark Spectrum Present: No
Reference Spectrum Present: No
Number of Sampled Component Spectra: 1
Spectrometers: USB2+H05261
Integration Time (usec): 100000 (USB2+H05261)
Spectra Averaged: 1 (USB2+H05261)
Boxcar Smoothing: 0 (USB2+H05261)
Correct for Electrical Dark: No (USB2+H05261)
Strobe/Lamp Enabled: No (USB2+H05261)
Correct for Detector Non-linearity: No (USB2+H05261)
Correct for Stray Light: No (USB2+H05261)
Number of Pixels in Processed Spectrum: 2048
>>>>>Begin Processed Spectral Data<<<<<
365.73	159.16
365.92	159.16
366.12	159.16
366.32	145.11
366.52	0.00
366.72	42.13
366.91	0.00
367.11	0.00
367.31	0.00
367.51	0.00
367.70	42.13
367.90	30.43
368.10	16.38
368.30	14.04
368.49	0.00
368.69	37.45
368.89	105.32
369.09	2.34
369.28	28.09
369.48	72.56
369.68	72.56
369.87	140.43
370.07	114.69
370.27	152.13
370.47	159.16
370.66	369.80
370.86	409.59
371.06	444.70
371.25	500.87
371.45	484.49
371.65	550.03
371.84	477.47
372.04	475.13
372.24	503.22
372.44	463.43
372.63	535.98
372.83	575.77
373.03	540.66
373.22	463.43
373.42	435.34
373.62	442.36
373.81	545.34
374.01	566.41
374.21	552.37
374.40	564.07
374.60	585.13
374.79	571.09
374.99	617.90
375.19	547.69
375.38	657.69
375.58	615.56
375.78	564.07
375.97	594.50
376.17	610.88
376.37	552.37
376.56	638.97
376.76	557.05
376.95	543.00
377.15	631.94
377.35	699.82
377.54	664.71
377.74	657.69
377.93	648.33
378.13	615.56
378.33	674.07
378.52	631.94
378.72	648.33
378.91	692.80
379.11	608.54
379.31	720.88
379.50	603.86
379.70	622.58
379.89	716.20
380.09	655.35
380.28	648.33
380.48	685.78
380.68	664.71
380.87	601.52
381.07	730.25
381.26	755.99
381.46	720.88
381.65	737.27
381.85	713.86
382.04	699.82
382.24	716.20
382.43	770.04
382.63	748.97
382.83	692.80
383.02	622.58
383.22	753.65
383.41	702.16
383.61	793.44
383.80	777.06
384.00	716.20
384.19	718.54
384.39	784.08
384.58	873.02
384.78	779.40
384.97	800.46
385.17	894.08
385.36	870.68
385.56	770.04
385.75	854.30
385.95	854.30
386.14	828.55
386.34	758.33
386.53	821.53
386.72	793.44
386.92	809.83
387.11	849.61
387.31	910.47
387.50	896.43
387.70	882.38
387.89	901.11
388.09	905.79
388.28	833.23
388.48	919.83
388.67	968.98
388.86	847.27
389.06	866.00
389.25	1050.90
389.45	926.85
389.64	961.96
389.84	1011.11
390.03	933.87
390.22	1034.52
390.42	1008.77
390.61	985.37
390.81	976.00
391.00	999.41
391.19	1071.97
391.39	1029.84
391.58	1043.88
391.78	1048.56
391.97	1006.43
392.16	1053.24
392.36	1064.94
392.55	1088.35
392.75	994.73
392.94	959.62
393.13	903.45
393.33	950.26
393.52	1001.75
393.71	1151.54
393.91	1062.60
394.10	1086.01
394.29	1191.33
394.49	1135.16
394.68	1121.12
394.88	1191.33
395.07	1238.14
395.26	1142.18
395.46	1217.08
395.65	1357.51
395.84	1240.48
396.04	1268.57
396.23	1247.51
396.42	1160.91
396.62	1252.19
396.81	1231.12
397.00	1179.63
397.19	1291.98
397.39	1350.49
397.58	1275.59
397.77	1427.73
397.97	1394.96
398.16	1453.47
398.35	1504.96
398.55	1490.92
398.74	1554.12
398.93	1474.54
399.12	1434.75
399.32	1526.03
399.51	1460.49
399.70	1561.14
399.90	1666.46
400.09	1570.50
400.28	1666.46
400.47	1631.35
400.67	1647.74
400.86	1750.72
401.05	1699.23
401.24	1621.99
401.44	1720.29
401.63	1732.00
401.82	1748.38
402.01	1762.42
402.21	1739.02
402.40	1727.32
402.59	1785.83
402.78	1788.17
402.97	1685.19
403.17	1799.87
403.36	1703.91
403.55	1802.21
403.74	1867.75
403.93	1839.66
404.13	1912.22
404.32	1905.20
404.51	1863.07
404.70	1879.45
404.89	1888.81
405.09	1970.73
405.28	1933.28
405.47	1919.24
405.66	1954.35
405.85	1884.13
406.05	1987.11
406.24	1975.41
406.43	2052.65
406.62	2092.44
406.81	2127.55
407.00	2024.56
407.20	1919.24
407.39	2050.31
407.58	2104.14
407.77	2153.29
407.96	2059.67
408.15	2218.83
408.34	2183.72
408.54	2221.17
408.73	2270.32
408.92	2256.28
409.11	2209.47
409.30	2305.43
409.49	2232.87
409.68	2289.04
409.87	2232.87
410.07	2305.43
410.26	2506.71
410.45	2385.01
410.64	2443.52
410.83	2441.18
411.02	2525.44
411.21	2567.57
411.40	2532.46
411.59	2633.10
411.78	2532.46
411.98	2513.74
412.17	2654.17
412.36	2675.23
412.55	2693.96
412.74	2708.00
412.93	2761.83
413.12	2747.79
413.31	2843.75
413.50	2888.22
413.69	2799.28
413.88	2766.51
414.07	2909.29
414.26	2963.12
414.45	2953.76
414.64	2977.16
414.83	2958.44
415.02	2953.76
415.22	3021.63
415.41	3150.36
415.60	3164.40
415.79	3131.64
415.98	3272.07
416.17	3208.87
416.36	3243.98
416.55	3178.45
416.74	3290.79
416.93	3197.17
417.12	3204.19
417.31	3323.56
417.50	3222.92
417.69	3510.80
417.88	3384.41
418.07	3346.97
418.26	3492.08
418.45	3452.29
418.64	3637.19
418.83	3569.32
419.02	3559.95
419.21	3620.81
419.39	3543.57
419.58	3468.67
419.77	3653.58
419.96	3716.77
420.15	3639.53
420.34	3555.27
420.53	3742.52
420.72	3808.05
420.91	3705.07
421.10	3791.67
421.29	3854.86
421.48	3749.54
421.67	3866.56
421.86	3786.99
422.05	3817.41
422.24	3784.65
422.43	3749.54
422.61	3791.67
422.80	3936.78
422.99	3899.33
423.18	3899.33
423.37	3999.98
423.56	3889.97
423.75	3957.85
423.94	3726.13
424.13	3630.17
424.32	3723.79
424.50	3976.57
424.69	3981.25
424.88	4065.51
425.07	3922.74
425.26	3908.69
425.45	3974.23
425.64	4030.40
425.83	3967.21
426.01	4044.45
426.20	4016.36
426.39	3889.97
426.58	3927.42
426.77	3896.99
426.96	3976.57
427.15	4072.53
427.33	4056.15
427.52	4060.83
427.71	4077.21
427.90	4161.47
428.09	4121.68
428.28	4156.79
428.46	4077.21
428.65	4119.34
428.84	4306.59
429.03	4194.24
429.22	4093.60
429.40	4037.42
429.59	4238.71
429.78	3955.51
429.97	4004.66
430.16	3971.89
430.34	4154.45
430.53	4152.11
430.72	4339.35
430.91	4231.69
431.10	4329.99
431.28	4383.82
431.47	4582.77
431.66	4643.62
431.85	4655.33
432.03	4552.34
432.22	4447.02
432.41	4709.16
432.60	4622.56
432.79	4711.50
432.97	4774.69
433.16	4800.44
433.35	4468.08
433.54	4683.41
433.72	4648.30
433.91	4559.36
434.10	4725.54
434.28	4685.75
434.47	4751.29
434.66	4856.61
434.85	4847.25
435.03	4844.91
435.22	4971.30
435.41	4952.57
435.59	4891.72
435.78	5163.22
435.97	4983.00
436.16	5102.37
436.34	5011.09
436.53	5036.83
436.72	5336.42
436.90	5181.95
437.09	5188.97
437.28	5046.20
437.46	5282.59
437.65	5212.37
437.84	5083.64
438.02	4985.34
438.21	5195.99
438.40	5076.62
438.58	5291.95
438.77	5401.96
438.96	5364.51
439.14	5446.43
439.33	5516.64
439.52	5540.05
439.70	5528.35
439.89	5640.69
440.08	5535.37
440.26	5626.65
440.45	5720.27
440.63	5689.84
440.82	5895.81
441.01	5905.17
441.19	6029.22
441.38	6061.99
441.57	5900.49
441.75	6108.80
441.94	6356.90
442.12	6059.65
442.31	6258.59
442.50	6291.36
442.68	6139.23
442.87	6148.59
443.05	6366.26
443.24	6387.32
443.43	6375.62
443.61	6476.26
443.80	6534.78
443.98	6401.37
444.17	6120.50
444.35	6417.75
444.54	6586.27
444.73	6541.80
444.91	6394.34
445.10	6441.15
445.28	6389.66
445.47	6342.85
445.65	6389.66
445.84	6541.80
446.02	6616.69
446.21	6586.27
446.39	6548.82
446.58	6640.10
446.77	6691.59
446.95	6560.52
447.14	6616.69
447.32	6630.74
447.51	6682.23
447.69	6745.42
447.88	6803.94
448.06	6665.85
448.25	6710.32
448.43	6558.18
448.62	6623.72
448.80	6707.98
448.99	6684.57
449.17	6942.03
449.36	6803.94
449.54	6981.82
449.73	7009.90
449.91	7169.06
450.10	7082.46
450.28	7187.79
450.46	7300.13
450.65	7096.50
450.83	7162.04
451.02	7016.93
451.20	7262.68
451.39	7124.59
451.57	7122.25
451.76	7098.84
451.94	7122.25
452.13	7353.96
452.31	7112.89
452.49	7265.02
452.68	7356.30
452.86	7183.10
453.05	7400.77
453.23	7431.20
453.42	7323.54
453.60	7222.89
453.78	7440.56
453.97	7452.27
454.15	7494.40
454.34	7403.11
454.52	7529.50
454.70	7407.80
454.89	7393.75
455.07	7468.65
455.26	7674.62
455.44	7691.00
455.62	7625.47
455.81	7707.38
455.99	8028.04
456.17	7702.70
456.36	7616.10
456.54	7754.19
456.73	7817.39
456.91	8081.87
457.09	8074.85
457.28	8049.10
457.46	8044.42
457.64	8058.46
457.83	7978.89
458.01	8060.80
458.19	8109.96
458.38	8063.15
458.56	8238.69
458.74	8189.53
458.93	8327.63
459.11	8287.84
459.29	8121.66
459.48	8442.31
459.66	8395.50
459.84	8250.39
460.03	8568.70
460.21	8470.40
460.39	8428.27
460.57	8510.19
460.76	8557.00
460.94	8636.58
461.12	8524.23
461.31	8512.53
461.49	8507.85
461.67	8411.89
461.85	8762.97
462.04	8657.64
462.22	8971.27
462.40	8894.04
462.59	8894.04
462.77	8788.71
462.95	8779.35
463.13	8657.64
463.32	8823.82
463.50	8929.14
463.68	8964.25
463.86	9102.34
464.05	8875.31
464.23	9015.74
464.41	8985.32
464.59	8699.77
464.78	9163.20
464.96	8950.21
465.14	8769.99
465.32	9214.69
465.50	9064.89
465.69	9371.50
465.87	9338.74
466.05	9109.36
466.23	9177.24
466.41	9266.18
466.60	9179.58
466.78	9135.11
466.96	9317.67
467.14	9474.49
467.32	9373.85
467.51	9266.18
467.69	9111.71
467.87	9287.25
468.05	9366.82
468.23	9411.29
468.41	9432.36
468.60	9462.79
468.78	9671.09
468.96	9479.17
469.14	9549.39
469.32	9589.17
469.50	9771.74
469.69	9729.61
469.87	9624.28
470.05	9476.83
470.23	9771.74
470.41	9872.38
470.59	10111.11
470.77	9797.48
470.95	9975.36
471.14	10068.98
471.32	10045.58
471.50	10239.84
471.68	10087.71
471.86	10059.62
472.04	10494.96
472.22	10565.18
472.40	10307.72
472.58	10363.89
472.77	10499.64
472.95	10450.49
473.13	10766.46
473.31	10448.15
473.49	10457.51
473.67	10583.90
473.85	10684.55
474.03	10806.25
474.21	10890.51
474.39	11012.22
474.57	10998.18
474.75	11103.50
474.93	11126.91
475.12	11033.29
475.30	11225.21
475.48	11318.83
475.66	11548.20
475.84	11283.72
476.02	11349.26
476.20	11325.85
476.38	11627.78
476.56	11845.45
476.74	11932.05
476.92	11854.81
477.10	11967.16
477.28	12058.44
477.46	11791.62
477.64	12498.46
477.82	12266.75
478.00	12638.89
478.18	12276.11
478.36	12210.57
478.54	12662.30
478.72	12641.23
478.90	13034.44
479.08	12788.69
479.26	13177.22
479.44	13312.97
479.62	12912.74
479.80	13273.18
479.98	13312.97
480.16	13893.42
480.34	13444.04
480.52	13659.37
480.70	13752.99
480.88	13493.19
481.06	13874.70
481.24	13874.70
481.41	14078.32
481.59	14317.06
481.77	14218.75
481.95	14427.06
482.13	14712.61
482.31	14633.03
482.49	14857.72
482.67	14684.52
482.85	14855.38
483.03	15042.62
483.21	15236.89
483.39	15255.61
483.57	15204.12
483.74	15604.35
483.92	15353.91
484.10	15438.17
484.28	15803.30
484.46	15913.30
484.64	16035.01
484.82	16159.06
485.00	15936.71
485.18	16414.18
485.35	16465.67
485.53	16100.55
485.71	16046.71
485.89	16510.14
486.07	16283.11
486.25	16783.98
486.43	17067.19
486.61	17099.95
486.78	17156.13
486.96	17542.32
487.14	17493.16
487.32	17542.32
487.50	17860.63
487.68	18059.57
487.85	18080.64
488.03	18057.23
488.21	18408.31
488.39	18576.83
488.57	18771.10
488.75	18913.87
488.92	19110.47
489.10	19124.52
489.28	19449.85
489.46	19789.23
489.64	19690.93
489.81	20063.07
489.99	19896.89
490.17	20004.56
490.35	20407.13
490.53	20173.08
490.70	20573.31
490.88	20624.80
491.06	20690.34
491.24	20400.11
491.41	20659.91
491.59	20765.23
491.77	20732.47
491.95	20982.90
492.13	21118.65
492.30	21603.14
492.48	21708.47
492.66	21411.22
492.84	21668.68
493.01	21961.25
493.19	21958.91
493.37	22185.94
493.54	22307.65
493.72	22321.69
493.90	22487.87
494.08	22836.61
494.25	23110.45
494.43	23271.95
494.61	22944.27
494.79	23253.22
494.96	23384.29
495.14	23300.03
495.32	23616.01
495.49	23821.97
495.67	23917.93
495.85	24362.64
496.02	24290.08
496.20	24402.43
496.38	24524.13
496.55	24360.30
496.73	24861.17
496.91	24496.05
497.09	24980.54
497.26	24844.79
497.44	25289.49
497.62	24980.54
497.79	25495.46
497.97	25151.40
498.14	25458.01
498.32	25373.75
498.50	25497.80
498.67	26412.95
498.85	25912.07
499.03	25860.58
499.20	26092.29
499.38	26118.04
499.56	26459.76
499.73	26431.67
499.91	26574.44
500.08	26656.36
500.26	25949.52
500.44	26352.09
500.61	26972.33
500.79	26361.45
500.97	26953.61
501.14	27227.45
501.32	26867.01
501.49	27143.19
501.67	27152.55
501.84	27094.04
502.02	27065.96
502.20	27508.32
502.37	28236.22
502.55	27461.51
502.72	27655.77
502.90	27873.44
503.07	28020.89
503.25	28222.18
503.43	27473.21
503.60	27908.55
503.78	28100.47
503.95	28201.11
504.13	28753.48
504.30	28762.84
504.48	28678.58
504.65	28957.11
504.83	28903.28
505.01	29256.70
505.18	29289.46
505.36	29713.10
505.53	29729.48
505.71	29750.55
505.88	29607.78
506.06	29404.15
506.23	29376.06
506.41	29539.90
506.58	30036.09
506.76	29766.93
506.93	29968.22
507.11	30251.42
507.28	30040.78
507.46	29778.64
507.63	30192.91
507.81	30141.42
507.98	29741.19
508.16	30359.09
508.33	30532.29
508.50	30593.14
508.68	30724.21
508.85	31131.47
509.03	31246.15
509.20	31365.52
509.38	31056.57
509.55	31206.36
509.73	31164.23
509.90	31173.60
510.08	31262.54
510.25	31316.37
510.42	31548.08
510.60	31461.48
510.77	31388.92
510.95	31948.31
511.12	31803.20
511.30	32320.46
511.47	32362.59
511.64	32381.31
511.82	32313.44
511.99	31922.57
512.17	32385.99
512.34	32077.04
512.51	32631.75
512.69	32985.17
512.86	32823.67
513.04	33003.89
513.21	33200.50
513.38	32481.95
513.56	32804.95
513.73	33041.34
513.90	32692.60
514.08	33387.74
514.25	33242.63
514.43	33221.56
514.60	33041.34
514.77	32943.04
514.95	33572.64
515.12	33493.07
515.29	33411.15
515.47	33717.76
515.64	34279.49
515.81	33570.30
515.99	33926.07
516.16	33677.97
516.33	33172.41
516.51	33249.65
516.68	33083.47
516.85	33401.79
517.03	33507.11
517.20	33472.00
517.37	34160.12
517.54	34110.97
517.72	34267.78
517.89	33848.83
518.06	34108.63
518.24	34050.11
518.41	34277.15
518.58	34717.17
518.75	34749.93
518.93	34766.32
519.10	34618.86
519.27	35037.82
519.45	35164.21
519.62	35381.88
519.79	35185.27
519.96	35618.27
520.14	35227.40
520.31	35096.33
520.48	35569.12
520.65	35704.87
520.83	35821.90
521.00	35777.43
521.17	36121.49
521.34	36121.49
521.52	36016.16
521.69	35957.65
521.86	35941.27
522.03	36215.11
522.20	35983.40
522.38	36023.19
522.55	36517.04
522.72	36168.30
522.89	35842.96
523.07	36334.48
523.24	36620.02
523.41	36645.77
523.58	36715.98
523.75	37294.10
523.92	37263.67
524.10	37691.99
524.27	37715.39
524.44	37324.52
524.61	37273.03
524.78	37563.26
524.96	37462.61
525.13	37654.54
525.30	37640.50
525.47	37652.20
525.64	37462.61
525.81	37617.09
525.98	37689.65
526.16	37387.72
526.33	37170.05
526.50	37736.46
526.67	37572.62
526.84	37596.03
527.01	37516.45
527.18	37867.53
527.36	38068.81
527.53	38124.99
527.70	38492.45
527.87	38265.42
528.04	38295.85
528.21	38660.97
528.38	38637.56
528.55	38630.54
528.72	38899.70
528.89	39196.95
529.07	38462.02
529.24	38424.57
529.41	39016.73
529.58	38864.60
529.75	38857.57
529.92	39033.11
530.09	39321.00
530.26	38967.58
530.43	38958.22
530.60	39337.38
530.77	38972.26
530.94	39489.52
531.11	39248.44
531.28	39552.71
531.46	39599.52
531.63	39449.73
531.80	39309.30
531.97	39339.72
532.14	39449.73
532.31	38813.10
532.48	39173.55
532.65	39681.44
532.82	39529.31
532.99	39950.60
533.16	39412.28
533.33	39835.92
533.50	40198.70
533.67	39730.59
533.84	40058.27
534.01	40093.38
534.18	40149.55
534.35	40278.28
534.52	40109.76
534.69	40378.92
534.86	40275.94
535.03	40315.73
535.20	41104.49
535.37	40893.84
535.54	41067.04
535.71	40891.50
535.88	40823.62
536.05	40835.33
536.22	40854.05
536.38	41024.91
536.55	40884.48
536.72	41053.00
536.89	40804.90
537.06	40715.96
537.23	41099.81
537.40	40907.88
537.57	40809.58
537.74	41265.99
537.91	41146.62
538.08	41078.74
538.25	41097.47
538.42	40748.73
538.59	41450.89
538.75	40825.96
538.92	41155.98
539.09	40889.16
539.26	41497.70
539.43	41223.86
539.60	41429.82
539.77	41851.12
539.94	41392.37
540.11	41268.33
540.28	41603.02
540.44	41076.40
540.61	41109.17
540.78	41544.51
540.95	41443.87
541.12	41322.16
541.29	41287.05
541.46	41895.59
541.62	41584.30
541.79	42127.30
541.96	41659.20
542.13	41771.54
542.30	42007.94
542.47	41991.55
542.63	42312.20
542.80	42630.52
542.97	42267.73
543.14	42541.58
543.31	42855.21
543.48	42382.42
543.64	42618.81
543.81	43126.71
543.98	42864.57
544.15	42667.97
544.32	42808.40
544.48	43615.88
544.65	43051.81
544.82	43161.82
544.99	42548.60
545.16	42682.01
545.32	43009.68
545.49	43358.42
545.66	43311.61
545.83	43442.68
546.00	43618.22
546.16	43213.31
546.33	42614.13
546.50	43203.95
546.67	43126.71
546.83	42820.10
547.00	43208.63
547.17	43213.31
547.34	43232.04
547.50	43480.13
547.67	43028.41
547.84	43531.62
548.00	43519.92
548.17	44018.46
548.34	43374.81
548.51	44493.58
548.67	43515.24
548.84	43908.45
549.01	43433.32
549.18	43629.93
549.34	43730.57
549.51	43643.97
549.68	43763.34
549.84	43784.40
550.01	44182.29
550.18	43690.78
550.34	44048.88
550.51	43782.06
550.68	44165.91
550.84	43496.52
551.01	44498.26
551.18	43943.56
551.34	44023.14
551.51	44533.37
551.68	44130.80
551.84	44229.10
552.01	43978.67
552.18	44135.48
552.34	43995.05
552.51	44421.03
552.68	44449.11
552.84	44079.31
553.01	44797.85
553.18	44369.54
553.34	44409.32
553.51	44130.80
553.67	44278.25
553.84	44666.78
554.01	44271.23
554.17	44821.26
554.34	44657.42
554.51	44741.68
554.67	44755.72
554.84	44685.51
555.00	44659.76
555.17	44456.14
555.33	44774.45
555.50	44861.05
555.67	44758.06
555.83	44278.25
556.00	44657.42
556.16	44800.19
556.33	45020.20
556.50	44655.08
556.66	44748.70
556.83	44772.11
556.99	44957.01
557.16	45008.50
557.32	45020.20
557.49	45261.28
557.65	44921.90
557.82	44783.81
557.98	45425.12
558.15	44992.12
558.32	45041.27
558.48	44804.88
558.65	45221.49
558.81	44914.88
558.98	44790.83
559.14	45174.68
559.31	45265.96
559.47	45202.77
559.64	45343.20
559.80	44802.53
559.97	45235.53
560.13	45359.58
560.30	45329.16
560.46	45394.69
560.63	45462.57
560.79	46059.40
560.96	45661.51
561.12	45724.71
561.29	45399.37
561.45	45235.53
561.61	45708.32
561.78	45237.87
561.94	45020.20
562.11	45343.20
562.27	45397.03
562.44	45514.06
562.60	45380.65
562.77	45595.98
562.93	45715.34
563.10	46014.93
563.26	45265.96
563.42	45701.30
563.59	44996.80
563.75	45357.24
563.92	46014.93
564.08	45656.83
564.24	45825.35
564.41	45762.15
564.57	45832.37
564.74	45179.36
564.90	45874.50
565.07	45722.37
565.23	45663.85
565.39	45546.82
565.56	45940.04
565.72	45359.58
565.88	45886.20
566.05	45619.38
566.21	45528.10
566.38	45467.25
566.54	45940.04
566.70	45645.13
566.87	45851.09
567.03	45670.87
567.19	46115.58
567.36	45729.39
567.52	45837.05
567.68	46108.55
567.85	45696.62
568.01	46232.60
568.17	45675.55
568.34	45904.93
568.50	46040.68
568.66	45907.27
568.83	45862.80
568.99	45713.00
569.15	45633.42
569.32	45713.00
569.48	45855.78
569.64	45954.08
569.81	45750.45
569.97	45460.23
570.13	45851.09
570.30	45757.47
570.46	45385.33
570.62	45434.48
570.78	45385.33
570.95	45848.75
571.11	45478.95
571.27	45862.80
571.43	45420.44
571.60	45977.48
571.76	45860.46
571.92	46459.63
572.09	45968.12
572.25	46038.34
572.41	46146.00
572.57	45691.94
572.74	46071.10
572.90	45607.68
573.06	45947.06
573.22	45909.61
573.38	45930.67
573.55	45851.09
573.71	46220.90
573.87	46312.18
574.03	46167.07
574.20	46108.55
574.36	46101.53
574.52	45837.05
574.68	46202.18
574.84	46286.43
575.01	46064.08
575.17	45855.78
575.33	45804.28
575.49	45696.62
575.65	46085.15
575.82	45949.40
575.98	46036.00
576.14	46103.87
576.30	46305.16
576.46	46508.79
576.62	46230.26
576.79	45935.35
576.95	45813.65
577.11	46340.27
577.27	46085.15
577.43	46138.98
577.59	45722.37
577.75	45827.69
577.92	45577.25
578.08	45844.07
578.24	45883.86
578.40	46246.65
578.56	45933.01
578.72	46115.58
578.88	46616.45
579.04	46167.07
579.21	46122.60
579.37	46131.96
579.53	45883.86
579.69	46071.10
579.85	46246.65
580.01	46143.66
580.17	46050.04
580.33	45954.08
580.49	46478.36
580.65	46323.88
580.82	46527.51
580.98	46057.06
581.14	46082.81
581.30	46354.31
581.46	46073.45
581.62	46349.63
581.78	46160.05
581.94	46319.20
582.10	46047.70
582.26	46279.41
582.42	46305.16
582.58	46351.97
582.74	46567.30
582.90	45815.99
583.06	46611.77
583.22	46417.50
583.38	46616.45
583.54	46665.60
583.70	45888.54
583.86	46300.48
584.02	45820.67
584.18	46225.58
584.34	46225.58
584.50	45984.51
584.66	46749.86
584.82	46307.50
584.98	46569.64
585.14	46550.91
585.30	46050.04
585.46	46033.66
585.62	46026.63
585.78	45982.16
585.94	45834.71
586.10	46122.60
586.26	46099.19
586.42	46375.37
586.58	46319.20
586.74	46728.80
586.90	45982.16
587.06	46431.55
587.22	46057.06
587.38	46131.96
587.54	46260.69
587.70	46361.33
587.86	46064.08
588.02	46043.02
588.18	46586.02
588.34	45893.22
588.49	45958.76
588.65	45710.66
588.81	45780.88
588.97	45954.08
589.13	45579.59
589.29	45647.47
589.45	46277.07
589.61	46164.73
589.77	46485.38
589.93	46316.86
