SpectraSuite Data File
++++++++++++++++++++++++++++++++++++
Date: Fri Oct 25 11:23:37 EDT 2013
User: price-jones
Dark Spectrum Present: No
Reference Spectrum Present: No
Number of Sampled Component Spectra: 1
Spectrometers: USB2+H05261
Integration Time (usec): 100000 (USB2+H05261)
Spectra Averaged: 1 (USB2+H05261)
Boxcar Smoothing: 0 (USB2+H05261)
Correct for Electrical Dark: No (USB2+H05261)
Strobe/Lamp Enabled: No (USB2+H05261)
Correct for Detector Non-linearity: No (USB2+H05261)
Correct for Stray Light: No (USB2+H05261)
Number of Pixels in Processed Spectrum: 2048
>>>>>Begin Processed Spectral Data<<<<<
365.73	278.52
365.92	278.52
366.12	278.52
366.32	126.39
366.52	126.39
366.72	88.94
366.91	128.73
367.11	100.64
367.31	124.05
367.51	152.13
367.70	173.20
367.90	147.45
368.10	100.64
368.30	110.01
368.49	133.41
368.69	91.28
368.89	149.79
369.09	117.03
369.28	121.71
369.48	88.94
369.68	159.16
369.87	135.75
370.07	154.48
370.27	283.20
370.47	332.36
370.66	603.86
370.86	603.86
371.06	638.97
371.25	706.84
371.45	697.48
371.65	702.16
371.84	653.01
372.04	723.23
372.24	685.78
372.44	662.37
372.63	758.33
372.83	706.84
373.03	748.97
373.22	711.52
373.42	784.08
373.62	730.25
373.81	835.57
374.01	748.97
374.21	828.55
374.40	739.61
374.60	858.98
374.79	833.23
374.99	854.30
375.19	802.80
375.38	858.98
375.58	922.17
375.78	847.27
375.97	823.87
376.17	898.77
376.37	894.08
376.56	933.87
376.76	858.98
376.95	866.00
377.15	870.68
377.35	903.45
377.54	940.90
377.74	842.59
377.93	929.19
378.13	901.11
378.33	990.05
378.52	908.13
378.72	999.41
378.91	779.40
379.11	917.49
379.31	938.55
379.50	903.45
379.70	943.24
379.89	903.45
380.09	992.39
380.28	1057.92
380.48	987.71
380.68	973.66
380.87	978.34
381.07	994.73
381.26	1083.67
381.46	1081.33
381.65	957.28
381.85	1043.88
382.04	961.96
382.24	1022.81
382.43	1020.47
382.63	1011.11
382.83	1158.57
383.02	1069.62
383.22	1184.31
383.41	1025.15
383.61	1170.27
383.80	1160.91
384.00	1055.58
384.19	1109.41
384.39	1142.18
384.58	1121.12
384.78	1193.67
384.97	1172.61
385.17	1142.18
385.36	1167.93
385.56	1078.99
385.75	1069.62
385.95	1097.71
386.14	1200.69
386.34	1214.74
386.53	1207.72
386.72	1240.48
386.92	1366.87
387.11	1226.44
387.31	1273.25
387.50	1219.42
387.70	1263.89
387.89	1249.85
388.09	1207.72
388.28	1266.23
388.48	1294.32
388.67	1310.70
388.86	1366.87
389.06	1324.74
389.25	1362.19
389.45	1334.11
389.64	1385.60
389.84	1357.51
390.03	1390.28
390.22	1315.38
390.42	1427.73
390.61	1446.45
390.81	1413.68
391.00	1444.11
391.19	1383.26
391.39	1399.64
391.58	1481.56
391.78	1413.68
391.97	1397.30
392.16	1453.47
392.36	1547.09
392.55	1537.73
392.75	1603.27
392.94	1497.94
393.13	1561.14
393.33	1441.77
393.52	1486.24
393.71	1530.71
393.91	1551.78
394.10	1605.61
394.29	1589.22
394.49	1596.25
394.68	1640.72
394.88	1647.74
395.07	1696.89
395.26	1710.93
395.46	1598.59
395.65	1750.72
395.84	1710.93
396.04	1886.47
396.23	1757.74
396.42	1631.35
396.62	1853.70
396.81	1783.49
397.00	1750.72
397.19	1729.66
397.39	1750.72
397.58	1844.34
397.77	1755.40
397.97	1696.89
398.16	1851.36
398.35	1846.68
398.55	1919.24
398.74	1921.58
398.93	1919.24
399.12	1900.52
399.32	1916.90
399.51	1944.99
399.70	1973.07
399.90	1940.30
400.09	2031.58
400.28	2050.31
400.47	2183.72
400.67	2129.89
400.86	2033.93
401.05	2066.69
401.24	2047.97
401.44	2047.97
401.63	2176.70
401.82	2111.16
402.01	2104.14
402.21	2094.78
402.40	2169.68
402.59	2085.42
402.78	2211.81
402.97	2232.87
403.17	2223.51
403.36	2249.25
403.55	2333.51
403.74	2331.17
403.93	2389.69
404.13	2427.14
404.32	2363.94
404.51	2370.96
404.70	2312.45
404.89	2380.32
405.09	2361.60
405.28	2424.80
405.47	2431.82
405.66	2633.10
405.85	2562.89
406.05	2396.71
406.24	2546.50
406.43	2532.46
406.62	2567.57
406.81	2647.15
407.00	2682.25
407.20	2583.95
407.39	2679.91
407.58	2654.17
407.77	2672.89
407.96	2818.00
408.15	2740.77
408.34	2691.62
408.54	2747.79
408.73	2686.94
408.92	2853.11
409.11	2874.18
409.30	2951.42
409.49	2970.14
409.68	2904.60
409.87	2995.89
410.07	2949.08
410.26	2916.31
410.45	3068.44
410.64	3019.29
410.83	3155.04
411.02	3014.61
411.21	3150.36
411.40	3138.66
411.59	3176.11
411.78	3262.71
411.98	3241.64
412.17	3309.52
412.36	3407.82
412.55	3356.33
412.74	3414.84
412.93	3419.52
413.12	3269.73
413.31	3583.36
413.50	3485.06
413.69	3471.01
413.88	3761.24
414.07	3672.30
414.26	3623.15
414.45	3779.97
414.64	3616.13
414.83	3716.77
415.02	3728.47
415.22	3749.54
415.41	3805.71
415.60	3913.38
415.79	3887.63
415.98	4046.79
416.17	3957.85
416.36	4004.66
416.55	3967.21
416.74	4067.85
416.93	4037.42
417.12	4135.73
417.31	4212.96
417.50	4184.88
417.69	4196.58
417.88	4285.52
418.07	4175.52
418.26	4264.46
418.45	4397.87
418.64	4437.66
418.83	4491.49
419.02	4514.89
419.21	4477.44
419.39	4526.60
419.58	4561.70
419.77	4351.06
419.96	4566.39
420.15	4444.68
420.34	4657.67
420.53	4594.47
420.72	4798.10
420.91	4608.51
421.10	4819.16
421.29	4821.50
421.48	4779.37
421.67	4762.99
421.86	4762.99
422.05	4690.43
422.24	4823.84
422.43	4882.36
422.61	4821.50
422.80	4938.53
422.99	4983.00
423.18	4919.81
423.37	5050.88
423.56	5043.85
423.75	4994.70
423.94	4814.48
424.13	4617.88
424.32	4849.59
424.50	5022.79
424.69	4992.36
424.88	5116.41
425.07	4964.28
425.26	4940.87
425.45	4954.91
425.64	5128.11
425.83	4983.00
426.01	5088.32
426.20	5167.90
426.39	4931.51
426.58	4987.68
426.77	4875.34
426.96	5177.26
427.15	5032.15
427.33	5172.58
427.52	5261.52
427.71	5380.89
427.90	5139.82
428.09	5210.03
428.28	5509.62
428.46	5373.87
428.65	5305.99
428.84	5624.31
429.03	5624.31
429.22	5380.89
429.40	5535.37
429.59	5568.13
429.78	5303.65
429.97	5282.59
430.16	5565.79
430.34	5738.99
430.53	5556.43
430.72	5750.70
430.91	5713.25
431.10	5558.77
431.28	5710.91
431.47	5811.55
431.66	5973.05
431.85	5832.62
432.03	5966.03
432.22	6195.40
432.41	5968.37
432.60	6059.65
432.79	5923.90
432.97	6132.20
433.16	6076.03
433.35	6047.94
433.54	6029.22
433.72	6122.84
433.91	6059.65
434.10	6284.34
434.28	6171.99
434.47	6076.03
434.66	6303.06
434.85	6223.48
435.03	6375.62
435.22	6296.04
435.41	6593.29
435.59	6480.94
435.78	6382.64
435.97	6541.80
436.16	6307.74
436.34	6450.52
436.53	6427.11
436.72	6579.25
436.90	6551.16
437.09	6684.57
437.28	6366.26
437.46	6567.54
437.65	6656.48
437.84	6619.04
438.02	6707.98
438.21	6621.38
438.40	6722.02
438.58	6792.23
438.77	6956.07
438.96	7009.90
439.14	7232.26
439.33	7066.08
439.52	7192.47
439.70	7136.29
439.89	7360.98
440.08	7262.68
440.26	7456.95
440.45	7255.66
440.63	7550.57
440.82	7454.61
441.01	7382.05
441.19	7562.27
441.38	7559.93
441.57	7620.78
441.75	7730.79
441.94	7911.01
442.12	7791.64
442.31	8109.96
442.50	8100.59
442.68	7967.18
442.87	7913.35
443.05	7992.93
443.24	8168.47
443.43	8121.66
443.61	8287.84
443.80	8414.23
443.98	8182.51
444.17	7749.51
444.35	8255.07
444.54	8470.40
444.73	8278.47
444.91	8308.90
445.10	8397.84
445.28	8313.58
445.47	8444.65
445.65	8390.82
445.84	8468.06
446.02	8531.25
446.21	8439.97
446.39	8341.67
446.58	8489.12
446.77	8552.32
446.95	8205.92
447.14	8519.55
447.32	8652.96
447.51	8554.66
447.69	8507.85
447.88	8458.70
448.06	8610.83
448.25	8395.50
448.43	8723.18
448.62	8535.93
448.80	8585.08
448.99	8528.91
449.17	8762.97
449.36	8727.86
449.54	8798.07
449.73	9130.43
449.91	9146.81
450.10	8877.65
450.28	9158.52
450.46	9025.11
450.65	9100.00
450.83	9039.15
451.02	9081.28
451.20	9200.65
451.39	9413.63
451.57	9160.86
451.76	9207.67
451.94	9308.31
452.13	9359.80
452.31	9327.03
452.49	9425.34
452.68	9523.64
452.86	9507.26
453.05	9441.72
453.23	9430.02
453.42	9401.93
453.60	9324.69
453.78	9593.86
453.97	9404.27
454.15	9652.37
454.34	9626.62
454.52	9762.37
454.70	9479.17
454.89	9760.03
455.07	9788.12
455.26	9769.40
455.44	10083.03
455.62	10043.24
455.81	10045.58
455.99	9870.04
456.17	10153.24
456.36	10005.79
456.54	10225.80
456.73	10164.95
456.91	10438.79
457.09	10312.40
457.28	10633.05
457.46	10200.05
457.64	10478.58
457.83	10693.91
458.01	10485.60
458.19	10909.24
458.38	10562.84
458.56	10525.39
458.74	10548.79
458.93	10925.62
459.11	10913.92
459.29	10761.78
459.48	10810.93
459.66	10824.98
459.84	10974.77
460.03	11052.01
460.21	10904.56
460.39	10839.02
460.57	10979.45
460.76	11213.51
460.94	11325.85
461.12	11208.83
461.31	11274.36
461.49	11283.72
461.67	11150.31
461.85	11463.94
462.04	11321.17
462.22	11536.50
462.40	11674.59
462.59	11517.78
462.77	11508.41
462.95	11585.65
463.13	11522.46
463.32	11602.04
463.50	11932.05
463.68	11850.13
463.86	11948.43
464.05	11747.15
464.23	11625.44
464.41	11929.71
464.59	11580.97
464.78	12161.42
464.96	12152.06
465.14	11906.31
465.32	11969.50
465.50	12257.39
465.69	12198.87
465.87	12142.70
466.05	12250.36
466.23	12250.36
466.41	12311.22
466.60	12238.66
466.78	12156.74
466.96	12119.29
467.14	12505.48
467.32	12327.60
467.51	12802.73
467.69	12360.37
467.87	12358.03
468.05	12573.36
468.23	12442.29
468.41	12257.39
468.60	12559.31
468.78	12765.28
468.96	12613.15
469.14	12805.07
469.32	12870.61
469.50	12681.02
469.69	13043.81
469.87	13111.68
470.05	13156.15
470.23	13137.43
470.41	13099.98
470.59	13366.80
470.77	13137.43
470.95	13348.08
471.14	13521.27
471.32	13392.55
471.50	13893.42
471.68	13762.35
471.86	13884.06
472.04	13577.45
472.22	13956.61
472.40	13816.18
472.58	13870.01
472.77	13647.66
472.95	14167.26
473.13	14626.01
473.31	14202.37
473.49	14066.62
473.67	14193.01
473.85	14265.57
474.03	14541.75
474.21	14485.58
474.39	14717.29
474.57	14757.08
474.75	14909.21
474.93	15000.49
475.12	14904.53
475.30	15112.84
475.48	15094.11
475.66	15080.07
475.84	15178.37
476.02	15360.94
476.20	15510.73
476.38	15737.76
476.56	16119.27
476.74	16219.91
476.92	16004.58
477.10	15707.34
477.28	16159.06
477.46	16430.56
477.64	16542.91
477.82	16685.68
478.00	17099.95
478.18	17043.78
478.36	17043.78
478.54	17242.73
478.72	17132.72
478.90	17743.60
479.08	17862.97
479.26	17788.07
479.44	17699.13
479.62	18005.74
479.80	18263.20
479.98	18284.26
480.16	18881.10
480.34	18462.15
480.52	18745.35
480.70	18878.76
480.88	18216.39
481.06	18771.10
481.24	18782.80
481.41	19318.78
481.59	19506.02
481.77	19571.56
481.95	19700.29
482.13	19623.05
482.31	19711.99
482.49	20383.73
482.67	19946.05
482.85	20648.21
483.03	20758.21
483.21	20879.92
483.39	21158.44
483.57	20641.18
483.74	20929.07
483.92	21294.19
484.10	21170.15
484.28	21621.87
484.46	22125.08
484.64	22565.10
484.82	21905.07
485.00	22614.26
485.18	22930.23
485.35	22813.20
485.53	22876.40
485.71	22958.31
485.89	23449.83
486.07	23300.03
486.25	23531.75
486.43	23379.61
486.61	24034.96
486.78	24311.14
486.96	24313.48
487.14	24584.99
487.32	24666.91
487.50	24959.47
487.68	25074.16
487.85	25127.99
488.03	25214.59
488.21	26001.01
488.39	25612.48
488.57	26122.72
488.75	26445.71
488.92	26703.17
489.10	27112.77
489.28	27119.79
489.46	27557.47
489.64	26979.36
489.81	27906.21
489.99	27864.08
490.17	27974.08
490.35	28149.62
490.53	28411.76
490.70	28446.87
490.88	28254.95
491.06	28861.15
491.24	28961.79
491.41	29146.69
491.59	29427.56
491.77	29177.12
491.95	29961.20
492.13	29577.35
492.30	30064.18
492.48	29909.71
492.66	30120.35
492.84	30609.53
493.01	30754.64
493.19	30522.93
493.37	31021.46
493.54	31215.72
493.72	31290.62
493.90	31704.90
494.08	31866.39
494.25	31878.10
494.43	32297.05
494.61	32339.18
494.79	32687.92
494.96	32353.23
495.14	33237.95
495.32	33074.11
495.49	32833.04
495.67	33366.68
495.85	33457.96
496.02	34129.69
496.20	34225.65
496.38	33897.98
496.55	34347.36
496.73	34803.77
496.91	34909.09
497.09	34859.94
497.26	35342.09
497.44	35491.88
497.62	35379.54
497.79	35580.82
497.97	35426.35
498.14	35763.39
498.32	36161.28
498.50	36233.83
498.67	36816.63
498.85	36086.38
499.03	37193.45
499.20	37345.59
499.38	37319.84
499.56	37216.86
499.73	36950.04
499.91	37315.16
500.08	37710.71
500.26	37144.30
500.44	38113.28
500.61	38036.05
500.79	37621.77
500.97	38394.15
501.14	38595.43
501.32	38967.58
501.49	38831.83
501.67	38848.21
501.84	39168.87
502.02	39054.18
502.20	39138.44
502.37	39295.25
502.55	39428.66
502.72	39826.56
502.90	39934.22
503.07	39653.36
503.25	39711.87
503.43	40013.80
503.60	40367.22
503.78	40479.57
503.95	40229.13
504.13	40547.44
504.30	40769.79
504.48	40673.83
504.65	40844.69
504.83	41265.99
505.01	41294.07
505.18	41338.54
505.36	41715.37
505.53	41034.27
505.71	41621.75
505.88	42115.60
506.06	41752.82
506.23	42153.05
506.41	42326.25
506.58	42225.60
506.76	42614.13
506.93	42670.31
507.11	42628.18
507.28	42696.05
507.46	42962.87
507.63	43192.25
507.81	43143.09
507.98	42981.60
508.16	43374.81
508.33	43718.87
508.50	43817.17
508.68	43276.51
508.85	43955.26
509.03	43798.44
509.20	44186.97
509.38	44212.72
509.55	44369.54
509.73	44889.13
509.90	44919.56
510.08	44701.89
510.25	44807.22
510.42	44751.04
510.60	45223.83
510.77	45146.59
510.95	45825.35
511.12	45495.33
511.30	45174.68
511.47	45729.39
511.64	45469.59
511.82	45762.15
511.99	45909.61
512.17	46398.78
512.34	46021.95
512.51	46518.15
512.69	46476.02
512.86	46557.94
513.04	46789.65
513.21	46483.04
513.38	47042.43
513.56	46988.60
513.73	46689.01
513.90	47313.93
514.08	47112.64
514.25	47285.84
514.43	47608.84
514.60	47440.32
514.77	47412.23
514.95	47889.70
515.12	47660.33
515.29	47688.42
515.47	47995.03
515.64	48327.38
515.81	48126.10
515.99	48179.93
516.16	48591.86
516.33	48488.88
516.51	49003.80
516.68	48807.19
516.85	48704.21
517.03	48814.21
517.20	48875.07
517.37	49151.25
517.54	49066.99
517.72	48795.49
517.89	49027.20
518.06	49593.61
518.24	49399.35
518.41	49364.24
518.58	49565.52
518.75	49350.20
518.93	49975.12
519.10	49261.26
519.27	50138.96
519.45	50033.63
519.62	49715.32
519.79	50246.62
519.96	50396.42
520.14	50686.64
520.31	50005.55
520.48	50232.58
520.65	50665.58
520.83	50761.54
521.00	50806.01
521.17	50866.86
521.34	50712.39
521.52	51019.00
521.69	51079.85
521.86	51241.35
522.03	51332.63
522.20	51639.24
522.38	51358.38
522.55	51569.02
522.72	51475.40
522.89	51423.91
523.07	51611.15
523.24	51435.61
523.41	51985.64
523.58	51711.80
523.75	52154.16
523.92	51966.91
524.10	52271.18
524.27	52151.82
524.44	52004.36
524.61	51863.93
524.78	52334.38
524.96	52229.05
525.13	52481.83
525.30	52912.49
525.47	52619.92
525.64	52846.96
525.81	52601.20
525.98	52846.96
526.16	52816.53
526.33	52992.07
526.50	53013.13
526.67	52793.12
526.84	53298.68
527.01	52868.02
527.18	52971.00
527.36	52849.30
527.53	53139.52
527.70	53539.75
527.87	53265.91
528.04	53059.94
528.21	53375.92
528.38	53249.53
528.55	53663.80
528.72	53535.07
528.89	53616.99
529.07	53298.68
529.24	53633.38
529.41	53989.14
529.58	53914.24
529.75	53778.49
529.92	53736.36
530.09	54117.87
530.26	53893.18
530.43	54347.24
530.60	53951.69
530.77	53928.28
530.94	54197.44
531.11	53986.80
531.28	54309.79
531.46	54347.24
531.63	54288.73
531.80	54281.70
531.97	54585.97
532.14	54639.81
532.31	54454.90
532.48	54506.40
532.65	54869.18
532.82	54452.56
532.99	54831.73
533.16	54901.95
533.33	54892.58
533.50	55421.55
533.67	54906.63
533.84	54850.45
534.01	54948.76
534.18	55063.44
534.35	55461.33
534.52	55227.28
534.69	55283.45
534.86	55426.23
535.03	54880.88
535.20	55140.68
535.37	55402.82
535.54	55505.80
535.71	55199.19
535.88	55704.75
536.05	55547.93
536.22	55931.78
536.38	55496.44
536.55	55660.28
536.72	55576.02
536.89	55896.67
537.06	55648.58
537.23	56011.36
537.40	55760.92
537.57	55870.93
537.74	55803.05
537.91	56226.69
538.08	56210.31
538.25	55796.03
538.42	55941.14
538.59	56100.30
538.75	55922.42
538.92	56245.41
539.09	56219.67
539.26	56175.20
539.43	56062.85
539.60	56369.46
539.77	56397.55
539.94	56486.49
540.11	56481.81
540.28	56472.45
540.44	56594.15
540.61	56741.61
540.78	56537.98
540.95	56664.37
541.12	56456.06
541.29	56617.56
541.46	56458.40
541.62	56655.01
541.79	56823.53
541.96	56594.15
542.13	56804.80
542.30	56722.88
542.47	57104.39
542.63	56839.91
542.80	56853.95
542.97	57036.51
543.14	57116.09
543.31	57277.59
543.48	57382.91
543.64	57495.26
543.81	57401.64
543.98	57504.62
544.15	57446.11
544.32	57647.39
544.48	57860.38
544.65	57432.07
544.82	57436.75
544.99	57415.68
545.16	57488.24
545.32	57361.85
545.49	57836.98
545.66	57797.19
545.83	57769.10
546.00	57595.90
546.16	57705.91
546.33	57907.19
546.50	57570.16
546.67	57836.98
546.83	57661.44
547.00	57712.93
547.17	58099.12
547.34	57935.28
547.50	58028.90
547.67	58356.58
547.84	58075.71
548.00	58358.92
548.17	58258.27
548.34	58363.60
548.51	58246.57
548.67	58447.86
548.84	58209.12
549.01	58321.47
549.18	58239.55
549.34	58344.87
549.51	58501.69
549.68	58312.11
549.84	58333.17
550.01	58543.82
550.18	58298.06
550.34	58756.81
550.51	58873.84
550.68	58665.53
550.84	58351.90
551.01	58738.08
551.18	58618.72
551.34	58702.98
551.51	58637.44
551.68	58824.68
551.84	58557.86
552.01	58447.86
552.18	58920.65
552.34	58724.04
552.51	58866.81
552.68	58639.78
552.84	58768.51
553.01	59035.33
553.18	58897.24
553.34	59079.80
553.51	58780.21
553.67	58841.07
553.84	59082.14
554.01	59128.95
554.17	59021.29
554.34	59014.27
554.51	59208.53
554.67	59262.36
554.84	59135.98
555.00	59093.85
555.17	58934.69
555.33	59047.04
555.50	59302.15
555.67	59182.79
555.83	59194.49
556.00	59140.66
556.16	59409.82
556.33	59154.70
556.50	59353.65
556.66	59433.22
556.83	59004.91
556.99	59540.89
557.16	59650.89
557.32	59515.14
557.49	59753.88
557.65	59402.80
557.82	59320.88
557.98	59419.18
558.15	59531.53
558.32	59536.21
558.48	59566.63
558.65	59512.80
558.81	59606.42
558.98	59636.85
559.14	59880.27
559.31	59686.00
559.47	59732.81
559.64	59819.41
559.80	59959.84
559.97	59831.11
560.13	59697.70
560.30	59924.74
560.46	59681.32
560.63	59849.84
560.79	59964.52
560.96	59896.65
561.12	59856.86
561.29	59973.89
561.45	59990.27
561.61	59803.03
561.78	59779.62
561.94	59634.51
562.11	59957.50
562.27	59987.93
562.44	59994.95
562.60	60062.83
562.77	60310.92
562.93	59765.58
563.10	60287.52
563.26	59957.50
563.42	60259.43
563.59	60097.94
563.75	60390.50
563.92	60126.02
564.08	60278.16
564.24	60264.11
564.41	59999.63
564.57	60282.84
564.74	60308.58
564.90	60299.22
565.07	60130.70
565.23	60027.72
565.39	60182.19
565.56	60259.43
565.72	60163.47
565.88	60327.31
566.05	60221.98
566.21	60205.60
566.38	60308.58
566.54	60294.54
566.70	60561.36
566.87	60362.42
567.03	60322.63
567.19	60367.10
567.36	60577.75
567.52	60271.14
567.68	60654.98
567.85	60453.70
568.01	60505.19
568.17	60336.67
568.34	60434.97
568.50	60416.25
568.66	60360.08
568.83	60470.08
568.99	60608.17
569.15	60528.59
569.32	60664.35
569.48	60472.42
569.64	60591.79
569.81	60474.76
569.97	60427.95
570.13	60512.21
570.30	60437.31
570.46	60495.83
570.62	60727.54
570.78	60823.50
570.95	60580.09
571.11	60701.79
571.27	60479.44
571.43	60589.45
571.60	60739.24
571.76	60587.11
571.92	60671.37
572.09	60938.19
572.25	60654.98
572.41	60568.38
572.57	60743.92
572.74	60926.49
572.90	60594.13
573.06	60802.44
573.22	60659.66
573.38	60715.84
573.55	60659.66
573.71	60739.24
573.87	60945.21
574.03	60570.72
574.20	60800.10
574.36	60544.98
574.52	60722.86
574.68	60687.75
574.84	60926.49
575.01	60959.25
575.17	60797.76
575.33	60975.64
575.49	60680.73
575.65	60952.23
575.82	60828.18
575.98	60992.02
576.14	60872.65
576.30	60945.21
576.46	60867.97
576.62	60914.78
576.79	60877.33
576.95	60776.69
577.11	61043.51
577.27	60907.76
577.43	60977.98
577.59	60629.24
577.75	60942.87
577.92	60713.50
578.08	60872.65
578.24	60814.14
578.40	61020.11
578.56	61076.28
578.72	60992.02
578.88	61366.51
579.04	60914.78
579.21	60903.08
579.37	61125.43
579.53	61052.87
579.69	60755.63
579.85	61034.15
580.01	61027.13
580.17	60729.88
580.33	61165.22
580.49	60870.31
580.65	61008.40
580.82	60938.19
580.98	61127.77
581.14	60917.12
581.30	61146.50
581.46	60823.50
581.62	61174.58
581.78	61003.72
581.94	61050.53
582.10	60884.36
582.26	61017.77
582.42	60999.04
582.58	60757.97
582.74	61080.96
582.90	60989.68
583.06	61048.19
583.22	60830.52
583.38	61085.64
583.54	61085.64
583.70	60999.04
583.86	61237.78
584.02	60867.97
584.18	61052.87
584.34	60912.44
584.50	60977.98
584.66	60898.40
584.82	60917.12
584.98	61148.84
585.14	61160.54
585.30	61092.66
585.46	61298.63
585.62	60961.59
585.78	61312.67
585.94	60912.44
586.10	61207.35
586.26	61134.79
586.42	61078.62
586.58	61209.69
586.74	61226.07
586.90	61141.81
587.06	60898.40
587.22	61315.01
587.38	61073.94
587.54	61207.35
587.70	61357.14
587.86	61069.26
588.02	61092.66
588.18	61343.10
588.34	61085.64
588.49	61242.46
