SpectraSuite Data File
++++++++++++++++++++++++++++++++++++
Date: Fri Oct 25 10:47:34 EDT 2013
User: price-jones
Dark Spectrum Present: No
Reference Spectrum Present: No
Number of Sampled Component Spectra: 1
Spectrometers: USB2+H05261
Integration Time (usec): 100000 (USB2+H05261)
Spectra Averaged: 1 (USB2+H05261)
Boxcar Smoothing: 0 (USB2+H05261)
Correct for Electrical Dark: No (USB2+H05261)
Strobe/Lamp Enabled: No (USB2+H05261)
Correct for Detector Non-linearity: No (USB2+H05261)
Correct for Stray Light: No (USB2+H05261)
Number of Pixels in Processed Spectrum: 2048
>>>>>Begin Processed Spectral Data<<<<<
365.73	161.50
365.92	161.50
366.12	161.50
366.32	65.54
366.52	81.92
366.72	65.54
366.91	30.43
367.11	46.81
367.31	21.06
367.51	60.85
367.70	46.81
367.90	49.15
368.10	37.45
368.30	44.47
368.49	23.41
368.69	46.81
368.89	21.06
369.09	72.56
369.28	93.62
369.48	44.47
369.68	70.22
369.87	95.96
370.07	117.03
370.27	166.18
370.47	189.58
370.66	383.85
370.86	379.17
371.06	533.64
371.25	503.22
371.45	479.81
371.65	442.36
371.84	477.47
372.04	475.13
372.24	388.53
372.44	475.13
372.63	456.40
372.83	472.79
373.03	407.25
373.22	561.73
373.42	533.64
373.62	475.13
373.81	500.87
374.01	507.90
374.21	507.90
374.40	547.69
374.60	526.62
374.79	533.64
374.99	552.37
375.19	566.41
375.38	603.86
375.58	571.09
375.78	543.00
375.97	620.24
376.17	643.65
376.37	564.07
376.56	526.62
376.76	573.43
376.95	573.43
377.15	613.22
377.35	559.39
377.54	648.33
377.74	533.64
377.93	678.76
378.13	610.88
378.33	655.35
378.52	622.58
378.72	617.90
378.91	589.82
379.11	585.13
379.31	634.29
379.50	608.54
379.70	657.69
379.89	582.79
380.09	552.37
380.28	627.26
380.48	671.73
380.68	608.54
380.87	606.20
381.07	620.24
381.26	718.54
381.46	627.26
381.65	676.41
381.85	662.37
382.04	641.31
382.24	615.56
382.43	711.52
382.63	648.33
382.83	706.84
383.02	746.63
383.22	681.10
383.41	683.44
383.61	812.17
383.80	716.20
384.00	720.88
384.19	706.84
384.39	760.67
384.58	765.36
384.78	779.40
384.97	791.10
385.17	779.40
385.36	692.80
385.56	676.41
385.75	709.18
385.95	760.67
386.14	763.01
386.34	821.53
386.53	861.32
386.72	744.29
386.92	889.40
387.11	802.80
387.31	791.10
387.50	809.83
387.70	821.53
387.89	791.10
388.09	877.70
388.28	826.21
388.48	896.43
388.67	842.59
388.86	840.25
389.06	856.64
389.25	873.02
389.45	851.96
389.64	802.80
389.84	877.70
390.03	931.53
390.22	924.51
390.42	875.36
390.61	959.62
390.81	952.60
391.00	964.30
391.19	1022.81
391.39	929.19
391.58	1036.86
391.78	912.81
391.97	873.02
392.16	929.19
392.36	1011.11
392.55	968.98
392.75	938.55
392.94	903.45
393.13	990.05
393.33	1008.77
393.52	1088.35
393.71	978.34
393.91	1032.18
394.10	1022.81
394.29	1018.13
394.49	1057.92
394.68	1062.60
394.88	1029.84
395.07	1130.48
395.26	1090.69
395.46	1076.65
395.65	1064.94
395.84	1116.44
396.04	1167.93
396.23	1095.37
396.42	1001.75
396.62	1142.18
396.81	1153.88
397.00	1050.90
397.19	1214.74
397.39	1224.10
397.58	1224.10
397.77	1235.80
397.97	1165.59
398.16	1247.51
398.35	1100.05
398.55	1280.27
398.74	1273.25
398.93	1357.51
399.12	1355.17
399.32	1263.89
399.51	1437.09
399.70	1390.28
399.90	1378.58
400.09	1397.30
400.28	1352.83
400.47	1460.49
400.67	1493.26
400.86	1406.66
401.05	1511.99
401.24	1406.66
401.44	1455.81
401.63	1591.56
401.82	1472.20
402.01	1481.56
402.21	1558.80
402.40	1645.40
402.59	1589.22
402.78	1392.62
402.97	1465.18
403.17	1556.46
403.36	1586.88
403.55	1575.18
403.74	1516.67
403.93	1605.61
404.13	1610.29
404.32	1589.22
404.51	1617.31
404.70	1636.03
404.89	1584.54
405.09	1736.68
405.28	1708.59
405.47	1713.27
405.66	1769.44
405.85	1692.21
406.05	1713.27
406.24	1762.42
406.43	1757.74
406.62	1823.28
406.81	1863.07
407.00	1734.34
407.20	1909.88
407.39	1851.36
407.58	1867.75
407.77	1846.68
407.96	1966.05
408.15	1947.33
408.34	1834.98
408.54	2005.84
408.73	2083.08
408.92	2054.99
409.11	2047.97
409.30	2029.24
409.49	2001.16
409.68	2010.52
409.87	2045.63
410.07	2127.55
410.26	2073.71
410.45	2169.68
410.64	2146.27
410.83	2174.36
411.02	2099.46
411.21	2221.17
411.40	2188.40
411.59	2289.04
411.78	2223.51
411.98	2256.28
412.17	2251.60
412.36	2270.32
412.55	2345.22
412.74	2380.32
412.93	2296.07
413.12	2403.73
413.31	2497.35
413.50	2509.05
413.69	2476.29
413.88	2597.99
414.07	2691.62
414.26	2565.23
414.45	2682.25
414.64	2553.52
414.83	2605.02
415.02	2686.94
415.22	2754.81
415.41	2801.62
415.60	2682.25
415.79	2848.43
415.98	2874.18
416.17	2785.24
416.36	2792.26
416.55	2780.56
416.74	2810.98
416.93	2803.96
417.12	2918.65
417.31	2923.33
417.50	3122.27
417.69	3096.53
417.88	2937.37
418.07	2956.10
418.26	2998.23
418.45	3122.27
418.64	3276.75
418.83	3133.98
419.02	3019.29
419.21	3164.40
419.39	3190.15
419.58	3148.02
419.77	3096.53
419.96	3023.97
420.15	3183.13
420.34	3192.49
420.53	3265.05
420.72	3318.88
420.91	3412.50
421.10	3311.86
421.29	3290.79
421.48	3197.17
421.67	3311.86
421.86	3325.90
422.05	3372.71
422.24	3372.71
422.43	3431.23
422.61	3400.80
422.80	3353.99
422.99	3508.46
423.18	3414.84
423.37	3616.13
423.56	3424.20
423.75	3541.23
423.94	3440.59
424.13	3370.37
424.32	3290.79
424.50	3527.19
424.69	3466.33
424.88	3480.38
425.07	3550.59
425.26	3407.82
425.45	3494.42
425.64	3487.40
425.83	3522.51
426.01	3527.19
426.20	3581.02
426.39	3478.04
426.58	3487.40
426.77	3461.65
426.96	3543.57
427.15	3492.08
427.33	3616.13
427.52	3641.87
427.71	3651.24
427.90	3576.34
428.09	3667.62
428.28	3744.86
428.46	3824.44
428.65	3861.88
428.84	3801.03
429.03	3819.75
429.22	3693.37
429.40	3754.22
429.59	3810.39
429.78	3655.92
429.97	3611.45
430.16	3548.25
430.34	3733.15
430.53	3822.09
430.72	3641.87
430.91	3864.22
431.10	3892.31
431.28	4126.36
431.47	4093.60
431.66	4107.64
431.85	4067.85
432.03	4084.23
432.22	4182.54
432.41	4161.47
432.60	4222.33
432.79	4208.28
432.97	4283.18
433.16	4332.33
433.35	4250.41
433.54	4219.99
433.72	4280.84
433.91	4299.56
434.10	4241.05
434.28	4182.54
434.47	4175.52
434.66	4297.22
434.85	4475.10
435.03	4292.54
435.22	4238.71
435.41	4610.86
435.59	4514.89
435.78	4432.97
435.97	4514.89
436.16	4545.32
436.34	4561.70
436.53	4463.40
436.72	4545.32
436.90	4582.77
437.09	4507.87
437.28	4447.02
437.46	4664.69
437.65	4542.98
437.84	4809.80
438.02	4643.62
438.21	4622.56
438.40	4727.88
438.58	4739.58
438.77	4809.80
438.96	4884.70
439.14	4990.02
439.33	5041.51
439.52	5022.79
439.70	5088.32
439.89	5018.11
440.08	5114.07
440.26	5067.26
440.45	5097.69
440.63	5200.67
440.82	5301.31
441.01	5362.17
441.19	5327.06
441.38	5441.75
441.57	5247.48
441.75	5558.77
441.94	5612.60
442.12	5568.13
442.31	5696.86
442.50	5589.20
442.68	5547.07
442.87	5605.58
443.05	5607.92
443.24	5617.29
443.43	5547.07
443.61	5736.65
443.80	5860.70
443.98	5547.07
444.17	5392.59
444.35	5701.54
444.54	5764.74
444.73	5804.53
444.91	5675.80
445.10	5708.57
445.28	5621.97
445.47	5818.57
445.65	5757.72
445.84	5909.85
446.02	5919.21
446.21	5827.93
446.39	5799.85
446.58	5951.98
446.77	5947.30
446.95	5874.74
447.14	5933.26
447.32	6108.80
447.51	5834.96
447.69	5874.74
447.88	5989.43
448.06	5998.79
448.25	5837.30
448.43	6108.80
448.62	5989.43
448.80	5877.09
448.99	6094.76
449.17	6043.26
449.36	6005.81
449.54	6141.57
449.73	6216.46
449.91	6078.37
450.10	6296.04
450.28	6375.62
450.46	6331.15
450.65	6333.49
450.83	6235.19
451.02	6223.48
451.20	6490.31
451.39	6270.30
451.57	6506.69
451.76	6525.41
451.94	6504.35
452.13	6410.73
452.31	6403.71
452.49	6232.85
452.68	6509.03
452.86	6399.02
453.05	6457.54
453.23	6469.24
453.42	6410.73
453.60	6600.31
453.78	6595.63
453.97	6581.59
454.15	6530.09
454.34	6628.40
454.52	6719.68
454.70	6707.98
454.89	6551.16
455.07	6665.85
455.26	6745.42
455.44	6986.50
455.62	6827.34
455.81	6951.39
455.99	7042.67
456.17	6984.16
456.36	6869.47
456.54	6956.07
456.73	7026.29
456.91	7206.51
457.09	7148.00
457.28	7293.11
457.46	7063.74
457.64	7300.13
457.83	7145.66
458.01	6979.48
458.19	7316.51
458.38	7307.15
458.56	7290.77
458.74	7314.17
458.93	7405.46
459.11	7466.31
459.29	7349.28
459.48	7515.46
459.66	7372.69
459.84	7466.31
460.03	7562.27
460.21	7545.89
460.39	7501.42
460.57	7520.14
460.76	7578.65
460.94	7819.73
461.12	7602.06
461.31	7826.75
461.49	7632.49
461.67	7702.70
461.85	7873.56
462.04	7716.75
462.22	8294.86
462.40	7866.54
462.59	7873.56
462.77	7985.91
462.95	8032.72
463.13	7918.03
463.32	7843.14
463.50	7985.91
463.68	7981.23
463.86	8088.89
464.05	7934.42
464.23	7889.95
464.41	8091.23
464.59	7810.37
464.78	8344.01
464.96	8297.20
465.14	8245.71
465.32	8238.69
465.50	8273.79
465.69	8461.04
465.87	8168.47
466.05	8311.24
466.23	8131.02
466.41	8259.75
466.60	8250.39
466.78	8196.56
466.96	8180.17
467.14	8393.16
467.32	8549.98
467.51	8428.27
467.69	8418.91
467.87	8351.03
468.05	8613.17
468.23	8325.29
468.41	8456.36
468.60	8491.46
468.78	8468.06
468.96	8428.27
469.14	8538.27
469.32	8828.50
469.50	8528.91
469.69	8870.63
469.87	8758.28
470.05	8767.65
470.23	8819.14
470.41	8788.71
470.59	8975.95
470.77	8814.46
470.95	8908.08
471.14	9041.49
471.32	8964.25
471.50	9139.79
471.68	9205.33
471.86	9083.62
472.04	9254.48
472.22	9605.56
472.40	9062.55
472.58	9415.98
472.77	9282.56
472.95	9439.38
473.13	9870.04
473.31	9324.69
473.49	9451.08
473.67	9394.91
473.85	9811.53
474.03	9701.52
474.21	9715.56
474.39	9792.80
474.57	9790.46
474.75	9837.27
474.93	9921.53
475.12	9865.36
475.30	10169.63
475.48	10076.01
475.66	10211.76
475.84	10141.54
476.02	10256.23
476.20	10291.34
476.38	10525.39
476.56	10539.43
476.74	10560.50
476.92	10391.98
477.10	10560.50
477.28	10693.91
477.46	10773.49
477.64	11089.46
477.82	11250.96
478.00	11087.12
478.18	11232.23
478.36	11208.83
478.54	11272.02
478.72	11398.41
478.90	11538.84
479.08	11763.53
479.26	11735.45
479.44	11910.99
479.62	11775.24
479.80	11819.71
479.98	11910.99
480.16	12217.60
480.34	12360.37
480.52	12395.48
480.70	12222.28
480.88	12194.19
481.06	12620.17
481.24	12592.08
481.41	12641.23
481.59	13090.62
481.77	13057.85
481.95	13090.62
482.13	13123.38
482.31	12828.48
482.49	13525.96
482.67	13439.36
482.85	13617.24
483.03	13853.63
483.21	13645.32
483.39	14108.75
483.57	13774.05
483.74	14101.73
483.92	14211.73
484.10	14073.64
484.28	14272.59
484.46	14658.78
484.64	14640.05
484.82	14319.40
485.00	14675.16
485.18	15131.56
485.35	15087.09
485.53	14761.76
485.71	14904.53
485.89	15220.50
486.07	15365.62
486.25	15307.10
486.43	15236.89
486.61	15494.35
486.78	15903.94
486.96	15868.83
487.14	16264.38
487.32	15620.74
487.50	16245.66
487.68	16386.09
487.85	16554.61
488.03	16641.21
488.21	17106.98
488.39	16844.84
488.57	16978.25
488.75	17209.96
488.92	17334.01
489.10	17582.10
489.28	17528.27
489.46	17823.18
489.64	17886.37
489.81	18075.96
489.99	18443.42
490.17	18068.94
490.35	18675.13
490.53	18635.35
490.70	18469.17
490.88	18757.05
491.06	18726.63
491.24	18766.42
491.41	19225.16
491.59	19236.86
491.77	18672.79
491.95	19321.12
492.13	19178.35
492.30	20074.77
492.48	19644.12
492.66	19630.07
492.84	19908.60
493.01	20077.12
493.19	20187.12
493.37	20486.71
493.54	20297.13
493.72	20613.10
493.90	20594.37
494.08	20748.85
494.25	21060.14
494.43	21186.53
494.61	21411.22
494.79	21254.40
494.96	21301.22
495.14	21139.72
495.32	21647.61
495.49	21635.91
495.67	21500.16
495.85	22094.66
496.02	22031.46
496.20	22087.64
496.38	22415.31
496.55	22352.12
496.73	22794.48
496.91	22616.60
497.09	22621.28
497.26	22885.76
497.44	23070.66
497.62	22939.59
497.79	23218.11
497.97	23164.28
498.14	23410.04
498.32	23506.00
498.50	23709.63
498.67	23768.14
498.85	23660.48
499.03	24004.53
499.20	23922.62
499.38	24051.34
499.56	24159.01
499.73	24474.98
499.91	24056.03
500.08	24547.54
500.26	23995.17
500.44	24505.41
500.61	24540.52
500.79	24421.15
500.97	24800.32
501.14	25223.95
501.32	25188.85
501.49	24760.53
501.67	25029.69
501.84	24987.56
502.02	25727.17
502.20	25401.83
502.37	25488.43
502.55	25427.58
502.72	25715.47
502.90	25802.07
503.07	25652.27
503.25	25888.67
503.43	25661.63
503.60	26146.12
503.78	26171.87
503.95	26061.87
504.13	26036.12
504.30	26284.22
504.48	26368.48
504.65	26469.12
504.83	26691.47
505.01	26824.88
505.18	26885.73
505.36	27089.36
505.53	26918.50
505.71	27314.05
505.88	27311.71
506.06	26892.76
506.23	27133.83
506.41	27583.21
506.58	27253.20
506.76	27733.01
506.93	27873.44
507.11	27597.26
507.28	27786.84
507.46	28006.85
507.63	27641.73
507.81	27641.73
507.98	27955.36
508.16	27821.95
508.33	28163.67
508.50	28634.11
508.68	28369.63
508.85	28641.14
509.03	28556.88
509.20	28496.02
509.38	29081.16
509.55	28893.91
509.73	28559.22
509.90	28500.70
510.08	29170.10
510.25	29064.77
510.42	29317.55
510.60	29514.16
510.77	29287.12
510.95	29422.87
511.12	29385.43
511.30	29600.76
511.47	29795.02
511.64	29788.00
511.82	29902.68
511.99	29682.67
512.17	29682.67
512.34	29670.97
512.51	30223.34
512.69	30120.35
512.86	30267.81
513.04	30532.29
513.21	30422.28
513.38	30127.38
513.56	30471.43
513.73	30548.67
513.90	30583.78
514.08	30635.27
514.25	30609.53
514.43	30471.43
514.60	30925.50
514.77	30712.51
514.95	31122.10
515.12	31206.36
515.29	31030.82
515.47	31569.15
515.64	31225.09
515.81	31386.58
515.99	31395.95
516.16	31236.79
516.33	31548.08
516.51	31744.69
516.68	31580.85
516.85	31159.55
517.03	31885.12
517.20	31903.84
517.37	31775.11
517.54	32095.77
517.72	32229.18
517.89	32013.85
518.06	31498.93
518.24	31871.07
518.41	32105.13
518.58	32404.72
518.75	32498.34
518.93	32535.79
519.10	32608.34
519.27	32720.69
519.45	32526.42
519.62	32629.41
519.79	32858.78
519.96	33249.65
520.14	32732.39
520.31	33095.18
520.48	33256.67
520.65	32891.55
520.83	33390.08
521.00	33102.20
521.17	33703.71
521.34	33277.74
521.52	34000.96
521.69	33528.17
521.86	33912.02
522.03	33830.10
522.20	34256.08
522.38	34012.66
522.55	34064.16
522.72	33729.46
522.89	34223.31
523.07	33923.72
523.24	33811.38
523.41	34066.50
523.58	34267.78
523.75	34918.45
523.92	34787.38
524.10	34621.20
524.27	34745.25
524.44	34829.51
524.61	35213.36
524.78	34731.21
524.96	34969.94
525.13	35122.08
525.30	35475.50
525.47	35372.52
525.64	34991.01
525.81	35239.11
525.98	35182.93
526.16	35049.52
526.33	34920.79
526.50	35388.90
526.67	35189.95
526.84	35152.51
527.01	35033.14
527.18	35370.18
527.36	35344.43
527.53	35873.39
527.70	36161.28
527.87	35849.99
528.04	35599.55
528.21	36603.64
528.38	35845.30
528.55	36196.38
528.72	36119.15
528.89	36187.02
529.07	36685.56
529.24	36299.37
529.41	36072.34
529.58	36245.54
529.75	36091.06
529.92	36601.30
530.09	36299.37
530.26	36886.84
530.43	36676.19
530.60	36397.67
530.77	36830.67
530.94	36800.24
531.11	36788.54
531.28	36996.85
531.46	36959.40
531.63	37074.09
531.80	36945.36
531.97	37006.21
532.14	37017.91
532.31	36772.16
532.48	37038.98
532.65	37439.21
532.82	37418.14
532.99	38017.32
533.16	37493.04
533.33	37432.19
533.50	37872.21
533.67	37500.06
533.84	37549.21
534.01	37865.19
534.18	37811.35
534.35	38171.80
534.52	38108.60
534.69	37776.25
534.86	37841.78
535.03	37769.22
535.20	38068.81
535.37	37832.42
535.54	38478.41
535.71	38162.43
535.88	38469.04
536.05	38347.34
536.22	38347.34
536.38	38274.78
536.55	38319.25
536.72	38490.11
536.89	38204.56
537.06	38665.65
537.23	38628.20
537.40	38660.97
537.57	38796.72
537.74	38941.83
537.91	39016.73
538.08	39215.68
538.25	38857.57
538.42	38754.59
538.59	38972.26
538.75	38890.34
538.92	39192.27
539.09	39278.87
539.26	39299.94
539.43	39035.45
539.60	39281.21
539.77	39346.75
539.94	39220.36
540.11	38988.64
540.28	39384.19
540.44	39400.58
540.61	39206.31
540.78	39365.47
540.95	39564.42
541.12	39337.38
541.29	39346.75
541.46	39491.86
541.62	39545.69
541.79	39756.34
541.96	39599.52
542.13	39796.13
542.30	39728.25
542.47	39477.82
542.63	40058.27
542.80	39929.54
542.97	40519.35
543.14	40502.97
543.31	40435.10
543.48	40348.50
543.64	40868.09
543.81	40449.14
543.98	40395.31
544.15	40023.16
544.32	40540.42
544.48	40987.46
544.65	40444.46
544.82	40727.66
544.99	40135.51
545.16	40559.14
545.32	40566.16
545.49	40870.43
545.66	40947.67
545.83	40942.99
546.00	41069.38
546.16	40734.68
546.33	40865.75
546.50	40596.59
546.67	40900.86
546.83	40772.13
547.00	40488.93
547.17	40879.80
547.34	40598.93
547.50	41083.42
547.67	41158.32
547.84	41242.58
548.00	41584.30
548.17	41762.18
548.34	41366.63
548.51	40961.72
548.67	41441.53
548.84	41792.61
549.01	41715.37
549.18	41474.29
549.34	41497.70
549.51	41558.55
549.68	41720.05
549.84	41605.36
550.01	42019.64
550.18	41301.09
550.34	41596.00
550.51	41404.08
550.68	41816.01
550.84	41230.88
551.01	41652.17
551.18	41759.84
551.34	41914.31
551.51	42131.98
551.68	41743.45
551.84	41900.27
552.01	41860.48
552.18	42066.45
552.34	42010.28
552.51	42176.45
552.68	42373.06
552.84	41825.37
553.01	42391.78
553.18	42450.30
553.34	42110.92
553.51	42218.58
553.67	42394.12
553.84	42548.60
554.01	42485.40
554.17	42745.20
554.34	43016.71
554.51	42829.46
554.67	42719.46
554.84	42946.49
555.00	42649.24
555.17	42691.37
555.33	42759.25
555.50	42398.80
555.67	42930.11
555.83	42972.24
556.00	43023.73
556.16	43028.41
556.33	42871.59
556.50	42705.41
556.66	43051.81
556.83	42422.21
556.99	43007.34
557.16	43271.82
557.32	43278.85
557.49	42981.60
557.65	43201.61
557.82	42969.90
557.98	42726.48
558.15	42595.41
558.32	42986.28
558.48	43063.52
558.65	43278.85
558.81	42883.30
558.98	43470.77
559.14	43154.80
559.31	43105.65
559.47	43077.56
559.64	43374.81
559.80	43391.19
559.97	43454.39
560.13	43323.32
560.30	43157.14
560.46	43288.21
560.63	43370.13
560.79	43498.86
560.96	43281.19
561.12	43171.18
561.29	43283.53
561.45	43257.78
561.61	43428.64
561.78	43365.45
561.94	43416.94
562.11	43674.40
562.27	43225.01
562.44	43374.81
562.60	43955.26
562.77	43718.87
562.93	43693.12
563.10	43428.64
563.26	43384.17
563.42	43683.76
563.59	43622.90
563.75	43604.18
563.92	44133.14
564.08	44039.52
564.24	44165.91
564.41	44142.50
564.57	43988.03
564.74	43695.46
564.90	43562.05
565.07	44079.31
565.23	43683.76
565.39	43833.55
565.56	43796.10
565.72	43990.37
565.88	43721.21
566.05	44140.16
566.21	43821.85
566.38	43693.12
566.54	43580.78
566.70	44163.57
566.87	44533.37
567.03	43997.39
567.19	44215.06
567.36	44069.95
567.52	44016.11
567.68	44170.59
567.85	43929.51
568.01	44086.33
568.17	43892.07
568.34	43885.04
568.50	43618.22
568.66	43686.10
568.83	44119.10
568.99	43807.81
569.15	43681.42
569.32	43973.98
569.48	44222.08
569.64	43995.05
569.81	44500.61
569.97	44086.33
570.13	44102.71
570.30	43868.66
570.46	43707.16
570.62	43868.66
570.78	43966.96
570.95	43737.59
571.11	43927.17
571.27	44135.48
571.43	44247.83
571.60	44268.89
571.76	44013.77
571.92	44133.14
572.09	44133.14
572.25	43784.40
572.41	44231.44
572.57	44421.03
572.74	44966.37
572.90	44189.31
573.06	43931.86
573.22	44442.09
573.38	44147.18
573.55	43707.16
573.71	44205.70
573.87	44456.14
574.03	43697.80
574.20	44360.17
574.36	44226.76
574.52	44170.59
574.68	44638.70
574.84	44603.59
575.01	44189.31
575.17	44467.84
575.33	44334.43
575.49	44390.60
575.65	44355.49
575.82	44477.20
575.98	44348.47
576.14	44928.92
576.30	44376.56
576.46	44257.19
576.62	44233.78
576.79	44512.31
576.95	43931.86
577.11	44418.69
577.27	44453.79
577.43	44577.84
577.59	44729.98
577.75	44896.16
577.92	44191.65
578.08	43936.54
578.24	44601.25
578.40	44126.12
578.56	44376.56
578.72	44626.99
578.88	44360.17
579.04	44261.87
579.21	44561.46
579.37	44289.96
579.53	44250.17
579.69	44062.93
579.85	44481.88
580.01	44516.99
580.17	44514.65
580.33	44554.44
580.49	44718.28
580.65	44601.25
580.82	44376.56
580.98	44329.75
581.14	43875.68
581.30	44500.61
581.46	44493.58
581.62	44847.00
581.78	44282.94
581.94	45223.83
582.10	44725.30
582.26	44495.92
582.42	44252.51
582.58	44573.16
582.74	44414.01
582.90	44673.81
583.06	44659.76
583.22	44926.58
583.38	44481.88
583.54	44685.51
583.70	44404.64
583.86	44198.68
584.02	43903.77
584.18	44236.12
584.34	44622.31
584.50	44641.04
584.66	44371.88
584.82	44500.61
584.98	44964.03
585.14	44788.49
585.30	44266.55
585.46	44589.55
585.62	44458.48
585.78	44465.50
585.94	44336.77
586.10	44514.65
586.26	44182.29
586.42	44760.40
586.58	44458.48
586.74	44587.21
586.90	44348.47
587.06	44123.78
587.22	44919.56
587.38	44247.83
587.54	45158.30
587.70	45226.17
587.86	44547.42
588.02	44737.00
588.18	45106.80
588.34	44678.49
588.49	44449.11
588.65	44479.54
588.81	44568.48
588.97	44414.01
589.13	44083.99
589.29	44465.50
589.45	44809.56
589.61	44474.86
589.77	45043.61
589.93	44863.39
590.08	45216.81
590.24	44996.80
