SpectraSuite Data File
++++++++++++++++++++++++++++++++++++
Date: Fri Oct 25 10:47:37 EDT 2013
User: price-jones
Dark Spectrum Present: No
Reference Spectrum Present: No
Number of Sampled Component Spectra: 1
Spectrometers: USB2+H05261
Integration Time (usec): 100000 (USB2+H05261)
Spectra Averaged: 1 (USB2+H05261)
Boxcar Smoothing: 0 (USB2+H05261)
Correct for Electrical Dark: No (USB2+H05261)
Strobe/Lamp Enabled: No (USB2+H05261)
Correct for Detector Non-linearity: No (USB2+H05261)
Correct for Stray Light: No (USB2+H05261)
Number of Pixels in Processed Spectrum: 2048
>>>>>Begin Processed Spectral Data<<<<<
365.73	208.31
365.92	208.31
366.12	208.31
366.32	124.05
366.52	0.00
366.72	102.98
366.91	51.49
367.11	74.90
367.31	0.00
367.51	74.90
367.70	11.70
367.90	88.94
368.10	81.92
368.30	39.79
368.49	46.81
368.69	35.11
368.89	56.17
369.09	65.54
369.28	79.58
369.48	42.13
369.68	93.62
369.87	100.64
370.07	44.47
370.27	126.39
370.47	227.03
370.66	332.36
370.86	341.72
371.06	365.12
371.25	507.90
371.45	491.51
371.65	503.22
371.84	430.66
372.04	444.70
372.24	451.72
372.44	505.56
372.63	477.47
372.83	503.22
373.03	571.09
373.22	477.47
373.42	500.87
373.62	561.73
373.81	547.69
374.01	610.88
374.21	592.16
374.40	500.87
374.60	517.26
374.79	505.56
374.99	571.09
375.19	622.58
375.38	573.43
375.58	547.69
375.78	564.07
375.97	559.39
376.17	608.54
376.37	561.73
376.56	624.92
376.76	519.60
376.95	613.22
377.15	613.22
377.35	629.60
377.54	521.94
377.74	601.52
377.93	706.84
378.13	641.31
378.33	648.33
378.52	653.01
378.72	739.61
378.91	716.20
379.11	664.71
379.31	627.26
379.50	610.88
379.70	587.47
379.89	718.54
380.09	636.63
380.28	638.97
380.48	711.52
380.68	617.90
380.87	674.07
381.07	648.33
381.26	657.69
381.46	683.44
381.65	650.67
381.85	671.73
382.04	706.84
382.24	674.07
382.43	674.07
382.63	748.97
382.83	716.20
383.02	702.16
383.22	706.84
383.41	692.80
383.61	683.44
383.80	791.10
384.00	791.10
384.19	786.42
384.39	793.44
384.58	753.65
384.78	784.08
384.97	844.93
385.17	657.69
385.36	816.85
385.56	770.04
385.75	767.70
385.95	758.33
386.14	835.57
386.34	861.32
386.53	786.42
386.72	837.91
386.92	812.17
387.11	821.53
387.31	812.17
387.50	830.89
387.70	849.61
387.89	755.99
388.09	812.17
388.28	858.98
388.48	837.91
388.67	875.36
388.86	851.96
389.06	819.19
389.25	894.08
389.45	891.74
389.64	861.32
389.84	992.39
390.03	954.94
390.22	938.55
390.42	870.68
390.61	863.66
390.81	968.98
391.00	884.72
391.19	1039.20
391.39	990.05
391.58	966.64
391.78	966.64
391.97	968.98
392.16	912.81
392.36	954.94
392.55	1060.26
392.75	959.62
392.94	917.49
393.13	961.96
393.33	966.64
393.52	1048.56
393.71	1069.62
393.91	1132.82
394.10	1029.84
394.29	1111.75
394.49	1090.69
394.68	1137.50
394.88	1125.80
395.07	1160.91
395.26	1158.57
395.46	1123.46
395.65	1200.69
395.84	1107.07
396.04	1219.42
396.23	1125.80
396.42	1181.97
396.62	1186.65
396.81	1196.01
397.00	1179.63
397.19	1165.59
397.39	1191.33
397.58	1275.59
397.77	1320.06
397.97	1329.42
398.16	1247.51
398.35	1334.11
398.55	1357.51
398.74	1315.38
398.93	1343.47
399.12	1320.06
399.32	1343.47
399.51	1308.36
399.70	1448.79
399.90	1383.26
400.09	1430.07
400.28	1383.26
400.47	1392.62
400.67	1453.47
400.86	1439.43
401.05	1507.30
401.24	1465.18
401.44	1369.21
401.63	1596.25
401.82	1535.39
402.01	1509.65
402.21	1586.88
402.40	1582.20
402.59	1563.48
402.78	1521.35
402.97	1633.69
403.17	1591.56
403.36	1624.33
403.55	1593.90
403.74	1701.57
403.93	1743.70
404.13	1589.22
404.32	1685.19
404.51	1771.79
404.70	1790.51
404.89	1771.79
405.09	1818.60
405.28	1776.47
405.47	1813.92
405.66	1724.97
405.85	1729.66
406.05	1771.79
406.24	1727.32
406.43	1830.30
406.62	1799.87
406.81	1921.58
407.00	1853.70
407.20	1858.39
407.39	1944.99
407.58	1923.92
407.77	1980.09
407.96	1928.60
408.15	2031.58
408.34	1954.35
408.54	2099.46
408.73	2022.22
408.92	2204.78
409.11	2015.20
409.30	2040.95
409.49	2043.29
409.68	2059.67
409.87	2083.08
410.07	2190.74
410.26	2064.35
410.45	2209.47
410.64	2204.78
410.83	2232.87
411.02	2228.19
411.21	2370.96
411.40	2169.68
411.59	2298.41
411.78	2356.92
411.98	2403.73
412.17	2537.14
412.36	2354.58
412.55	2408.41
412.74	2516.08
412.93	2513.74
413.12	2443.52
413.31	2605.02
413.50	2497.35
413.69	2506.71
413.88	2626.08
414.07	2609.70
414.26	2696.30
414.45	2651.83
414.64	2658.85
414.83	2745.45
415.02	2841.41
415.22	2815.66
415.41	2794.60
415.60	2761.83
415.79	2860.13
415.98	2885.88
416.17	2937.37
416.36	2965.46
416.55	3019.29
416.74	2977.16
416.93	2904.60
417.12	2967.80
417.31	2965.46
417.50	2974.82
417.69	3148.02
417.88	3173.77
418.07	3098.87
418.26	3084.83
418.45	3166.74
418.64	3393.78
418.83	3307.18
419.02	3283.77
419.21	3279.09
419.39	3279.09
419.58	3314.20
419.77	3180.79
419.96	3424.20
420.15	3375.05
420.34	3300.16
420.53	3405.48
420.72	3466.33
420.91	3489.74
421.10	3487.40
421.29	3445.27
421.48	3454.63
421.67	3506.12
421.86	3463.99
422.05	3414.84
422.24	3410.16
422.43	3555.27
422.61	3527.19
422.80	3609.11
422.99	3536.55
423.18	3590.38
423.37	3576.34
423.56	3435.91
423.75	3634.85
423.94	3438.25
424.13	3356.33
424.32	3527.19
424.50	3548.25
424.69	3548.25
424.88	3772.94
425.07	3672.30
425.26	3555.27
425.45	3597.40
425.64	3496.76
425.83	3548.25
426.01	3655.92
426.20	3712.09
426.39	3616.13
426.58	3676.98
426.77	3531.87
426.96	3550.59
427.15	3658.26
427.33	3564.64
427.52	3625.49
427.71	3838.48
427.90	3749.54
428.09	3836.14
428.28	3875.93
428.46	3932.10
428.65	3754.22
428.84	3985.93
429.03	3971.89
429.22	3861.88
429.40	3908.69
429.59	3786.99
429.78	3747.20
429.97	3751.88
430.16	3693.37
430.34	3875.93
430.53	3794.01
430.72	3904.01
430.91	3939.12
431.10	3950.82
431.28	4198.92
431.47	4147.43
431.66	4234.03
431.85	4201.26
432.03	4109.98
432.22	4266.80
432.41	4248.07
432.60	4304.25
432.79	4212.96
432.97	4393.19
433.16	4327.65
433.35	4411.91
433.54	4306.59
433.72	4320.63
433.91	4372.12
434.10	4292.54
434.28	4372.12
434.47	4533.62
434.66	4545.32
434.85	4526.60
435.03	4447.02
435.22	4372.12
435.41	4667.03
435.59	4678.73
435.78	4692.77
435.97	4704.48
436.16	4652.98
436.34	4669.37
436.53	4777.03
436.72	4819.16
436.90	4472.76
437.09	4767.67
437.28	4660.01
437.46	4772.35
437.65	4779.37
437.84	4739.58
438.02	4737.24
438.21	4880.02
438.40	4802.78
438.58	4873.00
438.77	4901.08
438.96	5015.77
439.14	5036.83
439.33	5088.32
439.52	5165.56
439.70	5060.24
439.89	5093.01
440.08	5153.86
440.26	5270.89
440.45	5118.75
440.63	5268.55
440.82	5301.31
441.01	5322.38
441.19	5460.47
441.38	5666.44
441.57	5621.97
441.75	5584.52
441.94	5657.07
442.12	5643.03
442.31	5776.44
442.50	5661.76
442.68	5816.23
442.87	5849.00
443.05	5788.14
443.24	5776.44
443.43	5823.25
443.61	5970.71
443.80	6125.18
443.98	5891.13
444.17	5645.37
444.35	5898.15
444.54	6244.55
444.73	5909.85
444.91	5837.30
445.10	5982.41
445.28	5916.87
445.47	5769.42
445.65	5832.62
445.84	5860.70
446.02	5994.11
446.21	6026.88
446.39	6047.94
446.58	6019.86
446.77	6057.31
446.95	5996.45
447.14	6031.56
447.32	6064.33
447.51	6083.05
447.69	6017.52
447.88	6176.67
448.06	5959.00
448.25	6106.46
448.43	6450.52
448.62	6122.84
448.80	6101.78
448.99	6282.00
449.17	6274.98
449.36	6155.61
449.54	6279.66
449.73	6492.65
449.91	6338.17
450.10	6429.45
450.28	6590.95
450.46	6424.77
450.65	6389.66
450.83	6527.75
451.02	6616.69
451.20	6438.81
451.39	6530.09
451.57	6422.43
451.76	6506.69
451.94	6558.18
452.13	6635.42
452.31	6693.93
452.49	6586.27
452.68	6640.10
452.86	6523.07
453.05	6675.21
453.23	6637.76
453.42	6621.38
453.60	6782.87
453.78	6878.83
453.97	6553.50
454.15	6808.62
454.34	6792.23
454.52	6906.92
454.70	6862.45
454.89	6967.77
455.07	6958.41
455.26	6958.41
455.44	7059.06
455.62	7000.54
455.81	7136.29
455.99	7045.01
456.17	7150.34
456.36	7178.42
456.54	7169.06
456.73	7052.03
456.91	7538.87
457.09	7571.63
457.28	7527.16
457.46	7183.10
457.64	7311.83
457.83	7543.55
458.01	7541.21
458.19	7513.12
458.38	7501.42
458.56	7482.69
458.74	7405.46
458.93	7459.29
459.11	7641.85
459.29	7463.97
459.48	7770.58
459.66	7578.65
459.84	7782.28
460.03	7662.91
460.21	7819.73
460.39	7733.13
460.57	7838.45
460.76	7534.18
460.94	7798.66
461.12	7932.08
461.31	7981.23
461.49	7896.97
461.67	7988.25
461.85	8051.44
462.04	7866.54
462.22	8571.04
462.40	8067.83
462.59	8355.71
462.77	8081.87
462.95	8173.15
463.13	8308.90
463.32	8276.13
463.50	8273.79
463.68	8100.59
463.86	8446.99
464.05	8140.38
464.23	8236.35
464.41	8332.31
464.59	8198.90
464.78	8451.67
464.96	8346.35
465.14	8322.94
465.32	8409.54
465.50	8636.58
465.69	8514.87
465.87	8458.70
466.05	8219.96
466.23	8334.65
466.41	8407.20
466.60	8681.05
466.78	8596.79
466.96	8512.53
467.14	8411.89
467.32	8475.08
467.51	8856.59
467.69	8554.66
467.87	8723.18
468.05	8842.54
468.23	8730.20
468.41	8596.79
468.60	8659.98
468.78	8793.39
468.96	8627.21
469.14	8692.75
469.32	8922.12
469.50	8777.01
469.69	8929.14
469.87	9085.96
470.05	9060.21
470.23	9118.73
470.41	8968.93
470.59	9090.64
470.77	8952.55
470.95	9202.99
471.14	9275.54
471.32	9109.36
471.50	9525.98
471.68	9425.34
471.86	9504.92
472.04	9654.71
472.22	9598.54
472.40	9682.80
472.58	9521.30
472.77	9631.30
472.95	9823.23
473.13	9865.36
473.31	9717.90
473.49	9776.42
473.67	9809.19
473.85	9937.91
474.03	10134.52
474.21	10169.63
474.39	9991.75
474.57	10003.45
474.75	10038.56
474.93	10457.51
475.12	10143.88
475.30	10396.66
475.48	10401.34
475.66	10368.57
475.84	10251.55
476.02	10466.88
476.20	10511.35
476.38	10778.17
476.56	10927.96
476.74	11192.44
476.92	10911.58
477.10	10967.75
477.28	10916.26
477.46	11279.04
477.64	11248.61
477.82	11365.64
478.00	11585.65
478.18	11571.61
478.36	11705.02
478.54	11564.59
478.72	11569.27
478.90	11918.01
479.08	11777.58
479.26	12191.85
479.44	12166.10
479.62	12182.49
479.80	12379.09
479.98	12393.14
480.16	12575.70
480.34	12444.63
480.52	12496.12
480.70	12685.70
480.88	12482.08
481.06	12762.94
481.24	12774.64
481.41	12919.76
481.59	13259.13
481.77	13099.98
481.95	13327.01
482.13	13362.12
482.31	13540.00
482.49	13916.83
482.67	13668.73
482.85	13991.72
483.03	14061.94
483.21	14228.12
483.39	14164.92
483.57	14265.57
483.74	14413.02
483.92	14413.02
484.10	14471.53
484.28	14796.87
484.46	15009.86
484.64	14827.29
484.82	14906.87
485.00	14951.34
485.18	15229.87
485.35	15639.46
485.53	15012.20
485.71	15349.23
485.89	15342.21
486.07	15442.85
486.25	15943.73
486.43	15765.85
486.61	16053.73
486.78	16123.95
486.96	16374.39
487.14	16526.52
487.32	16336.94
487.50	16781.64
487.68	16931.44
487.85	17200.60
488.03	17216.98
488.21	17228.68
488.39	17289.54
488.57	17605.51
488.75	17446.35
488.92	17933.18
489.10	17764.67
489.28	18197.67
489.46	18405.97
489.64	18127.45
489.81	18773.44
489.99	18565.13
490.17	18750.03
490.35	18792.16
490.53	18696.20
490.70	18841.31
490.88	18925.57
491.06	19367.93
491.24	19325.80
491.41	19356.23
491.59	19477.94
491.77	19499.00
491.95	19814.98
492.13	19878.17
492.30	20135.63
492.48	19978.81
492.66	20339.26
492.84	20266.70
493.01	20517.14
493.19	20376.70
493.37	20547.56
493.54	20622.46
493.72	21043.76
493.90	21153.76
494.08	21088.23
494.25	21673.36
494.43	21462.71
494.61	21745.92
494.79	21893.37
494.96	21949.54
495.14	21989.33
495.32	22068.91
495.49	21961.25
495.67	22340.41
495.85	22281.90
496.02	22632.98
496.20	22569.79
496.38	22970.02
496.55	22852.99
496.73	23463.87
496.91	22881.08
497.09	23215.77
497.26	23445.15
497.44	23353.87
497.62	23356.21
497.79	23520.04
497.97	23255.56
498.14	23962.40
498.32	23866.44
498.50	24011.56
498.67	23988.15
498.85	24053.69
499.03	24437.53
499.20	24797.98
499.38	24584.99
499.56	24823.72
499.73	24898.62
499.91	24748.82
500.08	24940.75
500.26	25067.14
500.44	25118.63
500.61	24971.18
500.79	24945.43
500.97	25188.85
501.14	25490.77
501.32	25795.04
501.49	26047.82
501.67	25757.60
501.84	25935.48
502.02	25935.48
502.20	26033.78
502.37	26153.15
502.55	26108.68
502.72	26103.99
502.90	26436.35
503.07	26448.05
503.25	26497.20
503.43	26452.73
503.60	26579.12
503.78	26869.35
503.95	26705.51
504.13	26611.89
504.30	26995.74
504.48	26820.20
504.65	27117.45
504.83	27260.22
505.01	27562.15
505.18	27634.71
505.36	27213.41
505.53	27484.91
505.71	27653.43
505.88	27765.78
506.06	27332.78
506.23	27683.86
506.41	27686.20
506.58	27810.25
506.76	27590.24
506.93	28151.96
507.11	28107.49
507.28	28175.37
507.46	28142.60
507.63	28336.87
507.81	28800.29
507.98	28170.69
508.16	28627.09
508.33	28711.35
508.50	29109.24
508.68	28868.17
508.85	29404.15
509.03	29104.56
509.20	29170.10
509.38	29125.63
509.55	29504.79
509.73	29336.27
509.90	29591.39
510.08	29369.04
510.25	29820.77
510.42	29713.10
510.60	29359.68
510.77	29874.60
510.95	30118.01
511.12	30143.76
511.30	30108.65
511.47	30426.96
511.64	30410.58
511.82	30677.40
511.99	30237.38
512.17	30471.43
512.34	30539.31
512.51	30600.16
512.69	31295.30
512.86	30543.99
513.04	30895.07
513.21	30852.94
513.38	31281.26
513.56	31349.14
513.73	30862.30
513.90	30878.69
514.08	31346.79
514.25	31344.45
514.43	31475.52
514.60	31508.29
514.77	31662.77
514.95	31377.22
515.12	31824.26
515.29	31681.49
515.47	32243.22
515.64	31894.48
515.81	31686.17
515.99	31779.79
516.16	31983.42
516.33	31924.91
516.51	32294.71
516.68	31646.38
516.85	31807.88
517.03	32114.49
517.20	32301.73
517.37	32479.61
517.54	32931.34
517.72	32488.98
517.89	32603.66
518.06	32467.91
518.24	32573.24
518.41	32400.04
518.58	32858.78
518.75	32788.56
518.93	32814.31
519.10	32973.47
519.27	33544.56
519.45	33015.60
519.62	33537.54
519.79	33270.72
519.96	33656.90
520.14	33495.41
520.31	33738.82
520.48	33490.73
520.65	33666.27
520.83	34061.82
521.00	34054.79
521.17	34101.61
521.34	34057.14
521.52	34127.35
521.69	34029.05
521.86	34384.81
522.03	34478.43
522.20	34459.71
522.38	34644.61
522.55	34483.11
522.72	34274.80
522.89	34782.70
523.07	34546.31
523.24	34796.74
523.41	35138.46
523.58	34705.46
523.75	35204.00
523.92	35264.85
524.10	35250.81
524.27	35030.80
524.44	35159.53
524.61	35627.63
524.78	35882.75
524.96	35653.38
525.13	35702.53
525.30	35875.73
525.47	36088.72
525.64	35821.90
525.81	36067.66
525.98	35634.66
526.16	35627.63
526.33	35608.91
526.50	36505.34
526.67	35573.80
526.84	36009.14
527.01	35889.77
527.18	36121.49
527.36	36322.77
527.53	36477.25
527.70	36570.87
527.87	36416.40
528.04	36390.65
528.21	36563.85
528.38	36187.02
528.55	36517.04
528.72	36451.50
528.89	37266.01
529.07	36720.66
529.24	36591.94
529.41	36835.35
529.58	36657.47
529.75	37160.69
529.92	36737.05
530.09	37378.36
530.26	36978.12
530.43	37589.00
530.60	36921.95
530.77	37221.54
530.94	37895.61
531.11	37399.42
531.28	37727.10
531.46	37518.79
531.63	37972.85
531.80	37495.38
531.97	37797.31
532.14	37373.67
532.31	37202.82
532.48	37869.87
532.65	37801.99
532.82	37567.94
532.99	38115.62
533.16	37706.03
533.33	37947.11
533.50	38075.84
533.67	38256.06
533.84	38139.03
534.01	38298.19
534.18	38384.79
534.35	38696.08
534.52	38192.86
534.69	37890.93
534.86	38693.74
535.03	38813.10
535.20	38539.26
535.37	38698.42
535.54	39047.16
535.71	38703.10
535.88	38541.60
536.05	38527.56
536.22	38756.93
536.38	39351.43
536.55	39105.67
536.72	39051.84
536.89	39049.50
537.06	39264.83
537.23	39054.18
537.40	39037.80
537.57	39037.80
537.74	39337.38
537.91	39129.08
538.08	39578.46
538.25	39030.77
538.42	39131.42
538.59	39400.58
538.75	39213.34
538.92	39203.97
539.09	39824.22
539.26	39257.81
539.43	39398.24
539.60	39541.01
539.77	39597.18
539.94	39887.41
540.11	39564.42
540.28	39669.74
540.44	39690.80
540.61	39948.26
540.78	39894.43
540.95	40254.87
541.12	39803.15
541.29	39934.22
541.46	40067.63
541.62	40168.27
541.79	40332.11
541.96	39555.05
542.13	39903.79
542.30	40411.69
542.47	40297.00
542.63	40343.81
542.80	40231.47
542.97	40884.48
543.14	40978.10
543.31	40814.26
543.48	40978.10
543.64	41764.52
543.81	41024.91
543.98	41095.13
544.15	40720.64
544.32	41310.46
544.48	41233.22
544.65	40992.14
544.82	41008.53
544.99	41006.19
545.16	41226.20
545.32	41371.31
545.49	41270.67
545.66	41558.55
545.83	41579.62
546.00	41694.30
546.16	40957.03
546.33	41638.13
546.50	41078.74
546.67	41216.83
546.83	41308.11
547.00	41478.97
547.17	41537.49
547.34	41432.16
547.50	41734.09
547.67	41750.48
547.84	41720.05
548.00	41673.24
548.17	42307.52
548.34	42157.73
548.51	42457.32
548.67	41816.01
548.84	42134.32
549.01	42270.08
549.18	41785.58
549.34	41947.08
549.51	42546.26
549.68	42389.44
549.84	42787.33
550.01	42096.88
550.18	42326.25
550.34	42330.93
550.51	42298.16
550.68	41895.59
550.84	42075.81
551.01	42506.47
551.18	42408.17
551.34	42438.59
551.51	42412.85
551.68	42815.42
551.84	42880.95
552.01	42520.51
552.18	42927.77
552.34	42185.82
552.51	43072.88
552.68	42499.45
552.84	42639.88
553.01	42859.89
553.18	42658.60
553.34	42513.49
553.51	42139.00
553.67	42951.17
553.84	43058.84
554.01	42965.21
554.17	43016.71
554.34	42993.30
554.51	42885.64
554.67	43351.40
554.84	42838.83
555.00	43140.75
555.17	42796.70
555.33	43421.62
555.50	43227.35
555.67	43079.90
555.83	43786.74
556.00	43325.66
556.16	43686.10
556.33	43365.45
556.50	43320.98
556.66	43522.26
556.83	43290.55
556.99	43510.56
557.16	43234.38
557.32	43906.11
557.49	43796.10
557.65	42843.51
557.82	43419.28
557.98	43487.15
558.15	43044.79
558.32	43665.03
558.48	43503.54
558.65	43871.00
558.81	43445.02
558.98	43503.54
559.14	43910.79
559.31	43304.59
559.47	43777.38
559.64	44296.98
559.80	44030.16
559.97	43868.66
560.13	43765.68
560.30	43711.84
560.46	44060.58
560.63	43814.83
560.79	44240.81
560.96	44121.44
561.12	44109.74
561.29	44002.07
561.45	44194.00
561.61	44072.29
561.78	44046.54
561.94	43597.16
562.11	44161.23
562.27	44161.23
562.44	43775.04
562.60	43927.17
562.77	44165.91
562.93	44013.77
563.10	44247.83
563.26	43634.61
563.42	44465.50
563.59	44252.51
563.75	43983.35
563.92	44484.22
564.08	44018.46
564.24	44589.55
564.41	44034.84
564.57	44374.22
564.74	44325.07
564.90	44243.15
565.07	44570.82
565.23	44311.02
565.39	44313.36
565.56	44788.49
565.72	44215.06
565.88	44130.80
566.05	44116.76
566.21	44554.44
566.38	44521.67
566.54	44451.45
566.70	44566.14
566.87	44891.48
567.03	44786.15
567.19	44865.73
567.36	44355.49
567.52	44299.32
567.68	44612.95
567.85	44114.42
568.01	44334.43
568.17	44694.87
568.34	44587.21
568.50	44430.39
568.66	44346.13
568.83	44793.17
568.99	44044.20
569.15	44767.43
569.32	44060.58
569.48	44282.94
569.64	45172.34
569.81	44666.78
569.97	44713.59
570.13	44570.82
570.30	44268.89
570.46	44308.68
570.62	44186.97
570.78	44315.70
570.95	44589.55
571.11	44467.84
571.27	44584.86
571.43	44847.00
571.60	44980.42
571.76	44751.04
571.92	44079.31
572.09	44847.00
572.25	44626.99
572.41	44659.76
572.57	44563.80
572.74	45298.73
572.90	44858.71
573.06	44739.34
573.22	44837.64
573.38	44608.27
573.55	44641.04
573.71	44809.56
573.87	44992.12
574.03	44364.85
574.20	44643.38
574.36	44460.82
574.52	45315.11
574.68	44783.81
574.84	44676.15
575.01	44318.04
575.17	44903.18
575.33	44839.98
575.49	44842.32
575.65	45059.99
575.82	45411.07
575.98	44641.04
576.14	45230.85
576.30	44978.07
576.46	44910.20
576.62	44701.89
576.79	44739.34
576.95	44336.77
577.11	44807.22
577.27	44767.43
577.43	45268.30
577.59	44765.09
577.75	44900.84
577.92	44507.63
578.08	44746.36
578.24	44484.22
578.40	44652.74
578.56	44879.77
578.72	44088.67
578.88	44769.77
579.04	45137.23
579.21	44528.69
579.37	44650.40
579.53	44584.86
579.69	44540.39
579.85	44847.00
580.01	45258.94
580.17	44910.20
580.33	45354.90
580.49	45291.71
580.65	45041.27
580.82	44933.60
580.98	44978.07
581.14	44364.85
581.30	45387.67
581.46	44870.41
581.62	45015.52
581.78	44851.69
581.94	45251.92
582.10	44786.15
582.26	44882.11
582.42	45132.55
582.58	44994.46
582.74	44832.96
582.90	45244.90
583.06	45399.37
583.22	44992.12
583.38	45354.90
583.54	45139.57
583.70	44697.21
583.86	44877.43
584.02	44811.90
584.18	44854.03
584.34	45137.23
584.50	45104.46
584.66	45015.52
584.82	44776.79
584.98	45413.41
585.14	45144.25
585.30	44442.09
585.46	44598.91
585.62	44844.66
585.78	44559.12
585.94	44556.78
586.10	45184.04
586.26	44765.09
586.42	45041.27
586.58	45181.70
586.74	44987.44
586.90	45191.06
587.06	44648.06
587.22	44999.14
587.38	44978.07
587.54	45418.10
587.70	45092.76
587.86	45153.62
588.02	45041.27
588.18	45027.23
588.34	45137.23
588.49	44821.26
588.65	44596.57
588.81	44659.76
588.97	44549.76
589.13	44884.45
589.29	45008.50
589.45	45106.80
589.61	45153.62
589.77	45394.69
589.93	45134.89
590.08	44762.75
590.24	44818.92
