SpectraSuite Data File
++++++++++++++++++++++++++++++++++++
Date: Fri Oct 25 10:48:30 EDT 2013
User: price-jones
Dark Spectrum Present: No
Reference Spectrum Present: No
Number of Sampled Component Spectra: 1
Spectrometers: USB2+H05261
Integration Time (usec): 100000 (USB2+H05261)
Spectra Averaged: 1 (USB2+H05261)
Boxcar Smoothing: 0 (USB2+H05261)
Correct for Electrical Dark: No (USB2+H05261)
Strobe/Lamp Enabled: No (USB2+H05261)
Correct for Detector Non-linearity: No (USB2+H05261)
Correct for Stray Light: No (USB2+H05261)
Number of Pixels in Processed Spectrum: 2048
>>>>>Begin Processed Spectral Data<<<<<
365.73	187.24
365.92	187.24
366.12	187.24
366.32	98.30
366.52	37.45
366.72	93.62
366.91	25.75
367.11	70.22
367.31	63.19
367.51	74.90
367.70	60.85
367.90	72.56
368.10	124.05
368.30	70.22
368.49	11.70
368.69	91.28
368.89	72.56
369.09	58.51
369.28	74.90
369.48	0.00
369.68	105.32
369.87	74.90
370.07	110.01
370.27	198.95
370.47	257.46
370.66	447.04
370.86	411.93
371.06	477.47
371.25	540.66
371.45	489.17
371.65	470.45
371.84	491.51
372.04	550.03
372.24	578.11
372.44	517.26
372.63	451.72
372.83	587.47
373.03	528.96
373.22	489.17
373.42	489.17
373.62	456.40
373.81	603.86
374.01	596.84
374.21	631.94
374.40	620.24
374.60	561.73
374.79	603.86
374.99	559.39
375.19	622.58
375.38	601.52
375.58	606.20
375.78	596.84
375.97	582.79
376.17	631.94
376.37	610.88
376.56	645.99
376.76	660.03
376.95	589.82
377.15	662.37
377.35	645.99
377.54	587.47
377.74	634.29
377.93	615.56
378.13	650.67
378.33	678.76
378.52	671.73
378.72	709.18
378.91	676.41
379.11	634.29
379.31	655.35
379.50	629.60
379.70	664.71
379.89	683.44
380.09	704.50
380.28	706.84
380.48	709.18
380.68	767.70
380.87	653.01
381.07	755.99
381.26	744.29
381.46	732.59
381.65	716.20
381.85	772.38
382.04	767.70
382.24	739.61
382.43	690.46
382.63	805.14
382.83	767.70
383.02	833.23
383.22	805.14
383.41	767.70
383.61	755.99
383.80	875.36
384.00	870.68
384.19	826.21
384.39	779.40
384.58	847.27
384.78	720.88
384.97	744.29
385.17	770.04
385.36	805.14
385.56	875.36
385.75	748.97
385.95	791.10
386.14	830.89
386.34	835.57
386.53	887.06
386.72	882.38
386.92	870.68
387.11	898.77
387.31	929.19
387.50	926.85
387.70	826.21
387.89	950.26
388.09	912.81
388.28	912.81
388.48	933.87
388.67	957.28
388.86	936.21
389.06	849.61
389.25	940.90
389.45	938.55
389.64	1008.77
389.84	1062.60
390.03	1029.84
390.22	1055.58
390.42	992.39
390.61	999.41
390.81	1027.50
391.00	1158.57
391.19	1118.78
391.39	1088.35
391.58	1057.92
391.78	1034.52
391.97	1109.41
392.16	1097.71
392.36	1102.39
392.55	1034.52
392.75	1107.07
392.94	1095.37
393.13	1006.43
393.33	1062.60
393.52	1114.10
393.71	1128.14
393.91	1114.10
394.10	1184.31
394.29	1170.27
394.49	1153.88
394.68	1228.78
394.88	1275.59
395.07	1282.61
395.26	1233.46
395.46	1210.06
395.65	1289.64
395.84	1198.35
396.04	1378.58
396.23	1259.21
396.42	1203.04
396.62	1203.04
396.81	1242.82
397.00	1270.91
397.19	1299.00
397.39	1343.47
397.58	1324.74
397.77	1371.55
397.97	1355.17
398.16	1409.00
398.35	1490.92
398.55	1418.36
398.74	1509.65
398.93	1598.59
399.12	1469.86
399.32	1486.24
399.51	1516.67
399.70	1607.95
399.90	1495.60
400.09	1572.84
400.28	1790.51
400.47	1549.43
400.67	1760.08
400.86	1748.38
401.05	1647.74
401.24	1715.61
401.44	1783.49
401.63	1816.26
401.82	1710.93
402.01	1633.69
402.21	1746.04
402.40	1771.79
402.59	1746.04
402.78	1739.02
402.97	1727.32
403.17	1863.07
403.36	1764.76
403.55	1860.73
403.74	1914.56
403.93	1919.24
404.13	1895.83
404.32	1867.75
404.51	1907.54
404.70	1954.35
404.89	1891.15
405.09	1942.64
405.28	2040.95
405.47	1987.11
405.66	2001.16
405.85	1998.82
406.05	2005.84
406.24	2087.76
406.43	2036.27
406.62	2115.84
406.81	2176.70
407.00	2078.40
407.20	2073.71
407.39	2066.69
407.58	2223.51
407.77	2209.47
407.96	2167.34
408.15	2342.88
408.34	2382.67
408.54	2235.21
408.73	2338.20
408.92	2387.35
409.11	2375.64
409.30	2270.32
409.49	2352.24
409.68	2291.38
409.87	2338.20
410.07	2401.39
410.26	2469.27
410.45	2462.24
410.64	2417.77
410.83	2541.82
411.02	2548.84
411.21	2492.67
411.40	2558.21
411.59	2614.38
411.78	2642.46
411.98	2647.15
412.17	2810.98
412.36	2579.27
412.55	2689.28
412.74	2743.11
412.93	2789.92
413.12	2656.51
413.31	3023.97
413.50	2881.20
413.69	2944.39
413.88	3005.25
414.07	2956.10
414.26	2892.90
414.45	3012.27
414.64	3033.33
414.83	3054.40
415.02	3047.38
415.22	3082.49
415.41	3201.85
415.60	3185.47
415.79	3098.87
415.98	3229.94
416.17	3241.64
416.36	3234.62
416.55	3283.77
416.74	3314.20
416.93	3267.39
417.12	3403.14
417.31	3346.97
417.50	3358.67
417.69	3496.76
417.88	3513.14
418.07	3330.58
418.26	3522.51
418.45	3524.85
418.64	3611.45
418.83	3548.25
419.02	3599.74
419.21	3735.50
419.39	3604.42
419.58	3709.75
419.77	3592.72
419.96	3719.11
420.15	3707.41
420.34	3808.05
420.53	3819.75
420.72	3936.78
420.91	3880.61
421.10	3892.31
421.29	3887.63
421.48	3794.01
421.67	3974.23
421.86	3798.69
422.05	3882.95
422.24	3737.84
422.43	3840.82
422.61	3885.29
422.80	3964.87
422.99	3983.59
423.18	3978.91
423.37	4147.43
423.56	4051.47
423.75	3934.44
423.94	3950.82
424.13	3684.00
424.32	3861.88
424.50	3885.29
424.69	3950.82
424.88	3962.53
425.07	4002.32
425.26	3791.67
425.45	3950.82
425.64	3861.88
425.83	4018.70
426.01	4161.47
426.20	4044.45
426.39	4030.40
426.58	3981.25
426.77	3929.76
426.96	4042.11
427.15	3913.38
427.33	4114.66
427.52	4058.49
427.71	4388.50
427.90	4290.20
428.09	4215.30
428.28	4367.44
428.46	4168.49
428.65	4227.01
428.84	4227.01
429.03	4322.97
429.22	4145.09
429.40	4191.90
429.59	4131.05
429.78	3896.99
429.97	4002.32
430.16	4067.85
430.34	4170.83
430.53	4138.07
430.72	4287.86
430.91	4322.97
431.10	4386.16
431.28	4582.77
431.47	4753.63
431.66	4727.88
431.85	4685.75
432.03	4643.62
432.22	4596.81
432.41	4741.93
432.60	4800.44
432.79	4718.52
432.97	4954.91
433.16	4814.48
433.35	4716.18
433.54	4695.11
433.72	4716.18
433.91	4734.90
434.10	4863.63
434.28	4945.55
434.47	5048.54
434.66	5027.47
434.85	4922.15
435.03	4999.38
435.22	5018.11
435.41	5081.30
435.59	5100.03
435.78	5207.69
435.97	5191.31
436.16	5186.63
436.34	5156.20
436.53	5296.63
436.72	5320.04
436.90	4994.70
437.09	5188.97
437.28	4926.83
437.46	5125.77
437.65	5027.47
437.84	5394.93
438.02	5160.88
438.21	5289.61
438.40	5252.16
438.58	5416.00
438.77	5432.38
438.96	5455.79
439.14	5497.92
439.33	5600.90
439.52	5654.73
439.70	5483.88
439.89	5750.70
440.08	5762.40
440.26	5942.62
440.45	5755.38
440.63	5816.23
440.82	6017.52
441.01	5982.41
441.19	5991.77
441.38	6139.23
441.57	6256.25
441.75	6342.85
441.94	6291.36
442.12	6272.64
442.31	6141.57
442.50	6448.18
442.68	6340.51
442.87	6169.65
443.05	6415.41
443.24	6349.87
443.43	6466.90
443.61	6527.75
443.80	6593.29
443.98	6464.56
444.17	6291.36
444.35	6600.31
444.54	6766.49
444.73	6719.68
444.91	6462.22
445.10	6553.50
445.28	6436.47
445.47	6431.79
445.65	6569.88
445.84	6579.25
446.02	6588.61
446.21	6614.35
446.39	6780.53
446.58	6726.70
446.77	6773.51
446.95	6801.60
447.14	6712.66
447.32	6911.60
447.51	6628.40
447.69	6654.14
447.88	6855.43
448.06	6815.64
448.25	6719.68
448.43	6848.41
448.62	6839.05
448.80	6806.28
448.99	6920.96
449.17	6930.33
449.36	6911.60
449.54	7056.72
449.73	7117.57
449.91	7403.11
450.10	7129.27
450.28	7344.60
450.46	7185.44
450.65	7311.83
450.83	7094.16
451.02	7332.90
451.20	7225.23
451.39	7293.11
451.57	7295.45
451.76	7208.85
451.94	7234.60
452.13	7499.08
452.31	7346.94
452.49	7194.81
452.68	7321.20
452.86	7206.51
453.05	7309.49
453.23	7353.96
453.42	7204.17
453.60	7480.35
453.78	7618.44
453.97	7396.09
454.15	7454.61
454.34	7372.69
454.52	7744.83
454.70	7758.88
454.89	7693.34
455.07	7691.00
455.26	7597.38
455.44	7927.39
455.62	7698.02
455.81	7817.39
455.99	7824.41
456.17	7803.35
456.36	7995.27
456.54	8077.19
456.73	8198.90
456.91	8226.98
457.09	8259.75
457.28	8430.61
457.46	8091.23
457.64	8269.11
457.83	8086.55
458.01	8091.23
458.19	8203.58
458.38	8079.53
458.56	8404.86
458.74	8145.06
458.93	8152.09
459.11	8458.70
459.29	8416.57
459.48	8439.97
459.66	8344.01
459.84	8519.55
460.03	8547.64
460.21	8549.98
460.39	8699.77
460.57	8758.28
460.76	8627.21
460.94	8575.72
461.12	8821.48
461.31	8940.85
461.49	8681.05
461.67	8723.18
461.85	9043.83
462.04	8858.93
462.22	9432.36
462.40	8936.17
462.59	9004.04
462.77	9172.56
462.95	9057.87
463.13	9174.90
463.32	9076.60
463.50	9046.17
463.68	9151.49
463.86	9114.05
464.05	9032.13
464.23	8905.74
464.41	9188.94
464.59	8940.85
464.78	9238.09
464.96	9289.59
465.14	9156.18
465.32	9221.71
465.50	9341.08
465.69	9420.66
465.87	9401.93
466.05	9390.23
466.23	9373.85
466.41	9266.18
466.60	9490.87
466.78	9263.84
466.96	9476.83
467.14	9430.02
467.32	9635.99
467.51	9720.24
467.69	9366.82
467.87	9551.73
468.05	9460.45
468.23	9497.89
468.41	9411.29
468.60	9504.92
468.78	9785.78
468.96	9680.46
469.14	9734.29
469.32	10097.07
469.50	9392.57
469.69	9729.61
469.87	9792.80
470.05	9958.98
470.23	10033.88
470.41	9870.04
470.59	9958.98
470.77	10087.71
470.95	10066.64
471.14	10319.42
471.32	10141.54
471.50	10473.90
471.68	10310.06
471.86	10333.47
472.04	10480.92
472.22	10516.03
472.40	10417.72
472.58	10616.67
472.77	10520.71
472.95	10726.68
473.13	10963.07
473.31	10754.76
473.49	10712.63
473.67	10616.67
473.85	10815.62
474.03	10939.66
474.21	11012.22
474.39	11080.10
474.57	11143.29
474.75	11080.10
474.93	11396.07
475.12	11257.98
475.30	11442.88
475.48	11314.15
475.66	11187.76
475.84	11405.43
476.02	11573.95
476.20	11246.27
476.38	11868.86
476.56	12039.72
476.74	11742.47
476.92	12016.31
477.10	11983.54
477.28	12226.96
477.46	12081.85
477.64	12390.80
477.82	12676.34
478.00	12828.48
478.18	12671.66
478.36	12704.43
478.54	12989.97
478.72	12793.37
478.90	13121.04
479.08	13186.58
479.26	13525.96
479.44	13207.64
479.62	13151.47
479.80	13448.72
479.98	13404.25
480.16	13795.12
480.34	14008.11
480.52	13977.68
480.70	13731.92
480.88	13715.54
481.06	14026.83
481.24	14244.50
481.41	14253.86
481.59	14382.59
481.77	14520.68
481.95	14480.89
482.13	14846.02
482.31	14824.95
482.49	15248.59
482.67	15117.52
482.85	15365.62
483.03	15211.14
483.21	15426.47
483.39	15662.86
483.57	15506.05
483.74	15609.03
483.92	15758.83
484.10	15688.61
484.28	16278.43
484.46	16264.38
484.64	16430.56
484.82	16358.00
485.00	16393.11
485.18	16924.41
485.35	16711.42
485.53	16198.85
485.71	16339.28
485.89	16723.13
486.07	16758.24
486.25	16877.60
486.43	17277.83
486.61	17221.66
486.78	17355.07
486.96	17692.11
487.14	17926.16
487.32	17930.84
487.50	18155.54
487.68	18281.92
487.85	18541.72
488.03	18754.71
488.21	18588.53
488.39	18831.95
488.57	18782.80
488.75	18724.29
488.92	19377.30
489.10	19651.14
489.28	19557.52
489.46	19761.14
489.64	19676.88
489.81	20004.56
489.99	20463.30
490.17	20428.20
490.35	20596.71
490.53	20655.23
490.70	20683.31
490.88	20680.97
491.06	21097.59
491.24	21163.12
491.41	21057.80
491.59	21532.93
491.77	21104.61
491.95	21528.25
492.13	21507.18
492.30	21759.96
492.48	21891.03
492.66	21975.29
492.84	22031.46
493.01	22293.60
493.19	22232.75
493.37	22562.76
493.54	22616.60
493.72	22881.08
493.90	22888.10
494.08	23124.49
494.25	23297.69
494.43	23639.41
494.61	23461.53
494.79	23775.16
494.96	23393.65
495.14	23843.04
495.32	23651.11
495.49	24247.95
495.67	23903.89
495.85	24313.48
496.02	24554.56
496.20	24451.58
496.38	24732.44
496.55	24877.55
496.73	25142.03
496.91	24966.49
497.09	25465.03
497.26	25338.64
497.44	25408.86
497.62	25656.95
497.79	25720.15
497.97	25390.13
498.14	25626.53
498.32	25607.80
498.50	26052.50
498.67	26305.28
498.85	26328.69
499.03	26604.87
499.20	26370.82
499.38	26607.21
499.56	26438.69
499.73	26939.57
499.91	26787.43
500.08	27175.96
500.26	26560.40
500.44	27098.72
500.61	27009.78
500.79	27063.61
500.97	27414.69
501.14	27615.98
501.32	27580.87
501.49	27412.35
501.67	27761.09
501.84	27941.32
502.02	27459.16
502.20	27946.00
502.37	27992.81
502.55	28290.06
502.72	28463.25
502.90	28470.28
503.07	28596.67
503.25	28390.70
503.43	28198.77
503.60	28521.77
503.78	28657.52
503.95	28856.46
504.13	28973.49
504.30	29350.32
504.48	28905.62
504.65	29259.04
504.83	29493.09
505.01	29509.47
505.18	28987.53
505.36	29853.53
505.53	29834.81
505.71	30267.81
505.88	30188.23
506.06	29923.75
506.23	29865.24
506.41	29731.83
506.58	30342.70
506.76	30096.95
506.93	30649.32
507.11	30384.83
507.28	30471.43
507.46	30316.96
507.63	30934.86
507.81	30480.80
507.98	30368.45
508.16	31225.09
508.33	31307.01
508.50	31072.95
508.68	31360.84
508.85	31592.55
509.03	31215.72
509.20	31611.28
509.38	31934.27
509.55	31480.21
509.73	32135.56
509.90	32219.81
510.08	31615.96
510.25	31903.84
510.42	32287.69
510.60	32191.73
510.77	31985.76
510.95	32325.14
511.12	31995.12
511.30	32393.01
511.47	32847.08
511.64	32959.42
511.82	33064.75
511.99	32638.77
512.17	32753.46
512.34	32828.35
512.51	32992.19
512.69	33010.92
512.86	33256.67
513.04	33350.29
513.21	33149.01
513.38	33394.76
513.56	33628.82
513.73	33296.46
513.90	33376.04
514.08	33261.35
514.25	33340.93
514.43	33338.59
514.60	33858.19
514.77	33387.74
514.95	33848.83
515.12	34141.39
515.29	34155.44
515.47	34146.08
515.64	34522.90
515.81	34284.17
515.99	34260.76
516.16	33783.29
516.33	33593.71
516.51	33841.81
516.68	33762.23
516.85	33764.57
517.03	34366.09
517.20	34319.28
517.37	34457.37
517.54	34944.20
517.72	34644.61
517.89	34785.04
518.06	34939.52
518.24	34941.86
518.41	34665.67
518.58	35047.18
518.75	34998.03
518.93	35534.01
519.10	35091.65
519.27	35459.12
519.45	35854.67
519.62	35842.96
519.79	35882.75
519.96	35725.94
520.14	35959.99
520.31	35311.66
520.48	35957.65
520.65	36013.82
520.83	36472.57
521.00	36315.75
521.17	36142.55
521.34	36713.64
521.52	36229.15
521.69	36584.91
521.86	36802.58
522.03	36720.66
522.20	36622.36
522.38	36582.57
522.55	36903.23
522.72	36982.80
522.89	36975.78
523.07	37251.97
523.24	37069.40
523.41	37179.41
523.58	37359.63
523.75	37691.99
523.92	37837.10
524.10	37745.82
524.27	37907.32
524.44	37923.70
524.61	37280.05
524.78	38293.50
524.96	38642.24
525.13	37663.90
525.30	38384.79
525.47	37940.08
525.64	38251.38
525.81	37907.32
525.98	38675.01
526.16	37696.67
526.33	37507.08
526.50	38061.79
526.67	37975.19
526.84	37851.14
527.01	38277.12
527.18	38408.19
527.36	39012.05
527.53	38511.17
527.70	39105.67
527.87	39473.13
528.04	38969.92
528.21	39077.58
528.38	38700.76
528.55	39468.45
528.72	39487.18
528.89	39356.11
529.07	39597.18
529.24	39353.77
529.41	39545.69
529.58	39545.69
529.75	39466.11
529.92	39688.46
530.09	39583.14
530.26	40062.95
530.43	40128.48
530.60	39803.15
530.77	39784.43
530.94	40353.18
531.11	39683.78
531.28	39779.74
531.46	40439.78
531.63	40163.59
531.80	39997.41
531.97	39899.11
532.14	40189.34
532.31	39515.26
532.48	39901.45
532.65	39955.29
532.82	40278.28
532.99	40163.59
533.16	40067.63
533.33	40444.46
533.50	40978.10
533.67	40531.06
533.84	40360.20
534.01	40603.61
534.18	40507.65
534.35	41308.11
534.52	40774.47
534.69	41230.88
534.86	40891.50
535.03	40830.65
535.20	41223.86
535.37	41170.02
535.54	41383.01
535.71	41010.87
535.88	41462.59
536.05	40999.16
536.22	41453.23
536.38	41317.48
536.55	41368.97
536.72	41151.30
536.89	40975.76
537.06	41584.30
537.23	41869.84
537.40	41439.18
537.57	41862.82
537.74	41722.39
537.91	42075.81
538.08	41631.11
538.25	41691.96
538.42	41783.24
538.59	42218.58
538.75	41926.02
538.92	41563.23
539.09	42389.44
539.26	41706.01
539.43	41825.37
539.60	42066.45
539.77	42398.80
539.94	42356.67
540.11	41780.90
540.28	41862.82
540.44	41743.45
540.61	42033.68
540.78	42131.98
540.95	42146.03
541.12	42424.55
541.29	42127.30
541.46	42176.45
541.62	42642.22
541.79	43033.09
541.96	41827.71
542.13	42689.03
542.30	42843.51
542.47	42429.23
542.63	42515.83
542.80	42433.91
542.97	43110.33
543.14	43489.49
543.31	43187.56
543.48	43072.88
543.64	43981.01
543.81	43817.17
543.98	43147.78
544.15	43590.14
544.32	43966.96
544.48	43639.29
544.65	43346.72
544.82	43681.42
544.99	43477.79
545.16	43665.03
545.32	43597.16
545.49	43763.34
545.66	43948.24
545.83	43662.69
546.00	43971.64
546.16	43838.23
546.33	43421.62
546.50	43346.72
546.67	43543.33
546.83	43641.63
547.00	43433.32
547.17	43793.76
547.34	43983.35
547.50	43983.35
547.67	44147.18
547.84	43660.35
548.00	44151.87
548.17	44231.44
548.34	43992.71
548.51	44261.87
548.67	44641.04
548.84	44343.79
549.01	44334.43
549.18	44011.43
549.34	44367.20
549.51	44584.86
549.68	45034.25
549.84	44577.84
550.01	44500.61
550.18	44416.35
550.34	44332.09
550.51	44561.46
550.68	44575.50
550.84	44294.64
551.01	44676.15
551.18	44673.81
551.34	44547.42
551.51	44905.52
551.68	44666.78
551.84	45001.48
552.01	44713.59
552.18	45258.94
552.34	44444.43
552.51	44371.88
552.68	44818.92
552.84	44795.51
553.01	45460.23
553.18	45230.85
553.34	44868.07
553.51	44610.61
553.67	45296.39
553.84	45425.12
554.01	45160.64
554.17	45897.91
554.34	45797.26
554.51	45207.45
554.67	45523.42
554.84	45434.48
555.00	45170.00
555.17	45340.86
555.33	45642.79
555.50	45366.60
555.67	45418.10
555.83	45375.97
556.00	45832.37
556.16	45682.58
556.33	45610.02
556.50	45373.63
556.66	45703.64
556.83	45546.82
556.99	45911.95
557.16	45713.00
557.32	45865.14
557.49	45886.20
557.65	45598.32
557.82	45834.71
557.98	45455.54
558.15	45827.69
558.32	45853.44
558.48	45549.17
558.65	46019.61
558.81	45382.99
558.98	45588.95
559.14	45823.01
559.31	45755.13
559.47	45631.08
559.64	45940.04
559.80	46096.85
559.97	46302.82
560.13	45832.37
560.30	45844.07
560.46	45811.31
560.63	45867.48
560.79	46106.21
560.96	46085.15
561.12	46003.23
561.29	46148.34
561.45	46012.59
561.61	46146.00
561.78	46120.26
561.94	45844.07
562.11	46162.39
562.27	46099.19
562.44	45925.99
562.60	46380.06
562.77	46562.62
562.93	46066.42
563.10	46340.27
563.26	45855.78
563.42	46260.69
563.59	45944.72
563.75	46300.48
563.92	46478.36
564.08	46696.03
564.24	46401.12
564.41	46543.89
564.57	46267.71
564.74	46373.03
564.90	46553.26
565.07	46602.41
565.23	45902.59
565.39	46277.07
565.56	46419.84
565.72	46351.97
565.88	46476.02
566.05	46270.05
566.21	46080.47
566.38	46693.69
566.54	46550.91
566.70	46553.26
566.87	46841.14
567.03	46726.46
567.19	47077.54
567.36	46681.98
567.52	46307.50
567.68	46492.40
567.85	46450.27
568.01	46747.52
568.17	46197.49
568.34	46447.93
568.50	46466.66
568.66	46696.03
568.83	46562.62
568.99	46506.44
569.15	46506.44
569.32	46373.03
569.48	46391.76
569.64	46714.75
569.81	46766.24
569.97	46878.59
570.13	46817.74
570.30	46330.90
570.46	46630.49
570.62	45844.07
570.78	46583.68
570.95	46108.55
571.11	46904.34
571.27	46410.48
571.43	46674.96
571.60	46480.70
571.76	46401.12
571.92	46810.71
572.09	46291.12
572.25	46550.91
572.41	46576.66
572.57	46698.37
572.74	46859.87
572.90	46754.54
573.06	46719.43
573.22	46440.91
573.38	46951.15
573.55	46239.62
573.71	46864.55
573.87	46674.96
574.03	46525.17
574.20	46742.84
574.36	46883.27
574.52	46525.17
574.68	47096.26
574.84	46426.87
575.01	47199.24
575.17	47049.45
575.33	46209.20
575.49	46742.84
575.65	46735.82
575.82	47122.01
575.98	46756.88
576.14	46894.97
576.30	46738.16
576.46	46808.37
576.62	46630.49
576.79	46976.89
576.95	46784.97
577.11	46658.58
577.27	47098.60
577.43	46656.24
577.59	46581.34
577.75	46497.08
577.92	46354.31
578.08	46286.43
578.24	46398.78
578.40	46436.23
578.56	46515.81
578.72	46651.56
578.88	47222.65
579.04	46801.35
579.21	46520.49
579.37	46784.97
579.53	46843.48
579.69	46773.27
579.85	46871.57
580.01	46869.23
580.17	46913.70
580.33	47117.32
580.49	47292.86
580.65	46960.51
580.82	46927.74
580.98	46873.91
581.14	47093.92
581.30	46883.27
581.46	46712.41
581.62	47274.14
581.78	47061.15
581.94	47103.28
582.10	46962.85
582.26	47367.76
582.42	47260.10
582.58	47028.38
582.74	46948.81
582.90	46939.44
583.06	46707.73
583.22	47428.62
583.38	47131.37
583.54	47143.07
583.70	47178.18
583.86	46948.81
584.02	46916.04
584.18	46724.11
584.34	46817.74
584.50	47393.51
584.66	46799.01
584.82	46768.58
584.98	46859.87
585.14	46796.67
585.30	47082.22
585.46	47002.64
585.62	46408.14
585.78	46733.48
585.94	46380.06
586.10	46714.75
586.26	46574.32
586.42	46981.57
586.58	46864.55
586.74	47288.18
586.90	46490.06
587.06	46684.33
587.22	47007.32
587.38	46642.20
587.54	47372.44
587.70	47379.46
587.86	46738.16
588.02	46469.00
588.18	47047.11
588.34	46906.68
588.49	46777.95
588.65	46295.80
588.81	46466.66
588.97	46391.76
589.13	46452.61
589.29	46454.95
589.45	46415.16
589.61	46897.31
589.77	47381.80
589.93	46841.14
