SpectraSuite Data File
++++++++++++++++++++++++++++++++++++
Date: Fri Oct 25 10:43:39 EDT 2013
User: price-jones
Dark Spectrum Present: No
Reference Spectrum Present: No
Number of Sampled Component Spectra: 1
Spectrometers: USB2+H05261
Integration Time (usec): 100000 (USB2+H05261)
Spectra Averaged: 1 (USB2+H05261)
Boxcar Smoothing: 0 (USB2+H05261)
Correct for Electrical Dark: No (USB2+H05261)
Strobe/Lamp Enabled: No (USB2+H05261)
Correct for Detector Non-linearity: No (USB2+H05261)
Correct for Stray Light: No (USB2+H05261)
Number of Pixels in Processed Spectrum: 2048
>>>>>Begin Processed Spectral Data<<<<<
365.73	126.39
365.92	126.39
366.12	126.39
366.32	7.02
366.52	0.00
366.72	37.45
366.91	0.00
367.11	28.09
367.31	72.56
367.51	0.00
367.70	21.06
367.90	56.17
368.10	0.00
368.30	37.45
368.49	7.02
368.69	25.75
368.89	49.15
369.09	25.75
369.28	102.98
369.48	110.01
369.68	95.96
369.87	98.30
370.07	63.19
370.27	117.03
370.47	166.18
370.66	374.49
370.86	402.57
371.06	425.98
371.25	514.92
371.45	458.74
371.65	510.24
371.84	451.72
372.04	456.40
372.24	514.92
372.44	498.53
372.63	554.71
372.83	489.17
373.03	547.69
373.22	482.15
373.42	554.71
373.62	582.79
373.81	564.07
374.01	594.50
374.21	601.52
374.40	526.62
374.60	617.90
374.79	573.43
374.99	580.45
375.19	554.71
375.38	594.50
375.58	631.94
375.78	638.97
375.97	592.16
376.17	692.80
376.37	564.07
376.56	603.86
376.76	592.16
376.95	540.66
377.15	641.31
377.35	594.50
377.54	627.26
377.74	704.50
377.93	676.41
378.13	643.65
378.33	624.92
378.52	622.58
378.72	683.44
378.91	657.69
379.11	678.76
379.31	669.39
379.50	568.75
379.70	655.35
379.89	636.63
380.09	718.54
380.28	674.07
380.48	674.07
380.68	664.71
380.87	730.25
381.07	748.97
381.26	657.69
381.46	678.76
381.65	725.57
381.85	674.07
382.04	603.86
382.24	681.10
382.43	641.31
382.63	709.18
382.83	648.33
383.02	802.80
383.22	732.59
383.41	784.08
383.61	807.48
383.80	788.76
384.00	730.25
384.19	713.86
384.39	919.83
384.58	746.63
384.78	826.21
384.97	844.93
385.17	826.21
385.36	788.76
385.56	807.48
385.75	786.42
385.95	758.33
386.14	898.77
386.34	821.53
386.53	842.59
386.72	891.74
386.92	898.77
387.11	931.53
387.31	891.74
387.50	901.11
387.70	894.08
387.89	950.26
388.09	720.88
388.28	863.66
388.48	877.70
388.67	938.55
388.86	966.64
389.06	966.64
389.25	992.39
389.45	968.98
389.64	957.28
389.84	912.81
390.03	1048.56
390.22	957.28
390.42	1067.28
390.61	1004.09
390.81	901.11
391.00	1121.12
391.19	1086.01
391.39	1086.01
391.58	1104.73
391.78	1015.79
391.97	1064.94
392.16	1123.46
392.36	1088.35
392.55	1041.54
392.75	1069.62
392.94	1025.15
393.13	1022.81
393.33	908.13
393.52	964.30
393.71	1022.81
393.91	1146.86
394.10	1076.65
394.29	1135.16
394.49	1174.95
394.68	1266.23
394.88	1224.10
395.07	1228.78
395.26	1184.31
395.46	1231.12
395.65	1231.12
395.84	1172.61
396.04	1268.57
396.23	1240.48
396.42	1210.06
396.62	1181.97
396.81	1242.82
397.00	1247.51
397.19	1315.38
397.39	1341.13
397.58	1394.96
397.77	1432.41
397.97	1500.28
398.16	1352.83
398.35	1425.39
398.55	1521.35
398.74	1493.26
398.93	1500.28
399.12	1488.58
399.32	1427.73
399.51	1554.12
399.70	1577.52
399.90	1488.58
400.09	1600.93
400.28	1638.38
400.47	1739.02
400.67	1734.34
400.86	1645.40
401.05	1619.65
401.24	1734.34
401.44	1769.44
401.63	1741.36
401.82	1736.68
402.01	1633.69
402.21	1806.89
402.40	1823.28
402.59	1771.79
402.78	1816.26
402.97	1769.44
403.17	1930.94
403.36	1853.70
403.55	1930.94
403.74	1842.00
403.93	1933.28
404.13	1949.67
404.32	1825.62
404.51	1909.88
404.70	1949.67
404.89	1834.98
405.09	2026.90
405.28	1966.05
405.47	1994.14
405.66	1961.37
405.85	2024.56
406.05	1989.46
406.24	2054.99
406.43	2015.20
406.62	2120.53
406.81	2169.68
407.00	2015.20
407.20	2078.40
407.39	1977.75
407.58	2223.51
407.77	2129.89
407.96	2251.60
408.15	2246.91
408.34	2284.36
408.54	2246.91
408.73	2209.47
408.92	2298.41
409.11	2380.32
409.30	2289.04
409.49	2204.78
409.68	2282.02
409.87	2335.85
410.07	2368.62
410.26	2401.39
410.45	2403.73
410.64	2567.57
410.83	2445.86
411.02	2490.33
411.21	2644.81
411.40	2621.40
411.59	2677.57
411.78	2626.08
411.98	2658.85
412.17	2640.12
412.36	2661.19
412.55	2726.72
412.74	2848.43
412.93	2677.57
413.12	2806.30
413.31	2878.86
413.50	2974.82
413.69	2911.63
413.88	3007.59
414.07	3009.93
414.26	2951.42
414.45	3047.38
414.64	3045.04
414.83	3052.06
415.02	3049.72
415.22	3143.34
415.41	3101.21
415.60	3075.46
415.79	3197.17
415.98	3262.71
416.17	3361.01
416.36	3314.20
416.55	3337.60
416.74	3379.73
416.93	3304.84
417.12	3265.05
417.31	3349.31
417.50	3435.91
417.69	3438.25
417.88	3543.57
418.07	3302.50
418.26	3433.57
418.45	3597.40
418.64	3538.89
418.83	3538.89
419.02	3606.77
419.21	3723.79
419.39	3719.11
419.58	3555.27
419.77	3632.51
419.96	3609.11
420.15	3726.13
420.34	3716.77
420.53	3803.37
420.72	3836.14
420.91	3861.88
421.10	3852.52
421.29	3911.04
421.48	3625.49
421.67	4051.47
421.86	3936.78
422.05	3810.39
422.24	3843.16
422.43	3843.16
422.61	4051.47
422.80	3861.88
422.99	3845.50
423.18	4049.13
423.37	3985.93
423.56	3925.08
423.75	3971.89
423.94	3946.14
424.13	3772.94
424.32	3777.62
424.50	3953.16
424.69	4095.94
424.88	4025.72
425.07	3932.10
425.26	3936.78
425.45	3932.10
425.64	3913.38
425.83	3988.27
426.01	3999.98
426.20	4095.94
426.39	4053.81
426.58	3913.38
426.77	3918.06
426.96	4049.13
427.15	3974.23
427.33	4196.58
427.52	4170.83
427.71	4194.24
427.90	4170.83
428.09	4138.07
428.28	4133.39
428.46	4231.69
428.65	4086.58
428.84	4262.12
429.03	4306.59
429.22	4100.62
429.40	4252.75
429.59	4145.09
429.78	4032.74
429.97	3941.46
430.16	4065.51
430.34	4117.00
430.53	4269.14
430.72	4273.82
430.91	4257.43
431.10	4337.01
431.28	4512.55
431.47	4631.92
431.66	4718.52
431.85	4512.55
432.03	4730.22
432.22	4727.88
432.41	4622.56
432.60	4704.48
432.79	4774.69
432.97	4840.23
433.16	4716.18
433.35	4587.45
433.54	4861.29
433.72	4819.16
433.91	4809.80
434.10	4826.18
434.28	4931.51
434.47	4898.74
434.66	5067.26
434.85	4903.42
435.03	4954.91
435.22	5027.47
435.41	5195.99
435.59	5135.14
435.78	5240.46
435.97	5085.98
436.16	5193.65
436.34	5160.88
436.53	5055.56
436.72	5200.67
436.90	5238.12
437.09	5111.73
437.28	5160.88
437.46	5195.99
437.65	5149.18
437.84	5207.69
438.02	5284.93
438.21	5287.27
438.40	5149.18
438.58	5369.19
438.77	5453.45
438.96	5486.22
439.14	5479.19
439.33	5757.72
439.52	5750.70
439.70	5699.20
439.89	5877.09
440.08	5872.40
440.26	5879.43
440.45	5750.70
440.63	5884.11
440.82	6106.46
441.01	6024.54
441.19	6024.54
441.38	6342.85
441.57	6115.82
441.75	6242.21
441.94	6300.72
442.12	6326.47
442.31	6267.95
442.50	6373.28
442.68	6380.30
442.87	6504.35
443.05	6298.38
443.24	6490.31
443.43	6399.02
443.61	6539.46
443.80	6537.12
443.98	6539.46
444.17	6211.78
444.35	6595.63
444.54	6794.58
444.73	6530.09
444.91	6509.03
445.10	6572.22
445.28	6516.05
445.47	6436.47
445.65	6389.66
445.84	6642.44
446.02	6698.61
446.21	6717.34
446.39	6597.97
446.58	6789.89
446.77	6829.68
446.95	6558.18
447.14	6651.80
447.32	6736.06
447.51	6731.38
447.69	6541.80
447.88	6757.13
448.06	6890.54
448.25	6864.79
448.43	6944.37
448.62	6829.68
448.80	6836.70
448.99	6867.13
449.17	6920.96
449.36	6850.75
449.54	7159.70
449.73	7353.96
449.91	7269.70
450.10	7213.53
450.28	7349.28
450.46	7276.73
450.65	7318.86
450.83	7241.62
451.02	7267.36
451.20	7325.88
451.39	7265.02
451.57	7393.75
451.76	7103.53
451.94	7372.69
452.13	7194.81
452.31	7248.64
452.49	7087.14
452.68	7178.42
452.86	7232.26
453.05	7332.90
453.23	7541.21
453.42	7171.40
453.60	7585.68
453.78	7529.50
453.97	7494.40
454.15	7438.22
454.34	7527.16
454.52	7695.68
454.70	7461.63
454.89	7761.22
455.07	7688.66
455.26	7588.02
455.44	7786.96
455.62	7829.09
455.81	7871.22
455.99	7735.47
456.17	8063.15
456.36	8011.65
456.54	8077.19
456.73	8231.66
456.91	8255.07
457.09	8292.52
457.28	8222.30
457.46	8067.83
457.64	8334.65
457.83	8184.85
458.01	8100.59
458.19	8156.77
458.38	8217.62
458.56	8313.58
458.74	8315.92
458.93	8489.12
459.11	8367.42
459.29	8446.99
459.48	8444.65
459.66	8430.61
459.84	8280.82
460.03	8676.37
460.21	8568.70
460.39	8449.33
460.57	8528.91
460.76	8500.83
460.94	8753.60
461.12	8662.32
461.31	8678.71
461.49	8624.87
461.67	8727.86
461.85	9015.74
462.04	8814.46
462.22	9280.22
462.40	9067.24
462.59	8896.38
462.77	8842.54
462.95	8994.68
463.13	8840.20
463.32	8861.27
463.50	9062.55
463.68	8877.65
463.86	9172.56
464.05	8915.10
464.23	8973.61
464.41	9064.89
464.59	9118.73
464.78	9327.03
464.96	9202.99
465.14	9107.02
465.32	9125.75
465.50	9263.84
465.69	9256.82
465.87	9334.06
466.05	9100.00
466.23	9212.35
466.41	9254.48
466.60	9425.34
466.78	9090.64
466.96	9329.38
467.14	9453.42
467.32	9390.23
467.51	9565.77
467.69	9238.09
467.87	9490.87
468.05	9753.01
468.23	9743.65
468.41	9530.66
468.60	9577.47
468.78	9713.22
468.96	9420.66
469.14	9757.69
469.32	9729.61
469.50	9724.93
469.69	9741.31
469.87	10012.81
470.05	9888.76
470.23	10036.22
470.41	9738.97
470.59	10104.09
470.77	9919.19
470.95	10188.35
471.14	10300.70
471.32	10146.22
471.50	10406.02
471.68	10485.60
471.86	10668.16
472.04	10420.06
472.22	10487.94
472.40	10193.03
472.58	10431.77
472.77	10595.61
472.95	10553.48
473.13	11037.97
473.31	10611.99
473.49	10796.89
473.67	10661.14
473.85	10843.70
474.03	10951.37
474.21	11087.12
474.39	11286.06
474.57	11133.93
474.75	11194.78
474.93	11243.93
475.12	11225.21
475.30	11225.21
475.48	11480.33
475.66	11283.72
475.84	11398.41
476.02	11386.71
476.20	11496.71
476.38	11630.12
476.56	11957.80
476.74	11964.82
476.92	11894.60
477.10	12093.55
477.28	12308.88
477.46	12290.15
477.64	12334.62
477.82	12514.84
478.00	12608.47
478.18	12847.20
478.36	12709.11
478.54	12627.19
478.72	12772.30
478.90	12788.69
479.08	13301.26
479.26	13387.86
479.44	13186.58
479.62	13249.77
479.80	13518.93
479.98	13427.65
480.16	13968.32
480.34	13666.39
480.52	13870.01
480.70	14160.24
480.88	13818.52
481.06	14155.56
481.24	14054.92
481.41	14281.95
481.59	14396.64
481.77	14445.79
481.95	14710.27
482.13	14717.29
482.31	14925.60
482.49	15218.16
482.67	14946.66
482.85	15150.29
483.03	15412.43
483.21	15227.53
483.39	15438.17
483.57	15489.67
483.74	15822.02
483.92	16086.50
484.10	15681.59
484.28	15857.13
484.46	16243.32
484.64	16294.81
484.82	16159.06
485.00	16203.53
485.18	16650.57
485.35	16669.30
485.53	16615.46
485.71	16215.23
485.89	16762.92
486.07	16730.15
486.25	16826.11
486.43	17090.59
486.61	17111.66
486.78	17399.54
486.96	17575.08
487.14	18080.64
487.32	17900.42
487.50	18010.42
487.68	18274.90
487.85	18401.29
488.03	18611.94
488.21	18644.71
488.39	18567.47
488.57	18799.18
488.75	18956.00
488.92	19454.53
489.10	19494.32
489.28	19325.80
489.46	19709.65
489.64	19843.06
489.81	20250.32
489.99	20032.65
490.17	20084.14
490.35	20610.76
490.53	20357.98
490.70	20727.78
490.88	20807.36
491.06	21191.21
491.24	20837.79
491.41	20790.98
491.59	20849.49
491.77	20975.88
491.95	21240.36
492.13	21500.16
492.30	21771.66
492.48	21734.21
492.66	21956.57
492.84	21799.75
493.01	22127.42
493.19	22494.89
493.37	22455.10
493.54	22595.53
493.72	22754.69
493.90	22789.80
494.08	23260.24
494.25	23431.10
494.43	23506.00
494.61	23707.29
494.79	24112.20
494.96	23634.73
495.14	23735.37
495.32	24100.50
495.49	23695.58
495.67	24154.33
495.85	24229.23
496.02	24332.21
496.20	24484.34
496.38	24521.79
496.55	25036.71
496.73	25291.83
496.91	25050.75
497.09	25336.30
497.26	25266.08
497.44	25383.11
497.62	25090.54
497.79	25722.49
497.97	25191.19
498.14	25928.45
498.32	25879.30
498.50	25713.13
498.67	26342.73
498.85	26258.47
499.03	26162.51
499.20	26504.23
499.38	26707.85
499.56	26464.44
499.73	26881.05
499.91	26782.75
500.08	26696.15
500.26	26864.67
500.44	26824.88
500.61	26682.11
500.79	26932.54
500.97	26848.29
501.14	26977.01
501.32	27414.69
501.49	27503.64
501.67	27367.88
501.84	27730.67
502.02	27576.19
502.20	27962.38
502.37	28086.43
502.55	28161.33
502.72	28519.43
502.90	27929.61
503.07	28299.42
503.25	28158.99
503.43	28341.55
503.60	28257.29
503.78	28421.13
503.95	28627.09
504.13	28697.31
504.30	28800.29
504.48	28800.29
504.65	29092.86
504.83	28842.42
505.01	29254.36
505.18	29305.85
505.36	29560.97
505.53	29675.65
505.71	30038.44
505.88	29813.74
506.06	29785.66
506.23	30279.51
506.41	30132.06
506.58	30143.76
506.76	29986.94
506.93	30082.91
507.11	30621.23
507.28	30164.82
507.46	30061.84
507.63	30155.46
507.81	30639.95
507.98	30845.92
508.16	30574.42
508.33	30806.13
508.50	31051.89
508.68	30649.32
508.85	31026.14
509.03	31332.75
509.20	31295.30
509.38	31407.65
509.55	31758.73
509.73	31557.44
509.90	31751.71
510.08	31349.14
510.25	31531.70
510.42	31805.54
510.60	31948.31
510.77	32086.40
510.95	32067.68
511.12	32334.50
511.30	32697.28
511.47	32870.48
511.64	32685.58
511.82	32275.99
511.99	32802.61
512.17	32308.76
512.34	32652.81
512.51	32711.33
512.69	33020.28
512.86	33221.56
513.04	33008.58
513.21	33202.84
513.38	32861.12
513.56	32903.25
513.73	33010.92
513.90	33605.41
514.08	33223.90
514.25	33589.03
514.43	33177.09
514.60	33333.91
514.77	33273.06
514.95	33888.62
515.12	33493.07
515.29	33560.94
515.47	34106.29
515.64	34202.25
515.81	34085.22
515.99	34153.10
516.16	33874.57
516.33	33565.62
516.51	33949.47
516.68	33525.83
516.85	33310.50
517.03	34092.24
517.20	34176.50
517.37	34272.46
517.54	34881.00
517.72	34600.14
517.89	34164.80
518.06	34199.91
518.24	33909.68
518.41	34429.28
518.58	35005.05
518.75	34705.46
518.93	34930.16
519.10	34845.90
519.27	35243.79
519.45	35194.64
519.62	35487.20
519.79	35234.42
519.96	35386.56
520.14	35384.22
520.31	35505.93
520.48	35798.49
520.65	35686.15
520.83	35978.72
521.00	36367.24
521.17	35831.26
521.34	36467.89
521.52	36414.05
521.69	36510.02
521.86	36774.50
522.03	36617.68
522.20	36699.60
522.38	36889.18
522.55	36552.15
522.72	36561.51
522.89	36961.74
523.07	36833.01
523.24	36648.11
523.41	37151.32
523.58	37092.81
523.75	37713.05
523.92	37099.83
524.10	37333.89
524.27	37453.25
524.44	37574.96
524.61	37684.97
524.78	37661.56
524.96	37867.53
525.13	37865.19
525.30	38305.21
525.47	37968.17
525.64	38237.33
525.81	37914.34
525.98	38045.41
526.16	37684.97
526.33	37509.43
526.50	37710.71
526.67	37593.68
526.84	37432.19
527.01	37722.41
527.18	38014.98
527.36	38579.05
527.53	38651.61
527.70	38728.84
527.87	38658.63
528.04	38227.97
528.21	38754.59
528.38	38761.61
528.55	39051.84
528.72	39037.80
528.89	39335.04
529.07	39208.65
529.24	38890.34
529.41	38902.04
529.58	38944.17
529.75	38916.09
529.92	39119.71
530.09	39594.84
530.26	39866.34
530.43	39716.55
530.60	39599.52
530.77	39311.64
530.94	39721.23
531.11	39541.01
531.28	39559.73
531.46	39901.45
531.63	40016.14
531.80	39732.93
531.97	39826.56
532.14	39227.38
532.31	39526.97
532.48	39393.56
532.65	39782.09
532.82	40058.27
532.99	40018.48
533.16	39941.24
533.33	40549.78
533.50	40371.90
533.67	40105.08
533.84	40072.31
534.01	40025.50
534.18	40699.58
534.35	40491.27
534.52	40629.36
534.69	40479.57
534.86	41401.74
535.03	40957.03
535.20	41118.53
535.37	41038.95
535.54	41399.40
535.71	41038.95
535.88	41160.66
536.05	40957.03
536.22	41329.18
536.38	41191.09
536.55	40910.22
536.72	40807.24
536.89	40985.12
537.06	41029.59
537.23	41436.84
537.40	41085.76
537.57	41535.15
537.74	41413.44
537.91	41343.22
538.08	41401.74
538.25	40933.63
538.42	41343.22
538.59	41497.70
538.75	41378.33
538.92	41350.24
539.09	41654.51
539.26	41741.11
539.43	41469.61
539.60	41923.68
539.77	41322.16
539.94	41443.87
540.11	41387.69
540.28	41731.75
540.44	41656.85
540.61	41698.98
540.78	41724.73
540.95	41848.78
541.12	41989.21
541.29	41776.22
541.46	42354.33
541.62	42265.39
541.79	42265.39
541.96	41638.13
542.13	41954.10
542.30	42003.25
542.47	42525.19
542.63	42010.28
542.80	42272.42
542.97	42646.90
543.14	42527.53
543.31	43173.52
543.48	42614.13
543.64	42801.38
543.81	43524.60
543.98	43320.98
544.15	43295.23
544.32	43023.73
544.48	43557.37
544.65	42895.00
544.82	43262.46
544.99	42920.74
545.16	43250.76
545.32	43400.55
545.49	43386.51
545.66	43435.66
545.83	43091.60
546.00	43646.31
546.16	43491.83
546.33	43363.11
546.50	43342.04
546.67	43842.92
546.83	43196.93
547.00	43852.28
547.17	43299.91
547.34	43353.74
547.50	43342.04
547.67	43580.78
547.84	43606.52
548.00	43761.00
548.17	44414.01
548.34	44004.41
548.51	44395.28
548.67	44170.59
548.84	44219.74
549.01	43962.28
549.18	44296.98
549.34	44013.77
549.51	44002.07
549.68	44311.02
549.84	43943.56
550.01	44528.69
550.18	44224.42
550.34	44470.18
550.51	43908.45
550.68	44184.63
550.84	43840.57
551.01	44399.96
551.18	44175.27
551.34	44399.96
551.51	44336.77
551.68	44535.71
551.84	44580.18
552.01	44505.29
552.18	44163.57
552.34	44439.75
552.51	44346.13
552.68	44657.42
552.84	44563.80
553.01	44645.72
553.18	44776.79
553.34	44861.05
553.51	44488.90
553.67	45020.20
553.84	45284.68
554.01	44905.52
554.17	45020.20
554.34	44741.68
554.51	44425.71
554.67	44800.19
554.84	44863.39
555.00	44903.18
555.17	44900.84
555.33	44882.11
555.50	45038.93
555.67	45254.26
555.83	44949.99
556.00	45425.12
556.16	45497.67
556.33	45071.70
556.50	45029.57
556.66	45457.88
556.83	45235.53
556.99	44748.70
557.16	45130.21
557.32	45277.66
557.49	45214.47
557.65	44912.54
557.82	45345.54
557.98	45434.48
558.15	45027.23
558.32	45673.21
558.48	44875.09
558.65	45200.43
558.81	44999.14
558.98	45113.83
559.14	45457.88
559.31	45378.31
559.47	45652.15
559.64	45752.79
559.80	45476.61
559.97	45059.99
560.13	44989.78
560.30	45628.74
560.46	45804.28
560.63	45542.14
560.79	45886.20
560.96	45722.37
561.12	45357.24
561.29	45251.92
561.45	45453.20
561.61	45502.35
561.78	45755.13
561.94	45509.38
562.11	45464.91
562.27	45478.95
562.44	45890.88
562.60	45516.40
562.77	45502.35
562.93	45914.29
563.10	46141.32
563.26	45654.49
563.42	46209.20
563.59	45757.47
563.75	45823.01
563.92	45937.69
564.08	45986.85
564.24	46010.25
564.41	46246.65
564.57	46073.45
564.74	45862.80
564.90	45783.22
565.07	45705.98
565.23	46012.59
565.39	45911.95
565.56	45764.49
565.72	45558.53
565.88	45401.71
566.05	45989.19
566.21	45701.30
566.38	45869.82
566.54	45815.99
566.70	45956.42
566.87	46031.32
567.03	46138.98
567.19	46340.27
567.36	46199.83
567.52	45907.27
567.68	46136.64
567.85	45900.25
568.01	45853.44
568.17	46239.62
568.34	46031.32
568.50	45874.50
568.66	46003.23
568.83	46312.18
568.99	45862.80
569.15	45769.18
569.32	45663.85
569.48	45628.74
569.64	46429.21
569.81	46431.55
569.97	45954.08
570.13	45832.37
570.30	45940.04
570.46	45532.78
570.62	45923.65
570.78	45944.72
570.95	46120.26
571.11	46286.43
571.27	45937.69
571.43	45937.69
571.60	46363.67
571.76	45935.35
571.92	46131.96
572.09	46391.76
572.25	46335.59
572.41	46047.70
572.57	46131.96
572.74	46782.63
572.90	46300.48
573.06	46321.54
573.22	46518.15
573.38	46277.07
573.55	45764.49
573.71	46349.63
573.87	46522.83
574.03	46031.32
574.20	46192.81
574.36	45989.19
574.52	46110.89
574.68	46630.49
574.84	46082.81
575.01	46028.98
575.17	46258.35
575.33	45687.26
575.49	46127.28
575.65	45921.31
575.82	45808.96
575.98	45897.91
576.14	46543.89
576.30	46476.02
576.46	46511.13
576.62	46036.00
576.79	46059.40
576.95	46033.66
577.11	46199.83
577.27	45954.08
577.43	46124.94
577.59	46188.13
577.75	46344.95
577.92	45972.80
578.08	45954.08
578.24	45813.65
578.40	46312.18
578.56	45933.01
578.72	46101.53
578.88	46178.77
579.04	46815.40
579.21	45801.94
579.37	46546.23
579.53	46190.47
579.69	45958.76
579.85	46050.04
580.01	46447.93
580.17	46108.55
580.33	46457.29
580.49	46373.03
580.65	46209.20
580.82	46227.92
580.98	46223.24
581.14	46143.66
581.30	46766.24
581.46	46342.61
581.62	46478.36
581.78	45998.55
581.94	46747.52
582.10	45977.48
582.26	46621.13
582.42	46478.36
582.58	46323.88
582.74	46227.92
582.90	46436.23
583.06	46806.03
583.22	46398.78
583.38	46508.79
583.54	46480.70
583.70	46274.73
583.86	46817.74
584.02	46288.77
584.18	46604.75
584.34	46003.23
584.50	46361.33
584.66	46225.58
584.82	46195.15
584.98	46520.49
585.14	46499.42
585.30	46000.89
585.46	46443.25
585.62	46241.96
585.78	46525.17
585.94	45965.78
586.10	46440.91
586.26	45839.39
586.42	46951.15
586.58	46698.37
586.74	46436.23
586.90	46291.12
587.06	46412.82
587.22	46384.74
587.38	46234.94
587.54	46864.55
587.70	46766.24
587.86	46284.09
588.02	46534.53
588.18	46279.41
588.34	46071.10
588.49	45586.61
588.65	46007.91
588.81	45914.29
588.97	45834.71
589.13	46281.75
589.29	45869.82
589.45	45958.76
589.61	46003.23
589.77	46419.84
589.93	46473.68
