SpectraSuite Data File
++++++++++++++++++++++++++++++++++++
Date: Fri Oct 25 11:25:27 EDT 2013
User: price-jones
Dark Spectrum Present: No
Reference Spectrum Present: No
Number of Sampled Component Spectra: 1
Spectrometers: USB2+H05261
Integration Time (usec): 100000 (USB2+H05261)
Spectra Averaged: 1 (USB2+H05261)
Boxcar Smoothing: 0 (USB2+H05261)
Correct for Electrical Dark: No (USB2+H05261)
Strobe/Lamp Enabled: No (USB2+H05261)
Correct for Detector Non-linearity: No (USB2+H05261)
Correct for Stray Light: No (USB2+H05261)
Number of Pixels in Processed Spectrum: 2048
>>>>>Begin Processed Spectral Data<<<<<
365.73	259.80
365.92	259.80
366.12	259.80
366.32	189.58
366.52	117.03
366.72	152.13
366.91	177.88
367.11	107.66
367.31	60.85
367.51	145.11
367.70	196.60
367.90	156.82
368.10	138.09
368.30	152.13
368.49	154.48
368.69	191.92
368.89	161.50
369.09	194.26
369.28	187.24
369.48	128.73
369.68	220.01
369.87	212.99
370.07	198.95
370.27	205.97
370.47	339.38
370.66	573.43
370.86	641.31
371.06	617.90
371.25	725.57
371.45	580.45
371.65	730.25
371.84	676.41
372.04	660.03
372.24	674.07
372.44	744.29
372.63	807.48
372.83	786.42
373.03	786.42
373.22	758.33
373.42	763.01
373.62	816.85
373.81	809.83
374.01	805.14
374.21	793.44
374.40	795.78
374.60	847.27
374.79	786.42
374.99	770.04
375.19	821.53
375.38	791.10
375.58	816.85
375.78	870.68
375.97	828.55
376.17	903.45
376.37	823.87
376.56	884.72
376.76	908.13
376.95	814.51
377.15	912.81
377.35	919.83
377.54	936.21
377.74	830.89
377.93	891.74
378.13	863.66
378.33	905.79
378.52	884.72
378.72	945.58
378.91	936.21
379.11	875.36
379.31	973.66
379.50	882.38
379.70	1032.18
379.89	1055.58
380.09	922.17
380.28	950.26
380.48	957.28
380.68	985.37
380.87	1069.62
381.07	933.87
381.26	966.64
381.46	971.32
381.65	1020.47
381.85	1076.65
382.04	936.21
382.24	1123.46
382.43	1060.26
382.63	1090.69
382.83	1125.80
383.02	1050.90
383.22	1114.10
383.41	1172.61
383.61	1170.27
383.80	1191.33
384.00	1149.20
384.19	1095.37
384.39	1107.07
384.58	1156.22
384.78	1170.27
384.97	1137.50
385.17	1095.37
385.36	1207.72
385.56	1132.82
385.75	1235.80
385.95	1212.40
386.14	1165.59
386.34	1217.08
386.53	1179.63
386.72	1172.61
386.92	1231.12
387.11	1170.27
387.31	1198.35
387.50	1221.76
387.70	1193.67
387.89	1324.74
388.09	1245.16
388.28	1355.17
388.48	1291.98
388.67	1324.74
388.86	1317.72
389.06	1322.40
389.25	1310.70
389.45	1336.45
389.64	1331.76
389.84	1390.28
390.03	1425.39
390.22	1371.55
390.42	1413.68
390.61	1352.83
390.81	1427.73
391.00	1500.28
391.19	1357.51
391.39	1329.42
391.58	1406.66
391.78	1467.52
391.97	1488.58
392.16	1519.01
392.36	1458.15
392.55	1423.05
392.75	1458.15
392.94	1472.20
393.13	1467.52
393.33	1621.99
393.52	1561.14
393.71	1516.67
393.91	1467.52
394.10	1413.68
394.29	1617.31
394.49	1598.59
394.68	1556.46
394.88	1572.84
395.07	1643.06
395.26	1636.03
395.46	1673.48
395.65	1783.49
395.84	1657.10
396.04	1818.60
396.23	1692.21
396.42	1703.91
396.62	1820.94
396.81	1776.47
397.00	1816.26
397.19	1778.81
397.39	1727.32
397.58	1762.42
397.77	1781.15
397.97	1856.04
398.16	1811.57
398.35	1935.62
398.55	1933.28
398.74	1888.81
398.93	1956.69
399.12	1933.28
399.32	1905.20
399.51	1923.92
399.70	1912.22
399.90	1853.70
400.09	1998.82
400.28	1975.41
400.47	2092.44
400.67	1977.75
400.86	1996.48
401.05	2033.93
401.24	2076.06
401.44	2038.61
401.63	2169.68
401.82	2115.84
402.01	2139.25
402.21	2167.34
402.40	2169.68
402.59	2209.47
402.78	2249.25
402.97	2275.00
403.17	2235.21
403.36	2289.04
403.55	2347.56
403.74	2431.82
403.93	2356.92
404.13	2363.94
404.32	2448.20
404.51	2256.28
404.70	2373.30
404.89	2422.45
405.09	2480.97
405.28	2399.05
405.47	2438.84
405.66	2420.11
405.85	2551.18
406.05	2586.29
406.24	2553.52
406.43	2583.95
406.62	2642.46
406.81	2546.50
407.00	2518.42
407.20	2492.67
407.39	2623.74
407.58	2719.70
407.77	2668.21
407.96	2761.83
408.15	2771.19
408.34	2654.17
408.54	2810.98
408.73	2743.11
408.92	2949.08
409.11	2874.18
409.30	2768.85
409.49	2881.20
409.68	3087.17
409.87	2935.03
410.07	2977.16
410.26	3014.61
410.45	2864.82
410.64	2960.78
410.83	3073.12
411.02	3152.70
411.21	3173.77
411.40	3152.70
411.59	3222.92
411.78	3178.45
411.98	3143.34
412.17	3283.77
412.36	3281.43
412.55	3440.59
412.74	3468.67
412.93	3435.91
413.12	3419.52
413.31	3534.21
413.50	3449.95
413.69	3478.04
413.88	3534.21
414.07	3548.25
414.26	3679.32
414.45	3637.19
414.64	3688.68
414.83	3777.62
415.02	3698.05
415.22	3770.60
415.41	3943.80
415.60	3843.16
415.79	3889.97
415.98	3927.42
416.17	4021.04
416.36	3880.61
416.55	4044.45
416.74	3929.76
416.93	3995.29
417.12	4095.94
417.31	4074.87
417.50	4156.79
417.69	4285.52
417.88	4152.11
418.07	4292.54
418.26	4217.65
418.45	4358.08
418.64	4332.33
418.83	4430.63
419.02	4355.74
419.21	4409.57
419.39	4458.72
419.58	4484.47
419.77	4470.42
419.96	4599.15
420.15	4526.60
420.34	4608.51
420.53	4507.87
420.72	4657.67
420.91	4669.37
421.10	4739.58
421.29	4753.63
421.48	4582.77
421.67	4667.03
421.86	4730.22
422.05	4898.74
422.24	4688.09
422.43	4741.93
422.61	4819.16
422.80	4994.70
422.99	4933.85
423.18	4957.25
423.37	4905.76
423.56	4868.31
423.75	4760.65
423.94	4912.78
424.13	4592.13
424.32	4755.97
424.50	4877.68
424.69	5109.39
424.88	4966.62
425.07	4985.34
425.26	4973.64
425.45	4929.17
425.64	4800.44
425.83	5029.81
426.01	5074.28
426.20	5146.84
426.39	4931.51
426.58	5004.07
426.77	4992.36
426.96	5181.95
427.15	5123.43
427.33	5329.40
427.52	5160.88
427.71	5198.33
427.90	5275.57
428.09	5158.54
428.28	5455.79
428.46	5212.37
428.65	5378.55
428.84	5448.77
429.03	5371.53
429.22	5174.92
429.40	5406.64
429.59	5315.36
429.78	5226.42
429.97	5294.29
430.16	5425.36
430.34	5547.07
430.53	5692.18
430.72	5668.78
430.91	5654.73
431.10	5654.73
431.28	5528.35
431.47	5614.95
431.66	5750.70
431.85	5558.77
432.03	5860.70
432.22	5940.28
432.41	5844.32
432.60	5804.53
432.79	5830.27
432.97	5942.62
433.16	5884.11
433.35	5966.03
433.54	6024.54
433.72	5893.47
433.91	6094.76
434.10	6125.18
434.28	6036.24
434.47	6125.18
434.66	6239.87
434.85	6272.64
435.03	6368.60
435.22	6443.49
435.41	6401.37
435.59	6396.68
435.78	6331.15
435.97	6368.60
436.16	6274.98
436.34	6497.33
436.53	6354.55
436.72	6661.16
436.90	6480.94
437.09	6518.39
437.28	6443.49
437.46	6565.20
437.65	6525.41
437.84	6609.67
438.02	6642.44
438.21	6686.91
438.40	6642.44
438.58	6801.60
438.77	6988.84
438.96	6895.22
439.14	7026.29
439.33	6963.09
439.52	7098.84
439.70	7232.26
439.89	7325.88
440.08	7417.16
440.26	7194.81
440.45	7307.15
440.63	7419.50
440.82	7669.94
441.01	7538.87
441.19	7550.57
441.38	7602.06
441.57	7667.60
441.75	7688.66
441.94	7845.48
442.12	7751.85
442.31	7927.39
442.50	8095.91
442.68	7857.18
442.87	8124.00
443.05	7899.31
443.24	8365.07
443.43	8070.17
443.61	8360.39
443.80	8238.69
443.98	7922.71
444.17	7751.85
444.35	8156.77
444.54	8386.14
444.73	8257.41
444.91	8259.75
445.10	8344.01
445.28	8294.86
445.47	8002.29
445.65	8257.41
445.84	8423.59
446.02	8463.38
446.21	8622.53
446.39	8294.86
446.58	8482.10
446.77	8500.83
446.95	8163.79
447.14	8416.57
447.32	8507.85
447.51	8564.02
447.69	8372.10
447.88	8512.53
448.06	8304.22
448.25	8421.25
448.43	8533.59
448.62	8411.89
448.80	8454.02
448.99	8676.37
449.17	8631.90
449.36	8482.10
449.54	8894.04
449.73	8896.38
449.91	8856.59
450.10	8943.19
450.28	9121.07
450.46	8990.00
450.65	8830.84
450.83	8990.00
451.02	8805.10
451.20	9020.42
451.39	8985.32
451.57	9046.17
451.76	8964.25
451.94	9011.06
452.13	9247.46
452.31	9202.99
452.49	9074.26
452.68	9270.86
452.86	9018.08
453.05	9240.44
453.23	9495.55
453.42	9294.27
453.60	9200.65
453.78	9488.53
453.97	9448.74
454.15	9352.78
454.34	9582.15
454.52	9561.09
454.70	9568.11
454.89	9722.59
455.07	9891.10
455.26	9853.66
455.44	9989.41
455.62	9760.03
455.81	9799.82
455.99	9928.55
456.17	9776.42
456.36	10097.07
456.54	10092.39
456.73	10345.17
456.91	10450.49
457.09	10427.09
457.28	10441.13
457.46	10347.51
457.64	10593.26
457.83	10237.50
458.01	10553.48
458.19	10633.05
458.38	10497.30
458.56	10700.93
458.74	10600.29
458.93	10413.04
459.11	10567.52
459.29	10724.33
459.48	10661.14
459.66	10455.17
459.84	10984.13
460.03	11126.91
460.21	11066.05
460.39	10710.29
460.57	10930.30
460.76	11103.50
460.94	11126.91
461.12	11410.11
461.31	11185.42
461.49	11005.20
461.67	11396.07
461.85	11468.62
462.04	11267.34
462.22	11882.90
462.40	11536.50
462.59	11379.68
462.77	11349.26
462.95	11522.46
463.13	11632.46
463.32	11681.61
463.50	11592.67
463.68	11770.55
463.86	11882.90
464.05	11698.00
464.23	11688.64
464.41	11784.60
464.59	11529.48
464.78	12063.12
464.96	11974.18
465.14	11875.88
465.32	12011.63
465.50	11875.88
465.69	12081.85
465.87	11974.18
466.05	11992.90
466.23	12271.43
466.41	12112.27
466.60	12645.91
466.78	11953.12
466.96	12138.02
467.14	12072.48
467.32	12446.97
467.51	12453.99
467.69	12152.06
467.87	12175.47
468.05	12397.82
468.23	12343.99
468.41	12224.62
468.60	12564.00
468.78	12769.96
468.96	12709.11
469.14	12456.33
469.32	12692.73
469.50	12526.55
469.69	12809.75
469.87	13008.70
470.05	13095.30
470.23	13032.10
470.41	13062.53
470.59	13015.72
470.77	13214.66
470.95	13277.86
471.14	13280.20
471.32	13011.04
471.50	13221.69
471.68	13563.40
471.86	13675.75
472.04	13661.71
472.22	13820.86
472.40	13673.41
472.58	13610.22
472.77	13898.10
472.95	13888.74
473.13	14459.83
473.31	13783.41
473.49	14185.99
473.67	14139.18
473.85	14466.85
474.03	14420.04
474.21	14251.52
474.39	14581.54
474.57	14420.04
474.75	14766.44
474.93	14724.31
475.12	14862.40
475.30	15115.18
475.48	14831.97
475.66	15185.40
475.84	15126.88
476.02	15239.23
476.20	15239.23
476.38	15475.62
476.56	15829.04
476.74	15749.46
476.92	15927.35
477.10	15578.61
477.28	15920.32
477.46	16009.26
477.64	16123.95
477.82	16301.83
478.00	16835.47
478.18	16376.73
478.36	16875.26
478.54	16940.80
478.72	16882.28
478.90	17341.03
479.08	17535.29
479.26	17451.03
479.44	17703.81
479.62	17727.22
479.80	17818.50
479.98	18132.13
480.16	18480.87
480.34	18221.07
480.52	18291.29
480.70	18415.34
480.88	18188.30
481.06	18787.48
481.24	18745.35
481.41	18829.61
481.59	19183.03
481.77	19164.31
481.95	19325.80
482.13	19620.71
482.31	19669.86
482.49	20084.14
482.67	20056.05
482.85	20301.81
483.03	20563.95
483.21	20634.16
483.39	20718.42
483.57	20746.51
483.74	20856.51
483.92	21406.54
484.10	20966.52
484.28	21291.85
484.46	21724.85
484.64	22068.91
484.82	21834.86
485.00	22398.93
485.18	22782.77
485.35	22909.16
485.53	22665.75
485.71	22927.89
485.89	23580.90
486.07	23131.51
486.25	23257.90
486.43	23431.10
486.61	23810.27
486.78	23812.61
486.96	24224.54
487.14	24322.85
487.32	24421.15
487.50	24601.37
487.68	24861.17
487.85	24999.26
488.03	25582.06
488.21	25462.69
488.39	25654.61
488.57	26136.76
488.75	26183.57
488.92	26040.80
489.10	26426.99
489.28	26501.89
489.46	27087.02
489.64	26740.62
489.81	27164.26
489.99	27433.42
490.17	27571.51
490.35	28004.51
490.53	27613.64
490.70	28098.13
490.88	28393.04
491.06	28470.28
491.24	28315.80
491.41	29001.58
491.59	28741.78
491.77	29294.14
491.95	29467.34
492.13	29277.76
492.30	29692.04
492.48	29984.60
492.66	29928.43
492.84	30188.23
493.01	30122.69
493.19	30635.27
493.37	30586.12
493.54	30913.80
493.72	30930.18
493.90	31377.22
494.08	31630.00
494.25	31658.09
494.43	31850.01
494.61	32266.63
494.79	32325.14
494.96	32339.18
495.14	32570.90
495.32	32828.35
495.49	32987.51
495.67	32598.98
495.85	33205.18
496.02	33703.71
496.20	33640.52
496.38	34038.41
496.55	33720.10
496.73	34525.24
496.91	34625.89
497.09	34658.65
497.26	35068.25
497.44	34260.76
497.62	35445.07
497.79	35688.49
497.97	35178.25
498.14	35721.26
498.32	35885.09
498.50	36077.02
498.67	36435.12
498.85	36137.87
499.03	36343.84
499.20	36526.40
499.38	36800.24
499.56	36961.74
499.73	37170.05
499.91	37244.94
500.08	37539.85
500.26	37205.16
500.44	37785.61
500.61	37661.56
500.79	37216.86
500.97	37858.17
501.14	38075.84
501.32	37958.81
501.49	38326.27
501.67	38284.14
501.84	38862.26
502.02	38457.34
502.20	39206.31
502.37	38890.34
502.55	39129.08
502.72	39150.14
502.90	39412.28
503.07	39257.81
503.25	39328.02
503.43	39346.75
503.60	39665.06
503.78	39665.06
503.95	39840.60
504.13	40095.72
504.30	40329.77
504.48	40217.43
504.65	40252.53
504.83	40701.92
505.01	40734.68
505.18	40559.14
505.36	41153.64
505.53	40971.08
505.71	41411.10
505.88	41558.55
506.06	41155.98
506.23	41530.47
506.41	41394.71
506.58	41738.77
506.76	41708.35
506.93	42396.46
507.11	41783.24
507.28	42349.65
507.46	42363.70
507.63	42728.82
507.81	43353.74
507.98	42499.45
508.16	42920.74
508.33	43323.32
508.50	43084.58
508.68	43185.22
508.85	43487.15
509.03	43454.39
509.20	43508.22
509.38	44245.49
509.55	43702.48
509.73	44397.62
509.90	44308.68
510.08	44023.14
510.25	44343.79
510.42	44474.86
510.60	44699.55
510.77	44952.33
510.95	45146.59
511.12	45127.87
511.30	45450.86
511.47	45462.57
511.64	45179.36
511.82	45705.98
511.99	45577.25
512.17	45368.94
512.34	45813.65
512.51	46136.64
512.69	45904.93
512.86	46033.66
513.04	46511.13
513.21	46281.75
513.38	46302.82
513.56	46761.56
513.73	46518.15
513.90	46223.24
514.08	46742.84
514.25	46813.05
514.43	46972.21
514.60	46995.62
514.77	46997.96
514.95	47688.42
515.12	47016.68
515.29	47278.82
515.47	47489.47
515.64	47655.65
515.81	47405.21
515.99	48055.88
516.16	48210.35
516.33	48189.29
516.51	48016.09
516.68	48238.44
516.85	47887.36
517.03	48767.40
517.20	48760.38
517.37	48456.11
517.54	48491.22
517.72	48519.31
517.89	48760.38
518.06	49179.34
518.24	48947.62
518.41	48987.41
518.58	49450.84
518.75	48886.77
518.93	49132.53
519.10	48905.49
519.27	49371.26
519.45	49439.14
519.62	49815.96
519.79	49827.66
519.96	49741.06
520.14	49963.42
520.31	50007.89
520.48	50071.08
520.65	49975.12
520.83	50288.75
521.00	50192.79
521.17	50494.72
521.34	50534.51
521.52	50431.52
521.69	50752.18
521.86	50696.00
522.03	50829.41
522.20	51019.00
522.38	51129.00
522.55	50852.82
522.72	50857.50
522.89	50897.29
523.07	51533.92
523.24	50911.33
523.41	51489.45
523.58	51077.51
523.75	51812.44
523.92	52226.71
524.10	52055.85
524.27	51550.30
524.44	51744.56
524.61	51484.76
524.78	51814.78
524.96	52119.05
525.13	52210.33
525.30	52364.81
525.47	52353.10
525.64	51948.19
525.81	52264.16
525.98	52332.04
526.16	52493.54
526.33	52446.72
526.50	52697.16
526.67	52563.75
526.84	52680.78
527.01	52341.40
527.18	52605.88
527.36	52935.90
527.53	52587.16
527.70	53062.29
527.87	53462.52
528.04	53008.45
528.21	52978.03
528.38	53036.54
528.55	53160.59
528.72	53205.06
528.89	53118.46
529.07	53083.35
529.24	53254.21
529.41	53380.60
529.58	53207.40
529.75	53490.60
529.92	53614.65
530.09	53588.91
530.26	53773.81
530.43	53748.06
530.60	53261.23
530.77	53499.97
530.94	53942.33
531.11	53979.78
531.28	54017.22
531.46	54138.93
531.63	54171.70
531.80	53944.67
531.97	54157.66
532.14	54312.13
532.31	54279.36
532.48	54445.54
532.65	54735.77
532.82	54300.43
532.99	54550.87
533.16	54454.90
533.33	54649.17
533.50	54794.28
533.67	54602.36
533.84	54532.14
534.01	54747.47
534.18	54754.49
534.35	54951.10
534.52	54873.86
534.69	55229.62
534.86	55007.27
535.03	55025.99
535.20	55042.38
535.37	55330.26
535.54	55178.13
535.71	55084.51
535.88	55276.43
536.05	55121.96
536.22	55348.99
536.38	55250.69
536.55	55395.80
536.72	55573.68
536.89	55131.32
537.06	55377.08
537.23	55503.46
537.40	55253.03
537.57	55704.75
537.74	55444.95
537.91	55817.10
538.08	55690.71
538.25	55561.98
538.42	55791.35
538.59	56020.72
538.75	55735.18
538.92	55952.85
539.09	56062.85
539.26	56065.19
539.43	55693.05
539.60	56067.53
539.77	56233.71
539.94	56537.98
540.11	56074.55
540.28	56360.10
540.44	56053.49
540.61	56233.71
540.78	56133.07
540.95	56179.88
541.12	56264.14
541.29	56210.31
541.46	56397.55
541.62	56360.10
541.79	56313.29
541.96	56343.72
542.13	56264.14
542.30	56678.41
542.47	56535.64
542.63	56657.35
542.80	56830.55
542.97	57008.43
543.14	56989.70
543.31	56818.84
543.48	56938.21
543.64	57375.89
543.81	57165.24
543.98	57221.42
544.15	56989.70
544.32	57406.32
544.48	57415.68
544.65	57118.43
544.82	57366.53
544.99	57008.43
545.16	57155.88
545.32	57282.27
545.49	57506.96
545.66	57490.58
545.83	57516.32
546.00	57350.15
546.16	57443.77
546.33	57361.85
546.50	57303.34
546.67	57733.99
546.83	56970.98
547.00	57439.09
547.17	57389.94
547.34	57733.99
547.50	57968.05
547.67	57731.65
547.84	57602.92
548.00	58026.56
548.17	58174.02
548.34	57724.63
548.51	58120.18
548.67	57827.62
548.84	57867.40
549.01	58035.92
549.18	58045.29
549.34	57972.73
549.51	58101.46
549.68	58183.38
549.84	58000.82
550.01	58382.32
550.18	58113.16
550.34	58239.55
550.51	58295.72
550.68	58375.30
550.84	58106.14
551.01	58520.41
551.18	58272.32
551.34	58272.32
551.51	58553.18
551.68	58436.16
551.84	58632.76
552.01	58415.09
552.18	58546.16
552.34	58307.43
552.51	58417.43
552.68	58244.23
552.84	58438.50
553.01	58555.52
553.18	58389.34
553.34	58892.56
553.51	58569.57
553.67	58710.00
553.84	58653.82
554.01	58780.21
554.17	58759.15
554.34	58855.11
554.51	58780.21
554.67	59082.14
554.84	58712.34
555.00	58787.24
555.17	58805.96
555.33	58904.26
555.50	58705.32
555.67	58695.95
555.83	58827.02
556.00	58845.75
556.16	59105.55
556.33	59098.53
556.50	59082.14
556.66	59236.62
556.83	59023.63
556.99	59304.49
557.16	59363.01
557.32	59323.22
557.49	59245.98
557.65	59234.28
557.82	59288.11
557.98	59150.02
558.15	59320.88
558.32	59355.99
558.48	59339.60
558.65	59278.75
558.81	59377.05
558.98	59402.80
559.14	59449.61
559.31	59498.76
559.47	59461.31
559.64	59489.40
559.80	59568.97
559.97	59660.26
560.13	59386.41
560.30	59615.79
560.46	59611.10
560.63	59547.91
560.79	59643.87
560.96	59812.39
561.12	59767.92
561.29	59522.16
561.45	59618.13
561.61	59601.74
561.78	59681.32
561.94	59578.34
562.11	59828.77
562.27	59587.70
562.44	59744.51
562.60	59849.84
562.77	59863.88
562.93	59611.10
563.10	60079.21
563.26	59671.96
563.42	59987.93
563.59	59711.75
563.75	59824.09
563.92	59906.01
564.08	59971.55
564.24	59950.48
564.41	60100.28
564.57	59898.99
564.74	59891.97
564.90	59845.16
565.07	60006.65
565.23	59952.82
565.39	59959.84
565.56	60083.89
565.72	60025.38
565.88	60048.78
566.05	60011.34
566.21	60025.38
566.38	59971.55
566.54	60023.04
566.70	60130.70
566.87	60072.19
567.03	59962.18
567.19	60254.75
567.36	60097.94
567.52	60268.79
567.68	60233.69
567.85	60416.25
568.01	60226.66
568.17	60116.66
568.34	60097.94
568.50	60067.51
568.66	60034.74
568.83	60243.05
568.99	60217.30
569.15	60158.79
569.32	60154.11
569.48	60266.45
569.64	60350.71
569.81	60301.56
569.97	60264.11
570.13	60231.35
570.30	60191.56
570.46	60310.92
570.62	60196.24
570.78	60324.97
570.95	60367.10
571.11	60336.67
571.27	60273.48
571.43	60486.46
571.60	60397.52
571.76	60582.43
571.92	60502.85
572.09	60388.16
572.25	60306.24
572.41	60355.39
572.57	60465.40
572.74	60570.72
572.90	60486.46
573.06	60371.78
573.22	60406.89
573.38	60470.08
573.55	60439.65
573.71	60786.05
573.87	60315.61
574.03	60334.33
574.20	60598.81
574.36	60282.84
574.52	60746.26
574.68	60619.88
574.84	60598.81
575.01	60729.88
575.17	60652.64
575.33	60570.72
575.49	60687.75
575.65	60463.06
575.82	60622.22
575.98	60624.56
576.14	60631.58
576.30	60739.24
576.46	60516.89
576.62	60505.19
576.79	60615.19
576.95	60528.59
577.11	60488.80
577.27	60619.88
577.43	60657.32
577.59	60441.99
577.75	60741.58
577.92	60516.89
578.08	60786.05
578.24	60643.28
578.40	60708.82
578.56	60788.39
578.72	60832.86
578.88	60788.39
579.04	60734.56
579.21	60828.18
579.37	60896.06
579.53	60772.01
579.69	60392.84
579.85	60477.10
580.01	60739.24
580.17	60718.18
580.33	60619.88
580.49	60893.72
580.65	60764.99
580.82	60811.80
580.98	60708.82
581.14	60647.96
581.30	60748.60
581.46	60505.19
581.62	60793.07
581.78	60591.79
581.94	60945.21
582.10	60715.84
582.26	60832.86
582.42	60690.09
582.58	60685.41
582.74	60636.26
582.90	60750.94
583.06	60680.73
583.22	60589.45
583.38	60463.06
583.54	60622.22
583.70	60776.69
583.86	60690.09
584.02	60673.71
584.18	60870.31
584.34	60921.80
584.50	60849.25
584.66	60640.94
584.82	60699.45
584.98	60970.96
585.14	60889.04
585.30	60821.16
585.46	60956.91
585.62	60982.66
585.78	60830.52
585.94	60687.75
586.10	60963.93
586.26	60905.42
586.42	60914.78
586.58	60795.42
586.74	60886.70
586.90	60783.71
587.06	60879.67
587.22	60849.25
587.38	61003.72
587.54	60870.31
587.70	61153.52
587.86	61034.15
588.02	60736.90
588.18	60977.98
588.34	60917.12
588.49	60947.55
