SpectraSuite Data File
++++++++++++++++++++++++++++++++++++
Date: Fri Oct 25 10:47:29 EDT 2013
User: price-jones
Dark Spectrum Present: No
Reference Spectrum Present: No
Number of Sampled Component Spectra: 1
Spectrometers: USB2+H05261
Integration Time (usec): 100000 (USB2+H05261)
Spectra Averaged: 1 (USB2+H05261)
Boxcar Smoothing: 0 (USB2+H05261)
Correct for Electrical Dark: No (USB2+H05261)
Strobe/Lamp Enabled: No (USB2+H05261)
Correct for Detector Non-linearity: No (USB2+H05261)
Correct for Stray Light: No (USB2+H05261)
Number of Pixels in Processed Spectrum: 2048
>>>>>Begin Processed Spectral Data<<<<<
365.73	58.51
365.92	58.51
366.12	58.51
366.32	32.77
366.52	30.43
366.72	60.85
366.91	11.70
367.11	4.68
367.31	18.72
367.51	18.72
367.70	102.98
367.90	77.24
368.10	14.04
368.30	35.11
368.49	67.88
368.69	9.36
368.89	35.11
369.09	67.88
369.28	133.41
369.48	77.24
369.68	142.77
369.87	102.98
370.07	18.72
370.27	163.84
370.47	224.69
370.66	365.12
370.86	306.61
371.06	430.66
371.25	449.38
371.45	411.93
371.65	428.32
371.84	475.13
372.04	416.62
372.24	517.26
372.44	496.19
372.63	444.70
372.83	561.73
373.03	482.15
373.22	472.79
373.42	493.85
373.62	575.77
373.81	425.98
374.01	512.58
374.21	524.28
374.40	528.96
374.60	550.03
374.79	526.62
374.99	578.11
375.19	603.86
375.38	531.30
375.58	596.84
375.78	585.13
375.97	596.84
376.17	603.86
376.37	582.79
376.56	561.73
376.76	585.13
376.95	559.39
377.15	578.11
377.35	596.84
377.54	594.50
377.74	631.94
377.93	482.15
378.13	617.90
378.33	674.07
378.52	648.33
378.72	662.37
378.91	550.03
379.11	638.97
379.31	624.92
379.50	571.09
379.70	669.39
379.89	692.80
380.09	690.46
380.28	524.28
380.48	685.78
380.68	629.60
380.87	596.84
381.07	627.26
381.26	678.76
381.46	627.26
381.65	681.10
381.85	690.46
382.04	615.56
382.24	685.78
382.43	690.46
382.63	699.82
382.83	709.18
383.02	730.25
383.22	678.76
383.41	615.56
383.61	734.93
383.80	755.99
384.00	755.99
384.19	709.18
384.39	751.31
384.58	716.20
384.78	655.35
384.97	716.20
385.17	784.08
385.36	793.44
385.56	758.33
385.75	765.36
385.95	737.27
386.14	814.51
386.34	753.65
386.53	777.06
386.72	786.42
386.92	781.74
387.11	854.30
387.31	765.36
387.50	858.98
387.70	791.10
387.89	828.55
388.09	807.48
388.28	814.51
388.48	814.51
388.67	866.00
388.86	765.36
389.06	851.96
389.25	936.21
389.45	882.38
389.64	856.64
389.84	943.24
390.03	844.93
390.22	947.92
390.42	919.83
390.61	933.87
390.81	877.70
391.00	905.79
391.19	926.85
391.39	861.32
391.58	966.64
391.78	959.62
391.97	980.68
392.16	896.43
392.36	1034.52
392.55	1020.47
392.75	947.92
392.94	961.96
393.13	875.36
393.33	936.21
393.52	1011.11
393.71	924.51
393.91	990.05
394.10	1036.86
394.29	1078.99
394.49	957.28
394.68	1116.44
394.88	1081.33
395.07	1057.92
395.26	1114.10
395.46	1156.22
395.65	1240.48
395.84	1083.67
396.04	1114.10
396.23	1097.71
396.42	992.39
396.62	1188.99
396.81	1137.50
397.00	1095.37
397.19	1111.75
397.39	1125.80
397.58	1181.97
397.77	1184.31
397.97	1299.00
398.16	1200.69
398.35	1196.01
398.55	1228.78
398.74	1270.91
398.93	1289.64
399.12	1212.40
399.32	1313.04
399.51	1394.96
399.70	1383.26
399.90	1320.06
400.09	1392.62
400.28	1397.30
400.47	1350.49
400.67	1364.53
400.86	1409.00
401.05	1343.47
401.24	1439.43
401.44	1453.47
401.63	1509.65
401.82	1327.08
402.01	1458.15
402.21	1451.13
402.40	1469.86
402.59	1448.79
402.78	1444.11
402.97	1542.41
403.17	1624.33
403.36	1551.78
403.55	1528.37
403.74	1542.41
403.93	1537.73
404.13	1544.75
404.32	1650.08
404.51	1647.74
404.70	1729.66
404.89	1575.18
405.09	1715.61
405.28	1666.46
405.47	1626.67
405.66	1682.85
405.85	1645.40
406.05	1598.59
406.24	1762.42
406.43	1767.10
406.62	1750.72
406.81	1790.51
407.00	1781.15
407.20	1832.64
407.39	1818.60
407.58	1802.21
407.77	1888.81
407.96	1809.23
408.15	1849.02
408.34	1900.52
408.54	1973.07
408.73	1891.15
408.92	1973.07
409.11	2003.50
409.30	1926.26
409.49	1989.46
409.68	2026.90
409.87	1961.37
410.07	2033.93
410.26	2136.91
410.45	2012.86
410.64	2031.58
410.83	2094.78
411.02	2134.57
411.21	2204.78
411.40	2139.25
411.59	2150.95
411.78	2221.17
411.98	2207.13
412.17	2270.32
412.36	2298.41
412.55	2296.07
412.74	2324.15
412.93	2331.17
413.12	2296.07
413.31	2422.45
413.50	2347.56
413.69	2532.46
413.88	2455.22
414.07	2544.16
414.26	2443.52
414.45	2574.59
414.64	2590.97
414.83	2558.21
415.02	2581.61
415.22	2567.57
415.41	2668.21
415.60	2637.78
415.79	2766.51
415.98	2803.96
416.17	2661.19
416.36	2679.91
416.55	2761.83
416.74	2808.64
416.93	2818.00
417.12	2857.79
417.31	2890.56
417.50	2977.16
417.69	2860.13
417.88	2963.12
418.07	3016.95
418.26	3000.57
418.45	3002.91
418.64	3206.53
418.83	2993.55
419.02	3103.55
419.21	3061.42
419.39	2972.48
419.58	3063.76
419.77	2993.55
419.96	3150.36
420.15	3300.16
420.34	3192.49
420.53	3206.53
420.72	3288.45
420.91	3353.99
421.10	3220.58
421.29	3311.86
421.48	3204.19
421.67	3361.01
421.86	3337.60
422.05	3236.96
422.24	3267.39
422.43	3417.18
422.61	3471.01
422.80	3461.65
422.99	3368.03
423.18	3316.54
423.37	3466.33
423.56	3492.08
423.75	3382.07
423.94	3337.60
424.13	3290.79
424.32	3290.79
424.50	3478.04
424.69	3428.88
424.88	3506.12
425.07	3459.31
425.26	3361.01
425.45	3393.78
425.64	3513.14
425.83	3344.63
426.01	3459.31
426.20	3468.67
426.39	3375.05
426.58	3583.36
426.77	3412.50
426.96	3417.18
427.15	3566.98
427.33	3506.12
427.52	3555.27
427.71	3581.02
427.90	3658.26
428.09	3632.51
428.28	3700.39
428.46	3700.39
428.65	3691.02
428.84	3789.33
429.03	3756.56
429.22	3637.19
429.40	3627.83
429.59	3686.34
429.78	3581.02
429.97	3581.02
430.16	3672.30
430.34	3747.20
430.53	3726.13
430.72	3744.86
430.91	3861.88
431.10	3847.84
431.28	3833.80
431.47	3962.53
431.66	3880.61
431.85	3948.48
432.03	3990.61
432.22	4222.33
432.41	4077.21
432.60	4138.07
432.79	4126.36
432.97	4205.94
433.16	4079.55
433.35	4049.13
433.54	4032.74
433.72	4145.09
433.91	4163.81
434.10	4102.96
434.28	4227.01
434.47	4236.37
434.66	4322.97
434.85	4278.50
435.03	4320.63
435.22	4482.13
435.41	4325.31
435.59	4245.73
435.78	4442.34
435.97	4454.04
436.16	4456.38
436.34	4526.60
436.53	4477.44
436.72	4542.98
436.90	4341.69
437.09	4440.00
437.28	4409.57
437.46	4582.77
437.65	4631.92
437.84	4533.62
438.02	4486.81
438.21	4568.73
438.40	4571.07
438.58	4858.95
438.77	4690.43
438.96	4706.82
439.14	4915.12
439.33	4966.62
439.52	4830.87
439.70	4938.53
439.89	4978.32
440.08	4959.60
440.26	5043.85
440.45	5032.15
440.63	4961.94
440.82	5135.14
441.01	5249.82
441.19	5179.61
441.38	5289.61
441.57	5181.95
441.75	5277.91
441.94	5418.34
442.12	5486.22
442.31	5341.10
442.50	5430.04
442.68	5479.19
442.87	5610.26
443.05	5514.30
443.24	5497.92
443.43	5565.79
443.61	5600.90
443.80	5708.57
443.98	5736.65
444.17	5451.11
444.35	5577.50
444.54	5692.18
444.73	5724.95
444.91	5748.36
445.10	5806.87
445.28	5734.31
445.47	5657.07
445.65	5750.70
445.84	5617.29
446.02	5659.42
446.21	5640.69
446.39	5738.99
446.58	5778.78
446.77	5839.64
446.95	5689.84
447.14	5757.72
447.32	5879.43
447.51	5921.56
447.69	5696.86
447.88	5795.17
448.06	5877.09
448.25	5757.72
448.43	5818.57
448.62	5870.06
448.80	5839.64
448.99	5902.83
449.17	6005.81
449.36	5823.25
449.54	6052.63
449.73	6090.07
449.91	6169.65
450.10	6087.73
450.28	6272.64
450.46	6270.30
450.65	6164.97
450.83	6118.16
451.02	6148.59
451.20	6207.10
451.39	6389.66
451.57	6324.13
451.76	6174.33
451.94	6490.31
452.13	6396.68
452.31	6209.44
452.49	6289.02
452.68	6321.79
452.86	6431.79
453.05	6462.22
453.23	6471.58
453.42	6389.66
453.60	6424.77
453.78	6506.69
453.97	6558.18
454.15	6356.90
454.34	6370.94
454.52	6588.61
454.70	6583.93
454.89	6686.91
455.07	6621.38
455.26	6569.88
455.44	6860.11
455.62	6768.83
455.81	6738.40
455.99	6651.80
456.17	6944.37
456.36	6801.60
456.54	6935.01
456.73	6883.52
456.91	7047.35
457.09	7000.54
457.28	7258.00
457.46	6977.14
457.64	7133.95
457.83	7124.59
458.01	7052.03
458.19	7164.38
458.38	6988.84
458.56	7201.83
458.74	7236.94
458.93	7063.74
459.11	7225.23
459.29	7112.89
459.48	7325.88
459.66	7194.81
459.84	7459.29
460.03	7454.61
460.21	7262.68
460.39	7375.03
460.57	7440.56
460.76	7243.96
460.94	7363.33
461.12	7461.63
461.31	7606.74
461.49	7627.81
461.67	7639.51
461.85	7854.84
462.04	7735.47
462.22	8074.85
462.40	7702.70
462.59	7836.11
462.77	7744.83
462.95	7595.04
463.13	7826.75
463.32	7847.82
463.50	8081.87
463.68	8100.59
463.86	7939.10
464.05	8011.65
464.23	7826.75
464.41	7911.01
464.59	7840.79
464.78	8025.70
464.96	8032.72
465.14	8032.72
465.32	8173.15
465.50	8147.40
465.69	8175.49
465.87	8044.42
466.05	8131.02
466.23	8042.08
466.41	8011.65
466.60	8322.94
466.78	7999.95
466.96	8175.49
467.14	8276.13
467.32	8163.79
467.51	8332.31
467.69	8077.19
467.87	8327.63
468.05	8432.95
468.23	8311.24
468.41	8241.03
468.60	8336.99
468.78	8493.80
468.96	8322.94
469.14	8477.42
469.32	8500.83
469.50	8212.94
469.69	8603.81
469.87	8566.36
470.05	8884.67
470.23	8781.69
470.41	8725.52
470.59	8744.24
470.77	8643.60
470.95	8711.47
471.14	8947.87
471.32	8872.97
471.50	9081.28
471.68	8994.68
471.86	9263.84
472.04	9198.31
472.22	9504.92
472.40	9062.55
472.58	9315.33
472.77	9240.44
472.95	9114.05
473.13	9603.22
473.31	9135.11
473.49	9240.44
473.67	9425.34
473.85	9404.27
474.03	9540.02
474.21	9694.50
474.39	9537.68
474.57	9888.76
474.75	9769.40
474.93	10153.24
475.12	10022.17
475.30	10017.49
475.48	9834.93
475.66	10083.03
475.84	10083.03
476.02	10171.97
476.20	10057.28
476.38	10303.04
476.56	10537.09
476.74	10476.24
476.92	10197.71
477.10	10361.55
477.28	10724.33
477.46	10738.38
477.64	10726.68
477.82	11023.92
478.00	10939.66
478.18	11304.79
478.36	11192.44
478.54	11461.60
478.72	11314.15
478.90	11555.22
479.08	11618.42
479.26	11817.36
479.44	11772.89
479.62	11620.76
479.80	11735.45
479.98	12046.74
480.16	12135.68
480.34	12149.72
480.52	12084.19
480.70	12168.45
480.88	11817.36
481.06	12135.68
481.24	12297.17
481.41	12489.10
481.59	12816.77
481.77	12856.56
481.95	12889.33
482.13	12711.45
482.31	12954.87
482.49	13170.19
482.67	12919.76
482.85	13008.70
483.03	13408.93
483.21	13722.56
483.39	13809.16
483.57	13642.98
483.74	13661.71
483.92	13984.70
484.10	13912.14
484.28	14171.94
484.46	14473.87
484.64	14878.79
484.82	14546.43
485.00	14572.18
485.18	14855.38
485.35	14600.26
485.53	14745.38
485.71	14466.85
485.89	14850.70
486.07	14787.50
486.25	15077.73
486.43	15438.17
486.61	15281.36
486.78	15475.62
486.96	15782.23
487.14	15807.98
487.32	15932.03
487.50	16182.46
487.68	16325.24
487.85	16159.06
488.03	16505.46
488.21	16996.97
488.39	16762.92
488.57	16716.11
488.75	17053.14
488.92	17238.05
489.10	17261.45
489.28	17149.11
489.46	17582.10
489.64	17432.31
489.81	17804.46
489.99	17891.06
490.17	18302.99
490.35	18347.46
490.53	18270.22
490.70	18349.80
490.88	18256.18
491.06	18855.36
491.24	18890.46
491.41	18511.30
491.59	18838.97
491.77	18567.47
491.95	19164.31
492.13	19140.90
492.30	19187.71
492.48	19339.85
492.66	19384.32
492.84	19454.53
493.01	19833.70
493.19	19686.25
493.37	20177.76
493.54	20084.14
493.72	20517.14
493.90	20547.56
494.08	20313.51
494.25	20542.88
494.43	20748.85
494.61	21046.10
494.79	20950.14
494.96	21350.37
495.14	21071.84
495.32	21282.49
495.49	21570.38
495.67	21572.72
495.85	21481.44
496.02	21603.14
496.20	21961.25
496.38	21771.66
496.55	21687.40
496.73	22319.35
496.91	22129.77
497.09	22607.23
497.26	22621.28
497.44	22274.88
497.62	22544.04
497.79	22778.09
497.97	22412.97
498.14	23222.80
498.32	23000.44
498.50	23208.75
498.67	23316.42
498.85	23449.83
499.03	23548.13
499.20	23473.23
499.38	23300.03
499.56	23466.21
499.73	24020.92
499.91	24023.26
500.08	24175.39
500.26	24133.26
500.44	24254.97
500.61	24088.79
500.79	24269.01
500.97	24561.58
501.14	24905.64
501.32	24723.08
501.49	24510.09
501.67	24514.77
501.84	24690.31
502.02	25184.16
502.20	25458.01
502.37	25385.45
502.55	25039.05
502.72	25355.02
502.90	25631.21
503.07	25579.71
503.25	25310.55
503.43	25238.00
503.60	25628.87
503.78	25687.38
503.95	25979.95
504.13	26045.48
504.30	26206.98
504.48	26111.02
504.65	25862.92
504.83	26293.58
505.01	26429.33
505.18	26054.84
505.36	26567.42
505.53	26518.27
505.71	26661.04
505.88	26913.82
506.06	26668.06
506.23	26895.10
506.41	26932.54
506.58	26953.61
506.76	27115.11
506.93	27147.87
507.11	27412.35
507.28	27302.35
507.46	27307.03
507.63	27377.25
507.81	27665.13
507.98	27292.99
508.16	27644.07
508.33	27702.58
508.50	27405.33
508.68	28346.23
508.85	28395.38
509.03	27974.08
509.20	28343.89
509.38	28294.74
509.55	28514.75
509.73	28393.04
509.90	28641.14
510.08	28444.53
510.25	28348.57
510.42	28975.83
510.60	28907.96
510.77	28926.68
510.95	29376.06
511.12	28865.83
511.30	29160.73
511.47	29418.19
511.64	29567.99
511.82	29645.23
511.99	29366.70
512.17	29750.55
512.34	29553.94
512.51	30096.95
512.69	29996.31
512.86	29607.78
513.04	30323.98
513.21	29986.94
513.38	30110.99
513.56	29947.15
513.73	30244.40
513.90	30309.94
514.08	30389.52
514.25	30370.79
514.43	30670.38
514.60	30426.96
514.77	30684.42
514.95	30916.14
515.12	30658.68
515.29	31152.53
515.47	30953.58
515.64	31227.43
515.81	31098.70
515.99	31239.13
516.16	31058.91
516.33	31314.03
516.51	31356.16
516.68	31260.20
516.85	30962.95
517.03	31622.98
517.20	31524.68
517.37	31353.82
517.54	31782.13
517.72	31681.49
517.89	31585.53
518.06	31725.96
518.24	31534.04
518.41	31381.90
518.58	31920.23
518.75	32020.87
518.93	32060.66
519.10	32287.69
519.27	32547.49
519.45	32151.94
519.62	32423.44
519.79	32357.91
519.96	32393.01
520.14	32868.14
520.31	32521.74
520.48	32737.07
520.65	32428.12
520.83	32797.93
521.00	33060.07
521.17	32861.12
521.34	32875.16
521.52	33542.22
521.69	33366.68
521.86	33556.26
522.03	32929.00
522.20	33401.79
522.38	33825.42
522.55	33893.30
522.72	33268.37
522.89	33486.04
523.07	33628.82
523.24	33455.62
523.41	33687.33
523.58	33607.75
523.75	34223.31
523.92	33954.15
524.10	34646.95
524.27	34679.72
524.44	34698.44
524.61	34146.08
524.78	34239.70
524.96	34815.47
525.13	34677.38
525.30	34658.65
525.47	34998.03
525.64	34951.22
525.81	34656.31
525.98	34995.69
526.16	34485.45
526.33	34808.45
526.50	35262.51
526.67	35117.40
526.84	34838.87
527.01	34820.15
527.18	35339.75
527.36	35150.17
527.53	35356.13
527.70	35543.38
527.87	35480.18
528.04	35573.80
528.21	35943.61
528.38	35559.76
528.55	35941.27
528.72	35679.13
528.89	36055.95
529.07	36421.08
529.24	35644.02
529.41	36004.46
529.58	35969.35
529.75	35885.09
529.92	35924.88
530.09	35908.50
530.26	36334.48
530.43	36350.86
530.60	36687.90
530.77	36247.88
530.94	36498.31
531.11	36383.63
531.28	36463.21
531.46	36708.96
531.63	36882.16
531.80	36573.21
531.97	36648.11
532.14	37027.28
532.31	36751.09
532.48	36498.31
532.65	37102.17
532.82	36928.97
532.99	37574.96
533.16	36781.52
533.33	37453.25
533.50	37464.96
533.67	37076.43
533.84	37132.60
534.01	36987.49
534.18	37053.02
534.35	37902.64
534.52	37270.69
534.69	37350.27
534.86	37818.38
535.03	37471.98
535.20	37439.21
535.37	37799.65
535.54	38225.63
535.71	37769.22
535.88	37965.83
536.05	38143.71
536.22	37904.98
536.38	38059.45
536.55	37897.95
536.72	37942.42
536.89	37591.34
537.06	38071.15
537.23	38436.28
537.40	38195.20
537.57	38569.69
537.74	37860.51
537.91	38443.30
538.08	38611.82
538.25	38164.78
538.42	38820.13
538.59	38789.70
538.75	38363.72
538.92	38754.59
539.09	38890.34
539.26	38618.84
539.43	38801.40
539.60	38747.57
539.77	38831.83
539.94	38684.37
540.11	38712.46
540.28	38941.83
540.44	38658.63
540.61	38904.38
540.78	38843.53
540.95	38595.43
541.12	38785.02
541.29	39349.09
541.46	39016.73
541.62	39332.70
541.79	39313.98
541.96	38946.51
542.13	39587.82
542.30	39583.14
542.47	39702.51
542.63	39791.45
542.80	39344.41
542.97	40006.78
543.14	40121.46
543.31	40121.46
543.48	40079.33
543.64	40458.50
543.81	39924.86
543.98	39887.41
544.15	39721.23
544.32	40236.15
544.48	40793.20
544.65	40484.25
544.82	40456.16
544.99	40311.05
545.16	40219.77
545.32	40435.10
545.49	40072.31
545.66	40631.70
545.83	40561.48
546.00	40580.21
546.16	40793.20
546.33	40390.62
546.50	40137.85
546.67	40362.54
546.83	39920.18
547.00	40493.61
547.17	40102.74
547.34	40491.27
547.50	40769.79
547.67	41053.00
547.84	40847.03
548.00	41130.23
548.17	41343.22
548.34	40708.94
548.51	41184.07
548.67	41123.21
548.84	40931.29
549.01	41265.99
549.18	41083.42
549.34	40760.43
549.51	41076.40
549.68	41177.04
549.84	41277.69
550.01	41464.93
550.18	41394.71
550.34	41399.40
550.51	41130.23
550.68	41434.50
550.84	41095.13
551.01	41364.29
551.18	41584.30
551.34	41504.72
551.51	40985.12
551.68	41528.13
551.84	41867.50
552.01	41340.88
552.18	41614.72
552.34	41593.66
552.51	41439.18
552.68	42066.45
552.84	41972.83
553.01	41954.10
553.18	42024.32
553.34	41675.58
553.51	41958.78
553.67	41928.36
553.84	41888.57
554.01	42089.85
554.17	42288.80
554.34	42377.74
554.51	42314.55
554.67	42359.02
554.84	42295.82
555.00	42452.64
555.17	41773.88
555.33	42265.39
555.50	42052.41
555.67	42298.16
555.83	42462.00
556.00	42520.51
556.16	42703.07
556.33	42419.87
556.50	42880.95
556.66	43007.34
556.83	42384.76
556.99	42590.73
557.16	42752.23
557.32	42637.54
557.49	42490.09
557.65	42223.26
557.82	42625.84
557.98	42925.42
558.15	42784.99
558.32	42808.40
558.48	42476.04
558.65	42483.06
558.81	42721.80
558.98	42497.11
559.14	42916.06
559.31	42899.68
559.47	42497.11
559.64	43342.04
559.80	43096.28
559.97	43335.02
560.13	42916.06
560.30	43040.11
560.46	43086.92
560.63	42670.31
560.79	42993.30
560.96	43131.39
561.12	43297.57
561.29	43180.54
561.45	43154.80
561.61	43075.22
561.78	42897.34
561.94	42920.74
562.11	42981.60
562.27	43065.86
562.44	43117.35
562.60	43049.47
562.77	43531.62
562.93	42890.32
563.10	43625.25
563.26	43131.39
563.42	43793.76
563.59	43196.93
563.75	43313.95
563.92	43611.20
564.08	43604.18
564.24	43751.63
564.41	43489.49
564.57	43320.98
564.74	43482.47
564.90	43332.68
565.07	43693.12
565.23	43608.86
565.39	43365.45
565.56	43611.20
565.72	43374.81
565.88	43739.93
566.05	43316.29
566.21	43339.70
566.38	43201.61
566.54	43529.28
566.70	43737.59
566.87	44027.82
567.03	43363.11
567.19	43948.24
567.36	43620.56
567.52	43662.69
567.68	44170.59
567.85	43608.86
568.01	43653.33
568.17	43299.91
568.34	43952.92
568.50	43669.72
568.66	43529.28
568.83	43845.26
568.99	43650.99
569.15	43653.33
569.32	43805.47
569.48	43402.89
569.64	43775.04
569.81	43749.29
569.97	43442.68
570.13	43826.53
570.30	43346.72
570.46	43566.73
570.62	43718.87
570.78	43934.20
570.95	43856.96
571.11	44088.67
571.27	43885.04
571.43	43889.73
571.60	44236.12
571.76	43475.45
571.92	43704.82
572.09	43641.63
572.25	43508.22
572.41	43487.15
572.57	43812.49
572.74	44704.23
572.90	44126.12
573.06	44222.08
573.22	43779.72
573.38	44006.75
573.55	44186.97
573.71	43702.48
573.87	43821.85
574.03	44098.03
574.20	44350.81
574.36	44018.46
574.52	44093.35
574.68	43910.79
574.84	43997.39
575.01	43742.27
575.17	43941.22
575.33	43817.17
575.49	43981.01
575.65	44325.07
575.82	44608.27
575.98	44074.63
576.14	44671.46
576.30	43821.85
576.46	44231.44
576.62	43583.12
576.79	43721.21
576.95	43601.84
577.11	44189.31
577.27	43770.36
577.43	44619.97
577.59	44219.74
577.75	44271.23
577.92	43910.79
578.08	43896.75
578.24	43826.53
578.40	43842.92
578.56	44135.48
578.72	44025.48
578.88	44362.51
579.04	44587.21
579.21	44212.72
579.37	44205.70
579.53	44044.20
579.69	44325.07
579.85	44421.03
580.01	44404.64
580.17	44299.32
580.33	44259.53
580.49	44479.54
580.65	44208.04
580.82	44266.55
580.98	44091.01
581.14	43920.15
581.30	44179.95
581.46	43817.17
581.62	44399.96
581.78	44257.19
581.94	44594.23
582.10	44156.55
582.26	44196.34
582.42	44095.69
582.58	44205.70
582.74	44083.99
582.90	44034.84
583.06	44254.85
583.22	44191.65
583.38	44002.07
583.54	43910.79
583.70	44416.35
583.86	44149.53
584.02	43934.20
584.18	44561.46
584.34	44397.62
584.50	44554.44
584.66	44245.49
584.82	43765.68
584.98	44350.81
585.14	44287.62
585.30	43716.53
585.46	44041.86
585.62	44201.02
585.78	44151.87
585.94	43831.21
586.10	43941.22
586.26	44032.50
586.42	44399.96
586.58	44163.57
586.74	44210.38
586.90	44027.82
587.06	44257.19
587.22	44505.29
587.38	44135.48
587.54	44641.04
587.70	44715.93
587.86	44577.84
588.02	44655.08
588.18	44561.46
588.34	44341.45
588.49	44289.96
588.65	44198.68
588.81	44182.29
588.97	44348.47
589.13	44081.65
589.29	44100.37
589.45	44093.35
589.61	44421.03
589.77	44615.29
589.93	43983.35
590.08	44825.94
590.24	44870.41
590.40	44713.59
