SpectraSuite Data File
++++++++++++++++++++++++++++++++++++
Date: Fri Oct 25 11:34:48 EDT 2013
User: price-jones
Dark Spectrum Present: No
Reference Spectrum Present: No
Number of Sampled Component Spectra: 1
Spectrometers: USB2+H05261
Integration Time (usec): 100000 (USB2+H05261)
Spectra Averaged: 1 (USB2+H05261)
Boxcar Smoothing: 0 (USB2+H05261)
Correct for Electrical Dark: No (USB2+H05261)
Strobe/Lamp Enabled: No (USB2+H05261)
Correct for Detector Non-linearity: No (USB2+H05261)
Correct for Stray Light: No (USB2+H05261)
Number of Pixels in Processed Spectrum: 2048
>>>>>Begin Processed Spectral Data<<<<<
365.73	236.39
365.92	236.39
366.12	236.39
366.32	255.12
366.52	168.52
366.72	227.03
366.91	243.42
367.11	220.01
367.31	194.26
367.51	156.82
367.70	182.56
367.90	180.22
368.10	205.97
368.30	140.43
368.49	161.50
368.69	133.41
368.89	170.86
369.09	177.88
369.28	248.10
369.48	255.12
369.68	259.80
369.87	203.63
370.07	212.99
370.27	348.74
370.47	278.52
370.66	444.70
370.86	454.06
371.06	596.84
371.25	545.34
371.45	507.90
371.65	596.84
371.84	564.07
372.04	526.62
372.24	587.47
372.44	643.65
372.63	575.77
372.83	596.84
373.03	624.92
373.22	573.43
373.42	613.22
373.62	585.13
373.81	615.56
374.01	681.10
374.21	695.14
374.40	627.26
374.60	638.97
374.79	720.88
374.99	627.26
375.19	615.56
375.38	697.48
375.58	615.56
375.78	655.35
375.97	669.39
376.17	695.14
376.37	664.71
376.56	767.70
376.76	641.31
376.95	643.65
377.15	667.05
377.35	643.65
377.54	655.35
377.74	725.57
377.93	636.63
378.13	683.44
378.33	763.01
378.52	709.18
378.72	758.33
378.91	716.20
379.11	709.18
379.31	669.39
379.50	706.84
379.70	697.48
379.89	763.01
380.09	667.05
380.28	737.27
380.48	814.51
380.68	760.67
380.87	685.78
381.07	716.20
381.26	774.72
381.46	727.91
381.65	734.93
381.85	723.23
382.04	791.10
382.24	706.84
382.43	809.83
382.63	767.70
382.83	716.20
383.02	779.40
383.22	840.25
383.41	777.06
383.61	835.57
383.80	777.06
384.00	772.38
384.19	826.21
384.39	739.61
384.58	819.19
384.78	842.59
384.97	821.53
385.17	875.36
385.36	816.85
385.56	741.95
385.75	746.63
385.95	760.67
386.14	912.81
386.34	800.46
386.53	866.00
386.72	819.19
386.92	791.10
387.11	835.57
387.31	866.00
387.50	840.25
387.70	854.30
387.89	877.70
388.09	751.31
388.28	863.66
388.48	840.25
388.67	1020.47
388.86	884.72
389.06	887.06
389.25	877.70
389.45	873.02
389.64	880.04
389.84	954.94
390.03	917.49
390.22	945.58
390.42	973.66
390.61	919.83
390.81	903.45
391.00	894.08
391.19	992.39
391.39	997.07
391.58	964.30
391.78	959.62
391.97	1046.22
392.16	919.83
392.36	1027.50
392.55	964.30
392.75	999.41
392.94	957.28
393.13	926.85
393.33	983.02
393.52	1022.81
393.71	1020.47
393.91	1064.94
394.10	1069.62
394.29	1062.60
394.49	1001.75
394.68	1121.12
394.88	1057.92
395.07	1050.90
395.26	1086.01
395.46	1081.33
395.65	1111.75
395.84	1125.80
396.04	1137.50
396.23	1111.75
396.42	1139.84
396.62	1144.52
396.81	1118.78
397.00	1163.25
397.19	1231.12
397.39	1165.59
397.58	1188.99
397.77	1076.65
397.97	1177.29
398.16	1174.95
398.35	1233.46
398.55	1228.78
398.74	1228.78
398.93	1296.66
399.12	1282.61
399.32	1275.59
399.51	1268.57
399.70	1261.55
399.90	1242.82
400.09	1355.17
400.28	1376.24
400.47	1338.79
400.67	1350.49
400.86	1383.26
401.05	1322.40
401.24	1329.42
401.44	1376.24
401.63	1423.05
401.82	1380.92
402.01	1401.98
402.21	1310.70
402.40	1413.68
402.59	1357.51
402.78	1441.77
402.97	1390.28
403.17	1462.83
403.36	1434.75
403.55	1514.33
403.74	1589.22
403.93	1509.65
404.13	1523.69
404.32	1495.60
404.51	1497.94
404.70	1572.84
404.89	1638.38
405.09	1598.59
405.28	1535.39
405.47	1570.50
405.66	1511.99
405.85	1750.72
406.05	1710.93
406.24	1621.99
406.43	1668.80
406.62	1713.27
406.81	1664.12
407.00	1717.95
407.20	1640.72
407.39	1696.89
407.58	1802.21
407.77	1778.81
407.96	1790.51
408.15	1769.44
408.34	1757.74
408.54	1830.30
408.73	1823.28
408.92	1888.81
409.11	1825.62
409.30	1764.76
409.49	1905.20
409.68	1900.52
409.87	1980.09
410.07	1987.11
410.26	1933.28
410.45	1888.81
410.64	1893.49
410.83	2001.16
411.02	2001.16
411.21	1989.46
411.40	2043.29
411.59	2040.95
411.78	2010.52
411.98	2052.65
412.17	2125.21
412.36	2172.02
412.55	2345.22
412.74	2225.85
412.93	2228.19
413.12	2066.69
413.31	2265.64
413.50	2284.36
413.69	2291.38
413.88	2406.07
414.07	2382.67
414.26	2326.49
414.45	2441.18
414.64	2424.80
414.83	2368.62
415.02	2499.69
415.22	2560.55
415.41	2502.03
415.60	2553.52
415.79	2532.46
415.98	2593.31
416.17	2520.76
416.36	2600.34
416.55	2705.66
416.74	2605.02
416.93	2642.46
417.12	2665.87
417.31	2815.66
417.50	2689.28
417.69	2773.53
417.88	2820.35
418.07	2740.77
418.26	2820.35
418.45	2853.11
418.64	2925.67
418.83	2981.84
419.02	2799.28
419.21	2902.26
419.39	2958.44
419.58	2920.99
419.77	2920.99
419.96	3105.89
420.15	3033.33
420.34	2974.82
420.53	3045.04
420.72	3080.14
420.91	2977.16
421.10	3068.44
421.29	3211.22
421.48	3014.61
421.67	3143.34
421.86	3129.30
422.05	3157.38
422.24	3138.66
422.43	3141.00
422.61	3075.46
422.80	3232.28
422.99	3281.43
423.18	3218.24
423.37	3279.09
423.56	3290.79
423.75	3220.58
423.94	3185.47
424.13	3026.31
424.32	3028.65
424.50	3169.09
424.69	3330.58
424.88	3405.48
425.07	3101.21
425.26	3220.58
425.45	3190.15
425.64	3185.47
425.83	3166.74
426.01	3267.39
426.20	3236.96
426.39	3363.35
426.58	3314.20
426.77	3243.98
426.96	3361.01
427.15	3447.61
427.33	3461.65
427.52	3330.58
427.71	3433.57
427.90	3365.69
428.09	3454.63
428.28	3461.65
428.46	3431.23
428.65	3487.40
428.84	3571.66
429.03	3714.43
429.22	3522.51
429.40	3440.59
429.59	3691.02
429.78	3346.97
429.97	3447.61
430.16	3489.74
430.34	3754.22
430.53	3644.21
430.72	3775.28
430.91	3709.75
431.10	3595.06
431.28	3707.41
431.47	3775.28
431.66	3763.58
431.85	3768.26
432.03	3838.48
432.22	3868.91
432.41	3939.12
432.60	3801.03
432.79	3864.22
432.97	3901.67
433.16	3929.76
433.35	3929.76
433.54	3988.27
433.72	3932.10
433.91	4037.42
434.10	3983.59
434.28	3962.53
434.47	4028.06
434.66	4011.68
434.85	4046.79
435.03	4042.11
435.22	4173.18
435.41	4046.79
435.59	4208.28
435.78	4100.62
435.97	4215.30
436.16	4149.77
436.34	4311.27
436.53	4301.90
436.72	4215.30
436.90	4044.45
437.09	4231.69
437.28	4292.54
437.46	4320.63
437.65	4198.92
437.84	4273.82
438.02	4311.27
438.21	4397.87
438.40	4411.91
438.58	4435.32
438.77	4610.86
438.96	4440.00
439.14	4601.49
439.33	4461.06
439.52	4561.70
439.70	4636.60
439.89	4718.52
440.08	4840.23
440.26	4746.61
440.45	4720.86
440.63	4865.97
440.82	4936.19
441.01	4781.71
441.19	4844.91
441.38	4830.87
441.57	4884.70
441.75	4992.36
441.94	5062.58
442.12	5158.54
442.31	5322.38
442.50	5245.14
442.68	5142.16
442.87	5259.18
443.05	5170.24
443.24	5357.49
443.43	5291.95
443.61	5212.37
443.80	5408.98
443.98	4966.62
444.17	5107.05
444.35	5270.89
444.54	5448.77
444.73	5397.28
444.91	5317.70
445.10	5327.06
445.28	5345.78
445.47	5341.10
445.65	5298.97
445.84	5514.30
446.02	5530.69
446.21	5252.16
446.39	5432.38
446.58	5479.19
446.77	5376.21
446.95	5397.28
447.14	5394.93
447.32	5631.33
447.51	5455.79
447.69	5364.51
447.88	5317.70
448.06	5404.30
448.25	5434.72
448.43	5542.39
448.62	5523.66
448.80	5359.83
448.99	5565.79
449.17	5540.05
449.36	5469.83
449.54	5703.89
449.73	5755.38
449.91	5788.14
450.10	5860.70
450.28	5825.59
450.46	5788.14
450.65	5769.42
450.83	5825.59
451.02	5591.54
451.20	5806.87
451.39	5750.70
451.57	5748.36
451.76	5818.57
451.94	5900.49
452.13	5921.56
452.31	5921.56
452.49	5797.51
452.68	6045.60
452.86	6043.26
453.05	6054.97
453.23	6094.76
453.42	5973.05
453.60	5980.07
453.78	6012.84
453.97	5982.41
454.15	6019.86
454.34	6099.44
454.52	6099.44
454.70	6305.40
454.89	6120.50
455.07	6230.51
455.26	6214.12
455.44	6382.64
455.62	6298.38
455.81	6434.13
455.99	6546.48
456.17	6361.58
456.36	6504.35
456.54	6424.77
456.73	6562.86
456.91	6604.99
457.09	6487.96
457.28	6539.46
457.46	6434.13
457.64	6740.74
457.83	6612.01
458.01	6480.94
458.19	6881.18
458.38	6729.04
458.56	6492.65
458.74	6855.43
458.93	6836.70
459.11	6956.07
459.29	6803.94
459.48	6895.22
459.66	6785.21
459.84	6988.84
460.03	7117.57
460.21	7016.93
460.39	6991.18
460.57	7021.61
460.76	7054.37
460.94	6951.39
461.12	6988.84
461.31	7145.66
461.49	7112.89
461.67	7007.56
461.85	7253.32
462.04	7281.41
462.22	7421.84
462.40	7344.60
462.59	7281.41
462.77	7148.00
462.95	7379.71
463.13	7456.95
463.32	7246.30
463.50	7410.14
463.68	7501.42
463.86	7433.54
464.05	7452.27
464.23	7297.79
464.41	7349.28
464.59	7307.15
464.78	7702.70
464.96	7513.12
465.14	7515.46
465.32	7515.46
465.50	7648.87
465.69	7789.30
465.87	7749.51
466.05	7719.09
466.23	7770.58
466.41	7679.30
466.60	7826.75
466.78	7826.75
466.96	7866.54
467.14	7772.92
467.32	7772.92
467.51	7854.84
467.69	7681.64
467.87	7845.48
468.05	7957.82
468.23	7978.89
468.41	7810.37
468.60	8025.70
468.78	8140.38
468.96	8116.98
469.14	8133.36
469.32	8226.98
469.50	8060.80
469.69	8093.57
469.87	8325.29
470.05	8271.45
470.23	8407.20
470.41	8404.86
470.59	8212.94
470.77	8304.22
470.95	8416.57
471.14	8498.49
471.32	8315.92
471.50	8549.98
471.68	8636.58
471.86	8762.97
472.04	8617.85
472.22	8821.48
472.40	8573.38
472.58	8622.53
472.77	8842.54
472.95	8606.15
473.13	9121.07
473.31	8875.31
473.49	8784.03
473.67	8725.52
473.85	8997.02
474.03	9184.26
474.21	9104.68
474.39	9214.69
474.57	9170.22
474.75	9408.95
474.93	9446.40
475.12	9525.98
475.30	9420.66
475.48	9488.53
475.66	9645.35
475.84	9502.58
476.02	9635.99
476.20	9624.28
476.38	9750.67
476.56	9879.40
476.74	10195.37
476.92	9937.91
477.10	9982.38
477.28	9767.06
477.46	10176.65
477.64	10256.23
477.82	10277.29
478.00	10663.48
478.18	10384.96
478.36	10682.20
478.54	10530.07
478.72	10731.36
478.90	10675.18
479.08	10803.91
479.26	10993.50
479.44	10956.05
479.62	11157.33
479.80	11066.05
479.98	11342.24
480.16	11466.28
480.34	11356.28
480.52	11559.91
480.70	11585.65
480.88	11419.47
481.06	11452.24
481.24	11719.06
481.41	11934.39
481.59	11810.34
481.77	12215.26
481.95	12163.76
482.13	12304.20
482.31	12283.13
482.49	12397.82
482.67	12549.95
482.85	12580.38
483.03	12784.01
483.21	12896.35
483.39	12987.63
483.57	12994.65
483.74	13114.02
483.92	13109.34
484.10	12961.89
484.28	13570.43
484.46	13549.36
484.64	13933.21
484.82	13598.51
485.00	13905.12
485.18	14010.45
485.35	14263.22
485.53	14277.27
485.71	14497.28
485.89	14398.98
486.07	14375.57
486.25	14462.17
486.43	14647.07
486.61	14693.88
486.78	14934.96
486.96	15112.84
487.14	14963.04
487.32	14972.41
487.50	15257.95
487.68	15211.14
487.85	15822.02
488.03	15709.68
488.21	15817.34
488.39	16020.97
488.57	16224.59
488.75	16166.08
488.92	16145.02
489.10	16308.85
489.28	16348.64
489.46	16950.16
489.64	16578.01
489.81	17085.91
489.99	17114.00
490.17	17078.89
490.35	17132.72
490.53	17312.94
490.70	17486.14
490.88	17586.79
491.06	17776.37
491.24	18024.47
491.41	17912.12
491.59	18153.20
491.77	18288.95
491.95	18232.77
492.13	18455.12
492.30	18644.71
492.48	18452.78
492.66	18541.72
492.84	19112.81
493.01	19014.51
493.19	18874.08
493.37	19349.21
493.54	19246.23
493.72	19332.82
493.90	19564.54
494.08	19599.65
494.25	19412.40
494.43	19620.71
494.61	19896.89
494.79	19939.02
494.96	20159.03
495.14	20332.23
495.32	20238.61
495.49	20404.79
495.67	20559.27
495.85	20748.85
496.02	21067.16
496.20	20900.98
496.38	21095.25
496.55	21029.71
496.73	21553.99
496.91	21671.02
497.09	21577.40
497.26	21851.24
497.44	21645.27
497.62	21507.18
497.79	21930.82
497.97	21933.16
498.14	22153.17
498.32	22389.56
498.50	22258.49
498.67	22490.21
498.85	22537.02
499.03	22789.80
499.20	22572.13
499.38	22782.77
499.56	22618.94
499.73	22668.09
499.91	23232.16
500.08	23241.52
500.26	23023.85
500.44	23068.32
500.61	23152.58
500.79	23183.01
500.97	23498.98
501.14	23690.90
501.32	24056.03
501.49	23482.59
501.67	23768.14
501.84	24177.73
502.02	24086.45
502.20	24194.12
502.37	24254.97
502.55	24313.48
502.72	24659.88
502.90	24739.46
503.07	24203.48
503.25	24343.91
503.43	24219.86
503.60	24538.18
503.78	24575.62
503.95	24692.65
504.13	25057.78
504.30	25179.48
504.48	24999.26
504.65	25106.93
504.83	25238.00
505.01	25338.64
505.18	25563.33
505.36	25558.65
505.53	25600.78
505.71	25710.78
505.88	25855.90
506.06	25572.69
506.23	25748.23
506.41	26169.53
506.58	25930.80
506.76	25986.97
506.93	26483.16
507.11	26424.65
507.28	26230.38
507.46	26363.79
507.63	26501.89
507.81	26511.25
507.98	26511.25
508.16	26749.98
508.33	26721.90
508.50	27026.17
508.68	27220.43
508.85	27447.46
509.03	26808.50
509.20	27197.02
509.38	27761.09
509.55	27906.21
509.73	27522.36
509.90	27747.05
510.08	27765.78
510.25	27749.39
510.42	27730.67
510.60	28079.41
510.77	28034.94
510.95	28332.18
511.12	28203.46
511.30	28252.61
511.47	28252.61
511.64	28240.90
511.82	28563.90
511.99	28250.27
512.17	28582.62
512.34	28566.24
512.51	28732.42
512.69	28980.51
512.86	28999.24
513.04	29125.63
513.21	28980.51
513.38	29605.44
513.56	29303.51
513.73	29289.46
513.90	29228.61
514.08	29312.87
514.25	29572.67
514.43	29579.69
514.60	29287.12
514.77	29408.83
514.95	29848.85
515.12	29940.13
515.29	30108.65
515.47	30029.07
515.64	30279.51
515.81	30134.40
515.99	29898.00
516.16	30834.22
516.33	30656.34
516.51	30682.08
516.68	30323.98
516.85	30651.66
517.03	30670.38
517.20	30759.32
517.37	30862.30
517.54	30878.69
517.72	30766.34
517.89	30948.90
518.06	31131.47
518.24	30939.54
518.41	31342.11
518.58	31105.72
518.75	30672.72
518.93	31145.51
519.10	31475.52
519.27	31435.74
519.45	31814.90
519.62	31775.11
519.79	32072.36
519.96	31639.36
520.14	31587.87
520.31	31674.47
520.48	31618.30
520.65	31779.79
520.83	32210.45
521.00	32240.88
521.17	32294.71
521.34	32582.60
521.52	32589.62
521.69	32149.60
521.86	32809.63
522.03	32666.86
522.20	33083.47
522.38	33050.70
522.55	32767.50
522.72	32900.91
522.89	33029.64
523.07	33195.82
523.24	32957.08
523.41	33621.80
523.58	33003.89
523.75	33574.98
523.92	33235.61
524.10	33144.33
524.27	33401.79
524.44	33612.43
524.61	33874.57
524.78	33619.46
524.96	33474.34
525.13	33813.72
525.30	34384.81
525.47	33755.21
525.64	33731.80
525.81	34101.61
525.98	34099.26
526.16	33727.12
526.33	34103.95
526.50	34536.94
526.67	34073.52
526.84	34078.20
527.01	34749.93
527.18	34455.03
527.36	34408.22
527.53	35063.57
527.70	35124.42
527.87	34824.83
528.04	34424.60
528.21	34789.72
528.38	34981.65
528.55	35440.39
528.72	35227.40
528.89	35370.18
529.07	34831.85
529.24	35433.37
529.41	35290.60
529.58	35056.54
529.75	35068.25
529.92	35384.22
530.09	35351.45
530.26	35316.34
530.43	35683.81
530.60	35292.94
530.77	35765.73
530.94	35562.10
531.11	35365.49
531.28	35913.18
531.46	35725.94
531.63	35955.31
531.80	36058.29
531.97	36493.63
532.14	36182.34
532.31	35772.75
532.48	36030.21
532.65	36257.24
532.82	36168.30
532.99	36575.55
533.16	36320.43
533.33	36140.21
533.50	36556.83
533.67	36435.12
533.84	36416.40
534.01	36631.72
534.18	36727.69
534.35	37160.69
534.52	36610.66
534.69	37247.29
534.86	37413.46
535.03	36657.47
535.20	36847.05
535.37	37195.79
535.54	36940.68
535.71	37139.62
535.88	37652.20
536.05	37448.57
536.22	37109.19
536.38	37263.67
536.55	37350.27
536.72	37523.47
536.89	37090.47
537.06	37324.52
537.23	37729.44
537.40	37579.64
537.57	37687.31
537.74	37385.38
537.91	38080.52
538.08	37965.83
538.25	37516.45
538.42	38155.41
538.59	38543.94
538.75	37319.84
538.92	37972.85
539.09	38335.63
539.26	38541.60
539.43	38132.01
539.60	37853.48
539.77	38396.49
539.94	38756.93
540.11	38150.73
540.28	38347.34
540.44	38220.95
540.61	38115.62
540.78	38279.46
540.95	38445.64
541.12	38557.99
541.29	38218.61
541.46	38511.17
541.62	38494.79
541.79	38766.29
541.96	38609.48
542.13	38532.24
542.30	38579.05
542.47	38705.44
542.63	38801.40
542.80	39150.14
542.97	39049.50
543.14	39604.20
543.31	39140.78
543.48	39445.05
543.64	40053.59
543.81	39840.60
543.98	39578.46
544.15	39374.83
544.32	39899.11
544.48	40231.47
544.65	39768.04
544.82	39461.43
544.99	39168.87
545.16	39545.69
545.32	39957.63
545.49	40435.10
545.66	40020.82
545.83	39903.79
546.00	40278.28
546.16	40058.27
546.33	39796.13
546.50	39866.34
546.67	40397.65
546.83	39906.13
547.00	40123.80
547.17	39906.13
547.34	39849.96
547.50	40208.06
547.67	40818.94
547.84	40404.67
548.00	40465.52
548.17	40554.46
548.34	40847.03
548.51	41144.28
548.67	40601.27
548.84	40715.96
549.01	40854.05
549.18	40615.32
549.34	40851.71
549.51	41186.41
549.68	40727.66
549.84	40954.69
550.01	40961.72
550.18	40327.43
550.34	40851.71
550.51	41298.75
550.68	41380.67
550.84	41172.36
551.01	41064.70
551.18	41287.05
551.34	41413.44
551.51	41347.90
551.68	41062.36
551.84	41380.67
552.01	41579.62
552.18	41193.43
552.34	41617.07
552.51	41469.61
552.68	41214.49
552.84	41368.97
553.01	41296.41
553.18	41371.31
553.34	41846.44
553.51	41345.56
553.67	41434.50
553.84	41808.99
554.01	42024.32
554.17	41914.31
554.34	42202.20
554.51	41776.22
554.67	42101.56
554.84	42045.38
555.00	42061.77
555.17	42101.56
555.33	42162.41
555.50	41869.84
555.67	42518.17
555.83	42225.60
556.00	41883.89
556.16	42527.53
556.33	42471.36
556.50	42094.53
556.66	42501.79
556.83	41766.86
556.99	42326.25
557.16	42600.09
557.32	42454.98
557.49	42550.94
557.65	42206.88
557.82	42501.79
557.98	42768.61
558.15	42354.33
558.32	42698.39
558.48	42335.61
558.65	42990.96
558.81	42995.64
558.98	42740.52
559.14	42649.24
559.31	42787.33
559.47	42422.21
559.64	42838.83
559.80	42731.16
559.97	42930.11
560.13	42761.59
560.30	42880.95
560.46	43281.19
560.63	43035.43
560.79	42981.60
560.96	42911.38
561.12	42756.91
561.29	42955.85
561.45	43346.72
561.61	42953.51
561.78	43498.86
561.94	43124.37
562.11	43201.61
562.27	43023.73
562.44	42873.93
562.60	43152.46
562.77	43236.72
562.93	43023.73
563.10	43372.47
563.26	43047.13
563.42	43702.48
563.59	42951.17
563.75	43225.01
563.92	43288.21
564.08	43379.49
564.24	43768.02
564.41	43042.45
564.57	43737.59
564.74	43529.28
564.90	43505.88
565.07	43669.72
565.23	43821.85
565.39	43725.89
565.56	43856.96
565.72	43461.41
565.88	44149.53
566.05	43510.56
566.21	43264.80
566.38	43328.00
566.54	43559.71
566.70	43957.60
566.87	43519.92
567.03	43622.90
567.19	44250.17
567.36	43342.04
567.52	43753.97
567.68	44133.14
567.85	43978.67
568.01	43896.75
568.17	43786.74
568.34	44133.14
568.50	43611.20
568.66	43615.88
568.83	43690.78
568.99	43622.90
569.15	44044.20
569.32	43686.10
569.48	44067.61
569.64	44231.44
569.81	43789.08
569.97	43863.98
570.13	44053.56
570.30	43997.39
570.46	44095.69
570.62	44201.02
570.78	44065.27
570.95	44414.01
571.11	44322.72
571.27	43901.43
571.43	44201.02
571.60	44107.40
571.76	43639.29
571.92	43988.03
572.09	44191.65
572.25	44306.34
572.41	44109.74
572.57	44350.81
572.74	44566.14
572.90	44301.66
573.06	44250.17
573.22	44112.08
573.38	44346.13
573.55	44268.89
573.71	44652.74
573.87	44252.51
574.03	43920.15
574.20	44306.34
574.36	44261.87
574.52	44327.41
574.68	44383.58
574.84	44432.73
575.01	44545.08
575.17	44467.84
575.33	44500.61
575.49	44055.90
575.65	44421.03
575.82	44577.84
575.98	44060.58
576.14	44652.74
576.30	44395.28
576.46	44439.75
576.62	44507.63
576.79	44987.44
576.95	43997.39
577.11	44259.53
577.27	44273.57
577.43	44395.28
577.59	43945.90
577.75	44430.39
577.92	43711.84
578.08	44542.74
578.24	44184.63
578.40	44804.88
578.56	44769.77
578.72	44458.48
578.88	44542.74
579.04	44418.69
579.21	44397.62
579.37	44451.45
579.53	44999.14
579.69	44240.81
579.85	44383.58
580.01	44664.44
580.17	44481.88
580.33	44566.14
580.49	44486.56
580.65	44519.33
580.82	44156.55
580.98	44006.75
581.14	44322.72
581.30	44421.03
581.46	44505.29
581.62	44648.06
581.78	44664.44
581.94	44739.34
582.10	44711.25
582.26	44669.12
582.42	44629.34
582.58	44842.32
582.74	44758.06
582.90	44509.97
583.06	44863.39
583.22	44554.44
583.38	44772.11
583.54	44217.40
583.70	44430.39
583.86	44622.31
584.02	44746.36
584.18	44821.26
584.34	44847.00
584.50	44938.29
584.66	44488.90
584.82	44795.51
584.98	45017.86
585.14	45085.74
585.30	44870.41
585.46	44711.25
585.62	44734.66
585.78	45055.31
585.94	44353.15
586.10	44465.50
586.26	44079.31
586.42	44392.94
586.58	44629.34
586.74	44872.75
586.90	44612.95
587.06	44823.60
587.22	44776.79
587.38	44528.69
587.54	45034.25
587.70	45244.90
587.86	44882.11
588.02	44467.84
588.18	44825.94
588.34	44790.83
588.49	44818.92
588.65	44608.27
588.81	44582.52
588.97	45045.95
589.13	44949.99
589.29	45141.91
589.45	45029.57
589.61	44781.47
589.77	44839.98
589.93	44814.24
590.08	44886.79
590.24	45287.03
