SpectraSuite Data File
++++++++++++++++++++++++++++++++++++
Date: Fri Oct 25 10:48:24 EDT 2013
User: price-jones
Dark Spectrum Present: No
Reference Spectrum Present: No
Number of Sampled Component Spectra: 1
Spectrometers: USB2+H05261
Integration Time (usec): 100000 (USB2+H05261)
Spectra Averaged: 1 (USB2+H05261)
Boxcar Smoothing: 0 (USB2+H05261)
Correct for Electrical Dark: No (USB2+H05261)
Strobe/Lamp Enabled: No (USB2+H05261)
Correct for Detector Non-linearity: No (USB2+H05261)
Correct for Stray Light: No (USB2+H05261)
Number of Pixels in Processed Spectrum: 2048
>>>>>Begin Processed Spectral Data<<<<<
365.73	102.98
365.92	102.98
366.12	102.98
366.32	77.24
366.52	0.00
366.72	74.90
366.91	84.26
367.11	79.58
367.31	2.34
367.51	44.47
367.70	0.00
367.90	72.56
368.10	4.68
368.30	56.17
368.49	44.47
368.69	93.62
368.89	51.49
369.09	32.77
369.28	138.09
369.48	91.28
369.68	86.60
369.87	88.94
370.07	60.85
370.27	161.50
370.47	255.12
370.66	322.99
370.86	416.62
371.06	479.81
371.25	514.92
371.45	440.02
371.65	482.15
371.84	493.85
372.04	442.36
372.24	505.56
372.44	519.60
372.63	575.77
372.83	514.92
373.03	533.64
373.22	425.98
373.42	521.94
373.62	545.34
373.81	571.09
374.01	587.47
374.21	571.09
374.40	524.28
374.60	571.09
374.79	585.13
374.99	634.29
375.19	648.33
375.38	617.90
375.58	645.99
375.78	622.58
375.97	657.69
376.17	653.01
376.37	519.60
376.56	620.24
376.76	638.97
376.95	571.09
377.15	634.29
377.35	667.05
377.54	671.73
377.74	697.48
377.93	660.03
378.13	683.44
378.33	753.65
378.52	688.12
378.72	641.31
378.91	702.16
379.11	664.71
379.31	702.16
379.50	599.18
379.70	638.97
379.89	685.78
380.09	606.20
380.28	709.18
380.48	648.33
380.68	671.73
380.87	634.29
381.07	624.92
381.26	669.39
381.46	636.63
381.65	755.99
381.85	704.50
382.04	699.82
382.24	713.86
382.43	645.99
382.63	697.48
382.83	676.41
383.02	755.99
383.22	746.63
383.41	765.36
383.61	833.23
383.80	753.65
384.00	793.44
384.19	774.72
384.39	866.00
384.58	870.68
384.78	812.17
384.97	746.63
385.17	812.17
385.36	823.87
385.56	713.86
385.75	844.93
385.95	819.19
386.14	844.93
386.34	868.34
386.53	891.74
386.72	812.17
386.92	795.78
387.11	936.21
387.31	926.85
387.50	898.77
387.70	924.51
387.89	873.02
388.09	875.36
388.28	973.66
388.48	837.91
388.67	919.83
388.86	938.55
389.06	919.83
389.25	1041.54
389.45	952.60
389.64	847.27
389.84	985.37
390.03	952.60
390.22	1029.84
390.42	933.87
390.61	992.39
390.81	957.28
391.00	936.21
391.19	1081.33
391.39	1076.65
391.58	1053.24
391.78	1006.43
391.97	1111.75
392.16	1071.97
392.36	1111.75
392.55	985.37
392.75	1027.50
392.94	959.62
393.13	1095.37
393.33	1020.47
393.52	1083.67
393.71	1114.10
393.91	1071.97
394.10	1104.73
394.29	1128.14
394.49	1203.04
394.68	1135.16
394.88	1160.91
395.07	1212.40
395.26	1156.22
395.46	1196.01
395.65	1184.31
395.84	1163.25
396.04	1210.06
396.23	1254.53
396.42	1146.86
396.62	1181.97
396.81	1207.72
397.00	1266.23
397.19	1331.76
397.39	1270.91
397.58	1301.34
397.77	1345.81
397.97	1322.40
398.16	1409.00
398.35	1444.11
398.55	1425.39
398.74	1455.81
398.93	1535.39
399.12	1425.39
399.32	1373.89
399.51	1467.52
399.70	1502.62
399.90	1479.22
400.09	1565.82
400.28	1572.84
400.47	1556.46
400.67	1561.14
400.86	1575.18
401.05	1699.23
401.24	1706.25
401.44	1610.29
401.63	1647.74
401.82	1600.93
402.01	1661.78
402.21	1645.40
402.40	1638.38
402.59	1633.69
402.78	1783.49
402.97	1626.67
403.17	1687.53
403.36	1734.34
403.55	1713.27
403.74	1771.79
403.93	1713.27
404.13	1872.43
404.32	1823.28
404.51	1881.79
404.70	1839.66
404.89	1781.15
405.09	1912.22
405.28	1940.30
405.47	1736.68
405.66	1842.00
405.85	1926.26
406.05	1926.26
406.24	1898.17
406.43	1942.64
406.62	1900.52
406.81	2017.54
407.00	1982.43
407.20	1973.07
407.39	2019.88
407.58	2080.74
407.77	2043.29
407.96	2141.59
408.15	2111.16
408.34	2071.37
408.54	2155.63
408.73	2120.53
408.92	2190.74
409.11	2190.74
409.30	2230.53
409.49	2275.00
409.68	2249.25
409.87	2223.51
410.07	2263.30
410.26	2270.32
410.45	2183.72
410.64	2396.71
410.83	2483.31
411.02	2394.37
411.21	2518.42
411.40	2363.94
411.59	2396.71
411.78	2600.34
411.98	2448.20
412.17	2466.92
412.36	2513.74
412.55	2614.38
412.74	2635.44
412.93	2558.21
413.12	2609.70
413.31	2675.23
413.50	2766.51
413.69	2759.49
413.88	2787.58
414.07	2789.92
414.26	2909.29
414.45	2846.09
414.64	2869.50
414.83	3005.25
415.02	2988.86
415.22	2890.56
415.41	3033.33
415.60	3030.99
415.79	3056.74
415.98	3131.64
416.17	3126.96
416.36	3206.53
416.55	3183.13
416.74	3052.06
416.93	3143.34
417.12	3089.51
417.31	3197.17
417.50	3267.39
417.69	3349.31
417.88	3243.98
418.07	3124.62
418.26	3180.79
418.45	3386.76
418.64	3442.93
418.83	3478.04
419.02	3386.76
419.21	3314.20
419.39	3407.82
419.58	3407.82
419.77	3496.76
419.96	3545.91
420.15	3487.40
420.34	3585.70
420.53	3574.00
420.72	3644.21
420.91	3627.83
421.10	3768.26
421.29	3653.58
421.48	3660.60
421.67	3819.75
421.86	3805.71
422.05	3599.74
422.24	3623.15
422.43	3719.11
422.61	3562.30
422.80	3747.20
422.99	3637.19
423.18	3824.44
423.37	3709.75
423.56	3894.65
423.75	3794.01
423.94	3707.41
424.13	3571.66
424.32	3695.71
424.50	3850.18
424.69	3999.98
424.88	3768.26
425.07	3808.05
425.26	3737.84
425.45	3768.26
425.64	3625.49
425.83	3662.94
426.01	3768.26
426.20	3911.04
426.39	3899.33
426.58	3744.86
426.77	3885.29
426.96	3857.20
427.15	3817.41
427.33	3978.91
427.52	3829.12
427.71	3875.93
427.90	3911.04
428.09	4145.09
428.28	4060.83
428.46	3882.95
428.65	4107.64
428.84	4025.72
429.03	4229.35
429.22	3983.59
429.40	3999.98
429.59	4121.68
429.78	3871.25
429.97	3824.44
430.16	3922.74
430.34	3988.27
430.53	4049.13
430.72	4102.96
430.91	4065.51
431.10	4194.24
431.28	4308.93
431.47	4313.61
431.66	4456.38
431.85	4395.53
432.03	4496.17
432.22	4566.39
432.41	4313.61
432.60	4458.72
432.79	4479.79
432.97	4638.94
433.16	4571.07
433.35	4554.68
433.54	4652.98
433.72	4608.51
433.91	4507.87
434.10	4571.07
434.28	4603.83
434.47	4578.09
434.66	4849.59
434.85	4873.00
435.03	4868.31
435.22	4795.76
435.41	4894.06
435.59	4856.61
435.78	4870.65
435.97	5013.43
436.16	4964.28
436.34	4905.76
436.53	5039.17
436.72	4971.30
436.90	4891.72
437.09	5046.20
437.28	4896.40
437.46	4842.57
437.65	5006.41
437.84	5053.22
438.02	5146.84
438.21	4950.23
438.40	4968.96
438.58	5151.52
438.77	5174.92
438.96	5331.74
439.14	5366.85
439.33	5378.55
439.52	5296.63
439.70	5486.22
439.89	5518.98
440.08	5397.28
440.26	5469.83
440.45	5533.03
440.63	5799.85
440.82	5687.50
441.01	5694.52
441.19	5783.46
441.38	5928.58
441.57	5926.24
441.75	6015.18
441.94	6094.76
442.12	5940.28
442.31	6092.41
442.50	6132.20
442.68	6153.27
442.87	6043.26
443.05	6120.50
443.24	6197.74
443.43	6150.93
443.61	6094.76
443.80	6284.34
443.98	6101.78
444.17	5966.03
444.35	6162.63
444.54	6270.30
444.73	6373.28
444.91	6298.38
445.10	6150.93
445.28	6282.00
445.47	6188.38
445.65	6277.32
445.84	6345.19
446.02	6345.19
446.21	6363.92
446.39	6279.66
446.58	6502.01
446.77	6370.94
446.95	6193.06
447.14	6464.56
447.32	6520.73
447.51	6406.05
447.69	6525.41
447.88	6597.97
448.06	6242.21
448.25	6588.61
448.43	6534.78
448.62	6399.02
448.80	6558.18
448.99	6626.06
449.17	6682.23
449.36	6532.44
449.54	6808.62
449.73	6813.30
449.91	6892.88
450.10	6979.48
450.28	7002.88
450.46	6902.24
450.65	6881.18
450.83	6892.88
451.02	6927.99
451.20	6974.80
451.39	6892.88
451.57	6787.55
451.76	6930.33
451.94	6904.58
452.13	7103.53
452.31	7052.03
452.49	6705.63
452.68	6846.07
452.86	6839.05
453.05	7012.24
453.23	7054.37
453.42	7059.06
453.60	7047.35
453.78	7253.32
453.97	6977.14
454.15	7108.21
454.34	7035.65
454.52	7227.57
454.70	7323.54
454.89	7253.32
455.07	7126.93
455.26	7297.79
455.44	7365.67
455.62	7503.76
455.81	7339.92
455.99	7356.30
456.17	7564.61
456.36	7599.72
456.54	7691.00
456.73	7712.07
456.91	7733.13
457.09	7719.09
457.28	7789.30
457.46	7810.37
457.64	7829.09
457.83	7817.39
458.01	7630.15
458.19	7927.39
458.38	7906.33
458.56	8065.49
458.74	7899.31
458.93	7880.58
459.11	8074.85
459.29	7836.11
459.48	7990.59
459.66	7906.33
459.84	8032.72
460.03	8196.56
460.21	8114.64
460.39	8362.73
460.57	8102.93
460.76	8224.64
460.94	8468.06
461.12	8304.22
461.31	8348.69
461.49	8442.31
461.67	8411.89
461.85	8428.27
462.04	8531.25
462.22	8945.53
462.40	8545.30
462.59	8547.64
462.77	8709.13
462.95	8793.39
463.13	8781.69
463.32	8648.28
463.50	8521.89
463.68	8702.11
463.86	8720.84
464.05	8606.15
464.23	8589.77
464.41	8748.92
464.59	8617.85
464.78	8952.55
464.96	8844.88
465.14	8720.84
465.32	8765.31
465.50	8879.99
465.69	9006.38
465.87	8767.65
466.05	9034.47
466.23	8992.34
466.41	8901.06
466.60	9022.77
466.78	8854.25
466.96	9121.07
467.14	8999.36
467.32	9123.41
467.51	8891.70
467.69	8854.25
467.87	9034.47
468.05	9090.64
468.23	9032.13
468.41	8858.93
468.60	9364.48
468.78	9469.81
468.96	9095.32
469.14	9322.35
469.32	9296.61
469.50	9214.69
469.69	9483.85
469.87	9392.57
470.05	9558.75
470.23	9551.73
470.41	9282.56
470.59	9448.74
470.77	9589.17
470.95	9605.56
471.14	9870.04
471.32	9696.84
471.50	10064.30
471.68	9748.33
471.86	9951.96
472.04	10040.90
472.22	10094.73
472.40	9879.40
472.58	10174.31
472.77	10171.97
472.95	10377.94
473.13	10429.43
473.31	9980.04
473.49	10345.17
473.67	10401.34
473.85	10415.38
474.03	10689.23
474.21	10544.11
474.39	10403.68
474.57	10689.23
474.75	10820.30
474.93	10747.74
475.12	10902.22
475.30	10899.87
475.48	10944.34
475.66	11035.63
475.84	10747.74
476.02	11157.33
476.20	11129.25
476.38	11339.90
476.56	11503.73
476.74	11637.14
476.92	11517.78
477.10	11503.73
477.28	11559.91
477.46	11686.29
477.64	11733.11
477.82	12084.19
478.00	11918.01
478.18	12224.62
478.36	12180.15
478.54	12140.36
478.72	12159.08
478.90	12461.01
479.08	12411.86
479.26	12851.88
479.44	12657.62
479.62	12950.18
479.80	13039.12
479.98	13153.81
480.16	13055.51
480.34	13172.54
480.52	13327.01
480.70	13352.76
480.88	13394.89
481.06	13261.48
481.24	13757.67
481.41	13689.79
481.59	14019.81
481.77	13891.08
481.95	14031.51
482.13	14359.19
482.31	14073.64
482.49	14508.98
482.67	14361.53
482.85	14345.14
483.03	14597.92
483.21	14792.19
483.39	14841.34
483.57	14703.25
483.74	14932.62
483.92	15213.48
484.10	14899.85
484.28	15222.84
484.46	15765.85
484.64	15791.59
484.82	15548.18
485.00	15810.32
485.18	15779.89
485.35	15990.54
485.53	15662.86
485.71	15522.43
485.89	16044.37
486.07	16037.35
486.25	16238.64
486.43	16500.78
486.61	16702.06
486.78	16819.09
486.96	16720.79
487.14	17319.96
487.32	17413.59
487.50	17481.46
487.68	17511.89
487.85	17811.48
488.03	17774.03
488.21	18251.50
488.39	18043.19
488.57	18099.36
488.75	18185.96
488.92	18574.49
489.10	18642.37
489.28	18895.14
489.46	19033.24
489.64	18991.11
489.81	19665.18
489.99	19398.36
490.17	19681.56
490.35	19922.64
490.53	19616.03
490.70	19840.72
490.88	19826.68
491.06	20091.16
491.24	20243.29
491.41	20107.54
491.59	20603.74
491.77	20437.56
491.95	20889.28
492.13	20924.39
492.30	21135.04
492.48	20936.09
492.66	21151.42
492.84	21254.40
493.01	21341.00
493.19	21413.56
493.37	21717.83
493.54	21703.79
493.72	21998.70
493.90	22036.14
494.08	22209.34
494.25	22195.30
494.43	22588.51
494.61	22726.60
494.79	22698.52
494.96	22647.02
495.14	22724.26
495.32	22925.55
495.49	23147.90
495.67	23075.34
495.85	23538.77
496.02	23611.32
496.20	23777.50
496.38	23608.98
496.55	24020.92
496.73	24346.25
496.91	24025.60
497.09	24271.36
497.26	24489.03
497.44	24315.83
497.62	24641.16
497.79	24748.82
497.97	24329.87
498.14	25090.54
498.32	25202.89
498.50	25102.25
498.67	25518.86
498.85	25165.44
499.03	25404.17
499.20	25514.18
499.38	25628.87
499.56	25568.01
499.73	25972.92
499.91	25912.07
500.08	26078.25
500.26	25582.06
500.44	25881.64
500.61	26237.41
500.79	26288.90
500.97	26216.34
501.14	26560.40
501.32	26342.73
501.49	26328.69
501.67	26513.59
501.84	26941.91
502.02	26817.86
502.20	26878.71
502.37	27173.62
502.55	27119.79
502.72	27381.93
502.90	27660.45
503.07	27466.19
503.25	28034.94
503.43	27269.58
503.60	27594.92
503.78	27681.52
503.95	27630.02
504.13	27669.81
504.30	28067.70
504.48	28020.89
504.65	28189.41
504.83	28247.93
505.01	28187.07
505.18	28910.30
505.36	28952.43
505.53	28769.86
505.71	29022.64
505.88	29003.92
506.06	28657.52
506.23	29172.44
506.41	28608.37
506.58	29022.64
506.76	29090.52
506.93	29446.28
507.11	29202.86
507.28	29799.70
507.46	29118.60
507.63	29455.64
507.81	29516.50
507.98	29432.24
508.16	29668.63
508.33	29993.97
508.50	30061.84
508.68	30073.54
508.85	30436.33
509.03	30211.64
509.20	30394.20
509.38	30426.96
509.55	31138.49
509.73	30686.76
509.90	30511.22
510.08	30396.54
510.25	30998.06
510.42	31316.37
510.60	31033.16
510.77	31171.25
510.95	31501.27
511.12	31424.03
511.30	31283.60
511.47	31613.62
511.64	31477.86
511.82	31667.45
511.99	31311.69
512.17	31709.58
512.34	31470.84
512.51	32261.94
512.69	32257.26
512.86	32100.45
513.04	32149.60
513.21	32348.54
513.38	31798.52
513.56	32044.27
513.73	32067.68
513.90	32121.51
514.08	32222.16
514.25	32575.58
514.43	32844.74
514.60	32591.96
514.77	32627.07
514.95	32910.27
515.12	33116.24
515.29	33151.35
515.47	33282.42
515.64	33420.51
515.81	32999.21
515.99	33160.71
516.16	33303.48
516.33	33415.83
516.51	33050.70
516.68	32751.12
516.85	32868.14
517.03	33214.54
517.20	33539.88
517.37	33645.20
517.54	33628.82
517.72	33722.44
517.89	33565.62
518.06	33631.16
518.24	33876.91
518.41	34015.01
518.58	33858.19
518.75	33909.68
518.93	34752.27
519.10	34452.69
519.27	34352.04
519.45	34363.75
519.62	34373.11
519.79	34316.93
519.96	35246.13
520.14	34555.67
520.31	34904.41
520.48	35026.12
520.65	35281.24
520.83	34991.01
521.00	35285.92
521.17	35150.17
521.34	35342.09
521.52	35391.24
521.69	35637.00
521.86	35915.52
522.03	35976.37
522.20	35569.12
522.38	35957.65
522.55	35873.39
522.72	35840.62
522.89	35555.08
523.07	36018.50
523.24	35564.44
523.41	36018.50
523.58	35686.15
523.75	36898.55
523.92	36404.69
524.10	36554.49
524.27	36411.71
524.44	36360.22
524.61	36973.44
524.78	36776.84
524.96	36739.39
525.13	36954.72
525.30	37345.59
525.47	37041.32
525.64	37109.19
525.81	36924.29
525.98	36708.96
526.16	36137.87
526.33	36861.10
526.50	37619.43
526.67	36800.24
526.84	37141.96
527.01	37015.57
527.18	37102.17
527.36	37511.77
527.53	37710.71
527.70	37956.47
527.87	37940.08
528.04	37764.54
528.21	38134.35
528.38	37881.57
528.55	37993.92
528.72	38019.66
528.89	38279.46
529.07	38265.42
529.24	38183.50
529.41	38164.78
529.58	37893.27
529.75	38366.06
529.92	38703.10
530.09	38389.47
530.26	38447.98
530.43	38693.74
530.60	38660.97
530.77	38452.66
530.94	38960.56
531.11	38696.08
531.28	38782.68
531.46	39166.52
531.63	38911.41
531.80	38813.10
531.97	39112.69
532.14	38990.98
532.31	38948.85
532.48	38745.23
532.65	39105.67
532.82	39061.20
532.99	39559.73
533.16	39208.65
533.33	39126.74
533.50	39814.85
533.67	39622.93
533.84	39550.37
534.01	39505.90
534.18	39548.03
534.35	39927.20
534.52	39662.72
534.69	39318.66
534.86	39903.79
535.03	39976.35
535.20	40105.08
535.37	40278.28
535.54	40477.22
535.71	40100.40
535.88	39770.38
536.05	39988.05
536.22	40404.67
536.38	40292.32
536.55	40163.59
536.72	40364.88
536.89	40018.48
537.06	40151.89
537.23	40332.11
537.40	40470.20
537.57	40807.24
537.74	40421.05
537.91	40907.88
538.08	40741.71
538.25	40231.47
538.42	40992.14
538.59	41123.21
538.75	40390.62
538.92	40411.69
539.09	40828.30
539.26	41069.38
539.43	40910.22
539.60	41146.62
539.77	40809.58
539.94	41221.52
540.11	40767.45
540.28	40987.46
540.44	40968.74
540.61	41076.40
540.78	40641.06
540.95	40753.41
541.12	40615.32
541.29	41139.60
541.46	40980.44
541.62	41567.91
541.79	41890.91
541.96	40720.64
542.13	41141.94
542.30	41596.00
542.47	41275.35
542.63	41406.42
542.80	41731.75
542.97	42169.43
543.14	42108.58
543.31	41977.51
543.48	41965.81
543.64	42511.15
543.81	42096.88
543.98	42291.14
544.15	41830.05
544.32	42642.22
544.48	42899.68
544.65	42728.82
544.82	42375.40
544.99	42288.80
545.16	42256.03
545.32	42309.86
545.49	42410.51
545.66	42520.51
545.83	42635.20
546.00	42810.74
546.16	42883.30
546.33	42588.39
546.50	42682.01
546.67	42548.60
546.83	42586.05
547.00	42623.50
547.17	42913.72
547.34	42543.92
547.50	43079.90
547.67	42976.92
547.84	43016.71
548.00	43346.72
548.17	42883.30
548.34	43210.97
548.51	43423.96
548.67	43782.06
548.84	43370.13
549.01	43091.60
549.18	42892.66
549.34	43599.50
549.51	43332.68
549.68	43620.56
549.84	43248.42
550.01	43683.76
550.18	43342.04
550.34	43515.24
550.51	43482.47
550.68	43304.59
550.84	43105.65
551.01	43765.68
551.18	43438.00
551.34	43721.21
551.51	43910.79
551.68	44163.57
551.84	44163.57
552.01	43522.26
552.18	43655.67
552.34	43768.02
552.51	44004.41
552.68	43950.58
552.84	44500.61
553.01	43824.19
553.18	44222.08
553.34	44456.14
553.51	44060.58
553.67	44158.89
553.84	43992.71
554.01	44306.34
554.17	44985.10
554.34	44626.99
554.51	44186.97
554.67	44711.25
554.84	44421.03
555.00	44603.59
555.17	43887.39
555.33	43931.86
555.50	44404.64
555.67	44502.95
555.83	44737.00
556.00	45036.59
556.16	45099.78
556.33	44458.48
556.50	44629.34
556.66	44449.11
556.83	44142.50
556.99	44718.28
557.16	44437.41
557.32	44762.75
557.49	44744.02
557.65	44732.32
557.82	44554.44
557.98	44451.45
558.15	44673.81
558.32	44669.12
558.48	44737.00
558.65	44776.79
558.81	44739.34
558.98	45031.91
559.14	45120.85
559.31	44741.68
559.47	44900.84
559.64	45083.40
559.80	45139.57
559.97	45125.53
560.13	44828.28
560.30	44760.40
560.46	45008.50
560.63	44980.42
560.79	45050.63
560.96	44898.50
561.12	45085.74
561.29	44994.46
561.45	45132.55
561.61	45186.38
561.78	45109.14
561.94	45153.62
562.11	45181.70
562.27	45378.31
562.44	45385.33
562.60	45717.68
562.77	45647.47
562.93	44779.13
563.10	45560.87
563.26	45305.75
563.42	45162.98
563.59	45549.17
563.75	45200.43
563.92	45633.42
564.08	45563.21
564.24	45308.09
564.41	45462.57
564.57	45378.31
564.74	45364.26
564.90	45404.05
565.07	45656.83
565.23	45434.48
565.39	45535.12
565.56	45617.04
565.72	45343.20
565.88	45457.88
566.05	45450.86
566.21	45366.60
566.38	45436.82
566.54	45467.25
566.70	45628.74
566.87	45731.73
567.03	45542.14
567.19	45694.28
567.36	45518.74
567.52	45268.30
567.68	45914.29
567.85	45226.17
568.01	45673.21
568.17	45378.31
568.34	45268.30
568.50	45872.16
568.66	45425.12
568.83	45617.04
568.99	45626.40
569.15	45514.06
569.32	45139.57
569.48	45294.05
569.64	45738.75
569.81	46263.03
569.97	45361.92
570.13	45715.34
570.30	44996.80
570.46	45359.58
570.62	45474.27
570.78	45497.67
570.95	45546.82
571.11	46005.57
571.27	45565.55
571.43	45310.43
571.60	45937.69
571.76	45762.15
571.92	45460.23
572.09	45720.02
572.25	45626.40
572.41	45689.60
572.57	45579.59
572.74	46263.03
572.90	45780.88
573.06	46019.61
573.22	46068.76
573.38	45837.05
573.55	45638.11
573.71	46003.23
573.87	45865.14
574.03	45347.88
574.20	45598.32
574.36	45701.30
574.52	45984.51
574.68	46026.63
574.84	45783.22
575.01	46007.91
575.17	45738.75
575.33	45179.36
575.49	45446.18
575.65	46036.00
575.82	46143.66
575.98	45928.33
576.14	46265.37
576.30	45539.80
576.46	45825.35
576.62	45736.41
576.79	45942.38
576.95	45167.66
577.11	45607.68
577.27	45734.07
577.43	45965.78
577.59	46010.25
577.75	45642.79
577.92	45186.38
578.08	45516.40
578.24	45748.11
578.40	45752.79
578.56	45694.28
578.72	45937.69
578.88	45797.26
579.04	46150.68
579.21	45902.59
579.37	45937.69
579.53	45663.85
579.69	45485.97
579.85	45778.54
580.01	45603.00
580.17	46279.41
580.33	46300.48
580.49	46335.59
580.65	46330.90
580.82	46436.23
580.98	45705.98
581.14	46190.47
581.30	46073.45
581.46	46230.26
581.62	45925.99
581.78	46209.20
581.94	46164.73
582.10	46026.63
582.26	46136.64
582.42	46059.40
582.58	46010.25
582.74	45762.15
582.90	46134.30
583.06	45897.91
583.22	46391.76
583.38	46127.28
583.54	46043.02
583.70	46080.47
583.86	45925.99
584.02	45404.05
584.18	46005.57
584.34	46061.74
584.50	46241.96
584.66	46000.89
584.82	45528.10
584.98	45698.96
585.14	46045.36
585.30	46106.21
585.46	45883.86
585.62	46141.32
585.78	45600.66
585.94	45748.11
586.10	45617.04
586.26	45507.04
586.42	46461.97
586.58	45965.78
586.74	46176.43
586.90	46066.42
587.06	45806.62
587.22	45881.52
587.38	45710.66
587.54	46347.29
587.70	46246.65
587.86	45984.51
588.02	46012.59
588.18	45982.16
588.34	45914.29
588.49	45755.13
588.65	45490.65
588.81	45907.27
588.97	45453.20
589.13	45399.37
589.29	45991.53
589.45	45811.31
589.61	45970.46
589.77	46384.74
589.93	46478.36
590.08	46391.76
