SpectraSuite Data File
++++++++++++++++++++++++++++++++++++
Date: Fri Oct 25 11:33:20 EDT 2013
User: price-jones
Dark Spectrum Present: No
Reference Spectrum Present: No
Number of Sampled Component Spectra: 1
Spectrometers: USB2+H05261
Integration Time (usec): 100000 (USB2+H05261)
Spectra Averaged: 1 (USB2+H05261)
Boxcar Smoothing: 0 (USB2+H05261)
Correct for Electrical Dark: No (USB2+H05261)
Strobe/Lamp Enabled: No (USB2+H05261)
Correct for Detector Non-linearity: No (USB2+H05261)
Correct for Stray Light: No (USB2+H05261)
Number of Pixels in Processed Spectrum: 2048
>>>>>Begin Processed Spectral Data<<<<<
365.73	252.78
365.92	252.78
366.12	252.78
366.32	159.16
366.52	238.73
366.72	250.44
366.91	252.78
367.11	121.71
367.31	166.18
367.51	168.52
367.70	145.11
367.90	126.39
368.10	145.11
368.30	205.97
368.49	135.75
368.69	203.63
368.89	182.56
369.09	189.58
369.28	184.90
369.48	241.08
369.68	264.48
369.87	229.37
370.07	194.26
370.27	311.29
370.47	327.68
370.66	463.43
370.86	540.66
371.06	505.56
371.25	533.64
371.45	465.77
371.65	580.45
371.84	531.30
372.04	573.43
372.24	540.66
372.44	608.54
372.63	624.92
372.83	589.82
373.03	599.18
373.22	470.45
373.42	706.84
373.62	589.82
373.81	622.58
374.01	706.84
374.21	676.41
374.40	573.43
374.60	664.71
374.79	669.39
374.99	645.99
375.19	667.05
375.38	662.37
375.58	629.60
375.78	702.16
375.97	690.46
376.17	716.20
376.37	706.84
376.56	634.29
376.76	669.39
376.95	594.50
377.15	645.99
377.35	692.80
377.54	755.99
377.74	664.71
377.93	720.88
378.13	725.57
378.33	744.29
378.52	723.23
378.72	732.59
378.91	723.23
379.11	732.59
379.31	732.59
379.50	741.95
379.70	732.59
379.89	758.33
380.09	702.16
380.28	669.39
380.48	793.44
380.68	702.16
380.87	706.84
381.07	716.20
381.26	802.80
381.46	772.38
381.65	734.93
381.85	786.42
382.04	716.20
382.24	695.14
382.43	727.91
382.63	807.48
382.83	802.80
383.02	816.85
383.22	798.12
383.41	847.27
383.61	833.23
383.80	877.70
384.00	833.23
384.19	784.08
384.39	868.34
384.58	802.80
384.78	880.04
384.97	847.27
385.17	798.12
385.36	908.13
385.56	821.53
385.75	802.80
385.95	842.59
386.14	802.80
386.34	915.15
386.53	894.08
386.72	929.19
386.92	912.81
387.11	861.32
387.31	851.96
387.50	877.70
387.70	884.72
387.89	947.92
388.09	919.83
388.28	861.32
388.48	919.83
388.67	938.55
388.86	931.53
389.06	931.53
389.25	964.30
389.45	947.92
389.64	919.83
389.84	943.24
390.03	973.66
390.22	1015.79
390.42	1036.86
390.61	947.92
390.81	999.41
391.00	959.62
391.19	940.90
391.39	1083.67
391.58	1055.58
391.78	1046.22
391.97	1053.24
392.16	1039.20
392.36	1022.81
392.55	1034.52
392.75	1064.94
392.94	1067.28
393.13	994.73
393.33	957.28
393.52	999.41
393.71	1078.99
393.91	1104.73
394.10	1093.03
394.29	1123.46
394.49	1149.20
394.68	1165.59
394.88	1135.16
395.07	1214.74
395.26	1254.53
395.46	1160.91
395.65	1116.44
395.84	1196.01
396.04	1242.82
396.23	1149.20
396.42	1203.04
396.62	1254.53
396.81	1207.72
397.00	1179.63
397.19	1289.64
397.39	1224.10
397.58	1277.93
397.77	1242.82
397.97	1238.14
398.16	1261.55
398.35	1277.93
398.55	1268.57
398.74	1406.66
398.93	1392.62
399.12	1348.15
399.32	1289.64
399.51	1322.40
399.70	1399.64
399.90	1425.39
400.09	1406.66
400.28	1446.45
400.47	1364.53
400.67	1387.94
400.86	1444.11
401.05	1423.05
401.24	1357.51
401.44	1380.92
401.63	1439.43
401.82	1423.05
402.01	1404.32
402.21	1577.52
402.40	1467.52
402.59	1528.37
402.78	1577.52
402.97	1469.86
403.17	1516.67
403.36	1575.18
403.55	1577.52
403.74	1561.14
403.93	1589.22
404.13	1591.56
404.32	1619.65
404.51	1680.50
404.70	1598.59
404.89	1652.42
405.09	1659.44
405.28	1614.97
405.47	1696.89
405.66	1668.80
405.85	1664.12
406.05	1699.23
406.24	1806.89
406.43	1727.32
406.62	1834.98
406.81	1820.94
407.00	1769.44
407.20	1692.21
407.39	1788.17
407.58	1834.98
407.77	1872.43
407.96	1839.66
408.15	1902.86
408.34	1804.55
408.54	1923.92
408.73	2078.40
408.92	1966.05
409.11	1912.22
409.30	1959.03
409.49	1994.14
409.68	2017.54
409.87	1914.56
410.07	2024.56
410.26	2054.99
410.45	2001.16
410.64	2071.37
410.83	2165.00
411.02	2059.67
411.21	2136.91
411.40	2160.31
411.59	2263.30
411.78	2167.34
411.98	2277.34
412.17	2303.09
412.36	2195.42
412.55	2263.30
412.74	2375.64
412.93	2305.43
413.12	2300.75
413.31	2427.14
413.50	2356.92
413.69	2445.86
413.88	2530.12
414.07	2497.35
414.26	2471.61
414.45	2523.10
414.64	2558.21
414.83	2525.44
415.02	2635.44
415.22	2684.59
415.41	2654.17
415.60	2731.41
415.79	2696.30
415.98	2612.04
416.17	2796.94
416.36	2754.81
416.55	2881.20
416.74	2822.69
416.93	2684.59
417.12	2878.86
417.31	2829.71
417.50	2822.69
417.69	2942.05
417.88	2984.18
418.07	2897.58
418.26	2871.84
418.45	2949.08
418.64	3077.80
418.83	3068.44
419.02	3148.02
419.21	3122.27
419.39	3059.08
419.58	3098.87
419.77	3159.72
419.96	3206.53
420.15	3148.02
420.34	3138.66
420.53	3286.11
420.72	3124.62
420.91	3293.13
421.10	3225.26
421.29	3391.44
421.48	3258.03
421.67	3424.20
421.86	3370.37
422.05	3332.92
422.24	3421.86
422.43	3274.41
422.61	3361.01
422.80	3431.23
422.99	3239.30
423.18	3463.99
423.37	3342.28
423.56	3342.28
423.75	3412.50
423.94	3339.94
424.13	3183.13
424.32	3311.86
424.50	3337.60
424.69	3597.40
424.88	3506.12
425.07	3564.64
425.26	3459.31
425.45	3494.42
425.64	3541.23
425.83	3356.33
426.01	3529.53
426.20	3438.25
426.39	3555.27
426.58	3454.63
426.77	3510.80
426.96	3501.44
427.15	3552.93
427.33	3693.37
427.52	3585.70
427.71	3707.41
427.90	3588.04
428.09	3676.98
428.28	3716.77
428.46	3592.72
428.65	3653.58
428.84	3686.34
429.03	3906.35
429.22	3700.39
429.40	3810.39
429.59	3847.84
429.78	3679.32
429.97	3695.71
430.16	3836.14
430.34	3859.54
430.53	3887.63
430.72	3875.93
430.91	3946.14
431.10	3953.16
431.28	4051.47
431.47	4114.66
431.66	3995.29
431.85	3992.95
432.03	4079.55
432.22	4170.83
432.41	4070.19
432.60	4121.68
432.79	4018.70
432.97	4138.07
433.16	4205.94
433.35	4161.47
433.54	4248.07
433.72	4341.69
433.91	4184.88
434.10	4140.41
434.28	4070.19
434.47	4161.47
434.66	4437.66
434.85	4355.74
435.03	4376.80
435.22	4418.93
435.41	4344.03
435.59	4369.78
435.78	4362.76
435.97	4456.38
436.16	4568.73
436.34	4416.59
436.53	4491.49
436.72	4606.17
436.90	4418.93
437.09	4540.64
437.28	4561.70
437.46	4461.06
437.65	4688.09
437.84	4725.54
438.02	4690.43
438.21	4767.67
438.40	4514.89
438.58	4758.31
438.77	4770.01
438.96	4908.10
439.14	4924.49
439.33	4980.66
439.52	4877.68
439.70	5130.45
439.89	5025.13
440.08	5268.55
440.26	5137.48
440.45	5071.94
440.63	5078.96
440.82	5352.81
441.01	5130.45
441.19	5184.29
441.38	5261.52
441.57	5294.29
441.75	5315.36
441.94	5376.21
442.12	5423.02
442.31	5509.62
442.50	5455.79
442.68	5420.68
442.87	5614.95
443.05	5490.90
443.24	5500.26
443.43	5549.41
443.61	5645.37
443.80	5813.89
443.98	5509.62
444.17	5357.49
444.35	5598.56
444.54	5701.54
444.73	5703.89
444.91	5664.10
445.10	5769.42
445.28	5811.55
445.47	5685.16
445.65	5563.45
445.84	5715.59
446.02	5638.35
446.21	5799.85
446.39	5802.19
446.58	5973.05
446.77	5820.91
446.95	5561.11
447.14	5776.44
447.32	5909.85
447.51	5748.36
447.69	5853.68
447.88	5788.14
448.06	5851.34
448.25	5839.64
448.43	5837.30
448.62	5867.72
448.80	5870.06
448.99	5919.21
449.17	6040.92
449.36	5905.17
449.54	5928.58
449.73	6195.40
449.91	6171.99
450.10	6015.18
450.28	6274.98
450.46	6251.57
450.65	6125.18
450.83	6214.12
451.02	6265.61
451.20	6277.32
451.39	6146.25
451.57	6141.57
451.76	6321.79
451.94	6190.72
452.13	6373.28
452.31	6298.38
452.49	6193.06
452.68	6394.34
452.86	6417.75
453.05	6359.24
453.23	6429.45
453.42	6230.51
453.60	6321.79
453.78	6637.76
453.97	6478.60
454.15	6361.58
454.34	6485.62
454.52	6682.23
454.70	6525.41
454.89	6558.18
455.07	6705.63
455.26	6754.79
455.44	6864.79
455.62	6794.58
455.81	6731.38
455.99	6895.22
456.17	6876.49
456.36	6696.27
456.54	6918.62
456.73	6874.15
456.91	7108.21
457.09	7016.93
457.28	7108.21
457.46	7176.08
457.64	7077.78
457.83	6981.82
458.01	7241.62
458.19	7389.07
458.38	7232.26
458.56	7300.13
458.74	7295.45
458.93	7344.60
459.11	7342.26
459.29	7302.47
459.48	7279.07
459.66	7073.10
459.84	7426.52
460.03	7733.13
460.21	7440.56
460.39	7463.97
460.57	7447.58
460.76	7665.25
460.94	7578.65
461.12	7576.31
461.31	7660.57
461.49	7435.88
461.67	7641.85
461.85	7789.30
462.04	7653.55
462.22	8329.97
462.40	7798.66
462.59	7623.12
462.77	8053.78
462.95	7880.58
463.13	7847.82
463.32	7801.01
463.50	7831.43
463.68	7946.12
463.86	8032.72
464.05	8018.68
464.23	7929.74
464.41	8077.19
464.59	7955.48
464.78	8327.63
464.96	8042.08
465.14	8056.12
465.32	8142.72
465.50	8238.69
465.69	8191.88
465.87	8393.16
466.05	8168.47
466.23	8168.47
466.41	8189.53
466.60	8381.46
466.78	8201.24
466.96	8318.26
467.14	8409.54
467.32	8421.25
467.51	8587.43
467.69	8369.76
467.87	8484.44
468.05	8622.53
468.23	8313.58
468.41	8500.83
468.60	8446.99
468.78	8477.42
468.96	8423.59
469.14	8791.05
469.32	8636.58
469.50	8430.61
469.69	8833.18
469.87	8849.57
470.05	8784.03
470.23	8847.22
470.41	8690.41
470.59	8856.59
470.77	8856.59
470.95	8971.27
471.14	9097.66
471.32	9011.06
471.50	9085.96
471.68	9078.94
471.86	9097.66
472.04	9217.03
472.22	9404.27
472.40	9125.75
472.58	9308.31
472.77	9366.82
472.95	9411.29
473.13	9825.57
473.31	9383.21
473.49	9558.75
473.67	9397.25
473.85	9521.30
474.03	9837.27
474.21	9958.98
474.39	9874.72
474.57	9853.66
474.75	9975.36
474.93	9863.02
475.12	9977.70
475.30	9980.04
475.48	10122.82
475.66	10059.62
475.84	10204.74
476.02	10345.17
476.20	10216.44
476.38	10427.09
476.56	10801.57
476.74	10696.25
476.92	10494.96
477.10	10682.20
477.28	10712.63
477.46	10822.64
477.64	10956.05
477.82	11276.70
478.00	11496.71
478.18	11178.40
478.36	11424.15
478.54	11487.35
478.72	11508.41
478.90	11456.92
479.08	11857.15
479.26	11721.40
479.44	11831.41
479.62	11861.84
479.80	11946.09
479.98	11936.73
480.16	12299.52
480.34	12070.14
480.52	12514.84
480.70	12470.37
480.88	12177.81
481.06	12414.20
481.24	12198.87
481.41	12861.24
481.59	12732.51
481.77	12751.24
481.95	13011.04
482.13	12996.99
482.31	13071.89
482.49	13312.97
482.67	13137.43
482.85	13544.68
483.03	13357.44
483.21	13757.67
483.39	13736.60
483.57	13762.35
483.74	14160.24
483.92	14260.88
484.10	14160.24
484.28	14518.34
484.46	14614.30
484.64	14712.61
484.82	14633.03
485.00	14827.29
485.18	15026.24
485.35	15012.20
485.53	15185.40
485.71	15218.16
485.89	15557.54
486.07	15552.86
486.25	15349.23
486.43	15681.59
486.61	15826.70
486.78	15866.49
486.96	15786.91
487.14	16102.89
487.32	16482.05
487.50	16524.18
487.68	16470.35
487.85	16629.51
488.03	17050.80
488.21	16950.16
488.39	17057.82
488.57	17406.56
488.75	17231.02
488.92	17488.48
489.10	17811.48
489.28	17809.14
489.46	17919.14
489.64	17947.23
489.81	18204.69
489.99	18389.59
490.17	18200.01
490.35	18621.30
490.53	18480.87
490.70	18970.04
490.88	18771.10
491.06	18941.96
491.24	19278.99
491.41	19353.89
491.59	19564.54
491.77	19138.56
491.95	19798.59
492.13	19803.27
492.30	19997.54
492.48	19770.51
492.66	20067.75
492.84	20187.12
493.01	20053.71
493.19	20372.02
493.37	20491.39
493.54	20599.05
493.72	20807.36
493.90	20678.63
494.08	21025.03
494.25	21111.63
494.43	20912.69
494.61	21343.35
494.79	21247.38
494.96	21216.96
495.14	21429.94
495.32	21802.09
495.49	21802.09
495.67	21909.75
495.85	22033.80
496.02	22211.68
496.20	22497.23
496.38	22408.29
496.55	22721.92
496.73	23239.18
496.91	23056.62
497.09	23190.03
497.26	23386.63
497.44	22820.22
497.62	23302.37
497.79	23555.15
497.97	23515.36
498.14	23555.15
498.32	23924.96
498.50	23981.13
498.67	24226.89
498.85	23910.91
499.03	24011.56
499.20	24430.51
499.38	24411.79
499.56	24472.64
499.73	24971.18
499.91	24655.20
500.08	25172.46
500.26	25057.78
500.44	25104.59
500.61	24994.58
500.79	25242.68
500.97	25219.27
501.14	25825.47
501.32	25479.07
501.49	25418.22
501.67	25743.55
501.84	26073.57
502.02	25708.44
502.20	25757.60
502.37	25867.60
502.55	25921.43
502.72	26169.53
502.90	26448.05
503.07	26309.96
503.25	26349.75
503.43	26199.96
503.60	26314.64
503.78	26295.92
503.95	26618.91
504.13	26625.93
504.30	27105.74
504.48	26925.52
504.65	27117.45
504.83	27108.08
505.01	27555.13
505.18	26878.71
505.36	27426.40
505.53	27250.86
505.71	27571.51
505.88	27232.13
506.06	27637.05
506.23	28058.34
506.41	28041.96
506.58	27887.48
506.76	27917.91
506.93	28308.78
507.11	28098.13
507.28	28318.14
507.46	28236.22
507.63	28339.21
507.81	28393.04
507.98	28570.92
508.16	28718.37
508.33	28891.57
508.50	29275.42
508.68	28833.06
508.85	29355.00
509.03	28917.32
509.20	29549.26
509.38	29626.50
509.55	29500.11
509.73	29628.84
509.90	29935.45
510.08	29509.47
510.25	29752.89
510.42	29951.84
510.60	30314.62
510.77	30216.32
510.95	30618.89
511.12	30312.28
511.30	30242.06
511.47	30171.85
511.64	30661.02
511.82	30558.03
511.99	30749.96
512.17	30473.78
512.34	30773.36
512.51	30881.03
512.69	31419.35
512.86	31044.87
513.04	31447.44
513.21	30778.04
513.38	31023.80
513.56	31063.59
513.73	31339.77
513.90	31536.38
514.08	31585.53
514.25	31651.06
514.43	31606.59
514.60	32002.14
514.77	32067.68
514.95	32187.05
515.12	31826.60
515.29	31866.39
515.47	32290.03
515.64	32528.77
515.81	32180.03
515.99	32388.33
516.16	32828.35
516.33	32629.41
516.51	32947.72
516.68	32229.18
516.85	33060.07
517.03	32961.76
517.20	32851.76
517.37	32945.38
517.54	33024.96
517.72	33640.52
517.89	33256.67
518.06	33294.12
518.24	33308.16
518.41	33111.56
518.58	33111.56
518.75	33516.47
518.93	33762.23
519.10	33720.10
519.27	33572.64
519.45	33631.16
519.62	33820.74
519.79	34120.33
519.96	34038.41
520.14	34012.66
520.31	33731.80
520.48	34335.66
520.65	34628.23
520.83	34883.34
521.00	34859.94
521.17	34480.77
521.34	34972.28
521.52	34850.58
521.69	34895.05
521.86	34761.64
522.03	35274.21
522.20	35101.01
522.38	35330.39
522.55	35412.31
522.72	35328.05
522.89	35690.83
523.07	36151.91
523.24	35531.67
523.41	35798.49
523.58	35576.14
523.75	36081.70
523.92	35838.28
524.10	35742.32
524.27	36175.32
524.44	36481.93
524.61	36219.79
524.78	35611.25
524.96	36360.22
525.13	36325.11
525.30	36187.02
525.47	37027.28
525.64	36327.45
525.81	36374.27
525.98	36655.13
526.16	36563.85
526.33	36708.96
526.50	36783.86
526.67	36559.17
526.84	37226.22
527.01	36945.36
527.18	36856.42
527.36	37237.92
527.53	37317.50
527.70	37778.59
527.87	37542.19
528.04	37333.89
528.21	37649.86
528.38	37724.75
528.55	37769.22
528.72	37521.13
528.89	37834.76
529.07	37610.07
529.24	37778.59
529.41	38066.47
529.58	37460.27
529.75	37851.14
529.92	37916.68
530.09	38059.45
530.26	37715.39
530.43	38242.01
530.60	37773.91
530.77	38403.51
530.94	38356.70
531.11	38340.32
531.28	38480.75
531.46	38567.35
531.63	38337.98
531.80	38548.62
531.97	38721.82
532.14	38337.98
532.31	38810.76
532.48	38972.26
532.65	38946.51
532.82	39105.67
532.99	38892.68
533.16	38614.16
533.33	38965.24
533.50	39021.41
533.67	39079.92
533.84	38595.43
534.01	39346.75
534.18	39044.82
534.35	39669.74
534.52	39353.77
534.69	39487.18
534.86	39887.41
535.03	39409.94
535.20	39943.58
535.37	40032.52
535.54	39475.48
535.71	39632.29
535.88	40069.97
536.05	39969.33
536.22	39962.31
536.38	39959.97
536.55	39896.77
536.72	39931.88
536.89	40032.52
537.06	40100.40
537.23	40388.28
537.40	40299.34
537.57	40196.36
537.74	40187.00
537.91	40474.88
538.08	40292.32
538.25	40315.73
538.42	40418.71
538.59	40928.95
538.75	40348.50
538.92	41055.34
539.09	40774.47
539.26	40545.10
539.43	40634.04
539.60	41069.38
539.77	41139.60
539.94	41256.62
540.11	41478.97
540.28	40875.12
540.44	41326.84
540.61	41155.98
540.78	41081.08
540.95	41228.54
541.12	41017.89
541.29	40917.25
541.46	41546.85
541.62	41558.55
541.79	41879.21
541.96	41036.61
542.13	41523.44
542.30	41649.83
542.47	42043.04
542.63	41825.37
542.80	41914.31
542.97	42469.02
543.14	42410.51
543.31	42029.00
543.48	42267.73
543.64	42401.14
543.81	42564.98
543.98	42401.14
544.15	42499.45
544.32	42209.22
544.48	43061.18
544.65	42298.16
544.82	42829.46
544.99	42527.53
545.16	42330.93
545.32	42443.27
545.49	42981.60
545.66	43365.45
545.83	42983.94
546.00	42895.00
546.16	42735.84
546.33	42616.47
546.50	42892.66
546.67	42997.98
546.83	42658.60
547.00	42939.47
547.17	42756.91
547.34	43545.67
547.50	43503.54
547.67	43695.46
547.84	42974.58
548.00	43555.03
548.17	43693.12
548.34	43576.09
548.51	43700.14
548.67	43461.41
548.84	43058.84
549.01	44109.74
549.18	43550.35
549.34	43491.83
549.51	43936.54
549.68	43643.97
549.84	44018.46
550.01	44041.86
550.18	43445.02
550.34	44060.58
550.51	44208.04
550.68	43835.89
550.84	44493.58
551.01	44081.65
551.18	44039.52
551.34	44116.76
551.51	44252.51
551.68	44280.60
551.84	44271.23
552.01	44278.25
552.18	44346.13
552.34	44182.29
552.51	44538.05
552.68	44062.93
552.84	44264.21
553.01	44673.81
553.18	44329.75
553.34	44406.98
553.51	44460.82
553.67	44327.41
553.84	44968.71
554.01	45258.94
554.17	44648.06
554.34	44701.89
554.51	44706.57
554.67	45303.41
554.84	44905.52
555.00	45125.53
555.17	44865.73
555.33	45146.59
555.50	45095.10
555.67	44996.80
555.83	45132.55
556.00	45158.30
556.16	45443.84
556.33	45226.17
556.50	44966.37
556.66	44996.80
556.83	44772.11
556.99	45502.35
557.16	45249.58
557.32	45542.14
557.49	45443.84
557.65	44917.22
557.82	45535.12
557.98	45382.99
558.15	45457.88
558.32	45347.88
558.48	45059.99
558.65	45390.01
558.81	45635.77
558.98	45031.91
559.14	45090.42
559.31	45357.24
559.47	45764.49
559.64	46101.53
559.80	46017.27
559.97	45705.98
560.13	45794.92
560.30	45523.42
560.46	46323.88
560.63	45874.50
560.79	45916.63
560.96	46300.48
561.12	46157.70
561.29	46050.04
561.45	45996.21
561.61	46157.70
561.78	45993.87
561.94	45759.81
562.11	45923.65
562.27	45916.63
562.44	46089.83
562.60	46204.52
562.77	46248.99
562.93	45998.55
563.10	46181.11
563.26	46101.53
563.42	46597.73
563.59	45914.29
563.75	46153.02
563.92	45993.87
564.08	45893.22
564.24	46658.58
564.41	46461.97
564.57	45977.48
564.74	46520.49
564.90	46454.95
565.07	46293.46
565.23	46361.33
565.39	46557.94
565.56	46621.13
565.72	46539.21
565.88	46473.68
566.05	46689.01
566.21	46712.41
566.38	46258.35
566.54	46579.00
566.70	46885.61
566.87	46476.02
567.03	46630.49
567.19	46864.55
567.36	46588.36
567.52	46733.48
567.68	47009.66
567.85	46864.55
568.01	47014.34
568.17	46927.74
568.34	46925.40
568.50	46890.29
568.66	46791.99
568.83	46995.62
568.99	46923.06
569.15	46642.20
569.32	46813.05
569.48	46504.10
569.64	47250.74
569.81	47290.52
569.97	46593.04
570.13	47358.40
570.30	46586.02
570.46	47033.07
570.62	46916.04
570.78	47056.47
570.95	46986.25
571.11	47374.78
571.27	47110.30
571.43	46820.08
571.60	47487.13
571.76	46560.28
571.92	46930.08
572.09	46937.10
572.25	47047.11
572.41	46850.50
572.57	46806.03
572.74	47168.82
572.90	47283.50
573.06	47201.58
573.22	47569.05
573.38	47615.86
573.55	47079.88
573.71	47676.71
573.87	47501.17
574.03	47138.39
574.20	47297.55
574.36	47459.04
574.52	47344.36
574.68	47435.64
574.84	47562.03
575.01	47660.33
575.17	47629.90
575.33	47611.18
575.49	47388.83
575.65	47119.66
575.82	47442.66
575.98	47147.75
576.14	47487.13
576.30	47938.85
576.46	47735.23
576.62	47112.64
576.79	47468.40
576.95	47330.31
577.11	47264.78
577.27	47152.43
577.43	47517.56
577.59	47412.23
577.75	47356.06
577.92	46958.17
578.08	47346.70
578.24	47316.27
578.40	47615.86
578.56	47454.36
578.72	47367.76
578.88	47873.32
579.04	47330.31
579.21	47896.72
579.37	47650.97
579.53	47922.47
579.69	47318.61
579.85	47133.71
580.01	47913.11
580.17	47440.32
580.33	47690.76
580.49	47711.82
580.65	47784.38
580.82	47798.42
580.98	47262.44
581.14	47239.03
581.30	47976.30
581.46	47615.86
581.62	47367.76
581.78	47215.63
581.94	47962.26
582.10	47789.06
582.26	47400.53
582.42	47562.03
582.58	47613.52
582.74	47941.19
582.90	47763.31
583.06	47711.82
583.22	47442.66
583.38	47686.07
583.54	47702.46
583.70	47620.54
583.86	47578.41
584.02	47714.16
584.18	47878.00
584.34	47882.68
584.50	47917.79
584.66	48055.88
584.82	47892.04
584.98	48299.30
585.14	48027.79
585.30	47627.56
585.46	47899.06
585.62	47805.44
585.78	47826.51
585.94	47440.32
586.10	47555.00
586.26	47643.94
586.42	47744.59
586.58	48205.67
586.74	47899.06
586.90	47416.91
587.06	47512.88
587.22	47849.91
587.38	47606.50
587.54	47908.43
587.70	48114.39
587.86	47873.32
588.02	47784.38
588.18	47922.47
588.34	47971.62
588.49	47885.02
588.65	47725.86
588.81	47667.35
588.97	47959.92
589.13	48004.39
589.29	48055.88
589.45	47889.70
589.61	48416.32
589.77	48348.45
589.93	48163.54
590.08	48172.91
