SpectraSuite Data File
++++++++++++++++++++++++++++++++++++
Date: Fri Oct 25 11:34:11 EDT 2013
User: price-jones
Dark Spectrum Present: No
Reference Spectrum Present: No
Number of Sampled Component Spectra: 1
Spectrometers: USB2+H05261
Integration Time (usec): 100000 (USB2+H05261)
Spectra Averaged: 1 (USB2+H05261)
Boxcar Smoothing: 0 (USB2+H05261)
Correct for Electrical Dark: No (USB2+H05261)
Strobe/Lamp Enabled: No (USB2+H05261)
Correct for Detector Non-linearity: No (USB2+H05261)
Correct for Stray Light: No (USB2+H05261)
Number of Pixels in Processed Spectrum: 2048
>>>>>Begin Processed Spectral Data<<<<<
365.73	269.16
365.92	269.16
366.12	269.16
366.32	262.14
366.52	182.56
366.72	264.48
366.91	187.24
367.11	212.99
367.31	159.16
367.51	177.88
367.70	227.03
367.90	196.60
368.10	177.88
368.30	222.35
368.49	161.50
368.69	250.44
368.89	184.90
369.09	175.54
369.28	175.54
369.48	177.88
369.68	154.48
369.87	224.69
370.07	187.24
370.27	308.95
370.47	404.91
370.66	465.77
370.86	540.66
371.06	500.87
371.25	496.19
371.45	500.87
371.65	543.00
371.84	561.73
372.04	512.58
372.24	512.58
372.44	589.82
372.63	589.82
372.83	641.31
373.03	603.86
373.22	622.58
373.42	606.20
373.62	566.41
373.81	613.22
374.01	688.12
374.21	660.03
374.40	657.69
374.60	681.10
374.79	624.92
374.99	653.01
375.19	683.44
375.38	695.14
375.58	706.84
375.78	662.37
375.97	706.84
376.17	755.99
376.37	599.18
376.56	599.18
376.76	624.92
376.95	688.12
377.15	720.88
377.35	713.86
377.54	744.29
377.74	685.78
377.93	676.41
378.13	751.31
378.33	704.50
378.52	650.67
378.72	767.70
378.91	704.50
379.11	697.48
379.31	641.31
379.50	662.37
379.70	727.91
379.89	725.57
380.09	688.12
380.28	685.78
380.48	671.73
380.68	755.99
380.87	716.20
381.07	755.99
381.26	788.76
381.46	770.04
381.65	842.59
381.85	807.48
382.04	781.74
382.24	758.33
382.43	755.99
382.63	723.23
382.83	812.17
383.02	833.23
383.22	805.14
383.41	713.86
383.61	826.21
383.80	826.21
384.00	837.91
384.19	767.70
384.39	873.02
384.58	753.65
384.78	863.66
384.97	781.74
385.17	781.74
385.36	858.98
385.56	840.25
385.75	802.80
385.95	821.53
386.14	919.83
386.34	905.79
386.53	882.38
386.72	887.06
386.92	884.72
387.11	866.00
387.31	835.57
387.50	809.83
387.70	835.57
387.89	830.89
388.09	896.43
388.28	866.00
388.48	856.64
388.67	896.43
388.86	978.34
389.06	854.30
389.25	961.96
389.45	922.17
389.64	964.30
389.84	1090.69
390.03	917.49
390.22	947.92
390.42	968.98
390.61	1001.75
390.81	952.60
391.00	959.62
391.19	954.94
391.39	950.26
391.58	1001.75
391.78	1013.45
391.97	978.34
392.16	1020.47
392.36	1043.88
392.55	1029.84
392.75	929.19
392.94	1071.97
393.13	959.62
393.33	1032.18
393.52	1025.15
393.71	1076.65
393.91	1123.46
394.10	1095.37
394.29	1071.97
394.49	1090.69
394.68	1118.78
394.88	1135.16
395.07	1205.38
395.26	1067.28
395.46	1205.38
395.65	1069.62
395.84	1191.33
396.04	1240.48
396.23	1139.84
396.42	1149.20
396.62	1210.06
396.81	1086.01
397.00	1212.40
397.19	1268.57
397.39	1167.93
397.58	1226.44
397.77	1296.66
397.97	1228.78
398.16	1158.57
398.35	1224.10
398.55	1266.23
398.74	1240.48
398.93	1263.89
399.12	1315.38
399.32	1299.00
399.51	1263.89
399.70	1263.89
399.90	1287.29
400.09	1378.58
400.28	1348.15
400.47	1310.70
400.67	1444.11
400.86	1371.55
401.05	1320.06
401.24	1455.81
401.44	1448.79
401.63	1437.09
401.82	1401.98
402.01	1425.39
402.21	1509.65
402.40	1448.79
402.59	1441.77
402.78	1542.41
402.97	1460.49
403.17	1540.07
403.36	1516.67
403.55	1526.03
403.74	1612.63
403.93	1668.80
404.13	1624.33
404.32	1528.37
404.51	1549.43
404.70	1708.59
404.89	1565.82
405.09	1717.95
405.28	1657.10
405.47	1645.40
405.66	1647.74
405.85	1643.06
406.05	1720.29
406.24	1699.23
406.43	1746.04
406.62	1851.36
406.81	1706.25
407.00	1673.48
407.20	1657.10
407.39	1685.19
407.58	1811.57
407.77	1771.79
407.96	1893.49
408.15	1895.83
408.34	1813.92
408.54	1944.99
408.73	1933.28
408.92	1818.60
409.11	1963.71
409.30	1935.62
409.49	1926.26
409.68	2019.88
409.87	1947.33
410.07	1987.11
410.26	2115.84
410.45	1944.99
410.64	2024.56
410.83	2005.84
411.02	1980.09
411.21	2120.53
411.40	2106.48
411.59	2083.08
411.78	2047.97
411.98	2064.35
412.17	2193.08
412.36	2197.76
412.55	2307.77
412.74	2200.10
412.93	2275.00
413.12	2193.08
413.31	2478.63
413.50	2246.91
413.69	2382.67
413.88	2377.98
414.07	2370.96
414.26	2483.31
414.45	2352.24
414.64	2424.80
414.83	2375.64
415.02	2504.37
415.22	2583.95
415.41	2527.78
415.60	2511.39
415.79	2495.01
415.98	2647.15
416.17	2623.74
416.36	2661.19
416.55	2633.10
416.74	2738.43
416.93	2677.57
417.12	2621.40
417.31	2813.32
417.50	2822.69
417.69	2981.84
417.88	2836.73
418.07	2890.56
418.26	2778.22
418.45	2951.42
418.64	3077.80
418.83	2939.71
419.02	2862.48
419.21	3066.10
419.39	3075.46
419.58	2956.10
419.77	2986.52
419.96	3030.99
420.15	3138.66
420.34	3119.93
420.53	2937.37
420.72	3038.02
420.91	3286.11
421.10	3201.85
421.29	3281.43
421.48	3157.38
421.67	3197.17
421.86	3176.11
422.05	3262.71
422.24	3164.40
422.43	3243.98
422.61	3382.07
422.80	3276.75
422.99	3365.69
423.18	3361.01
423.37	3417.18
423.56	3236.96
423.75	3204.19
423.94	3262.71
424.13	3145.68
424.32	3213.56
424.50	3407.82
424.69	3515.48
424.88	3316.54
425.07	3225.26
425.26	3295.47
425.45	3407.82
425.64	3300.16
425.83	3410.16
426.01	3485.06
426.20	3412.50
426.39	3386.76
426.58	3466.33
426.77	3297.81
426.96	3370.37
427.15	3501.44
427.33	3447.61
427.52	3459.31
427.71	3431.23
427.90	3499.10
428.09	3557.61
428.28	3548.25
428.46	3637.19
428.65	3669.96
428.84	3768.26
429.03	3794.01
429.22	3658.26
429.40	3574.00
429.59	3667.62
429.78	3623.15
429.97	3492.08
430.16	3595.06
430.34	3655.92
430.53	3655.92
430.72	3829.12
430.91	3595.06
431.10	3693.37
431.28	3838.48
431.47	3822.09
431.66	3946.14
431.85	3889.97
432.03	3953.16
432.22	4046.79
432.41	3836.14
432.60	4037.42
432.79	3908.69
432.97	4046.79
433.16	4025.72
433.35	4009.34
433.54	4046.79
433.72	3882.95
433.91	4145.09
434.10	4170.83
434.28	4100.62
434.47	4126.36
434.66	4205.94
434.85	4236.37
435.03	4236.37
435.22	4121.68
435.41	4318.29
435.59	4283.18
435.78	4381.48
435.97	4264.46
436.16	4217.65
436.34	4234.03
436.53	4348.72
436.72	4369.78
436.90	4337.01
437.09	4470.42
437.28	4262.12
437.46	4418.93
437.65	4437.66
437.84	4512.55
438.02	4699.80
438.21	4554.68
438.40	4437.66
438.58	4592.13
438.77	4643.62
438.96	4610.86
439.14	4709.16
439.33	4861.29
439.52	4889.38
439.70	4837.89
439.89	4798.10
440.08	4901.08
440.26	5029.81
440.45	4968.96
440.63	4987.68
440.82	5053.22
441.01	5041.51
441.19	4952.57
441.38	5123.43
441.57	5078.96
441.75	5224.08
441.94	5179.61
442.12	5343.44
442.31	5226.42
442.50	5242.80
442.68	5240.46
442.87	5338.76
443.05	5336.42
443.24	5486.22
443.43	5324.72
443.61	5504.94
443.80	5472.17
443.98	5444.09
444.17	5191.31
444.35	5439.40
444.54	5441.75
444.73	5301.31
444.91	5537.71
445.10	5605.58
445.28	5441.75
445.47	5441.75
445.65	5502.60
445.84	5600.90
446.02	5738.99
446.21	5575.16
446.39	5500.26
446.58	5603.24
446.77	5652.39
446.95	5483.88
447.14	5385.57
447.32	5650.05
447.51	5561.11
447.69	5673.46
447.88	5591.54
448.06	5614.95
448.25	5570.48
448.43	5776.44
448.62	5579.84
448.80	5636.01
448.99	5696.86
449.17	5715.59
449.36	5769.42
449.54	5977.73
449.73	6008.16
449.91	5884.11
450.10	5977.73
450.28	5959.00
450.46	5989.43
450.65	5933.26
450.83	5980.07
451.02	5935.60
451.20	6071.35
451.39	5982.41
451.57	6092.41
451.76	6024.54
451.94	5959.00
452.13	6052.63
452.31	6333.49
452.49	5977.73
452.68	6230.51
452.86	6155.61
453.05	5977.73
453.23	6267.95
453.42	6029.22
453.60	6066.67
453.78	6382.64
453.97	6274.98
454.15	6246.89
454.34	6448.18
454.52	6450.52
454.70	6478.60
454.89	6560.52
455.07	6434.13
455.26	6445.84
455.44	6509.03
455.62	6499.67
455.81	6408.39
455.99	6672.87
456.17	6623.72
456.36	6441.15
456.54	6558.18
456.73	6628.40
456.91	6761.81
457.09	6881.18
457.28	6874.15
457.46	6834.36
457.64	6993.52
457.83	6827.34
458.01	6815.64
458.19	6970.12
458.38	7023.95
458.56	7192.47
458.74	6890.54
458.93	7016.93
459.11	6885.86
459.29	7033.31
459.48	7281.41
459.66	7082.46
459.84	7115.23
460.03	7218.21
460.21	7119.91
460.39	7159.70
460.57	7225.23
460.76	7314.17
460.94	7440.56
461.12	7389.07
461.31	7438.22
461.49	7307.15
461.67	7218.21
461.85	7480.35
462.04	7506.10
462.22	7779.94
462.40	7644.19
462.59	7508.44
462.77	7728.45
462.95	7592.70
463.13	7602.06
463.32	7595.04
463.50	7632.49
463.68	7756.54
463.86	7665.25
464.05	7559.93
464.23	7716.75
464.41	7854.84
464.59	7653.55
464.78	7911.01
464.96	7801.01
465.14	7714.41
465.32	7927.39
465.50	8091.23
465.69	7899.31
465.87	7845.48
466.05	8028.04
466.23	8154.43
466.41	8053.78
466.60	8159.11
466.78	8077.19
466.96	7936.76
467.14	8133.36
467.32	7978.89
467.51	8280.82
467.69	7763.56
467.87	8065.49
468.05	8329.97
468.23	7934.42
468.41	8210.60
468.60	8210.60
468.78	8173.15
468.96	8332.31
469.14	8432.95
469.32	8421.25
469.50	8271.45
469.69	8346.35
469.87	8456.36
470.05	8409.54
470.23	8688.07
470.41	8573.38
470.59	8484.44
470.77	8615.51
470.95	8540.61
471.14	8762.97
471.32	8648.28
471.50	8699.77
471.68	8798.07
471.86	8971.27
472.04	8748.92
472.22	9095.32
472.40	8987.66
472.58	9078.94
472.77	9102.34
472.95	9238.09
473.13	9427.68
473.31	9083.62
473.49	9111.71
473.67	9238.09
473.85	9444.06
474.03	9380.87
474.21	9645.35
474.39	9680.46
474.57	9448.74
474.75	9535.34
474.93	9696.84
475.12	9767.06
475.30	9891.10
475.48	9837.27
475.66	9853.66
475.84	9720.24
476.02	9973.02
476.20	9975.36
476.38	10176.65
476.56	10366.23
476.74	10281.97
476.92	10174.31
477.10	10160.27
477.28	10384.96
477.46	10333.47
477.64	10658.80
477.82	10525.39
478.00	10750.08
478.18	10864.77
478.36	10834.34
478.54	10942.00
478.72	11077.76
478.90	11288.40
479.08	11166.70
479.26	11393.73
479.44	11412.45
479.62	11456.92
479.80	11459.26
479.98	11751.83
480.16	11712.04
480.34	11637.14
480.52	11604.38
480.70	11749.49
480.88	11716.72
481.06	12166.10
481.24	12133.34
481.41	12280.79
481.59	12582.72
481.77	12315.90
481.95	12547.61
482.13	12664.64
482.31	12805.07
482.49	12957.21
482.67	12809.75
482.85	13121.04
483.03	13050.83
483.21	13245.09
483.39	13373.82
483.57	13310.63
483.74	13357.44
483.92	13605.53
484.10	13785.76
484.28	13909.80
484.46	14010.45
484.64	14312.38
484.82	13991.72
485.00	14195.35
485.18	14527.71
485.35	14633.03
485.53	14743.03
485.71	14817.93
485.89	15286.04
486.07	14977.09
486.25	15197.10
486.43	15309.44
486.61	15105.82
486.78	15503.71
486.96	15435.83
487.14	15594.99
487.32	15915.64
487.50	15868.83
487.68	16023.31
487.85	16020.97
488.03	16428.22
488.21	16442.26
488.39	16423.54
488.57	16893.99
488.75	16702.06
488.92	16861.22
489.10	17008.67
489.28	17118.68
489.46	17591.47
489.64	17240.39
489.81	17514.23
489.99	17528.27
490.17	17867.65
490.35	17654.66
490.53	17961.27
490.70	18310.01
490.88	18211.71
491.06	18537.04
491.24	18356.82
491.41	18429.38
491.59	18611.94
491.77	18656.41
491.95	18789.82
492.13	19297.72
492.30	19351.55
492.48	19185.37
492.66	19145.58
492.84	19459.21
493.01	19737.74
493.19	19396.02
493.37	19843.06
493.54	19967.11
493.72	19866.47
493.90	19950.73
494.08	19950.73
494.25	20397.77
494.43	20575.65
494.61	20510.11
494.79	20725.44
494.96	21029.71
495.14	21013.33
495.32	21350.37
495.49	20830.77
495.67	21069.50
495.85	21521.23
496.02	21333.98
496.20	21687.40
496.38	21834.86
496.55	21825.50
496.73	22192.96
496.91	21947.20
497.09	22174.24
497.26	22401.27
497.44	22221.05
497.62	22539.36
497.79	22810.86
497.97	22244.45
498.14	22691.49
498.32	22623.62
498.50	23108.11
498.67	23482.59
498.85	22941.93
499.03	23377.27
499.20	23370.25
499.38	23068.32
499.56	23632.39
499.73	23461.53
499.91	23910.91
500.08	24149.65
500.26	23756.44
500.44	24229.23
500.61	24304.12
500.79	24161.35
500.97	24486.68
501.14	24514.77
501.32	24856.49
501.49	24266.67
501.67	24893.94
501.84	24795.64
502.02	24907.98
502.20	24702.01
502.37	25074.16
502.55	25020.33
502.72	25230.98
502.90	25614.82
503.07	25067.14
503.25	25076.50
503.43	25603.12
503.60	25776.32
503.78	25827.81
503.95	25685.04
504.13	25663.97
504.30	25958.88
504.48	26068.89
504.65	26061.87
504.83	26183.57
505.01	26494.86
505.18	26031.44
505.36	26658.70
505.53	26579.12
505.71	26363.79
505.88	26747.64
506.06	26324.01
506.23	26745.30
506.41	26913.82
506.58	27138.51
506.76	26644.66
506.93	27297.67
507.11	27222.77
507.28	27541.08
507.46	27367.88
507.63	27325.75
507.81	27754.07
507.98	27517.68
508.16	27658.11
508.33	27658.11
508.50	27803.22
508.68	28027.92
508.85	27997.49
509.03	28254.95
509.20	28435.17
509.38	28481.98
509.55	28484.32
509.73	28510.07
509.90	28533.47
510.08	28563.90
510.25	28538.15
510.42	28655.18
510.60	28732.42
510.77	29179.46
510.95	29120.95
511.12	28961.79
511.30	29240.31
511.47	29064.77
511.64	29244.99
511.82	29890.98
511.99	29462.66
512.17	29481.39
512.34	29759.91
512.51	29675.65
512.69	30125.04
512.86	29954.18
513.04	30277.17
513.21	29523.52
513.38	30558.03
513.56	30314.62
513.73	30225.68
513.90	30403.56
514.08	30075.88
514.25	30644.63
514.43	30799.11
514.60	30993.37
514.77	30651.66
514.95	31143.17
515.12	30686.76
515.29	30881.03
515.47	30616.55
515.64	31442.76
515.81	30920.82
515.99	31407.65
516.16	31585.53
516.33	31489.57
516.51	31573.83
516.68	31417.01
516.85	31864.05
517.03	31625.32
517.20	31793.84
517.37	31971.72
517.54	32084.06
517.72	31782.13
517.89	31402.97
518.06	32037.25
518.24	32322.80
518.41	31840.65
518.58	32210.45
518.75	32107.47
518.93	32575.58
519.10	32533.45
519.27	32615.37
519.45	32336.84
519.62	32685.58
519.79	32449.19
519.96	32430.46
520.14	32903.25
520.31	32818.99
520.48	33071.77
520.65	33251.99
520.83	33446.26
521.00	33392.42
521.17	33273.06
521.34	33986.92
521.52	33354.97
521.69	33441.57
521.86	33521.15
522.03	33860.53
522.20	33755.21
522.38	33989.26
522.55	34134.37
522.72	34073.52
522.89	33780.95
523.07	34171.82
523.24	34209.27
523.41	34668.02
523.58	34506.52
523.75	34132.03
523.92	34422.26
524.10	34579.07
524.27	34735.89
524.44	34476.09
524.61	34991.01
524.78	34806.11
524.96	35468.48
525.13	34658.65
525.30	35491.88
525.47	35424.01
525.64	34974.63
525.81	35040.16
525.98	35519.97
526.16	35637.00
526.33	35426.35
526.50	35634.66
526.67	35491.88
526.84	35519.97
527.01	35470.82
527.18	35775.09
527.36	35744.66
527.53	35929.56
527.70	36009.14
527.87	36240.86
528.04	35945.95
528.21	35967.01
528.38	35974.03
528.55	36116.81
528.72	36201.07
528.89	36062.97
529.07	36074.68
529.24	36154.26
529.41	36774.50
529.58	36617.68
529.75	36397.67
529.92	36500.65
530.09	36463.21
530.26	36935.99
530.43	37020.25
530.60	36533.42
530.77	36713.64
530.94	36877.48
531.11	36463.21
531.28	37387.72
531.46	36568.53
531.63	36783.86
531.80	37048.34
531.97	37457.93
532.14	37127.92
532.31	37106.85
532.48	37745.82
532.65	37668.58
532.82	37586.66
532.99	37574.96
533.16	37195.79
533.33	37710.71
533.50	37853.48
533.67	37462.61
533.84	37722.41
534.01	38220.95
534.18	37935.40
534.35	37961.15
534.52	38244.35
534.69	38230.31
534.86	38045.41
535.03	38092.22
535.20	38445.64
535.37	38291.16
535.54	38298.19
535.71	38153.07
535.88	38326.27
536.05	38532.24
536.22	39065.88
536.38	38684.37
536.55	38342.66
536.72	38696.08
536.89	38469.04
537.06	38518.20
537.23	39206.31
537.40	38646.93
537.57	38827.15
537.74	38822.47
537.91	39229.72
538.08	38447.98
538.25	38663.31
538.42	38993.32
538.59	39260.15
538.75	38906.73
538.92	39566.76
539.09	39475.48
539.26	39363.13
539.43	39597.18
539.60	39323.34
539.77	39330.36
539.94	39559.73
540.11	39618.25
540.28	39372.49
540.44	39597.18
540.61	39594.84
540.78	39475.48
540.95	39695.49
541.12	39749.32
541.29	39613.57
541.46	39866.34
541.62	39859.32
541.79	40346.15
541.96	39990.39
542.13	40334.45
542.30	39861.66
542.47	40381.26
542.63	40397.65
542.80	40627.02
542.97	40722.98
543.14	40896.18
543.31	40472.54
543.48	40851.71
543.64	40938.31
543.81	40395.31
543.98	40781.49
544.15	40793.20
544.32	40821.28
544.48	41097.47
544.65	40854.05
544.82	41331.52
544.99	41329.18
545.16	41148.96
545.32	40985.12
545.49	41670.90
545.66	41476.63
545.83	41317.48
546.00	41614.72
546.16	41497.70
546.33	40753.41
546.50	41453.23
546.67	41546.85
546.83	41289.39
547.00	41593.66
547.17	41694.30
547.34	41387.69
547.50	41478.97
547.67	42225.60
547.84	41228.54
548.00	41881.55
548.17	42567.32
548.34	41816.01
548.51	42246.67
548.67	42314.55
548.84	42150.71
549.01	42064.11
549.18	42050.06
549.34	41743.45
549.51	42398.80
549.68	42171.77
549.84	42230.29
550.01	42181.13
550.18	41916.65
550.34	42150.71
550.51	42410.51
550.68	42644.56
550.84	42417.53
551.01	42501.79
551.18	42473.70
551.34	42848.19
551.51	42789.67
551.68	42658.60
551.84	42309.86
552.01	42293.48
552.18	42869.25
552.34	42581.37
552.51	42597.75
552.68	42714.78
552.84	43047.13
553.01	42752.23
553.18	42990.96
553.34	43168.84
553.51	42969.90
553.67	43168.84
553.84	43180.54
554.01	43278.85
554.17	43115.01
554.34	42796.70
554.51	43072.88
554.67	43262.46
554.84	43250.76
555.00	43461.41
555.17	43208.63
555.33	43234.38
555.50	43695.46
555.67	43356.08
555.83	43735.25
556.00	44137.82
556.16	44112.08
556.33	43753.97
556.50	43814.83
556.66	43873.34
556.83	43089.26
556.99	43662.69
557.16	44027.82
557.32	43751.63
557.49	44151.87
557.65	43592.48
557.82	43908.45
557.98	44062.93
558.15	43943.56
558.32	44032.50
558.48	43875.68
558.65	44301.66
558.81	44170.59
558.98	43955.26
559.14	43866.32
559.31	44142.50
559.47	43927.17
559.64	44512.31
559.80	44430.39
559.97	44343.79
560.13	44224.42
560.30	44172.93
560.46	44622.31
560.63	44437.41
560.79	44252.51
560.96	44989.78
561.12	44327.41
561.29	44444.43
561.45	44622.31
561.61	44406.98
561.78	44577.84
561.94	44285.28
562.11	44535.71
562.27	44491.24
562.44	44304.00
562.60	44952.33
562.77	44360.17
562.93	44568.48
563.10	44992.12
563.26	44472.52
563.42	45125.53
563.59	44641.04
563.75	44629.34
563.92	45008.50
564.08	44884.45
564.24	44907.86
564.41	44830.62
564.57	45078.72
564.74	44507.63
564.90	44664.44
565.07	44781.47
565.23	44800.19
565.39	44832.96
565.56	44907.86
565.72	44935.95
565.88	45099.78
566.05	45064.67
566.21	44900.84
566.38	45111.49
566.54	45397.03
566.70	45003.82
566.87	45031.91
567.03	45303.41
567.19	45022.54
567.36	44898.50
567.52	45413.41
567.68	45174.68
567.85	44966.37
568.01	45233.19
568.17	44907.86
568.34	45289.37
568.50	45340.86
568.66	44903.18
568.83	45333.84
568.99	45244.90
569.15	45329.16
569.32	45205.11
569.48	45291.71
569.64	45823.01
569.81	45387.67
569.97	45874.50
570.13	45577.25
570.30	45357.24
570.46	45738.75
570.62	45610.02
570.78	45130.21
570.95	45315.11
571.11	45462.57
571.27	45427.46
571.43	44879.77
571.60	45261.28
571.76	45137.23
571.92	45605.34
572.09	45492.99
572.25	45137.23
572.41	45551.51
572.57	45689.60
572.74	45818.33
572.90	45635.77
573.06	46447.93
573.22	45729.39
573.38	45940.04
573.55	45818.33
573.71	45837.05
573.87	45469.59
574.03	45460.23
574.20	45844.07
574.36	46122.60
574.52	46059.40
574.68	45675.55
574.84	45801.94
575.01	45605.34
575.17	46033.66
575.33	45949.40
575.49	45483.63
575.65	46117.92
575.82	45841.73
575.98	45792.58
576.14	46239.62
576.30	46064.08
576.46	45750.45
576.62	45783.22
576.79	45787.90
576.95	45317.45
577.11	45977.48
577.27	45867.48
577.43	45914.29
577.59	45638.11
577.75	45951.74
577.92	45560.87
578.08	45773.86
578.24	45818.33
578.40	46115.58
578.56	46003.23
578.72	46036.00
578.88	45661.51
579.04	45727.05
579.21	46209.20
579.37	45811.31
579.53	46358.99
579.69	45591.30
579.85	45935.35
580.01	46038.34
580.17	45666.19
580.33	45759.81
580.49	45879.18
580.65	45914.29
580.82	45883.86
580.98	45918.97
581.14	45979.82
581.30	46438.57
581.46	45612.36
581.62	45975.14
581.78	45677.90
581.94	46174.09
582.10	45818.33
582.26	46611.77
582.42	46160.05
582.58	46281.75
582.74	45551.51
582.90	46036.00
583.06	46335.59
583.22	45790.24
583.38	46003.23
583.54	46281.75
583.70	45958.76
583.86	45979.82
584.02	45595.98
584.18	46756.88
584.34	45911.95
584.50	45890.88
584.66	46443.25
584.82	45989.19
584.98	46483.04
585.14	46174.09
585.30	46036.00
585.46	46396.44
585.62	45961.10
585.78	46377.72
585.94	45947.06
586.10	46141.32
586.26	46279.41
586.42	46078.13
586.58	46171.75
586.74	45928.33
586.90	46066.42
587.06	46380.06
587.22	46131.96
587.38	46178.77
587.54	46260.69
587.70	46410.48
587.86	46604.75
588.02	46438.57
588.18	46593.04
588.34	46433.89
588.49	45925.99
588.65	46415.16
588.81	46246.65
588.97	46279.41
589.13	46499.42
589.29	45928.33
589.45	46501.76
589.61	46637.51
589.77	46380.06
589.93	46429.21
590.08	46651.56
