SpectraSuite Data File
++++++++++++++++++++++++++++++++++++
Date: Fri Oct 25 11:26:39 EDT 2013
User: price-jones
Dark Spectrum Present: No
Reference Spectrum Present: No
Number of Sampled Component Spectra: 1
Spectrometers: USB2+H05261
Integration Time (usec): 100000 (USB2+H05261)
Spectra Averaged: 1 (USB2+H05261)
Boxcar Smoothing: 0 (USB2+H05261)
Correct for Electrical Dark: No (USB2+H05261)
Strobe/Lamp Enabled: No (USB2+H05261)
Correct for Detector Non-linearity: No (USB2+H05261)
Correct for Stray Light: No (USB2+H05261)
Number of Pixels in Processed Spectrum: 2048
>>>>>Begin Processed Spectral Data<<<<<
365.73	215.33
365.92	215.33
366.12	215.33
366.32	142.77
366.52	67.88
366.72	142.77
366.91	131.07
367.11	133.41
367.31	184.90
367.51	124.05
367.70	117.03
367.90	142.77
368.10	91.28
368.30	112.35
368.49	189.58
368.69	166.18
368.89	180.22
369.09	182.56
369.28	217.67
369.48	140.43
369.68	198.95
369.87	205.97
370.07	128.73
370.27	220.01
370.47	365.12
370.66	606.20
370.86	657.69
371.06	615.56
371.25	648.33
371.45	653.01
371.65	690.46
371.84	622.58
372.04	674.07
372.24	657.69
372.44	690.46
372.63	828.55
372.83	755.99
373.03	814.51
373.22	800.46
373.42	854.30
373.62	791.10
373.81	793.44
374.01	830.89
374.21	875.36
374.40	856.64
374.60	795.78
374.79	844.93
374.99	779.40
375.19	868.34
375.38	826.21
375.58	826.21
375.78	901.11
375.97	870.68
376.17	891.74
376.37	840.25
376.56	887.06
376.76	931.53
376.95	889.40
377.15	957.28
377.35	903.45
377.54	926.85
377.74	950.26
377.93	929.19
378.13	985.37
378.33	1004.09
378.52	896.43
378.72	985.37
378.91	945.58
379.11	950.26
379.31	952.60
379.50	947.92
379.70	1043.88
379.89	1039.20
380.09	1036.86
380.28	1060.26
380.48	1109.41
380.68	961.96
380.87	1015.79
381.07	1018.13
381.26	1013.45
381.46	994.73
381.65	994.73
381.85	1032.18
382.04	1083.67
382.24	1036.86
382.43	1130.48
382.63	1046.22
382.83	1057.92
383.02	1102.39
383.22	1193.67
383.41	1107.07
383.61	1125.80
383.80	1109.41
384.00	1181.97
384.19	1116.44
384.39	1135.16
384.58	1184.31
384.78	1177.29
384.97	1184.31
385.17	1083.67
385.36	1121.12
385.56	1205.38
385.75	1146.86
385.95	1158.57
386.14	1170.27
386.34	1128.14
386.53	1214.74
386.72	1177.29
386.92	1212.40
387.11	1233.46
387.31	1233.46
387.50	1254.53
387.70	1261.55
387.89	1198.35
388.09	1322.40
388.28	1259.21
388.48	1299.00
388.67	1357.51
388.86	1303.68
389.06	1261.55
389.25	1245.16
389.45	1355.17
389.64	1324.74
389.84	1418.36
390.03	1308.36
390.22	1390.28
390.42	1446.45
390.61	1416.02
390.81	1519.01
391.00	1472.20
391.19	1432.41
391.39	1490.92
391.58	1453.47
391.78	1568.16
391.97	1495.60
392.16	1497.94
392.36	1565.82
392.55	1521.35
392.75	1652.42
392.94	1568.16
393.13	1547.09
393.33	1504.96
393.52	1575.18
393.71	1619.65
393.91	1643.06
394.10	1554.12
394.29	1465.18
394.49	1600.93
394.68	1643.06
394.88	1612.63
395.07	1727.32
395.26	1636.03
395.46	1689.87
395.65	1720.29
395.84	1715.61
396.04	1746.04
396.23	1811.57
396.42	1654.76
396.62	1741.36
396.81	1785.83
397.00	1863.07
397.19	1830.30
397.39	1884.13
397.58	1928.60
397.77	1872.43
397.97	1842.00
398.16	1863.07
398.35	1991.80
398.55	1947.33
398.74	1870.09
398.93	1860.73
399.12	1968.39
399.32	1858.39
399.51	2005.84
399.70	2047.97
399.90	2040.95
400.09	2087.76
400.28	2113.50
400.47	2157.97
400.67	2246.91
400.86	2122.87
401.05	2054.99
401.24	2176.70
401.44	2150.95
401.63	2132.23
401.82	2176.70
402.01	2087.76
402.21	2204.78
402.40	2136.91
402.59	2115.84
402.78	2237.55
402.97	2239.89
403.17	2310.11
403.36	2342.88
403.55	2207.13
403.74	2434.16
403.93	2424.80
404.13	2375.64
404.32	2324.15
404.51	2382.67
404.70	2541.82
404.89	2317.13
405.09	2504.37
405.28	2686.94
405.47	2476.29
405.66	2464.58
405.85	2558.21
406.05	2597.99
406.24	2602.68
406.43	2619.06
406.62	2700.98
406.81	2661.19
407.00	2658.85
407.20	2546.50
407.39	2609.70
407.58	2712.68
407.77	2761.83
407.96	2736.09
408.15	2750.13
408.34	2684.59
408.54	2787.58
408.73	2736.09
408.92	2867.16
409.11	2918.65
409.30	2874.18
409.49	2827.37
409.68	2832.05
409.87	2923.33
410.07	2995.89
410.26	3110.57
410.45	3063.76
410.64	3108.23
410.83	3119.93
411.02	2991.20
411.21	3211.22
411.40	3112.91
411.59	3180.79
411.78	3243.98
411.98	3222.92
412.17	3283.77
412.36	3300.16
412.55	3351.65
412.74	3574.00
412.93	3356.33
413.12	3358.67
413.31	3592.72
413.50	3419.52
413.69	3426.54
413.88	3625.49
414.07	3669.96
414.26	3620.81
414.45	3698.05
414.64	3730.81
414.83	3831.46
415.02	3765.92
415.22	3875.93
415.41	3889.97
415.60	3852.52
415.79	3920.40
415.98	4077.21
416.17	4018.70
416.36	3939.12
416.55	3983.59
416.74	4166.15
416.93	4168.49
417.12	4187.22
417.31	4264.46
417.50	4259.78
417.69	4236.37
417.88	4482.13
418.07	4266.80
418.26	4271.48
418.45	4348.72
418.64	4519.57
418.83	4468.08
419.02	4472.76
419.21	4561.70
419.39	4704.48
419.58	4503.19
419.77	4507.87
419.96	4650.64
420.15	4550.00
420.34	4496.17
420.53	4554.68
420.72	4643.62
420.91	4662.35
421.10	4774.69
421.29	4760.65
421.48	4622.56
421.67	4702.14
421.86	4774.69
422.05	4739.58
422.24	4875.34
422.43	4954.91
422.61	4912.78
422.80	4861.29
422.99	4877.68
423.18	4901.08
423.37	5116.41
423.56	4994.70
423.75	4997.04
423.94	4873.00
424.13	4718.52
424.32	4865.97
424.50	5039.17
424.69	5158.54
424.88	5144.50
425.07	4837.89
425.26	4938.53
425.45	4954.91
425.64	5043.85
425.83	4765.33
426.01	5046.20
426.20	5013.43
426.39	5032.15
426.58	5095.35
426.77	5114.07
426.96	5287.27
427.15	5195.99
427.33	5121.09
427.52	5043.85
427.71	5125.77
427.90	5401.96
428.09	5352.81
428.28	5336.42
428.46	5404.30
428.65	5329.40
428.84	5542.39
429.03	5523.66
429.22	5458.13
429.40	5509.62
429.59	5537.71
429.78	5294.29
429.97	5240.46
430.16	5446.43
430.34	5533.03
430.53	5659.42
430.72	5638.35
430.91	5722.61
431.10	5558.77
431.28	5909.85
431.47	5783.46
431.66	6010.50
431.85	5809.21
432.03	5825.59
432.22	6143.91
432.41	5893.47
432.60	5987.09
432.79	5884.11
432.97	6029.22
433.16	6162.63
433.35	5961.34
433.54	6286.68
433.72	6249.23
433.91	6291.36
434.10	6164.97
434.28	6218.80
434.47	6190.72
434.66	6164.97
434.85	6394.34
435.03	6408.39
435.22	6324.13
435.41	6558.18
435.59	6497.33
435.78	6279.66
435.97	6506.69
436.16	6478.60
436.34	6590.95
436.53	6441.15
436.72	6679.89
436.90	6450.52
437.09	6768.83
437.28	6335.83
437.46	6431.79
437.65	6502.01
437.84	6878.83
438.02	6633.08
438.21	6775.85
438.40	6733.72
438.58	6956.07
438.77	7007.56
438.96	6939.69
439.14	7192.47
439.33	7136.29
439.52	7232.26
439.70	7412.48
439.89	7414.82
440.08	7323.54
440.26	7330.56
440.45	7435.88
440.63	7447.58
440.82	7571.63
441.01	7538.87
441.19	7660.57
441.38	7772.92
441.57	7573.97
441.75	7808.03
441.94	7894.63
442.12	8184.85
442.31	7974.21
442.50	8037.40
442.68	7875.90
442.87	7857.18
443.05	8051.44
443.24	8180.17
443.43	8156.77
443.61	8112.30
443.80	8416.57
443.98	8124.00
444.17	7939.10
444.35	8177.83
444.54	8454.02
444.73	8264.43
444.91	8187.19
445.10	8374.44
445.28	8327.63
445.47	8280.82
445.65	8341.67
445.84	8526.57
446.02	8596.79
446.21	8547.64
446.39	8210.60
446.58	8386.14
446.77	8425.93
446.95	8498.49
447.14	8477.42
447.32	8615.51
447.51	8622.53
447.69	8610.83
447.88	8608.49
448.06	8514.87
448.25	8538.27
448.43	8723.18
448.62	8491.46
448.80	8507.85
448.99	8816.80
449.17	8706.79
449.36	8636.58
449.54	9064.89
449.73	9097.66
449.91	8769.99
450.10	8957.23
450.28	9071.92
450.46	9144.47
450.65	9167.88
450.83	9193.62
451.02	9219.37
451.20	9305.97
451.39	9231.07
451.57	9200.65
451.76	9100.00
451.94	8994.68
452.13	9364.48
452.31	9359.80
452.49	9226.39
452.68	9315.33
452.86	9238.09
453.05	9387.89
453.23	9509.60
453.42	9486.19
453.60	9523.64
453.78	9582.15
453.97	9713.22
454.15	9610.24
454.34	9654.71
454.52	9846.63
454.70	9888.76
454.89	10043.24
455.07	9771.74
455.26	9991.75
455.44	9956.64
455.62	10073.67
455.81	9675.77
455.99	10012.81
456.17	10228.14
456.36	10125.16
456.54	10061.96
456.73	10363.89
456.91	10452.83
457.09	10438.79
457.28	10714.97
457.46	10513.69
457.64	10661.14
457.83	10565.18
458.01	10459.85
458.19	10752.42
458.38	10654.12
458.56	10733.70
458.74	10604.97
458.93	10663.48
459.11	10958.39
459.29	10946.69
459.48	10883.49
459.66	10885.83
459.84	11028.60
460.03	10965.41
460.21	10925.62
460.39	10960.73
460.57	10972.43
460.76	11084.78
460.94	11005.20
461.12	11033.29
461.31	11166.70
461.49	11234.57
461.67	11199.46
461.85	11477.99
462.04	11243.93
462.22	11459.26
462.40	11761.19
462.59	11379.68
462.77	11768.21
462.95	11658.21
463.13	11550.54
463.32	11655.87
463.50	11702.68
463.68	11810.34
463.86	11719.06
464.05	11454.58
464.23	11758.85
464.41	11800.98
464.59	11749.49
464.78	12149.72
464.96	12072.48
465.14	12053.76
465.32	12084.19
465.50	12072.48
465.69	12432.93
465.87	12203.55
466.05	12325.26
466.23	12175.47
466.41	12390.80
466.60	12346.33
466.78	12208.23
466.96	12091.21
467.14	12486.76
467.32	12250.36
467.51	12688.04
467.69	12212.92
467.87	12561.66
468.05	12613.15
468.23	12465.69
468.41	12556.97
468.60	12762.94
468.78	12652.94
468.96	12526.55
469.14	13006.36
469.32	12901.03
469.50	12809.75
469.69	12877.63
469.87	13221.69
470.05	13184.24
470.23	13160.83
470.41	13355.10
470.59	13359.78
470.77	13420.63
470.95	13336.37
471.14	13490.85
471.32	13163.17
471.50	13642.98
471.68	13774.05
471.86	13877.04
472.04	13610.22
472.22	14001.08
472.40	13596.17
472.58	14059.60
472.77	13898.10
472.95	14190.67
473.13	14700.90
473.31	14106.41
473.49	13898.10
473.67	14326.42
473.85	14298.33
474.03	14766.44
474.21	14583.88
474.39	14902.19
474.57	15016.88
474.75	14937.30
474.93	15002.83
475.12	14885.81
475.30	15084.75
475.48	15419.45
475.66	15304.76
475.84	15089.43
476.02	15538.82
476.20	15449.88
476.38	15784.57
476.56	16109.91
476.74	16159.06
476.92	15948.41
477.10	16093.52
477.28	16287.79
477.46	16175.44
477.64	16004.58
477.82	16645.89
478.00	17018.04
478.18	16638.87
478.36	16996.97
478.54	16851.86
478.72	17315.28
478.90	17474.44
479.08	17687.43
479.26	17767.01
479.44	17734.24
479.62	18167.24
479.80	18185.96
479.98	18300.65
480.16	18504.28
480.34	18298.31
480.52	18375.55
480.70	18384.91
480.88	18256.18
481.06	19033.24
481.24	19255.59
481.41	19143.24
481.59	19185.37
481.77	19536.45
481.95	19770.51
482.13	19789.23
482.31	19733.06
482.49	20292.44
482.67	20140.31
482.85	20266.70
483.03	20837.79
483.21	20678.63
483.39	21076.52
483.57	20851.83
483.74	21223.98
483.92	21549.31
484.10	21240.36
484.28	21544.63
484.46	22223.39
484.64	22581.49
484.82	21970.61
485.00	22560.42
485.18	22728.94
485.35	23061.30
485.53	22824.90
485.71	23197.05
485.89	23604.30
486.07	23358.55
486.25	23250.88
486.43	23920.28
486.61	23924.96
486.78	24168.37
486.96	24325.19
487.14	24388.38
487.32	24669.25
487.50	25027.35
487.68	24905.64
487.85	25539.93
488.03	25614.82
488.21	26171.87
488.39	25867.60
488.57	26103.99
488.75	26075.91
488.92	26466.78
489.10	26672.74
489.28	26991.06
489.46	27288.31
489.64	27241.50
489.81	27615.98
489.99	27990.47
490.17	28034.94
490.35	28491.34
490.53	28376.66
490.70	28554.54
490.88	28393.04
491.06	28926.68
491.24	29116.26
491.41	28896.25
491.59	28950.09
491.77	29600.76
491.95	29778.64
492.13	29764.59
492.30	30061.84
492.48	30139.08
492.66	29876.94
492.84	30352.07
493.01	30637.61
493.19	30251.42
493.37	30951.24
493.54	31117.42
493.72	31463.82
493.90	31288.28
494.08	31718.94
494.25	31931.93
494.43	32039.59
494.61	32034.91
494.79	33034.32
494.96	32814.31
495.14	32914.95
495.32	33280.08
495.49	33284.76
495.67	33352.63
495.85	33195.82
496.02	33797.34
496.20	34391.83
496.38	33895.64
496.55	34307.57
496.73	34934.84
496.91	35009.73
497.09	34927.81
497.26	34948.88
497.44	34883.34
497.62	35585.50
497.79	36177.66
497.97	35861.69
498.14	35887.43
498.32	36147.23
498.50	36449.16
498.67	36526.40
498.85	36582.57
499.03	36847.05
499.20	36849.39
499.38	37113.87
499.56	37099.83
499.73	37242.60
499.91	37605.39
500.08	37301.12
500.26	37687.31
500.44	38005.62
500.61	38206.90
500.79	37745.82
500.97	38204.56
501.14	38766.29
501.32	38389.47
501.49	38897.36
501.67	38738.21
501.84	39227.38
502.02	39005.03
502.20	39058.86
502.37	38988.64
502.55	39407.60
502.72	39643.99
502.90	39599.52
503.07	39922.52
503.25	39999.76
503.43	39557.39
503.60	40219.77
503.78	40313.39
503.95	40224.45
504.13	40715.96
504.30	40598.93
504.48	40362.54
504.65	40999.16
504.83	40966.40
505.01	41408.76
505.18	41024.91
505.36	41799.63
505.53	41404.08
505.71	41399.40
505.88	41844.10
506.06	41588.98
506.23	41776.22
506.41	41745.80
506.58	42096.88
506.76	42560.30
506.93	42410.51
507.11	42274.76
507.28	42478.38
507.46	42548.60
507.63	42934.79
507.81	43325.66
507.98	42925.42
508.16	43276.51
508.33	43761.00
508.50	43826.53
508.68	43849.94
508.85	43924.83
509.03	43950.58
509.20	43931.86
509.38	44308.68
509.55	44006.75
509.73	44463.16
509.90	44875.09
510.08	44381.24
510.25	45059.99
510.42	44947.65
510.60	45272.98
510.77	45378.31
510.95	45551.51
511.12	45404.05
511.30	45359.58
511.47	45642.79
511.64	45977.48
511.82	45731.73
511.99	46005.57
512.17	46349.63
512.34	46068.76
512.51	46660.92
512.69	46574.32
512.86	46560.28
513.04	46719.43
513.21	46740.50
513.38	46777.95
513.56	46740.50
513.73	46780.29
513.90	47459.04
514.08	46890.29
514.25	47618.20
514.43	47526.92
514.60	47290.52
514.77	47416.91
514.95	47723.52
515.12	47641.60
515.29	47615.86
515.47	47922.47
515.64	48516.96
515.81	48343.77
515.99	47985.66
516.16	48678.46
516.33	48514.62
516.51	48458.45
516.68	48549.73
516.85	48437.39
517.03	48891.45
517.20	48982.73
517.37	48992.09
517.54	49343.17
517.72	49050.61
517.89	49474.24
518.06	49577.23
518.24	49146.57
518.41	49331.47
518.58	49375.94
518.75	49471.90
518.93	49532.76
519.10	49577.23
519.27	50040.65
519.45	49741.06
519.62	50115.55
519.79	49942.35
519.96	50106.19
520.14	50527.48
520.31	50003.20
520.48	50590.68
520.65	50370.67
520.83	50864.52
521.00	50679.62
521.17	50681.96
521.34	50927.72
521.52	50777.92
521.69	50784.94
521.86	51110.28
522.03	50923.04
522.20	51323.27
522.38	51714.14
522.55	51672.01
522.72	51554.98
522.89	51398.16
523.07	51922.44
523.24	51667.33
523.41	51690.73
523.58	51372.42
523.75	51952.87
523.92	51686.05
524.10	52093.30
524.27	51992.66
524.44	52446.72
524.61	52369.49
524.78	52444.38
524.96	52343.74
525.13	52229.05
525.30	52556.73
525.47	52643.33
525.64	52416.30
525.81	52615.24
525.98	52774.40
526.16	52465.45
526.33	52776.74
526.50	53167.61
526.67	52608.22
526.84	52971.00
527.01	52758.02
527.18	53331.45
527.36	52858.66
527.53	53310.38
527.70	53453.15
527.87	53387.62
528.04	53413.37
528.21	53647.42
528.38	53242.51
528.55	53785.51
528.72	53635.72
528.89	53525.71
529.07	53703.59
529.24	53811.26
529.41	53876.79
529.58	53570.18
529.75	53886.15
529.92	53794.87
530.09	53593.59
530.26	54152.97
530.43	53874.45
530.60	53783.17
530.77	53928.28
530.94	54204.47
531.11	54213.83
531.28	54323.83
531.46	54307.45
531.63	54270.00
531.80	54546.18
531.97	54412.77
532.14	54681.94
532.31	54506.40
532.48	54548.53
532.65	54494.69
532.82	54527.46
532.99	54869.18
533.16	54728.75
533.33	54894.92
533.50	54796.62
533.67	54841.09
533.84	54782.58
534.01	55084.51
534.18	55040.04
534.35	55150.04
534.52	55004.93
534.69	55356.01
534.86	55126.64
535.03	54913.65
535.20	55377.08
535.37	55444.95
535.54	55398.14
535.71	55257.71
535.88	55320.90
536.05	55653.26
536.22	55580.70
536.38	55714.11
536.55	55442.61
536.72	55697.73
536.89	55693.05
537.06	55590.06
537.23	56030.08
537.40	55810.07
537.57	55760.92
537.74	55491.76
537.91	56193.92
538.08	56093.28
538.25	55777.31
538.42	55899.01
538.59	56320.31
538.75	55938.80
538.92	56186.90
539.09	56395.21
539.26	56163.50
539.43	56301.59
539.60	56444.36
539.77	56362.44
539.94	56348.40
540.11	56577.77
540.28	56453.72
540.44	56594.15
540.61	56481.81
540.78	56233.71
540.95	56633.94
541.12	56423.29
541.29	56727.56
541.46	56608.20
541.62	56697.14
541.79	56669.05
541.96	56514.58
542.13	56741.61
542.30	56678.41
542.47	57010.77
542.63	57043.54
542.80	56970.98
542.97	57024.81
543.14	57277.59
543.31	57209.71
543.48	57457.81
543.64	57722.29
543.81	57462.49
543.98	57305.68
544.15	57375.89
544.32	57654.42
544.48	57717.61
544.65	57331.42
544.82	57340.78
544.99	57401.64
545.16	57638.03
545.32	57738.68
545.49	57834.64
545.66	57780.81
545.83	57612.29
546.00	57862.72
546.16	57790.17
546.33	57485.90
546.50	57509.30
546.67	57832.30
546.83	57483.56
547.00	57736.34
547.17	57937.62
547.34	57778.46
547.50	58131.89
547.67	58225.51
547.84	57939.96
548.00	58157.63
548.17	58248.91
548.34	58159.97
548.51	58464.24
548.67	58131.89
548.84	58195.08
549.01	58181.04
549.18	58183.38
549.34	58389.34
549.51	58384.66
549.68	58347.21
549.84	58328.49
550.01	58323.81
550.18	58471.26
550.34	58300.40
550.51	58550.84
550.68	58398.71
550.84	58230.19
551.01	58576.59
551.18	58487.65
551.34	58370.62
551.51	58735.74
551.68	58583.61
551.84	58567.23
552.01	58522.76
552.18	58672.55
552.34	58684.25
552.51	58817.66
552.68	58719.36
552.84	58986.18
553.01	59000.22
553.18	58845.75
553.34	58965.12
553.51	59011.93
553.67	58904.26
553.84	58946.39
554.01	59009.59
554.17	59210.87
554.34	59154.70
554.51	58932.35
554.67	59047.04
554.84	59063.42
555.00	59110.23
555.17	59154.70
555.33	59175.76
555.50	58946.39
555.67	58885.54
555.83	59152.36
556.00	59217.89
556.16	59566.63
556.33	59311.52
556.50	59306.83
556.66	59444.93
556.83	59269.39
556.99	59557.27
557.16	59615.79
557.32	59662.60
557.49	59903.67
557.65	59370.03
557.82	59379.39
557.98	59482.37
558.15	59545.57
558.32	59786.64
558.48	59430.88
558.65	59599.40
558.81	59718.77
558.98	59611.10
559.14	59491.74
559.31	59845.16
559.47	59695.36
559.64	59735.15
559.80	59831.11
559.97	59943.46
560.13	59643.87
560.30	59908.35
560.46	59882.61
560.63	59812.39
560.79	59756.22
560.96	59931.76
561.12	59887.29
561.29	59810.05
561.45	60109.64
561.61	59910.69
561.78	59908.35
561.94	59966.87
562.11	59824.09
562.27	59964.52
562.44	60107.30
562.60	60287.52
562.77	60013.68
562.93	60011.34
563.10	60100.28
563.26	59966.87
563.42	60243.05
563.59	59983.25
563.75	60006.65
563.92	60119.00
564.08	59964.52
564.24	60268.79
564.41	60233.69
564.57	60273.48
564.74	60158.79
564.90	60229.01
565.07	60149.43
565.23	60182.19
565.39	60184.54
565.56	60296.88
565.72	60224.32
565.88	60217.30
566.05	60224.32
566.21	60226.66
566.38	60402.21
566.54	60481.78
566.70	60395.18
566.87	60406.89
567.03	60294.54
567.19	60425.61
567.36	60423.27
567.52	60404.55
567.68	60601.15
567.85	60458.38
568.01	60477.10
568.17	60404.55
568.34	60514.55
568.50	60406.89
568.66	60437.31
568.83	60629.24
568.99	60313.26
569.15	60486.46
569.32	60296.88
569.48	60495.83
569.64	60687.75
569.81	60456.04
569.97	60273.48
570.13	60514.55
570.30	60477.10
570.46	60526.25
570.62	60659.66
570.78	60591.79
570.95	60425.61
571.11	60718.18
571.27	60561.36
571.43	60430.29
571.60	60622.22
571.76	60594.13
571.92	60790.73
572.09	60657.32
572.25	60802.44
572.41	60512.21
572.57	60734.56
572.74	60814.14
572.90	60706.47
573.06	60722.86
573.22	60694.77
573.38	60704.13
573.55	60598.81
573.71	60736.90
573.87	60837.54
574.03	60828.18
574.20	60470.08
574.36	60626.90
574.52	60818.82
574.68	60966.27
574.84	60837.54
575.01	60825.84
575.17	60973.30
575.33	60732.22
575.49	60821.16
575.65	60851.59
575.82	60828.18
575.98	60860.95
576.14	60903.08
576.30	60865.63
576.46	60750.94
576.62	60795.42
576.79	60636.26
576.95	60622.22
577.11	60666.69
577.27	61057.56
577.43	60963.93
577.59	60835.20
577.75	60849.25
577.92	60650.30
578.08	61006.06
578.24	60945.21
578.40	60977.98
578.56	61190.97
578.72	60917.12
578.88	61003.72
579.04	61034.15
579.21	61071.60
579.37	61099.68
579.53	60917.12
579.69	60863.29
579.85	60669.03
580.01	60926.49
580.17	60690.09
580.33	61064.58
580.49	60886.70
580.65	61003.72
580.82	60832.86
580.98	60853.93
581.14	60774.35
581.30	61022.45
581.46	61104.37
581.62	60970.96
581.78	60851.59
581.94	61034.15
582.10	61034.15
582.26	60872.65
582.42	60903.08
582.58	60963.93
582.74	60975.64
582.90	60762.65
583.06	61085.64
583.22	60842.23
583.38	60994.36
583.54	61031.81
583.70	61120.75
583.86	61057.56
584.02	60992.02
584.18	61158.20
584.34	60860.95
584.50	61073.94
584.66	60963.93
584.82	60821.16
584.98	61291.61
585.14	61179.26
585.30	60907.76
585.46	61375.87
585.62	61022.45
585.78	61137.13
585.94	60884.36
586.10	60982.66
586.26	61256.50
586.42	61038.83
586.58	61008.40
586.74	61240.12
586.90	61034.15
587.06	60975.64
587.22	61254.16
587.38	61111.39
587.54	61333.74
587.70	61293.95
587.86	61123.09
588.02	61228.41
588.18	61364.17
588.34	61230.75
