SpectraSuite Data File
++++++++++++++++++++++++++++++++++++
Date: Fri Oct 25 11:33:11 EDT 2013
User: price-jones
Dark Spectrum Present: No
Reference Spectrum Present: No
Number of Sampled Component Spectra: 1
Spectrometers: USB2+H05261
Integration Time (usec): 100000 (USB2+H05261)
Spectra Averaged: 1 (USB2+H05261)
Boxcar Smoothing: 0 (USB2+H05261)
Correct for Electrical Dark: No (USB2+H05261)
Strobe/Lamp Enabled: No (USB2+H05261)
Correct for Detector Non-linearity: No (USB2+H05261)
Correct for Stray Light: No (USB2+H05261)
Number of Pixels in Processed Spectrum: 2048
>>>>>Begin Processed Spectral Data<<<<<
365.73	271.50
365.92	271.50
366.12	271.50
366.32	212.99
366.52	238.73
366.72	217.67
366.91	128.73
367.11	177.88
367.31	173.20
367.51	227.03
367.70	177.88
367.90	152.13
368.10	220.01
368.30	222.35
368.49	210.65
368.69	154.48
368.89	266.82
369.09	182.56
369.28	201.29
369.48	224.69
369.68	224.69
369.87	271.50
370.07	196.60
370.27	273.84
370.47	358.10
370.66	489.17
370.86	510.24
371.06	587.47
371.25	514.92
371.45	554.71
371.65	575.77
371.84	521.94
372.04	575.77
372.24	608.54
372.44	629.60
372.63	674.07
372.83	667.05
373.03	631.94
373.22	580.45
373.42	514.92
373.62	521.94
373.81	636.63
374.01	683.44
374.21	704.50
374.40	676.41
374.60	692.80
374.79	685.78
374.99	578.11
375.19	746.63
375.38	615.56
375.58	713.86
375.78	648.33
375.97	674.07
376.17	718.54
376.37	662.37
376.56	624.92
376.76	620.24
376.95	720.88
377.15	711.52
377.35	667.05
377.54	643.65
377.74	615.56
377.93	748.97
378.13	713.86
378.33	653.01
378.52	683.44
378.72	770.04
378.91	704.50
379.11	634.29
379.31	636.63
379.50	741.95
379.70	777.06
379.89	662.37
380.09	704.50
380.28	725.57
380.48	674.07
380.68	751.31
380.87	737.27
381.07	692.80
381.26	760.67
381.46	711.52
381.65	828.55
381.85	788.76
382.04	786.42
382.24	753.65
382.43	720.88
382.63	770.04
382.83	828.55
383.02	837.91
383.22	751.31
383.41	809.83
383.61	781.74
383.80	901.11
384.00	786.42
384.19	781.74
384.39	814.51
384.58	741.95
384.78	819.19
384.97	912.81
385.17	828.55
385.36	706.84
385.56	753.65
385.75	847.27
385.95	758.33
386.14	858.98
386.34	891.74
386.53	854.30
386.72	851.96
386.92	952.60
387.11	884.72
387.31	823.87
387.50	950.26
387.70	952.60
387.89	950.26
388.09	854.30
388.28	933.87
388.48	922.17
388.67	919.83
388.86	940.90
389.06	868.34
389.25	931.53
389.45	966.64
389.64	952.60
389.84	1032.18
390.03	959.62
390.22	985.37
390.42	931.53
390.61	968.98
390.81	976.00
391.00	1029.84
391.19	1041.54
391.39	968.98
391.58	1039.20
391.78	1004.09
391.97	1022.81
392.16	994.73
392.36	1041.54
392.55	1015.79
392.75	1071.97
392.94	1069.62
393.13	1088.35
393.33	1109.41
393.52	1050.90
393.71	1015.79
393.91	1139.84
394.10	1086.01
394.29	973.66
394.49	1107.07
394.68	1181.97
394.88	1210.06
395.07	1184.31
395.26	1149.20
395.46	1104.73
395.65	1193.67
395.84	1172.61
396.04	1226.44
396.23	1188.99
396.42	1137.50
396.62	1273.25
396.81	1291.98
397.00	1221.76
397.19	1282.61
397.39	1193.67
397.58	1238.14
397.77	1217.08
397.97	1240.48
398.16	1268.57
398.35	1376.24
398.55	1177.29
398.74	1345.81
398.93	1362.19
399.12	1341.13
399.32	1303.68
399.51	1263.89
399.70	1336.45
399.90	1366.87
400.09	1320.06
400.28	1411.34
400.47	1383.26
400.67	1469.86
400.86	1432.41
401.05	1343.47
401.24	1514.33
401.44	1434.75
401.63	1460.49
401.82	1465.18
402.01	1465.18
402.21	1432.41
402.40	1530.71
402.59	1502.62
402.78	1376.24
402.97	1575.18
403.17	1633.69
403.36	1570.50
403.55	1544.75
403.74	1556.46
403.93	1511.99
404.13	1540.07
404.32	1699.23
404.51	1619.65
404.70	1643.06
404.89	1605.61
405.09	1694.55
405.28	1659.44
405.47	1769.44
405.66	1659.44
405.85	1710.93
406.05	1680.50
406.24	1701.57
406.43	1809.23
406.62	1830.30
406.81	1853.70
407.00	1823.28
407.20	1839.66
407.39	1762.42
407.58	1837.32
407.77	1870.09
407.96	1914.56
408.15	1954.35
408.34	1891.15
408.54	1877.11
408.73	1900.52
408.92	1994.14
409.11	1949.67
409.30	1961.37
409.49	2045.63
409.68	2015.20
409.87	2125.21
410.07	1970.73
410.26	2050.31
410.45	2183.72
410.64	2071.37
410.83	2094.78
411.02	2162.66
411.21	2127.55
411.40	2237.55
411.59	2232.87
411.78	2272.66
411.98	2228.19
412.17	2239.89
412.36	2333.51
412.55	2333.51
412.74	2396.71
412.93	2399.05
413.12	2300.75
413.31	2511.39
413.50	2464.58
413.69	2438.84
413.88	2429.48
414.07	2497.35
414.26	2572.25
414.45	2581.61
414.64	2572.25
414.83	2630.76
415.02	2553.52
415.22	2574.59
415.41	2572.25
415.60	2607.36
415.79	2597.99
415.98	2747.79
416.17	2747.79
416.36	2729.06
416.55	2750.13
416.74	2803.96
416.93	2909.29
417.12	2848.43
417.31	2864.82
417.50	2942.05
417.69	2979.50
417.88	2958.44
418.07	2951.42
418.26	3096.53
418.45	3028.65
418.64	3077.80
418.83	3021.63
419.02	3061.42
419.21	3103.55
419.39	3169.09
419.58	3258.03
419.77	3094.19
419.96	3267.39
420.15	3138.66
420.34	3274.41
420.53	3190.15
420.72	3241.64
420.91	3377.39
421.10	3330.58
421.29	3243.98
421.48	3136.32
421.67	3365.69
421.86	3178.45
422.05	3421.86
422.24	3375.05
422.43	3349.31
422.61	3513.14
422.80	3466.33
422.99	3398.46
423.18	3454.63
423.37	3442.93
423.56	3475.70
423.75	3478.04
423.94	3363.35
424.13	3213.56
424.32	3356.33
424.50	3625.49
424.69	3482.72
424.88	3438.25
425.07	3473.36
425.26	3475.70
425.45	3473.36
425.64	3517.83
425.83	3447.61
426.01	3520.17
426.20	3489.74
426.39	3581.02
426.58	3562.30
426.77	3578.68
426.96	3660.60
427.15	3669.96
427.33	3534.21
427.52	3712.09
427.71	3758.90
427.90	3712.09
428.09	3688.68
428.28	3684.00
428.46	3733.15
428.65	3681.66
428.84	3854.86
429.03	3714.43
429.22	3786.99
429.40	3798.69
429.59	3889.97
429.78	3667.62
429.97	3698.05
430.16	3679.32
430.34	3749.54
430.53	3915.72
430.72	3887.63
430.91	3896.99
431.10	3934.44
431.28	3915.72
431.47	3887.63
431.66	3971.89
431.85	4016.36
432.03	4056.15
432.22	4046.79
432.41	4173.18
432.60	4023.38
432.79	4121.68
432.97	4196.58
433.16	4011.68
433.35	4222.33
433.54	4121.68
433.72	4175.52
433.91	4208.28
434.10	4119.34
434.28	4266.80
434.47	4170.83
434.66	4259.78
434.85	4322.97
435.03	4383.82
435.22	4456.38
435.41	4514.89
435.59	4360.42
435.78	4449.36
435.97	4479.79
436.16	4484.47
436.34	4498.51
436.53	4479.79
436.72	4561.70
436.90	4582.77
437.09	4645.96
437.28	4409.57
437.46	4491.49
437.65	4456.38
437.84	4685.75
438.02	4685.75
438.21	4678.73
438.40	4592.13
438.58	4840.23
438.77	4840.23
438.96	4926.83
439.14	4999.38
439.33	4865.97
439.52	4926.83
439.70	5041.51
439.89	4980.66
440.08	5107.05
440.26	5046.20
440.45	5090.67
440.63	5128.11
440.82	5226.42
441.01	5130.45
441.19	5186.63
441.38	5268.55
441.57	5366.85
441.75	5338.76
441.94	5458.13
442.12	5418.34
442.31	5455.79
442.50	5345.78
442.68	5462.81
442.87	5535.37
443.05	5418.34
443.24	5605.58
443.43	5619.63
443.61	5561.11
443.80	5874.74
443.98	5617.29
444.17	5406.64
444.35	5575.16
444.54	5741.33
444.73	5774.10
444.91	5654.73
445.10	5764.74
445.28	5647.71
445.47	5668.78
445.65	5701.54
445.84	5844.32
446.02	5792.83
446.21	5675.80
446.39	5586.86
446.58	5724.95
446.77	5818.57
446.95	5664.10
447.14	5923.90
447.32	5727.29
447.51	5750.70
447.69	5750.70
447.88	5767.08
448.06	5863.04
448.25	6005.81
448.43	5994.11
448.62	5818.57
448.80	5921.56
448.99	5806.87
449.17	6139.23
449.36	5935.60
449.54	6029.22
449.73	5989.43
449.91	6092.41
450.10	5996.45
450.28	6274.98
450.46	6150.93
450.65	6359.24
450.83	6207.10
451.02	6038.58
451.20	6277.32
451.39	6209.44
451.57	6083.05
451.76	6258.59
451.94	6394.34
452.13	6403.71
452.31	6160.29
452.49	6244.55
452.68	6406.05
452.86	6356.90
453.05	6576.91
453.23	6487.96
453.42	6436.47
453.60	6438.81
453.78	6614.35
453.97	6174.33
454.15	6490.31
454.34	6347.53
454.52	6616.69
454.70	6633.08
454.89	6684.57
455.07	6640.10
455.26	6731.38
455.44	6892.88
455.62	6778.19
455.81	6633.08
455.99	6825.00
456.17	6932.67
456.36	6946.71
456.54	6991.18
456.73	6944.37
456.91	7129.27
457.09	7115.23
457.28	7115.23
457.46	7014.59
457.64	7148.00
457.83	7155.02
458.01	7138.63
458.19	7339.92
458.38	7281.41
458.56	7243.96
458.74	7304.81
458.93	7339.92
459.11	7363.33
459.29	7269.70
459.48	7452.27
459.66	7288.43
459.84	7447.58
460.03	7428.86
460.21	7353.96
460.39	7379.71
460.57	7489.71
460.76	7468.65
460.94	7616.10
461.12	7613.76
461.31	7494.40
461.49	7571.63
461.67	7571.63
461.85	7648.87
462.04	7566.95
462.22	8248.05
462.40	7838.45
462.59	7707.38
462.77	7707.38
462.95	7843.14
463.13	7772.92
463.32	7805.69
463.50	7995.27
463.68	7920.37
463.86	8116.98
464.05	7985.91
464.23	8039.74
464.41	8126.34
464.59	7779.94
464.78	8175.49
464.96	7880.58
465.14	7906.33
465.32	8187.19
465.50	8170.81
465.69	8182.51
465.87	8159.11
466.05	8250.39
466.23	8131.02
466.41	8262.09
466.60	8606.15
466.78	8311.24
466.96	8351.03
467.14	8376.78
467.32	8259.75
467.51	8454.02
467.69	8201.24
467.87	8353.37
468.05	8648.28
468.23	8451.67
468.41	8451.67
468.60	8667.00
468.78	8713.81
468.96	8596.79
469.14	8603.81
469.32	8840.20
469.50	8608.49
469.69	8692.75
469.87	8830.84
470.05	8643.60
470.23	8784.03
470.41	8767.65
470.59	8858.93
470.77	8894.04
470.95	8919.78
471.14	8961.91
471.32	8863.61
471.50	9123.41
471.68	9172.56
471.86	9081.28
472.04	9142.13
472.22	9448.74
472.40	9252.14
472.58	9235.75
472.77	9638.33
472.95	9652.37
473.13	9666.41
473.31	9654.71
473.49	9451.08
473.67	9537.68
473.85	9521.30
474.03	9769.40
474.21	9937.91
474.39	9874.72
474.57	9954.30
474.75	10015.15
474.93	9879.40
475.12	10047.92
475.30	10085.37
475.48	9961.32
475.66	10176.65
475.84	10064.30
476.02	10345.17
476.20	10225.80
476.38	10427.09
476.56	10626.03
476.74	10597.95
476.92	10602.63
477.10	10656.46
477.28	10920.94
477.46	10588.58
477.64	10874.13
477.82	10972.43
478.00	11332.87
478.18	11157.33
478.36	11339.90
478.54	11339.90
478.72	11449.90
478.90	11679.27
479.08	11796.30
479.26	11620.76
479.44	11695.66
479.62	11735.45
479.80	12116.95
479.98	12236.32
480.16	12376.75
480.34	12159.08
480.52	12287.81
480.70	12397.82
480.88	12285.47
481.06	12365.05
481.24	12468.03
481.41	12901.03
481.59	12798.05
481.77	12985.29
481.95	13202.96
482.13	13170.19
482.31	13151.47
482.49	13523.62
482.67	13621.92
482.85	13448.72
483.03	13614.90
483.21	13820.86
483.39	14005.77
483.57	14115.77
483.74	13991.72
483.92	14064.28
484.10	14113.43
484.28	14537.07
484.46	14609.62
484.64	14932.62
484.82	14590.90
485.00	14871.76
485.18	15033.26
485.35	15344.55
485.53	15389.02
485.71	15279.02
485.89	15665.21
486.07	15517.75
486.25	15421.79
486.43	15946.07
486.61	15758.83
486.78	16091.18
486.96	16219.91
487.14	16128.63
487.32	16456.31
487.50	16484.39
487.68	16538.23
487.85	16856.54
488.03	17121.02
488.21	17097.61
488.39	17231.02
488.57	17202.94
488.75	17326.99
488.92	17528.27
489.10	17809.14
489.28	17823.18
489.46	17980.00
489.64	17837.22
489.81	18354.48
489.99	18090.00
490.17	18302.99
490.35	18567.47
490.53	18508.96
490.70	19070.68
490.88	18888.12
491.06	19080.05
491.24	19133.88
491.41	19346.87
491.59	19550.49
491.77	19417.08
491.95	19625.39
492.13	19894.55
492.30	19672.20
492.48	19967.11
492.66	19990.52
492.84	20238.61
493.01	20339.26
493.19	20432.88
493.37	20229.25
493.54	20676.29
493.72	21137.38
493.90	20856.51
494.08	21160.78
494.25	21458.03
494.43	21043.76
494.61	21153.76
494.79	21830.18
494.96	21385.47
495.14	21851.24
495.32	21919.12
495.49	21743.58
495.67	21986.99
495.85	22412.97
496.02	22448.08
496.20	22473.82
496.38	22462.12
496.55	22661.07
496.73	23152.58
496.91	22974.70
497.09	23164.28
497.26	23180.67
497.44	23190.03
497.62	23403.02
497.79	23807.93
497.97	23339.82
498.14	23817.29
498.32	24102.84
498.50	24086.45
498.67	24425.83
498.85	24109.86
499.03	24074.75
499.20	24402.43
499.38	24542.86
499.56	24582.65
499.73	24896.28
499.91	25123.31
500.08	24989.90
500.26	24926.71
500.44	24900.96
500.61	25015.65
500.79	25172.46
500.97	25514.18
501.14	25706.10
501.32	25584.40
501.49	25390.13
501.67	25766.96
501.84	25722.49
502.02	25720.15
502.20	25876.96
502.37	26036.12
502.55	26209.32
502.72	26015.05
502.90	26223.36
503.07	25982.29
503.25	26733.60
503.43	26321.66
503.60	26492.52
503.78	26824.88
503.95	26834.24
504.13	26883.39
504.30	27005.10
504.48	26925.52
504.65	27077.66
504.83	27285.97
505.01	27449.80
505.18	27728.33
505.36	27796.20
505.53	27393.63
505.71	27491.93
505.88	27751.73
506.06	27718.96
506.23	28088.77
506.41	27789.18
506.58	28091.11
506.76	27955.36
506.93	28514.75
507.11	28332.18
507.28	28606.03
507.46	28369.63
507.63	28879.87
507.81	28912.64
507.98	28795.61
508.16	28868.17
508.33	29076.48
508.50	29167.76
508.68	29207.55
508.85	29455.64
509.03	29319.89
509.20	29411.17
509.38	29736.51
509.55	29923.75
509.73	29998.65
509.90	29820.77
510.08	29914.39
510.25	30045.46
510.42	29998.65
510.60	29795.02
510.77	30319.30
510.95	30735.92
511.12	30328.66
511.30	30314.62
511.47	30742.94
511.64	29993.97
511.82	30749.96
511.99	30733.57
512.17	30869.33
512.34	30764.00
512.51	30824.86
512.69	31379.56
512.86	31082.31
513.04	31552.76
513.21	31330.41
513.38	31452.12
513.56	31693.19
513.73	31363.18
513.90	31604.25
514.08	31566.81
514.25	31850.01
514.43	31969.38
514.60	31936.61
514.77	32044.27
514.95	32275.99
515.12	32357.91
515.29	32011.51
515.47	32423.44
515.64	32669.20
515.81	32409.40
515.99	32374.29
516.16	32329.82
516.33	32645.79
516.51	33116.24
516.68	32362.59
516.85	32313.44
517.03	33022.62
517.20	33247.31
517.37	33378.38
517.54	32985.17
517.72	33050.70
517.89	33319.87
518.06	33390.08
518.24	33223.90
518.41	33378.38
518.58	33230.93
518.75	33228.59
518.93	33872.23
519.10	33778.61
519.27	33600.73
519.45	33991.60
519.62	34223.31
519.79	34136.71
519.96	34239.70
520.14	34288.85
520.31	33757.55
520.48	34155.44
520.65	34518.22
520.83	34476.09
521.00	34773.34
521.17	34541.63
521.34	34593.12
521.52	35016.75
521.69	35007.39
521.86	35227.40
522.03	35276.55
522.20	35143.14
522.38	35445.07
522.55	35246.13
522.72	35536.35
522.89	35285.92
523.07	35721.26
523.24	35644.02
523.41	35697.85
523.58	35461.46
523.75	35974.03
523.92	35196.98
524.10	35723.60
524.27	36004.46
524.44	36079.36
524.61	36322.77
524.78	36409.37
524.96	36245.54
525.13	36418.74
525.30	36552.15
525.47	36727.69
525.64	36613.00
525.81	36414.05
525.98	36961.74
526.16	36753.43
526.33	36589.59
526.50	37104.51
526.67	36971.10
526.84	36893.86
527.01	37076.43
527.18	37474.32
527.36	37530.49
527.53	37200.47
527.70	37350.27
527.87	37474.32
528.04	37064.72
528.21	37408.78
528.38	37366.65
528.55	37727.10
528.72	37404.10
528.89	37942.42
529.07	37607.73
529.24	37720.07
529.41	38192.86
529.58	38036.05
529.75	37743.48
529.92	37649.86
530.09	38143.71
530.26	37886.25
530.43	38345.00
530.60	37841.78
530.77	38251.38
530.94	38520.54
531.11	38576.71
531.28	38323.93
531.46	37982.21
531.63	38396.49
531.80	38330.95
531.97	38817.78
532.14	39030.77
532.31	38689.06
532.48	38983.96
532.65	38976.94
532.82	38667.99
532.99	39040.14
533.16	38792.04
533.33	39199.29
533.50	39346.75
533.67	39515.26
533.84	39098.65
534.01	39311.64
534.18	38995.67
534.35	39732.93
534.52	39824.22
534.69	39377.17
534.86	39908.47
535.03	39718.89
535.20	40158.91
535.37	39920.18
535.54	40435.10
535.71	40517.01
535.88	40458.50
536.05	40044.23
536.22	40329.77
536.38	40135.51
536.55	39620.59
536.72	40116.78
536.89	39922.52
537.06	40299.34
537.23	40395.31
537.40	40493.61
537.57	40320.41
537.74	40280.62
537.91	40924.27
538.08	40680.85
538.25	40329.77
538.42	40882.14
538.59	40804.90
538.75	40409.35
538.92	40725.32
539.09	41088.10
539.26	40982.78
539.43	40737.02
539.60	41022.57
539.77	41366.63
539.94	41368.97
540.11	40999.16
540.28	41001.50
540.44	40928.95
540.61	41111.51
540.78	41088.10
540.95	41109.17
541.12	41282.37
541.29	41074.06
541.46	41076.40
541.62	41280.03
541.79	41518.76
541.96	41350.24
542.13	41759.84
542.30	41794.95
542.47	41628.77
542.63	41214.49
542.80	41776.22
542.97	42391.78
543.14	42506.47
543.31	41916.65
543.48	42012.62
543.64	42658.60
543.81	42653.92
543.98	42316.89
544.15	42693.71
544.32	42642.22
544.48	43117.35
544.65	42335.61
544.82	42951.17
544.99	42705.41
545.16	42373.06
545.32	43051.81
545.49	43236.72
545.66	43255.44
545.83	42887.98
546.00	43229.69
546.16	42909.04
546.33	43225.01
546.50	42780.31
546.67	43070.54
546.83	43042.45
547.00	43243.74
547.17	43079.90
547.34	42780.31
547.50	43320.98
547.67	43225.01
547.84	43384.17
548.00	43625.25
548.17	43751.63
548.34	43267.14
548.51	43672.06
548.67	43875.68
548.84	43826.53
549.01	43550.35
549.18	43821.85
549.34	43627.59
549.51	44421.03
549.68	44098.03
549.84	43957.60
550.01	44121.44
550.18	43695.46
550.34	43768.02
550.51	44158.89
550.68	44591.89
550.84	43840.57
551.01	43948.24
551.18	43969.30
551.34	44329.75
551.51	44327.41
551.68	44119.10
551.84	44292.30
552.01	44212.72
552.18	44219.74
552.34	44243.15
552.51	44694.87
552.68	44046.54
552.84	44509.97
553.01	44678.49
553.18	44519.33
553.34	44416.35
553.51	44472.52
553.67	44917.22
553.84	44760.40
554.01	44861.05
554.17	44961.69
554.34	45310.43
554.51	44985.10
554.67	45469.59
554.84	45324.47
555.00	45024.89
555.17	44858.71
555.33	44945.31
555.50	44942.97
555.67	45340.86
555.83	45102.12
556.00	44985.10
556.16	45591.30
556.33	45413.41
556.50	45460.23
556.66	45310.43
556.83	44994.46
556.99	45682.58
557.16	45270.64
557.32	45584.27
557.49	45977.48
557.65	45481.29
557.82	45364.26
557.98	45881.52
558.15	45771.52
558.32	45603.00
558.48	45539.80
558.65	46064.08
558.81	46052.38
558.98	45682.58
559.14	45130.21
559.31	45684.92
559.47	45462.57
559.64	45694.28
559.80	45724.71
559.97	45619.38
560.13	45715.34
560.30	45720.02
560.46	46513.47
560.63	45773.86
560.79	46689.01
560.96	46419.84
561.12	46181.11
561.29	46054.72
561.45	46071.10
561.61	46337.93
561.78	45975.14
561.94	46127.28
562.11	45923.65
562.27	45965.78
562.44	46054.72
562.60	46356.65
562.77	46473.68
562.93	46267.71
563.10	46298.14
563.26	46248.99
563.42	46738.16
563.59	46375.37
563.75	45937.69
563.92	46476.02
564.08	46391.76
564.24	46227.92
564.41	46527.51
564.57	46593.04
564.74	46768.58
564.90	46178.77
565.07	46447.93
565.23	46653.90
565.39	46614.11
565.56	46394.10
565.72	46394.10
565.88	46684.33
566.05	46630.49
566.21	46726.46
566.38	46649.22
566.54	46810.71
566.70	47056.47
566.87	46930.08
567.03	46674.96
567.19	46600.07
567.36	46653.90
567.52	46717.09
567.68	47037.75
567.85	46944.12
568.01	46852.84
568.17	46581.34
568.34	46859.87
568.50	47213.29
568.66	46625.81
568.83	47452.02
568.99	46972.21
569.15	46679.64
569.32	46501.76
569.48	46883.27
569.64	47388.83
569.81	47117.32
569.97	47016.68
570.13	47037.75
570.30	46665.60
570.46	47082.22
570.62	47035.41
570.78	47189.88
570.95	47126.69
571.11	47550.32
571.27	47370.10
571.43	47370.10
571.60	46824.76
571.76	46946.47
571.92	47210.95
572.09	46981.57
572.25	47014.34
572.41	46869.23
572.57	47089.24
572.74	47625.22
572.90	47208.61
573.06	47276.48
573.22	47206.26
573.38	47292.86
573.55	47875.66
573.71	47435.64
573.87	47395.85
574.03	47665.01
574.20	47508.19
574.36	47484.79
574.52	47777.36
574.68	47234.35
574.84	47295.21
575.01	47608.84
575.17	47702.46
575.33	47632.24
575.49	47250.74
575.65	47648.63
575.82	47489.47
575.98	47393.51
576.14	47283.50
576.30	47449.68
576.46	47777.36
576.62	47461.38
576.79	47629.90
576.95	47189.88
577.11	47250.74
577.27	47473.09
577.43	47583.09
577.59	47437.98
577.75	47363.08
577.92	47442.66
578.08	47833.53
578.24	46972.21
578.40	47344.36
578.56	47650.97
578.72	47449.68
578.88	47896.72
579.04	48067.58
579.21	48023.11
579.37	47690.76
579.53	47468.40
579.69	47849.91
579.85	47592.45
580.01	47454.36
580.17	47597.13
580.33	47634.58
580.49	47789.06
580.65	47686.07
580.82	47234.35
580.98	47913.11
581.14	47309.25
581.30	48072.26
581.46	47536.28
581.62	47679.05
581.78	47379.46
581.94	47538.62
582.10	47388.83
582.26	47917.79
582.42	47459.04
582.58	47917.79
582.74	47760.97
582.90	47704.80
583.06	48030.13
583.22	47723.52
583.38	47606.50
583.54	47697.78
583.70	47863.96
583.86	47770.33
584.02	47327.97
584.18	47988.00
584.34	47922.47
584.50	47978.64
584.66	47917.79
584.82	48140.14
584.98	48385.89
585.14	47873.32
585.30	47899.06
585.46	47840.55
585.62	47739.91
585.78	47676.71
585.94	47349.04
586.10	47437.98
586.26	47576.07
586.42	47700.12
586.58	47683.73
586.74	47758.63
586.90	47892.04
587.06	47812.46
587.22	48303.98
587.38	47632.24
587.54	48112.05
587.70	47950.56
587.86	48137.80
588.02	47686.07
588.18	47765.65
588.34	47585.43
588.49	48114.39
588.65	48046.52
588.81	48287.59
588.97	47709.48
589.13	48055.88
589.29	47913.11
589.45	48252.48
589.61	47835.87
589.77	48032.47
589.93	47941.19
