SpectraSuite Data File
++++++++++++++++++++++++++++++++++++
Date: Fri Oct 25 11:23:34 EDT 2013
User: price-jones
Dark Spectrum Present: No
Reference Spectrum Present: No
Number of Sampled Component Spectra: 1
Spectrometers: USB2+H05261
Integration Time (usec): 100000 (USB2+H05261)
Spectra Averaged: 1 (USB2+H05261)
Boxcar Smoothing: 0 (USB2+H05261)
Correct for Electrical Dark: No (USB2+H05261)
Strobe/Lamp Enabled: No (USB2+H05261)
Correct for Detector Non-linearity: No (USB2+H05261)
Correct for Stray Light: No (USB2+H05261)
Number of Pixels in Processed Spectrum: 2048
>>>>>Begin Processed Spectral Data<<<<<
365.73	250.44
365.92	250.44
366.12	250.44
366.32	149.79
366.52	154.48
366.72	133.41
366.91	105.32
367.11	166.18
367.31	112.35
367.51	133.41
367.70	74.90
367.90	147.45
368.10	140.43
368.30	133.41
368.49	128.73
368.69	133.41
368.89	60.85
369.09	84.26
369.28	168.52
369.48	88.94
369.68	145.11
369.87	133.41
370.07	166.18
370.27	236.39
370.47	304.27
370.66	557.05
370.86	585.13
371.06	606.20
371.25	634.29
371.45	624.92
371.65	709.18
371.84	648.33
372.04	709.18
372.24	671.73
372.44	622.58
372.63	720.88
372.83	795.78
373.03	711.52
373.22	763.01
373.42	755.99
373.62	746.63
373.81	814.51
374.01	894.08
374.21	809.83
374.40	791.10
374.60	823.87
374.79	788.76
374.99	755.99
375.19	833.23
375.38	891.74
375.58	807.48
375.78	807.48
375.97	910.47
376.17	830.89
376.37	795.78
376.56	835.57
376.76	777.06
376.95	821.53
377.15	910.47
377.35	908.13
377.54	903.45
377.74	858.98
377.93	919.83
378.13	866.00
378.33	877.70
378.52	877.70
378.72	873.02
378.91	933.87
379.11	926.85
379.31	891.74
379.50	933.87
379.70	983.02
379.89	901.11
380.09	987.71
380.28	1001.75
380.48	957.28
380.68	915.15
380.87	1013.45
381.07	1006.43
381.26	1018.13
381.46	1015.79
381.65	980.68
381.85	1008.77
382.04	1090.69
382.24	1036.86
382.43	1095.37
382.63	1107.07
382.83	997.07
383.02	1043.88
383.22	1048.56
383.41	1086.01
383.61	1020.47
383.80	1156.22
384.00	1076.65
384.19	1118.78
384.39	1034.52
384.58	1149.20
384.78	1100.05
384.97	1198.35
385.17	1245.16
385.36	1217.08
385.56	1210.06
385.75	1116.44
385.95	1153.88
386.14	1149.20
386.34	1107.07
386.53	1198.35
386.72	1167.93
386.92	1289.64
387.11	1299.00
387.31	1270.91
387.50	1261.55
387.70	1336.45
387.89	1275.59
388.09	1299.00
388.28	1238.14
388.48	1188.99
388.67	1224.10
388.86	1256.87
389.06	1308.36
389.25	1383.26
389.45	1369.21
389.64	1369.21
389.84	1385.60
390.03	1364.53
390.22	1343.47
390.42	1371.55
390.61	1427.73
390.81	1373.89
391.00	1420.71
391.19	1451.13
391.39	1371.55
391.58	1455.81
391.78	1523.69
391.97	1521.35
392.16	1390.28
392.36	1561.14
392.55	1486.24
392.75	1526.03
392.94	1476.88
393.13	1568.16
393.33	1488.58
393.52	1481.56
393.71	1528.37
393.91	1645.40
394.10	1528.37
394.29	1533.05
394.49	1561.14
394.68	1584.54
394.88	1638.38
395.07	1701.57
395.26	1682.85
395.46	1694.55
395.65	1701.57
395.84	1736.68
396.04	1771.79
396.23	1732.00
396.42	1682.85
396.62	1797.53
396.81	1788.17
397.00	1788.17
397.19	1792.85
397.39	1776.47
397.58	1806.89
397.77	1762.42
397.97	1856.04
398.16	1687.53
398.35	1928.60
398.55	1898.17
398.74	1989.46
398.93	1959.03
399.12	1888.81
399.32	1905.20
399.51	1891.15
399.70	2052.65
399.90	1982.43
400.09	1961.37
400.28	1947.33
400.47	1942.64
400.67	2092.44
400.86	2176.70
401.05	2087.76
401.24	2090.10
401.44	2129.89
401.63	2057.33
401.82	2139.25
402.01	2073.71
402.21	2244.57
402.40	2155.63
402.59	2221.17
402.78	2165.00
402.97	2249.25
403.17	2106.48
403.36	2314.79
403.55	2286.70
403.74	2361.60
403.93	2478.63
404.13	2352.24
404.32	2354.58
404.51	2377.98
404.70	2420.11
404.89	2338.20
405.09	2553.52
405.28	2483.31
405.47	2574.59
405.66	2441.18
405.85	2480.97
406.05	2473.95
406.24	2506.71
406.43	2576.93
406.62	2616.72
406.81	2764.17
407.00	2642.46
407.20	2490.33
407.39	2609.70
407.58	2773.53
407.77	2686.94
407.96	2799.28
408.15	2757.15
408.34	2700.98
408.54	2712.68
408.73	2729.06
408.92	2745.45
409.11	2799.28
409.30	2916.31
409.49	2974.82
409.68	2888.22
409.87	2895.24
410.07	3070.78
410.26	2998.23
410.45	3016.95
410.64	2974.82
410.83	3026.31
411.02	3119.93
411.21	3138.66
411.40	3131.64
411.59	3265.05
411.78	3148.02
411.98	3218.24
412.17	3232.28
412.36	3344.63
412.55	3283.77
412.74	3337.60
412.93	3407.82
413.12	3361.01
413.31	3592.72
413.50	3361.01
413.69	3426.54
413.88	3557.61
414.07	3468.67
414.26	3611.45
414.45	3637.19
414.64	3674.64
414.83	3707.41
415.02	3808.05
415.22	3796.35
415.41	3845.50
415.60	3712.09
415.79	3915.72
415.98	3988.27
416.17	3988.27
416.36	4021.04
416.55	3960.19
416.74	4030.40
416.93	4007.00
417.12	4105.30
417.31	4135.73
417.50	4084.23
417.69	4245.73
417.88	4353.40
418.07	4205.94
418.26	4369.78
418.45	4369.78
418.64	4493.83
418.83	4383.82
419.02	4500.85
419.21	4568.73
419.39	4540.64
419.58	4550.00
419.77	4395.53
419.96	4512.55
420.15	4580.43
420.34	4585.11
420.53	4603.83
420.72	4709.16
420.91	4730.22
421.10	4592.13
421.29	4880.02
421.48	4638.94
421.67	4816.82
421.86	4760.65
422.05	5036.83
422.24	4732.56
422.43	4828.53
422.61	4912.78
422.80	4905.76
422.99	4844.91
423.18	4997.04
423.37	4971.30
423.56	4950.23
423.75	4877.68
423.94	4716.18
424.13	4592.13
424.32	4727.88
424.50	4943.21
424.69	5128.11
424.88	5008.75
425.07	5004.07
425.26	4830.87
425.45	4959.60
425.64	4954.91
425.83	5067.26
426.01	5139.82
426.20	5046.20
426.39	5048.54
426.58	5093.01
426.77	4985.34
426.96	5107.05
427.15	5078.96
427.33	5242.80
427.52	5149.18
427.71	5188.97
427.90	5238.12
428.09	5338.76
428.28	5210.03
428.46	5530.69
428.65	5282.59
428.84	5514.30
429.03	5397.28
429.22	5408.98
429.40	5472.17
429.59	5462.81
429.78	5408.98
429.97	5298.97
430.16	5535.37
430.34	5673.46
430.53	5668.78
430.72	5729.63
430.91	5558.77
431.10	5575.16
431.28	5727.29
431.47	5699.20
431.66	5879.43
431.85	5699.20
432.03	5809.21
432.22	5919.21
432.41	5720.27
432.60	5813.89
432.79	6043.26
432.97	5951.98
433.16	6052.63
433.35	5886.45
433.54	6033.90
433.72	6057.31
433.91	5987.09
434.10	6024.54
434.28	6216.46
434.47	6153.27
434.66	6251.57
434.85	6265.61
435.03	6370.94
435.22	6258.59
435.41	6438.81
435.59	6483.28
435.78	6523.07
435.97	6363.92
436.16	6422.43
436.34	6368.60
436.53	6408.39
436.72	6576.91
436.90	6296.04
437.09	6707.98
437.28	6544.14
437.46	6710.32
437.65	6567.54
437.84	6729.04
438.02	6579.25
438.21	6930.33
438.40	6649.46
438.58	7030.97
438.77	6942.03
438.96	6801.60
439.14	7098.84
439.33	7190.13
439.52	7332.90
439.70	7140.97
439.89	7454.61
440.08	7304.81
440.26	7520.14
440.45	7424.18
440.63	7541.21
440.82	7714.41
441.01	7550.57
441.19	7569.29
441.38	7695.68
441.57	7691.00
441.75	7868.88
441.94	7981.23
442.12	8018.68
442.31	7971.86
442.50	7946.12
442.68	7885.26
442.87	7953.14
443.05	8189.53
443.24	8105.28
443.43	8018.68
443.61	8058.46
443.80	8486.78
443.98	8006.97
444.17	7889.95
444.35	8241.03
444.54	8470.40
444.73	8299.54
444.91	8278.47
445.10	8510.19
445.28	8098.25
445.47	8299.54
445.65	8290.18
445.84	8414.23
446.02	8360.39
446.21	8491.46
446.39	8198.90
446.58	8439.97
446.77	8446.99
446.95	8301.88
447.14	8322.94
447.32	8463.38
447.51	8435.29
447.69	8526.57
447.88	8531.25
448.06	8664.66
448.25	8599.13
448.43	8575.72
448.62	8720.84
448.80	8578.06
448.99	8587.43
449.17	8688.07
449.36	8681.05
449.54	8795.73
449.73	8879.99
449.91	8954.89
450.10	8833.18
450.28	9231.07
450.46	8964.25
450.65	9039.15
450.83	9109.36
451.02	9001.70
451.20	9331.72
451.39	9088.30
451.57	9118.73
451.76	9144.47
451.94	9270.86
452.13	9303.63
452.31	9387.89
452.49	9186.60
452.68	9467.47
452.86	9233.41
453.05	9408.95
453.23	9537.68
453.42	9415.98
453.60	9355.12
453.78	9523.64
453.97	9535.34
454.15	9525.98
454.34	9540.02
454.52	9827.91
454.70	9788.12
454.89	9699.18
455.07	9823.23
455.26	9813.87
455.44	9970.68
455.62	9879.40
455.81	10094.73
455.99	9958.98
456.17	9966.00
456.36	10047.92
456.54	10380.28
456.73	10204.74
456.91	10331.12
457.09	10476.24
457.28	10494.96
457.46	10300.70
457.64	10483.26
457.83	10363.89
458.01	10324.10
458.19	10747.74
458.38	10654.12
458.56	10883.49
458.74	10693.91
458.93	10619.01
459.11	10689.23
459.29	10773.49
459.48	10862.43
459.66	10897.53
459.84	10876.47
460.03	10995.84
460.21	10871.79
460.39	10792.21
460.57	10995.84
460.76	10937.32
460.94	11234.57
461.12	11257.98
461.31	10974.77
461.49	11180.74
461.67	10963.07
461.85	11459.26
462.04	11494.37
462.22	11587.99
462.40	11356.28
462.59	11363.30
462.77	11485.01
462.95	11742.47
463.13	11564.59
463.32	11531.82
463.50	11810.34
463.68	12013.97
463.86	11969.50
464.05	11667.57
464.23	11784.60
464.41	11803.32
464.59	11740.13
464.78	12372.07
464.96	12093.55
465.14	11627.78
465.32	12292.49
465.50	11964.82
465.69	12154.40
465.87	12327.60
466.05	12252.70
466.23	12315.90
466.41	12439.95
466.60	12507.82
466.78	12177.81
466.96	12327.60
467.14	12053.76
467.32	12564.00
467.51	12711.45
467.69	12100.57
467.87	12336.96
468.05	12615.49
468.23	12325.26
468.41	12538.25
468.60	12802.73
468.78	12765.28
468.96	12547.61
469.14	12711.45
469.32	12858.90
469.50	12540.59
469.69	13081.25
469.87	12952.52
470.05	13268.50
470.23	13107.00
470.41	13078.91
470.59	13221.69
470.77	13097.64
470.95	13107.00
471.14	13483.83
471.32	12957.21
471.50	13706.18
471.68	13493.19
471.86	13572.77
472.04	13472.12
472.22	14054.92
472.40	13650.00
472.58	13914.48
472.77	14111.09
472.95	14370.89
473.13	14530.05
473.31	14244.50
473.49	14319.40
473.67	14164.92
473.85	14354.51
474.03	14527.71
474.21	14616.65
474.39	15063.69
474.57	14604.94
474.75	14771.12
474.93	15096.46
475.12	15037.94
475.30	14918.57
475.48	15192.42
475.66	15229.87
475.84	15407.75
476.02	15475.62
476.20	15353.91
476.38	15805.64
476.56	15999.90
476.74	16065.44
476.92	15995.22
477.10	15815.00
477.28	16170.76
477.46	16210.55
477.64	16112.25
477.82	16681.00
478.00	17043.78
478.18	16769.94
478.36	16814.41
478.54	17345.71
478.72	17240.39
478.90	17422.95
479.08	17710.83
479.26	17738.92
479.44	17652.32
479.62	17874.67
479.80	18047.87
479.98	18394.27
480.16	18321.71
480.34	18326.39
480.52	18583.85
480.70	18668.11
480.88	18520.66
481.06	18895.14
481.24	18843.65
481.41	19239.20
481.59	19484.96
481.77	19384.32
481.95	19768.16
482.13	19917.96
482.31	19634.75
482.49	20238.61
482.67	20163.72
482.85	20503.09
483.03	20798.00
483.21	20671.61
483.39	20879.92
483.57	21163.12
483.74	21067.16
483.92	21247.38
484.10	21287.17
484.28	21614.85
484.46	22092.32
484.64	22164.87
484.82	22057.21
485.00	22558.08
485.18	22878.74
485.35	22820.22
485.53	22752.35
485.71	23126.83
485.89	23616.01
486.07	23538.77
486.25	23344.50
486.43	23501.32
486.61	23758.78
486.78	23992.83
486.96	24254.97
487.14	24673.93
487.32	24795.64
487.50	24854.15
487.68	25355.02
487.85	25298.85
488.03	25579.71
488.21	25694.40
488.39	26188.25
488.57	26026.76
488.75	26277.19
488.92	26478.48
489.10	26904.46
489.28	26703.17
489.46	27140.85
489.64	26944.25
489.81	28030.26
489.99	27857.06
490.17	27810.25
490.35	28563.90
490.53	28725.39
490.70	28240.90
490.88	28285.37
491.06	28276.01
491.24	29032.00
491.41	28886.89
491.59	29460.32
491.77	29455.64
491.95	29738.85
492.13	29905.02
492.30	30099.29
492.48	29970.56
492.66	30614.21
492.84	30349.73
493.01	30806.13
493.19	30455.05
493.37	30862.30
493.54	31014.44
493.72	31438.08
493.90	31307.01
494.08	31840.65
494.25	32231.52
494.43	32187.05
494.61	32407.06
494.79	32421.10
494.96	32453.87
495.14	32786.22
495.32	33511.79
495.49	33493.07
495.67	33273.06
495.85	33387.74
496.02	33572.64
496.20	34082.88
496.38	33897.98
496.55	34267.78
496.73	35009.73
496.91	34417.58
497.09	34986.33
497.26	34960.58
497.44	34817.81
497.62	35543.38
497.79	35653.38
497.97	35583.16
498.14	35938.93
498.32	35948.29
498.50	36495.97
498.67	36538.10
498.85	36657.47
499.03	36545.12
499.20	36577.89
499.38	36622.36
499.56	36865.78
499.73	37102.17
499.91	37495.38
500.08	37881.57
500.26	37507.08
500.44	37982.21
500.61	37813.70
500.79	37837.10
500.97	37965.83
501.14	38738.21
501.32	38714.80
501.49	38778.00
501.67	38941.83
501.84	39047.16
502.02	38944.17
502.20	39009.71
502.37	39449.73
502.55	38967.58
502.72	39695.49
502.90	39646.33
503.07	39606.55
503.25	39636.97
503.43	39754.00
503.60	39981.03
503.78	40215.08
503.95	40086.36
504.13	40701.92
504.30	40399.99
504.48	40519.35
504.65	40627.02
504.83	41198.11
505.01	41242.58
505.18	41305.77
505.36	41495.36
505.53	41474.29
505.71	41771.54
505.88	41794.95
506.06	41916.65
506.23	42410.51
506.41	41684.94
506.58	42064.11
506.76	42038.36
506.93	42593.07
507.11	42522.85
507.28	42625.84
507.46	42562.64
507.63	43086.92
507.81	43112.67
507.98	42574.34
508.16	42829.46
508.33	43409.92
508.50	43622.90
508.68	43646.31
508.85	43775.04
509.03	44126.12
509.20	44254.85
509.38	44416.35
509.55	44694.87
509.73	44488.90
509.90	44905.52
510.08	44130.80
510.25	44318.04
510.42	44800.19
510.60	45034.25
510.77	45022.54
510.95	45523.42
511.12	44973.39
511.30	45013.18
511.47	45518.74
511.64	45247.24
511.82	45947.06
511.99	45434.48
512.17	45748.11
512.34	45879.18
512.51	45820.67
512.69	46412.82
512.86	46363.67
513.04	46593.04
513.21	46700.71
513.38	46656.24
513.56	46944.12
513.73	46948.81
513.90	47498.83
514.08	46836.46
514.25	47372.44
514.43	47646.29
514.60	47445.00
514.77	47173.50
514.95	47529.26
515.12	47524.58
515.29	47686.07
515.47	47793.74
515.64	48617.61
515.81	48154.18
515.99	48566.12
516.16	48505.26
516.33	48144.82
516.51	48765.06
516.68	48540.37
516.85	48516.96
517.03	48800.17
517.20	48720.59
517.37	49134.87
517.54	48877.41
517.72	48966.35
517.89	49120.82
518.06	49361.90
518.24	49490.63
518.41	49336.15
518.58	49429.77
518.75	49385.30
518.93	49553.82
519.10	49694.25
519.27	49907.24
519.45	49799.58
519.62	49907.24
519.79	50035.97
519.96	50487.70
520.14	50195.13
520.31	50005.55
520.48	50415.14
520.65	50387.05
520.83	50829.41
521.00	50628.13
521.17	50597.70
521.34	50803.67
521.52	50918.35
521.69	50976.87
521.86	51185.18
522.03	51040.06
522.20	51367.74
522.38	51693.07
522.55	51243.69
522.72	51587.75
522.89	51370.08
523.07	51578.39
523.24	51611.15
523.41	51992.66
523.58	51428.59
523.75	51938.83
523.92	51540.94
524.10	52238.42
524.27	51700.09
524.44	52526.30
524.61	52184.58
524.78	52233.74
524.96	52479.49
525.13	52189.27
525.30	52523.96
525.47	52362.46
525.64	52645.67
525.81	52673.76
525.98	52823.55
526.16	52673.76
526.33	52671.42
526.50	52924.19
526.67	52809.51
526.84	52961.64
527.01	52837.59
527.18	52921.85
527.36	53041.22
527.53	52978.03
527.70	53141.86
527.87	53364.21
528.04	53268.25
528.21	53453.15
528.38	53462.52
528.55	53722.32
528.72	53258.89
528.89	53656.78
529.07	53364.21
529.24	53429.75
529.41	53773.81
529.58	53780.83
529.75	53764.45
529.92	53937.65
530.09	53918.92
530.26	54003.18
530.43	53764.45
530.60	53769.13
530.77	53923.60
530.94	54354.26
531.11	54007.86
531.28	54265.32
531.46	54143.61
531.63	54337.88
531.80	54244.26
531.97	54260.64
532.14	54770.88
532.31	54333.20
532.48	54782.58
532.65	54794.28
532.82	54658.53
532.99	54644.49
533.16	54499.37
533.33	54740.45
533.50	54864.50
533.67	54740.45
533.84	54782.58
534.01	55138.34
534.18	54887.90
534.35	55306.86
534.52	55154.72
534.69	55318.56
534.86	55386.44
535.03	55348.99
535.20	54766.20
535.37	55299.84
535.54	55686.03
535.71	55192.17
535.88	55711.77
536.05	55536.23
536.22	55480.06
536.38	55508.14
536.55	55697.73
536.72	55559.64
536.89	55664.96
537.06	55550.27
537.23	56051.15
537.40	55559.64
537.57	56076.90
537.74	56053.49
537.91	56058.17
538.08	56126.05
538.25	55744.54
538.42	55901.36
538.59	56090.94
538.75	56055.83
538.92	55756.24
539.09	56437.34
539.26	56247.75
539.43	56217.33
539.60	56327.33
539.77	56327.33
539.94	56423.29
540.11	56303.93
540.28	56374.14
540.44	56458.40
540.61	56324.99
540.78	56250.09
540.95	56446.70
541.12	56603.52
541.29	56516.92
541.46	56596.49
541.62	56542.66
541.79	56743.95
541.96	56465.42
542.13	56781.40
542.30	56809.48
542.47	56917.15
542.63	57092.69
542.80	56935.87
542.97	57219.08
543.14	57003.75
543.31	57055.24
543.48	57366.53
543.64	57528.03
543.81	57258.87
543.98	57378.23
544.15	57272.91
544.32	57504.62
544.48	57481.22
544.65	57476.54
544.82	57441.43
544.99	57272.91
545.16	57595.90
545.32	57254.18
545.49	57799.53
545.66	57902.51
545.83	57776.12
546.00	57731.65
546.16	57649.74
546.33	57762.08
546.50	57560.79
546.67	57661.44
546.83	57628.67
547.00	57804.21
547.17	57869.75
547.34	57787.83
547.50	57806.55
547.67	58085.07
547.84	57963.37
548.00	58197.42
548.17	58141.25
548.34	58026.56
548.51	58202.10
548.67	58394.03
548.84	58349.56
549.01	58075.71
549.18	58068.69
549.34	58298.06
549.51	58295.72
549.68	58433.81
549.84	58323.81
550.01	58653.82
550.18	58085.07
550.34	58607.01
550.51	58543.82
550.68	58340.19
550.84	58625.74
551.01	58602.33
551.18	58501.69
551.34	58389.34
551.51	58754.47
551.68	58450.20
551.84	58609.35
552.01	58513.39
552.18	58791.92
552.34	58553.18
552.51	58918.31
552.68	58529.78
552.84	58679.57
553.01	58972.14
553.18	58740.42
553.34	58899.58
553.51	58953.41
553.67	58733.40
553.84	58988.52
554.01	59072.78
554.17	59075.12
554.34	59171.08
554.51	59049.38
554.67	59262.36
554.84	58822.34
555.00	59105.55
555.17	58829.37
555.33	59128.95
555.50	58951.07
555.67	58983.84
555.83	59018.95
556.00	59213.21
556.16	59573.66
556.33	59318.54
556.50	59091.51
556.66	59484.72
556.83	59194.49
556.99	59358.33
557.16	59512.80
557.32	59440.24
557.49	59611.10
557.65	59370.03
557.82	59482.37
557.98	59414.50
558.15	59522.16
558.32	59597.06
558.48	59398.12
558.65	59646.21
558.81	59583.02
558.98	59604.08
559.14	59676.64
559.31	59648.55
559.47	59821.75
559.64	59845.16
559.80	59751.54
559.97	59730.47
560.13	59641.53
560.30	59936.44
560.46	59636.85
560.63	59842.82
560.79	59819.41
560.96	59898.99
561.12	59709.41
561.29	59980.91
561.45	59861.54
561.61	59971.55
561.78	59910.69
561.94	59880.27
562.11	59854.52
562.27	59877.93
562.44	60018.36
562.60	59985.59
562.77	59898.99
562.93	59714.09
563.10	60072.19
563.26	59896.65
563.42	60212.62
563.59	59866.22
563.75	60027.72
563.92	60060.49
564.08	60060.49
564.24	60353.05
564.41	60079.21
564.57	60205.60
564.74	60046.44
564.90	60292.20
565.07	60168.15
565.23	60236.03
565.39	60161.13
565.56	60350.71
565.72	60271.14
565.88	60229.01
566.05	60299.22
566.21	60196.24
566.38	60238.37
566.54	60299.22
566.70	60264.11
566.87	60320.29
567.03	60266.45
567.19	60568.38
567.36	60350.71
567.52	60346.03
567.68	60647.96
567.85	60383.48
568.01	60507.53
568.17	60385.82
568.34	60533.28
568.50	60289.86
568.66	60280.50
568.83	60390.50
568.99	60385.82
569.15	60395.18
569.32	60271.14
569.48	60582.43
569.64	60617.53
569.81	60741.58
569.97	60439.65
570.13	60308.58
570.30	60353.05
570.46	60449.02
570.62	60470.08
570.78	60528.59
570.95	60629.24
571.11	60692.43
571.27	60509.87
571.43	60535.62
571.60	60598.81
571.76	60807.12
571.92	60591.79
572.09	60647.96
572.25	60743.92
572.41	60563.70
572.57	60629.24
572.74	61071.60
572.90	60584.77
573.06	60708.82
573.22	60577.75
573.38	60732.22
573.55	60706.47
573.71	60809.46
573.87	60680.73
574.03	60594.13
574.20	60743.92
574.36	60552.00
574.52	60509.87
574.68	60809.46
574.84	60802.44
575.01	60860.95
575.17	60720.52
575.33	60711.16
575.49	60793.07
575.65	60753.29
575.82	60804.78
575.98	61006.06
576.14	60889.04
576.30	61029.47
576.46	60896.06
576.62	60690.09
576.79	60811.80
576.95	60825.84
577.11	60788.39
577.27	60781.37
577.43	60867.97
577.59	60671.37
577.75	60753.29
577.92	60893.72
578.08	61013.08
578.24	60987.34
578.40	60973.30
578.56	60942.87
578.72	60830.52
578.88	61085.64
579.04	61160.54
579.21	60748.60
579.37	61102.03
579.53	61020.11
579.69	60676.05
579.85	60900.74
580.01	60860.95
580.17	60830.52
580.33	61087.98
580.49	60767.33
580.65	60989.68
580.82	60837.54
580.98	60966.27
581.14	60910.10
581.30	61008.40
581.46	60818.82
581.62	61106.71
581.78	60884.36
581.94	60907.76
582.10	60977.98
582.26	60961.59
582.42	60879.67
582.58	60992.02
582.74	60977.98
582.90	61043.51
583.06	61059.90
583.22	60767.33
583.38	61015.43
583.54	61169.90
583.70	61069.26
583.86	60970.96
584.02	60882.02
584.18	61055.21
584.34	61001.38
584.50	60954.57
584.66	60992.02
584.82	60823.50
584.98	61219.05
585.14	61064.58
585.30	60797.76
585.46	61080.96
585.62	61223.73
585.78	61123.09
585.94	60884.36
586.10	61310.33
586.26	60980.32
586.42	61076.28
586.58	61188.63
586.74	61174.58
586.90	61001.38
587.06	61045.85
587.22	61160.54
587.38	61123.09
587.54	61062.24
587.70	61312.67
587.86	61029.47
588.02	61228.41
588.18	61326.72
588.34	60996.70
588.49	61073.94
