SpectraSuite Data File
++++++++++++++++++++++++++++++++++++
Date: Fri Oct 25 11:26:33 EDT 2013
User: price-jones
Dark Spectrum Present: No
Reference Spectrum Present: No
Number of Sampled Component Spectra: 1
Spectrometers: USB2+H05261
Integration Time (usec): 100000 (USB2+H05261)
Spectra Averaged: 1 (USB2+H05261)
Boxcar Smoothing: 0 (USB2+H05261)
Correct for Electrical Dark: No (USB2+H05261)
Strobe/Lamp Enabled: No (USB2+H05261)
Correct for Detector Non-linearity: No (USB2+H05261)
Correct for Stray Light: No (USB2+H05261)
Number of Pixels in Processed Spectrum: 2048
>>>>>Begin Processed Spectral Data<<<<<
365.73	292.57
365.92	292.57
366.12	292.57
366.32	166.18
366.52	168.52
366.72	238.73
366.91	161.50
367.11	79.58
367.31	182.56
367.51	63.19
367.70	220.01
367.90	102.98
368.10	126.39
368.30	175.54
368.49	156.82
368.69	217.67
368.89	140.43
369.09	138.09
369.28	126.39
369.48	217.67
369.68	166.18
369.87	133.41
370.07	208.31
370.27	278.52
370.47	365.12
370.66	489.17
370.86	627.26
371.06	636.63
371.25	669.39
371.45	634.29
371.65	706.84
371.84	645.99
372.04	678.76
372.24	704.50
372.44	772.38
372.63	791.10
372.83	744.29
373.03	760.67
373.22	748.97
373.42	777.06
373.62	683.44
373.81	791.10
374.01	781.74
374.21	791.10
374.40	887.06
374.60	875.36
374.79	877.70
374.99	741.95
375.19	758.33
375.38	798.12
375.58	861.32
375.78	856.64
375.97	917.49
376.17	898.77
376.37	873.02
376.56	877.70
376.76	847.27
376.95	891.74
377.15	959.62
377.35	940.90
377.54	896.43
377.74	919.83
377.93	915.15
378.13	856.64
378.33	947.92
378.52	915.15
378.72	976.00
378.91	945.58
379.11	957.28
379.31	973.66
379.50	903.45
379.70	1001.75
379.89	1055.58
380.09	1001.75
380.28	1011.11
380.48	1006.43
380.68	1032.18
380.87	987.71
381.07	950.26
381.26	1055.58
381.46	1074.31
381.65	968.98
381.85	1022.81
382.04	1062.60
382.24	1090.69
382.43	1015.79
382.63	1107.07
382.83	1142.18
383.02	1064.94
383.22	1191.33
383.41	1139.84
383.61	1086.01
383.80	1139.84
384.00	1153.88
384.19	1144.52
384.39	1179.63
384.58	1102.39
384.78	1188.99
384.97	1193.67
385.17	1160.91
385.36	1093.03
385.56	1128.14
385.75	1165.59
385.95	1275.59
386.14	1294.32
386.34	1142.18
386.53	1198.35
386.72	1163.25
386.92	1174.95
387.11	1303.68
387.31	1284.95
387.50	1228.78
387.70	1345.81
387.89	1231.12
388.09	1299.00
388.28	1233.46
388.48	1355.17
388.67	1294.32
388.86	1313.04
389.06	1231.12
389.25	1345.81
389.45	1383.26
389.64	1373.89
389.84	1362.19
390.03	1451.13
390.22	1483.90
390.42	1385.60
390.61	1303.68
390.81	1357.51
391.00	1352.83
391.19	1425.39
391.39	1516.67
391.58	1472.20
391.78	1441.77
391.97	1488.58
392.16	1430.07
392.36	1472.20
392.55	1504.96
392.75	1519.01
392.94	1554.12
393.13	1511.99
393.33	1561.14
393.52	1537.73
393.71	1659.44
393.91	1526.03
394.10	1554.12
394.29	1605.61
394.49	1565.82
394.68	1727.32
394.88	1727.32
395.07	1633.69
395.26	1544.75
395.46	1668.80
395.65	1696.89
395.84	1708.59
396.04	1818.60
396.23	1734.34
396.42	1797.53
396.62	1846.68
396.81	1727.32
397.00	1802.21
397.19	1795.19
397.39	1755.40
397.58	1811.57
397.77	1874.77
397.97	1849.02
398.16	1867.75
398.35	1825.62
398.55	1963.71
398.74	1933.28
398.93	1863.07
399.12	1930.94
399.32	1895.83
399.51	2001.16
399.70	2017.54
399.90	1937.96
400.09	2022.22
400.28	2120.53
400.47	2026.90
400.67	2080.74
400.86	2057.33
401.05	2083.08
401.24	2146.27
401.44	2153.29
401.63	2188.40
401.82	2172.02
402.01	2181.38
402.21	2223.51
402.40	2148.61
402.59	2214.15
402.78	2200.10
402.97	2230.53
403.17	2282.02
403.36	2204.78
403.55	2267.98
403.74	2354.58
403.93	2396.71
404.13	2317.13
404.32	2279.68
404.51	2293.72
404.70	2403.73
404.89	2392.03
405.09	2555.86
405.28	2602.68
405.47	2579.27
405.66	2413.09
405.85	2588.63
406.05	2546.50
406.24	2562.89
406.43	2513.74
406.62	2619.06
406.81	2780.56
407.00	2581.61
407.20	2546.50
407.39	2670.55
407.58	2663.53
407.77	2740.77
407.96	2885.88
408.15	2871.84
408.34	2745.45
408.54	2771.19
408.73	2839.07
408.92	2920.99
409.11	2846.09
409.30	2960.78
409.49	2958.44
409.68	2928.01
409.87	2918.65
410.07	3122.27
410.26	3028.65
410.45	3089.51
410.64	3122.27
410.83	3117.59
411.02	3066.10
411.21	3239.30
411.40	3129.30
411.59	3183.13
411.78	3164.40
411.98	3187.81
412.17	3183.13
412.36	3283.77
412.55	3375.05
412.74	3442.93
412.93	3456.97
413.12	3368.03
413.31	3517.83
413.50	3480.38
413.69	3482.72
413.88	3641.87
414.07	3623.15
414.26	3611.45
414.45	3662.94
414.64	3660.60
414.83	3765.92
415.02	3749.54
415.22	3833.80
415.41	3899.33
415.60	3988.27
415.79	3932.10
415.98	3950.82
416.17	3955.51
416.36	3962.53
416.55	4018.70
416.74	4180.20
416.93	4135.73
417.12	4056.15
417.31	4112.32
417.50	4114.66
417.69	4259.78
417.88	4299.56
418.07	4285.52
418.26	4376.80
418.45	4311.27
418.64	4425.95
418.83	4418.93
419.02	4402.55
419.21	4404.89
419.39	4545.32
419.58	4638.94
419.77	4409.57
419.96	4643.62
420.15	4617.88
420.34	4575.75
420.53	4706.82
420.72	4734.90
420.91	4751.29
421.10	4748.95
421.29	4767.67
421.48	4805.12
421.67	4777.03
421.86	4791.08
422.05	4903.42
422.24	4786.40
422.43	5001.72
422.61	4980.66
422.80	4943.21
422.99	4985.34
423.18	5046.20
423.37	4975.98
423.56	5039.17
423.75	4868.31
423.94	4805.12
424.13	4669.37
424.32	4730.22
424.50	4978.32
424.69	5179.61
424.88	5156.20
425.07	4896.40
425.26	4959.60
425.45	5060.24
425.64	4922.15
425.83	4898.74
426.01	5217.05
426.20	5025.13
426.39	5013.43
426.58	4966.62
426.77	5088.32
426.96	5212.37
427.15	5186.63
427.33	5289.61
427.52	5210.03
427.71	5296.63
427.90	5188.97
428.09	5394.93
428.28	5343.44
428.46	5352.81
428.65	5348.12
428.84	5561.11
429.03	5724.95
429.22	5334.08
429.40	5483.88
429.59	5661.76
429.78	5296.63
429.97	5191.31
430.16	5437.06
430.34	5631.33
430.53	5591.54
430.72	5600.90
430.91	5813.89
431.10	5657.07
431.28	5729.63
431.47	5771.76
431.66	5905.17
431.85	5694.52
432.03	5895.81
432.22	5926.24
432.41	5994.11
432.60	6012.84
432.79	6176.67
432.97	6080.71
433.16	6026.88
433.35	5984.75
433.54	6033.90
433.72	6097.10
433.91	6101.78
434.10	6083.05
434.28	6235.19
434.47	6115.82
434.66	6249.23
434.85	6200.08
435.03	6349.87
435.22	6317.11
435.41	6516.05
435.59	6403.71
435.78	6565.20
435.97	6483.28
436.16	6532.44
436.34	6462.22
436.53	6525.41
436.72	6696.27
436.90	6469.24
437.09	6675.21
437.28	6406.05
437.46	6700.95
437.65	6586.27
437.84	6530.09
438.02	6843.73
438.21	6827.34
438.40	6661.16
438.58	6885.86
438.77	7052.03
438.96	6918.62
439.14	7077.78
439.33	7115.23
439.52	7176.08
439.70	7358.64
439.89	7466.31
440.08	7391.41
440.26	7248.64
440.45	7279.07
440.63	7527.16
440.82	7651.21
441.01	7363.33
441.19	7815.05
441.38	7758.88
441.57	7775.26
441.75	7775.26
441.94	7852.50
442.12	8128.68
442.31	8028.04
442.50	8042.08
442.68	8035.06
442.87	8016.33
443.05	8067.83
443.24	8248.05
443.43	8276.13
443.61	8355.71
443.80	8517.21
443.98	8109.96
444.17	8086.55
444.35	8163.79
444.54	8451.67
444.73	8173.15
444.91	8374.44
445.10	8250.39
445.28	8463.38
445.47	8105.28
445.65	8351.03
445.84	8353.37
446.02	8458.70
446.21	8325.29
446.39	8575.72
446.58	8456.36
446.77	8461.04
446.95	8334.65
447.14	8538.27
447.32	8465.72
447.51	8339.33
447.69	8538.27
447.88	8650.62
448.06	8739.56
448.25	8709.13
448.43	8744.24
448.62	8643.60
448.80	8528.91
448.99	8549.98
449.17	8800.41
449.36	8739.56
449.54	8798.07
449.73	8814.46
449.91	8990.00
450.10	8882.33
450.28	8982.98
450.46	9280.22
450.65	9018.08
450.83	9184.26
451.02	8901.06
451.20	9163.20
451.39	9221.71
451.57	9109.36
451.76	9132.77
451.94	9172.56
452.13	9413.63
452.31	9254.48
452.49	9151.49
452.68	9366.82
452.86	9224.05
453.05	9467.47
453.23	9247.46
453.42	9200.65
453.60	9556.41
453.78	9458.10
453.97	9350.44
454.15	9710.88
454.34	9282.56
454.52	9572.79
454.70	9680.46
454.89	9645.35
455.07	9586.83
455.26	9736.63
455.44	10237.50
455.62	9893.44
455.81	10078.35
455.99	9989.41
456.17	10286.65
456.36	10286.65
456.54	10148.56
456.73	10293.68
456.91	10389.64
457.09	10546.45
457.28	10684.55
457.46	10494.96
457.64	10427.09
457.83	10586.24
458.01	10406.02
458.19	10492.62
458.38	10459.85
458.56	10752.42
458.74	10719.65
458.93	10794.55
459.11	10820.30
459.29	10869.45
459.48	10904.56
459.66	11063.71
459.84	11030.94
460.03	10977.11
460.21	10953.71
460.39	11007.54
460.57	10876.47
460.76	11000.52
460.94	11356.28
461.12	11171.38
461.31	11232.23
461.49	11115.20
461.67	11192.44
461.85	11592.67
462.04	11220.53
462.22	11580.97
462.40	11592.67
462.59	11555.22
462.77	11384.37
462.95	11613.74
463.13	11590.33
463.32	11513.10
463.50	12006.95
463.68	11894.60
463.86	11939.07
464.05	11606.72
464.23	11824.39
464.41	12049.08
464.59	12030.35
464.78	12063.12
464.96	12056.10
465.14	11784.60
465.32	12250.36
465.50	11997.59
465.69	12248.02
465.87	12294.83
466.05	12196.53
466.23	12194.19
466.41	12241.00
466.60	12421.22
466.78	12276.11
466.96	12135.68
467.14	12091.21
467.32	12229.30
467.51	12751.24
467.69	12343.99
467.87	12549.95
468.05	12671.66
468.23	12430.59
468.41	12624.85
468.60	12695.07
468.78	12657.62
468.96	12723.15
469.14	12823.80
469.32	12952.52
469.50	12734.85
469.69	12957.21
469.87	13174.88
470.05	13128.06
470.23	13235.73
470.41	13413.61
470.59	13345.73
470.77	13371.48
470.95	13319.99
471.14	13799.80
471.32	13174.88
471.50	13383.18
471.68	13827.88
471.86	13689.79
472.04	13523.62
472.22	14143.86
472.40	13771.71
472.58	13771.71
472.77	14087.68
472.95	14197.69
473.13	14436.42
473.31	14164.92
473.49	14321.74
473.67	14019.81
473.85	14356.85
474.03	14579.20
474.21	14583.88
474.39	14946.66
474.57	14558.13
474.75	14876.44
474.93	14738.35
475.12	14970.07
475.30	14829.63
475.48	15098.80
475.66	15257.95
475.84	15152.63
476.02	15400.72
476.20	15410.09
476.38	15716.70
476.56	15819.68
476.74	16219.91
476.92	16079.48
477.10	16035.01
477.28	16194.17
477.46	16341.62
477.64	16442.26
477.82	16465.67
478.00	17099.95
478.18	16868.24
478.36	17067.19
478.54	17003.99
478.72	17366.78
478.90	17523.59
479.08	17811.48
479.26	17614.87
479.44	17767.01
479.62	17844.24
479.80	18342.78
479.98	18029.15
480.16	18628.32
480.34	18171.92
480.52	18661.09
480.70	18771.10
480.88	18431.72
481.06	18902.17
481.24	18684.50
481.41	19370.27
481.59	19580.92
481.77	19524.75
481.95	19541.13
482.13	20065.41
482.31	19747.10
482.49	20397.77
482.67	20329.89
482.85	20568.63
483.03	20765.23
483.21	20812.04
483.39	21202.91
483.57	20903.32
483.74	21158.44
483.92	21411.22
484.10	21245.04
484.28	21834.86
484.46	21956.57
484.64	22328.71
484.82	22115.72
485.00	22326.37
485.18	22902.14
485.35	22761.71
485.53	22822.56
485.71	23119.81
485.89	23482.59
486.07	23686.22
486.25	23480.25
486.43	23726.01
486.61	23906.23
486.78	24397.74
486.96	24299.44
487.14	24306.46
487.32	24608.39
487.50	24856.49
487.68	24966.49
487.85	25142.03
488.03	25874.62
488.21	25898.03
488.39	25741.21
488.57	26284.22
488.75	26061.87
488.92	26572.10
489.10	26845.94
489.28	26696.15
489.46	27110.43
489.64	27337.46
489.81	27784.50
489.99	27810.25
490.17	27541.08
490.35	28180.05
490.53	28432.83
490.70	28676.24
490.88	28100.47
491.06	28795.61
491.24	29046.05
491.41	29055.41
491.59	29345.64
491.77	29179.46
491.95	29984.60
492.13	29586.71
492.30	29942.47
492.48	30228.02
492.66	30096.95
492.84	30270.15
493.01	30630.59
493.19	30546.33
493.37	31222.75
493.54	31115.08
493.72	31407.65
493.90	31531.70
494.08	31723.62
494.25	31997.46
494.43	32074.70
494.61	32350.88
494.79	32545.15
494.96	32596.64
495.14	33027.30
495.32	33184.12
495.49	33397.10
495.67	33727.12
495.85	33235.61
496.02	33951.81
496.20	33888.62
496.38	34286.51
496.55	34293.53
496.73	34787.38
496.91	34878.66
497.09	34768.66
497.26	34920.79
497.44	34911.43
497.62	35629.98
497.79	35835.94
497.97	35976.37
498.14	36077.02
498.32	36002.12
498.50	36350.86
498.67	36526.40
498.85	36414.05
499.03	36809.61
499.20	36692.58
499.38	37034.30
499.56	37053.02
499.73	37589.00
499.91	37411.12
500.08	37689.65
500.26	37635.81
500.44	37584.32
500.61	38316.91
500.79	37752.84
500.97	38476.07
501.14	38649.27
501.32	38869.28
501.49	38546.28
501.67	38778.00
501.84	39309.30
502.02	39199.29
502.20	38864.60
502.37	39524.63
502.55	39154.82
502.72	39779.74
502.90	39227.38
503.07	39629.95
503.25	39761.02
503.43	39889.75
503.60	40287.64
503.78	40545.10
503.95	40704.26
504.13	40634.04
504.30	40568.51
504.48	40467.86
504.65	40498.29
504.83	41099.81
505.01	41408.76
505.18	41394.71
505.36	41352.58
505.53	41081.08
505.71	41675.58
505.88	41902.61
506.06	41394.71
506.23	41879.21
506.41	42176.45
506.58	42309.86
506.76	42167.09
506.93	42986.28
507.11	42321.57
507.28	42646.90
507.46	42780.31
507.63	42637.54
507.81	43571.41
507.98	43276.51
508.16	43098.62
508.33	43517.58
508.50	43885.04
508.68	43529.28
508.85	44191.65
509.03	43861.64
509.20	44018.46
509.38	44158.89
509.55	44587.21
509.73	44107.40
509.90	45153.62
510.08	44577.84
510.25	44648.06
510.42	44772.11
510.60	45085.74
510.77	45118.51
510.95	45698.96
511.12	45158.30
511.30	45120.85
511.47	45567.89
511.64	45497.67
511.82	46099.19
511.99	45886.20
512.17	46309.84
512.34	45991.53
512.51	46483.04
512.69	46387.08
512.86	46611.77
513.04	47084.56
513.21	46611.77
513.38	47150.09
513.56	47178.18
513.73	46941.78
513.90	47304.57
514.08	47203.92
514.25	47386.49
514.43	46946.47
514.60	47557.35
514.77	47365.42
514.95	47789.06
515.12	47540.96
515.29	47655.65
515.47	47966.94
515.64	48376.53
515.81	48165.88
515.99	48318.02
516.16	48446.75
516.33	48741.66
516.51	48545.05
516.68	48612.93
516.85	48442.07
517.03	48734.63
517.20	49172.31
517.37	48659.74
517.54	48900.81
517.72	48933.58
517.89	49619.36
518.06	49610.00
518.24	49595.95
518.41	49345.51
518.58	49422.75
518.75	49345.51
518.93	49624.04
519.10	49729.36
519.27	49989.16
519.45	49577.23
519.62	49984.48
519.79	49968.10
519.96	50232.58
520.14	49968.10
520.31	50272.37
520.48	50483.01
520.65	50230.24
520.83	50497.06
521.00	50724.09
521.17	50801.33
521.34	50703.03
521.52	50897.29
521.69	50817.71
521.86	50972.19
522.03	51213.26
522.20	51332.63
522.38	51894.36
522.55	51470.72
522.72	51295.18
522.89	51370.08
523.07	51796.06
523.24	51618.17
523.41	51847.55
523.58	51622.86
523.75	52364.81
523.92	51812.44
524.10	51931.81
524.27	52329.70
524.44	52200.97
524.61	52030.11
524.78	52472.47
524.96	52332.04
525.13	51941.17
525.30	52327.36
525.47	52502.90
525.64	52439.70
525.81	52842.27
525.98	52570.77
526.16	52755.68
526.33	52715.89
526.50	52935.90
526.67	52968.66
526.84	52861.00
527.01	53048.24
527.18	53069.31
527.36	52999.09
527.53	53120.80
527.70	53272.93
527.87	53226.12
528.04	53207.40
528.21	53399.32
528.38	53446.13
528.55	53806.58
528.72	53551.46
528.89	53425.07
529.07	53736.36
529.24	53310.38
529.41	53705.93
529.58	53722.32
529.75	53991.48
529.92	53888.49
530.09	54199.79
530.26	54068.72
530.43	54204.47
530.60	53729.34
530.77	53939.99
530.94	54410.43
531.11	54141.27
531.28	54403.41
531.46	54419.80
531.63	54251.28
531.80	54136.59
531.97	54396.39
532.14	54539.16
532.31	54270.00
532.48	54578.95
532.65	54752.15
532.82	54749.81
532.99	54813.01
533.16	55011.95
533.33	54993.23
533.50	54958.12
533.67	54831.73
533.84	54908.97
534.01	54869.18
534.18	55061.10
534.35	55189.83
534.52	55178.13
534.69	55262.39
534.86	55281.11
535.03	55089.19
535.20	55206.22
535.37	55374.73
535.54	55496.44
535.71	55222.60
535.88	55571.34
536.05	55206.22
536.22	55702.41
536.38	55704.75
536.55	55580.70
536.72	55573.68
536.89	55199.19
537.06	55695.39
537.23	55718.79
537.40	55540.91
537.57	55683.69
537.74	55835.82
537.91	56093.28
538.08	55957.53
538.25	55896.67
538.42	55891.99
538.59	56395.21
538.75	56179.88
538.92	56102.64
539.09	56119.02
539.26	56266.48
539.43	56252.44
539.60	56268.82
539.77	56353.08
539.94	56523.94
540.11	56491.17
540.28	56589.47
540.44	56453.72
540.61	56687.78
540.78	56456.06
540.95	56662.03
541.12	56413.93
541.29	56587.13
541.46	56350.74
541.62	56477.13
541.79	56584.79
541.96	56381.16
542.13	56664.37
542.30	56753.31
542.47	56919.49
542.63	57020.13
542.80	56816.50
542.97	57027.15
543.14	57198.01
543.31	57340.78
543.48	57235.46
543.64	57471.85
543.81	57406.32
543.98	57413.34
544.15	57385.25
544.32	57614.63
544.48	57640.37
544.65	57488.24
544.82	57530.37
544.99	57305.68
545.16	57577.18
545.32	57469.51
545.49	57844.00
545.66	57764.42
545.83	57722.29
546.00	57715.27
546.16	57881.45
546.33	57401.64
546.50	57432.07
546.67	58071.03
546.83	57628.67
547.00	57764.42
547.17	57813.57
547.34	57612.29
547.50	57961.03
547.67	58218.49
547.84	57977.41
548.00	57911.88
548.17	58206.78
548.34	58150.61
548.51	58281.68
548.67	58429.13
548.84	58115.50
549.01	58267.64
549.18	58241.89
549.34	58333.17
549.51	58438.50
549.68	58262.96
549.84	58302.74
550.01	58447.86
550.18	58143.59
550.34	58534.46
550.51	58321.47
550.68	58438.50
550.84	58316.79
551.01	58569.57
551.18	58401.05
551.34	58592.97
551.51	58478.28
551.68	58735.74
551.84	58677.23
552.01	58405.73
552.18	58623.40
552.34	58546.16
552.51	58766.17
552.68	58756.81
552.84	58965.12
553.01	59161.72
553.18	58829.37
553.34	59121.93
553.51	58887.88
553.67	58939.37
553.84	59021.29
554.01	58834.05
554.17	59056.40
554.34	59231.94
554.51	58944.05
554.67	59194.49
554.84	58871.49
555.00	59210.87
555.17	59018.95
555.33	59119.59
555.50	58808.30
555.67	59040.01
555.83	59075.12
556.00	59245.98
556.16	59447.27
556.33	59241.30
556.50	59299.81
556.66	59208.53
556.83	59388.75
556.99	59440.24
557.16	59412.16
557.32	59578.34
557.49	59707.07
557.65	59241.30
557.82	59320.88
557.98	59447.27
558.15	59583.02
558.32	59419.18
558.48	59522.16
558.65	59728.13
558.81	59564.29
558.98	59604.08
559.14	59798.35
559.31	59587.70
559.47	59784.30
559.64	59636.85
559.80	59648.55
559.97	59695.36
560.13	59564.29
560.30	59695.36
560.46	59772.60
560.63	59772.60
560.79	59667.28
560.96	59601.74
561.12	59772.60
561.29	59770.26
561.45	59992.61
561.61	59746.86
561.78	59819.41
561.94	59873.24
562.11	60001.97
562.27	60130.70
562.44	59955.16
562.60	60109.64
562.77	59924.74
562.93	60060.49
563.10	60032.40
563.26	59934.10
563.42	60346.03
563.59	60072.19
563.75	60037.08
563.92	59966.87
564.08	59964.52
564.24	60086.23
564.41	60217.30
564.57	60205.60
564.74	60257.09
564.90	60350.71
565.07	59985.59
565.23	60072.19
565.39	60144.75
565.56	60315.61
565.72	60060.49
565.88	60236.03
566.05	60336.67
566.21	60252.41
566.38	60067.51
566.54	60285.18
566.70	60229.01
566.87	60289.86
567.03	60360.08
567.19	60191.56
567.36	60411.57
567.52	60467.74
567.68	60636.26
567.85	60388.16
568.01	60460.72
568.17	60177.51
568.34	60416.25
568.50	60247.73
568.66	60397.52
568.83	60530.93
568.99	60329.65
569.15	60636.26
569.32	60378.80
569.48	60320.29
569.64	60542.64
569.81	60502.85
569.97	60360.08
570.13	60397.52
570.30	60463.06
570.46	60479.44
570.62	60533.28
570.78	60638.60
570.95	60493.49
571.11	60537.96
571.27	60575.40
571.43	60423.27
571.60	60556.68
571.76	60519.23
571.92	60622.22
572.09	60671.37
572.25	60552.00
572.41	60552.00
572.57	60692.43
572.74	60708.82
572.90	60591.79
573.06	60690.09
573.22	60556.68
573.38	60680.73
573.55	60767.33
573.71	60659.66
573.87	60786.05
574.03	60666.69
574.20	60837.54
574.36	60563.70
574.52	60835.20
574.68	60762.65
574.84	60865.63
575.01	60853.93
575.17	60774.35
575.33	60739.24
575.49	60615.19
575.65	60753.29
575.82	60952.23
575.98	60917.12
576.14	61052.87
576.30	60825.84
576.46	60863.29
576.62	60795.42
576.79	60727.54
576.95	60626.90
577.11	61041.17
577.27	60898.40
577.43	60825.84
577.59	60788.39
577.75	60830.52
577.92	60488.80
578.08	60694.77
578.24	60884.36
578.40	61059.90
578.56	61020.11
578.72	60849.25
578.88	60945.21
579.04	61029.47
579.21	60790.73
579.37	60896.06
579.53	61034.15
579.69	60615.19
579.85	60835.20
580.01	60821.16
580.17	60748.60
580.33	61057.56
580.49	61085.64
580.65	60924.14
580.82	60837.54
580.98	60750.94
581.14	60898.40
581.30	60956.91
581.46	60809.46
581.62	60963.93
581.78	60877.33
581.94	60963.93
582.10	60863.29
582.26	60697.11
582.42	60968.61
582.58	61132.45
582.74	61052.87
582.90	60996.70
583.06	61050.53
583.22	60963.93
583.38	60853.93
583.54	60980.32
583.70	61123.09
583.86	61146.50
584.02	60910.10
584.18	61338.42
584.34	61020.11
584.50	61055.21
584.66	60905.42
584.82	60809.46
584.98	61172.24
585.14	61155.86
585.30	61006.06
585.46	61144.16
585.62	61087.98
585.78	61261.18
585.94	60795.42
586.10	61027.13
586.26	61027.13
586.42	61090.32
586.58	61249.48
586.74	61078.62
586.90	61095.00
587.06	61073.94
587.22	61212.03
587.38	61118.41
587.54	61212.03
587.70	61134.79
587.86	61045.85
588.02	61165.22
588.18	61237.78
588.34	61291.61
