SpectraSuite Data File
++++++++++++++++++++++++++++++++++++
Date: Fri Oct 25 11:26:11 EDT 2013
User: price-jones
Dark Spectrum Present: No
Reference Spectrum Present: No
Number of Sampled Component Spectra: 1
Spectrometers: USB2+H05261
Integration Time (usec): 100000 (USB2+H05261)
Spectra Averaged: 1 (USB2+H05261)
Boxcar Smoothing: 0 (USB2+H05261)
Correct for Electrical Dark: No (USB2+H05261)
Strobe/Lamp Enabled: No (USB2+H05261)
Correct for Detector Non-linearity: No (USB2+H05261)
Correct for Stray Light: No (USB2+H05261)
Number of Pixels in Processed Spectrum: 2048
>>>>>Begin Processed Spectral Data<<<<<
365.73	227.03
365.92	227.03
366.12	227.03
366.32	205.97
366.52	124.05
366.72	133.41
366.91	145.11
367.11	110.01
367.31	135.75
367.51	156.82
367.70	166.18
367.90	163.84
368.10	154.48
368.30	147.45
368.49	67.88
368.69	191.92
368.89	124.05
369.09	159.16
369.28	145.11
369.48	248.10
369.68	234.05
369.87	241.08
370.07	196.60
370.27	273.84
370.47	369.80
370.66	608.54
370.86	606.20
371.06	695.14
371.25	727.91
371.45	660.03
371.65	737.27
371.84	704.50
372.04	688.12
372.24	748.97
372.44	727.91
372.63	704.50
372.83	784.08
373.03	737.27
373.22	760.67
373.42	802.80
373.62	795.78
373.81	816.85
374.01	793.44
374.21	765.36
374.40	720.88
374.60	823.87
374.79	842.59
374.99	833.23
375.19	873.02
375.38	887.06
375.58	812.17
375.78	777.06
375.97	875.36
376.17	912.81
376.37	870.68
376.56	877.70
376.76	793.44
376.95	854.30
377.15	961.96
377.35	933.87
377.54	938.55
377.74	805.14
377.93	835.57
378.13	851.96
378.33	1008.77
378.52	938.55
378.72	919.83
378.91	940.90
379.11	957.28
379.31	919.83
379.50	957.28
379.70	926.85
379.89	1064.94
380.09	938.55
380.28	894.08
380.48	990.05
380.68	889.40
380.87	1018.13
381.07	980.68
381.26	994.73
381.46	966.64
381.65	1064.94
381.85	1039.20
382.04	1032.18
382.24	1100.05
382.43	1086.01
382.63	1057.92
382.83	1125.80
383.02	1107.07
383.22	1191.33
383.41	1062.60
383.61	1170.27
383.80	1165.59
384.00	1104.73
384.19	1111.75
384.39	1174.95
384.58	1153.88
384.78	1144.52
384.97	1177.29
385.17	1238.14
385.36	1188.99
385.56	1210.06
385.75	1097.71
385.95	1231.12
386.14	1217.08
386.34	1235.80
386.53	1273.25
386.72	1210.06
386.92	1214.74
387.11	1200.69
387.31	1254.53
387.50	1252.19
387.70	1198.35
387.89	1350.49
388.09	1287.29
388.28	1303.68
388.48	1331.76
388.67	1296.66
388.86	1287.29
389.06	1270.91
389.25	1348.15
389.45	1373.89
389.64	1331.76
389.84	1383.26
390.03	1401.98
390.22	1362.19
390.42	1432.41
390.61	1413.68
390.81	1366.87
391.00	1425.39
391.19	1451.13
391.39	1385.60
391.58	1423.05
391.78	1416.02
391.97	1495.60
392.16	1561.14
392.36	1519.01
392.55	1437.09
392.75	1427.73
392.94	1439.43
393.13	1629.01
393.33	1586.88
393.52	1556.46
393.71	1540.07
393.91	1549.43
394.10	1540.07
394.29	1626.67
394.49	1554.12
394.68	1582.20
394.88	1612.63
395.07	1621.99
395.26	1685.19
395.46	1652.42
395.65	1727.32
395.84	1720.29
396.04	1680.50
396.23	1741.36
396.42	1739.02
396.62	1781.15
396.81	1827.96
397.00	1795.19
397.19	1797.53
397.39	1774.13
397.58	1792.85
397.77	1942.64
397.97	1834.98
398.16	1867.75
398.35	1825.62
398.55	1825.62
398.74	1909.88
398.93	1944.99
399.12	1952.01
399.32	1926.26
399.51	1959.03
399.70	1935.62
399.90	1907.54
400.09	2045.63
400.28	2012.86
400.47	2019.88
400.67	2031.58
400.86	2036.27
401.05	2172.02
401.24	2181.38
401.44	2118.18
401.63	2132.23
401.82	2083.08
402.01	2160.31
402.21	2108.82
402.40	2122.87
402.59	2125.21
402.78	2167.34
402.97	2303.09
403.17	2317.13
403.36	2253.94
403.55	2289.04
403.74	2251.60
403.93	2370.96
404.13	2340.54
404.32	2291.38
404.51	2403.73
404.70	2399.05
404.89	2429.48
405.09	2476.29
405.28	2480.97
405.47	2443.52
405.66	2495.01
405.85	2537.14
406.05	2394.37
406.24	2518.42
406.43	2586.29
406.62	2647.15
406.81	2691.62
407.00	2539.48
407.20	2597.99
407.39	2562.89
407.58	2628.42
407.77	2696.30
407.96	2654.17
408.15	2808.64
408.34	2740.77
408.54	2862.48
408.73	2808.64
408.92	2827.37
409.11	2768.85
409.30	2862.48
409.49	2981.84
409.68	2932.69
409.87	3007.59
410.07	3042.70
410.26	2972.48
410.45	2895.24
410.64	3094.19
410.83	3068.44
411.02	2995.89
411.21	3159.72
411.40	3129.30
411.59	3098.87
411.78	3082.49
411.98	3260.37
412.17	3276.75
412.36	3258.03
412.55	3246.32
412.74	3417.18
412.93	3412.50
413.12	3403.14
413.31	3524.85
413.50	3379.73
413.69	3440.59
413.88	3517.83
414.07	3557.61
414.26	3691.02
414.45	3662.94
414.64	3581.02
414.83	3786.99
415.02	3840.82
415.22	3754.22
415.41	3833.80
415.60	4042.11
415.79	4081.89
415.98	3908.69
416.17	4114.66
416.36	3896.99
416.55	4021.04
416.74	4030.40
416.93	4088.92
417.12	4002.32
417.31	4077.21
417.50	4105.30
417.69	4409.57
417.88	4266.80
418.07	4252.75
418.26	4180.20
418.45	4259.78
418.64	4444.68
418.83	4486.81
419.02	4381.48
419.21	4528.94
419.39	4463.40
419.58	4524.26
419.77	4449.36
419.96	4617.88
420.15	4538.30
420.34	4531.28
420.53	4423.61
420.72	4727.88
420.91	4669.37
421.10	4627.24
421.29	4807.46
421.48	4690.43
421.67	4737.24
421.86	4755.97
422.05	4784.06
422.24	4732.56
422.43	4901.08
422.61	4826.18
422.80	5013.43
422.99	4917.47
423.18	4856.61
423.37	4959.60
423.56	4884.70
423.75	4926.83
423.94	4847.25
424.13	4587.45
424.32	4753.63
424.50	4985.34
424.69	5210.03
424.88	5144.50
425.07	4882.36
425.26	4938.53
425.45	4947.89
425.64	4999.38
425.83	4957.25
426.01	4997.04
426.20	5102.37
426.39	5121.09
426.58	4983.00
426.77	5032.15
426.96	5151.52
427.15	5043.85
427.33	5041.51
427.52	5085.98
427.71	5125.77
427.90	5282.59
428.09	5259.18
428.28	5305.99
428.46	5184.29
428.65	5345.78
428.84	5617.29
429.03	5654.73
429.22	5441.75
429.40	5509.62
429.59	5535.37
429.78	5418.34
429.97	5355.15
430.16	5446.43
430.34	5458.13
430.53	5516.64
430.72	5577.50
430.91	5813.89
431.10	5776.44
431.28	5736.65
431.47	5870.06
431.66	5715.59
431.85	5706.23
432.03	5884.11
432.22	5954.32
432.41	5877.09
432.60	5872.40
432.79	5795.17
432.97	5926.24
433.16	6031.56
433.35	5942.62
433.54	5940.28
433.72	6080.71
433.91	5996.45
434.10	6132.20
434.28	6169.65
434.47	6293.70
434.66	6284.34
434.85	6237.53
435.03	6296.04
435.22	6225.82
435.41	6384.98
435.59	6307.74
435.78	6436.47
435.97	6420.09
436.16	6520.73
436.34	6448.18
436.53	6532.44
436.72	6682.23
436.90	6417.75
437.09	6672.87
437.28	6520.73
437.46	6464.56
437.65	6614.35
437.84	6722.02
438.02	6794.58
438.21	6782.87
438.40	6738.40
438.58	7045.01
438.77	6960.75
438.96	7037.99
439.14	7225.23
439.33	7166.72
439.52	7119.91
439.70	7049.69
439.89	7229.91
440.08	7370.35
440.26	7117.57
440.45	7332.90
440.63	7290.77
440.82	7585.68
441.01	7445.24
441.19	7602.06
441.38	7644.19
441.57	7768.24
441.75	7772.92
441.94	7892.29
442.12	7822.07
442.31	8175.49
442.50	8074.85
442.68	7934.42
442.87	8032.72
443.05	8243.37
443.24	8215.28
443.43	8032.72
443.61	8023.36
443.80	8528.91
443.98	8098.25
444.17	7733.13
444.35	8114.64
444.54	8318.26
444.73	8456.36
444.91	8278.47
445.10	8198.90
445.28	8105.28
445.47	8234.00
445.65	8252.73
445.84	8552.32
446.02	8344.01
446.21	8358.05
446.39	8189.53
446.58	8674.03
446.77	8294.86
446.95	8297.20
447.14	8231.66
447.32	8500.83
447.51	8571.04
447.69	8636.58
447.88	8446.99
448.06	8627.21
448.25	8470.40
448.43	8566.36
448.62	8688.07
448.80	8667.00
448.99	8678.71
449.17	8697.43
449.36	8589.77
449.54	8863.61
449.73	8999.36
449.91	9081.28
450.10	8968.93
450.28	9048.51
450.46	8978.30
450.65	9018.08
450.83	9092.98
451.02	8950.21
451.20	9160.86
451.39	8975.95
451.57	9083.62
451.76	9128.09
451.94	9144.47
452.13	9156.18
452.31	9397.25
452.49	9090.64
452.68	9352.78
452.86	9263.84
453.05	9453.42
453.23	9521.30
453.42	9305.97
453.60	9376.19
453.78	9352.78
453.97	9219.37
454.15	9568.11
454.34	9500.23
454.52	9570.45
454.70	9598.54
454.89	9575.13
455.07	9689.82
455.26	9799.82
455.44	9650.03
455.62	9703.86
455.81	9722.59
455.99	9753.01
456.17	10008.13
456.36	9935.57
456.54	10377.94
456.73	10221.12
456.91	10235.16
457.09	10583.90
457.28	10431.77
457.46	10331.12
457.64	10527.73
457.83	10420.06
458.01	10368.57
458.19	10611.99
458.38	10424.75
458.56	10761.78
458.74	10658.80
458.93	10895.19
459.11	10860.09
459.29	10832.00
459.48	10649.44
459.66	10703.27
459.84	10958.39
460.03	10764.12
460.21	10995.84
460.39	10881.15
460.57	10949.03
460.76	11133.93
460.94	10843.70
461.12	10953.71
461.31	11180.74
461.49	11220.53
461.67	10853.06
461.85	11475.65
462.04	11098.82
462.22	11756.51
462.40	11480.33
462.59	11403.09
462.77	11489.69
462.95	11737.79
463.13	11410.11
463.32	11538.84
463.50	11702.68
463.68	11583.31
463.86	11625.44
464.05	11728.42
464.23	11740.13
464.41	11789.28
464.59	11611.40
464.78	12222.28
464.96	11908.65
465.14	11843.11
465.32	11950.78
465.50	12163.76
465.69	12208.23
465.87	12226.96
466.05	12219.94
466.23	12114.61
466.41	12149.72
466.60	12346.33
466.78	11955.46
466.96	12016.31
467.14	12226.96
467.32	12126.32
467.51	12564.00
467.69	12297.17
467.87	12278.45
468.05	12517.18
468.23	12386.12
468.41	12435.27
468.60	12594.42
468.78	12636.55
468.96	12542.93
469.14	12769.96
469.32	12872.95
469.50	12475.06
469.69	12819.11
469.87	12683.36
470.05	13184.24
470.23	13188.92
470.41	13149.13
470.59	13280.20
470.77	13373.82
470.95	13224.03
471.14	13378.50
471.32	12971.25
471.50	13458.08
471.68	13460.42
471.86	13401.91
472.04	13551.70
472.22	13811.50
472.40	13682.77
472.58	13724.90
472.77	13909.80
472.95	13844.27
473.13	14443.45
473.31	13928.53
473.49	13968.32
473.67	14038.53
473.85	14455.15
474.03	14696.22
474.21	14560.47
474.39	14668.14
474.57	14443.45
474.75	14757.08
474.93	14787.50
475.12	14958.36
475.30	14986.45
475.48	15096.46
475.66	15016.88
475.84	14927.94
476.02	15393.70
476.20	15353.91
476.38	15695.63
476.56	15784.57
476.74	15508.39
476.92	15690.95
477.10	15555.20
477.28	16439.92
477.46	16018.63
477.64	16381.41
477.82	16386.09
478.00	16718.45
478.18	16849.52
478.36	16720.79
478.54	17095.27
478.72	17226.34
478.90	17298.90
479.08	17364.43
479.26	17696.79
479.44	17666.36
479.62	17755.30
479.80	17912.12
479.98	17902.76
480.16	18438.74
480.34	18525.34
480.52	18373.21
480.70	19014.51
480.88	18256.18
481.06	18560.45
481.24	18640.03
481.41	18691.52
481.59	19133.88
481.77	19405.38
481.95	19456.87
482.13	19637.09
482.31	19187.71
482.49	19985.83
482.67	20102.86
482.85	20374.36
483.03	20971.20
483.21	20772.25
483.39	20842.47
483.57	21022.69
483.74	21205.25
483.92	21268.45
484.10	21212.28
484.28	21689.74
484.46	21898.05
484.64	22356.80
484.82	21797.41
485.00	22324.03
485.18	22649.36
485.35	22766.39
485.53	22569.79
485.71	22780.43
485.89	23150.24
486.07	22822.56
486.25	23468.55
486.43	23342.16
486.61	23772.82
486.78	23784.52
486.96	24016.24
487.14	24514.77
487.32	24238.59
487.50	24877.55
487.68	24776.91
487.85	25125.65
488.03	25338.64
488.21	25764.62
488.39	25715.47
488.57	26029.10
488.75	25776.32
488.92	26527.63
489.10	26977.01
489.28	26717.22
489.46	26850.63
489.64	26794.45
489.81	27562.15
489.99	27625.34
490.17	27791.52
490.35	28294.74
490.53	28276.01
490.70	28659.86
490.88	28149.62
491.06	28481.98
491.24	28767.52
491.41	28868.17
491.59	29106.90
491.77	29579.69
491.95	29666.29
492.13	29399.47
492.30	29507.13
492.48	30015.03
492.66	30167.16
492.84	29993.97
493.01	30579.10
493.19	30501.86
493.37	30764.00
493.54	30955.93
493.72	31613.62
493.90	31175.94
494.08	31740.00
494.25	31924.91
494.43	31936.61
494.61	32290.03
494.79	32561.53
494.96	32191.73
495.14	32437.48
495.32	32910.27
495.49	33029.64
495.67	33181.77
495.85	33085.81
496.02	33567.96
496.20	33916.70
496.38	33610.09
496.55	33699.03
496.73	34738.23
496.91	34719.51
497.09	35042.50
497.26	34916.11
497.44	35103.35
497.62	35384.22
497.79	35646.36
497.97	35365.49
498.14	35763.39
498.32	36023.19
498.50	35849.99
498.67	36189.36
498.85	36130.85
499.03	36971.10
499.20	36364.90
499.38	36294.69
499.56	37216.86
499.73	37181.75
499.91	37141.96
500.08	37113.87
500.26	37525.81
500.44	37460.27
500.61	37874.55
500.79	37663.90
500.97	38223.29
501.14	38337.98
501.32	38359.04
501.49	38370.74
501.67	38555.64
501.84	38672.67
502.02	38770.97
502.20	38827.15
502.37	39171.21
502.55	39234.40
502.72	39393.56
502.90	39440.37
503.07	39129.08
503.25	39871.03
503.43	39569.10
503.60	39796.13
503.78	40297.00
503.95	40268.92
504.13	40634.04
504.30	40133.17
504.48	40369.56
504.65	40694.89
504.83	41085.76
505.01	40891.50
505.18	40687.87
505.36	41265.99
505.53	41144.28
505.71	41057.68
505.88	41743.45
506.06	40928.95
506.23	41689.62
506.41	41759.84
506.58	41729.41
506.76	42192.84
506.93	42806.06
507.11	42270.08
507.28	42188.16
507.46	42153.05
507.63	42712.44
507.81	42707.76
507.98	42548.60
508.16	42618.81
508.33	43042.45
508.50	43152.46
508.68	43599.50
508.85	43246.08
509.03	43576.09
509.20	43503.54
509.38	43555.03
509.55	44275.91
509.73	44271.23
509.90	44818.92
510.08	44603.59
510.25	44722.96
510.42	44664.44
510.60	44790.83
510.77	44772.11
510.95	44863.39
511.12	44545.08
511.30	45059.99
511.47	44961.69
511.64	45675.55
511.82	45565.55
511.99	45565.55
512.17	45588.95
512.34	45570.23
512.51	45928.33
512.69	46246.65
512.86	46160.05
513.04	46351.97
513.21	46424.53
513.38	46342.61
513.56	46611.77
513.73	46501.76
513.90	47004.98
514.08	46759.22
514.25	47110.30
514.43	47295.21
514.60	47187.54
514.77	47402.87
514.95	47615.86
515.12	47547.98
515.29	47271.80
515.47	47414.57
515.64	47889.70
515.81	47852.25
515.99	47870.98
516.16	48250.14
516.33	48591.86
516.51	48491.22
516.68	47983.32
516.85	48416.32
517.03	48683.14
517.20	48622.29
517.37	48732.29
517.54	48603.56
517.72	48708.89
517.89	48774.42
518.06	49090.40
518.24	49216.78
518.41	48825.92
518.58	48751.02
518.75	49099.76
518.93	49546.80
519.10	49375.94
519.27	49574.89
519.45	49535.10
519.62	49998.52
519.79	49703.62
519.96	49525.74
520.14	50085.12
520.31	49822.98
520.48	50059.38
520.65	50447.91
520.83	50284.07
521.00	50550.89
521.17	50323.86
521.34	50719.41
521.52	50473.65
521.69	50433.86
521.86	50911.33
522.03	51150.07
522.20	50951.12
522.38	51004.95
522.55	50997.93
522.72	51419.23
522.89	51664.99
523.07	51835.84
523.24	51325.61
523.41	51906.06
523.58	51231.99
523.75	51641.58
523.92	51831.16
524.10	51782.01
524.27	51943.51
524.44	51915.42
524.61	51751.59
524.78	52023.09
524.96	52002.02
525.13	51901.38
525.30	52257.14
525.47	52474.81
525.64	52451.41
525.81	52505.24
525.98	52615.24
526.16	52385.87
526.33	52739.29
526.50	52622.26
526.67	52554.39
526.84	52540.35
527.01	52699.50
527.18	52856.32
527.36	52837.59
527.53	52795.46
527.70	53198.04
527.87	53212.08
528.04	53186.33
528.21	53247.19
528.38	53258.89
528.55	53434.43
528.72	53024.84
528.89	53572.52
529.07	53141.86
529.24	53286.98
529.41	53591.25
529.58	53422.73
529.75	53338.47
529.92	53631.04
530.09	53429.75
530.26	53895.52
530.43	54064.03
530.60	53556.14
530.77	53558.48
530.94	53986.80
531.11	53865.09
531.28	53928.28
531.46	54073.40
531.63	54241.92
531.80	54106.16
531.97	54438.52
532.14	54202.13
532.31	54255.96
532.48	54401.07
532.65	54433.84
532.82	54600.02
532.99	54541.50
533.16	54436.18
533.33	54527.46
533.50	55037.70
533.67	54740.45
533.84	54639.81
534.01	54695.98
534.18	54908.97
534.35	55126.64
534.52	54955.78
534.69	55288.13
534.86	55014.29
535.03	54911.31
535.20	55028.34
535.37	55187.49
535.54	55229.62
535.71	55164.09
535.88	55255.37
536.05	55295.16
536.22	55196.85
536.38	55620.49
536.55	55454.31
536.72	55491.76
536.89	55306.86
537.06	55749.22
537.23	55702.41
537.40	55271.75
537.57	55674.32
537.74	55760.92
537.91	55650.92
538.08	55835.82
538.25	55559.64
538.42	55763.26
538.59	55952.85
538.75	55784.33
538.92	55828.80
539.09	56086.26
539.26	56161.15
539.43	56025.40
539.60	56226.69
539.77	56371.80
539.94	56200.94
540.11	56268.82
540.28	56198.60
540.44	56296.91
540.61	56060.51
540.78	56346.06
540.95	56353.08
541.12	56343.72
541.29	56425.64
541.46	56355.42
541.62	56484.15
541.79	56676.07
541.96	56409.25
542.13	56556.70
542.30	56619.90
542.47	56577.77
542.63	56687.78
542.80	56629.26
542.97	57226.10
543.14	57415.68
543.31	57006.09
543.48	57258.87
543.64	57380.57
543.81	57373.55
543.98	57429.72
544.15	57139.50
544.32	57251.84
544.48	57427.38
544.65	57378.23
544.82	57509.30
544.99	57235.46
545.16	57413.34
545.32	57469.51
545.49	57647.39
545.66	57635.69
545.83	57485.90
546.00	57806.55
546.16	57654.42
546.33	57523.35
546.50	57350.15
546.67	57558.45
546.83	57343.12
547.00	57593.56
547.17	57301.00
547.34	57616.97
547.50	58085.07
547.67	57726.97
547.84	57869.75
548.00	58026.56
548.17	57844.00
548.34	57904.85
548.51	57984.43
548.67	58145.93
548.84	58059.33
549.01	57972.73
549.18	58052.31
549.34	57965.71
549.51	58152.95
549.68	58192.74
549.84	58073.37
550.01	58260.62
550.18	58284.02
550.34	58466.58
550.51	58368.28
550.68	58438.50
550.84	58078.05
551.01	58417.43
551.18	58389.34
551.34	58485.31
551.51	58419.77
551.68	58450.20
551.84	58578.93
552.01	58351.90
552.18	58419.77
552.34	58377.64
552.51	58780.21
552.68	58424.45
552.84	58623.40
553.01	58812.98
553.18	58658.51
553.34	58803.62
553.51	58653.82
553.67	58794.26
553.84	58789.58
554.01	58841.07
554.17	59126.61
554.34	58930.01
554.51	58878.52
554.67	58972.14
554.84	58815.32
555.00	58859.79
555.17	58993.20
555.33	58944.05
555.50	58815.32
555.67	58990.86
555.83	58894.90
556.00	58885.54
556.16	59208.53
556.33	59150.02
556.50	59035.33
556.66	59220.23
556.83	59061.08
556.99	59278.75
557.16	59227.26
557.32	59468.33
557.49	59512.80
557.65	59269.39
557.82	59229.60
557.98	59157.04
558.15	59388.75
558.32	59398.12
558.48	59302.15
558.65	59430.88
558.81	59311.52
558.98	59332.58
559.14	59456.63
559.31	59341.94
559.47	59683.66
559.64	59554.93
559.80	59669.62
559.97	59573.66
560.13	59482.37
560.30	59327.90
560.46	59643.87
560.63	59533.87
560.79	59573.66
560.96	59721.11
561.12	59903.67
561.29	59627.49
561.45	59618.13
561.61	59718.77
561.78	59608.76
561.94	59770.26
562.11	59774.94
562.27	59849.84
562.44	59882.61
562.60	59913.03
562.77	59842.82
562.93	59625.15
563.10	59927.08
563.26	59814.73
563.42	60009.00
563.59	59952.82
563.75	59863.88
563.92	59845.16
564.08	59894.31
564.24	60186.88
564.41	60081.55
564.57	60055.81
564.74	59964.52
564.90	60299.22
565.07	59908.35
565.23	59784.30
565.39	60069.85
565.56	60179.85
565.72	60009.00
565.88	59964.52
566.05	59964.52
566.21	60104.96
566.38	60065.17
566.54	60060.49
566.70	60364.76
566.87	60074.53
567.03	59997.29
567.19	60360.08
567.36	60245.39
567.52	60221.98
567.68	60434.97
567.85	60327.31
568.01	60289.86
568.17	60247.73
568.34	60355.39
568.50	60224.32
568.66	60100.28
568.83	60364.76
568.99	60198.58
569.15	60420.93
569.32	60374.12
569.48	60371.78
569.64	60509.87
569.81	60486.46
569.97	60252.41
570.13	60334.33
570.30	60301.56
570.46	60416.25
570.62	60350.71
570.78	60392.84
570.95	60144.75
571.11	60540.30
571.27	60477.10
571.43	60261.77
571.60	60516.89
571.76	60453.70
571.92	60390.50
572.09	60467.74
572.25	60409.23
572.41	60484.12
572.57	60441.99
572.74	60748.60
572.90	60514.55
573.06	60591.79
573.22	60603.49
573.38	60282.84
573.55	60521.57
573.71	60786.05
573.87	60715.84
574.03	60434.97
574.20	60500.51
574.36	60463.06
574.52	60741.58
574.68	60605.83
574.84	60867.97
575.01	60631.58
575.17	60563.70
575.33	60596.47
575.49	60605.83
575.65	60444.33
575.82	60652.64
575.98	60783.71
576.14	60832.86
576.30	60889.04
576.46	60533.28
576.62	60652.64
576.79	60523.91
576.95	60568.38
577.11	60643.28
577.27	60790.73
577.43	60764.99
577.59	60809.46
577.75	60671.37
577.92	60481.78
578.08	60807.12
578.24	60884.36
578.40	60790.73
578.56	60683.07
578.72	60722.86
578.88	60849.25
579.04	60910.10
579.21	60867.97
579.37	60736.90
579.53	60818.82
579.69	60612.85
579.85	60687.75
580.01	60687.75
580.17	60711.16
580.33	60919.46
580.49	60982.66
580.65	60961.59
580.82	60807.12
580.98	60685.41
581.14	60809.46
581.30	60764.99
581.46	60683.07
581.62	61003.72
581.78	60774.35
581.94	60774.35
582.10	60650.30
582.26	60699.45
582.42	60678.39
582.58	60760.31
582.74	60882.02
582.90	60914.78
583.06	60764.99
583.22	60725.20
583.38	60706.47
583.54	60907.76
583.70	60924.14
583.86	60790.73
584.02	60867.97
584.18	61090.32
584.34	60708.82
584.50	60963.93
584.66	60849.25
584.82	60673.71
584.98	61055.21
585.14	60898.40
585.30	60940.53
585.46	60947.55
585.62	60996.70
585.78	61022.45
585.94	60996.70
586.10	60921.80
586.26	61106.71
586.42	60928.83
586.58	61097.34
586.74	60713.50
586.90	61223.73
587.06	60973.30
587.22	60879.67
587.38	60907.76
587.54	61013.08
587.70	61102.03
587.86	60900.74
588.02	60905.42
588.18	61043.51
588.34	61029.47
588.49	61020.11
