SpectraSuite Data File
++++++++++++++++++++++++++++++++++++
Date: Fri Oct 25 11:22:27 EDT 2013
User: price-jones
Dark Spectrum Present: No
Reference Spectrum Present: No
Number of Sampled Component Spectra: 1
Spectrometers: USB2+H05261
Integration Time (usec): 100000 (USB2+H05261)
Spectra Averaged: 1 (USB2+H05261)
Boxcar Smoothing: 0 (USB2+H05261)
Correct for Electrical Dark: No (USB2+H05261)
Strobe/Lamp Enabled: No (USB2+H05261)
Correct for Detector Non-linearity: No (USB2+H05261)
Correct for Stray Light: No (USB2+H05261)
Number of Pixels in Processed Spectrum: 2048
>>>>>Begin Processed Spectral Data<<<<<
365.73	266.82
365.92	266.82
366.12	266.82
366.32	128.73
366.52	112.35
366.72	107.66
366.91	175.54
367.11	77.24
367.31	156.82
367.51	88.94
367.70	107.66
367.90	46.81
368.10	93.62
368.30	70.22
368.49	128.73
368.69	159.16
368.89	86.60
369.09	60.85
369.28	126.39
369.48	95.96
369.68	154.48
369.87	196.60
370.07	196.60
370.27	217.67
370.47	306.61
370.66	554.71
370.86	575.77
371.06	629.60
371.25	716.20
371.45	557.05
371.65	772.38
371.84	671.73
372.04	683.44
372.24	746.63
372.44	779.40
372.63	746.63
372.83	683.44
373.03	767.70
373.22	699.82
373.42	702.16
373.62	713.86
373.81	854.30
374.01	828.55
374.21	819.19
374.40	716.20
374.60	842.59
374.79	821.53
374.99	779.40
375.19	856.64
375.38	851.96
375.58	868.34
375.78	936.21
375.97	858.98
376.17	947.92
376.37	903.45
376.56	858.98
376.76	880.04
376.95	819.19
377.15	943.24
377.35	933.87
377.54	844.93
377.74	912.81
377.93	898.77
378.13	847.27
378.33	980.68
378.52	964.30
378.72	992.39
378.91	931.53
379.11	985.37
379.31	994.73
379.50	861.32
379.70	1020.47
379.89	990.05
380.09	931.53
380.28	863.66
380.48	957.28
380.68	1074.31
380.87	931.53
381.07	1029.84
381.26	999.41
381.46	1020.47
381.65	983.02
381.85	1057.92
382.04	1020.47
382.24	1090.69
382.43	1032.18
382.63	1050.90
382.83	1020.47
383.02	1095.37
383.22	1118.78
383.41	1137.50
383.61	1046.22
383.80	1242.82
384.00	1062.60
384.19	1146.86
384.39	1149.20
384.58	1107.07
384.78	1146.86
384.97	1188.99
385.17	1123.46
385.36	1177.29
385.56	1184.31
385.75	1240.48
385.95	1207.72
386.14	1167.93
386.34	1205.38
386.53	1233.46
386.72	1221.76
386.92	1252.19
387.11	1266.23
387.31	1203.04
387.50	1191.33
387.70	1224.10
387.89	1210.06
388.09	1352.83
388.28	1320.06
388.48	1348.15
388.67	1186.65
388.86	1294.32
389.06	1313.04
389.25	1287.29
389.45	1334.11
389.64	1341.13
389.84	1331.76
390.03	1446.45
390.22	1371.55
390.42	1423.05
390.61	1390.28
390.81	1320.06
391.00	1416.02
391.19	1453.47
391.39	1446.45
391.58	1430.07
391.78	1437.09
391.97	1336.45
392.16	1352.83
392.36	1533.05
392.55	1540.07
392.75	1514.33
392.94	1502.62
393.13	1516.67
393.33	1493.26
393.52	1661.78
393.71	1530.71
393.91	1502.62
394.10	1441.77
394.29	1650.08
394.49	1591.56
394.68	1638.38
394.88	1666.46
395.07	1710.93
395.26	1675.82
395.46	1785.83
395.65	1790.51
395.84	1783.49
396.04	1778.81
396.23	1724.97
396.42	1785.83
396.62	1636.03
396.81	1774.13
397.00	1664.12
397.19	1748.38
397.39	1802.21
397.58	1926.26
397.77	1902.86
397.97	1914.56
398.16	1818.60
398.35	1912.22
398.55	1844.34
398.74	1914.56
398.93	2024.56
399.12	1914.56
399.32	1977.75
399.51	2022.22
399.70	2029.24
399.90	1926.26
400.09	2015.20
400.28	2108.82
400.47	1998.82
400.67	1994.14
400.86	2045.63
401.05	2057.33
401.24	2052.65
401.44	2167.34
401.63	2207.13
401.82	2153.29
402.01	2275.00
402.21	2162.66
402.40	2249.25
402.59	2267.98
402.78	2214.15
402.97	2179.04
403.17	2289.04
403.36	2253.94
403.55	2284.36
403.74	2335.85
403.93	2385.01
404.13	2441.18
404.32	2359.26
404.51	2396.71
404.70	2434.16
404.89	2455.22
405.09	2406.07
405.28	2553.52
405.47	2466.92
405.66	2438.84
405.85	2487.99
406.05	2464.58
406.24	2509.05
406.43	2548.84
406.62	2548.84
406.81	2710.34
407.00	2466.92
407.20	2579.27
407.39	2640.12
407.58	2719.70
407.77	2780.56
407.96	2686.94
408.15	2827.37
408.34	2780.56
408.54	2719.70
408.73	2813.32
408.92	2672.89
409.11	2958.44
409.30	2761.83
409.49	2939.71
409.68	2932.69
409.87	2928.01
410.07	3012.27
410.26	2984.18
410.45	3023.97
410.64	3000.57
410.83	3136.32
411.02	3087.17
411.21	3197.17
411.40	3328.24
411.59	3318.88
411.78	3246.32
411.98	3353.99
412.17	3220.58
412.36	3197.17
412.55	3361.01
412.74	3372.71
412.93	3431.23
413.12	3468.67
413.31	3515.48
413.50	3426.54
413.69	3506.12
413.88	3557.61
414.07	3669.96
414.26	3721.45
414.45	3761.24
414.64	3763.58
414.83	3810.39
415.02	3889.97
415.22	3878.27
415.41	3925.08
415.60	3861.88
415.79	3892.31
415.98	3936.78
416.17	4049.13
416.36	3899.33
416.55	3997.64
416.74	4051.47
416.93	4070.19
417.12	4070.19
417.31	4032.74
417.50	4219.99
417.69	4161.47
417.88	4131.05
418.07	4409.57
418.26	4285.52
418.45	4320.63
418.64	4573.41
418.83	4418.93
419.02	4365.10
419.21	4550.00
419.39	4428.29
419.58	4484.47
419.77	4379.14
419.96	4547.66
420.15	4692.77
420.34	4648.30
420.53	4755.97
420.72	4655.33
420.91	4685.75
421.10	4800.44
421.29	4753.63
421.48	4807.46
421.67	4774.69
421.86	4734.90
422.05	4959.60
422.24	4753.63
422.43	4781.71
422.61	4978.32
422.80	5050.88
422.99	4926.83
423.18	5071.94
423.37	5025.13
423.56	4894.06
423.75	5046.20
423.94	4952.57
424.13	4695.11
424.32	4755.97
424.50	5029.81
424.69	5123.43
424.88	5085.98
425.07	4903.42
425.26	5008.75
425.45	5004.07
425.64	4884.70
425.83	5053.22
426.01	5053.22
426.20	5006.41
426.39	5125.77
426.58	4997.04
426.77	5085.98
426.96	5130.45
427.15	5053.22
427.33	5308.34
427.52	5455.79
427.71	5411.32
427.90	5364.51
428.09	5385.57
428.28	5315.36
428.46	5380.89
428.65	5308.34
428.84	5603.24
429.03	5600.90
429.22	5355.15
429.40	5523.66
429.59	5579.84
429.78	5352.81
429.97	5203.01
430.16	5643.03
430.34	5537.71
430.53	5657.07
430.72	5792.83
430.91	5717.93
431.10	5689.84
431.28	5755.38
431.47	5891.13
431.66	5837.30
431.85	5764.74
432.03	5951.98
432.22	5982.41
432.41	5970.71
432.60	6001.13
432.79	5942.62
432.97	5959.00
433.16	6160.29
433.35	6045.60
433.54	6080.71
433.72	6218.80
433.91	6211.78
434.10	6155.61
434.28	6019.86
434.47	6237.53
434.66	6293.70
434.85	6375.62
435.03	6342.85
435.22	6279.66
435.41	6576.91
435.59	6546.48
435.78	6567.54
435.97	6539.46
436.16	6410.73
436.34	6590.95
436.53	6485.62
436.72	6707.98
436.90	6499.67
437.09	6827.34
437.28	6326.47
437.46	6726.70
437.65	6768.83
437.84	6986.50
438.02	6736.06
438.21	6794.58
438.40	6846.07
438.58	6991.18
438.77	7035.65
438.96	6974.80
439.14	7075.44
439.33	7255.66
439.52	7150.34
439.70	7269.70
439.89	7478.01
440.08	7501.42
440.26	7421.84
440.45	7286.09
440.63	7559.93
440.82	7618.44
441.01	7496.74
441.19	7529.50
441.38	7634.83
441.57	7889.95
441.75	7971.86
441.94	8088.89
442.12	7981.23
442.31	8236.35
442.50	8205.92
442.68	8187.19
442.87	8145.06
443.05	8093.57
443.24	8313.58
443.43	8208.26
443.61	8243.37
443.80	8388.48
443.98	8187.19
444.17	8018.68
444.35	8430.61
444.54	8482.10
444.73	8346.35
444.91	8360.39
445.10	8702.11
445.28	8423.59
445.47	8219.96
445.65	8472.74
445.84	8376.78
446.02	8610.83
446.21	8423.59
446.39	8446.99
446.58	8755.94
446.77	8554.66
446.95	8243.37
447.14	8758.28
447.32	8528.91
447.51	8524.23
447.69	8571.04
447.88	8449.33
448.06	8650.62
448.25	8428.27
448.43	8760.63
448.62	8564.02
448.80	8519.55
448.99	8641.26
449.17	8779.35
449.36	8849.57
449.54	8966.59
449.73	8929.14
449.91	9081.28
450.10	9046.17
450.28	9261.50
450.46	9149.15
450.65	9043.83
450.83	9172.56
451.02	9205.33
451.20	9296.61
451.39	9233.41
451.57	9289.59
451.76	9242.78
451.94	9207.67
452.13	9298.95
452.31	9308.31
452.49	9366.82
452.68	9329.38
452.86	9287.25
453.05	9415.98
453.23	9617.26
453.42	9619.60
453.60	9476.83
453.78	9652.37
453.97	9540.02
454.15	9525.98
454.34	9511.94
454.52	9685.14
454.70	9699.18
454.89	9790.46
455.07	9930.89
455.26	9774.08
455.44	9848.97
455.62	9991.75
455.81	10019.83
455.99	10263.25
456.17	10092.39
456.36	10310.06
456.54	10216.44
456.73	10281.97
456.91	10319.42
457.09	10478.58
457.28	10583.90
457.46	10621.35
457.64	10750.08
457.83	10565.18
458.01	10483.26
458.19	10874.13
458.38	10595.61
458.56	10721.99
458.74	10934.98
458.93	10857.75
459.11	10787.53
459.29	10892.85
459.48	10998.18
459.66	10672.84
459.84	11183.08
460.03	10946.69
460.21	10979.45
460.39	11152.65
460.57	11103.50
460.76	11054.35
460.94	11234.57
461.12	11250.96
461.31	11379.68
461.49	11255.64
461.67	11304.79
461.85	11861.84
462.04	11358.62
462.22	11454.58
462.40	11948.43
462.59	11599.70
462.77	11707.36
462.95	11714.38
463.13	11693.32
463.32	11564.59
463.50	11789.28
463.68	11604.38
463.86	11674.59
464.05	11613.74
464.23	11882.90
464.41	12049.08
464.59	11669.91
464.78	12226.96
464.96	11946.09
465.14	12135.68
465.32	11868.86
465.50	12348.67
465.69	12063.12
465.87	12177.81
466.05	12105.25
466.23	12226.96
466.41	12388.46
466.60	12587.40
466.78	12184.83
466.96	12257.39
467.14	12292.49
467.32	12477.40
467.51	12830.82
467.69	12266.75
467.87	12507.82
468.05	12842.52
468.23	12542.93
468.41	12622.51
468.60	12938.48
468.78	12889.33
468.96	12753.58
469.14	12847.20
469.32	12968.91
469.50	12844.86
469.69	13266.16
469.87	12950.18
470.05	13205.30
470.23	13298.92
470.41	13261.48
470.59	13582.13
470.77	13107.00
470.95	13507.23
471.14	13809.16
471.32	13224.03
471.50	13605.53
471.68	13858.31
471.86	13640.64
472.04	13855.97
472.22	14136.84
472.40	13694.47
472.58	13956.61
472.77	13965.98
472.95	14286.63
473.13	14588.56
473.31	14333.44
473.49	14258.54
473.67	14256.20
473.85	14483.24
474.03	14738.35
474.21	14616.65
474.39	14897.51
474.57	14820.27
474.75	14988.79
474.93	15150.29
475.12	15171.35
475.30	15346.89
475.48	15087.09
475.66	15372.64
475.84	15452.22
476.02	15583.29
476.20	15555.20
476.38	15852.45
476.56	16060.76
476.74	16266.72
476.92	16086.50
477.10	15812.66
477.28	16327.58
477.46	16388.43
477.64	16369.71
477.82	16798.02
478.00	17118.68
478.18	16915.05
478.36	17177.19
478.54	17106.98
478.72	17467.42
478.90	17715.51
479.08	17834.88
479.26	18010.42
479.44	17675.73
479.62	18040.85
479.80	17975.31
479.98	18099.36
480.16	18925.57
480.34	18647.05
480.52	18731.31
480.70	18810.89
480.88	18590.88
481.06	18773.44
481.24	19239.20
481.41	19309.42
481.59	19510.71
481.77	19630.07
481.95	19847.74
482.13	19983.49
482.31	20283.08
482.49	19936.68
482.67	20437.56
482.85	20425.86
483.03	20645.87
483.21	21095.25
483.39	20926.73
483.57	21172.49
483.74	21249.72
483.92	21717.83
484.10	21605.49
484.28	21692.08
484.46	22363.82
484.64	22696.17
484.82	22162.53
485.00	22586.17
485.18	22888.10
485.35	23094.07
485.53	22759.37
485.71	23386.63
485.89	23667.50
486.07	23892.19
486.25	23662.82
486.43	23782.18
486.61	24006.87
486.78	24156.67
486.96	24173.05
487.14	24552.22
487.32	24943.09
487.50	25111.61
487.68	25067.14
487.85	25371.41
488.03	25827.81
488.21	25954.20
488.39	25738.87
488.57	26270.17
488.75	26309.96
488.92	26574.44
489.10	27063.61
489.28	26927.86
489.46	27513.00
489.64	27363.20
489.81	27730.67
489.99	27688.54
490.17	27875.78
490.35	28872.85
490.53	28584.96
490.70	28929.02
490.88	28524.11
491.06	29149.03
491.24	29340.96
491.41	29364.36
491.59	29310.53
491.77	29542.24
491.95	29570.33
492.13	30183.55
492.30	30195.25
492.48	30038.44
492.66	30089.93
492.84	30579.10
493.01	31065.93
493.19	30806.13
493.37	31248.49
493.54	30979.33
493.72	31985.76
493.90	31910.86
494.08	32072.36
494.25	32437.48
494.43	32322.80
494.61	32425.78
494.79	32577.92
494.96	32437.48
495.14	33069.43
495.32	33472.00
495.49	33574.98
495.67	33795.00
495.85	33858.19
496.02	33965.85
496.20	34136.71
496.38	34490.13
496.55	34632.91
496.73	35274.21
496.91	34740.57
497.09	35578.48
497.26	35384.22
497.44	35512.95
497.62	35732.96
497.79	36229.15
497.97	35784.45
498.14	35969.35
498.32	36493.63
498.50	36360.22
498.67	37172.39
498.85	36505.34
499.03	37050.68
499.20	37081.11
499.38	36905.57
499.56	37322.18
499.73	37689.65
499.91	37832.42
500.08	38010.30
500.26	37539.85
500.44	38256.06
500.61	38258.40
500.79	37865.19
500.97	38148.39
501.14	38930.13
501.32	38541.60
501.49	38522.88
501.67	39000.35
501.84	38993.32
502.02	39152.48
502.20	39435.69
502.37	39913.16
502.55	39510.58
502.72	39665.06
502.90	40062.95
503.07	39917.84
503.25	40044.23
503.43	40109.76
503.60	40116.78
503.78	40336.79
503.95	40362.54
504.13	40650.42
504.30	41207.47
504.48	40760.43
504.65	41123.21
504.83	41069.38
505.01	41715.37
505.18	41312.80
505.36	41766.86
505.53	41785.58
505.71	41954.10
505.88	42162.41
506.06	41794.95
506.23	42422.21
506.41	42227.95
506.58	42637.54
506.76	42440.93
506.93	42803.72
507.11	42794.36
507.28	43147.78
507.46	43243.74
507.63	43115.01
507.81	43875.68
507.98	43012.02
508.16	43178.20
508.33	43917.81
508.50	43938.88
508.68	43959.94
508.85	44266.55
509.03	43948.24
509.20	44456.14
509.38	44938.29
509.55	44631.68
509.73	44893.82
509.90	44985.10
510.08	45057.65
510.25	45146.59
510.42	45294.05
510.60	45036.59
510.77	45722.37
510.95	46237.28
511.12	45855.78
511.30	45619.38
511.47	45963.44
511.64	45940.04
511.82	46305.16
511.99	46101.53
512.17	46171.75
512.34	46167.07
512.51	46536.87
512.69	46784.97
512.86	46628.15
513.04	46979.23
513.21	47037.75
513.38	47215.63
513.56	47253.08
513.73	47131.37
513.90	47529.26
514.08	47147.75
514.25	47758.63
514.43	47852.25
514.60	47681.39
514.77	47840.55
514.95	47835.87
515.12	47896.72
515.29	47826.51
515.47	48601.22
515.64	48193.97
515.81	48126.10
515.99	48814.21
516.16	48664.42
516.33	49034.22
516.51	49017.84
516.68	48690.16
516.85	48949.96
517.03	49165.29
517.20	49228.49
517.37	49174.66
517.54	49031.88
517.72	49453.18
517.89	49617.02
518.06	49825.32
518.24	49717.66
518.41	49198.06
518.58	49612.34
518.75	49675.53
518.93	50026.61
519.10	49883.84
519.27	50005.55
519.45	49949.37
519.62	50342.58
519.79	50064.06
519.96	50183.43
520.14	50588.34
520.31	50356.63
520.48	50583.66
520.65	50684.30
520.83	50892.61
521.00	51044.74
521.17	50979.21
521.34	51133.68
521.52	51199.22
521.69	51341.99
521.86	51292.84
522.03	51243.69
522.20	51908.40
522.38	51646.26
522.55	51826.48
522.72	51629.88
522.89	51840.53
523.07	52051.17
523.24	51966.91
523.41	51770.31
523.58	51583.07
523.75	52341.40
523.92	52013.73
524.10	52002.02
524.27	52299.27
524.44	52116.71
524.61	52341.40
524.78	52278.21
524.96	52259.48
525.13	52432.68
525.30	52844.62
525.47	52846.96
525.64	52582.48
525.81	52598.86
525.98	53090.37
526.16	52793.12
526.33	53031.86
526.50	53436.77
526.67	53228.46
526.84	53272.93
527.01	53141.86
527.18	53113.78
527.36	53228.46
527.53	53228.46
527.70	53595.93
527.87	53366.55
528.04	53336.13
528.21	53368.90
528.38	53483.58
528.55	53916.58
528.72	53752.74
528.89	53848.71
529.07	53404.00
529.24	53682.53
529.41	53982.12
529.58	53890.83
529.75	53909.56
529.92	54010.20
530.09	54351.92
530.26	54326.17
530.43	54225.53
530.60	54061.69
530.77	54068.72
530.94	54571.93
531.11	54014.88
531.28	54433.84
531.46	54349.58
531.63	54681.94
531.80	54595.34
531.97	54798.96
532.14	54660.87
532.31	54478.31
532.48	54836.41
532.65	55173.45
532.82	54766.20
532.99	55128.98
533.16	54784.92
533.33	55159.41
533.50	55093.87
533.67	55185.15
533.84	55037.70
534.01	55168.77
534.18	55297.50
534.35	55512.83
534.52	55384.10
534.69	55430.91
534.86	55360.69
535.03	55374.73
535.20	55423.89
535.37	55601.77
535.54	55573.68
535.71	55358.35
535.88	55753.90
536.05	55676.66
536.22	55742.20
536.38	55922.42
536.55	55683.69
536.72	55819.44
536.89	55686.03
537.06	55845.18
537.23	56002.00
537.40	55856.88
537.57	55924.76
537.74	56018.38
537.91	56259.46
538.08	56432.66
538.25	56109.66
538.42	56238.39
538.59	56371.80
538.75	56294.56
538.92	56477.13
539.09	56552.02
539.26	56346.06
539.43	56442.02
539.60	56364.78
539.77	56420.95
539.94	56781.40
540.11	56477.13
540.28	56795.44
540.44	56554.36
540.61	57015.45
540.78	56638.62
540.95	56722.88
541.12	56505.21
541.29	56683.09
541.46	56863.32
541.62	56968.64
541.79	56980.34
541.96	56591.81
542.13	56889.06
542.30	56872.68
542.47	57106.73
542.63	57099.71
542.80	57183.97
542.97	57350.15
543.14	57270.57
543.31	57347.81
543.48	57649.74
543.64	57640.37
543.81	57450.79
543.98	57289.29
544.15	57616.97
544.32	57551.43
544.48	57663.78
544.65	57542.07
544.82	57860.38
544.99	57382.91
545.16	57523.35
545.32	57745.70
545.49	57911.88
545.66	58045.29
545.83	57879.11
546.00	57991.45
546.16	57886.13
546.33	57841.66
546.50	57565.48
546.67	58073.37
546.83	57652.08
547.00	58080.39
547.17	58021.88
547.34	57939.96
547.50	58234.87
547.67	58307.43
547.84	58089.76
548.00	58398.71
548.17	58319.13
548.34	58379.98
548.51	58447.86
548.67	58394.03
548.84	58417.43
549.01	58335.51
549.18	58450.20
549.34	58361.26
549.51	58344.87
549.68	58665.53
549.84	58471.26
550.01	58571.91
550.18	58602.33
550.34	58642.12
550.51	58887.88
550.68	58522.76
550.84	58527.44
551.01	58976.82
551.18	58768.51
551.34	58726.38
551.51	58911.28
551.68	58644.46
551.84	58653.82
552.01	58628.08
552.18	59091.51
552.34	58536.80
552.51	58958.09
552.68	58930.01
552.84	59032.99
553.01	58965.12
553.18	58922.99
553.34	58955.75
553.51	58979.16
553.67	58979.16
553.84	59030.65
554.01	59068.10
554.17	59250.66
554.34	59224.92
554.51	59217.89
554.67	59182.79
554.84	59276.41
555.00	59278.75
555.17	59243.64
555.33	59030.65
555.50	59332.58
555.67	59171.08
555.83	59346.62
556.00	59573.66
556.16	59622.81
556.33	59564.29
556.50	59458.97
556.66	59517.48
556.83	59412.16
556.99	59463.65
557.16	59697.70
557.32	59753.88
557.49	59730.47
557.65	59655.57
557.82	59377.05
557.98	59749.20
558.15	59583.02
558.32	59767.92
558.48	59587.70
558.65	59805.37
558.81	59550.25
558.98	59756.22
559.14	59826.43
559.31	60032.40
559.47	59962.18
559.64	60055.81
559.80	60046.44
559.97	59966.87
560.13	59882.61
560.30	60093.25
560.46	60081.55
560.63	60076.87
560.79	59852.18
560.96	60095.60
561.12	60109.64
561.29	60133.04
561.45	60065.17
561.61	60013.68
561.78	59941.12
561.94	59910.69
562.11	60193.90
562.27	60264.11
562.44	60212.62
562.60	60324.97
562.77	60221.98
562.93	60198.58
563.10	60200.92
563.26	60088.57
563.42	60491.15
563.59	60317.95
563.75	60121.34
563.92	60343.69
564.08	60264.11
564.24	60418.59
564.41	60301.56
564.57	60406.89
564.74	60399.86
564.90	60390.50
565.07	60322.63
565.23	60226.66
565.39	60355.39
565.56	60507.53
565.72	60168.15
565.88	60612.85
566.05	60306.24
566.21	60432.63
566.38	60399.86
566.54	60654.98
566.70	60488.80
566.87	60713.50
567.03	60310.92
567.19	60568.38
567.36	60282.84
567.52	60514.55
567.68	60800.10
567.85	60523.91
568.01	60713.50
568.17	60713.50
568.34	60650.30
568.50	60458.38
568.66	60491.15
568.83	60596.47
568.99	60664.35
569.15	60678.39
569.32	60589.45
569.48	60397.52
569.64	60762.65
569.81	60608.17
569.97	60715.84
570.13	60741.58
570.30	60781.37
570.46	60645.62
570.62	60753.29
570.78	60676.05
570.95	60776.69
571.11	60919.46
571.27	60797.76
571.43	60666.69
571.60	60774.35
571.76	60898.40
571.92	60676.05
572.09	60886.70
572.25	60851.59
572.41	60830.52
572.57	60739.24
572.74	61052.87
572.90	60748.60
573.06	61043.51
573.22	60853.93
573.38	60807.12
573.55	60870.31
573.71	60945.21
573.87	60956.91
574.03	60907.76
574.20	60814.14
574.36	60893.72
574.52	60938.19
574.68	60919.46
574.84	60999.04
575.01	61155.86
575.17	60891.38
575.33	60924.14
575.49	60959.25
575.65	60970.96
575.82	60945.21
575.98	60823.50
576.14	61202.67
576.30	61151.18
576.46	60992.02
576.62	61064.58
576.79	60926.49
576.95	60893.72
577.11	61095.00
577.27	61197.99
577.43	61183.94
577.59	61041.17
577.75	60889.04
577.92	61034.15
578.08	61087.98
578.24	60910.10
578.40	61083.30
578.56	61286.93
578.72	61099.68
578.88	61045.85
579.04	61322.04
579.21	61249.48
579.37	61095.00
579.53	61226.07
579.69	61008.40
579.85	61219.05
580.01	61247.14
580.17	60996.70
580.33	61097.34
580.49	61017.77
580.65	61050.53
580.82	61141.81
580.98	60921.80
581.14	60818.82
581.30	61165.22
581.46	61141.81
581.62	61083.30
581.78	61148.84
581.94	61214.37
582.10	60963.93
582.26	61027.13
582.42	60980.32
582.58	61055.21
582.74	61209.69
582.90	61127.77
583.06	61092.66
583.22	61167.56
583.38	61263.52
583.54	61073.94
583.70	61242.46
583.86	61251.82
584.02	60985.00
584.18	61303.31
584.34	61195.65
584.50	61153.52
584.66	61036.49
584.82	60884.36
584.98	61366.51
585.14	61226.07
585.30	61298.63
585.46	61352.46
585.62	61144.16
585.78	61422.68
585.94	61162.88
586.10	61183.94
586.26	61207.35
586.42	61296.29
586.58	61396.93
586.74	61235.44
586.90	61235.44
587.06	61045.85
587.22	61284.59
587.38	61293.95
587.54	61396.93
587.70	61415.66
587.86	61216.71
588.02	61408.64
588.18	61371.19
588.34	60970.96
588.49	61209.69
