SpectraSuite Data File
++++++++++++++++++++++++++++++++++++
Date: Fri Oct 25 10:46:58 EDT 2013
User: price-jones
Dark Spectrum Present: No
Reference Spectrum Present: No
Number of Sampled Component Spectra: 1
Spectrometers: USB2+H05261
Integration Time (usec): 100000 (USB2+H05261)
Spectra Averaged: 1 (USB2+H05261)
Boxcar Smoothing: 0 (USB2+H05261)
Correct for Electrical Dark: No (USB2+H05261)
Strobe/Lamp Enabled: No (USB2+H05261)
Correct for Detector Non-linearity: No (USB2+H05261)
Correct for Stray Light: No (USB2+H05261)
Number of Pixels in Processed Spectrum: 2048
>>>>>Begin Processed Spectral Data<<<<<
365.73	131.07
365.92	131.07
366.12	131.07
366.32	70.22
366.52	58.51
366.72	44.47
366.91	30.43
367.11	65.54
367.31	42.13
367.51	25.75
367.70	16.38
367.90	100.64
368.10	16.38
368.30	81.92
368.49	88.94
368.69	72.56
368.89	39.79
369.09	28.09
369.28	0.00
369.48	28.09
369.68	88.94
369.87	70.22
370.07	140.43
370.27	205.97
370.47	191.92
370.66	404.91
370.86	475.13
371.06	491.51
371.25	510.24
371.45	486.83
371.65	496.19
371.84	435.34
372.04	456.40
372.24	552.37
372.44	505.56
372.63	526.62
372.83	531.30
373.03	526.62
373.22	514.92
373.42	543.00
373.62	580.45
373.81	547.69
374.01	592.16
374.21	505.56
374.40	517.26
374.60	512.58
374.79	575.77
374.99	645.99
375.19	624.92
375.38	582.79
375.58	645.99
375.78	596.84
375.97	594.50
376.17	648.33
376.37	629.60
376.56	578.11
376.76	627.26
376.95	603.86
377.15	636.63
377.35	599.18
377.54	648.33
377.74	643.65
377.93	653.01
378.13	636.63
378.33	676.41
378.52	664.71
378.72	608.54
378.91	676.41
379.11	634.29
379.31	655.35
379.50	671.73
379.70	660.03
379.89	643.65
380.09	704.50
380.28	683.44
380.48	699.82
380.68	697.48
380.87	631.94
381.07	711.52
381.26	678.76
381.46	711.52
381.65	676.41
381.85	683.44
382.04	774.72
382.24	727.91
382.43	709.18
382.63	718.54
382.83	678.76
383.02	746.63
383.22	739.61
383.41	739.61
383.61	777.06
383.80	774.72
384.00	772.38
384.19	702.16
384.39	727.91
384.58	739.61
384.78	828.55
384.97	814.51
385.17	833.23
385.36	779.40
385.56	772.38
385.75	835.57
385.95	809.83
386.14	847.27
386.34	849.61
386.53	840.25
386.72	847.27
386.92	858.98
387.11	901.11
387.31	889.40
387.50	786.42
387.70	781.74
387.89	898.77
388.09	863.66
388.28	840.25
388.48	844.93
388.67	894.08
388.86	903.45
389.06	938.55
389.25	964.30
389.45	917.49
389.64	1015.79
389.84	976.00
390.03	973.66
390.22	954.94
390.42	896.43
390.61	1001.75
390.81	936.21
391.00	1036.86
391.19	1027.50
391.39	985.37
391.58	976.00
391.78	1013.45
391.97	1015.79
392.16	1046.22
392.36	1055.58
392.55	938.55
392.75	945.58
392.94	1048.56
393.13	1071.97
393.33	943.24
393.52	1050.90
393.71	1132.82
393.91	1076.65
394.10	1076.65
394.29	1196.01
394.49	1100.05
394.68	1160.91
394.88	1146.86
395.07	1111.75
395.26	1102.39
395.46	1231.12
395.65	1254.53
395.84	1125.80
396.04	1181.97
396.23	1193.67
396.42	1184.31
396.62	1191.33
396.81	1196.01
397.00	1186.65
397.19	1256.87
397.39	1277.93
397.58	1261.55
397.77	1289.64
397.97	1394.96
398.16	1373.89
398.35	1376.24
398.55	1394.96
398.74	1451.13
398.93	1472.20
399.12	1411.34
399.32	1390.28
399.51	1444.11
399.70	1558.80
399.90	1432.41
400.09	1455.81
400.28	1610.29
400.47	1430.07
400.67	1514.33
400.86	1434.75
401.05	1652.42
401.24	1554.12
401.44	1577.52
401.63	1591.56
401.82	1643.06
402.01	1582.20
402.21	1685.19
402.40	1661.78
402.59	1598.59
402.78	1617.31
402.97	1657.10
403.17	1657.10
403.36	1741.36
403.55	1699.23
403.74	1724.97
403.93	1703.91
404.13	1893.49
404.32	1764.76
404.51	1856.04
404.70	1874.77
404.89	1865.41
405.09	1968.39
405.28	1902.86
405.47	1769.44
405.66	1973.07
405.85	1909.88
406.05	1820.94
406.24	1851.36
406.43	1926.26
406.62	1956.69
406.81	1982.43
407.00	1923.92
407.20	1956.69
407.39	1926.26
407.58	1989.46
407.77	1989.46
407.96	2132.23
408.15	2097.12
408.34	2120.53
408.54	2181.38
408.73	2132.23
408.92	2183.72
409.11	2197.76
409.30	2101.80
409.49	2139.25
409.68	2155.63
409.87	2218.83
410.07	2260.96
410.26	2246.91
410.45	2221.17
410.64	2291.38
410.83	2214.15
411.02	2497.35
411.21	2525.44
411.40	2480.97
411.59	2443.52
411.78	2464.58
411.98	2424.80
412.17	2518.42
412.36	2553.52
412.55	2567.57
412.74	2698.64
412.93	2675.23
413.12	2569.91
413.31	2801.62
413.50	2768.85
413.69	2745.45
413.88	2818.00
414.07	2794.60
414.26	2785.24
414.45	2766.51
414.64	2792.26
414.83	2911.63
415.02	3005.25
415.22	2918.65
415.41	3033.33
415.60	2881.20
415.79	3033.33
415.98	3005.25
416.17	3155.04
416.36	3094.19
416.55	3190.15
416.74	3155.04
416.93	3117.59
417.12	3098.87
417.31	3178.45
417.50	3145.68
417.69	3227.60
417.88	3344.63
418.07	3218.24
418.26	3169.09
418.45	3356.33
418.64	3342.28
418.83	3510.80
419.02	3447.61
419.21	3417.18
419.39	3428.88
419.58	3405.48
419.77	3482.72
419.96	3358.67
420.15	3578.68
420.34	3503.78
420.53	3578.68
420.72	3604.42
420.91	3684.00
421.10	3604.42
421.29	3709.75
421.48	3625.49
421.67	3712.09
421.86	3588.04
422.05	3740.18
422.24	3719.11
422.43	3672.30
422.61	3669.96
422.80	3651.24
422.99	3777.62
423.18	3765.92
423.37	3840.82
423.56	3684.00
423.75	3686.34
423.94	3632.51
424.13	3424.20
424.32	3775.28
424.50	3801.03
424.69	3812.73
424.88	3775.28
425.07	3714.43
425.26	3765.92
425.45	3794.01
425.64	3936.78
425.83	3695.71
426.01	3784.65
426.20	3887.63
426.39	3772.94
426.58	3854.86
426.77	3908.69
426.96	3899.33
427.15	3934.44
427.33	3934.44
427.52	3859.54
427.71	3934.44
427.90	4007.00
428.09	4086.58
428.28	4009.34
428.46	3873.59
428.65	4086.58
428.84	3992.95
429.03	4142.75
429.22	4060.83
429.40	3941.46
429.59	3962.53
429.78	3894.65
429.97	3889.97
430.16	4109.98
430.34	4014.02
430.53	4154.45
430.72	4161.47
430.91	4102.96
431.10	4100.62
431.28	4390.84
431.47	4428.29
431.66	4463.40
431.85	4241.05
432.03	4376.80
432.22	4510.21
432.41	4390.84
432.60	4517.23
432.79	4435.32
432.97	4652.98
433.16	4475.10
433.35	4447.02
433.54	4463.40
433.72	4606.17
433.91	4477.44
434.10	4652.98
434.28	4369.78
434.47	4589.79
434.66	4704.48
434.85	4762.99
435.03	4688.09
435.22	4681.07
435.41	4826.18
435.59	4915.12
435.78	4854.27
435.97	4868.31
436.16	4959.60
436.34	4936.19
436.53	4809.80
436.72	5043.85
436.90	4901.08
437.09	4898.74
437.28	4849.59
437.46	5032.15
437.65	5018.11
437.84	4844.91
438.02	4901.08
438.21	5013.43
438.40	4929.17
438.58	5268.55
438.77	5193.65
438.96	5153.86
439.14	5291.95
439.33	5399.62
439.52	5411.32
439.70	5362.17
439.89	5373.87
440.08	5495.58
440.26	5638.35
440.45	5537.71
440.63	5694.52
440.82	5652.39
441.01	5863.04
441.19	5788.14
441.38	5799.85
441.57	5837.30
441.75	5949.64
441.94	5947.30
442.12	6083.05
442.31	6003.47
442.50	6134.54
442.68	6118.16
442.87	6148.59
443.05	6125.18
443.24	6139.23
443.43	6076.03
443.61	6155.61
443.80	6384.98
443.98	6033.90
444.17	6036.24
444.35	6279.66
444.54	6415.41
444.73	6216.46
444.91	6235.19
445.10	6122.84
445.28	6328.81
445.47	6167.31
445.65	6120.50
445.84	6059.65
446.02	6284.34
446.21	6143.91
446.39	6267.95
446.58	6443.49
446.77	6387.32
446.95	6377.96
447.14	6424.77
447.32	6459.88
447.51	6345.19
447.69	6497.33
447.88	6406.05
448.06	6413.07
448.25	6511.37
448.43	6443.49
448.62	6494.99
448.80	6408.39
448.99	6511.37
449.17	6644.78
449.36	6399.02
449.54	6607.33
449.73	6792.23
449.91	6733.72
450.10	6722.02
450.28	6839.05
450.46	7028.63
450.65	6604.99
450.83	6981.82
451.02	6930.33
451.20	6977.14
451.39	6904.58
451.57	6715.00
451.76	6850.75
451.94	6977.14
452.13	7026.29
452.31	6970.12
452.49	6743.08
452.68	6829.68
452.86	6876.49
453.05	6860.11
453.23	6979.48
453.42	7005.22
453.60	7105.87
453.78	7185.44
453.97	7105.87
454.15	7204.17
454.34	7021.61
454.52	7267.36
454.70	7180.76
454.89	7225.23
455.07	7499.08
455.26	7358.64
455.44	7194.81
455.62	7363.33
455.81	7510.78
455.99	7382.05
456.17	7440.56
456.36	7501.42
456.54	7655.89
456.73	7698.02
456.91	7695.68
457.09	7693.34
457.28	7779.94
457.46	7714.41
457.64	7838.45
457.83	7632.49
458.01	7702.70
458.19	7873.56
458.38	7990.59
458.56	8093.57
458.74	7899.31
458.93	7955.48
459.11	8063.15
459.29	8039.74
459.48	7894.63
459.66	7978.89
459.84	7941.44
460.03	8173.15
460.21	8116.98
460.39	8212.94
460.57	8194.22
460.76	8161.45
460.94	8257.41
461.12	8320.60
461.31	8430.61
461.49	8271.45
461.67	8297.20
461.85	8353.37
462.04	8477.42
462.22	8894.04
462.40	8512.53
462.59	8395.50
462.77	8409.54
462.95	8575.72
463.13	8575.72
463.32	8667.00
463.50	8645.94
463.68	8704.45
463.86	8706.79
464.05	8358.05
464.23	8458.70
464.41	8805.10
464.59	8416.57
464.78	8823.82
464.96	8961.91
465.14	8779.35
465.32	8800.41
465.50	8915.10
465.69	9032.13
465.87	8926.80
466.05	8702.11
466.23	8959.57
466.41	8732.54
466.60	8943.19
466.78	8842.54
466.96	9018.08
467.14	8758.28
467.32	8910.42
467.51	9069.58
467.69	8830.84
467.87	9085.96
468.05	9160.86
468.23	9018.08
468.41	9235.75
468.60	8929.14
468.78	9111.71
468.96	9160.86
469.14	9481.51
469.32	9282.56
469.50	9186.60
469.69	9380.87
469.87	9558.75
470.05	9488.53
470.23	9591.52
470.41	9378.53
470.59	9633.64
470.77	9537.68
470.95	9570.45
471.14	9544.70
471.32	9614.92
471.50	9834.93
471.68	9715.56
471.86	9905.15
472.04	10099.41
472.22	10122.82
472.40	9797.48
472.58	9760.03
472.77	10073.67
472.95	10132.18
473.13	10466.88
473.31	10207.08
473.49	10178.99
473.67	10148.56
473.85	10312.40
474.03	10586.24
474.21	10457.51
474.39	10604.97
474.57	10452.83
474.75	10661.14
474.93	10813.28
475.12	10707.95
475.30	10927.96
475.48	10888.17
475.66	10911.58
475.84	10892.85
476.02	10956.05
476.20	11059.03
476.38	11293.08
476.56	11475.65
476.74	11548.20
476.92	11197.12
477.10	11253.30
477.28	11592.67
477.46	11578.63
477.64	11939.07
477.82	11868.86
478.00	12051.42
478.18	12058.44
478.36	11957.80
478.54	12187.17
478.72	12390.80
478.90	12468.03
479.08	12540.59
479.26	12507.82
479.44	12734.85
479.62	12826.14
479.80	12732.51
479.98	12809.75
480.16	13362.12
480.34	12877.63
480.52	13022.74
480.70	13184.24
480.88	13006.36
481.06	13404.25
481.24	13490.85
481.41	13830.23
481.59	13745.97
481.77	13823.20
481.95	13806.82
482.13	13919.17
482.31	14050.24
482.49	14501.96
482.67	14462.17
482.85	14422.38
483.03	14616.65
483.21	14827.29
483.39	14665.80
483.57	14633.03
483.74	14909.21
483.92	15096.46
484.10	14862.40
484.28	15346.89
484.46	15597.33
484.64	15719.04
484.82	15704.99
485.00	15578.61
485.18	15756.49
485.35	16018.63
485.53	15625.42
485.71	15398.38
485.89	16262.04
486.07	15887.56
486.25	16128.63
486.43	16470.35
486.61	16601.42
486.78	16886.97
486.96	16748.87
487.14	17144.42
487.32	17081.23
487.50	17394.86
487.68	17638.28
487.85	17703.81
488.03	17921.48
488.21	17989.36
488.39	17963.61
488.57	18031.49
488.75	18108.72
488.92	18862.38
489.10	18640.03
489.28	19089.41
489.46	19026.21
489.64	18696.20
489.81	19400.70
489.99	19445.17
490.17	19573.90
490.35	19775.19
490.53	19943.70
490.70	19695.61
490.88	19871.15
491.06	20105.20
491.24	20240.95
491.41	20123.93
491.59	20130.95
491.77	20025.62
491.95	20650.55
492.13	20940.77
492.30	21083.55
492.48	20989.92
492.66	21081.21
492.84	21408.88
493.01	21163.12
493.19	21401.86
493.37	21317.60
493.54	21638.25
493.72	21830.18
493.90	21949.54
494.08	22188.28
494.25	22153.17
494.43	22389.56
494.61	22494.89
494.79	22689.15
494.96	22630.64
495.14	22654.05
495.32	22712.56
495.49	22845.97
495.67	23407.70
495.85	23028.53
496.02	23417.06
496.20	23365.57
496.38	23777.50
496.55	23676.86
496.73	24411.79
496.91	23740.05
497.09	24027.94
497.26	24137.94
497.44	24163.69
497.62	24311.14
497.79	24666.91
497.97	24570.94
498.14	24786.27
498.32	24463.28
498.50	25102.25
498.67	25287.15
498.85	25542.27
499.03	25296.51
499.20	25427.58
499.38	25329.28
499.56	25551.63
499.73	25743.55
499.91	25652.27
500.08	25572.69
500.26	25565.67
500.44	25851.22
500.61	25888.67
500.79	25858.24
500.97	25933.14
501.14	26637.64
501.32	26373.16
501.49	26328.69
501.67	26464.44
501.84	26787.43
502.02	26675.09
502.20	26838.92
502.37	27051.91
502.55	26803.82
502.72	27143.19
502.90	27744.71
503.07	27391.29
503.25	27349.16
503.43	27351.50
503.60	27725.99
503.78	27498.95
503.95	27658.11
504.13	27615.98
504.30	27910.89
504.48	28051.32
504.65	28383.68
504.83	28121.54
505.01	28416.44
505.18	27754.07
505.36	28638.80
505.53	28465.60
505.71	28865.83
505.88	29242.65
506.06	28641.14
506.23	29184.14
506.41	28570.92
506.58	29207.55
506.76	29055.41
506.93	29490.75
507.11	29364.36
507.28	29399.47
507.46	28868.17
507.63	29460.32
507.81	29474.37
507.98	29226.27
508.16	29589.05
508.33	29991.62
508.50	29830.13
508.68	30567.40
508.85	30401.22
509.03	30340.36
509.20	30045.46
509.38	30455.05
509.55	30068.86
509.73	30808.47
509.90	30438.67
510.08	30684.42
510.25	30567.40
510.42	30553.35
510.60	31161.89
510.77	31393.61
510.95	31105.72
511.12	30951.24
511.30	31316.37
511.47	31693.19
511.64	31531.70
511.82	31536.38
511.99	31278.92
512.17	31852.35
512.34	31541.06
512.51	31945.97
512.69	32002.14
512.86	31747.03
513.04	32275.99
513.21	31828.95
513.38	31948.31
513.56	31857.03
513.73	32149.60
513.90	32423.44
514.08	32044.27
514.25	32334.50
514.43	32402.38
514.60	32587.28
514.77	32470.25
514.95	32685.58
515.12	32446.85
515.29	32655.15
515.47	32989.85
515.64	33247.31
515.81	33006.23
515.99	33291.78
516.16	32823.67
516.33	32943.04
516.51	33230.93
516.68	32772.18
516.85	33331.57
517.03	33022.62
517.20	33057.73
517.37	33560.94
517.54	33579.67
517.72	33900.32
517.89	33340.93
518.06	33474.34
518.24	33460.30
518.41	33603.07
518.58	33610.09
518.75	33659.24
518.93	34216.29
519.10	34059.48
519.27	34272.46
519.45	34085.22
519.62	34656.31
519.79	34536.94
519.96	34525.24
520.14	34405.88
520.31	34347.36
520.48	34483.11
520.65	34824.83
520.83	35194.64
521.00	35283.58
521.17	35243.79
521.34	35323.36
521.52	35147.82
521.69	35318.68
521.86	35260.17
522.03	35428.69
522.20	35379.54
522.38	35634.66
522.55	35786.79
522.72	35695.51
522.89	35622.95
523.07	36151.91
523.24	35976.37
523.41	35990.42
523.58	35999.78
523.75	36369.58
523.92	36400.01
524.10	36470.23
524.27	36687.90
524.44	36830.67
524.61	36692.58
524.78	36645.77
524.96	37078.77
525.13	37326.86
525.30	37282.39
525.47	37118.56
525.64	37027.28
525.81	37015.57
525.98	37202.82
526.16	36673.85
526.33	36350.86
526.50	37141.96
526.67	36325.11
526.84	36755.77
527.01	36804.92
527.18	37394.74
527.36	37280.05
527.53	37560.92
527.70	37624.11
527.87	37696.67
528.04	37411.12
528.21	37977.53
528.38	37968.17
528.55	38422.23
528.72	38340.32
528.89	38146.05
529.07	37935.40
529.24	37666.24
529.41	37893.27
529.58	37851.14
529.75	37766.88
529.92	38394.15
530.09	38263.08
530.26	38689.06
530.43	38555.64
530.60	38141.37
530.77	38253.72
530.94	38621.18
531.11	38352.02
531.28	38700.76
531.46	38689.06
531.63	38909.07
531.80	39037.80
531.97	38930.13
532.14	39040.14
532.31	38487.77
532.48	38581.39
532.65	39278.87
532.82	38724.16
532.99	38925.45
533.16	38813.10
533.33	39381.85
533.50	39573.78
533.67	39084.61
533.84	38836.51
534.01	38979.28
534.18	39538.67
534.35	39805.49
534.52	39466.11
534.69	39660.38
534.86	39777.40
535.03	39548.03
535.20	39798.47
535.37	40060.61
535.54	40053.59
535.71	39908.47
535.88	39978.69
536.05	39835.92
536.22	40334.45
536.38	40187.00
536.55	40257.21
536.72	39936.56
536.89	39859.32
537.06	40046.57
537.23	40053.59
537.40	40486.59
537.57	40322.75
537.74	40615.32
537.91	40507.65
538.08	40650.42
538.25	39875.71
538.42	40350.84
538.59	40540.42
538.75	40442.12
538.92	40926.61
539.09	40643.40
539.26	40725.32
539.43	40444.46
539.60	40832.99
539.77	40364.88
539.94	40538.08
540.11	40720.64
540.28	41205.13
540.44	41034.27
540.61	40954.69
540.78	40807.24
540.95	41036.61
541.12	40821.28
541.29	41439.18
541.46	41221.52
541.62	40926.61
541.79	41771.54
541.96	41010.87
542.13	41776.22
542.30	41668.56
542.47	41146.62
542.63	41055.34
542.80	41434.50
542.97	42389.44
543.14	42270.08
543.31	41794.95
543.48	41738.77
543.64	42260.71
543.81	42347.31
543.98	41968.15
544.15	42284.12
544.32	42550.94
544.48	42124.96
544.65	42263.05
544.82	42267.73
544.99	42108.58
545.16	42356.67
545.32	42333.27
545.49	42885.64
545.66	42630.52
545.83	42679.67
546.00	42639.88
546.16	42644.56
546.33	43068.20
546.50	42050.06
546.67	42487.74
546.83	42344.97
547.00	42883.30
547.17	42679.67
547.34	42749.88
547.50	42784.99
547.67	43173.52
547.84	42384.76
548.00	43351.40
548.17	43042.45
548.34	43107.99
548.51	43323.32
548.67	43402.89
548.84	42749.88
549.01	43124.37
549.18	43058.84
549.34	43262.46
549.51	43423.96
549.68	43536.30
549.84	43096.28
550.01	43384.17
550.18	43386.51
550.34	43641.63
550.51	43569.07
550.68	42939.47
550.84	43199.27
551.01	43693.12
551.18	43489.49
551.34	43433.32
551.51	43496.52
551.68	43948.24
551.84	44102.71
552.01	43260.12
552.18	43524.60
552.34	43344.38
552.51	43501.20
552.68	43714.19
552.84	43887.39
553.01	44271.23
553.18	43988.03
553.34	43676.74
553.51	44149.53
553.67	43861.64
553.84	44493.58
554.01	43983.35
554.17	44163.57
554.34	43929.51
554.51	44292.30
554.67	44308.68
554.84	44142.50
555.00	44198.68
555.17	43910.79
555.33	44524.01
555.50	44048.88
555.67	44540.39
555.83	44212.72
556.00	44374.22
556.16	44753.38
556.33	44421.03
556.50	44505.29
556.66	44418.69
556.83	44271.23
556.99	44807.22
557.16	44388.26
557.32	44299.32
557.49	44531.03
557.65	44289.96
557.82	44130.80
557.98	44102.71
558.15	44362.51
558.32	44472.52
558.48	44275.91
558.65	44772.11
558.81	44519.33
558.98	44409.32
559.14	44545.08
559.31	44830.62
559.47	45052.97
559.64	45022.54
559.80	45022.54
559.97	45324.47
560.13	44641.04
560.30	44519.33
560.46	45118.51
560.63	44786.15
560.79	45359.58
560.96	45027.23
561.12	44839.98
561.29	44924.24
561.45	45027.23
561.61	44720.62
561.78	44818.92
561.94	44919.56
562.11	44849.35
562.27	45329.16
562.44	44854.03
562.60	45429.80
562.77	45062.33
562.93	45134.89
563.10	45610.02
563.26	44870.41
563.42	45546.82
563.59	44847.00
563.75	44971.05
563.92	45198.09
564.08	45003.82
564.24	45439.16
564.41	45490.65
564.57	45375.97
564.74	45560.87
564.90	45595.98
565.07	45277.66
565.23	44921.90
565.39	45139.57
565.56	45610.02
565.72	45324.47
565.88	45188.72
566.05	45146.59
566.21	45420.44
566.38	45085.74
566.54	45230.85
566.70	45350.22
566.87	45703.64
567.03	45130.21
567.19	45631.08
567.36	45450.86
567.52	45317.45
567.68	45792.58
567.85	45275.32
568.01	45776.20
568.17	45237.87
568.34	45478.95
568.50	45570.23
568.66	45048.29
568.83	45401.71
568.99	45469.59
569.15	45467.25
569.32	45708.32
569.48	44978.07
569.64	45972.80
569.81	45738.75
569.97	45860.46
570.13	45488.31
570.30	45301.07
570.46	45167.66
570.62	45537.46
570.78	45773.86
570.95	45172.34
571.11	45668.53
571.27	45233.19
571.43	45048.29
571.60	46106.21
571.76	45656.83
571.92	45254.26
572.09	45560.87
572.25	45301.07
572.41	45546.82
572.57	45921.31
572.74	46047.70
572.90	45605.34
573.06	45750.45
573.22	45741.09
573.38	45961.10
573.55	45514.06
573.71	45595.98
573.87	45563.21
574.03	45162.98
574.20	45851.09
574.36	45434.48
574.52	45610.02
574.68	45783.22
574.84	46106.21
575.01	45296.39
575.17	46241.96
575.33	45408.73
575.49	45867.48
575.65	45708.32
575.82	45839.39
575.98	45879.18
576.14	46164.73
576.30	45977.48
576.46	45727.05
576.62	45162.98
576.79	45839.39
576.95	45378.31
577.11	45471.93
577.27	45689.60
577.43	46005.57
577.59	45654.49
577.75	45869.82
577.92	45460.23
578.08	45420.44
578.24	45631.08
578.40	46110.89
578.56	45476.61
578.72	45392.35
578.88	46075.79
579.04	46099.19
579.21	45846.41
579.37	45631.08
579.53	45579.59
579.69	45949.40
579.85	45661.51
580.01	46087.49
580.17	45441.50
580.33	45886.20
580.49	45982.16
580.65	45474.27
580.82	45897.91
580.98	45930.67
581.14	45525.76
581.30	46153.02
581.46	45815.99
581.62	45820.67
581.78	45794.92
581.94	46485.38
582.10	45617.04
582.26	45977.48
582.42	45904.93
582.58	45654.49
582.74	45879.18
582.90	45595.98
583.06	45942.38
583.22	46071.10
583.38	46115.58
583.54	46267.71
583.70	45734.07
583.86	45834.71
584.02	45586.61
584.18	46080.47
584.34	45787.90
584.50	46138.98
584.66	45902.59
584.82	45720.02
584.98	46078.13
585.14	45937.69
585.30	45326.81
585.46	45921.31
585.62	45818.33
585.78	46054.72
585.94	45500.01
586.10	45949.40
586.26	45780.88
586.42	45984.51
586.58	46148.34
586.74	46052.38
586.90	45979.82
587.06	46026.63
587.22	46017.27
587.38	45572.57
587.54	46113.23
587.70	46192.81
587.86	46033.66
588.02	46232.60
588.18	46150.68
588.34	45881.52
588.49	45537.46
588.65	45624.06
588.81	45521.08
588.97	45635.77
589.13	45684.92
589.29	45790.24
589.45	45773.86
589.61	45911.95
589.77	46113.23
589.93	46248.99
590.08	46394.10
