SpectraSuite Data File
++++++++++++++++++++++++++++++++++++
Date: Fri Oct 25 11:23:07 EDT 2013
User: price-jones
Dark Spectrum Present: No
Reference Spectrum Present: No
Number of Sampled Component Spectra: 1
Spectrometers: USB2+H05261
Integration Time (usec): 100000 (USB2+H05261)
Spectra Averaged: 1 (USB2+H05261)
Boxcar Smoothing: 0 (USB2+H05261)
Correct for Electrical Dark: No (USB2+H05261)
Strobe/Lamp Enabled: No (USB2+H05261)
Correct for Detector Non-linearity: No (USB2+H05261)
Correct for Stray Light: No (USB2+H05261)
Number of Pixels in Processed Spectrum: 2048
>>>>>Begin Processed Spectral Data<<<<<
365.73	196.60
365.92	196.60
366.12	196.60
366.32	203.63
366.52	135.75
366.72	128.73
366.91	88.94
367.11	147.45
367.31	98.30
367.51	163.84
367.70	77.24
367.90	145.11
368.10	93.62
368.30	91.28
368.49	100.64
368.69	173.20
368.89	159.16
369.09	133.41
369.28	182.56
369.48	229.37
369.68	128.73
369.87	227.03
370.07	212.99
370.27	205.97
370.47	313.63
370.66	653.01
370.86	660.03
371.06	676.41
371.25	704.50
371.45	702.16
371.65	622.58
371.84	603.86
372.04	655.35
372.24	631.94
372.44	786.42
372.63	741.95
372.83	734.93
373.03	784.08
373.22	669.39
373.42	793.44
373.62	858.98
373.81	767.70
374.01	833.23
374.21	819.19
374.40	807.48
374.60	828.55
374.79	786.42
374.99	770.04
375.19	866.00
375.38	751.31
375.58	880.04
375.78	875.36
375.97	844.93
376.17	954.94
376.37	784.08
376.56	873.02
376.76	961.96
376.95	854.30
377.15	938.55
377.35	798.12
377.54	861.32
377.74	875.36
377.93	814.51
378.13	901.11
378.33	870.68
378.52	905.79
378.72	891.74
378.91	912.81
379.11	964.30
379.31	961.96
379.50	894.08
379.70	1048.56
379.89	959.62
380.09	931.53
380.28	1015.79
380.48	947.92
380.68	997.07
380.87	854.30
381.07	1064.94
381.26	1064.94
381.46	1011.11
381.65	1060.26
381.85	1064.94
382.04	1078.99
382.24	1043.88
382.43	1088.35
382.63	1008.77
382.83	952.60
383.02	1071.97
383.22	1130.48
383.41	1013.45
383.61	1008.77
383.80	1121.12
384.00	1039.20
384.19	1139.84
384.39	1191.33
384.58	1060.26
384.78	1146.86
384.97	1174.95
385.17	1188.99
385.36	1130.48
385.56	1116.44
385.75	1088.35
385.95	1174.95
386.14	1261.55
386.34	1210.06
386.53	1247.51
386.72	1207.72
386.92	1254.53
387.11	1214.74
387.31	1256.87
387.50	1273.25
387.70	1186.65
387.89	1231.12
388.09	1287.29
388.28	1322.40
388.48	1261.55
388.67	1226.44
388.86	1329.42
389.06	1352.83
389.25	1310.70
389.45	1357.51
389.64	1385.60
389.84	1334.11
390.03	1385.60
390.22	1399.64
390.42	1320.06
390.61	1399.64
390.81	1413.68
391.00	1427.73
391.19	1514.33
391.39	1504.96
391.58	1448.79
391.78	1387.94
391.97	1497.94
392.16	1493.26
392.36	1586.88
392.55	1568.16
392.75	1544.75
392.94	1500.28
393.13	1455.81
393.33	1579.86
393.52	1476.88
393.71	1596.25
393.91	1521.35
394.10	1605.61
394.29	1647.74
394.49	1593.90
394.68	1638.38
394.88	1708.59
395.07	1661.78
395.26	1720.29
395.46	1743.70
395.65	1743.70
395.84	1696.89
396.04	1739.02
396.23	1743.70
396.42	1809.23
396.62	1746.04
396.81	1741.36
397.00	1853.70
397.19	1867.75
397.39	1776.47
397.58	1699.23
397.77	1746.04
397.97	1860.73
398.16	2017.54
398.35	1928.60
398.55	1781.15
398.74	1888.81
398.93	2022.22
399.12	2040.95
399.32	1893.49
399.51	2071.37
399.70	2104.14
399.90	1902.86
400.09	2078.40
400.28	2045.63
400.47	2019.88
400.67	2139.25
400.86	2069.03
401.05	2150.95
401.24	2047.97
401.44	2071.37
401.63	2263.30
401.82	2267.98
402.01	2190.74
402.21	2228.19
402.40	2239.89
402.59	2249.25
402.78	2359.26
402.97	2183.72
403.17	2319.47
403.36	2204.78
403.55	2356.92
403.74	2406.07
403.93	2422.45
404.13	2340.54
404.32	2406.07
404.51	2340.54
404.70	2424.80
404.89	2450.54
405.09	2532.46
405.28	2532.46
405.47	2476.29
405.66	2551.18
405.85	2497.35
406.05	2590.97
406.24	2576.93
406.43	2597.99
406.62	2717.36
406.81	2670.55
407.00	2729.06
407.20	2717.36
407.39	2630.76
407.58	2729.06
407.77	2750.13
407.96	2679.91
408.15	2785.24
408.34	2787.58
408.54	2792.26
408.73	2881.20
408.92	2897.58
409.11	2803.96
409.30	3000.57
409.49	2864.82
409.68	2974.82
409.87	2902.26
410.07	3056.74
410.26	3026.31
410.45	3014.61
410.64	3084.83
410.83	3112.91
411.02	3164.40
411.21	3117.59
411.40	3159.72
411.59	3283.77
411.78	3253.34
411.98	3227.60
412.17	3213.56
412.36	3300.16
412.55	3407.82
412.74	3538.89
412.93	3396.12
413.12	3513.14
413.31	3688.68
413.50	3447.61
413.69	3459.31
413.88	3742.52
414.07	3646.55
414.26	3691.02
414.45	3744.86
414.64	3679.32
414.83	3712.09
415.02	3871.25
415.22	3852.52
415.41	3960.19
415.60	3964.87
415.79	3878.27
415.98	4072.53
416.17	4140.41
416.36	3904.01
416.55	4053.81
416.74	4224.67
416.93	4009.34
417.12	4175.52
417.31	4388.50
417.50	4180.20
417.69	4257.43
417.88	4360.42
418.07	4177.86
418.26	4311.27
418.45	4360.42
418.64	4479.79
418.83	4386.16
419.02	4383.82
419.21	4421.27
419.39	4547.66
419.58	4519.57
419.77	4390.84
419.96	4657.67
420.15	4631.92
420.34	4669.37
420.53	4727.88
420.72	4704.48
420.91	4744.27
421.10	4826.18
421.29	4861.29
421.48	4767.67
421.67	4938.53
421.86	4856.61
422.05	4737.24
422.24	4758.31
422.43	4901.08
422.61	5015.77
422.80	4983.00
422.99	4889.38
423.18	4952.57
423.37	5144.50
423.56	5006.41
423.75	5032.15
423.94	4851.93
424.13	4727.88
424.32	4915.12
424.50	4987.68
424.69	5146.84
424.88	5022.79
425.07	4945.55
425.26	4929.17
425.45	5177.26
425.64	4994.70
425.83	5097.69
426.01	5170.24
426.20	5020.45
426.39	5231.10
426.58	5036.83
426.77	5074.28
426.96	5179.61
427.15	5104.71
427.33	5301.31
427.52	5310.68
427.71	5212.37
427.90	5212.37
428.09	5310.68
428.28	5364.51
428.46	5226.42
428.65	5418.34
428.84	5706.23
429.03	5591.54
429.22	5242.80
429.40	5614.95
429.59	5507.28
429.78	5392.59
429.97	5224.08
430.16	5568.13
430.34	5659.42
430.53	5720.27
430.72	5593.88
430.91	5837.30
431.10	5685.16
431.28	5874.74
431.47	5809.21
431.66	5617.29
431.85	5846.66
432.03	5914.53
432.22	6003.47
432.41	5987.09
432.60	5984.75
432.79	5944.96
432.97	6003.47
433.16	6001.13
433.35	6029.22
433.54	5982.41
433.72	5996.45
433.91	6244.55
434.10	6045.60
434.28	6176.67
434.47	6429.45
434.66	6267.95
434.85	6279.66
435.03	6286.68
435.22	6417.75
435.41	6532.44
435.59	6420.09
435.78	6431.79
435.97	6757.13
436.16	6574.56
436.34	6581.59
436.53	6719.68
436.72	6864.79
436.90	6335.83
437.09	6621.38
437.28	6672.87
437.46	6656.48
437.65	6583.93
437.84	6712.66
438.02	6703.29
438.21	6715.00
438.40	6817.98
438.58	7068.42
438.77	7030.97
438.96	7063.74
439.14	7183.10
439.33	7136.29
439.52	7243.96
439.70	7466.31
439.89	7489.71
440.08	7517.80
440.26	7499.08
440.45	7489.71
440.63	7297.79
440.82	7632.49
441.01	7728.45
441.19	7742.49
441.38	7866.54
441.57	7840.79
441.75	7808.03
441.94	8210.60
442.12	8121.66
442.31	7983.57
442.50	8163.79
442.68	8100.59
442.87	8067.83
443.05	8234.00
443.24	8133.36
443.43	8304.22
443.61	8304.22
443.80	8430.61
443.98	8023.36
444.17	8030.38
444.35	8336.99
444.54	8496.14
444.73	8170.81
444.91	8461.04
445.10	8294.86
445.28	8528.91
445.47	8365.07
445.65	8231.66
445.84	8608.49
446.02	8528.91
446.21	8638.92
446.39	8517.21
446.58	8713.81
446.77	8730.20
446.95	8470.40
447.14	8290.18
447.32	8704.45
447.51	8500.83
447.69	8500.83
447.88	8585.08
448.06	8564.02
448.25	8542.96
448.43	8704.45
448.62	8833.18
448.80	8734.88
448.99	8777.01
449.17	8844.88
449.36	8781.69
449.54	8957.23
449.73	9158.52
449.91	9111.71
450.10	9011.06
450.28	9029.79
450.46	9275.54
450.65	9170.22
450.83	9081.28
451.02	9032.13
451.20	9132.77
451.39	9039.15
451.57	9245.12
451.76	9195.96
451.94	9188.94
452.13	9430.02
452.31	9296.61
452.49	9270.86
452.68	9273.20
452.86	9511.94
453.05	9745.99
453.23	9631.30
453.42	9334.06
453.60	9509.60
453.78	9408.95
453.97	9465.13
454.15	9533.00
454.34	9394.91
454.52	9640.67
454.70	9764.72
454.89	9788.12
455.07	9778.76
455.26	10005.79
455.44	10183.67
455.62	10061.96
455.81	10040.90
455.99	9963.66
456.17	10094.73
456.36	10228.14
456.54	10303.04
456.73	10263.25
456.91	10593.26
457.09	10464.54
457.28	10698.59
457.46	10607.31
457.64	10593.26
457.83	10633.05
458.01	10289.00
458.19	10855.40
458.38	10410.70
458.56	10981.79
458.74	10752.42
458.93	10712.63
459.11	10637.73
459.29	10698.59
459.48	10888.17
459.66	11030.94
459.84	10972.43
460.03	11110.52
460.21	11082.44
460.39	10981.79
460.57	11276.70
460.76	11396.07
460.94	11154.99
461.12	11379.68
461.31	11154.99
461.49	11145.63
461.67	11290.74
461.85	11700.34
462.04	11417.13
462.22	11740.13
462.40	11655.87
462.59	11761.19
462.77	11714.38
462.95	11906.31
463.13	11857.15
463.32	11557.57
463.50	11808.00
463.68	11840.77
463.86	12154.40
464.05	11798.64
464.23	11609.06
464.41	12135.68
464.59	11726.08
464.78	12332.28
464.96	12030.35
465.14	11772.89
465.32	12322.92
465.50	12360.37
465.69	12243.34
465.87	12175.47
466.05	11943.75
466.23	12294.83
466.41	12421.22
466.60	12568.68
466.78	12236.32
466.96	12238.66
467.14	12468.03
467.32	12414.20
467.51	12758.26
467.69	12484.42
467.87	12273.77
468.05	12713.79
468.23	12657.62
468.41	12547.61
468.60	12781.67
468.78	12903.37
468.96	12809.75
469.14	12924.44
469.32	13125.72
469.50	12582.72
469.69	12938.48
469.87	13188.92
470.05	13284.88
470.23	13153.81
470.41	13139.77
470.59	13774.05
470.77	13242.75
470.95	13486.17
471.14	13563.40
471.32	13451.06
471.50	13673.41
471.68	13635.96
471.86	13806.82
472.04	13745.97
472.22	13689.79
472.40	13905.12
472.58	13921.51
472.77	14113.43
472.95	14317.06
473.13	14649.41
473.31	13968.32
473.49	14363.87
473.67	14520.68
473.85	14506.64
474.03	14747.72
474.21	14759.42
474.39	15021.56
474.57	14902.19
474.75	15239.23
474.93	15037.94
475.12	15002.83
475.30	15557.54
475.48	15276.68
475.66	15468.60
475.84	15222.84
476.02	15459.24
476.20	15744.78
476.38	15763.51
476.56	16133.31
476.74	15988.20
476.92	16107.57
477.10	15967.13
477.28	16503.12
477.46	16252.68
477.64	16634.19
477.82	16688.02
478.00	17034.42
478.18	16673.98
478.36	17032.08
478.54	17235.70
478.72	17486.14
478.90	17664.02
479.08	17727.22
479.26	17682.75
479.44	18087.66
479.62	17759.98
479.80	18448.10
479.98	18387.25
480.16	18700.88
480.34	18457.46
480.52	18686.84
480.70	18621.30
480.88	18621.30
481.06	18848.33
481.24	18939.62
481.41	19669.86
481.59	19548.15
481.77	19625.39
481.95	20030.30
482.13	20018.60
482.31	19754.12
482.49	20549.90
482.67	20435.22
482.85	20695.02
483.03	20900.98
483.21	21022.69
483.39	21245.04
483.57	21226.32
483.74	20957.16
483.92	21741.24
484.10	21397.18
484.28	21783.37
484.46	22302.96
484.64	22759.37
484.82	22139.13
485.00	22525.32
485.18	22972.36
485.35	23103.43
485.53	23161.94
485.71	23293.01
485.89	23770.48
486.07	23648.77
486.25	23728.35
486.43	23772.82
486.61	24023.26
486.78	24549.88
486.96	24226.89
487.14	24669.25
487.32	25109.27
487.50	25076.50
487.68	25399.49
487.85	25322.26
488.03	25972.92
488.21	25947.18
488.39	26361.45
488.57	26799.13
488.75	26469.12
488.92	26792.11
489.10	26993.40
489.28	26710.19
489.46	27693.22
489.64	27391.29
489.81	27730.67
489.99	27835.99
490.17	28173.03
490.35	28481.98
490.53	28407.08
490.70	28563.90
490.88	28491.34
491.06	28922.00
491.24	29069.45
491.41	29216.91
491.59	29783.32
491.77	29523.52
491.95	29963.54
492.13	30206.95
492.30	30356.75
492.48	30366.11
492.66	30738.26
492.84	30656.34
493.01	30824.86
493.19	31143.17
493.37	31129.12
493.54	31482.55
493.72	31618.30
493.90	32133.21
494.08	32105.13
494.25	31941.29
494.43	32297.05
494.61	32472.59
494.79	32896.23
494.96	32610.68
495.14	32987.51
495.32	33727.12
495.49	33558.60
495.67	33715.42
495.85	33776.27
496.02	34508.86
496.20	34249.06
496.38	33897.98
496.55	34555.67
496.73	34785.04
496.91	35115.06
497.09	35086.97
497.26	35000.37
497.44	35494.22
497.62	35690.83
497.79	36222.13
497.97	35817.22
498.14	36582.57
498.32	36708.96
498.50	36547.47
498.67	37207.50
498.85	36980.46
499.03	37109.19
499.20	36982.80
499.38	37156.00
499.56	37729.44
499.73	37904.98
499.91	37785.61
500.08	38106.26
500.26	37743.48
500.44	38000.94
500.61	37914.34
500.79	38171.80
500.97	38625.86
501.14	39356.11
501.32	39056.52
501.49	38855.23
501.67	38424.57
501.84	39498.88
502.02	39309.30
502.20	39351.43
502.37	39948.26
502.55	39683.78
502.72	40002.10
502.90	40098.06
503.07	40128.48
503.25	39999.76
503.43	40364.88
503.60	40858.73
503.78	40816.60
503.95	40598.93
504.13	40687.87
504.30	40933.63
504.48	41113.85
504.65	41291.73
504.83	41343.22
505.01	41755.16
505.18	41631.11
505.36	42101.56
505.53	41731.75
505.71	41734.09
505.88	42050.06
506.06	42422.21
506.23	42110.92
506.41	42508.81
506.58	42555.62
506.76	42787.33
506.93	43143.09
507.11	42508.81
507.28	42801.38
507.46	43208.63
507.63	43344.38
507.81	43983.35
507.98	43335.02
508.16	43459.07
508.33	43639.29
508.50	43999.73
508.68	44107.40
508.85	44154.21
509.03	44313.36
509.20	44196.34
509.38	44652.74
509.55	44566.14
509.73	44673.81
509.90	44830.62
510.08	45130.21
510.25	44870.41
510.42	45329.16
510.60	45081.06
510.77	45460.23
510.95	46054.72
511.12	45663.85
511.30	45516.40
511.47	45846.41
511.64	45895.56
511.82	46316.86
511.99	45984.51
512.17	46337.93
512.34	46684.33
512.51	46822.42
512.69	47068.17
512.86	47004.98
513.04	47129.03
513.21	47512.88
513.38	46946.47
513.56	47400.53
513.73	47232.01
513.90	47416.91
514.08	47496.49
514.25	47892.04
514.43	47882.68
514.60	48203.33
514.77	47674.37
514.95	47976.30
515.12	48112.05
515.29	47847.57
515.47	48432.71
515.64	48762.72
515.81	48949.96
515.99	48641.01
516.16	48865.70
516.33	48818.89
516.51	48933.58
516.68	48641.01
516.85	48959.33
517.03	49109.12
517.20	49326.79
517.37	49106.78
517.54	49317.43
517.72	49233.17
517.89	49446.16
518.06	49675.53
518.24	49698.94
518.41	49717.66
518.58	49649.78
518.75	49900.22
518.93	49958.73
519.10	49921.29
519.27	50136.62
519.45	50447.91
519.62	50239.60
519.79	50085.12
519.96	50370.67
520.14	50525.14
520.31	50461.95
520.48	50665.58
520.65	50890.27
520.83	51161.77
521.00	51157.09
521.17	50773.24
521.34	50735.79
521.52	50810.69
521.69	51356.03
521.86	51311.56
522.03	51519.87
522.20	51718.82
522.38	52009.04
522.55	51845.21
522.72	51772.65
522.89	51526.89
523.07	52154.16
523.24	51969.26
523.41	51922.44
523.58	51636.90
523.75	52395.23
523.92	52151.82
524.10	52416.30
524.27	52582.48
524.44	52411.62
524.61	52526.30
524.78	52495.88
524.96	52559.07
525.13	52348.42
525.30	52786.10
525.47	52917.17
525.64	52931.22
525.81	52999.09
525.98	53345.49
526.16	52823.55
526.33	53015.47
526.50	53366.55
526.67	53282.30
526.84	53179.31
527.01	52996.75
527.18	53303.36
527.36	53153.57
527.53	53425.07
527.70	53616.99
527.87	53649.76
528.04	53563.16
528.21	53612.31
528.38	53553.80
528.55	53958.71
528.72	53638.06
528.89	53778.49
529.07	53832.32
529.24	53602.95
529.41	53921.26
529.58	54342.56
529.75	54138.93
529.92	54232.55
530.09	53944.67
530.26	54302.77
530.43	54295.75
530.60	54099.14
530.77	54291.07
530.94	54349.58
531.11	54372.99
531.28	54536.82
531.46	54522.78
531.63	54560.23
531.80	54511.08
531.97	54754.49
532.14	54787.26
532.31	54976.84
532.48	54695.98
532.65	55089.19
532.82	54728.75
532.99	54672.57
533.16	54953.44
533.33	55004.93
533.50	55257.71
533.67	54843.43
533.84	54883.22
534.01	55154.72
534.18	55241.32
534.35	55463.67
534.52	55348.99
534.69	55650.92
534.86	55550.27
535.03	55325.58
535.20	55522.19
535.37	55578.36
535.54	55781.99
535.71	55433.25
535.88	55791.35
536.05	55793.69
536.22	55941.14
536.38	55835.82
536.55	55772.63
536.72	55777.31
536.89	55924.76
537.06	55880.29
537.23	55969.23
537.40	55896.67
537.57	56044.13
537.74	56090.94
537.91	56214.99
538.08	55917.74
538.25	55964.55
538.42	56147.11
538.59	56280.52
538.75	56182.22
538.92	56126.05
539.09	56575.43
539.26	56257.12
539.43	56535.64
539.60	56505.21
539.77	56418.61
539.94	56743.95
540.11	56692.46
540.28	56446.70
540.44	56519.26
540.61	56914.81
540.78	56711.18
540.95	56519.26
541.12	56779.06
541.29	56886.72
541.46	57015.45
541.62	56921.83
541.79	57013.11
541.96	56659.69
542.13	56896.08
542.30	56940.55
542.47	57190.99
542.63	57078.64
542.80	57139.50
542.97	57071.62
543.14	57406.32
543.31	57261.21
543.48	57434.41
543.64	57748.04
543.81	57771.44
543.98	57773.78
544.15	57446.11
544.32	57738.68
544.48	57825.28
544.65	57677.82
544.82	57712.93
544.99	57556.11
545.16	57724.63
545.32	57581.86
545.49	58040.60
545.66	57984.43
545.83	57853.36
546.00	57883.79
546.16	58129.54
546.33	57499.94
546.50	57895.49
546.67	57949.32
546.83	57691.86
547.00	58197.42
547.17	57928.26
547.34	58033.58
547.50	58164.65
547.67	58412.75
547.84	58375.30
548.00	58314.45
548.17	58478.28
548.34	58262.96
548.51	58412.75
548.67	58515.73
548.84	58574.25
549.01	58354.24
549.18	58588.29
549.34	58562.54
549.51	58368.28
549.68	58644.46
549.84	58609.35
550.01	58805.96
550.18	58588.29
550.34	58618.72
550.51	58712.34
550.68	58937.03
550.84	58429.13
551.01	58724.04
551.18	58820.00
551.34	58885.54
551.51	58714.68
551.68	59044.69
551.84	58873.84
552.01	58702.98
552.18	58880.86
552.34	58836.39
552.51	58976.82
552.68	58717.02
552.84	58876.18
553.01	59175.76
553.18	59063.42
553.34	59231.94
553.51	58962.78
553.67	59121.93
553.84	59196.83
554.01	59355.99
554.17	59285.77
554.34	59318.54
554.51	59133.63
554.67	59435.56
554.84	59208.53
555.00	59377.05
555.17	59353.65
555.33	59313.86
555.50	59166.40
555.67	59124.27
555.83	59318.54
556.00	59327.90
556.16	59664.94
556.33	59501.10
556.50	59332.58
556.66	59489.40
556.83	59341.94
556.99	59526.84
557.16	59781.96
557.32	59714.09
557.49	59819.41
557.65	59547.91
557.82	59821.75
557.98	59686.00
558.15	59590.04
558.32	59847.50
558.48	59531.53
558.65	59611.10
558.81	59587.70
558.98	59576.00
559.14	59971.55
559.31	60055.81
559.47	59950.48
559.64	59976.23
559.80	60006.65
559.97	59948.14
560.13	59861.54
560.30	59854.52
560.46	60156.45
560.63	59821.75
560.79	60151.77
560.96	60149.43
561.12	60128.36
561.29	60065.17
561.45	60107.30
561.61	59922.40
561.78	59990.27
561.94	60058.15
562.11	60182.19
562.27	60268.79
562.44	60303.90
562.60	60481.78
562.77	60348.37
562.93	59999.63
563.10	60210.28
563.26	60151.77
563.42	60411.57
563.59	60257.09
563.75	60320.29
563.92	60247.73
564.08	60114.32
564.24	60233.69
564.41	60123.68
564.57	60191.56
564.74	60388.16
564.90	60369.44
565.07	60374.12
565.23	60287.52
565.39	60264.11
565.56	60544.98
565.72	60348.37
565.88	60495.83
566.05	60418.59
566.21	60434.97
566.38	60570.72
566.54	60589.45
566.70	60559.02
566.87	60671.37
567.03	60430.29
567.19	60645.62
567.36	60470.08
567.52	60498.17
567.68	60652.64
567.85	60441.99
568.01	60748.60
568.17	60507.53
568.34	60748.60
568.50	60491.15
568.66	60580.09
568.83	60659.66
568.99	60645.62
569.15	60685.41
569.32	60652.64
569.48	60643.28
569.64	60795.42
569.81	60657.32
569.97	60591.79
570.13	60973.30
570.30	60734.56
570.46	60708.82
570.62	60807.12
570.78	60970.96
570.95	60678.39
571.11	60694.77
571.27	60764.99
571.43	60910.10
571.60	60825.84
571.76	60743.92
571.92	60879.67
572.09	60863.29
572.25	60926.49
572.41	61036.49
572.57	60809.46
572.74	60963.93
572.90	60589.45
573.06	60905.42
573.22	60870.31
573.38	60865.63
573.55	60715.84
573.71	60959.25
573.87	60959.25
574.03	60823.50
574.20	61036.49
574.36	60921.80
574.52	60814.14
574.68	61169.90
574.84	60987.34
575.01	60935.85
575.17	61017.77
575.33	60746.26
575.49	60977.98
575.65	61111.39
575.82	61022.45
575.98	60959.25
576.14	61324.38
576.30	61104.37
576.46	61137.13
576.62	60837.54
576.79	60989.68
576.95	60753.29
577.11	61045.85
577.27	61043.51
577.43	61205.01
577.59	61020.11
577.75	60896.06
577.92	60762.65
578.08	60945.21
578.24	61083.30
578.40	61329.06
578.56	61020.11
578.72	61078.62
578.88	61235.44
579.04	61312.67
579.21	60982.66
579.37	61139.47
579.53	61296.29
579.69	61141.81
579.85	61041.17
580.01	60956.91
580.17	61043.51
580.33	60945.21
580.49	61132.45
580.65	61001.38
580.82	61076.28
580.98	61263.52
581.14	61137.13
581.30	61338.42
581.46	61169.90
581.62	61205.01
581.78	61130.11
581.94	61186.28
582.10	61226.07
582.26	61165.22
582.42	61123.09
582.58	61270.54
582.74	61062.24
582.90	61165.22
583.06	61104.37
583.22	60966.27
583.38	61324.38
583.54	61326.72
583.70	61195.65
583.86	61144.16
584.02	61230.75
584.18	61141.81
584.34	61282.25
584.50	61186.28
584.66	60961.59
584.82	61174.58
584.98	61289.27
585.14	61270.54
585.30	61235.44
585.46	61106.71
585.62	61130.11
585.78	61399.27
585.94	61073.94
586.10	61418.00
586.26	61277.57
586.42	61169.90
586.58	61319.70
586.74	61062.24
586.90	61195.65
587.06	61179.26
587.22	61305.65
587.38	61364.17
587.54	61300.97
587.70	61364.17
587.86	61359.48
588.02	61371.19
588.18	61474.17
588.34	61298.63
588.49	61462.47
