SpectraSuite Data File
++++++++++++++++++++++++++++++++++++
Date: Fri Oct 25 10:47:14 EDT 2013
User: price-jones
Dark Spectrum Present: No
Reference Spectrum Present: No
Number of Sampled Component Spectra: 1
Spectrometers: USB2+H05261
Integration Time (usec): 100000 (USB2+H05261)
Spectra Averaged: 1 (USB2+H05261)
Boxcar Smoothing: 0 (USB2+H05261)
Correct for Electrical Dark: No (USB2+H05261)
Strobe/Lamp Enabled: No (USB2+H05261)
Correct for Detector Non-linearity: No (USB2+H05261)
Correct for Stray Light: No (USB2+H05261)
Number of Pixels in Processed Spectrum: 2048
>>>>>Begin Processed Spectral Data<<<<<
365.73	121.71
365.92	121.71
366.12	121.71
366.32	7.02
366.52	23.41
366.72	44.47
366.91	79.58
367.11	39.79
367.31	25.75
367.51	11.70
367.70	0.00
367.90	16.38
368.10	49.15
368.30	72.56
368.49	35.11
368.69	88.94
368.89	72.56
369.09	91.28
369.28	58.51
369.48	77.24
369.68	53.83
369.87	124.05
370.07	110.01
370.27	121.71
370.47	182.56
370.66	395.55
370.86	320.65
371.06	435.34
371.25	397.89
371.45	386.19
371.65	390.87
371.84	482.15
372.04	465.77
372.24	491.51
372.44	470.45
372.63	475.13
372.83	440.02
373.03	519.60
373.22	458.74
373.42	449.38
373.62	440.02
373.81	512.58
374.01	514.92
374.21	500.87
374.40	475.13
374.60	655.35
374.79	580.45
374.99	592.16
375.19	505.56
375.38	517.26
375.58	550.03
375.78	554.71
375.97	599.18
376.17	631.94
376.37	613.22
376.56	575.77
376.76	557.05
376.95	615.56
377.15	615.56
377.35	592.16
377.54	566.41
377.74	566.41
377.93	540.66
378.13	531.30
378.33	629.60
378.52	603.86
378.72	641.31
378.91	620.24
379.11	601.52
379.31	587.47
379.50	613.22
379.70	655.35
379.89	655.35
380.09	610.88
380.28	688.12
380.48	622.58
380.68	631.94
380.87	674.07
381.07	711.52
381.26	704.50
381.46	568.75
381.65	634.29
381.85	564.07
382.04	638.97
382.24	720.88
382.43	711.52
382.63	650.67
382.83	650.67
383.02	795.78
383.22	702.16
383.41	692.80
383.61	624.92
383.80	753.65
384.00	730.25
384.19	664.71
384.39	772.38
384.58	716.20
384.78	692.80
384.97	842.59
385.17	746.63
385.36	690.46
385.56	786.42
385.75	702.16
385.95	765.36
386.14	751.31
386.34	699.82
386.53	816.85
386.72	779.40
386.92	786.42
387.11	805.14
387.31	791.10
387.50	870.68
387.70	758.33
387.89	828.55
388.09	791.10
388.28	795.78
388.48	844.93
388.67	819.19
388.86	812.17
389.06	863.66
389.25	908.13
389.45	908.13
389.64	861.32
389.84	894.08
390.03	887.06
390.22	910.47
390.42	772.38
390.61	919.83
390.81	964.30
391.00	971.32
391.19	849.61
391.39	936.21
391.58	976.00
391.78	959.62
391.97	868.34
392.16	938.55
392.36	992.39
392.55	938.55
392.75	978.34
392.94	976.00
393.13	931.53
393.33	1050.90
393.52	990.05
393.71	1046.22
393.91	1032.18
394.10	1046.22
394.29	994.73
394.49	1069.62
394.68	1032.18
394.88	1088.35
395.07	1050.90
395.26	1067.28
395.46	1022.81
395.65	1100.05
395.84	1100.05
396.04	1144.52
396.23	1149.20
396.42	957.28
396.62	1121.12
396.81	1193.67
397.00	1083.67
397.19	1114.10
397.39	1095.37
397.58	1116.44
397.77	1212.40
397.97	1275.59
398.16	1139.84
398.35	1263.89
398.55	1219.42
398.74	1275.59
398.93	1338.79
399.12	1306.02
399.32	1224.10
399.51	1308.36
399.70	1317.72
399.90	1277.93
400.09	1362.19
400.28	1369.21
400.47	1336.45
400.67	1369.21
400.86	1399.64
401.05	1434.75
401.24	1291.98
401.44	1526.03
401.63	1476.88
401.82	1444.11
402.01	1406.66
402.21	1474.54
402.40	1448.79
402.59	1458.15
402.78	1493.26
402.97	1427.73
403.17	1544.75
403.36	1603.27
403.55	1526.03
403.74	1565.82
403.93	1603.27
404.13	1617.31
404.32	1624.33
404.51	1554.12
404.70	1647.74
404.89	1563.48
405.09	1776.47
405.28	1619.65
405.47	1619.65
405.66	1741.36
405.85	1715.61
406.05	1614.97
406.24	1657.10
406.43	1741.36
406.62	1764.76
406.81	1811.57
407.00	1720.29
407.20	1689.87
407.39	1778.81
407.58	1827.96
407.77	1795.19
407.96	1783.49
408.15	1900.52
408.34	1898.17
408.54	1860.73
408.73	2010.52
408.92	2057.33
409.11	1933.28
409.30	1935.62
409.49	1916.90
409.68	2099.46
409.87	1956.69
410.07	1973.07
410.26	1989.46
410.45	1961.37
410.64	2162.66
410.83	2148.61
411.02	2085.42
411.21	2132.23
411.40	2113.50
411.59	2235.21
411.78	2115.84
411.98	2204.78
412.17	2235.21
412.36	2221.17
412.55	2279.68
412.74	2333.51
412.93	2321.81
413.12	2335.85
413.31	2452.88
413.50	2244.57
413.69	2502.03
413.88	2504.37
414.07	2380.32
414.26	2469.27
414.45	2581.61
414.64	2438.84
414.83	2579.27
415.02	2738.43
415.22	2597.99
415.41	2553.52
415.60	2682.25
415.79	2672.89
415.98	2686.94
416.17	2796.94
416.36	2740.77
416.55	2633.10
416.74	2883.54
416.93	2841.41
417.12	2911.63
417.31	2867.16
417.50	2930.35
417.69	3016.95
417.88	2981.84
418.07	3005.25
418.26	2918.65
418.45	2949.08
418.64	3087.17
418.83	3141.00
419.02	3115.25
419.21	3157.38
419.39	3056.74
419.58	2946.73
419.77	3136.32
419.96	3094.19
420.15	3094.19
420.34	3171.43
420.53	3260.37
420.72	3180.79
420.91	3272.07
421.10	3269.73
421.29	3325.90
421.48	3239.30
421.67	3370.37
421.86	3353.99
422.05	3187.81
422.24	3323.56
422.43	3293.13
422.61	3346.97
422.80	3435.91
422.99	3501.44
423.18	3325.90
423.37	3428.88
423.56	3342.28
423.75	3403.14
423.94	3283.77
424.13	3126.96
424.32	3190.15
424.50	3389.10
424.69	3524.85
424.88	3552.93
425.07	3407.82
425.26	3265.05
425.45	3543.57
425.64	3529.53
425.83	3412.50
426.01	3578.68
426.20	3478.04
426.39	3510.80
426.58	3454.63
426.77	3508.46
426.96	3482.72
427.15	3517.83
427.33	3606.77
427.52	3637.19
427.71	3513.14
427.90	3606.77
428.09	3515.48
428.28	3571.66
428.46	3609.11
428.65	3599.74
428.84	3927.42
429.03	3817.41
429.22	3625.49
429.40	3592.72
429.59	3686.34
429.78	3513.14
429.97	3574.00
430.16	3693.37
430.34	3667.62
430.53	3679.32
430.72	3737.84
430.91	3866.56
431.10	3808.05
431.28	3999.98
431.47	3962.53
431.66	4021.04
431.85	3822.09
432.03	4016.36
432.22	4095.94
432.41	3906.35
432.60	4124.02
432.79	4030.40
432.97	4135.73
433.16	4114.66
433.35	3974.23
433.54	4215.30
433.72	4184.88
433.91	4152.11
434.10	4276.16
434.28	4152.11
434.47	4147.43
434.66	4248.07
434.85	4346.37
435.03	4252.75
435.22	4273.82
435.41	4372.12
435.59	4322.97
435.78	4437.66
435.97	4435.32
436.16	4498.51
436.34	4447.02
436.53	4411.91
436.72	4493.83
436.90	4353.40
437.09	4479.79
437.28	4470.42
437.46	4416.59
437.65	4505.53
437.84	4477.44
438.02	4587.45
438.21	4622.56
438.40	4589.79
438.58	4711.50
438.77	4786.40
438.96	4624.90
439.14	4835.55
439.33	4770.01
439.52	4798.10
439.70	5025.13
439.89	5025.13
440.08	4950.23
440.26	5001.72
440.45	4830.87
440.63	5048.54
440.82	5018.11
441.01	4990.02
441.19	5221.74
441.38	5249.82
441.57	5198.33
441.75	5399.62
441.94	5493.24
442.12	5425.36
442.31	5277.91
442.50	5380.89
442.68	5376.21
442.87	5493.24
443.05	5500.26
443.24	5734.31
443.43	5558.77
443.61	5638.35
443.80	5816.23
443.98	5441.75
444.17	5378.55
444.35	5760.06
444.54	5724.95
444.73	5692.18
444.91	5657.07
445.10	5600.90
445.28	5666.44
445.47	5589.20
445.65	5727.29
445.84	5706.23
446.02	5713.25
446.21	5706.23
446.39	5643.03
446.58	5680.48
446.77	5776.44
446.95	5526.00
447.14	5605.58
447.32	5682.82
447.51	5715.59
447.69	5830.27
447.88	5818.57
448.06	5846.66
448.25	5774.10
448.43	5923.90
448.62	5825.59
448.80	5867.72
448.99	5968.37
449.17	6005.81
449.36	6017.52
449.54	6228.17
449.73	5989.43
449.91	6181.35
450.10	6188.38
450.28	6061.99
450.46	6162.63
450.65	6183.70
450.83	6129.86
451.02	6143.91
451.20	6237.53
451.39	6307.74
451.57	6148.59
451.76	6092.41
451.94	6148.59
452.13	6249.23
452.31	6230.51
452.49	6249.23
452.68	6342.85
452.86	6179.01
453.05	6579.25
453.23	6253.91
453.42	6239.87
453.60	6223.48
453.78	6516.05
453.97	6434.13
454.15	6401.37
454.34	6356.90
454.52	6583.93
454.70	6637.76
454.89	6518.39
455.07	6604.99
455.26	6738.40
455.44	6771.17
455.62	6548.82
455.81	6590.95
455.99	6733.72
456.17	6719.68
456.36	6803.94
456.54	6782.87
456.73	6829.68
456.91	7122.25
457.09	7082.46
457.28	7145.66
457.46	6911.60
457.64	6977.14
457.83	6916.28
458.01	6998.20
458.19	7204.17
458.38	7091.82
458.56	7171.40
458.74	7140.97
458.93	7101.19
459.11	7363.33
459.29	7262.68
459.48	7215.87
459.66	7286.09
459.84	7447.58
460.03	7363.33
460.21	7155.02
460.39	7494.40
460.57	7211.19
460.76	7405.46
460.94	7510.78
461.12	7414.82
461.31	7513.12
461.49	7604.40
461.67	7583.34
461.85	7688.66
462.04	7503.76
462.22	8105.28
462.40	7719.09
462.59	7658.23
462.77	7742.49
462.95	7899.31
463.13	7597.38
463.32	7896.97
463.50	7808.03
463.68	7939.10
463.86	7784.62
464.05	7791.64
464.23	7768.24
464.41	7967.18
464.59	7850.16
464.78	8112.30
464.96	7922.71
465.14	7801.01
465.32	7878.24
465.50	8116.98
465.69	8217.62
465.87	8205.92
466.05	8168.47
466.23	8060.80
466.41	8126.34
466.60	8381.46
466.78	8063.15
466.96	8131.02
467.14	8163.79
467.32	8215.28
467.51	8311.24
467.69	8079.53
467.87	8210.60
468.05	8332.31
468.23	8231.66
468.41	8271.45
468.60	8248.05
468.78	8388.48
468.96	8397.84
469.14	8528.91
469.32	8596.79
469.50	8407.20
469.69	8608.49
469.87	8613.17
470.05	8514.87
470.23	8695.09
470.41	8566.36
470.59	8807.44
470.77	8683.39
470.95	8872.97
471.14	9100.00
471.32	8627.21
471.50	8919.78
471.68	8802.75
471.86	8961.91
472.04	9202.99
472.22	9177.24
472.40	9123.41
472.58	9046.17
472.77	9083.62
472.95	9191.28
473.13	9673.43
473.31	9172.56
473.49	9100.00
473.67	9336.40
473.85	9518.96
474.03	9652.37
474.21	9472.15
474.39	9647.69
474.57	9600.88
474.75	9675.77
474.93	9877.06
475.12	9678.12
475.30	9706.20
475.48	10047.92
475.66	10033.88
475.84	9790.46
476.02	9909.83
476.20	10047.92
476.38	10218.78
476.56	10604.97
476.74	10422.41
476.92	10429.43
477.10	10422.41
477.28	10565.18
477.46	10679.86
477.64	10846.04
477.82	10991.16
478.00	11087.12
478.18	11070.73
478.36	11136.27
478.54	11311.81
478.72	11028.60
478.90	11393.73
479.08	11592.67
479.26	11660.55
479.44	11597.35
479.62	11597.35
479.80	11634.80
479.98	12016.31
480.16	11971.84
480.34	11927.37
480.52	12042.06
480.70	12208.23
480.88	11978.86
481.06	12166.10
481.24	12212.92
481.41	12320.58
481.59	12627.19
481.77	12641.23
481.95	12784.01
482.13	12989.97
482.31	12755.92
482.49	13062.53
482.67	13104.66
482.85	13207.64
483.03	13516.59
483.21	13446.38
483.39	13495.53
483.57	13392.55
483.74	13715.54
483.92	13872.36
484.10	13940.23
484.28	14317.06
484.46	14183.65
484.64	14295.99
484.82	14113.43
485.00	14324.08
485.18	14700.90
485.35	14801.55
485.53	14724.31
485.71	14831.97
485.89	14949.00
486.07	14689.20
486.25	15012.20
486.43	15286.04
486.61	15222.84
486.78	15442.85
486.96	15576.27
487.14	15667.55
487.32	15765.85
487.50	15932.03
487.68	16140.33
487.85	16189.49
488.03	16369.71
488.21	16711.42
488.39	16624.83
488.57	16730.15
488.75	17090.59
488.92	17109.32
489.10	17336.35
489.28	17074.21
489.46	17394.86
489.64	17497.84
489.81	17846.58
489.99	17767.01
490.17	17909.78
490.35	18270.22
490.53	17898.08
490.70	18214.05
490.88	18291.29
491.06	18581.51
491.24	18473.85
491.41	18656.41
491.59	18476.19
491.77	18831.95
491.95	18960.68
492.13	19300.06
492.30	19389.00
492.48	19426.45
492.66	19515.39
492.84	19506.02
493.01	19550.49
493.19	19822.00
493.37	20002.22
493.54	19875.83
493.72	20060.73
493.90	19985.83
494.08	20315.85
494.25	20540.54
494.43	21336.32
494.61	20662.25
494.79	20947.79
494.96	21200.57
495.14	20910.35
495.32	21331.64
495.49	20973.54
495.67	21207.59
495.85	21713.15
496.02	21429.94
496.20	22059.55
496.38	21500.16
496.55	21799.75
496.73	22391.91
496.91	21947.20
497.09	22361.48
497.26	22576.81
497.44	22328.71
497.62	22607.23
497.79	22785.12
497.97	22682.13
498.14	22981.72
498.32	23084.70
498.50	22764.05
498.67	23473.23
498.85	23414.72
499.03	23662.82
499.20	23506.00
499.38	23491.96
499.56	23873.46
499.73	23702.61
499.91	23939.00
500.08	24091.13
500.26	23873.46
500.44	24020.92
500.61	24159.01
500.79	23700.26
500.97	24093.47
501.14	24584.99
501.32	24631.80
501.49	24713.72
501.67	24938.41
501.84	25085.86
502.02	24751.17
502.20	25092.88
502.37	25123.31
502.55	24922.02
502.72	25209.91
502.90	25184.16
503.07	25369.07
503.25	25315.23
503.43	25542.27
503.60	25598.44
503.78	25610.14
503.95	25783.34
504.13	25738.87
504.30	25893.35
504.48	26024.42
504.65	25970.58
504.83	26335.71
505.01	26536.99
505.18	26286.56
505.36	26546.36
505.53	26525.29
505.71	26703.17
505.88	27122.13
506.06	26277.19
506.23	26534.65
506.41	26490.18
506.58	26672.74
506.76	27103.40
506.93	26948.93
507.11	27236.81
507.28	27129.15
507.46	27365.54
507.63	27246.18
507.81	27845.35
507.98	27367.88
508.16	27634.71
508.33	27800.88
508.50	27714.28
508.68	27789.18
508.85	28215.16
509.03	28025.57
509.20	27798.54
509.38	28236.22
509.55	28554.54
509.73	28659.86
509.90	28512.41
510.08	28676.24
510.25	28285.37
510.42	28716.03
510.60	28481.98
510.77	28673.90
510.95	29179.46
511.12	28664.54
511.30	29102.22
511.47	29366.70
511.64	29221.59
511.82	29528.20
511.99	29113.92
512.17	29413.51
512.34	29455.64
512.51	29956.52
512.69	30043.12
512.86	29914.39
513.04	30167.16
513.21	29996.31
513.38	29837.15
513.56	30068.86
513.73	29935.45
513.90	30260.79
514.08	30047.80
514.25	30354.41
514.43	30747.62
514.60	30426.96
514.77	30490.16
514.95	30955.93
515.12	30543.99
515.29	30649.32
515.47	31225.09
515.64	30913.80
515.81	30864.64
515.99	31166.57
516.16	31051.89
516.33	30991.03
516.51	31152.53
516.68	31283.60
516.85	31164.23
517.03	31356.16
517.20	31321.05
517.37	31728.30
517.54	31407.65
517.72	31662.77
517.89	31400.63
518.06	31337.43
518.24	31417.01
518.41	31625.32
518.58	32018.53
518.75	31749.37
518.93	32151.94
519.10	32205.77
519.27	31976.40
519.45	32205.77
519.62	32423.44
519.79	32233.86
519.96	32547.49
520.14	32650.47
520.31	32278.33
520.48	32826.01
520.65	32790.91
520.83	32711.33
521.00	33235.61
521.17	32826.01
521.34	32814.31
521.52	33226.24
521.69	33064.75
521.86	33441.57
522.03	33439.23
522.20	33441.57
522.38	33778.61
522.55	33701.37
522.72	33324.55
522.89	33434.55
523.07	33776.27
523.24	33474.34
523.41	33715.42
523.58	33853.51
523.75	34265.44
523.92	33958.83
524.10	34277.15
524.27	34230.33
524.44	34223.31
524.61	34368.43
524.78	34726.53
524.96	34675.04
525.13	34796.74
525.30	35077.61
525.47	34789.72
525.64	34527.58
525.81	34845.90
525.98	34799.08
526.16	34595.46
526.33	34838.87
526.50	35110.38
526.67	34824.83
526.84	34845.90
527.01	35042.50
527.18	35178.25
527.36	35393.58
527.53	35304.64
527.70	35690.83
527.87	35484.86
528.04	35573.80
528.21	35681.47
528.38	35557.42
528.55	35637.00
528.72	35775.09
528.89	35779.77
529.07	35541.03
529.24	35681.47
529.41	35845.30
529.58	35637.00
529.75	35508.27
529.92	35697.85
530.09	36058.29
530.26	36128.51
530.43	36561.51
530.60	36095.74
530.77	36437.46
530.94	36486.61
531.11	36456.18
531.28	35868.71
531.46	36711.30
531.63	36524.06
531.80	36666.83
531.97	36524.06
532.14	36636.41
532.31	36706.62
532.48	36807.26
532.65	37141.96
532.82	36673.85
532.99	37184.09
533.16	36697.26
533.33	37057.70
533.50	37177.07
533.67	37401.76
533.84	37263.67
534.01	36720.66
534.18	37003.87
534.35	37113.87
534.52	37539.85
534.69	37312.82
534.86	37661.56
535.03	37254.31
535.20	37633.47
535.37	37605.39
535.54	38307.55
535.71	37153.66
535.88	38012.64
536.05	37940.08
536.22	37787.95
536.38	37869.87
536.55	37853.48
536.72	37937.74
536.89	38045.41
537.06	38082.86
537.23	37787.95
537.40	38162.43
537.57	38089.88
537.74	38202.22
537.91	38511.17
538.08	38375.42
538.25	37867.53
538.42	38089.88
538.59	38403.51
538.75	38368.40
538.92	38146.05
539.09	38810.76
539.26	38478.41
539.43	38684.37
539.60	38408.19
539.77	38534.58
539.94	39061.20
540.11	38731.18
540.28	38785.02
540.44	39065.88
540.61	38883.32
540.78	38747.57
540.95	38808.42
541.12	38714.80
541.29	38815.44
541.46	38710.12
541.62	38930.13
541.79	39473.13
541.96	38705.44
542.13	39510.58
542.30	39012.05
542.47	39730.59
542.63	39079.92
542.80	39590.16
542.97	39732.93
543.14	39845.28
543.31	39695.49
543.48	39508.24
543.64	40020.82
543.81	39688.46
543.98	40037.20
544.15	39812.51
544.32	40297.00
544.48	40596.59
544.65	40205.72
544.82	40566.16
544.99	39667.40
545.16	40594.25
545.32	39913.16
545.49	40381.26
545.66	40783.83
545.83	40362.54
546.00	40556.80
546.16	40472.54
546.33	40509.99
546.50	40041.88
546.67	40444.46
546.83	40011.46
547.00	40369.56
547.17	40519.35
547.34	40624.68
547.50	40861.07
547.67	41212.15
547.84	40921.93
548.00	41184.07
548.17	40947.67
548.34	40620.00
548.51	41116.19
548.67	41249.60
548.84	41254.28
549.01	41057.68
549.18	41017.89
549.34	41207.47
549.51	41371.31
549.68	41184.07
549.84	40884.48
550.01	41474.29
550.18	41221.52
550.34	41434.50
550.51	41579.62
550.68	41270.67
550.84	41109.17
551.01	41804.31
551.18	41738.77
551.34	41600.68
551.51	41373.65
551.68	41797.29
551.84	41694.30
552.01	41731.75
552.18	41375.99
552.34	41626.43
552.51	41588.98
552.68	41848.78
552.84	42068.79
553.01	41937.72
553.18	41909.63
553.34	41698.98
553.51	41832.39
553.67	41893.25
553.84	42139.00
554.01	42225.60
554.17	42305.18
554.34	42101.56
554.51	41818.35
554.67	42621.16
554.84	42679.67
555.00	42066.45
555.17	42323.91
555.33	42157.73
555.50	42398.80
555.67	42014.96
555.83	42246.67
556.00	42658.60
556.16	42951.17
556.33	42534.56
556.50	42770.95
556.66	42677.33
556.83	42780.31
556.99	42431.57
557.16	42469.02
557.32	42653.92
557.49	42564.98
557.65	42864.57
557.82	42515.83
557.98	42110.92
558.15	42646.90
558.32	42394.12
558.48	43091.60
558.65	43070.54
558.81	42862.23
558.98	42721.80
559.14	42134.32
559.31	42784.99
559.47	42469.02
559.64	43264.80
559.80	43044.79
559.97	43400.55
560.13	42366.04
560.30	42986.28
560.46	43028.41
560.63	42656.26
560.79	43082.24
560.96	43571.41
561.12	43323.32
561.29	43323.32
561.45	43136.07
561.61	43075.22
561.78	43147.78
561.94	42958.19
562.11	43260.12
562.27	43157.14
562.44	42960.53
562.60	43461.41
562.77	43400.55
562.93	43323.32
563.10	43447.36
563.26	43084.58
563.42	43281.19
563.59	43325.66
563.75	43173.52
563.92	43639.29
564.08	43805.47
564.24	43728.23
564.41	43498.86
564.57	43379.49
564.74	43203.95
564.90	43264.80
565.07	43716.53
565.23	43405.23
565.39	43346.72
565.56	43442.68
565.72	43559.71
565.88	43732.91
566.05	43402.89
566.21	43164.16
566.38	43325.66
566.54	43643.97
566.70	43859.30
566.87	43798.44
567.03	44039.52
567.19	43880.36
567.36	43332.68
567.52	43866.32
567.68	43828.87
567.85	43421.62
568.01	43756.32
568.17	43419.28
568.34	43545.67
568.50	43913.13
568.66	43557.37
568.83	43983.35
568.99	43634.61
569.15	43178.20
569.32	43470.77
569.48	43313.95
569.64	43995.05
569.81	44266.55
569.97	43461.41
570.13	43805.47
570.30	43611.20
570.46	43653.33
570.62	43566.73
570.78	43665.03
570.95	43971.64
571.11	43910.79
571.27	43732.91
571.43	44058.24
571.60	43852.28
571.76	43667.37
571.92	43349.06
572.09	43863.98
572.25	43849.94
572.41	43878.02
572.57	43615.88
572.74	44477.20
572.90	43725.89
573.06	43777.38
573.22	44009.09
573.38	43365.45
573.55	43819.51
573.71	43990.37
573.87	43573.75
574.03	43676.74
574.20	43943.56
574.36	43683.76
574.52	43707.16
574.68	44271.23
574.84	44416.35
575.01	43791.42
575.17	43501.20
575.33	43887.39
575.49	43770.36
575.65	44566.14
575.82	44465.50
575.98	44126.12
576.14	44299.32
576.30	43833.55
576.46	44135.48
576.62	43981.01
576.79	44067.61
576.95	43629.93
577.11	43873.34
577.27	44259.53
577.43	44243.15
577.59	44144.84
577.75	43899.09
577.92	43416.94
578.08	43618.22
578.24	44069.95
578.40	43775.04
578.56	43983.35
578.72	44238.47
578.88	44509.97
579.04	44196.34
579.21	44327.41
579.37	44079.31
579.53	43868.66
579.69	43655.67
579.85	44163.57
580.01	44397.62
580.17	43917.81
580.33	44296.98
580.49	44161.23
580.65	43934.20
580.82	44107.40
580.98	44144.84
581.14	44165.91
581.30	43856.96
581.46	44039.52
581.62	44381.24
581.78	44528.69
581.94	44692.53
582.10	44107.40
582.26	44116.76
582.42	43854.62
582.58	44240.81
582.74	43915.47
582.90	44177.61
583.06	43796.10
583.22	44137.82
583.38	44561.46
583.54	44442.09
583.70	44521.67
583.86	43997.39
584.02	43714.19
584.18	44074.63
584.34	44259.53
584.50	44030.16
584.66	44048.88
584.82	43669.72
584.98	44804.88
585.14	44034.84
585.30	44402.30
585.46	44044.20
585.62	44032.50
585.78	44025.48
585.94	43880.36
586.10	44126.12
586.26	44449.11
586.42	44231.44
586.58	44350.81
586.74	44128.46
586.90	43957.60
587.06	44289.96
587.22	44369.54
587.38	43819.51
587.54	44648.06
587.70	44163.57
587.86	44287.62
588.02	44505.29
588.18	44828.28
588.34	44168.25
588.49	44280.60
588.65	44369.54
588.81	44074.63
588.97	44552.10
589.13	43966.96
589.29	44011.43
589.45	44037.18
589.61	44325.07
589.77	44505.29
589.93	44315.70
590.08	44339.11
590.24	44491.24
590.40	44470.18
