SpectraSuite Data File
++++++++++++++++++++++++++++++++++++
Date: Fri Oct 25 11:25:26 EDT 2013
User: price-jones
Dark Spectrum Present: No
Reference Spectrum Present: No
Number of Sampled Component Spectra: 1
Spectrometers: USB2+H05261
Integration Time (usec): 100000 (USB2+H05261)
Spectra Averaged: 1 (USB2+H05261)
Boxcar Smoothing: 0 (USB2+H05261)
Correct for Electrical Dark: No (USB2+H05261)
Strobe/Lamp Enabled: No (USB2+H05261)
Correct for Detector Non-linearity: No (USB2+H05261)
Correct for Stray Light: No (USB2+H05261)
Number of Pixels in Processed Spectrum: 2048
>>>>>Begin Processed Spectral Data<<<<<
365.73	184.90
365.92	184.90
366.12	184.90
366.32	217.67
366.52	133.41
366.72	189.58
366.91	147.45
367.11	166.18
367.31	159.16
367.51	135.75
367.70	205.97
367.90	107.66
368.10	135.75
368.30	154.48
368.49	161.50
368.69	133.41
368.89	229.37
369.09	191.92
369.28	131.07
369.48	117.03
369.68	196.60
369.87	175.54
370.07	166.18
370.27	231.71
370.47	395.55
370.66	557.05
370.86	638.97
371.06	674.07
371.25	716.20
371.45	624.92
371.65	587.47
371.84	702.16
372.04	730.25
372.24	753.65
372.44	777.06
372.63	706.84
372.83	713.86
373.03	739.61
373.22	760.67
373.42	793.44
373.62	779.40
373.81	835.57
374.01	873.02
374.21	791.10
374.40	711.52
374.60	866.00
374.79	819.19
374.99	798.12
375.19	725.57
375.38	926.85
375.58	851.96
375.78	809.83
375.97	891.74
376.17	882.38
376.37	809.83
376.56	847.27
376.76	814.51
376.95	833.23
377.15	973.66
377.35	894.08
377.54	952.60
377.74	924.51
377.93	802.80
378.13	950.26
378.33	901.11
378.52	987.71
378.72	926.85
378.91	891.74
379.11	866.00
379.31	959.62
379.50	856.64
379.70	994.73
379.89	931.53
380.09	945.58
380.28	884.72
380.48	1015.79
380.68	947.92
380.87	894.08
381.07	943.24
381.26	1020.47
381.46	1006.43
381.65	1039.20
381.85	1008.77
382.04	964.30
382.24	1097.71
382.43	990.05
382.63	1011.11
382.83	1142.18
383.02	1128.14
383.22	1057.92
383.41	959.62
383.61	1137.50
383.80	1093.03
384.00	1135.16
384.19	1088.35
384.39	1107.07
384.58	1104.73
384.78	1039.20
384.97	1156.22
385.17	1137.50
385.36	1184.31
385.56	1050.90
385.75	1097.71
385.95	1174.95
386.14	1153.88
386.34	1231.12
386.53	1188.99
386.72	1116.44
386.92	1170.27
387.11	1247.51
387.31	1247.51
387.50	1315.38
387.70	1266.23
387.89	1350.49
388.09	1240.48
388.28	1280.27
388.48	1238.14
388.67	1380.92
388.86	1336.45
389.06	1240.48
389.25	1385.60
389.45	1390.28
389.64	1324.74
389.84	1453.47
390.03	1336.45
390.22	1437.09
390.42	1315.38
390.61	1371.55
390.81	1373.89
391.00	1430.07
391.19	1523.69
391.39	1437.09
391.58	1474.54
391.78	1413.68
391.97	1502.62
392.16	1425.39
392.36	1523.69
392.55	1427.73
392.75	1563.48
392.94	1483.90
393.13	1535.39
393.33	1610.29
393.52	1516.67
393.71	1619.65
393.91	1624.33
394.10	1561.14
394.29	1626.67
394.49	1551.78
394.68	1605.61
394.88	1614.97
395.07	1610.29
395.26	1577.52
395.46	1734.34
395.65	1640.72
395.84	1755.40
396.04	1820.94
396.23	1785.83
396.42	1717.95
396.62	1797.53
396.81	1820.94
397.00	1701.57
397.19	1851.36
397.39	1893.49
397.58	1870.09
397.77	1856.04
397.97	1874.77
398.16	1874.77
398.35	1914.56
398.55	1872.43
398.74	1806.89
398.93	2017.54
399.12	1940.30
399.32	1928.60
399.51	1980.09
399.70	1980.09
399.90	1900.52
400.09	1996.48
400.28	1991.80
400.47	1912.22
400.67	2022.22
400.86	2057.33
401.05	1949.67
401.24	2078.40
401.44	2120.53
401.63	2186.06
401.82	2078.40
402.01	2087.76
402.21	2141.59
402.40	2172.02
402.59	2256.28
402.78	2099.46
402.97	2249.25
403.17	2265.64
403.36	2237.55
403.55	2251.60
403.74	2270.32
403.93	2387.35
404.13	2366.28
404.32	2359.26
404.51	2317.13
404.70	2356.92
404.89	2457.56
405.09	2396.71
405.28	2495.01
405.47	2516.08
405.66	2492.67
405.85	2431.82
406.05	2511.39
406.24	2651.83
406.43	2480.97
406.62	2513.74
406.81	2633.10
407.00	2621.40
407.20	2565.23
407.39	2682.25
407.58	2778.22
407.77	2649.49
407.96	2789.92
408.15	2825.03
408.34	2747.79
408.54	2745.45
408.73	2710.34
408.92	2658.85
409.11	2892.90
409.30	2825.03
409.49	2860.13
409.68	2747.79
409.87	2881.20
410.07	2925.67
410.26	2958.44
410.45	2956.10
410.64	2920.99
410.83	2925.67
411.02	3049.72
411.21	3173.77
411.40	3183.13
411.59	3199.51
411.78	3208.87
411.98	3112.91
412.17	3236.96
412.36	3307.18
412.55	3421.86
412.74	3274.41
412.93	3119.93
413.12	3393.78
413.31	3503.78
413.50	3332.92
413.69	3520.17
413.88	3592.72
414.07	3515.48
414.26	3611.45
414.45	3571.66
414.64	3597.40
414.83	3831.46
415.02	3763.58
415.22	3758.90
415.41	3838.48
415.60	3714.43
415.79	3894.65
415.98	4004.66
416.17	3953.16
416.36	3894.65
416.55	3957.85
416.74	4098.28
416.93	3953.16
417.12	4159.13
417.31	4145.09
417.50	4187.22
417.69	4227.01
417.88	4222.33
418.07	4241.05
418.26	4236.37
418.45	4308.93
418.64	4409.57
418.83	4367.44
419.02	4332.33
419.21	4512.55
419.39	4432.97
419.58	4444.68
419.77	4428.29
419.96	4580.43
420.15	4479.79
420.34	4498.51
420.53	4636.60
420.72	4627.24
420.91	4564.04
421.10	4624.90
421.29	4587.45
421.48	4550.00
421.67	4702.14
421.86	4652.98
422.05	4599.15
422.24	4791.08
422.43	4830.87
422.61	4812.14
422.80	5055.56
422.99	4842.57
423.18	4685.75
423.37	4947.89
423.56	4912.78
423.75	4924.49
423.94	4748.95
424.13	4667.03
424.32	4741.93
424.50	4924.49
424.69	5029.81
424.88	5032.15
425.07	4833.21
425.26	4807.46
425.45	4798.10
425.64	4858.95
425.83	4793.42
426.01	4983.00
426.20	4936.19
426.39	5032.15
426.58	4929.17
426.77	5011.09
426.96	4931.51
427.15	5088.32
427.33	5195.99
427.52	5050.88
427.71	5174.92
427.90	5233.44
428.09	5275.57
428.28	5212.37
428.46	5322.38
428.65	5277.91
428.84	5526.00
429.03	5322.38
429.22	5181.95
429.40	5446.43
429.59	5535.37
429.78	5233.44
429.97	5240.46
430.16	5476.85
430.34	5621.97
430.53	5504.94
430.72	5549.41
430.91	5671.12
431.10	5605.58
431.28	5668.78
431.47	5755.38
431.66	5760.06
431.85	5633.67
432.03	5783.46
432.22	5863.04
432.41	5916.87
432.60	5872.40
432.79	5830.27
432.97	5888.79
433.16	5909.85
433.35	5898.15
433.54	5963.68
433.72	6043.26
433.91	6057.31
434.10	6057.31
434.28	6008.16
434.47	6176.67
434.66	6235.19
434.85	6195.40
435.03	6284.34
435.22	6209.44
435.41	6436.47
435.59	6387.32
435.78	6225.82
435.97	6136.88
436.16	6349.87
436.34	6399.02
436.53	6516.05
436.72	6684.57
436.90	6265.61
437.09	6527.75
437.28	6410.73
437.46	6487.96
437.65	6609.67
437.84	6612.01
438.02	6740.74
438.21	6750.10
438.40	6607.33
438.58	6810.96
438.77	7019.27
438.96	7007.56
439.14	7124.59
439.33	7016.93
439.52	7157.36
439.70	7129.27
439.89	7183.10
440.08	7297.79
440.26	7426.52
440.45	7300.13
440.63	7407.80
440.82	7463.97
441.01	7536.52
441.19	7543.55
441.38	7693.34
441.57	7747.17
441.75	7728.45
441.94	7864.20
442.12	7756.54
442.31	7892.29
442.50	7880.58
442.68	7943.78
442.87	7723.77
443.05	7901.65
443.24	8180.17
443.43	8084.21
443.61	8093.57
443.80	8250.39
443.98	7941.44
444.17	7786.96
444.35	8208.26
444.54	8306.56
444.73	8238.69
444.91	8154.43
445.10	8271.45
445.28	8159.11
445.47	8215.28
445.65	8311.24
445.84	8203.58
446.02	8400.18
446.21	8308.90
446.39	8585.08
446.58	8374.44
446.77	8601.47
446.95	8170.81
447.14	8280.82
447.32	8430.61
447.51	8369.76
447.69	8477.42
447.88	8514.87
448.06	8702.11
448.25	8336.99
448.43	8397.84
448.62	8444.65
448.80	8472.74
448.99	8816.80
449.17	8482.10
449.36	8465.72
449.54	8664.66
449.73	8982.98
449.91	8933.82
450.10	8844.88
450.28	8863.61
450.46	8926.80
450.65	8926.80
450.83	9048.51
451.02	8964.25
451.20	9041.49
451.39	9076.60
451.57	9107.02
451.76	8985.32
451.94	9050.85
452.13	9198.31
452.31	9181.92
452.49	9116.39
452.68	9394.91
452.86	9343.42
453.05	9469.81
453.23	9444.06
453.42	9320.01
453.60	9193.62
453.78	9465.13
453.97	9455.76
454.15	9359.80
454.34	9282.56
454.52	9460.45
454.70	9465.13
454.89	9631.30
455.07	9654.71
455.26	9811.53
455.44	9851.31
455.62	9811.53
455.81	9750.67
455.99	10080.69
456.17	9954.30
456.36	9982.38
456.54	9947.28
456.73	9966.00
456.91	10340.49
457.09	10284.31
457.28	10469.22
457.46	10202.40
457.64	10382.62
457.83	10361.55
458.01	10314.74
458.19	10651.78
458.38	10473.90
458.56	10537.09
458.74	10445.81
458.93	10490.28
459.11	10544.11
459.29	10452.83
459.48	10616.67
459.66	10644.76
459.84	10787.53
460.03	10942.00
460.21	11047.33
460.39	10904.56
460.57	10778.17
460.76	11000.52
460.94	11098.82
461.12	11276.70
461.31	10956.05
461.49	11183.08
461.67	10913.92
461.85	11414.79
462.04	11171.38
462.22	11695.66
462.40	11353.94
462.59	11302.45
462.77	11248.61
462.95	11573.95
463.13	11492.03
463.32	11531.82
463.50	11690.98
463.68	11536.50
463.86	11674.59
464.05	11428.84
464.23	11499.05
464.41	11721.40
464.59	11613.74
464.78	12194.19
464.96	11941.41
465.14	11719.06
465.32	12091.21
465.50	11744.81
465.69	11777.58
465.87	12065.46
466.05	12086.53
466.23	12053.76
466.41	12299.52
466.60	12259.73
466.78	12004.61
466.96	12042.06
467.14	12004.61
467.32	12554.63
467.51	12287.81
467.69	11918.01
467.87	12292.49
468.05	12407.18
468.23	12233.98
468.41	12128.66
468.60	12355.69
468.78	12561.66
468.96	12283.13
469.14	12685.70
469.32	12884.65
469.50	12418.88
469.69	12772.30
469.87	12957.21
470.05	12954.87
470.23	12929.12
470.41	13114.02
470.59	13181.90
470.77	12889.33
470.95	12877.63
471.14	13518.93
471.32	12968.91
471.50	13352.76
471.68	13460.42
471.86	13579.79
472.04	13575.11
472.22	13841.93
472.40	13420.63
472.58	13645.32
472.77	13610.22
472.95	13942.57
473.13	14417.70
473.31	13862.99
473.49	14090.02
473.67	14015.13
473.85	14010.45
474.03	14263.22
474.21	14476.21
474.39	14431.74
474.57	14450.47
474.75	14796.87
474.93	14944.32
475.12	14789.85
475.30	14796.87
475.48	14892.83
475.66	14937.30
475.84	14923.26
476.02	15232.21
476.20	15309.44
476.38	15634.78
476.56	15859.47
476.74	15768.19
476.92	15765.85
477.10	15723.72
477.28	15822.02
477.46	15903.94
477.64	16011.60
477.82	16276.09
478.00	16833.13
478.18	16975.91
478.36	16821.43
478.54	17102.29
478.72	17165.49
478.90	17076.55
479.08	17380.82
479.26	17245.07
479.44	17411.25
479.62	17521.25
479.80	17832.54
479.98	17956.59
480.16	18518.32
480.34	17970.63
480.52	18546.40
480.70	18253.84
480.88	18293.63
481.06	18649.39
481.24	18611.94
481.41	18801.52
481.59	18956.00
481.77	19066.00
481.95	19290.70
482.13	19641.78
482.31	19522.41
482.49	20009.24
482.67	19824.34
482.85	20163.72
483.03	20430.54
483.21	20486.71
483.39	20641.18
483.57	20823.75
483.74	21102.27
483.92	21025.03
484.10	20645.87
484.28	22111.04
484.46	21640.59
484.64	22286.58
484.82	21589.10
485.00	22162.53
485.18	22799.16
485.35	22796.82
485.53	22665.75
485.71	22618.94
485.89	23360.89
486.07	22885.76
486.25	23049.60
486.43	23339.82
486.61	23337.48
486.78	23529.41
486.96	23686.22
487.14	24528.81
487.32	24390.72
487.50	24645.84
487.68	24739.46
487.85	24886.92
488.03	25343.32
488.21	25238.00
488.39	25764.62
488.57	25708.44
488.75	25883.98
488.92	25830.15
489.10	26558.06
489.28	26532.31
489.46	26902.12
489.64	26810.84
489.81	27559.81
489.99	27346.82
490.17	27459.16
490.35	27786.84
490.53	27826.63
490.70	28081.75
490.88	27810.25
491.06	28627.09
491.24	28577.94
491.41	28496.02
491.59	28833.06
491.77	28989.88
491.95	29434.58
492.13	29099.88
492.30	29820.77
492.48	29970.56
492.66	29673.31
492.84	30050.14
493.01	30167.16
493.19	30539.31
493.37	30892.73
493.54	31026.14
493.72	30984.01
493.90	31108.06
494.08	31960.02
494.25	31945.97
494.43	31679.15
494.61	31917.89
494.79	31758.73
494.96	32254.92
495.14	32514.72
495.32	32982.83
495.49	32964.10
495.67	32664.52
495.85	33102.20
496.02	33443.91
496.20	33905.00
496.38	33516.47
496.55	33680.31
496.73	34506.52
496.91	34010.32
497.09	34155.44
497.26	34745.25
497.44	34583.76
497.62	35117.40
497.79	35515.29
497.97	35166.55
498.14	35573.80
498.32	35484.86
498.50	35765.73
498.67	36353.20
498.85	36357.88
499.03	36510.02
499.20	36137.87
499.38	36498.31
499.56	36720.66
499.73	36720.66
499.91	36772.16
500.08	37207.50
500.26	36851.73
500.44	37020.25
500.61	37565.60
500.79	37469.64
500.97	37832.42
501.14	38132.01
501.32	37982.21
501.49	37687.31
501.67	38457.34
501.84	38721.82
502.02	38724.16
502.20	38852.89
502.37	38555.64
502.55	39077.58
502.72	39236.74
502.90	39150.14
503.07	39058.86
503.25	39704.85
503.43	38951.20
503.60	39641.65
503.78	39749.32
503.95	39915.50
504.13	40037.20
504.30	40198.70
504.48	40109.76
504.65	40404.67
504.83	40289.98
505.01	40196.36
505.18	40744.05
505.36	41067.04
505.53	40875.12
505.71	41085.76
505.88	41603.02
506.06	41471.95
506.23	41383.01
506.41	41399.40
506.58	41806.65
506.76	42103.90
506.93	41935.38
507.11	41731.75
507.28	41855.80
507.46	41537.49
507.63	42904.36
507.81	42857.55
507.98	42249.01
508.16	42815.42
508.33	43035.43
508.50	43082.24
508.68	43283.53
508.85	43770.36
509.03	43669.72
509.20	43290.55
509.38	43604.18
509.55	44121.44
509.73	44224.42
509.90	44226.76
510.08	44034.84
510.25	44514.65
510.42	44652.74
510.60	44521.67
510.77	44748.70
510.95	44816.58
511.12	44856.37
511.30	44561.46
511.47	45132.55
511.64	44870.41
511.82	45654.49
511.99	45352.56
512.17	45530.44
512.34	45277.66
512.51	45998.55
512.69	46096.85
512.86	45942.38
513.04	46382.40
513.21	46511.13
513.38	46316.86
513.56	46541.55
513.73	46471.34
513.90	46763.90
514.08	46326.22
514.25	47220.31
514.43	47021.36
514.60	46946.47
514.77	47063.49
514.95	47222.65
515.12	47253.08
515.29	47131.37
515.47	47796.08
515.64	47377.12
515.81	47824.17
515.99	47833.53
516.16	48051.20
516.33	47800.76
516.51	48198.65
516.68	47936.51
516.85	48301.64
517.03	48318.02
517.20	48467.81
517.37	48460.79
517.54	48669.10
517.72	48615.27
517.89	48498.24
518.06	48589.52
518.24	48828.26
518.41	49076.35
518.58	49162.95
518.75	49069.33
518.93	49111.46
519.10	48996.77
519.27	49322.11
519.45	49169.97
519.62	49551.48
519.79	49811.28
519.96	49436.80
520.14	49947.03
520.31	49558.50
520.48	49783.19
520.65	49876.82
520.83	50003.20
521.00	50576.64
521.17	49991.50
521.34	50501.74
521.52	50560.25
521.69	50330.88
521.86	50644.51
522.03	50855.16
522.20	50693.66
522.38	51201.56
522.55	50974.53
522.72	51161.77
522.89	50995.59
523.07	51332.63
523.24	51241.35
523.41	51292.84
523.58	50960.48
523.75	51903.72
523.92	51657.96
524.10	51702.43
524.27	52069.90
524.44	51824.14
524.61	52116.71
524.78	51927.13
524.96	51854.57
525.13	52016.07
525.30	52264.16
525.47	52030.11
525.64	52065.22
525.81	52348.42
525.98	52381.19
526.16	52601.20
526.33	52222.03
526.50	52853.98
526.67	52549.71
526.84	52640.99
527.01	52584.82
527.18	52748.65
527.36	52762.70
527.53	52690.14
527.70	53247.19
527.87	53059.94
528.04	52559.07
528.21	53006.11
528.38	53022.50
528.55	53179.31
528.72	53062.29
528.89	53399.32
529.07	53207.40
529.24	53315.06
529.41	53249.53
529.58	53418.05
529.75	53396.98
529.92	53429.75
530.09	53406.34
530.26	53640.40
530.43	53708.27
530.60	53474.22
530.77	53389.96
530.94	53909.56
531.11	53750.40
531.28	53925.94
531.46	53879.13
531.63	54152.97
531.80	53701.25
531.97	53991.48
532.14	54305.11
532.31	54164.68
532.48	54244.26
532.65	54457.24
532.82	54134.25
532.99	54218.51
533.16	54150.63
533.33	54593.00
533.50	54600.02
533.67	54302.77
533.84	54389.37
534.01	54588.31
534.18	54576.61
534.35	54841.09
534.52	54602.36
534.69	54838.75
534.86	54976.84
535.03	54880.88
535.20	55121.96
535.37	54990.89
535.54	55030.68
535.71	54934.71
535.88	55379.42
536.05	55217.92
536.22	55283.45
536.38	55348.99
536.55	55187.49
536.72	55304.52
536.89	55138.34
537.06	55248.35
537.23	55676.66
537.40	55292.82
537.57	55625.17
537.74	55267.07
537.91	55746.88
538.08	56025.40
538.25	55505.80
538.42	55765.60
538.59	55884.97
538.75	55735.18
538.92	55884.97
539.09	55714.11
539.26	55671.98
539.43	55969.23
539.60	55992.64
539.77	55910.72
539.94	56158.81
540.11	56329.67
540.28	56060.51
540.44	56315.63
540.61	56261.80
540.78	56158.81
540.95	56147.11
541.12	56034.77
541.29	56324.99
541.46	56238.39
541.62	56435.00
541.79	56327.33
541.96	56435.00
542.13	56294.56
542.30	56350.74
542.47	56413.93
542.63	56582.45
542.80	56685.43
542.97	56900.76
543.14	56903.10
543.31	56776.72
543.48	56886.72
543.64	57137.16
543.81	57137.16
543.98	57172.27
544.15	56947.57
544.32	57216.74
544.48	57237.80
544.65	56910.13
544.82	57139.50
544.99	56966.30
545.16	57326.74
545.32	57109.07
545.49	57446.11
545.66	57485.90
545.83	57382.91
546.00	57457.81
546.16	57523.35
546.33	57352.49
546.50	57319.72
546.67	57509.30
546.83	57148.86
547.00	57612.29
547.17	57354.83
547.34	57621.65
547.50	57673.14
547.67	57790.17
547.84	57609.95
548.00	57801.87
548.17	57879.11
548.34	57865.06
548.51	58064.01
548.67	58272.32
548.84	57982.09
549.01	57612.29
549.18	58019.54
549.34	58045.29
549.51	58075.71
549.68	58113.16
549.84	58103.80
550.01	58117.84
550.18	58066.35
550.34	58031.24
550.51	58174.02
550.68	58330.83
550.84	58040.60
551.01	58482.97
551.18	58181.04
551.34	58454.88
551.51	58085.07
551.68	58248.91
551.84	58195.08
552.01	58183.38
552.18	58515.73
552.34	58237.21
552.51	58288.70
552.68	58384.66
552.84	58403.39
553.01	58489.99
553.18	58501.69
553.34	58742.77
553.51	58478.28
553.67	58663.19
553.84	58592.97
554.01	58562.54
554.17	58782.55
554.34	58719.36
554.51	58590.63
554.67	58915.96
554.84	59009.59
555.00	58829.37
555.17	58887.88
555.33	58922.99
555.50	58686.59
555.67	58791.92
555.83	58841.07
556.00	58927.67
556.16	59255.34
556.33	59032.99
556.50	58899.58
556.66	58969.80
556.83	58592.97
556.99	59187.47
557.16	59171.08
557.32	59068.10
557.49	59363.01
557.65	58922.99
557.82	58965.12
557.98	59135.98
558.15	59110.23
558.32	59355.99
558.48	59332.58
558.65	59377.05
558.81	59222.58
558.98	59297.47
559.14	59463.65
559.31	59505.78
559.47	59473.01
559.64	59571.32
559.80	59653.23
559.97	59587.70
560.13	59341.94
560.30	59531.53
560.46	59503.44
560.63	59536.21
560.79	59604.08
560.96	59543.23
561.12	59742.17
561.29	59676.64
561.45	59707.07
561.61	59667.28
561.78	59578.34
561.94	59686.00
562.11	59643.87
562.27	59444.93
562.44	59725.79
562.60	59868.56
562.77	59707.07
562.93	59676.64
563.10	59931.76
563.26	59451.95
563.42	60121.34
563.59	59887.29
563.75	59735.15
563.92	59700.04
564.08	59803.03
564.24	59973.89
564.41	59931.76
564.57	59955.16
564.74	59779.62
564.90	60006.65
565.07	59798.35
565.23	59927.08
565.39	59903.67
565.56	60086.23
565.72	60048.78
565.88	59880.27
566.05	59859.20
566.21	59901.33
566.38	59955.16
566.54	60009.00
566.70	60016.02
566.87	60135.38
567.03	59992.61
567.19	60320.29
567.36	59987.93
567.52	59955.16
567.68	60217.30
567.85	60074.53
568.01	60207.94
568.17	60186.88
568.34	60179.85
568.50	60147.09
568.66	60151.77
568.83	60247.73
568.99	60116.66
569.15	60254.75
569.32	60051.12
569.48	59948.14
569.64	60406.89
569.81	60221.98
569.97	60140.07
570.13	60207.94
570.30	60060.49
570.46	60135.38
570.62	60229.01
570.78	60336.67
570.95	60212.62
571.11	60285.18
571.27	60137.72
571.43	60495.83
571.60	60362.42
571.76	60259.43
571.92	60441.99
572.09	60362.42
572.25	60346.03
572.41	60339.01
572.57	60554.34
572.74	60437.31
572.90	60261.77
573.06	60385.82
573.22	60456.04
573.38	60362.42
573.55	60348.37
573.71	60516.89
573.87	60535.62
574.03	60135.38
574.20	60453.70
574.36	60514.55
574.52	60458.38
574.68	60631.58
574.84	60523.91
575.01	60547.32
575.17	60378.80
575.33	60392.84
575.49	60292.20
575.65	60474.76
575.82	60259.43
575.98	60566.04
576.14	60800.10
576.30	60664.35
576.46	60530.93
576.62	60626.90
576.79	60519.23
576.95	60439.65
577.11	60589.45
577.27	60657.32
577.43	60657.32
577.59	60612.85
577.75	60507.53
577.92	60708.82
578.08	60715.84
578.24	60598.81
578.40	60711.16
578.56	60781.37
578.72	60523.91
578.88	60657.32
579.04	60626.90
579.21	60715.84
579.37	60797.76
579.53	60757.97
579.69	60612.85
579.85	60453.70
580.01	60561.36
580.17	60479.44
580.33	60678.39
580.49	60921.80
580.65	60790.73
580.82	60673.71
580.98	60521.57
581.14	60596.47
581.30	60912.44
581.46	60718.18
581.62	60800.10
581.78	60493.49
581.94	60860.95
582.10	60652.64
582.26	60624.56
582.42	60657.32
582.58	60772.01
582.74	60753.29
582.90	60652.64
583.06	60610.51
583.22	60568.38
583.38	60753.29
583.54	60575.40
583.70	60741.58
583.86	60900.74
584.02	60477.10
584.18	60769.67
584.34	60673.71
584.50	60692.43
584.66	60697.11
584.82	60636.26
584.98	60919.46
585.14	60772.01
585.30	60900.74
585.46	60919.46
585.62	60741.58
585.78	60886.70
585.94	60587.11
586.10	60750.94
586.26	60825.84
586.42	60870.31
586.58	60994.36
586.74	60816.48
586.90	61041.17
587.06	60657.32
587.22	60961.59
587.38	60795.42
587.54	61038.83
587.70	60987.34
587.86	61034.15
588.02	60856.27
588.18	61095.00
588.34	60781.37
588.49	60807.12
