SpectraSuite Data File
++++++++++++++++++++++++++++++++++++
Date: Fri Oct 25 11:26:37 EDT 2013
User: price-jones
Dark Spectrum Present: No
Reference Spectrum Present: No
Number of Sampled Component Spectra: 1
Spectrometers: USB2+H05261
Integration Time (usec): 100000 (USB2+H05261)
Spectra Averaged: 1 (USB2+H05261)
Boxcar Smoothing: 0 (USB2+H05261)
Correct for Electrical Dark: No (USB2+H05261)
Strobe/Lamp Enabled: No (USB2+H05261)
Correct for Detector Non-linearity: No (USB2+H05261)
Correct for Stray Light: No (USB2+H05261)
Number of Pixels in Processed Spectrum: 2048
>>>>>Begin Processed Spectral Data<<<<<
365.73	255.12
365.92	255.12
366.12	255.12
366.32	184.90
366.52	161.50
366.72	121.71
366.91	119.37
367.11	51.49
367.31	114.69
367.51	114.69
367.70	159.16
367.90	208.31
368.10	72.56
368.30	133.41
368.49	161.50
368.69	119.37
368.89	224.69
369.09	152.13
369.28	126.39
369.48	138.09
369.68	224.69
369.87	208.31
370.07	154.48
370.27	278.52
370.47	292.57
370.66	589.82
370.86	638.97
371.06	692.80
371.25	720.88
371.45	606.20
371.65	648.33
371.84	634.29
372.04	730.25
372.24	681.10
372.44	788.76
372.63	830.89
372.83	760.67
373.03	723.23
373.22	741.95
373.42	702.16
373.62	777.06
373.81	798.12
374.01	805.14
374.21	767.70
374.40	795.78
374.60	800.46
374.79	821.53
374.99	856.64
375.19	851.96
375.38	854.30
375.58	788.76
375.78	842.59
375.97	889.40
376.17	877.70
376.37	877.70
376.56	887.06
376.76	968.98
376.95	919.83
377.15	908.13
377.35	915.15
377.54	938.55
377.74	880.04
377.93	849.61
378.13	866.00
378.33	943.24
378.52	931.53
378.72	924.51
378.91	943.24
379.11	985.37
379.31	922.17
379.50	987.71
379.70	924.51
379.89	971.32
380.09	971.32
380.28	1011.11
380.48	959.62
380.68	1088.35
380.87	1123.46
381.07	978.34
381.26	1083.67
381.46	1039.20
381.65	1088.35
381.85	1015.79
382.04	1034.52
382.24	1109.41
382.43	1100.05
382.63	1036.86
382.83	1093.03
383.02	1109.41
383.22	1144.52
383.41	1090.69
383.61	1067.28
383.80	1151.54
384.00	1102.39
384.19	1090.69
384.39	1191.33
384.58	1137.50
384.78	1160.91
384.97	1156.22
385.17	1217.08
385.36	1203.04
385.56	1203.04
385.75	1268.57
385.95	1174.95
386.14	1217.08
386.34	1247.51
386.53	1193.67
386.72	1125.80
386.92	1282.61
387.11	1226.44
387.31	1221.76
387.50	1252.19
387.70	1247.51
387.89	1341.13
388.09	1233.46
388.28	1221.76
388.48	1352.83
388.67	1301.34
388.86	1306.02
389.06	1289.64
389.25	1350.49
389.45	1476.88
389.64	1324.74
389.84	1392.62
390.03	1455.81
390.22	1369.21
390.42	1350.49
390.61	1390.28
390.81	1409.00
391.00	1514.33
391.19	1345.81
391.39	1423.05
391.58	1516.67
391.78	1453.47
391.97	1502.62
392.16	1430.07
392.36	1657.10
392.55	1500.28
392.75	1542.41
392.94	1565.82
393.13	1535.39
393.33	1535.39
393.52	1547.09
393.71	1603.27
393.91	1544.75
394.10	1554.12
394.29	1617.31
394.49	1673.48
394.68	1619.65
394.88	1621.99
395.07	1589.22
395.26	1605.61
395.46	1736.68
395.65	1837.32
395.84	1675.82
396.04	1652.42
396.23	1809.23
396.42	1797.53
396.62	1755.40
396.81	1804.55
397.00	1764.76
397.19	1827.96
397.39	1825.62
397.58	1856.04
397.77	1872.43
397.97	1909.88
398.16	1856.04
398.35	1949.67
398.55	1905.20
398.74	1891.15
398.93	2017.54
399.12	1919.24
399.32	1872.43
399.51	1989.46
399.70	2038.61
399.90	2019.88
400.09	1944.99
400.28	2029.24
400.47	1980.09
400.67	2085.42
400.86	2097.12
401.05	2150.95
401.24	2073.71
401.44	2003.50
401.63	2223.51
401.82	2186.06
402.01	2216.49
402.21	2143.93
402.40	2258.62
402.59	2190.74
402.78	2186.06
402.97	2258.62
403.17	2216.49
403.36	2282.02
403.55	2300.75
403.74	2382.67
403.93	2382.67
404.13	2307.77
404.32	2321.81
404.51	2340.54
404.70	2478.63
404.89	2443.52
405.09	2490.33
405.28	2436.50
405.47	2513.74
405.66	2511.39
405.85	2417.77
406.05	2464.58
406.24	2565.23
406.43	2616.72
406.62	2635.44
406.81	2691.62
407.00	2569.91
407.20	2640.12
407.39	2696.30
407.58	2658.85
407.77	2649.49
407.96	2803.96
408.15	2806.30
408.34	2794.60
408.54	2827.37
408.73	2850.77
408.92	2885.88
409.11	2949.08
409.30	2916.31
409.49	2918.65
409.68	2991.20
409.87	2883.54
410.07	2867.16
410.26	2977.16
410.45	2970.14
410.64	3035.67
410.83	3019.29
411.02	3087.17
411.21	3187.81
411.40	3094.19
411.59	3204.19
411.78	3077.80
411.98	3220.58
412.17	3262.71
412.36	3276.75
412.55	3428.88
412.74	3496.76
412.93	3414.84
413.12	3400.80
413.31	3541.23
413.50	3571.66
413.69	3382.07
413.88	3618.47
414.07	3620.81
414.26	3733.15
414.45	3616.13
414.64	3714.43
414.83	3803.37
415.02	3782.31
415.22	3833.80
415.41	3983.59
415.60	4025.72
415.79	3913.38
415.98	3913.38
416.17	3878.27
416.36	3995.29
416.55	4109.98
416.74	4138.07
416.93	4112.32
417.12	4173.18
417.31	4203.60
417.50	4229.35
417.69	4182.54
417.88	4264.46
418.07	4198.92
418.26	4369.78
418.45	4416.59
418.64	4458.72
418.83	4386.16
419.02	4451.70
419.21	4486.81
419.39	4519.57
419.58	4608.51
419.77	4447.02
419.96	4540.64
420.15	4596.81
420.34	4568.73
420.53	4580.43
420.72	4699.80
420.91	4706.82
421.10	4730.22
421.29	4709.16
421.48	4833.21
421.67	4748.95
421.86	4798.10
422.05	4915.12
422.24	4826.18
422.43	4823.84
422.61	4959.60
422.80	5034.49
422.99	4856.61
423.18	4980.66
423.37	4973.64
423.56	5050.88
423.75	5104.71
423.94	4882.36
424.13	4669.37
424.32	4760.65
424.50	4968.96
424.69	5282.59
424.88	5004.07
425.07	5018.11
425.26	4865.97
425.45	5053.22
425.64	5057.90
425.83	5025.13
426.01	5083.64
426.20	5085.98
426.39	5008.75
426.58	5011.09
426.77	5081.30
426.96	5184.29
427.15	5116.41
427.33	5139.82
427.52	4947.89
427.71	5280.25
427.90	5266.21
428.09	5109.39
428.28	5348.12
428.46	5331.74
428.65	5390.25
428.84	5657.07
429.03	5500.26
429.22	5446.43
429.40	5359.83
429.59	5439.40
429.78	5303.65
429.97	5130.45
430.16	5640.69
430.34	5722.61
430.53	5614.95
430.72	5769.42
430.91	5652.39
431.10	5598.56
431.28	5867.72
431.47	5797.51
431.66	5996.45
431.85	5870.06
432.03	5851.34
432.22	5956.66
432.41	5923.90
432.60	5834.96
432.79	6029.22
432.97	5898.15
433.16	5989.43
433.35	6076.03
433.54	6099.44
433.72	6106.46
433.91	6073.69
434.10	6029.22
434.28	6040.92
434.47	6267.95
434.66	6258.59
434.85	6406.05
435.03	6469.24
435.22	6265.61
435.41	6417.75
435.59	6377.96
435.78	6319.45
435.97	6565.20
436.16	6394.34
436.34	6478.60
436.53	6604.99
436.72	6712.66
436.90	6342.85
437.09	6693.93
437.28	6509.03
437.46	6588.61
437.65	6583.93
437.84	6909.26
438.02	6747.76
438.21	6850.75
438.40	6834.36
438.58	6799.26
438.77	6963.09
438.96	6949.05
439.14	7311.83
439.33	7066.08
439.52	7267.36
439.70	7262.68
439.89	7384.39
440.08	7349.28
440.26	7325.88
440.45	7307.15
440.63	7447.58
440.82	7592.70
441.01	7646.53
441.19	7765.90
441.38	7688.66
441.57	7747.17
441.75	7698.02
441.94	8044.42
442.12	8030.38
442.31	7866.54
442.50	8266.77
442.68	8056.12
442.87	8077.19
443.05	8226.98
443.24	8390.82
443.43	8079.53
443.61	8133.36
443.80	8528.91
443.98	8180.17
444.17	7819.73
444.35	8264.43
444.54	8308.90
444.73	8264.43
444.91	8297.20
445.10	8400.18
445.28	8367.42
445.47	8294.86
445.65	8425.93
445.84	8521.89
446.02	8491.46
446.21	8409.54
446.39	8470.40
446.58	8638.92
446.77	8566.36
446.95	8257.41
447.14	8346.35
447.32	8589.77
447.51	8636.58
447.69	8585.08
447.88	8477.42
448.06	8540.61
448.25	8617.85
448.43	8720.84
448.62	8547.64
448.80	8514.87
448.99	8821.48
449.17	8690.41
449.36	8547.64
449.54	8826.16
449.73	8964.25
449.91	9015.74
450.10	9149.15
450.28	9167.88
450.46	8987.66
450.65	9160.86
450.83	9160.86
451.02	9221.71
451.20	9200.65
451.39	9200.65
451.57	9261.50
451.76	9179.58
451.94	9142.13
452.13	9394.91
452.31	9336.40
452.49	9202.99
452.68	9247.46
452.86	9427.68
453.05	9525.98
453.23	9647.69
453.42	9418.32
453.60	9385.55
453.78	9668.75
453.97	9441.72
454.15	9638.33
454.34	9685.14
454.52	9870.04
454.70	9888.76
454.89	9755.35
455.07	9799.82
455.26	9947.28
455.44	9949.62
455.62	9877.06
455.81	10036.22
455.99	10038.56
456.17	10040.90
456.36	10087.71
456.54	10132.18
456.73	10125.16
456.91	10520.71
457.09	10492.62
457.28	10576.88
457.46	10207.08
457.64	10696.25
457.83	10703.27
458.01	10312.40
458.19	10780.51
458.38	10565.18
458.56	10539.43
458.74	10705.61
458.93	10675.18
459.11	11089.46
459.29	10740.72
459.48	10743.06
459.66	10703.27
459.84	10869.45
460.03	10892.85
460.21	11147.97
460.39	11321.17
460.57	11087.12
460.76	11187.76
460.94	11253.30
461.12	11265.00
461.31	11089.46
461.49	11232.23
461.67	11328.19
461.85	11515.44
462.04	11206.48
462.22	11660.55
462.40	11700.34
462.59	11679.27
462.77	11550.54
462.95	11723.74
463.13	11702.68
463.32	11721.40
463.50	11871.20
463.68	11878.22
463.86	11712.04
464.05	11742.47
464.23	11665.23
464.41	11936.73
464.59	11782.26
464.78	12152.06
464.96	12016.31
465.14	11688.64
465.32	12114.61
465.50	12173.13
465.69	12365.05
465.87	12156.74
466.05	12297.17
466.23	12238.66
466.41	12226.96
466.60	12468.03
466.78	12252.70
466.96	12233.98
467.14	12400.16
467.32	12519.53
467.51	12519.53
467.69	12147.38
467.87	12437.61
468.05	12634.21
468.23	12400.16
468.41	12725.49
468.60	12676.34
468.78	12723.15
468.96	12386.12
469.14	12596.76
469.32	12996.99
469.50	12809.75
469.69	13046.15
469.87	13252.11
470.05	13256.79
470.23	13266.16
470.41	13448.72
470.59	13415.95
470.77	13273.18
470.95	13429.99
471.14	13619.58
471.32	13224.03
471.50	13518.93
471.68	13713.20
471.86	13785.76
472.04	13790.44
472.22	13998.74
472.40	13781.07
472.58	13561.06
472.77	14167.26
472.95	14174.28
473.13	14490.26
473.31	14134.50
473.49	14185.99
473.67	14197.69
473.85	14260.88
474.03	14560.47
474.21	14546.43
474.39	14764.10
474.57	14864.74
474.75	14731.33
474.93	14824.95
475.12	15044.96
475.30	15098.80
475.48	14972.41
475.66	14974.75
475.84	15229.87
476.02	15384.34
476.20	15360.94
476.38	15850.11
476.56	16224.59
476.74	16194.17
476.92	15920.32
477.10	15829.04
477.28	15796.28
477.46	16215.23
477.64	16325.24
477.82	16507.80
478.00	16819.09
478.18	16812.07
478.36	16908.03
478.54	17364.43
478.72	17195.92
478.90	17291.88
479.08	17860.63
479.26	17841.90
479.44	17947.23
479.62	17862.97
479.80	17947.23
479.98	18078.30
480.16	18572.15
480.34	18534.70
480.52	18551.09
480.70	18909.19
480.88	18551.09
481.06	18878.76
481.24	19140.90
481.41	19199.41
481.59	19548.15
481.77	19578.58
481.95	19482.62
482.13	19850.08
482.31	19702.63
482.49	20301.81
482.67	20219.89
482.85	20369.68
483.03	20636.50
483.21	20999.29
483.39	21036.74
483.57	20982.90
483.74	21083.55
483.92	21511.86
484.10	21415.90
484.28	21937.84
484.46	21965.93
484.64	22324.03
484.82	22129.77
485.00	22317.01
485.18	22902.14
485.35	22955.97
485.53	22766.39
485.71	22967.68
485.89	23590.26
486.07	23573.88
486.25	23538.77
486.43	23679.20
486.61	23838.36
486.78	23981.13
486.96	24306.46
487.14	24683.29
487.32	24582.65
487.50	25132.67
487.68	25165.44
487.85	25446.30
488.03	25200.55
488.21	25937.82
488.39	25935.48
488.57	26494.86
488.75	26333.37
488.92	26148.46
489.10	26569.76
489.28	26703.17
489.46	27007.44
489.64	26820.20
489.81	27625.34
489.99	27414.69
490.17	27955.36
490.35	28320.48
490.53	28245.58
490.70	28577.94
490.88	28730.08
491.06	29106.90
491.24	28727.74
491.41	29132.65
491.59	29261.38
491.77	29584.37
491.95	29446.28
492.13	29762.25
492.30	30206.95
492.48	30122.69
492.66	30513.56
492.84	30515.90
493.01	30607.19
493.19	30895.07
493.37	30808.47
493.54	31229.77
493.72	31789.16
493.90	31772.77
494.08	31644.04
494.25	31952.99
494.43	31931.93
494.61	32077.04
494.79	32233.86
494.96	32662.18
495.14	32783.88
495.32	33207.52
495.49	33401.79
495.67	33247.31
495.85	33560.94
496.02	33832.44
496.20	34071.18
496.38	34206.93
496.55	34164.80
496.73	34771.00
496.91	34448.00
497.09	34611.84
497.26	34976.97
497.44	35159.53
497.62	35129.10
497.79	36030.21
497.97	35379.54
498.14	36460.87
498.32	35964.67
498.50	36428.10
498.67	36488.95
498.85	36652.79
499.03	36807.26
499.20	36629.38
499.38	37055.36
499.56	37195.79
499.73	37207.50
499.91	37603.05
500.08	37502.40
500.26	37549.21
500.44	37670.92
500.61	37902.64
500.79	37741.14
500.97	38485.43
501.14	38312.23
501.32	38682.03
501.49	38808.42
501.67	38775.66
501.84	38813.10
502.02	38831.83
502.20	39337.38
502.37	39412.28
502.55	39108.01
502.72	39555.05
502.90	39730.59
503.07	39864.00
503.25	39821.87
503.43	39885.07
503.60	40074.65
503.78	40659.79
503.95	40477.22
504.13	40975.76
504.30	41282.37
504.48	40580.21
504.65	41118.53
504.83	40933.63
505.01	41493.02
505.18	41113.85
505.36	41565.57
505.53	41263.64
505.71	41780.90
505.88	42139.00
506.06	41432.16
506.23	42349.65
506.41	41696.64
506.58	42202.20
506.76	42445.62
506.93	42756.91
507.11	42373.06
507.28	42536.90
507.46	42792.01
507.63	42738.18
507.81	43372.47
507.98	43430.98
508.16	43250.76
508.33	43590.14
508.50	43175.86
508.68	43875.68
508.85	44369.54
509.03	43349.06
509.20	44215.06
509.38	44783.81
509.55	44196.34
509.73	44676.15
509.90	45083.40
510.08	44046.54
510.25	44636.36
510.42	45198.09
510.60	44912.54
510.77	45275.32
510.95	45338.52
511.12	45024.89
511.30	45329.16
511.47	45715.34
511.64	45588.95
511.82	46085.15
511.99	45790.24
512.17	45975.14
512.34	45998.55
512.51	46543.89
512.69	46176.43
512.86	46745.18
513.04	46721.77
513.21	46602.41
513.38	46614.11
513.56	46749.86
513.73	46990.94
513.90	46944.12
514.08	46864.55
514.25	47576.07
514.43	47253.08
514.60	47569.05
514.77	47217.97
514.95	48114.39
515.12	47763.31
515.29	47657.99
515.47	47955.24
515.64	48425.68
515.81	48095.67
515.99	48369.51
516.16	48472.49
516.33	48542.71
516.51	48570.80
516.68	48715.91
516.85	48839.96
517.03	49088.06
517.20	48811.87
517.37	48814.21
517.54	48945.28
517.72	48748.68
517.89	48907.83
518.06	49303.38
518.24	49537.44
518.41	49591.27
518.58	49481.27
518.75	49586.59
518.93	49619.36
519.10	49832.35
519.27	49722.34
519.45	49729.36
519.62	50134.28
519.79	50342.58
519.96	50328.54
520.14	50492.38
520.31	50473.65
520.48	50660.90
520.65	50447.91
520.83	50480.67
521.00	51119.64
521.17	50454.93
521.34	50773.24
521.52	51037.72
521.69	50532.17
521.86	50768.56
522.03	51243.69
522.20	51250.71
522.38	51702.43
522.55	51468.38
522.72	51407.53
522.89	51215.60
523.07	51746.90
523.24	51444.98
523.41	51758.61
523.58	51402.85
523.75	51838.18
523.92	51779.67
524.10	51870.95
524.27	52184.58
524.44	52233.74
524.61	52027.77
524.78	52062.88
524.96	52299.27
525.13	52191.61
525.30	52687.80
525.47	52327.36
525.64	52624.60
525.81	52704.18
525.98	52746.31
526.16	52505.24
526.33	52648.01
526.50	52975.69
526.67	53031.86
526.84	53043.56
527.01	52877.38
527.18	52861.00
527.36	53319.74
527.53	53038.88
527.70	53296.34
527.87	53418.05
528.04	53116.12
528.21	53481.24
528.38	53532.73
528.55	53537.41
528.72	53462.52
528.89	53738.70
529.07	53434.43
529.24	53396.98
529.41	53668.48
529.58	53766.79
529.75	53581.88
529.92	53748.06
530.09	54000.84
530.26	54106.16
530.43	54033.61
530.60	54061.69
530.77	53986.80
530.94	54019.56
531.11	54012.54
531.28	54344.90
531.46	54094.46
531.63	54305.11
531.80	54426.82
531.97	54478.31
532.14	54335.54
532.31	54454.90
532.48	54777.90
532.65	54611.72
532.82	54578.95
532.99	54593.00
533.16	54564.91
533.33	54789.60
533.50	55089.19
533.67	54820.03
533.84	54501.71
534.01	54855.14
534.18	55040.04
534.35	55196.85
534.52	55152.38
534.69	55089.19
534.86	55351.33
535.03	55161.75
535.20	55538.57
535.37	55374.73
535.54	55416.86
535.71	55330.26
535.88	55405.16
536.05	55587.72
536.22	55695.39
536.38	55707.09
536.55	55538.57
536.72	55884.97
536.89	55370.05
537.06	55674.32
537.23	55585.38
537.40	55704.75
537.57	55784.33
537.74	55763.26
537.91	55854.54
538.08	55807.73
538.25	55870.93
538.42	55814.76
538.59	56381.16
538.75	55910.72
538.92	55964.55
539.09	56238.39
539.26	56154.13
539.43	56156.47
539.60	56219.67
539.77	56437.34
539.94	56339.04
540.11	56509.89
540.28	56765.01
540.44	56741.61
540.61	56374.14
540.78	56369.46
540.95	56573.09
541.12	56697.14
541.29	56493.51
541.46	56697.14
541.62	56708.84
541.79	56795.44
541.96	56512.23
542.13	56418.61
542.30	56846.93
542.47	57130.14
542.63	56868.00
542.80	56872.68
542.97	57333.76
543.14	57214.40
543.31	57425.04
543.48	57151.20
543.64	57640.37
543.81	57659.10
543.98	57394.62
544.15	57544.41
544.32	57340.78
544.48	57757.40
544.65	57378.23
544.82	57623.99
544.99	57385.25
545.16	57710.59
545.32	57525.69
545.49	57794.85
545.66	57738.68
545.83	57558.45
546.00	57801.87
546.16	57886.13
546.33	57616.97
546.50	57598.24
546.67	57862.72
546.83	57434.41
547.00	57815.91
547.17	57769.10
547.34	57836.98
547.50	58038.26
547.67	58195.08
547.84	58174.02
548.00	58068.69
548.17	58166.99
548.34	58202.10
548.51	58277.00
548.67	58330.83
548.84	58150.61
549.01	58073.37
549.18	58237.21
549.34	58288.70
549.51	58152.95
549.68	58375.30
549.84	58499.35
550.01	58546.16
550.18	58415.09
550.34	58571.91
550.51	58639.78
550.68	58482.97
550.84	58412.75
551.01	58784.90
551.18	58602.33
551.34	58564.88
551.51	58471.26
551.68	58637.44
551.84	58677.23
552.01	58513.39
552.18	58614.04
552.34	58663.19
552.51	58688.93
552.68	58646.80
552.84	58684.25
553.01	58913.62
553.18	58880.86
553.34	58960.44
553.51	58831.71
553.67	58841.07
553.84	58932.35
554.01	58883.20
554.17	59075.12
554.34	59084.48
554.51	59154.70
554.67	59072.78
554.84	59210.87
555.00	59037.67
555.17	59161.72
555.33	59210.87
555.50	59157.04
555.67	59173.42
555.83	59040.01
556.00	59096.19
556.16	59494.08
556.33	59351.30
556.50	59135.98
556.66	59365.35
556.83	59257.68
556.99	59454.29
557.16	59690.68
557.32	59641.53
557.49	59414.50
557.65	59194.49
557.82	59505.78
557.98	59297.47
558.15	59573.66
558.32	59559.61
558.48	59487.06
558.65	59697.70
558.81	59576.00
558.98	59491.74
559.14	59662.60
559.31	59662.60
559.47	59721.11
559.64	59662.60
559.80	59845.16
559.97	59955.16
560.13	59664.94
560.30	59758.56
560.46	59793.67
560.63	59831.11
560.79	59849.84
560.96	59604.08
561.12	59657.91
561.29	59749.20
561.45	59908.35
561.61	59920.05
561.78	59903.67
561.94	59924.74
562.11	59987.93
562.27	59849.84
562.44	60065.17
562.60	60074.53
562.77	60086.23
562.93	60013.68
563.10	60233.69
563.26	59819.41
563.42	60261.77
563.59	60041.76
563.75	60048.78
563.92	60048.78
564.08	59686.00
564.24	60186.88
564.41	60130.70
564.57	60310.92
564.74	60282.84
564.90	60170.49
565.07	60151.77
565.23	60189.22
565.39	60119.00
565.56	60254.75
565.72	60182.19
565.88	60200.92
566.05	60076.87
566.21	60238.37
566.38	60299.22
566.54	60207.94
566.70	60423.27
566.87	60392.84
567.03	60243.05
567.19	60580.09
567.36	60229.01
567.52	60477.10
567.68	60706.47
567.85	60299.22
568.01	60245.39
568.17	60308.58
568.34	60343.69
568.50	60582.43
568.66	60498.17
568.83	60378.80
568.99	60308.58
569.15	60486.46
569.32	60287.52
569.48	60360.08
569.64	60500.51
569.81	60434.97
569.97	60331.99
570.13	60643.28
570.30	60280.50
570.46	60687.75
570.62	60505.19
570.78	60566.04
570.95	60622.22
571.11	60575.40
571.27	60809.46
571.43	60584.77
571.60	60493.49
571.76	60671.37
571.92	60514.55
572.09	60582.43
572.25	60643.28
572.41	60446.68
572.57	60533.28
572.74	60907.76
572.90	60481.78
573.06	60755.63
573.22	60638.60
573.38	60554.34
573.55	60491.15
573.71	60732.22
573.87	60603.49
574.03	60704.13
574.20	60802.44
574.36	60633.92
574.52	61010.74
574.68	60652.64
574.84	60678.39
575.01	60914.78
575.17	60814.14
575.33	60814.14
575.49	60654.98
575.65	60992.02
575.82	60856.27
575.98	60853.93
576.14	60977.98
576.30	60884.36
576.46	60821.16
576.62	60769.67
576.79	60769.67
576.95	60559.02
577.11	60755.63
577.27	60851.59
577.43	60786.05
577.59	60811.80
577.75	60788.39
577.92	60928.83
578.08	60863.29
578.24	60781.37
578.40	60966.27
578.56	60912.44
578.72	60858.61
578.88	60949.89
579.04	60917.12
579.21	60832.86
579.37	61092.66
579.53	61045.85
579.69	60736.90
579.85	60743.92
580.01	60886.70
580.17	60743.92
580.33	61092.66
580.49	61200.33
580.65	60905.42
580.82	60830.52
580.98	60879.67
581.14	60818.82
581.30	60973.30
581.46	60795.42
581.62	60959.25
581.78	60879.67
581.94	60970.96
582.10	60849.25
582.26	60865.63
582.42	60767.33
582.58	60963.93
582.74	60870.31
582.90	60977.98
583.06	61015.43
583.22	60821.16
583.38	60985.00
583.54	60992.02
583.70	61087.98
583.86	61193.31
584.02	60837.54
584.18	61181.60
584.34	61050.53
584.50	60945.21
584.66	60910.10
584.82	60947.55
584.98	61315.01
585.14	61148.84
585.30	61057.56
585.46	60938.19
585.62	61078.62
585.78	61331.40
585.94	60659.66
586.10	60949.89
586.26	61106.71
586.42	61090.32
586.58	61109.05
586.74	61071.60
586.90	61080.96
587.06	61080.96
587.22	61106.71
587.38	61148.84
587.54	61261.18
587.70	61315.01
587.86	61043.51
588.02	61155.86
588.18	61275.22
588.34	61125.43
588.49	61336.08
