SpectraSuite Data File
++++++++++++++++++++++++++++++++++++
Date: Fri Oct 25 10:46:59 EDT 2013
User: price-jones
Dark Spectrum Present: No
Reference Spectrum Present: No
Number of Sampled Component Spectra: 1
Spectrometers: USB2+H05261
Integration Time (usec): 100000 (USB2+H05261)
Spectra Averaged: 1 (USB2+H05261)
Boxcar Smoothing: 0 (USB2+H05261)
Correct for Electrical Dark: No (USB2+H05261)
Strobe/Lamp Enabled: No (USB2+H05261)
Correct for Detector Non-linearity: No (USB2+H05261)
Correct for Stray Light: No (USB2+H05261)
Number of Pixels in Processed Spectrum: 2048
>>>>>Begin Processed Spectral Data<<<<<
365.73	175.54
365.92	175.54
366.12	175.54
366.32	91.28
366.52	0.00
366.72	0.00
366.91	18.72
367.11	0.00
367.31	100.64
367.51	0.00
367.70	28.09
367.90	0.00
368.10	63.19
368.30	30.43
368.49	0.00
368.69	74.90
368.89	49.15
369.09	58.51
369.28	121.71
369.48	56.17
369.68	142.77
369.87	117.03
370.07	102.98
370.27	156.82
370.47	290.23
370.66	442.36
370.86	451.72
371.06	386.19
371.25	465.77
371.45	512.58
371.65	414.27
371.84	479.81
372.04	421.30
372.24	489.17
372.44	519.60
372.63	486.83
372.83	524.28
373.03	507.90
373.22	409.59
373.42	451.72
373.62	500.87
373.81	533.64
374.01	524.28
374.21	526.62
374.40	475.13
374.60	627.26
374.79	550.03
374.99	634.29
375.19	650.67
375.38	557.05
375.58	489.17
375.78	634.29
375.97	510.24
376.17	645.99
376.37	573.43
376.56	575.77
376.76	610.88
376.95	603.86
377.15	629.60
377.35	557.05
377.54	634.29
377.74	613.22
377.93	543.00
378.13	615.56
378.33	676.41
378.52	528.96
378.72	613.22
378.91	596.84
379.11	678.76
379.31	664.71
379.50	550.03
379.70	695.14
379.89	704.50
380.09	641.31
380.28	613.22
380.48	641.31
380.68	655.35
380.87	674.07
381.07	723.23
381.26	690.46
381.46	657.69
381.65	702.16
381.85	650.67
382.04	627.26
382.24	779.40
382.43	727.91
382.63	711.52
382.83	678.76
383.02	777.06
383.22	788.76
383.41	688.12
383.61	758.33
383.80	767.70
384.00	711.52
384.19	819.19
384.39	837.91
384.58	774.72
384.78	802.80
384.97	779.40
385.17	739.61
385.36	744.29
385.56	725.57
385.75	828.55
385.95	861.32
386.14	753.65
386.34	837.91
386.53	772.38
386.72	898.77
386.92	856.64
387.11	849.61
387.31	842.59
387.50	854.30
387.70	819.19
387.89	896.43
388.09	830.89
388.28	854.30
388.48	947.92
388.67	894.08
388.86	929.19
389.06	919.83
389.25	945.58
389.45	912.81
389.64	915.15
389.84	1029.84
390.03	905.79
390.22	861.32
390.42	966.64
390.61	894.08
390.81	1032.18
391.00	1093.03
391.19	1036.86
391.39	966.64
391.58	1083.67
391.78	990.05
391.97	1104.73
392.16	1013.45
392.36	968.98
392.55	1057.92
392.75	964.30
392.94	952.60
393.13	1025.15
393.33	938.55
393.52	999.41
393.71	1067.28
393.91	1001.75
394.10	1074.31
394.29	1093.03
394.49	1198.35
394.68	1125.80
394.88	1104.73
395.07	1181.97
395.26	1219.42
395.46	1188.99
395.65	1214.74
395.84	1149.20
396.04	1210.06
396.23	1111.75
396.42	1144.52
396.62	1261.55
396.81	1179.63
397.00	1165.59
397.19	1188.99
397.39	1287.29
397.58	1350.49
397.77	1259.21
397.97	1320.06
398.16	1287.29
398.35	1416.02
398.55	1247.51
398.74	1423.05
398.93	1411.34
399.12	1453.47
399.32	1338.79
399.51	1406.66
399.70	1465.18
399.90	1444.11
400.09	1530.71
400.28	1563.48
400.47	1446.45
400.67	1572.84
400.86	1493.26
401.05	1488.58
401.24	1551.78
401.44	1631.35
401.63	1617.31
401.82	1603.27
402.01	1610.29
402.21	1572.84
402.40	1666.46
402.59	1572.84
402.78	1652.42
402.97	1654.76
403.17	1652.42
403.36	1652.42
403.55	1706.25
403.74	1811.57
403.93	1678.16
404.13	1802.21
404.32	1722.63
404.51	1750.72
404.70	1736.68
404.89	1764.76
405.09	1853.70
405.28	1778.81
405.47	1825.62
405.66	1816.26
405.85	1879.45
406.05	1877.11
406.24	1970.73
406.43	1935.62
406.62	1895.83
406.81	2076.06
407.00	1792.85
407.20	1905.20
407.39	1959.03
407.58	2019.88
407.77	1966.05
407.96	1998.82
408.15	2022.22
408.34	2010.52
408.54	2186.06
408.73	2080.74
408.92	2228.19
409.11	2253.94
409.30	2143.93
409.49	2076.06
409.68	2200.10
409.87	2104.14
410.07	2148.61
410.26	2162.66
410.45	2251.60
410.64	2246.91
410.83	2305.43
411.02	2359.26
411.21	2396.71
411.40	2448.20
411.59	2492.67
411.78	2410.75
411.98	2471.61
412.17	2462.24
412.36	2443.52
412.55	2609.70
412.74	2509.05
412.93	2630.76
413.12	2527.78
413.31	2710.34
413.50	2649.49
413.69	2626.08
413.88	2766.51
414.07	2619.06
414.26	2677.57
414.45	2848.43
414.64	2768.85
414.83	2836.73
415.02	2792.26
415.22	2794.60
415.41	2871.84
415.60	2939.71
415.79	2932.69
415.98	3016.95
416.17	2998.23
416.36	3084.83
416.55	3171.43
416.74	3105.89
416.93	2991.20
417.12	2984.18
417.31	3117.59
417.50	3122.27
417.69	3190.15
417.88	3197.17
418.07	3243.98
418.26	3084.83
418.45	3241.64
418.64	3361.01
418.83	3375.05
419.02	3386.76
419.21	3407.82
419.39	3372.71
419.58	3302.50
419.77	3431.23
419.96	3435.91
420.15	3496.76
420.34	3433.57
420.53	3478.04
420.72	3583.36
420.91	3471.01
421.10	3592.72
421.29	3660.60
421.48	3529.53
421.67	3660.60
421.86	3602.08
422.05	3513.14
422.24	3485.06
422.43	3442.93
422.61	3747.20
422.80	3801.03
422.99	3669.96
423.18	3901.67
423.37	3693.37
423.56	3749.54
423.75	3737.84
423.94	3552.93
424.13	3438.25
424.32	3555.27
424.50	3812.73
424.69	3847.84
424.88	3742.52
425.07	3691.02
425.26	3489.74
425.45	3592.72
425.64	3681.66
425.83	3775.28
426.01	3763.58
426.20	3667.62
426.39	3808.05
426.58	3756.56
426.77	3728.47
426.96	3817.41
427.15	3871.25
427.33	3857.20
427.52	3861.88
427.71	3786.99
427.90	3964.87
428.09	3906.35
428.28	3925.08
428.46	3922.74
428.65	3901.67
428.84	4135.73
429.03	3974.23
429.22	3899.33
429.40	3988.27
429.59	3904.01
429.78	3850.18
429.97	3728.47
430.16	3819.75
430.34	3969.55
430.53	4081.89
430.72	4058.49
430.91	3983.59
431.10	4074.87
431.28	4278.50
431.47	4411.91
431.66	4404.89
431.85	4201.26
432.03	4252.75
432.22	4514.89
432.41	4411.91
432.60	4320.63
432.79	4402.55
432.97	4505.53
433.16	4430.63
433.35	4379.14
433.54	4376.80
433.72	4477.44
433.91	4423.61
434.10	4517.23
434.28	4493.83
434.47	4524.26
434.66	4601.49
434.85	4578.09
435.03	4683.41
435.22	4774.69
435.41	4826.18
435.59	4791.08
435.78	4992.36
435.97	4774.69
436.16	4851.93
436.34	4877.68
436.53	4723.20
436.72	5018.11
436.90	4741.93
437.09	4933.85
437.28	4774.69
437.46	4929.17
437.65	4713.84
437.84	4971.30
438.02	4882.36
438.21	4980.66
438.40	4835.55
438.58	5036.83
438.77	5153.86
438.96	5198.33
439.14	5284.93
439.33	5341.10
439.52	5270.89
439.70	5359.83
439.89	5418.34
440.08	5296.63
440.26	5387.91
440.45	5579.84
440.63	5490.90
440.82	5638.35
441.01	5556.43
441.19	5448.77
441.38	5526.00
441.57	5760.06
441.75	5795.17
441.94	5982.41
442.12	5902.83
442.31	5977.73
442.50	5912.19
442.68	5998.79
442.87	5886.45
443.05	5825.59
443.24	6017.52
443.43	6139.23
443.61	6047.94
443.80	6169.65
443.98	5895.81
444.17	5802.19
444.35	6111.14
444.54	6211.78
444.73	6258.59
444.91	6195.40
445.10	5989.43
445.28	6129.86
445.47	6001.13
445.65	6174.33
445.84	6167.31
446.02	6282.00
446.21	6200.08
446.39	6349.87
446.58	6366.26
446.77	6211.78
446.95	6256.25
447.14	6300.72
447.32	6476.26
447.51	6361.58
447.69	6277.32
447.88	6293.70
448.06	6349.87
448.25	6291.36
448.43	6356.90
448.62	6375.62
448.80	6324.13
448.99	6399.02
449.17	6424.77
449.36	6450.52
449.54	6506.69
449.73	6614.35
449.91	6712.66
450.10	6729.04
450.28	6663.51
450.46	6745.42
450.65	6759.47
450.83	6850.75
451.02	6691.59
451.20	6789.89
451.39	6675.21
451.57	6766.49
451.76	6813.30
451.94	6801.60
452.13	6890.54
452.31	6871.81
452.49	6719.68
452.68	6932.67
452.86	6799.26
453.05	6885.86
453.23	6878.83
453.42	6747.76
453.60	6853.09
453.78	7007.56
453.97	7021.61
454.15	6974.80
454.34	7007.56
454.52	7232.26
454.70	7145.66
454.89	7117.57
455.07	7000.54
455.26	7297.79
455.44	7246.30
455.62	7314.17
455.81	7449.93
455.99	7208.85
456.17	7344.60
456.36	7494.40
456.54	7379.71
456.73	7585.68
456.91	7555.25
457.09	7651.21
457.28	7763.56
457.46	7473.33
457.64	7599.72
457.83	7655.89
458.01	7431.20
458.19	7686.32
458.38	7658.23
458.56	7878.24
458.74	7728.45
458.93	8032.72
459.11	7939.10
459.29	7789.30
459.48	8065.49
459.66	7936.76
459.84	7911.01
460.03	8070.17
460.21	8013.99
460.39	7939.10
460.57	8049.10
460.76	8142.72
460.94	8411.89
461.12	8430.61
461.31	8084.21
461.49	8100.59
461.67	8170.81
461.85	8322.94
462.04	8325.29
462.22	8830.84
462.40	8484.44
462.59	8299.54
462.77	8353.37
462.95	8456.36
463.13	8379.12
463.32	8383.80
463.50	8519.55
463.68	8505.51
463.86	8580.40
464.05	8409.54
464.23	8617.85
464.41	8531.25
464.59	8327.63
464.78	8669.34
464.96	8552.32
465.14	8528.91
465.32	8786.37
465.50	8587.43
465.69	8716.16
465.87	8737.22
466.05	8777.01
466.23	8716.16
466.41	8671.68
466.60	8919.78
466.78	8798.07
466.96	8835.52
467.14	8798.07
467.32	8805.10
467.51	9125.75
467.69	8692.75
467.87	8917.44
468.05	9039.15
468.23	9034.47
468.41	8917.44
468.60	8929.14
468.78	9228.73
468.96	8901.06
469.14	9329.38
469.32	9179.58
469.50	9043.83
469.69	9146.81
469.87	9336.40
470.05	9383.21
470.23	9467.47
470.41	9380.87
470.59	9582.15
470.77	9582.15
470.95	9371.50
471.14	9591.52
471.32	9434.70
471.50	9666.41
471.68	9582.15
471.86	9762.37
472.04	9813.87
472.22	9970.68
472.40	9678.12
472.58	9668.75
472.77	9902.81
472.95	10059.62
473.13	10104.09
473.31	9942.60
473.49	9905.15
473.67	9877.06
473.85	10164.95
474.03	10471.56
474.21	10270.27
474.39	10490.28
474.57	10658.80
474.75	10593.26
474.93	10820.30
475.12	10771.15
475.30	10551.14
475.48	10743.06
475.66	10801.57
475.84	10808.59
476.02	10700.93
476.20	10794.55
476.38	11044.99
476.56	11185.42
476.74	11016.90
476.92	11147.97
477.10	11178.40
477.28	11571.61
477.46	11253.30
477.64	11470.97
477.82	11824.39
478.00	11843.11
478.18	11831.41
478.36	12182.49
478.54	12067.80
478.72	12105.25
478.90	12215.26
479.08	12535.91
479.26	12336.96
479.44	12613.15
479.62	12685.70
479.80	12430.59
479.98	12961.89
480.16	12961.89
480.34	12753.58
480.52	12826.14
480.70	13132.75
480.88	12952.52
481.06	13069.55
481.24	13345.73
481.41	13462.76
481.59	13547.02
481.77	13666.39
481.95	13460.42
482.13	13951.93
482.31	13853.63
482.49	13994.06
482.67	13806.82
482.85	14384.93
483.03	14497.28
483.21	14225.78
483.39	14597.92
483.57	14626.01
483.74	14876.44
483.92	14855.38
484.10	14728.99
484.28	15061.35
484.46	15391.36
484.64	15810.32
484.82	15250.93
485.00	15569.24
485.18	15597.33
485.35	15840.75
485.53	15527.11
485.71	15468.60
485.89	15833.72
486.07	15761.17
486.25	16105.23
486.43	16243.32
486.61	16407.16
486.78	16439.92
486.96	16559.29
487.14	16779.30
487.32	16933.78
487.50	17151.45
487.68	16940.80
487.85	17554.02
488.03	17425.29
488.21	17841.90
488.39	17720.20
488.57	17982.34
488.75	18068.94
488.92	18059.57
489.10	18621.30
489.28	18588.53
489.46	18771.10
489.64	18787.48
489.81	19222.82
489.99	19264.95
490.17	19473.26
490.35	19213.46
490.53	19367.93
490.70	19704.97
490.88	19185.37
491.06	19791.57
491.24	20182.44
491.41	19903.92
491.59	19861.79
491.77	19772.85
491.95	20198.82
492.13	20465.64
492.30	20627.14
492.48	20966.52
492.66	20973.54
492.84	20987.58
493.01	21301.22
493.19	21238.02
493.37	21207.59
493.54	21254.40
493.72	21348.03
493.90	21497.82
494.08	22122.74
494.25	22192.96
494.43	21736.56
494.61	22092.32
494.79	22211.68
494.96	22204.66
495.14	22129.77
495.32	22522.98
495.49	22553.40
495.67	23012.15
495.85	23068.32
496.02	23192.37
496.20	23248.54
496.38	23360.89
496.55	23623.03
496.73	24168.37
496.91	23513.02
497.09	23859.42
497.26	24198.80
497.44	23726.01
497.62	24311.14
497.79	24568.60
497.97	24236.25
498.14	24180.07
498.32	24388.38
498.50	24470.30
498.67	24805.00
498.85	25020.33
499.03	24907.98
499.20	25205.23
499.38	25022.67
499.56	25355.02
499.73	25528.22
499.91	25315.23
500.08	25614.82
500.26	25729.51
500.44	25568.01
500.61	25448.64
500.79	25476.73
500.97	25961.22
501.14	26146.12
501.32	26075.91
501.49	26099.31
501.67	26089.95
501.84	26443.37
502.02	26256.13
502.20	26590.83
502.37	26682.11
502.55	26878.71
502.72	26822.54
502.90	26925.52
503.07	26876.37
503.25	27009.78
503.43	26923.18
503.60	27133.83
503.78	27201.71
503.95	26941.91
504.13	27459.16
504.30	27681.52
504.48	27332.78
504.65	27859.40
504.83	28210.48
505.01	27976.42
505.18	28063.02
505.36	28364.95
505.53	28123.88
505.71	28381.34
505.88	28524.11
506.06	28339.21
506.23	28669.22
506.41	28519.43
506.58	28671.56
506.76	28758.16
506.93	29008.60
507.11	28758.16
507.28	28833.06
507.46	28776.89
507.63	29331.59
507.81	29266.06
507.98	28987.53
508.16	29537.56
508.33	29319.89
508.50	29441.60
508.68	29305.85
508.85	29893.32
509.03	29940.13
509.20	30024.39
509.38	30237.38
509.55	30127.38
509.73	29909.71
509.90	30019.71
510.08	29832.47
510.25	30436.33
510.42	30415.26
510.60	30555.69
510.77	30562.72
510.95	30785.07
511.12	30904.43
511.30	30944.22
511.47	31220.41
511.64	30967.63
511.82	31381.90
511.99	30756.98
512.17	31040.18
512.34	30789.75
512.51	31414.67
512.69	31840.65
512.86	31470.84
513.04	31882.78
513.21	31627.66
513.38	31424.03
513.56	31864.05
513.73	31473.18
513.90	31850.01
514.08	32034.91
514.25	32254.92
514.43	32102.79
514.60	32112.15
514.77	32215.13
514.95	32414.08
515.12	32355.57
515.29	32444.51
515.47	32760.48
515.64	33076.45
515.81	32285.35
515.99	32746.44
516.16	32687.92
516.33	32601.32
516.51	32697.28
516.68	32261.94
516.85	32411.74
517.03	32458.55
517.20	32980.49
517.37	33041.34
517.54	33209.86
517.72	33057.73
517.89	33113.90
518.06	33544.56
518.24	33193.48
518.41	33226.24
518.58	33296.46
518.75	33834.78
518.93	33699.03
519.10	33825.42
519.27	33820.74
519.45	33795.00
519.62	34354.38
519.79	34153.10
519.96	34401.19
520.14	34581.42
520.31	34040.75
520.48	34113.31
520.65	34391.83
520.83	34426.94
521.00	34607.16
521.17	34604.82
521.34	34754.61
521.52	34794.40
521.69	34895.05
521.86	35379.54
522.03	35131.44
522.20	35379.54
522.38	34707.80
522.55	35208.68
522.72	35367.84
522.89	35433.37
523.07	35274.21
523.24	35241.45
523.41	35571.46
523.58	35840.62
523.75	35938.93
523.92	36149.57
524.10	35892.12
524.27	36320.43
524.44	36084.04
524.61	35959.99
524.78	36168.30
524.96	36044.25
525.13	36177.66
525.30	36811.95
525.47	36343.84
525.64	36725.35
525.81	37024.93
525.98	36306.39
526.16	36189.36
526.33	36308.73
526.50	36524.06
526.67	35948.29
526.84	36631.72
527.01	36671.51
527.18	37062.38
527.36	37249.63
527.53	37338.57
527.70	36917.27
527.87	36905.57
528.04	36830.67
528.21	37249.63
528.38	37336.23
528.55	37083.45
528.72	37596.03
528.89	37736.46
529.07	37249.63
529.24	37336.23
529.41	37586.66
529.58	37539.85
529.75	37193.45
529.92	38227.97
530.09	38124.99
530.26	37869.87
530.43	38148.39
530.60	37661.56
530.77	37944.76
530.94	38515.86
531.11	38237.33
531.28	38092.22
531.46	38363.72
531.63	38483.09
531.80	38387.13
531.97	37979.87
532.14	38164.78
532.31	38169.46
532.48	38377.76
532.65	38632.88
532.82	38663.31
532.99	38775.66
533.16	38455.00
533.33	38827.15
533.50	39077.58
533.67	38471.39
533.84	38429.26
534.01	38850.55
534.18	38742.89
534.35	39070.56
534.52	38939.49
534.69	39206.31
534.86	39477.82
535.03	38995.67
535.20	39208.65
535.37	39702.51
535.54	40051.25
535.71	39559.73
535.88	39461.43
536.05	39438.03
536.22	39978.69
536.38	39536.33
536.55	39316.32
536.72	39920.18
536.89	39927.20
537.06	39732.93
537.23	39915.50
537.40	39728.25
537.57	39803.15
537.74	39835.92
537.91	40374.24
538.08	40201.04
538.25	39786.77
538.42	40002.10
538.59	40353.18
538.75	40257.21
538.92	40701.92
539.09	40385.94
539.26	40528.72
539.43	40470.20
539.60	40430.41
539.77	40706.60
539.94	40432.75
540.11	40388.28
540.28	40418.71
540.44	41064.70
540.61	40268.92
540.78	40456.16
540.95	40980.44
541.12	40381.26
541.29	40865.75
541.46	40641.06
541.62	40928.95
541.79	40779.15
541.96	40453.82
542.13	40935.97
542.30	40554.46
542.47	40952.35
542.63	41050.66
542.80	40980.44
542.97	41375.99
543.14	41649.83
543.31	41687.28
543.48	41591.32
543.64	42225.60
543.81	41787.92
543.98	41553.87
544.15	41689.62
544.32	41916.65
544.48	42370.72
544.65	42253.69
544.82	42080.49
544.99	41160.66
545.16	42251.35
545.32	41371.31
545.49	42068.79
545.66	42433.91
545.83	42171.77
546.00	42366.04
546.16	42316.89
546.33	41954.10
546.50	41991.55
546.67	42120.28
546.83	41535.15
547.00	42384.76
547.17	42043.04
547.34	42078.15
547.50	42178.79
547.67	42440.93
547.84	42775.63
548.00	42670.31
548.17	42628.18
548.34	42483.06
548.51	42745.20
548.67	42686.69
548.84	42920.74
549.01	43058.84
549.18	42810.74
549.34	42871.59
549.51	42941.81
549.68	43250.76
549.84	43058.84
550.01	43407.58
550.18	42639.88
550.34	43129.05
550.51	42768.61
550.68	43012.02
550.84	42548.60
551.01	43185.22
551.18	42906.70
551.34	43131.39
551.51	43037.77
551.68	43363.11
551.84	43309.27
552.01	42885.64
552.18	43264.80
552.34	43278.85
552.51	43274.16
552.68	43178.20
552.84	43608.86
553.01	44034.84
553.18	43632.27
553.34	43805.47
553.51	43070.54
553.67	43346.72
553.84	43856.96
554.01	43845.26
554.17	43503.54
554.34	43971.64
554.51	43746.95
554.67	43978.67
554.84	43838.23
555.00	43871.00
555.17	43739.93
555.33	44105.06
555.50	43618.22
555.67	43749.29
555.83	43805.47
556.00	44116.76
556.16	44018.46
556.33	44612.95
556.50	44034.84
556.66	44512.31
556.83	44030.16
556.99	44451.45
557.16	43992.71
557.32	44336.77
557.49	44198.68
557.65	43990.37
557.82	44322.72
557.98	43646.31
558.15	44556.78
558.32	44081.65
558.48	44772.11
558.65	44500.61
558.81	44273.57
558.98	44212.72
559.14	44233.78
559.31	44357.83
559.47	44479.54
559.64	44842.32
559.80	44500.61
559.97	44318.04
560.13	44439.75
560.30	44603.59
560.46	44772.11
560.63	44336.77
560.79	44692.53
560.96	44793.17
561.12	44488.90
561.29	44875.09
561.45	44502.95
561.61	44889.13
561.78	44706.57
561.94	44451.45
562.11	44769.77
562.27	44409.32
562.44	44877.43
562.60	44966.37
562.77	45076.38
562.93	44617.63
563.10	45162.98
563.26	44432.73
563.42	45055.31
563.59	44591.89
563.75	44720.62
563.92	45001.48
564.08	44877.43
564.24	45071.70
564.41	45277.66
564.57	45031.91
564.74	45432.14
564.90	44657.42
565.07	44858.71
565.23	45146.59
565.39	45116.17
565.56	44978.07
565.72	45006.16
565.88	45104.46
566.05	44797.85
566.21	45010.84
566.38	45071.70
566.54	45017.86
566.70	44987.44
566.87	45734.07
567.03	44839.98
567.19	45551.51
567.36	45038.93
567.52	44811.90
567.68	44872.75
567.85	45230.85
568.01	45022.54
568.17	44863.39
568.34	45233.19
568.50	45525.76
568.66	45001.48
568.83	45502.35
568.99	45141.91
569.15	44968.71
569.32	44973.39
569.48	45034.25
569.64	45343.20
569.81	45059.99
569.97	45134.89
570.13	45081.06
570.30	44949.99
570.46	44718.28
570.62	44949.99
570.78	45469.59
570.95	44931.26
571.11	45556.19
571.27	45429.80
571.43	45191.06
571.60	45724.71
571.76	45277.66
571.92	45312.77
572.09	44818.92
572.25	45200.43
572.41	45247.24
572.57	45581.93
572.74	45633.42
572.90	45497.67
573.06	45350.22
573.22	45109.14
573.38	45230.85
573.55	45645.13
573.71	45441.50
573.87	45244.90
574.03	45251.92
574.20	45282.34
574.36	45460.23
574.52	45525.76
574.68	45514.06
574.84	45769.18
575.01	45525.76
575.17	45027.23
575.33	45387.67
575.49	45415.76
575.65	45399.37
575.82	45820.67
575.98	45902.59
576.14	45371.28
576.30	45151.27
576.46	45324.47
576.62	45298.73
576.79	45361.92
576.95	44715.93
577.11	45359.58
577.27	45766.84
577.43	45216.81
577.59	45741.09
577.75	45668.53
577.92	45048.29
578.08	45474.27
578.24	45214.47
578.40	45216.81
578.56	45336.18
578.72	45485.97
578.88	45815.99
579.04	45375.97
579.21	45851.09
579.37	45485.97
579.53	45471.93
579.69	45404.05
579.85	45656.83
580.01	45399.37
580.17	45450.86
580.33	45874.50
580.49	45492.99
580.65	45722.37
580.82	45949.40
580.98	45441.50
581.14	45497.67
581.30	45745.77
581.46	45380.65
581.62	45841.73
581.78	45731.73
581.94	45963.44
582.10	45216.81
582.26	46185.79
582.42	45703.64
582.58	45467.25
582.74	45481.29
582.90	45198.09
583.06	45698.96
583.22	45820.67
583.38	45720.02
583.54	45621.72
583.70	45537.46
583.86	45855.78
584.02	45099.78
584.18	45961.10
584.34	45528.10
584.50	45701.30
584.66	45642.79
584.82	45338.52
584.98	45911.95
585.14	45366.60
585.30	45603.00
585.46	45549.17
585.62	45062.33
585.78	45705.98
585.94	45483.63
586.10	45893.22
586.26	45612.36
586.42	45696.62
586.58	45862.80
586.74	46057.06
586.90	45652.15
587.06	45464.91
587.22	45439.16
587.38	45090.42
587.54	45633.42
587.70	45876.84
587.86	45970.46
588.02	45450.86
588.18	45535.12
588.34	45762.15
588.49	45226.17
588.65	45228.51
588.81	45427.46
588.97	45595.98
589.13	45214.47
589.29	45347.88
589.45	45591.30
589.61	45413.41
589.77	46148.34
589.93	45839.39
590.08	46148.34
