SpectraSuite Data File
++++++++++++++++++++++++++++++++++++
Date: Fri Oct 25 10:43:20 EDT 2013
User: price-jones
Dark Spectrum Present: No
Reference Spectrum Present: No
Number of Sampled Component Spectra: 1
Spectrometers: USB2+H05261
Integration Time (usec): 100000 (USB2+H05261)
Spectra Averaged: 1 (USB2+H05261)
Boxcar Smoothing: 0 (USB2+H05261)
Correct for Electrical Dark: No (USB2+H05261)
Strobe/Lamp Enabled: No (USB2+H05261)
Correct for Detector Non-linearity: No (USB2+H05261)
Correct for Stray Light: No (USB2+H05261)
Number of Pixels in Processed Spectrum: 2048
>>>>>Begin Processed Spectral Data<<<<<
365.73	42.13
365.92	42.13
366.12	42.13
366.32	0.00
366.52	60.85
366.72	105.32
366.91	4.68
367.11	30.43
367.31	4.68
367.51	0.00
367.70	4.68
367.90	0.00
368.10	79.58
368.30	32.77
368.49	0.00
368.69	88.94
368.89	21.06
369.09	39.79
369.28	58.51
369.48	16.38
369.68	14.04
369.87	42.13
370.07	58.51
370.27	65.54
370.47	227.03
370.66	414.27
370.86	418.96
371.06	475.13
371.25	437.68
371.45	465.77
371.65	547.69
371.84	477.47
372.04	451.72
372.24	535.98
372.44	482.15
372.63	472.79
372.83	454.06
373.03	435.34
373.22	500.87
373.42	465.77
373.62	451.72
373.81	484.49
374.01	592.16
374.21	552.37
374.40	526.62
374.60	564.07
374.79	575.77
374.99	613.22
375.19	592.16
375.38	683.44
375.58	554.71
375.78	624.92
375.97	596.84
376.17	613.22
376.37	559.39
376.56	582.79
376.76	615.56
376.95	533.64
377.15	667.05
377.35	554.71
377.54	641.31
377.74	669.39
377.93	638.97
378.13	638.97
378.33	699.82
378.52	674.07
378.72	667.05
378.91	606.20
379.11	514.92
379.31	648.33
379.50	580.45
379.70	650.67
379.89	660.03
380.09	664.71
380.28	664.71
380.48	706.84
380.68	709.18
380.87	641.31
381.07	676.41
381.26	685.78
381.46	720.88
381.65	690.46
381.85	674.07
382.04	706.84
382.24	758.33
382.43	676.41
382.63	697.48
382.83	685.78
383.02	692.80
383.22	753.65
383.41	702.16
383.61	816.85
383.80	737.27
384.00	758.33
384.19	767.70
384.39	739.61
384.58	788.76
384.78	814.51
384.97	702.16
385.17	798.12
385.36	739.61
385.56	751.31
385.75	774.72
385.95	765.36
386.14	833.23
386.34	866.00
386.53	833.23
386.72	774.72
386.92	837.91
387.11	997.07
387.31	875.36
387.50	844.93
387.70	887.06
387.89	875.36
388.09	891.74
388.28	858.98
388.48	816.85
388.67	978.34
388.86	840.25
389.06	980.68
389.25	983.02
389.45	1025.15
389.64	976.00
389.84	924.51
390.03	966.64
390.22	1013.45
390.42	1013.45
390.61	1032.18
390.81	1046.22
391.00	1013.45
391.19	1022.81
391.39	1025.15
391.58	1048.56
391.78	997.07
391.97	983.02
392.16	1060.26
392.36	1034.52
392.55	1050.90
392.75	1100.05
392.94	966.64
393.13	966.64
393.33	1001.75
393.52	1100.05
393.71	1062.60
393.91	1109.41
394.10	1146.86
394.29	1191.33
394.49	1184.31
394.68	1252.19
394.88	1256.87
395.07	1217.08
395.26	1233.46
395.46	1247.51
395.65	1268.57
395.84	1273.25
396.04	1193.67
396.23	1196.01
396.42	1149.20
396.62	1144.52
396.81	1191.33
397.00	1273.25
397.19	1196.01
397.39	1273.25
397.58	1371.55
397.77	1317.72
397.97	1341.13
398.16	1451.13
398.35	1313.04
398.55	1430.07
398.74	1521.35
398.93	1444.11
399.12	1488.58
399.32	1519.01
399.51	1519.01
399.70	1593.90
399.90	1411.34
400.09	1600.93
400.28	1596.25
400.47	1591.56
400.67	1626.67
400.86	1650.08
401.05	1783.49
401.24	1650.08
401.44	1706.25
401.63	1797.53
401.82	1732.00
402.01	1638.38
402.21	1809.23
402.40	1715.61
402.59	1776.47
402.78	1736.68
402.97	1769.44
403.17	1706.25
403.36	1827.96
403.55	1776.47
403.74	1907.54
403.93	1865.41
404.13	1877.11
404.32	1802.21
404.51	1842.00
404.70	1923.92
404.89	1944.99
405.09	2003.50
405.28	1966.05
405.47	1942.64
405.66	1991.80
405.85	2064.35
406.05	2087.76
406.24	1898.17
406.43	2097.12
406.62	2188.40
406.81	2087.76
407.00	2193.08
407.20	1975.41
407.39	2019.88
407.58	2186.06
407.77	2169.68
407.96	2200.10
408.15	2260.96
408.34	2195.42
408.54	2244.57
408.73	2368.62
408.92	2331.17
409.11	2342.88
409.30	2314.79
409.49	2314.79
409.68	2207.13
409.87	2293.72
410.07	2282.02
410.26	2399.05
410.45	2415.43
410.64	2427.14
410.83	2443.52
411.02	2478.63
411.21	2619.06
411.40	2436.50
411.59	2621.40
411.78	2640.12
411.98	2656.51
412.17	2647.15
412.36	2672.89
412.55	2724.38
412.74	2745.45
412.93	2792.26
413.12	2677.57
413.31	2855.45
413.50	2738.43
413.69	2839.07
413.88	2881.20
414.07	2939.71
414.26	2881.20
414.45	2920.99
414.64	2953.76
414.83	3094.19
415.02	2998.23
415.22	3187.81
415.41	3054.40
415.60	3028.65
415.79	3190.15
415.98	3229.94
416.17	3204.19
416.36	3129.30
416.55	3185.47
416.74	3417.18
416.93	3267.39
417.12	3173.77
417.31	3389.10
417.50	3309.52
417.69	3562.30
417.88	3330.58
418.07	3428.88
418.26	3396.12
418.45	3330.58
418.64	3616.13
418.83	3485.06
419.02	3620.81
419.21	3576.34
419.39	3536.55
419.58	3536.55
419.77	3473.36
419.96	3592.72
420.15	3693.37
420.34	3637.19
420.53	3730.81
420.72	3756.56
420.91	3838.48
421.10	3772.94
421.29	3887.63
421.48	3758.90
421.67	3786.99
421.86	3878.27
422.05	3700.39
422.24	3747.20
422.43	3824.44
422.61	3772.94
422.80	3845.50
422.99	3794.01
423.18	3908.69
423.37	4067.85
423.56	3882.95
423.75	3927.42
423.94	3754.22
424.13	3712.09
424.32	3786.99
424.50	3974.23
424.69	4046.79
424.88	4004.66
425.07	3873.59
425.26	3836.14
425.45	3971.89
425.64	3983.59
425.83	3941.46
426.01	4044.45
426.20	4098.28
426.39	3911.04
426.58	3906.35
426.77	3854.86
426.96	4067.85
427.15	4156.79
427.33	4093.60
427.52	3988.27
427.71	4053.81
427.90	4219.99
428.09	4159.13
428.28	4091.26
428.46	3997.64
428.65	4203.60
428.84	4198.92
429.03	4184.88
429.22	4156.79
429.40	4117.00
429.59	4161.47
429.78	4014.02
429.97	3964.87
430.16	4156.79
430.34	3932.10
430.53	4271.48
430.72	4271.48
430.91	4243.39
431.10	4241.05
431.28	4442.34
431.47	4500.85
431.66	4585.11
431.85	4482.13
432.03	4528.94
432.22	4667.03
432.41	4606.17
432.60	4587.45
432.79	4589.79
432.97	4812.14
433.16	4711.50
433.35	4566.39
433.54	4613.20
433.72	4636.60
433.91	4557.02
434.10	4723.20
434.28	4786.40
434.47	4865.97
434.66	4896.40
434.85	4863.63
435.03	4905.76
435.22	4898.74
435.41	5041.51
435.59	4901.08
435.78	5064.92
435.97	5240.46
436.16	5107.05
436.34	5195.99
436.53	5266.21
436.72	5336.42
436.90	5102.37
437.09	5149.18
437.28	5231.10
437.46	5027.47
437.65	5041.51
437.84	5214.71
438.02	4975.98
438.21	5224.08
438.40	5043.85
438.58	5345.78
438.77	5472.17
438.96	5495.58
439.14	5392.59
439.33	5425.36
439.52	5568.13
439.70	5582.18
439.89	5617.29
440.08	5668.78
440.26	5694.52
440.45	5643.03
440.63	5788.14
440.82	5998.79
441.01	5858.36
441.19	5816.23
441.38	6052.63
441.57	6078.37
441.75	6228.17
441.94	6347.53
442.12	6235.19
442.31	6277.32
442.50	6274.98
442.68	6141.57
442.87	6473.92
443.05	6410.73
443.24	6338.17
443.43	6534.78
443.61	6485.62
443.80	6698.61
443.98	6445.84
444.17	6214.12
444.35	6480.94
444.54	6764.15
444.73	6654.14
444.91	6167.31
445.10	6368.60
445.28	6387.32
445.47	6396.68
445.65	6352.21
445.84	6509.03
446.02	6466.90
446.21	6513.71
446.39	6448.18
446.58	6590.95
446.77	6672.87
446.95	6408.39
447.14	6707.98
447.32	6764.15
447.51	6548.82
447.69	6661.16
447.88	6462.22
448.06	6745.42
448.25	6555.84
448.43	6740.74
448.62	6757.13
448.80	6614.35
448.99	6712.66
449.17	6839.05
449.36	6651.80
449.54	7040.33
449.73	7080.12
449.91	7030.97
450.10	7143.32
450.28	7323.54
450.46	7150.34
450.65	7126.93
450.83	7283.75
451.02	7098.84
451.20	7236.94
451.39	7098.84
451.57	7096.50
451.76	7023.95
451.94	7211.19
452.13	7187.79
452.31	7293.11
452.49	7002.88
452.68	7047.35
452.86	7229.91
453.05	7133.95
453.23	7344.60
453.42	7236.94
453.60	7335.24
453.78	7529.50
453.97	7391.41
454.15	7339.92
454.34	7250.98
454.52	7534.18
454.70	7513.12
454.89	7461.63
455.07	7417.16
455.26	7606.74
455.44	7679.30
455.62	7775.26
455.81	7756.54
455.99	7763.56
456.17	7641.85
456.36	8021.02
456.54	7843.14
456.73	7925.05
456.91	8149.75
457.09	8234.00
457.28	8339.33
457.46	8124.00
457.64	8128.68
457.83	7969.52
458.01	7831.43
458.19	8145.06
458.38	8187.19
458.56	8231.66
458.74	8070.17
458.93	8016.33
459.11	8203.58
459.29	8304.22
459.48	8369.76
459.66	8355.71
459.84	8489.12
460.03	8409.54
460.21	8409.54
460.39	8416.57
460.57	8430.61
460.76	8325.29
460.94	8493.80
461.12	8592.11
461.31	8564.02
461.49	8589.77
461.67	8561.68
461.85	8980.64
462.04	8578.06
462.22	9242.78
462.40	8711.47
462.59	8791.05
462.77	8924.46
462.95	8919.78
463.13	8954.89
463.32	8844.88
463.50	8819.14
463.68	8872.97
463.86	8954.89
464.05	8748.92
464.23	8856.59
464.41	8917.44
464.59	8910.42
464.78	9104.68
464.96	8947.87
465.14	8905.74
465.32	9221.71
465.50	9362.14
465.69	9324.69
465.87	9273.20
466.05	8954.89
466.23	9231.07
466.41	9165.54
466.60	9280.22
466.78	9027.45
466.96	9111.71
467.14	9315.33
467.32	9352.78
467.51	9502.58
467.69	9146.81
467.87	9303.63
468.05	9640.67
468.23	9411.29
468.41	9401.93
468.60	9680.46
468.78	9540.02
468.96	9692.16
469.14	9554.07
469.32	9834.93
469.50	9472.15
469.69	9811.53
469.87	9811.53
470.05	9745.99
470.23	9722.59
470.41	9846.63
470.59	9942.60
470.77	9856.00
470.95	10064.30
471.14	10083.03
471.32	9870.04
471.50	10249.21
471.68	10125.16
471.86	10345.17
472.04	10483.26
472.22	10511.35
472.40	10363.89
472.58	10391.98
472.77	10422.41
472.95	10431.77
473.13	11042.65
473.31	10520.71
473.49	10604.97
473.67	10677.52
473.85	10661.14
474.03	10817.96
474.21	10707.95
474.39	11115.20
474.57	11119.89
474.75	10984.13
474.93	11164.36
475.12	11049.67
475.30	11297.77
475.48	11239.25
475.66	11178.40
475.84	11379.68
476.02	11180.74
476.20	11414.79
476.38	11611.40
476.56	11936.73
476.74	11861.84
476.92	11808.00
477.10	11829.07
477.28	12098.23
477.46	11999.93
477.64	12126.32
477.82	12475.06
478.00	12414.20
478.18	12301.86
478.36	12269.09
478.54	12641.23
478.72	12681.02
478.90	13055.51
479.08	13188.92
479.26	13198.28
479.44	13067.21
479.62	13163.17
479.80	13099.98
479.98	13202.96
480.16	13633.62
480.34	13448.72
480.52	13769.37
480.70	13659.37
480.88	13818.52
481.06	13722.56
481.24	13994.06
481.41	14340.46
481.59	14410.68
481.77	14487.92
481.95	14368.55
482.13	14420.04
482.31	14480.89
482.49	14857.72
482.67	14665.80
482.85	14974.75
483.03	15335.19
483.21	15147.95
483.39	15382.00
483.57	15066.03
483.74	15527.11
483.92	15445.20
484.10	15349.23
484.28	15854.79
484.46	15866.49
484.64	16444.60
484.82	16109.91
485.00	16032.67
485.18	16498.44
485.35	16411.84
485.53	15822.02
485.71	16020.97
485.89	16074.80
486.07	16358.00
486.25	16322.90
486.43	16896.33
486.61	17216.98
486.78	17008.67
486.96	17249.75
487.14	17621.89
487.32	17582.10
487.50	17767.01
487.68	18003.40
487.85	18246.82
488.03	18487.89
488.21	18525.34
488.39	18326.39
488.57	18347.46
488.75	18853.02
488.92	18731.31
489.10	19239.20
489.28	19000.47
489.46	19630.07
489.64	19697.95
489.81	19997.54
489.99	20343.94
490.17	19889.87
490.35	20315.85
490.53	20187.12
490.70	20280.74
490.88	20416.49
491.06	20690.34
491.24	20505.43
491.41	20762.89
491.59	20594.37
491.77	20893.96
491.95	20999.29
492.13	21062.48
492.30	21666.34
492.48	21589.10
492.66	21970.61
492.84	21884.01
493.01	22057.21
493.19	21872.31
493.37	22075.93
493.54	22155.51
493.72	22288.92
493.90	22513.61
494.08	22731.28
494.25	23239.18
494.43	23143.22
494.61	23419.40
494.79	23569.19
494.96	23122.15
495.14	23531.75
495.32	23552.81
495.49	23749.42
495.67	23412.38
495.85	23744.73
496.02	24020.92
496.20	24119.22
496.38	24093.47
496.55	24198.80
496.73	25062.46
496.91	24725.42
497.09	24765.21
497.26	24868.19
497.44	24603.71
497.62	24943.09
497.79	25319.92
497.97	24917.34
498.14	25488.43
498.32	25649.93
498.50	25497.80
498.67	25694.40
498.85	25996.33
499.03	26139.10
499.20	25930.80
499.38	26405.92
499.56	26366.13
499.73	26291.24
499.91	26548.70
500.08	26635.30
500.26	25891.01
500.44	26698.49
500.61	26740.62
500.79	26457.42
500.97	26426.99
501.14	26857.65
501.32	26923.18
501.49	26731.26
501.67	26485.50
501.84	27218.09
502.02	27232.13
502.20	27536.40
502.37	27725.99
502.55	27194.68
502.72	27707.26
502.90	27887.48
503.07	27695.56
503.25	28264.31
503.43	27913.23
503.60	28020.89
503.78	28032.60
503.95	27868.76
504.13	28273.67
504.30	28400.06
504.48	28463.25
504.65	28620.07
504.83	28790.93
505.01	28922.00
505.18	28971.15
505.36	28896.25
505.53	29088.18
505.71	29263.72
505.88	29776.30
506.06	29322.23
506.23	29851.19
506.41	29340.96
506.58	29596.07
506.76	29443.94
506.93	30015.03
507.11	29610.12
507.28	29642.88
507.46	29518.84
507.63	29806.72
507.81	29979.92
507.98	30043.12
508.16	30190.57
508.33	30260.79
508.50	30387.18
508.68	30883.37
508.85	31290.62
509.03	30925.50
509.20	30808.47
509.38	30857.62
509.55	31461.48
509.73	31283.60
509.90	31538.72
510.08	31421.69
510.25	31374.88
510.42	31407.65
510.60	31351.48
510.77	31468.50
510.95	31566.81
511.12	31969.38
511.30	31967.04
511.47	31840.65
511.64	32378.97
511.82	32320.46
511.99	31875.76
512.17	32252.58
512.34	32055.98
512.51	32362.59
512.69	32818.99
512.86	32746.44
513.04	32751.12
513.21	32531.11
513.38	32439.82
513.56	32449.19
513.73	32634.09
513.90	33034.32
514.08	33139.65
514.25	33069.43
514.43	32690.26
514.60	32844.74
514.77	33331.57
514.95	33411.15
515.12	33371.36
515.29	33399.44
515.47	33766.91
515.64	33518.81
515.81	33619.46
515.99	33642.86
516.16	33539.88
516.33	33280.08
516.51	33567.96
516.68	33006.23
516.85	33202.84
517.03	33228.59
517.20	34089.90
517.37	33888.62
517.54	34038.41
517.72	34394.17
517.89	33841.81
518.06	33851.17
518.24	34029.05
518.41	34368.43
518.58	34218.63
518.75	34593.12
518.93	34906.75
519.10	34487.79
519.27	35147.82
519.45	35040.16
519.62	35510.61
519.79	35101.01
519.96	35335.07
520.14	35391.24
520.31	35199.32
520.48	35405.28
520.65	34998.03
520.83	35559.76
521.00	35641.68
521.17	35356.13
521.34	35718.92
521.52	35859.35
521.69	36137.87
521.86	36170.64
522.03	35976.37
522.20	35959.99
522.38	36020.84
522.55	36479.59
522.72	36287.67
522.89	36442.14
523.07	36856.42
523.24	36535.76
523.41	36692.58
523.58	36699.60
523.75	37055.36
523.92	37078.77
524.10	36872.80
524.27	36940.68
524.44	37282.39
524.61	37202.82
524.78	37228.56
524.96	37584.32
525.13	36863.44
525.30	37441.55
525.47	37427.51
525.64	37752.84
525.81	37486.02
525.98	37008.55
526.16	37139.62
526.33	37125.58
526.50	36950.04
526.67	37163.03
526.84	37188.77
527.01	37476.66
527.18	37254.31
527.36	37628.79
527.53	38185.84
527.70	38422.23
527.87	37970.51
528.04	38445.64
528.21	38223.29
528.38	38169.46
528.55	38653.95
528.72	38590.75
528.89	38522.88
529.07	38696.08
529.24	38195.20
529.41	38398.83
529.58	38480.75
529.75	38391.81
529.92	38396.49
530.09	39115.03
530.26	39072.90
530.43	38794.38
530.60	39044.82
530.77	38864.60
530.94	39543.35
531.11	38988.64
531.28	39075.24
531.46	39402.92
531.63	39372.49
531.80	39683.78
531.97	38885.66
532.14	39012.05
532.31	39175.89
532.48	39117.37
532.65	39636.97
532.82	39552.71
532.99	38878.64
533.16	39431.01
533.33	39718.89
533.50	39578.46
533.67	39718.89
533.84	39517.60
534.01	39435.69
534.18	39786.77
534.35	40243.17
534.52	40194.02
534.69	40032.52
534.86	40254.87
535.03	40275.94
535.20	40421.05
535.37	40332.11
535.54	40718.30
535.71	40313.39
535.88	40481.91
536.05	40147.21
536.22	40512.33
536.38	39966.99
536.55	40194.02
536.72	40540.42
536.89	40247.85
537.06	40797.88
537.23	40807.24
537.40	40837.67
537.57	41109.17
537.74	40732.34
537.91	41315.14
538.08	40889.16
538.25	40914.90
538.42	41071.72
538.59	41053.00
538.75	41265.99
538.92	41163.00
539.09	41202.79
539.26	41144.28
539.43	41067.04
539.60	40978.10
539.77	40868.09
539.94	41200.45
540.11	41109.17
540.28	41251.94
540.44	41352.58
540.61	41558.55
540.78	41591.32
540.95	41268.33
541.12	41289.39
541.29	41205.13
541.46	41715.37
541.62	41708.35
541.79	41883.89
541.96	41212.15
542.13	41614.72
542.30	41649.83
542.47	42052.41
542.63	41865.16
542.80	42319.23
542.97	42382.42
543.14	42176.45
543.31	42302.84
543.48	42143.69
543.64	42632.86
543.81	42403.49
543.98	42321.57
544.15	42380.08
544.32	42721.80
544.48	42710.10
544.65	42784.99
544.82	42604.77
544.99	42057.09
545.16	42436.25
545.32	42459.66
545.49	43016.71
545.66	43306.93
545.83	42932.45
546.00	43208.63
546.16	42653.92
546.33	42443.27
546.50	42326.25
546.67	42941.81
546.83	42473.70
547.00	43077.56
547.17	42754.57
547.34	42728.82
547.50	43126.71
547.67	43407.58
547.84	43346.72
548.00	43484.81
548.17	43360.76
548.34	43033.09
548.51	43569.07
548.67	43973.98
548.84	43131.39
549.01	43398.21
549.18	43503.54
549.34	43487.15
549.51	43655.67
549.68	43648.65
549.84	43330.34
550.01	43817.17
550.18	43442.68
550.34	43742.27
550.51	43215.65
550.68	43793.76
550.84	43430.98
551.01	43875.68
551.18	43583.12
551.34	43641.63
551.51	43758.66
551.68	43948.24
551.84	43814.83
552.01	44093.35
552.18	44025.48
552.34	44069.95
552.51	44048.88
552.68	44072.29
552.84	44058.24
553.01	44451.45
553.18	44381.24
553.34	44397.62
553.51	44184.63
553.67	44514.65
553.84	44772.11
554.01	44971.05
554.17	44369.54
554.34	44659.76
554.51	44390.60
554.67	44444.43
554.84	44250.17
555.00	44217.40
555.17	44233.78
555.33	44570.82
555.50	44753.38
555.67	44589.55
555.83	44355.49
556.00	44435.07
556.16	44491.24
556.33	44648.06
556.50	44905.52
556.66	44444.43
556.83	44463.16
556.99	44512.31
557.16	44495.92
557.32	44903.18
557.49	45078.72
557.65	44481.88
557.82	44811.90
557.98	44839.98
558.15	44863.39
558.32	45064.67
558.48	44886.79
558.65	44790.83
558.81	44442.09
558.98	44804.88
559.14	44849.35
559.31	44388.26
559.47	45006.16
559.64	44652.74
559.80	44818.92
559.97	44854.03
560.13	44619.97
560.30	45319.79
560.46	45151.27
560.63	45265.96
560.79	45158.30
560.96	45104.46
561.12	44837.64
561.29	44957.01
561.45	45013.18
561.61	45085.74
561.78	44999.14
561.94	44952.33
562.11	45265.96
562.27	44823.60
562.44	44975.73
562.60	45280.00
562.77	45013.18
562.93	45113.83
563.10	45333.84
563.26	44952.33
563.42	45378.31
563.59	45088.08
563.75	45289.37
563.92	45628.74
564.08	45432.14
564.24	45109.14
564.41	45333.84
564.57	45198.09
564.74	45057.65
564.90	45687.26
565.07	45113.83
565.23	45497.67
565.39	44835.30
565.56	44884.45
565.72	45031.91
565.88	45425.12
566.05	45619.38
566.21	45188.72
566.38	45244.90
566.54	45214.47
566.70	46052.38
566.87	45879.18
567.03	45530.44
567.19	45979.82
567.36	45722.37
567.52	45951.74
567.68	45518.74
567.85	45230.85
568.01	45727.05
568.17	45743.43
568.34	45649.81
568.50	45593.64
568.66	45588.95
568.83	45532.78
568.99	45457.88
569.15	45188.72
569.32	45535.12
569.48	45455.54
569.64	45895.56
569.81	45818.33
569.97	45647.47
570.13	45661.51
570.30	45020.20
570.46	45137.23
570.62	44914.88
570.78	45219.15
570.95	45497.67
571.11	45336.18
571.27	45336.18
571.43	45603.00
571.60	45645.13
571.76	45397.03
571.92	45340.86
572.09	45862.80
572.25	46272.39
572.41	46195.15
572.57	45977.48
572.74	46312.18
572.90	45516.40
573.06	46176.43
573.22	45645.13
573.38	45886.20
573.55	45364.26
573.71	46012.59
573.87	45853.44
574.03	45687.26
574.20	45696.62
574.36	45558.53
574.52	45769.18
574.68	45645.13
574.84	45783.22
575.01	45638.11
575.17	45769.18
575.33	45808.96
575.49	45713.00
575.65	45785.56
575.82	45752.79
575.98	45808.96
576.14	46176.43
576.30	45546.82
576.46	45764.49
576.62	45584.27
576.79	45673.21
576.95	45787.90
577.11	45766.84
577.27	45954.08
577.43	45617.04
577.59	45935.35
577.75	45448.52
577.92	45406.39
578.08	45174.68
578.24	45296.39
578.40	45476.61
578.56	45942.38
578.72	45808.96
578.88	45764.49
579.04	46103.87
579.21	45790.24
579.37	45392.35
579.53	45530.44
579.69	45811.31
579.85	45907.27
580.01	45780.88
580.17	45654.49
580.33	45918.97
580.49	45904.93
580.65	45652.15
580.82	45874.50
580.98	45710.66
581.14	45432.14
581.30	46326.22
581.46	45830.03
581.62	45897.91
581.78	45780.88
581.94	46291.12
582.10	45940.04
582.26	46202.18
582.42	45893.22
582.58	45610.02
582.74	46000.89
582.90	46040.68
583.06	46101.53
583.22	46021.95
583.38	45750.45
583.54	46038.34
583.70	45818.33
583.86	45914.29
584.02	45528.10
584.18	45811.31
584.34	45792.58
584.50	46450.27
584.66	45909.61
584.82	46106.21
584.98	46115.58
585.14	46246.65
585.30	45310.43
585.46	45748.11
585.62	45418.10
585.78	45853.44
585.94	45474.27
586.10	45909.61
586.26	45528.10
586.42	45963.44
586.58	46267.71
586.74	45975.14
586.90	46150.68
587.06	45666.19
587.22	46113.23
587.38	46223.24
587.54	46150.68
587.70	45925.99
587.86	45738.75
588.02	45731.73
588.18	46445.59
588.34	45507.04
588.49	45647.47
588.65	45184.04
588.81	45635.77
588.97	45284.68
589.13	45097.44
589.29	45350.22
589.45	45422.78
589.61	45666.19
589.77	45900.25
589.93	45598.32
590.08	45350.22
