SpectraSuite Data File
++++++++++++++++++++++++++++++++++++
Date: Fri Oct 25 10:48:30 EDT 2013
User: price-jones
Dark Spectrum Present: No
Reference Spectrum Present: No
Number of Sampled Component Spectra: 1
Spectrometers: USB2+H05261
Integration Time (usec): 100000 (USB2+H05261)
Spectra Averaged: 1 (USB2+H05261)
Boxcar Smoothing: 0 (USB2+H05261)
Correct for Electrical Dark: No (USB2+H05261)
Strobe/Lamp Enabled: No (USB2+H05261)
Correct for Detector Non-linearity: No (USB2+H05261)
Correct for Stray Light: No (USB2+H05261)
Number of Pixels in Processed Spectrum: 2048
>>>>>Begin Processed Spectral Data<<<<<
365.73	124.05
365.92	124.05
366.12	124.05
366.32	74.90
366.52	70.22
366.72	79.58
366.91	30.43
367.11	67.88
367.31	77.24
367.51	37.45
367.70	49.15
367.90	65.54
368.10	16.38
368.30	30.43
368.49	58.51
368.69	95.96
368.89	58.51
369.09	9.36
369.28	72.56
369.48	37.45
369.68	98.30
369.87	95.96
370.07	105.32
370.27	79.58
370.47	189.58
370.66	376.83
370.86	454.06
371.06	440.02
371.25	535.98
371.45	456.40
371.65	444.70
371.84	531.30
372.04	514.92
372.24	461.09
372.44	451.72
372.63	489.17
372.83	564.07
373.03	543.00
373.22	505.56
373.42	524.28
373.62	550.03
373.81	498.53
374.01	552.37
374.21	575.77
374.40	575.77
374.60	613.22
374.79	571.09
374.99	617.90
375.19	554.71
375.38	599.18
375.58	580.45
375.78	660.03
375.97	667.05
376.17	657.69
376.37	608.54
376.56	613.22
376.76	599.18
376.95	631.94
377.15	617.90
377.35	634.29
377.54	667.05
377.74	734.93
377.93	636.63
378.13	641.31
378.33	678.76
378.52	622.58
378.72	739.61
378.91	650.67
379.11	634.29
379.31	664.71
379.50	641.31
379.70	755.99
379.89	725.57
380.09	732.59
380.28	678.76
380.48	725.57
380.68	657.69
380.87	657.69
381.07	709.18
381.26	699.82
381.46	702.16
381.65	697.48
381.85	711.52
382.04	732.59
382.24	770.04
382.43	765.36
382.63	704.50
382.83	819.19
383.02	805.14
383.22	725.57
383.41	791.10
383.61	734.93
383.80	800.46
384.00	744.29
384.19	868.34
384.39	856.64
384.58	844.93
384.78	809.83
384.97	847.27
385.17	730.25
385.36	760.67
385.56	849.61
385.75	716.20
385.95	882.38
386.14	826.21
386.34	917.49
386.53	870.68
386.72	968.98
386.92	858.98
387.11	945.58
387.31	919.83
387.50	821.53
387.70	912.81
387.89	854.30
388.09	952.60
388.28	954.94
388.48	884.72
388.67	964.30
388.86	1015.79
389.06	1027.50
389.25	922.17
389.45	987.71
389.64	954.94
389.84	992.39
390.03	1057.92
390.22	1036.86
390.42	1048.56
390.61	1013.45
390.81	1055.58
391.00	1128.14
391.19	1069.62
391.39	1060.26
391.58	1174.95
391.78	1132.82
391.97	1093.03
392.16	983.02
392.36	1093.03
392.55	1144.52
392.75	1053.24
392.94	966.64
393.13	964.30
393.33	1034.52
393.52	1022.81
393.71	1170.27
393.91	1174.95
394.10	1135.16
394.29	1254.53
394.49	1132.82
394.68	1235.80
394.88	1252.19
395.07	1320.06
395.26	1256.87
395.46	1238.14
395.65	1390.28
395.84	1160.91
396.04	1299.00
396.23	1149.20
396.42	1256.87
396.62	1242.82
396.81	1240.48
397.00	1177.29
397.19	1275.59
397.39	1275.59
397.58	1308.36
397.77	1432.41
397.97	1497.94
398.16	1474.54
398.35	1511.99
398.55	1409.00
398.74	1575.18
398.93	1556.46
399.12	1563.48
399.32	1603.27
399.51	1479.22
399.70	1593.90
399.90	1593.90
400.09	1640.72
400.28	1563.48
400.47	1612.63
400.67	1631.35
400.86	1666.46
401.05	1605.61
401.24	1687.53
401.44	1734.34
401.63	1736.68
401.82	1703.91
402.01	1717.95
402.21	1830.30
402.40	1764.76
402.59	1689.87
402.78	1769.44
402.97	1832.64
403.17	1830.30
403.36	1907.54
403.55	1799.87
403.74	1914.56
403.93	1891.15
404.13	1832.64
404.32	1982.43
404.51	1968.39
404.70	1940.30
404.89	1891.15
405.09	1982.43
405.28	2045.63
405.47	1973.07
405.66	1949.67
405.85	2136.91
406.05	2069.03
406.24	2099.46
406.43	2094.78
406.62	2122.87
406.81	2125.21
407.00	2193.08
407.20	2076.06
407.39	2078.40
407.58	2153.29
407.77	2141.59
407.96	2207.13
408.15	2167.34
408.34	2214.15
408.54	2275.00
408.73	2275.00
408.92	2207.13
409.11	2338.20
409.30	2279.68
409.49	2317.13
409.68	2324.15
409.87	2354.58
410.07	2286.70
410.26	2406.07
410.45	2443.52
410.64	2429.48
410.83	2597.99
411.02	2537.14
411.21	2635.44
411.40	2607.36
411.59	2693.96
411.78	2602.68
411.98	2712.68
412.17	2637.78
412.36	2733.75
412.55	2796.94
412.74	2785.24
412.93	2759.49
413.12	2750.13
413.31	2904.60
413.50	2794.60
413.69	2942.05
413.88	2867.16
414.07	2827.37
414.26	2956.10
414.45	2965.46
414.64	3152.70
414.83	2942.05
415.02	3009.93
415.22	2951.42
415.41	3204.19
415.60	2970.14
415.79	3148.02
415.98	3101.21
416.17	3185.47
416.36	3236.96
416.55	3185.47
416.74	3330.58
416.93	3309.52
417.12	3295.47
417.31	3318.88
417.50	3243.98
417.69	3452.29
417.88	3353.99
418.07	3459.31
418.26	3555.27
418.45	3531.87
418.64	3686.34
418.83	3576.34
419.02	3478.04
419.21	3606.77
419.39	3510.80
419.58	3616.13
419.77	3709.75
419.96	3719.11
420.15	3733.15
420.34	3634.85
420.53	3838.48
420.72	3857.20
420.91	3791.67
421.10	3859.54
421.29	3864.22
421.48	3719.11
421.67	3880.61
421.86	3782.31
422.05	3854.86
422.24	3894.65
422.43	3735.50
422.61	3822.09
422.80	4014.02
422.99	3896.99
423.18	4091.26
423.37	4152.11
423.56	3955.51
423.75	3878.27
423.94	3889.97
424.13	3782.31
424.32	3768.26
424.50	4039.76
424.69	4168.49
424.88	4194.24
425.07	3981.25
425.26	3899.33
425.45	3892.31
425.64	4016.36
425.83	4056.15
426.01	3985.93
426.20	4109.98
426.39	4098.28
426.58	3922.74
426.77	3913.38
426.96	3901.67
427.15	4114.66
427.33	4037.42
427.52	4140.41
427.71	4145.09
427.90	4135.73
428.09	4250.41
428.28	4126.36
428.46	4208.28
428.65	4388.50
428.84	4397.87
429.03	4395.53
429.22	4035.08
429.40	4224.67
429.59	4198.92
429.78	4011.68
429.97	4053.81
430.16	3999.98
430.34	4112.32
430.53	4203.60
430.72	4311.27
430.91	4297.22
431.10	4365.10
431.28	4566.39
431.47	4664.69
431.66	4631.92
431.85	4629.58
432.03	4734.90
432.22	4795.76
432.41	4533.62
432.60	4777.03
432.79	4819.16
432.97	4755.97
433.16	4851.93
433.35	4634.26
433.54	4697.46
433.72	4770.01
433.91	4660.01
434.10	4901.08
434.28	4983.00
434.47	4964.28
434.66	5093.01
434.85	5029.81
435.03	4957.25
435.22	4849.59
435.41	5151.52
435.59	4990.02
435.78	5315.36
435.97	5193.65
436.16	5158.54
436.34	5109.39
436.53	5207.69
436.72	5355.15
436.90	5181.95
437.09	5352.81
437.28	5203.01
437.46	5275.57
437.65	5275.57
437.84	5259.18
438.02	5341.10
438.21	5245.14
438.40	5205.35
438.58	5439.40
438.77	5582.18
438.96	5472.17
439.14	5621.97
439.33	5628.99
439.52	5610.26
439.70	5661.76
439.89	5713.25
440.08	5849.00
440.26	5926.24
440.45	5771.76
440.63	5926.24
440.82	5900.49
441.01	5881.77
441.19	6099.44
441.38	6260.93
441.57	6258.59
441.75	6216.46
441.94	6370.94
442.12	6326.47
442.31	6394.34
442.50	6286.68
442.68	6509.03
442.87	6375.62
443.05	6370.94
443.24	6485.62
443.43	6464.56
443.61	6478.60
443.80	6511.37
443.98	6441.15
444.17	6394.34
444.35	6651.80
444.54	6691.59
444.73	6553.50
444.91	6424.77
445.10	6548.82
445.28	6537.12
445.47	6504.35
445.65	6604.99
445.84	6644.78
446.02	6843.73
446.21	6778.19
446.39	6434.13
446.58	6656.48
446.77	6651.80
446.95	6719.68
447.14	6792.23
447.32	6935.01
447.51	6817.98
447.69	6825.00
447.88	6867.13
448.06	6752.45
448.25	6836.70
448.43	6892.88
448.62	6766.49
448.80	6773.51
448.99	6970.12
449.17	6883.52
449.36	6953.73
449.54	7143.32
449.73	7063.74
449.91	7080.12
450.10	7213.53
450.28	7440.56
450.46	7314.17
450.65	7239.28
450.83	7379.71
451.02	7131.61
451.20	7248.64
451.39	7342.26
451.57	7297.79
451.76	7178.42
451.94	7241.62
452.13	7335.24
452.31	7019.27
452.49	7185.44
452.68	7232.26
452.86	7192.47
453.05	7365.67
453.23	7276.73
453.42	7311.83
453.60	7356.30
453.78	7555.25
453.97	7517.80
454.15	7515.46
454.34	7370.35
454.52	7637.17
454.70	7646.53
454.89	7723.77
455.07	7712.07
455.26	7758.88
455.44	7768.24
455.62	7976.55
455.81	7817.39
455.99	7812.71
456.17	7906.33
456.36	7868.88
456.54	7939.10
456.73	7997.61
456.91	8470.40
457.09	8145.06
457.28	8252.73
457.46	8273.79
457.64	8273.79
457.83	8238.69
458.01	8002.29
458.19	8241.03
458.38	8315.92
458.56	8161.45
458.74	8388.48
458.93	8245.71
459.11	8196.56
459.29	8498.49
459.48	8486.78
459.66	8397.84
459.84	8454.02
460.03	8688.07
460.21	8571.04
460.39	8519.55
460.57	8627.21
460.76	8627.21
460.94	8678.71
461.12	8608.49
461.31	8779.35
461.49	8627.21
461.67	8795.73
461.85	8957.23
462.04	8805.10
462.22	9343.42
462.40	8894.04
462.59	8971.27
462.77	8908.08
462.95	8968.93
463.13	8978.30
463.32	8879.99
463.50	9146.81
463.68	9046.17
463.86	9111.71
464.05	8891.70
464.23	8978.30
464.41	9130.43
464.59	9025.11
464.78	9334.06
464.96	9376.19
465.14	9184.26
465.32	9404.27
465.50	9664.07
465.69	9467.47
465.87	9156.18
466.05	9537.68
466.23	9186.60
466.41	9268.52
466.60	9521.30
466.78	9149.15
466.96	9476.83
467.14	9446.40
467.32	9434.70
467.51	9701.52
467.69	9242.78
467.87	9504.92
468.05	9521.30
468.23	9575.13
468.41	9362.14
468.60	9504.92
468.78	9706.20
468.96	9717.90
469.14	9905.15
469.32	9692.16
469.50	9507.26
469.69	9884.08
469.87	9916.85
470.05	9891.10
470.23	9717.90
470.41	10094.73
470.59	10178.99
470.77	9996.43
470.95	10171.97
471.14	10525.39
471.32	10059.62
471.50	10274.95
471.68	10553.48
471.86	10656.46
472.04	10389.64
472.22	10670.50
472.40	10335.81
472.58	10396.66
472.77	10511.35
472.95	10721.99
473.13	10752.42
473.31	10434.11
473.49	10750.08
473.67	10684.55
473.85	10832.00
474.03	11049.67
474.21	11105.84
474.39	11192.44
474.57	10991.16
474.75	11318.83
474.93	11297.77
475.12	11389.05
475.30	11302.45
475.48	11052.01
475.66	11583.31
475.84	11328.19
476.02	11557.57
476.20	11459.26
476.38	11728.42
476.56	12170.79
476.74	11861.84
476.92	11936.73
477.10	11798.64
477.28	12109.93
477.46	12212.92
477.64	12224.62
477.82	12418.88
478.00	12716.13
478.18	12795.71
478.36	12669.32
478.54	12826.14
478.72	12835.50
478.90	12919.76
479.08	13399.57
479.26	13205.30
479.44	13357.44
479.62	13226.37
479.80	13334.03
479.98	13685.11
480.16	13745.97
480.34	13795.12
480.52	14193.01
480.70	14038.53
480.88	13675.75
481.06	13933.21
481.24	14120.45
481.41	14621.33
481.59	14668.14
481.77	14789.85
481.95	14803.89
482.13	14757.08
482.31	14663.46
482.49	15197.10
482.67	15211.14
482.85	15267.31
483.03	15208.80
483.21	15367.96
483.39	15365.62
483.57	15562.22
483.74	15410.09
483.92	16016.29
484.10	15810.32
484.28	15845.43
484.46	16346.30
484.64	16411.84
484.82	16163.74
485.00	16468.01
485.18	16568.65
485.35	16608.44
485.53	16322.90
485.71	16650.57
485.89	16666.95
486.07	16645.89
486.25	16819.09
486.43	17029.74
486.61	17310.60
486.78	17448.69
486.96	17706.15
487.14	17638.28
487.32	18148.51
487.50	17975.31
487.68	18338.10
487.85	18623.64
488.03	18583.85
488.21	18895.14
488.39	18766.42
488.57	18993.45
488.75	19087.07
488.92	19042.60
489.10	19435.81
489.28	19711.99
489.46	19761.14
489.64	20060.73
489.81	20362.66
489.99	20425.86
490.17	20414.15
490.35	20886.94
490.53	20561.61
490.70	20659.91
490.88	20716.08
491.06	21345.69
491.24	20992.26
491.41	21116.31
491.59	20973.54
491.77	21078.86
491.95	21172.49
492.13	21546.97
492.30	21673.36
492.48	21832.52
492.66	22134.45
492.84	21949.54
493.01	22279.56
493.19	21865.28
493.37	22469.14
493.54	22593.19
493.72	23028.53
493.90	22948.95
494.08	23271.95
494.25	23559.83
494.43	23555.15
494.61	23728.35
494.79	23864.10
494.96	23765.80
495.14	23728.35
495.32	24086.45
495.49	24006.87
495.67	24173.05
495.85	24311.14
496.02	24741.80
496.20	24727.76
496.38	24601.37
496.55	24629.46
496.73	25142.03
496.91	24992.24
497.09	25558.65
497.26	25671.00
497.44	25177.14
497.62	24907.98
497.79	25820.79
497.97	25366.73
498.14	25930.80
498.32	26089.95
498.50	25764.62
498.67	26656.36
498.85	25979.95
499.03	26536.99
499.20	26651.68
499.38	26426.99
499.56	26485.50
499.73	26696.15
499.91	26829.56
500.08	27536.40
500.26	26600.19
500.44	26810.84
500.61	26998.08
500.79	26583.80
500.97	27264.90
501.14	27594.92
501.32	27681.52
501.49	27597.26
501.67	27269.58
501.84	27976.42
502.02	27922.59
502.20	27990.47
502.37	28299.42
502.55	28512.41
502.72	28449.21
502.90	28599.01
503.07	28556.88
503.25	28652.84
503.43	28315.80
503.60	28659.86
503.78	28783.91
503.95	28507.72
504.13	28797.95
504.30	29120.95
504.48	29055.41
504.65	29401.81
504.83	29511.81
505.01	29694.38
505.18	29628.84
505.36	29933.11
505.53	29514.16
505.71	30504.20
505.88	30230.36
506.06	29521.18
506.23	30295.89
506.41	30389.52
506.58	30319.30
506.76	30190.57
506.93	30497.18
507.11	30487.82
507.28	30181.21
507.46	30450.37
507.63	30410.58
507.81	30862.30
507.98	30260.79
508.16	30934.86
508.33	31028.48
508.50	31208.70
508.68	31211.04
508.85	31683.83
509.03	31349.14
509.20	31557.44
509.38	31728.30
509.55	31920.23
509.73	31566.81
509.90	31791.50
510.08	31945.97
510.25	31622.98
510.42	31945.97
510.60	32570.90
510.77	32266.63
510.95	32208.11
511.12	32458.55
511.30	32313.44
511.47	32865.80
511.64	32891.55
511.82	33111.56
511.99	32769.84
512.17	32797.93
512.34	32378.97
512.51	32924.32
512.69	32807.29
512.86	33455.62
513.04	33270.72
513.21	33202.84
513.38	33298.80
513.56	33326.89
513.73	32950.06
513.90	33762.23
514.08	33111.56
514.25	33687.33
514.43	33757.55
514.60	33483.70
514.77	33628.82
514.95	34054.79
515.12	34160.12
515.29	34265.44
515.47	34347.36
515.64	34604.82
515.81	33996.28
515.99	34033.73
516.16	33956.49
516.33	34096.92
516.51	34036.07
516.68	33942.45
516.85	33303.48
517.03	33982.24
517.20	34480.77
517.37	34679.72
517.54	34651.63
517.72	34876.32
517.89	34815.47
518.06	34745.25
518.24	34759.30
518.41	34824.83
518.58	35314.00
518.75	35014.41
518.93	35257.83
519.10	35192.30
519.27	35688.49
519.45	35658.06
519.62	35901.48
519.79	35887.43
519.96	36343.84
520.14	36275.96
520.31	35393.58
520.48	36093.40
520.65	35735.30
520.83	36570.87
521.00	36392.99
521.17	36119.15
521.34	36287.67
521.52	36828.33
521.69	36648.11
521.86	36800.24
522.03	36900.89
522.20	36903.23
522.38	36891.52
522.55	36861.10
522.72	36730.03
522.89	36928.97
523.07	37167.71
523.24	37240.26
523.41	37235.58
523.58	37411.12
523.75	37745.82
523.92	37890.93
524.10	37874.55
524.27	37591.34
524.44	37448.57
524.61	37984.55
524.78	37549.21
524.96	37642.84
525.13	38134.35
525.30	38925.45
525.47	38127.33
525.64	38359.04
525.81	38356.70
525.98	38515.86
526.16	37572.62
526.33	38164.78
526.50	38450.32
526.67	37919.02
526.84	38129.67
527.01	38174.14
527.18	38527.56
527.36	38443.30
527.53	39030.77
527.70	39262.49
527.87	38911.41
528.04	39133.76
528.21	39117.37
528.38	39150.14
528.55	39388.88
528.72	39360.79
528.89	39398.24
529.07	39274.19
529.24	39360.79
529.41	39655.70
529.58	38836.51
529.75	39770.38
529.92	39562.08
530.09	39175.89
530.26	39983.37
530.43	39948.26
530.60	39519.95
530.77	39906.13
530.94	40044.23
531.11	39470.79
531.28	40308.71
531.46	40011.46
531.63	40030.18
531.80	40065.29
531.97	39824.22
532.14	40353.18
532.31	39585.48
532.48	40119.12
532.65	40463.18
532.82	39992.73
532.99	40502.97
533.16	40456.16
533.33	40179.98
533.50	40259.55
533.67	40517.01
533.84	40715.96
534.01	40582.55
534.18	40416.37
534.35	41024.91
534.52	40891.50
534.69	40814.26
534.86	41504.72
535.03	40996.82
535.20	41514.08
535.37	41029.59
535.54	41605.36
535.71	41331.52
535.88	41090.44
536.05	41287.05
536.22	41497.70
536.38	41411.10
536.55	41432.16
536.72	41425.14
536.89	41401.74
537.06	41446.21
537.23	41757.50
537.40	41675.58
537.57	41553.87
537.74	41879.21
537.91	42096.88
538.08	42162.41
538.25	41390.03
538.42	41900.27
538.59	42258.37
538.75	41514.08
538.92	42335.61
539.09	41961.12
539.26	42103.90
539.43	42073.47
539.60	41827.71
539.77	41982.19
539.94	42019.64
540.11	41968.15
540.28	42263.05
540.44	41832.39
540.61	42302.84
540.78	41865.16
540.95	42223.26
541.12	42096.88
541.29	42473.70
541.46	42380.08
541.62	42454.98
541.79	42623.50
541.96	42351.99
542.13	42508.81
542.30	42611.79
542.47	42845.85
542.63	42927.77
542.80	42770.95
542.97	43311.61
543.14	43346.72
543.31	42927.77
543.48	43133.73
543.64	43693.12
543.81	43526.94
543.98	43576.09
544.15	43323.32
544.32	43199.27
544.48	43805.47
544.65	43477.79
544.82	43585.46
544.99	43358.42
545.16	43985.69
545.32	43138.41
545.49	44240.81
545.66	44158.89
545.83	43543.33
546.00	43634.61
546.16	43473.11
546.33	43597.16
546.50	43515.24
546.67	43983.35
546.83	43728.23
547.00	43676.74
547.17	43821.85
547.34	43608.86
547.50	44011.43
547.67	44701.89
547.84	44294.64
548.00	44030.16
548.17	43983.35
548.34	43798.44
548.51	44282.94
548.67	44545.08
548.84	44236.12
549.01	44545.08
549.18	44322.72
549.34	44533.37
549.51	44512.31
549.68	44463.16
549.84	44374.22
550.01	44715.93
550.18	44289.96
550.34	44449.11
550.51	44521.67
550.68	44346.13
550.84	44219.74
551.01	44694.87
551.18	45181.70
551.34	44877.43
551.51	44341.45
551.68	45001.48
551.84	44949.99
552.01	44926.58
552.18	44769.77
552.34	44598.91
552.51	44680.83
552.68	45191.06
552.84	45207.45
553.01	45413.41
553.18	44987.44
553.34	44940.63
553.51	44893.82
553.67	45226.17
553.84	45500.01
554.01	45425.12
554.17	45420.44
554.34	45799.60
554.51	45467.25
554.67	45600.66
554.84	45649.81
555.00	45144.25
555.17	45338.52
555.33	45886.20
555.50	45673.21
555.67	45366.60
555.83	45553.85
556.00	45598.32
556.16	46471.34
556.33	45776.20
556.50	45404.05
556.66	45797.26
556.83	45490.65
556.99	45717.68
557.16	46216.22
557.32	45811.31
557.49	45549.17
557.65	45354.90
557.82	45418.10
557.98	45727.05
558.15	45581.93
558.32	45673.21
558.48	45497.67
558.65	45764.49
558.81	45457.88
558.98	45549.17
559.14	45783.22
559.31	45944.72
559.47	45998.55
559.64	46225.58
559.80	46113.23
559.97	46000.89
560.13	45738.75
560.30	45593.64
560.46	46033.66
560.63	46148.34
560.79	46127.28
560.96	45979.82
561.12	46134.30
561.29	46305.16
561.45	45958.76
561.61	46499.42
561.78	46160.05
561.94	45818.33
562.11	46391.76
562.27	46160.05
562.44	45771.52
562.60	46469.00
562.77	46600.07
562.93	46513.47
563.10	46541.55
563.26	45991.53
563.42	46735.82
563.59	46080.47
563.75	45860.46
563.92	46377.72
564.08	46740.50
564.24	46258.35
564.41	46160.05
564.57	46518.15
564.74	46122.60
564.90	46717.09
565.07	46415.16
565.23	46085.15
565.39	46302.82
565.56	46328.56
565.72	45965.78
565.88	46260.69
566.05	46272.39
566.21	46417.50
566.38	46319.20
566.54	46717.09
566.70	46356.65
566.87	47138.39
567.03	46550.91
567.19	47124.35
567.36	46630.49
567.52	46719.43
567.68	46618.79
567.85	46185.79
568.01	46808.37
568.17	46651.56
568.34	46335.59
568.50	46424.53
568.66	46270.05
568.83	46794.33
568.99	46799.01
569.15	46506.44
569.32	46553.26
569.48	46298.14
569.64	46763.90
569.81	46518.15
569.97	46433.89
570.13	46951.15
570.30	46134.30
570.46	46199.83
570.62	46286.43
570.78	46284.09
570.95	46373.03
571.11	46813.05
571.27	46426.87
571.43	46625.81
571.60	46880.93
571.76	46803.69
571.92	46590.70
572.09	46370.69
572.25	47033.07
572.41	46588.36
572.57	46911.36
572.74	46869.23
572.90	46623.47
573.06	46808.37
573.22	46831.78
573.38	46550.91
573.55	46607.09
573.71	47136.05
573.87	46597.73
574.03	46534.53
574.20	46478.36
574.36	46752.20
574.52	46644.54
574.68	46890.29
574.84	46815.40
575.01	46417.50
575.17	46904.34
575.33	46513.47
575.49	46831.78
575.65	47166.48
575.82	47199.24
575.98	47004.98
576.14	46969.87
576.30	47014.34
576.46	46951.15
576.62	46820.08
576.79	46829.44
576.95	46417.50
577.11	46993.28
577.27	46864.55
577.43	46887.95
577.59	47096.26
577.75	46553.26
577.92	46637.51
578.08	46272.39
578.24	46632.83
578.40	46728.80
578.56	46787.31
578.72	46632.83
578.88	46850.50
579.04	46738.16
579.21	46913.70
579.37	46803.69
579.53	46747.52
579.69	46637.51
579.85	46593.04
580.01	46787.31
580.17	46906.68
580.33	46813.05
580.49	46899.65
580.65	46834.12
580.82	47215.63
580.98	47042.43
581.14	46745.18
581.30	46859.87
581.46	46845.82
581.62	46920.72
581.78	46513.47
581.94	46866.89
582.10	47019.02
582.26	47150.09
582.42	46731.14
582.58	47255.42
582.74	46892.63
582.90	47004.98
583.06	47248.39
583.22	47395.85
583.38	46756.88
583.54	47040.09
583.70	46852.84
583.86	46937.10
584.02	46979.23
584.18	46827.10
584.34	46679.64
584.50	46887.95
584.66	47089.24
584.82	46705.39
584.98	46719.43
585.14	47063.49
585.30	46457.29
585.46	47276.48
585.62	46810.71
585.78	46635.17
585.94	46532.19
586.10	46958.17
586.26	46740.50
586.42	46911.36
586.58	47531.60
586.74	47206.26
586.90	46665.60
587.06	46738.16
587.22	46979.23
587.38	46808.37
587.54	47241.37
587.70	46990.94
587.86	46726.46
588.02	46494.74
588.18	47107.96
588.34	46777.95
588.49	46543.89
588.65	45881.52
588.81	46089.83
588.97	46499.42
589.13	46377.72
589.29	46759.22
589.45	46567.30
589.61	46831.78
589.77	46852.84
589.93	47070.51
