SpectraSuite Data File
++++++++++++++++++++++++++++++++++++
Date: Fri Oct 25 11:23:08 EDT 2013
User: price-jones
Dark Spectrum Present: No
Reference Spectrum Present: No
Number of Sampled Component Spectra: 1
Spectrometers: USB2+H05261
Integration Time (usec): 100000 (USB2+H05261)
Spectra Averaged: 1 (USB2+H05261)
Boxcar Smoothing: 0 (USB2+H05261)
Correct for Electrical Dark: No (USB2+H05261)
Strobe/Lamp Enabled: No (USB2+H05261)
Correct for Detector Non-linearity: No (USB2+H05261)
Correct for Stray Light: No (USB2+H05261)
Number of Pixels in Processed Spectrum: 2048
>>>>>Begin Processed Spectral Data<<<<<
365.73	152.13
365.92	152.13
366.12	152.13
366.32	138.09
366.52	154.48
366.72	128.73
366.91	105.32
367.11	159.16
367.31	117.03
367.51	149.79
367.70	147.45
367.90	140.43
368.10	154.48
368.30	114.69
368.49	128.73
368.69	147.45
368.89	161.50
369.09	98.30
369.28	201.29
369.48	81.92
369.68	135.75
369.87	133.41
370.07	196.60
370.27	266.82
370.47	194.26
370.66	564.07
370.86	613.22
371.06	636.63
371.25	739.61
371.45	653.01
371.65	702.16
371.84	617.90
372.04	622.58
372.24	662.37
372.44	713.86
372.63	753.65
372.83	763.01
373.03	734.93
373.22	746.63
373.42	763.01
373.62	779.40
373.81	767.70
374.01	821.53
374.21	788.76
374.40	866.00
374.60	748.97
374.79	753.65
374.99	868.34
375.19	833.23
375.38	807.48
375.58	849.61
375.78	856.64
375.97	903.45
376.17	959.62
376.37	844.93
376.56	880.04
376.76	875.36
376.95	917.49
377.15	940.90
377.35	889.40
377.54	1006.43
377.74	875.36
377.93	983.02
378.13	887.06
378.33	954.94
378.52	856.64
378.72	1008.77
378.91	926.85
379.11	1013.45
379.31	936.21
379.50	917.49
379.70	1057.92
379.89	1011.11
380.09	873.02
380.28	1032.18
380.48	1008.77
380.68	1022.81
380.87	1036.86
381.07	1041.54
381.26	1144.52
381.46	1006.43
381.65	1015.79
381.85	1095.37
382.04	1034.52
382.24	1144.52
382.43	1036.86
382.63	1008.77
382.83	1093.03
383.02	1142.18
383.22	1104.73
383.41	1128.14
383.61	1151.54
383.80	1221.76
384.00	1083.67
384.19	1184.31
384.39	1069.62
384.58	1125.80
384.78	1163.25
384.97	1188.99
385.17	1111.75
385.36	1191.33
385.56	1146.86
385.75	1240.48
385.95	1146.86
386.14	1261.55
386.34	1282.61
386.53	1221.76
386.72	1188.99
386.92	1266.23
387.11	1287.29
387.31	1294.32
387.50	1212.40
387.70	1270.91
387.89	1301.34
388.09	1275.59
388.28	1334.11
388.48	1273.25
388.67	1331.76
388.86	1341.13
389.06	1277.93
389.25	1416.02
389.45	1308.36
389.64	1418.36
389.84	1341.13
390.03	1357.51
390.22	1357.51
390.42	1376.24
390.61	1373.89
390.81	1313.04
391.00	1313.04
391.19	1444.11
391.39	1493.26
391.58	1446.45
391.78	1488.58
391.97	1558.80
392.16	1497.94
392.36	1533.05
392.55	1528.37
392.75	1497.94
392.94	1483.90
393.13	1633.69
393.33	1502.62
393.52	1568.16
393.71	1621.99
393.91	1528.37
394.10	1570.50
394.29	1694.55
394.49	1600.93
394.68	1629.01
394.88	1661.78
395.07	1638.38
395.26	1696.89
395.46	1792.85
395.65	1797.53
395.84	1703.91
396.04	1732.00
396.23	1741.36
396.42	1755.40
396.62	1844.34
396.81	1839.66
397.00	1844.34
397.19	1820.94
397.39	1734.34
397.58	1834.98
397.77	1818.60
397.97	1816.26
398.16	1863.07
398.35	1895.83
398.55	1863.07
398.74	1989.46
398.93	1966.05
399.12	1968.39
399.32	1914.56
399.51	1823.28
399.70	1956.69
399.90	2071.37
400.09	2078.40
400.28	2076.06
400.47	2057.33
400.67	2026.90
400.86	2106.48
401.05	2134.57
401.24	2076.06
401.44	2129.89
401.63	2239.89
401.82	2132.23
402.01	2139.25
402.21	2143.93
402.40	2218.83
402.59	2195.42
402.78	2256.28
402.97	2256.28
403.17	2249.25
403.36	2181.38
403.55	2270.32
403.74	2450.54
403.93	2464.58
404.13	2380.32
404.32	2399.05
404.51	2356.92
404.70	2480.97
404.89	2427.14
405.09	2572.25
405.28	2464.58
405.47	2387.35
405.66	2597.99
405.85	2523.10
406.05	2462.24
406.24	2581.61
406.43	2651.83
406.62	2607.36
406.81	2663.53
407.00	2546.50
407.20	2581.61
407.39	2796.94
407.58	2841.41
407.77	2626.08
407.96	2836.73
408.15	2895.24
408.34	2785.24
408.54	2806.30
408.73	2871.84
408.92	2855.45
409.11	2860.13
409.30	2827.37
409.49	2956.10
409.68	2998.23
409.87	2977.16
410.07	2988.86
410.26	2944.39
410.45	2958.44
410.64	3068.44
410.83	3033.33
411.02	3253.34
411.21	3239.30
411.40	3178.45
411.59	3173.77
411.78	3283.77
411.98	3208.87
412.17	3288.45
412.36	3304.84
412.55	3389.10
412.74	3379.73
412.93	3368.03
413.12	3405.48
413.31	3611.45
413.50	3513.14
413.69	3653.58
413.88	3655.92
414.07	3611.45
414.26	3765.92
414.45	3803.37
414.64	3588.04
414.83	3875.93
415.02	3885.29
415.22	3885.29
415.41	3892.31
415.60	3878.27
415.79	4079.55
415.98	3960.19
416.17	3999.98
416.36	3946.14
416.55	4028.06
416.74	4121.68
416.93	4070.19
417.12	4131.05
417.31	4290.20
417.50	4077.21
417.69	4278.50
417.88	4362.76
418.07	4299.56
418.26	4308.93
418.45	4351.06
418.64	4475.10
418.83	4411.91
419.02	4454.04
419.21	4535.96
419.39	4514.89
419.58	4447.02
419.77	4580.43
419.96	4662.35
420.15	4533.62
420.34	4596.81
420.53	4615.54
420.72	4730.22
420.91	4816.82
421.10	4936.19
421.29	4863.63
421.48	4760.65
421.67	4854.27
421.86	4880.02
422.05	4751.29
422.24	4772.35
422.43	4863.63
422.61	5074.28
422.80	4945.55
422.99	4929.17
423.18	5071.94
423.37	5109.39
423.56	5097.69
423.75	5034.49
423.94	4947.89
424.13	4491.49
424.32	4709.16
424.50	5018.11
424.69	5088.32
424.88	5177.26
425.07	5039.17
425.26	4865.97
425.45	4994.70
425.64	4947.89
425.83	4971.30
426.01	5093.01
426.20	5060.24
426.39	5193.65
426.58	5179.61
426.77	5041.51
426.96	5233.44
427.15	5228.76
427.33	5343.44
427.52	5167.90
427.71	5298.97
427.90	5308.34
428.09	5455.79
428.28	5245.14
428.46	5441.75
428.65	5418.34
428.84	5500.26
429.03	5533.03
429.22	5584.52
429.40	5446.43
429.59	5549.41
429.78	5390.25
429.97	5144.50
430.16	5380.89
430.34	5699.20
430.53	5659.42
430.72	5722.61
430.91	5771.76
431.10	5729.63
431.28	5916.87
431.47	5811.55
431.66	5935.60
431.85	5748.36
432.03	5949.64
432.22	6003.47
432.41	6017.52
432.60	5951.98
432.79	5930.92
432.97	6015.18
433.16	6225.82
433.35	5959.00
433.54	6115.82
433.72	6097.10
433.91	6134.54
434.10	6279.66
434.28	6209.44
434.47	6242.21
434.66	6239.87
434.85	6415.41
435.03	6366.26
435.22	6356.90
435.41	6338.17
435.59	6494.99
435.78	6473.92
435.97	6478.60
436.16	6567.54
436.34	6359.24
436.53	6457.54
436.72	6738.40
436.90	6572.22
437.09	6715.00
437.28	6513.71
437.46	6642.44
437.65	6761.81
437.84	6775.85
438.02	6836.70
438.21	6918.62
438.40	6820.32
438.58	6967.77
438.77	7112.89
438.96	6918.62
439.14	7082.46
439.33	7211.19
439.52	7307.15
439.70	7232.26
439.89	7391.41
440.08	7377.37
440.26	7485.03
440.45	7365.67
440.63	7728.45
440.82	7576.31
441.01	7552.91
441.19	7639.51
441.38	7826.75
441.57	7791.64
441.75	7901.65
441.94	7810.37
442.12	7934.42
442.31	8161.45
442.50	8042.08
442.68	7903.99
442.87	8142.72
443.05	8177.83
443.24	8299.54
443.43	8180.17
443.61	8248.05
443.80	8648.28
443.98	8308.90
444.17	7992.93
444.35	8285.50
444.54	8374.44
444.73	8557.00
444.91	8367.42
445.10	8320.60
445.28	8475.08
445.47	8322.94
445.65	8318.26
445.84	8393.16
446.02	8461.04
446.21	8439.97
446.39	8613.17
446.58	8578.06
446.77	8470.40
446.95	8215.28
447.14	8489.12
447.32	8575.72
447.51	8472.74
447.69	8547.64
447.88	8568.70
448.06	8542.96
448.25	8734.88
448.43	8669.34
448.62	8688.07
448.80	8667.00
448.99	8786.37
449.17	8779.35
449.36	8905.74
449.54	8901.06
449.73	9050.85
449.91	9219.37
450.10	9231.07
450.28	8919.78
450.46	9128.09
450.65	9062.55
450.83	9083.62
451.02	9034.47
451.20	9350.44
451.39	9067.24
451.57	9373.85
451.76	9116.39
451.94	9273.20
452.13	9486.19
452.31	9373.85
452.49	9404.27
452.68	9458.10
452.86	9427.68
453.05	9397.25
453.23	9404.27
453.42	9570.45
453.60	9516.62
453.78	9540.02
453.97	9600.88
454.15	9668.75
454.34	9600.88
454.52	9792.80
454.70	9734.29
454.89	9846.63
455.07	9635.99
455.26	9689.82
455.44	10012.81
455.62	10017.49
455.81	10047.92
455.99	10106.43
456.17	10040.90
456.36	10202.40
456.54	10281.97
456.73	10352.19
456.91	10665.82
457.09	10471.56
457.28	10705.61
457.46	10256.23
457.64	10640.08
457.83	10537.09
458.01	10473.90
458.19	10841.36
458.38	10630.71
458.56	10806.25
458.74	10494.96
458.93	10958.39
459.11	10848.38
459.29	10965.41
459.48	11023.92
459.66	11019.24
459.84	11019.24
460.03	11066.05
460.21	11084.78
460.39	10841.36
460.57	11154.99
460.76	11531.82
460.94	11173.72
461.12	11241.59
461.31	11316.49
461.49	11309.47
461.67	11234.57
461.85	11592.67
462.04	11393.73
462.22	11693.32
462.40	11747.15
462.59	11714.38
462.77	11606.72
462.95	11822.05
463.13	11559.91
463.32	11744.81
463.50	11875.88
463.68	11740.13
463.86	12020.99
464.05	11882.90
464.23	11913.33
464.41	11910.99
464.59	11910.99
464.78	12351.01
464.96	12135.68
465.14	12081.85
465.32	12079.50
465.50	12212.92
465.69	12456.33
465.87	12145.04
466.05	12313.56
466.23	12217.60
466.41	12376.75
466.60	12688.04
466.78	12407.18
466.96	12315.90
467.14	12512.50
467.32	12496.12
467.51	12648.26
467.69	12290.15
467.87	12556.97
468.05	12856.56
468.23	12526.55
468.41	12711.45
468.60	12587.40
468.78	12856.56
468.96	12746.56
469.14	12968.91
469.32	13128.06
469.50	12917.42
469.69	13074.23
469.87	12894.01
470.05	13350.42
470.23	13411.27
470.41	13291.90
470.59	13476.80
470.77	13373.82
470.95	13404.25
471.14	13694.47
471.32	13252.11
471.50	13591.49
471.68	13717.88
471.86	13923.85
472.04	13813.84
472.22	14066.62
472.40	13818.52
472.58	13844.27
472.77	14183.65
472.95	14354.51
473.13	14665.80
473.31	14143.86
473.49	14258.54
473.67	14324.08
473.85	14200.03
474.03	14707.93
474.21	14780.48
474.39	14934.96
474.57	14834.32
474.75	15138.58
474.93	15260.29
475.12	15171.35
475.30	15309.44
475.48	15527.11
475.66	15421.79
475.84	15302.42
476.02	15487.32
476.20	15585.63
476.38	15976.50
476.56	16168.42
476.74	16013.95
476.92	16044.37
477.10	15749.46
477.28	16238.64
477.46	16294.81
477.64	16423.54
477.82	16730.15
478.00	17214.64
478.18	16868.24
478.36	16973.56
478.54	17158.47
478.72	17184.21
478.90	17427.63
479.08	17804.46
479.26	17659.34
479.44	17724.88
479.62	17912.12
479.80	18150.85
479.98	18225.75
480.16	18871.74
480.34	18352.14
480.52	18836.63
480.70	18670.45
480.88	18586.19
481.06	18689.18
481.24	18656.41
481.41	19307.08
481.59	19700.29
481.77	19508.37
481.95	19491.98
482.13	20144.99
482.31	19817.32
482.49	20407.13
482.67	20734.81
482.85	20648.21
483.03	20858.85
483.21	20765.23
483.39	20929.07
483.57	21085.89
483.74	21535.27
483.92	21664.00
484.10	21600.80
484.28	21544.63
484.46	22326.37
484.64	22614.26
484.82	22459.78
485.00	22703.20
485.18	22682.13
485.35	23293.01
485.53	22897.46
485.71	23300.03
485.89	23634.73
486.07	23655.79
486.25	23442.81
486.43	23978.79
486.61	24215.18
486.78	24500.73
486.96	23929.64
487.14	24725.42
487.32	25123.31
487.50	25184.16
487.68	25230.98
487.85	25500.14
488.03	25556.31
488.21	25991.65
488.39	26141.44
488.57	26204.64
488.75	26717.22
488.92	26890.41
489.10	26831.90
489.28	26913.82
489.46	27192.34
489.64	27328.10
489.81	27999.83
489.99	27953.02
490.17	27707.26
490.35	28519.43
490.53	28673.90
490.70	28584.96
490.88	28418.78
491.06	29322.23
491.24	28900.94
491.41	29427.56
491.59	29596.07
491.77	29720.12
491.95	29729.48
492.13	30017.37
492.30	30171.85
492.48	30586.12
492.66	30689.10
492.84	30698.47
493.01	30838.90
493.19	31096.36
493.37	31550.42
493.54	31438.08
493.72	31768.09
493.90	31782.13
494.08	31882.78
494.25	32374.29
494.43	32002.14
494.61	32966.45
494.79	33071.77
494.96	33060.07
495.14	33113.90
495.32	33263.69
495.49	33399.44
495.67	33752.87
495.85	34000.96
496.02	34017.35
496.20	33839.47
496.38	34223.31
496.55	34497.16
496.73	35079.95
496.91	34827.17
497.09	35122.08
497.26	35356.13
497.44	35473.16
497.62	35749.34
497.79	36180.00
497.97	35955.31
498.14	36655.13
498.32	36809.61
498.50	36772.16
498.67	36769.82
498.85	37013.23
499.03	36533.42
499.20	37015.57
499.38	37024.93
499.56	37270.69
499.73	37710.71
499.91	37780.93
500.08	37907.32
500.26	37858.17
500.44	38143.71
500.61	38504.15
500.79	38211.59
500.97	38565.01
501.14	38806.08
501.32	39166.52
501.49	39213.34
501.67	39182.91
501.84	39452.07
502.02	39512.92
502.20	39679.10
502.37	39833.58
502.55	39576.12
502.72	39854.64
502.90	39728.25
503.07	39737.62
503.25	40364.88
503.43	39873.37
503.60	40395.31
503.78	40605.95
503.95	40662.13
504.13	40942.99
504.30	40828.30
504.48	40781.49
504.65	41247.26
504.83	41710.69
505.01	41694.30
505.18	41549.19
505.36	41998.57
505.53	41710.69
505.71	42148.37
505.88	42321.57
506.06	41858.14
506.23	42312.20
506.41	42164.75
506.58	42288.80
506.76	42546.26
506.93	43044.79
507.11	42787.33
507.28	42651.58
507.46	43587.80
507.63	43667.37
507.81	43887.39
507.98	43566.73
508.16	43578.43
508.33	43665.03
508.50	43854.62
508.68	44451.45
508.85	44266.55
509.03	44313.36
509.20	44533.37
509.38	44900.84
509.55	44374.22
509.73	44800.19
509.90	44917.22
510.08	44795.51
510.25	44893.82
510.42	45308.09
510.60	45724.71
510.77	45291.71
510.95	45792.58
511.12	45654.49
511.30	45895.56
511.47	46094.51
511.64	46223.24
511.82	46160.05
511.99	46061.74
512.17	46639.86
512.34	45930.67
512.51	46784.97
512.69	46852.84
512.86	46714.75
513.04	46806.03
513.21	47100.94
513.38	46934.76
513.56	47267.12
513.73	47021.36
513.90	47210.95
514.08	47302.23
514.25	47901.40
514.43	47988.00
514.60	48067.58
514.77	47810.12
514.95	48102.69
515.12	47859.27
515.29	47901.40
515.47	48186.95
515.64	48498.24
515.81	48399.94
515.99	48357.81
516.16	48664.42
516.33	49031.88
516.51	49256.57
516.68	49127.84
516.85	48973.37
517.03	48900.81
517.20	49205.08
517.37	49511.69
517.54	48863.36
517.72	49425.09
517.89	49595.95
518.06	49289.34
518.24	49635.74
518.41	49382.96
518.58	49965.76
518.75	49652.12
518.93	49911.92
519.10	49734.04
519.27	49839.37
519.45	49991.50
519.62	50209.17
519.79	50733.45
519.96	50131.93
520.14	50607.06
520.31	50305.13
520.48	50677.28
520.65	50398.76
520.83	50763.88
521.00	50976.87
521.17	51107.94
521.34	50953.46
521.52	51152.41
521.69	51138.36
521.86	51604.13
522.03	51398.16
522.20	51693.07
522.38	51753.93
522.55	51669.67
522.72	51807.76
522.89	51615.83
523.07	51793.71
523.24	51955.21
523.41	52397.57
523.58	51964.57
523.75	52130.75
523.92	52364.81
524.10	52406.94
524.27	52442.04
524.44	52285.23
524.61	52409.28
524.78	52465.45
524.96	52474.81
525.13	52776.74
525.30	52769.72
525.47	52795.46
525.64	52821.21
525.81	52835.25
525.98	53104.41
526.16	52748.65
526.33	52870.36
526.50	53392.30
526.67	52933.56
526.84	53471.88
527.01	53109.10
527.18	53092.71
527.36	53336.13
527.53	53499.97
527.70	53939.99
527.87	53542.10
528.04	53474.22
528.21	53654.44
528.38	53729.34
528.55	54031.27
528.72	53916.58
528.89	53656.78
529.07	53776.15
529.24	53815.94
529.41	53773.81
529.58	53949.35
529.75	54064.03
529.92	54101.48
530.09	54443.20
530.26	54293.41
530.43	54539.16
530.60	54253.62
530.77	54021.90
530.94	54618.74
531.11	54181.06
531.28	54518.10
531.46	54436.18
531.63	54550.87
531.80	54740.45
531.97	54628.10
532.14	54838.75
532.31	54918.33
532.48	55018.97
532.65	55121.96
532.82	54717.04
532.99	54850.45
533.16	54798.96
533.33	55299.84
533.50	55107.91
533.67	54986.21
533.84	55159.41
534.01	55391.12
534.18	55119.62
534.35	55454.31
534.52	55444.95
534.69	55695.39
534.86	55597.09
535.03	55503.46
535.20	55407.50
535.37	55561.98
535.54	55739.86
535.71	55625.17
535.88	56027.74
536.05	55882.63
536.22	55842.84
536.38	55849.86
536.55	56027.74
536.72	55781.99
536.89	55648.58
537.06	56046.47
537.23	56135.41
537.40	55992.64
537.57	56032.42
537.74	56112.00
537.91	56500.53
538.08	56032.42
538.25	56109.66
538.42	56350.74
538.59	56739.27
538.75	56273.50
538.92	56444.36
539.09	56442.02
539.26	56662.03
539.43	56416.27
539.60	56306.27
539.77	56591.81
539.94	56734.59
540.11	56706.50
540.28	56769.69
540.44	56626.92
540.61	56783.74
540.78	56645.65
540.95	56898.42
541.12	56722.88
541.29	56783.74
541.46	56797.78
541.62	56982.68
541.79	56898.42
541.96	56549.68
542.13	56931.19
542.30	57038.86
542.47	57270.57
542.63	57193.33
542.80	57176.95
542.97	57240.14
543.14	57703.57
543.31	57359.51
543.48	57429.72
543.64	57813.57
543.81	57567.82
543.98	57563.14
544.15	57513.98
544.32	57911.88
544.48	57855.70
544.65	57745.70
544.82	57726.97
544.99	57558.45
545.16	57745.70
545.32	57565.48
545.49	58005.50
545.66	57921.24
545.83	57879.11
546.00	57965.71
546.16	58136.57
546.33	57570.16
546.50	57710.59
546.67	57825.28
546.83	57659.10
547.00	58122.52
547.17	58045.29
547.34	58085.07
547.50	58298.06
547.67	58269.98
547.84	58033.58
548.00	58440.84
548.17	58316.79
548.34	58323.81
548.51	58611.70
548.67	58567.23
548.84	58377.64
549.01	58293.38
549.18	58405.73
549.34	58562.54
549.51	58457.22
549.68	58592.97
549.84	58614.04
550.01	58555.52
550.18	58466.58
550.34	58855.11
550.51	58731.06
550.68	58621.06
550.84	58515.73
551.01	58667.87
551.18	58796.60
551.34	58745.11
551.51	58784.90
551.68	58728.72
551.84	58810.64
552.01	58717.02
552.18	58913.62
552.34	58974.48
552.51	59023.63
552.68	58915.96
552.84	58892.56
553.01	59344.28
553.18	58976.82
553.34	59241.30
553.51	58967.46
553.67	58904.26
553.84	59150.02
554.01	59220.23
554.17	59203.85
554.34	59182.79
554.51	59571.32
554.67	59332.58
554.84	59269.39
555.00	59306.83
555.17	59281.09
555.33	59182.79
555.50	59297.47
555.67	59395.77
555.83	59400.46
556.00	59447.27
556.16	59882.61
556.33	59594.72
556.50	59367.69
556.66	59746.86
556.83	59449.61
556.99	59341.94
557.16	59749.20
557.32	59615.79
557.49	59786.64
557.65	59526.84
557.82	59597.06
557.98	59634.51
558.15	59845.16
558.32	59683.66
558.48	59700.04
558.65	59826.43
558.81	59788.98
558.98	59796.01
559.14	59880.27
559.31	59749.20
559.47	59936.44
559.64	60079.21
559.80	59915.37
559.97	60027.72
560.13	59695.36
560.30	59943.46
560.46	59800.69
560.63	59952.82
560.79	59877.93
560.96	59870.90
561.12	60034.74
561.29	59866.22
561.45	60137.72
561.61	59997.29
561.78	60090.91
561.94	60357.74
562.11	59936.44
562.27	60224.32
562.44	60175.17
562.60	60299.22
562.77	60243.05
562.93	59941.12
563.10	60315.61
563.26	60268.79
563.42	60434.97
563.59	60252.41
563.75	60364.76
563.92	60313.26
564.08	60441.99
564.24	60322.63
564.41	60362.42
564.57	60278.16
564.74	60285.18
564.90	60577.75
565.07	60472.42
565.23	60381.14
565.39	60357.74
565.56	60205.60
565.72	60238.37
565.88	60519.23
566.05	60207.94
566.21	60430.29
566.38	60444.33
566.54	60399.86
566.70	60643.28
566.87	60427.95
567.03	60317.95
567.19	60570.72
567.36	60605.83
567.52	60587.11
567.68	60949.89
567.85	60725.20
568.01	60608.17
568.17	60502.85
568.34	60640.94
568.50	60575.40
568.66	60673.71
568.83	60680.73
568.99	60505.19
569.15	60584.77
569.32	60603.49
569.48	60568.38
569.64	60818.82
569.81	60587.11
569.97	60559.02
570.13	60617.53
570.30	60654.98
570.46	60671.37
570.62	60797.76
570.78	60835.20
570.95	60800.10
571.11	60956.91
571.27	60498.17
571.43	60664.35
571.60	60963.93
571.76	60842.23
571.92	60874.99
572.09	60760.31
572.25	60837.54
572.41	60818.82
572.57	60844.57
572.74	61052.87
572.90	60907.76
573.06	60931.17
573.22	60837.54
573.38	60931.17
573.55	60849.25
573.71	61109.05
573.87	60917.12
574.03	60797.76
574.20	61020.11
574.36	60912.44
574.52	60999.04
574.68	60980.32
574.84	61071.60
575.01	61076.28
575.17	61006.06
575.33	60896.06
575.49	60989.68
575.65	60956.91
575.82	61059.90
575.98	61188.63
576.14	61162.88
576.30	61219.05
576.46	61006.06
576.62	60928.83
576.79	60884.36
576.95	60954.57
577.11	61008.40
577.27	60919.46
577.43	61160.54
577.59	61195.65
577.75	60985.00
577.92	60945.21
578.08	61022.45
578.24	61083.30
578.40	61415.66
578.56	61148.84
578.72	61036.49
578.88	61296.29
579.04	61336.08
579.21	61139.47
579.37	61254.16
579.53	61176.92
579.69	60973.30
579.85	61099.68
580.01	61186.28
580.17	61090.32
580.33	61174.58
580.49	61022.45
580.65	61001.38
580.82	60933.51
580.98	61106.71
581.14	61010.74
581.30	61375.87
581.46	61190.97
581.62	61254.16
581.78	61043.51
581.94	61268.20
582.10	61226.07
582.26	60992.02
582.42	61127.77
582.58	61169.90
582.74	61076.28
582.90	61071.60
583.06	61116.07
583.22	60959.25
583.38	61401.61
583.54	61352.46
583.70	61212.03
583.86	61167.56
584.02	60996.70
584.18	61322.04
584.34	61183.94
584.50	61195.65
584.66	61017.77
584.82	61020.11
584.98	61457.79
585.14	61354.80
585.30	61190.97
585.46	61354.80
585.62	61221.39
585.78	61544.39
585.94	61216.71
586.10	61148.84
586.26	61455.45
586.42	61464.81
586.58	61352.46
586.74	61455.45
586.90	61083.30
587.06	61188.63
587.22	61275.22
587.38	61434.38
587.54	61359.48
587.70	61478.85
587.86	61265.86
588.02	61354.80
588.18	61474.17
588.34	61176.92
