SpectraSuite Data File
++++++++++++++++++++++++++++++++++++
Date: Fri Oct 25 11:23:17 EDT 2013
User: price-jones
Dark Spectrum Present: No
Reference Spectrum Present: No
Number of Sampled Component Spectra: 1
Spectrometers: USB2+H05261
Integration Time (usec): 100000 (USB2+H05261)
Spectra Averaged: 1 (USB2+H05261)
Boxcar Smoothing: 0 (USB2+H05261)
Correct for Electrical Dark: No (USB2+H05261)
Strobe/Lamp Enabled: No (USB2+H05261)
Correct for Detector Non-linearity: No (USB2+H05261)
Correct for Stray Light: No (USB2+H05261)
Number of Pixels in Processed Spectrum: 2048
>>>>>Begin Processed Spectral Data<<<<<
365.73	198.95
365.92	198.95
366.12	198.95
366.32	166.18
366.52	107.66
366.72	119.37
366.91	135.75
367.11	105.32
367.31	154.48
367.51	93.62
367.70	126.39
367.90	163.84
368.10	81.92
368.30	196.60
368.49	105.32
368.69	119.37
368.89	184.90
369.09	131.07
369.28	117.03
369.48	159.16
369.68	175.54
369.87	182.56
370.07	210.65
370.27	205.97
370.47	313.63
370.66	510.24
370.86	559.39
371.06	653.01
371.25	744.29
371.45	645.99
371.65	706.84
371.84	648.33
372.04	763.01
372.24	690.46
372.44	723.23
372.63	692.80
372.83	674.07
373.03	716.20
373.22	741.95
373.42	716.20
373.62	727.91
373.81	805.14
374.01	807.48
374.21	877.70
374.40	791.10
374.60	798.12
374.79	812.17
374.99	819.19
375.19	847.27
375.38	851.96
375.58	856.64
375.78	861.32
375.97	992.39
376.17	936.21
376.37	919.83
376.56	882.38
376.76	809.83
376.95	819.19
377.15	976.00
377.35	917.49
377.54	929.19
377.74	919.83
377.93	873.02
378.13	943.24
378.33	961.96
378.52	875.36
378.72	922.17
378.91	858.98
379.11	950.26
379.31	943.24
379.50	964.30
379.70	976.00
379.89	1015.79
380.09	910.47
380.28	1027.50
380.48	1036.86
380.68	922.17
380.87	933.87
381.07	985.37
381.26	1128.14
381.46	983.02
381.65	1067.28
381.85	1015.79
382.04	1076.65
382.24	1074.31
382.43	1078.99
382.63	1001.75
382.83	1008.77
383.02	1074.31
383.22	1114.10
383.41	1111.75
383.61	1114.10
383.80	1107.07
384.00	1097.71
384.19	1153.88
384.39	1167.93
384.58	1067.28
384.78	1097.71
384.97	1109.41
385.17	1210.06
385.36	1172.61
385.56	1167.93
385.75	1207.72
385.95	1226.44
386.14	1167.93
386.34	1121.12
386.53	1177.29
386.72	1137.50
386.92	1186.65
387.11	1156.22
387.31	1259.21
387.50	1128.14
387.70	1217.08
387.89	1294.32
388.09	1221.76
388.28	1294.32
388.48	1322.40
388.67	1308.36
388.86	1336.45
389.06	1242.82
389.25	1327.08
389.45	1315.38
389.64	1357.51
389.84	1420.71
390.03	1397.30
390.22	1416.02
390.42	1280.27
390.61	1411.34
390.81	1432.41
391.00	1540.07
391.19	1474.54
391.39	1490.92
391.58	1495.60
391.78	1490.92
391.97	1469.86
392.16	1437.09
392.36	1490.92
392.55	1511.99
392.75	1500.28
392.94	1483.90
393.13	1481.56
393.33	1519.01
393.52	1607.95
393.71	1645.40
393.91	1631.35
394.10	1530.71
394.29	1570.50
394.49	1554.12
394.68	1607.95
394.88	1675.82
395.07	1598.59
395.26	1544.75
395.46	1614.97
395.65	1703.91
395.84	1699.23
396.04	1722.63
396.23	1720.29
396.42	1724.97
396.62	1783.49
396.81	1727.32
397.00	1851.36
397.19	1722.63
397.39	1802.21
397.58	1865.41
397.77	1792.85
397.97	1776.47
398.16	1877.11
398.35	1870.09
398.55	1809.23
398.74	1952.01
398.93	1888.81
399.12	1947.33
399.32	1968.39
399.51	1916.90
399.70	2029.24
399.90	1956.69
400.09	2033.93
400.28	2094.78
400.47	2036.27
400.67	2106.48
400.86	2017.54
401.05	2012.86
401.24	2204.78
401.44	2101.80
401.63	2197.76
401.82	2193.08
402.01	2190.74
402.21	2092.44
402.40	2143.93
402.59	2167.34
402.78	2150.95
402.97	2207.13
403.17	2305.43
403.36	2310.11
403.55	2249.25
403.74	2392.03
403.93	2368.62
404.13	2363.94
404.32	2244.57
404.51	2471.61
404.70	2438.84
404.89	2382.67
405.09	2520.76
405.28	2466.92
405.47	2518.42
405.66	2546.50
405.85	2628.42
406.05	2555.86
406.24	2583.95
406.43	2668.21
406.62	2656.51
406.81	2572.25
407.00	2649.49
407.20	2633.10
407.39	2691.62
407.58	2693.96
407.77	2731.41
407.96	2754.81
408.15	2909.29
408.34	2738.43
408.54	2782.90
408.73	2855.45
408.92	2867.16
409.11	2869.50
409.30	2864.82
409.49	2991.20
409.68	2890.56
409.87	3014.61
410.07	3009.93
410.26	3075.46
410.45	3035.67
410.64	3229.94
410.83	2998.23
411.02	3295.47
411.21	3262.71
411.40	3267.39
411.59	3288.45
411.78	3138.66
411.98	3286.11
412.17	3159.72
412.36	3311.86
412.55	3487.40
412.74	3358.67
412.93	3515.48
413.12	3489.74
413.31	3588.04
413.50	3559.95
413.69	3468.67
413.88	3613.79
414.07	3538.89
414.26	3559.95
414.45	3681.66
414.64	3597.40
414.83	3857.20
415.02	3700.39
415.22	3854.86
415.41	3976.57
415.60	3995.29
415.79	3995.29
415.98	3932.10
416.17	4028.06
416.36	3941.46
416.55	3936.78
416.74	4227.01
416.93	4198.92
417.12	4224.67
417.31	4215.30
417.50	4238.71
417.69	4255.09
417.88	4369.78
418.07	4222.33
418.26	4386.16
418.45	4360.42
418.64	4695.11
418.83	4386.16
419.02	4540.64
419.21	4542.98
419.39	4514.89
419.58	4482.13
419.77	4517.23
419.96	4627.24
420.15	4521.92
420.34	4554.68
420.53	4746.61
420.72	4716.18
420.91	4751.29
421.10	4786.40
421.29	4931.51
421.48	4671.71
421.67	4730.22
421.86	4868.31
422.05	4819.16
422.24	4945.55
422.43	4992.36
422.61	5013.43
422.80	4947.89
422.99	5088.32
423.18	5022.79
423.37	5011.09
423.56	5013.43
423.75	4910.44
423.94	4865.97
424.13	4582.77
424.32	4889.38
424.50	5109.39
424.69	5167.90
424.88	5057.90
425.07	4983.00
425.26	4992.36
425.45	5100.03
425.64	4980.66
425.83	5071.94
426.01	5125.77
426.20	5177.26
426.39	5177.26
426.58	5123.43
426.77	5151.52
426.96	5231.10
427.15	5186.63
427.33	5254.50
427.52	5322.38
427.71	5441.75
427.90	5280.25
428.09	5322.38
428.28	5359.83
428.46	5408.98
428.65	5228.76
428.84	5556.43
429.03	5509.62
429.22	5327.06
429.40	5518.98
429.59	5666.44
429.78	5413.66
429.97	5224.08
430.16	5558.77
430.34	5748.36
430.53	5694.52
430.72	5659.42
430.91	5710.91
431.10	5617.29
431.28	5921.56
431.47	5849.00
431.66	5891.13
431.85	5696.86
432.03	5923.90
432.22	6031.56
432.41	6040.92
432.60	5919.21
432.79	5797.51
432.97	6040.92
433.16	6092.41
433.35	6127.52
433.54	6036.24
433.72	6326.47
433.91	6239.87
434.10	6200.08
434.28	6167.31
434.47	6221.14
434.66	6197.74
434.85	6293.70
435.03	6422.43
435.22	6403.71
435.41	6560.52
435.59	6473.92
435.78	6471.58
435.97	6733.72
436.16	6595.63
436.34	6499.67
436.53	6546.48
436.72	6801.60
436.90	6546.48
437.09	6825.00
437.28	6525.41
437.46	6572.22
437.65	6600.31
437.84	6871.81
438.02	6630.74
438.21	6888.20
438.40	6836.70
438.58	7066.08
438.77	7159.70
438.96	7150.34
439.14	7302.47
439.33	7232.26
439.52	7452.27
439.70	7407.80
439.89	7627.81
440.08	7461.63
440.26	7234.60
440.45	7543.55
440.63	7559.93
440.82	7698.02
441.01	7510.78
441.19	7772.92
441.38	7763.56
441.57	7894.63
441.75	8044.42
441.94	8044.42
442.12	8006.97
442.31	8088.89
442.50	8107.62
442.68	8271.45
442.87	7981.23
443.05	8369.76
443.24	8404.86
443.43	8196.56
443.61	8175.49
443.80	8599.13
443.98	8189.53
444.17	8098.25
444.35	8439.97
444.54	8463.38
444.73	8514.87
444.91	8332.31
445.10	8631.90
445.28	8512.53
445.47	8168.47
445.65	8379.12
445.84	8571.04
446.02	8664.66
446.21	8491.46
446.39	8374.44
446.58	8500.83
446.77	8706.79
446.95	8236.35
447.14	8318.26
447.32	8451.67
447.51	8549.98
447.69	8475.08
447.88	8659.98
448.06	8655.30
448.25	8482.10
448.43	8624.87
448.62	8594.45
448.80	8582.74
448.99	8823.82
449.17	8823.82
449.36	8697.43
449.54	8887.01
449.73	9170.22
449.91	9064.89
450.10	9071.92
450.28	9041.49
450.46	9123.41
450.65	9275.54
450.83	9090.64
451.02	8936.17
451.20	9048.51
451.39	9231.07
451.57	9289.59
451.76	9291.93
451.94	9465.13
452.13	9359.80
452.31	9549.39
452.49	9280.22
452.68	9458.10
452.86	9488.53
453.05	9418.32
453.23	9533.00
453.42	9525.98
453.60	9626.62
453.78	9596.20
453.97	9533.00
454.15	9596.20
454.34	9486.19
454.52	9884.08
454.70	9947.28
454.89	9507.26
455.07	10106.43
455.26	9919.19
455.44	9973.02
455.62	10054.94
455.81	9921.53
455.99	9872.38
456.17	10228.14
456.36	10281.97
456.54	10181.33
456.73	10403.68
456.91	10609.65
457.09	10555.82
457.28	10619.01
457.46	10497.30
457.64	10703.27
457.83	10590.92
458.01	10686.89
458.19	10832.00
458.38	10677.52
458.56	10810.93
458.74	10740.72
458.93	10796.89
459.11	10668.16
459.29	10853.06
459.48	10984.13
459.66	10855.40
459.84	10913.92
460.03	11239.25
460.21	10977.11
460.39	11206.48
460.57	11297.77
460.76	11201.80
460.94	11204.14
461.12	11337.56
461.31	11262.66
461.49	11508.41
461.67	11344.58
461.85	11735.45
462.04	11466.28
462.22	11627.78
462.40	11737.79
462.59	11655.87
462.77	11363.30
462.95	11838.43
463.13	11611.40
463.32	11740.13
463.50	11976.52
463.68	12100.57
463.86	11698.00
464.05	11763.53
464.23	12030.35
464.41	11885.24
464.59	11927.37
464.78	12250.36
464.96	12182.49
465.14	11948.43
465.32	12383.77
465.50	12458.67
465.69	12451.65
465.87	12229.30
466.05	12351.01
466.23	12233.98
466.41	12397.82
466.60	12564.00
466.78	12128.66
466.96	12561.66
467.14	12542.93
467.32	12329.94
467.51	12762.94
467.69	12393.14
467.87	12255.04
468.05	12922.10
468.23	12603.78
468.41	12416.54
468.60	12564.00
468.78	13114.02
468.96	12610.81
469.14	13123.38
469.32	13109.34
469.50	12835.50
469.69	13137.43
469.87	13362.12
470.05	13008.70
470.23	13142.11
470.41	13132.75
470.59	13376.16
470.77	13462.76
470.95	13500.21
471.14	13745.97
471.32	13420.63
471.50	13640.64
471.68	13682.77
471.86	13701.50
472.04	13846.61
472.22	14153.22
472.40	13727.24
472.58	14132.15
472.77	14326.42
472.95	14471.53
473.13	14761.76
473.31	14314.72
473.49	14368.55
473.67	14167.26
473.85	14750.06
474.03	14717.29
474.21	14726.65
474.39	15124.54
474.57	14958.36
474.75	14909.21
474.93	15136.24
475.12	15260.29
475.30	15513.07
475.48	15293.06
475.66	15269.66
475.84	15410.09
476.02	15342.21
476.20	15484.98
476.38	15899.26
476.56	16060.76
476.74	16355.66
476.92	16077.14
477.10	15941.39
477.28	16320.56
477.46	16379.07
477.64	16671.64
477.82	16840.15
478.00	17324.65
478.18	16980.59
478.36	17280.18
478.54	17263.79
478.72	17453.37
478.90	17547.00
479.08	17436.99
479.26	17944.89
479.44	17940.21
479.62	18279.58
479.80	18143.83
479.98	18398.95
480.16	18602.58
480.34	18738.33
480.52	18925.57
480.70	18838.97
480.88	18492.57
481.06	19126.86
481.24	18771.10
481.41	19431.13
481.59	19826.68
481.77	19824.34
481.95	19786.89
482.13	19843.06
482.31	19660.50
482.49	20418.83
482.67	20542.88
482.85	20556.93
483.03	21036.74
483.21	20947.79
483.39	21240.36
483.57	21238.02
483.74	21270.79
483.92	21820.81
484.10	21338.66
484.28	21860.60
484.46	22307.65
484.64	22544.04
484.82	22345.09
485.00	22537.02
485.18	22883.42
485.35	22960.66
485.53	23030.87
485.71	23580.90
485.89	23913.25
486.07	23639.41
486.25	23786.86
486.43	23880.49
486.61	24215.18
486.78	24280.72
486.96	24496.05
487.14	24964.15
487.32	24788.61
487.50	24802.66
487.68	25312.89
487.85	25425.24
488.03	25397.15
488.21	26199.96
488.39	26101.65
488.57	26326.35
488.75	26443.37
488.92	26810.84
489.10	27321.07
489.28	27372.57
489.46	27161.92
489.64	27211.07
489.81	27852.38
489.99	28233.88
490.17	28278.35
490.35	28414.10
490.53	28308.78
490.70	28886.89
490.88	28620.07
491.06	28947.75
491.24	29202.86
491.41	29263.72
491.59	29617.14
491.77	29621.82
491.95	30031.41
492.13	30274.83
492.30	30707.83
492.48	30368.45
492.66	30513.56
492.84	30684.42
493.01	30862.30
493.19	30897.41
493.37	31679.15
493.54	31459.14
493.72	32039.59
493.90	31992.78
494.08	31995.12
494.25	31997.46
494.43	32259.60
494.61	32795.59
494.79	32790.91
494.96	32716.01
495.14	33036.66
495.32	33518.81
495.49	33724.78
495.67	34094.58
495.85	33916.70
496.02	34319.28
496.20	34609.50
496.38	34075.86
496.55	34843.56
496.73	35159.53
496.91	35030.80
497.09	35061.22
497.26	35625.29
497.44	35271.87
497.62	35627.63
497.79	35913.18
497.97	36011.48
498.14	36187.02
498.32	36950.04
498.50	36933.65
498.67	36788.54
498.85	36943.02
499.03	36856.42
499.20	37202.82
499.38	37347.93
499.56	37523.47
499.73	37844.12
499.91	37865.19
500.08	38047.75
500.26	37951.79
500.44	37933.06
500.61	38667.99
500.79	38352.02
500.97	38286.48
501.14	39063.54
501.32	38864.60
501.49	39402.92
501.67	39445.05
501.84	39660.38
502.02	39269.51
502.20	40046.57
502.37	39798.47
502.55	39611.23
502.72	40034.86
502.90	39784.43
503.07	39651.02
503.25	40154.23
503.43	40172.96
503.60	40739.36
503.78	40896.18
503.95	40603.61
504.13	40982.78
504.30	40919.59
504.48	41275.35
504.65	41280.03
504.83	41483.66
505.01	41570.25
505.18	41579.62
505.36	41986.87
505.53	41647.49
505.71	42349.65
505.88	42438.59
506.06	42026.66
506.23	42405.83
506.41	42359.02
506.58	42642.22
506.76	42728.82
506.93	42974.58
507.11	43225.01
507.28	42784.99
507.46	43138.41
507.63	43646.31
507.81	43316.29
507.98	43686.10
508.16	43824.19
508.33	43903.77
508.50	43613.54
508.68	43934.20
508.85	44641.04
509.03	44369.54
509.20	44474.86
509.38	44699.55
509.55	44912.54
509.73	44938.29
509.90	45385.33
510.08	45008.50
510.25	45329.16
510.42	45385.33
510.60	45773.86
510.77	45806.62
510.95	46218.56
511.12	45713.00
511.30	45940.04
511.47	45893.22
511.64	46216.22
511.82	46209.20
511.99	46333.24
512.17	46436.23
512.34	46609.43
512.51	46859.87
512.69	46749.86
512.86	46925.40
513.04	47236.69
513.21	47196.90
513.38	47337.33
513.56	47318.61
513.73	47201.58
513.90	47529.26
514.08	47550.32
514.25	48030.13
514.43	48044.18
514.60	47847.57
514.77	48128.44
514.95	48222.06
515.12	47767.99
515.29	48446.75
515.47	48568.46
515.64	48465.47
515.81	48219.72
515.99	48769.74
516.16	48741.66
516.33	48854.00
516.51	48811.87
516.68	48992.09
516.85	48945.28
517.03	49181.68
517.20	48795.49
517.37	49102.10
517.54	49177.00
517.72	49272.96
517.89	49345.51
518.06	49673.19
518.24	50080.44
518.41	49656.81
518.58	49532.76
518.75	49492.97
518.93	49827.66
519.10	49780.85
519.27	50328.54
519.45	50309.82
519.62	50616.43
519.79	50361.31
519.96	50536.85
520.14	50548.55
520.31	50447.91
520.48	50857.50
520.65	50890.27
520.83	51154.75
521.00	51150.07
521.17	50925.38
521.34	50918.35
521.52	51051.76
521.69	50911.33
521.86	51302.20
522.03	51246.03
522.20	51573.70
522.38	51999.68
522.55	51777.33
522.72	51786.69
522.89	51805.42
523.07	52161.18
523.24	52128.41
523.41	52381.19
523.58	51636.90
523.75	52126.07
523.92	52327.36
524.10	52329.70
524.27	52516.94
524.44	52474.81
524.61	52507.58
524.78	52673.76
524.96	52526.30
525.13	52692.48
525.30	52795.46
525.47	52823.55
525.64	53176.97
525.81	52935.90
525.98	52938.24
526.16	53219.10
526.33	53001.43
526.50	53371.24
526.67	53233.14
526.84	53237.83
527.01	53076.33
527.18	53066.97
527.36	53127.82
527.53	53773.81
527.70	53794.87
527.87	53762.11
528.04	53441.45
528.21	53780.83
528.38	53595.93
528.55	53947.01
528.72	53846.36
528.89	53741.04
529.07	53663.80
529.24	53986.80
529.41	54096.80
529.58	53956.37
529.75	53900.20
529.92	54218.51
530.09	54181.06
530.26	54279.36
530.43	54157.66
530.60	53881.47
530.77	54185.74
530.94	54555.55
531.11	54218.51
531.28	54475.97
531.46	54433.84
531.63	54756.83
531.80	54422.14
531.97	54677.25
532.14	54805.98
532.31	54663.21
532.48	55159.41
532.65	54979.18
532.82	54827.05
532.99	55131.32
533.16	54934.71
533.33	55117.28
533.50	55377.08
533.67	55100.89
533.84	55136.00
534.01	55281.11
534.18	55105.57
534.35	55735.18
534.52	55437.93
534.69	55606.45
534.86	55573.68
535.03	55339.63
535.20	55580.70
535.37	55742.20
535.54	55646.24
535.71	55524.53
535.88	55686.03
536.05	55646.24
536.22	56016.04
536.38	55845.18
536.55	55920.08
536.72	55746.88
536.89	55880.29
537.06	56023.06
537.23	56044.13
537.40	56002.00
537.57	56193.92
537.74	55955.19
537.91	56264.14
538.08	56020.72
538.25	55992.64
538.42	56065.19
538.59	56308.61
538.75	56083.92
538.92	56273.50
539.09	56540.32
539.26	56584.79
539.43	56481.81
539.60	56357.76
539.77	56575.43
539.94	57010.77
540.11	56671.39
540.28	56769.69
540.44	56662.03
540.61	56772.03
540.78	56530.96
540.95	56645.65
541.12	56559.05
541.29	56699.48
541.46	56851.61
541.62	56966.30
541.79	57003.75
541.96	56788.42
542.13	56919.49
542.30	57043.54
542.47	57158.22
542.63	57073.96
542.80	57078.64
542.97	57113.75
543.14	57254.18
543.31	57413.34
543.48	57394.62
543.64	57900.17
543.81	57544.41
543.98	57682.50
544.15	57462.49
544.32	57902.51
544.48	58031.24
544.65	57488.24
544.82	57696.55
544.99	57726.97
545.16	57691.86
545.32	57846.34
545.49	57844.00
545.66	57935.28
545.83	57935.28
546.00	58120.18
546.16	57881.45
546.33	57876.77
546.50	57909.53
546.67	57949.32
546.83	57907.19
547.00	58103.80
547.17	58211.46
547.34	58113.16
547.50	58274.66
547.67	58387.00
547.84	58260.62
548.00	58433.81
548.17	58419.77
548.34	58314.45
548.51	58578.93
548.67	58691.27
548.84	58307.43
549.01	58344.87
549.18	58347.21
549.34	58347.21
549.51	58651.48
549.68	58457.22
549.84	58794.26
550.01	58791.92
550.18	58454.88
550.34	58930.01
550.51	58827.02
550.68	58717.02
550.84	58403.39
551.01	58911.28
551.18	58738.08
551.34	58805.96
551.51	58824.68
551.68	58745.11
551.84	58803.62
552.01	58702.98
552.18	58955.75
552.34	58756.81
552.51	58862.13
552.68	58726.38
552.84	58988.52
553.01	59124.27
553.18	59143.00
553.34	59231.94
553.51	58728.72
553.67	59100.87
553.84	59283.43
554.01	59187.47
554.17	59143.00
554.34	59217.89
554.51	59311.52
554.67	59119.59
554.84	59477.69
555.00	59203.85
555.17	59365.35
555.33	59435.56
555.50	59114.91
555.67	59327.90
555.83	59234.28
556.00	59498.76
556.16	59772.60
556.33	59662.60
556.50	59568.97
556.66	59636.85
556.83	59447.27
556.99	59608.76
557.16	59756.22
557.32	59863.88
557.49	59765.58
557.65	59381.73
557.82	59571.32
557.98	59835.80
558.15	59917.71
558.32	59891.97
558.48	59688.34
558.65	59828.77
558.81	59906.01
558.98	59744.51
559.14	59852.18
559.31	59910.69
559.47	59978.57
559.64	59987.93
559.80	60018.36
559.97	60027.72
560.13	59779.62
560.30	60039.42
560.46	60009.00
560.63	59973.89
560.79	60119.00
560.96	60133.04
561.12	60048.78
561.29	60133.04
561.45	60137.72
561.61	60044.10
561.78	60104.96
561.94	60198.58
562.11	60030.06
562.27	60200.92
562.44	60296.88
562.60	60294.54
562.77	60315.61
562.93	60172.83
563.10	60257.09
563.26	60245.39
563.42	60563.70
563.59	60257.09
563.75	60109.64
563.92	60282.84
564.08	60261.77
564.24	60303.90
564.41	60416.25
564.57	60423.27
564.74	60324.97
564.90	60126.02
565.07	60374.12
565.23	60158.79
565.39	60493.49
565.56	60378.80
565.72	60484.12
565.88	60556.68
566.05	60566.04
566.21	60296.88
566.38	60507.53
566.54	60491.15
566.70	60577.75
566.87	60636.26
567.03	60381.14
567.19	60882.02
567.36	60530.93
567.52	60657.32
567.68	60842.23
567.85	60697.11
568.01	60556.68
568.17	60603.49
568.34	60786.05
568.50	60603.49
568.66	60692.43
568.83	60837.54
568.99	60549.66
569.15	60757.97
569.32	60769.67
569.48	60734.56
569.64	60811.80
569.81	60673.71
569.97	60566.04
570.13	60617.53
570.30	60757.97
570.46	60856.27
570.62	60975.64
570.78	60807.12
570.95	60814.14
571.11	60933.51
571.27	60633.92
571.43	60867.97
571.60	60945.21
571.76	60889.04
571.92	60757.97
572.09	60774.35
572.25	60788.39
572.41	60872.65
572.57	60924.14
572.74	60846.91
572.90	60905.42
573.06	60959.25
573.22	61017.77
573.38	60846.91
573.55	61134.79
573.71	61027.13
573.87	60989.68
574.03	60725.20
574.20	61083.30
574.36	60966.27
574.52	61010.74
574.68	61055.21
574.84	61214.37
575.01	61118.41
575.17	60999.04
575.33	60975.64
575.49	60914.78
575.65	61052.87
575.82	61181.60
575.98	61141.81
576.14	61219.05
576.30	61188.63
576.46	60860.95
576.62	61109.05
576.79	61055.21
576.95	60872.65
577.11	61080.96
577.27	61146.50
577.43	61027.13
577.59	61085.64
577.75	60985.00
577.92	60954.57
578.08	60985.00
578.24	61050.53
578.40	61415.66
578.56	61181.60
578.72	61013.08
578.88	61057.56
579.04	61160.54
579.21	61249.48
579.37	61282.25
579.53	61284.59
579.69	61080.96
579.85	61200.33
580.01	61207.35
580.17	61123.09
580.33	61179.26
580.49	61352.46
580.65	61172.24
580.82	61031.81
580.98	61169.90
581.14	61179.26
581.30	61300.97
581.46	61263.52
581.62	61104.37
581.78	61017.77
581.94	61336.08
582.10	61130.11
582.26	61111.39
582.42	61263.52
582.58	61289.27
582.74	61141.81
582.90	60968.61
583.06	61235.44
583.22	61015.43
583.38	61244.80
583.54	61216.71
583.70	61209.69
583.86	61382.89
584.02	61080.96
584.18	61378.21
584.34	61394.59
584.50	61034.15
584.66	61216.71
584.82	61034.15
584.98	61357.14
585.14	61272.88
585.30	61080.96
585.46	61197.99
585.62	61244.80
585.78	61413.32
585.94	61181.60
586.10	61130.11
586.26	61324.38
586.42	61387.57
586.58	61298.63
586.74	61230.75
586.90	61322.04
587.06	61291.61
587.22	61265.86
587.38	61354.80
587.54	61160.54
587.70	61361.82
587.86	61347.78
588.02	61354.80
588.18	61488.21
588.34	61183.94
588.49	61169.90
