SpectraSuite Data File
++++++++++++++++++++++++++++++++++++
Date: Fri Oct 25 11:25:40 EDT 2013
User: price-jones
Dark Spectrum Present: No
Reference Spectrum Present: No
Number of Sampled Component Spectra: 1
Spectrometers: USB2+H05261
Integration Time (usec): 100000 (USB2+H05261)
Spectra Averaged: 1 (USB2+H05261)
Boxcar Smoothing: 0 (USB2+H05261)
Correct for Electrical Dark: No (USB2+H05261)
Strobe/Lamp Enabled: No (USB2+H05261)
Correct for Detector Non-linearity: No (USB2+H05261)
Correct for Stray Light: No (USB2+H05261)
Number of Pixels in Processed Spectrum: 2048
>>>>>Begin Processed Spectral Data<<<<<
365.73	210.65
365.92	210.65
366.12	210.65
366.32	180.22
366.52	138.09
366.72	147.45
366.91	156.82
367.11	117.03
367.31	107.66
367.51	100.64
367.70	100.64
367.90	159.16
368.10	67.88
368.30	173.20
368.49	112.35
368.69	229.37
368.89	95.96
369.09	126.39
369.28	88.94
369.48	212.99
369.68	222.35
369.87	248.10
370.07	212.99
370.27	170.86
370.47	369.80
370.66	662.37
370.86	615.56
371.06	648.33
371.25	657.69
371.45	638.97
371.65	702.16
371.84	704.50
372.04	648.33
372.24	636.63
372.44	786.42
372.63	697.48
372.83	720.88
373.03	716.20
373.22	802.80
373.42	807.48
373.62	758.33
373.81	889.40
374.01	830.89
374.21	777.06
374.40	688.12
374.60	873.02
374.79	805.14
374.99	835.57
375.19	767.70
375.38	858.98
375.58	793.44
375.78	898.77
375.97	798.12
376.17	924.51
376.37	819.19
376.56	856.64
376.76	809.83
376.95	856.64
377.15	933.87
377.35	875.36
377.54	863.66
377.74	912.81
377.93	866.00
378.13	917.49
378.33	971.32
378.52	919.83
378.72	964.30
378.91	947.92
379.11	961.96
379.31	880.04
379.50	931.53
379.70	985.37
379.89	894.08
380.09	961.96
380.28	987.71
380.48	957.28
380.68	997.07
380.87	945.58
381.07	1039.20
381.26	1022.81
381.46	1004.09
381.65	1078.99
381.85	1008.77
382.04	950.26
382.24	999.41
382.43	1041.54
382.63	1057.92
382.83	1046.22
383.02	1128.14
383.22	1069.62
383.41	1090.69
383.61	1064.94
383.80	1130.48
384.00	1153.88
384.19	1144.52
384.39	1071.97
384.58	1158.57
384.78	1055.58
384.97	1196.01
385.17	1179.63
385.36	1078.99
385.56	1088.35
385.75	1102.39
385.95	1247.51
386.14	1217.08
386.34	1111.75
386.53	1142.18
386.72	1207.72
386.92	1268.57
387.11	1224.10
387.31	1366.87
387.50	1217.08
387.70	1247.51
387.89	1217.08
388.09	1224.10
388.28	1277.93
388.48	1308.36
388.67	1277.93
388.86	1341.13
389.06	1310.70
389.25	1254.53
389.45	1401.98
389.64	1348.15
389.84	1366.87
390.03	1357.51
390.22	1458.15
390.42	1315.38
390.61	1359.85
390.81	1289.64
391.00	1425.39
391.19	1439.43
391.39	1528.37
391.58	1427.73
391.78	1420.71
391.97	1423.05
392.16	1519.01
392.36	1490.92
392.55	1507.30
392.75	1481.56
392.94	1502.62
393.13	1570.50
393.33	1507.30
393.52	1544.75
393.71	1542.41
393.91	1537.73
394.10	1521.35
394.29	1582.20
394.49	1612.63
394.68	1689.87
394.88	1633.69
395.07	1666.46
395.26	1521.35
395.46	1727.32
395.65	1797.53
395.84	1739.02
396.04	1750.72
396.23	1668.80
396.42	1715.61
396.62	1710.93
396.81	1746.04
397.00	1664.12
397.19	1739.02
397.39	1762.42
397.58	1879.45
397.77	1877.11
397.97	1881.79
398.16	1863.07
398.35	1872.43
398.55	1834.98
398.74	1874.77
398.93	1902.86
399.12	1912.22
399.32	1891.15
399.51	1909.88
399.70	1935.62
399.90	1891.15
400.09	2036.27
400.28	2026.90
400.47	1998.82
400.67	2031.58
400.86	2197.76
401.05	2066.69
401.24	2024.56
401.44	2031.58
401.63	2162.66
401.82	2197.76
402.01	2036.27
402.21	2085.42
402.40	2265.64
402.59	2200.10
402.78	2153.29
402.97	2239.89
403.17	2296.07
403.36	2324.15
403.55	2279.68
403.74	2483.31
403.93	2403.73
404.13	2359.26
404.32	2345.22
404.51	2431.82
404.70	2363.94
404.89	2387.35
405.09	2586.29
405.28	2389.69
405.47	2399.05
405.66	2565.23
405.85	2483.31
406.05	2464.58
406.24	2499.69
406.43	2574.59
406.62	2572.25
406.81	2691.62
407.00	2616.72
407.20	2530.12
407.39	2623.74
407.58	2684.59
407.77	2787.58
407.96	2757.15
408.15	2871.84
408.34	2881.20
408.54	2839.07
408.73	2775.88
408.92	2820.35
409.11	2810.98
409.30	2836.73
409.49	2782.90
409.68	3023.97
409.87	2822.69
410.07	2970.14
410.26	3021.63
410.45	3082.49
410.64	2890.56
410.83	2972.48
411.02	3035.67
411.21	3145.68
411.40	3014.61
411.59	3190.15
411.78	3180.79
411.98	3075.46
412.17	3239.30
412.36	3290.79
412.55	3290.79
412.74	3286.11
412.93	3368.03
413.12	3372.71
413.31	3456.97
413.50	3454.63
413.69	3499.10
413.88	3578.68
414.07	3529.53
414.26	3555.27
414.45	3562.30
414.64	3721.45
414.83	3702.73
415.02	3693.37
415.22	3775.28
415.41	3815.07
415.60	3852.52
415.79	3836.14
415.98	3838.48
416.17	3997.64
416.36	3803.37
416.55	3985.93
416.74	3911.04
416.93	4060.83
417.12	4016.36
417.31	4147.43
417.50	4084.23
417.69	4257.43
417.88	4133.39
418.07	4177.86
418.26	4297.22
418.45	4308.93
418.64	4617.88
418.83	4517.23
419.02	4383.82
419.21	4458.72
419.39	4493.83
419.58	4484.47
419.77	4477.44
419.96	4535.96
420.15	4667.03
420.34	4655.33
420.53	4524.26
420.72	4699.80
420.91	4699.80
421.10	4732.56
421.29	4760.65
421.48	4568.73
421.67	4716.18
421.86	4791.08
422.05	4919.81
422.24	4751.29
422.43	4798.10
422.61	4861.29
422.80	4929.17
422.99	4844.91
423.18	4821.50
423.37	4863.63
423.56	4938.53
423.75	4861.29
423.94	4716.18
424.13	4606.17
424.32	4760.65
424.50	4975.98
424.69	4968.96
424.88	4966.62
425.07	4926.83
425.26	4755.97
425.45	4999.38
425.64	5041.51
425.83	4964.28
426.01	4917.47
426.20	5060.24
426.39	5060.24
426.58	5109.39
426.77	4947.89
426.96	5048.54
427.15	5125.77
427.33	5036.83
427.52	5195.99
427.71	5249.82
427.90	5193.65
428.09	5259.18
428.28	5259.18
428.46	5380.89
428.65	5369.19
428.84	5427.70
429.03	5437.06
429.22	5235.78
429.40	5453.45
429.59	5455.79
429.78	5322.38
429.97	5362.17
430.16	5455.79
430.34	5673.46
430.53	5558.77
430.72	5537.71
430.91	5785.80
431.10	5523.66
431.28	5802.19
431.47	5755.38
431.66	5652.39
431.85	5987.09
432.03	5900.49
432.22	5968.37
432.41	5839.64
432.60	5844.32
432.79	5774.10
432.97	6015.18
433.16	6054.97
433.35	6043.26
433.54	6155.61
433.72	6200.08
433.91	5975.39
434.10	6211.78
434.28	5930.92
434.47	6099.44
434.66	6101.78
434.85	6193.06
435.03	6263.27
435.22	6312.42
435.41	6352.21
435.59	6471.58
435.78	6319.45
435.97	6366.26
436.16	6354.55
436.34	6413.07
436.53	6445.84
436.72	6597.97
436.90	6466.90
437.09	6476.26
437.28	6431.79
437.46	6595.63
437.65	6665.85
437.84	6743.08
438.02	6834.36
438.21	6846.07
438.40	6752.45
438.58	6871.81
438.77	6899.90
438.96	6780.53
439.14	7267.36
439.33	7145.66
439.52	7117.57
439.70	7082.46
439.89	7431.20
440.08	7297.79
440.26	7314.17
440.45	7173.74
440.63	7487.37
440.82	7583.34
441.01	7433.54
441.19	7508.44
441.38	7660.57
441.57	7763.56
441.75	7744.83
441.94	7859.52
442.12	7915.69
442.31	7948.46
442.50	7786.96
442.68	7864.20
442.87	8053.78
443.05	8056.12
443.24	8313.58
443.43	8212.94
443.61	8074.85
443.80	8367.42
443.98	8009.31
444.17	7824.41
444.35	8042.08
444.54	8339.33
444.73	8353.37
444.91	8063.15
445.10	8423.59
445.28	8182.51
445.47	8365.07
445.65	8234.00
445.84	8311.24
446.02	8582.74
446.21	8297.20
446.39	8322.94
446.58	8297.20
446.77	8458.70
446.95	8341.67
447.14	8273.79
447.32	8386.14
447.51	8423.59
447.69	8402.52
447.88	8552.32
448.06	8549.98
448.25	8395.50
448.43	8580.40
448.62	8631.90
448.80	8444.65
448.99	8423.59
449.17	8758.28
449.36	8517.21
449.54	8610.83
449.73	8842.54
449.91	8943.19
450.10	9008.72
450.28	9100.00
450.46	8982.98
450.65	8943.19
450.83	9181.92
451.02	9006.38
451.20	9212.35
451.39	9121.07
451.57	8861.27
451.76	8861.27
451.94	9231.07
452.13	9207.67
452.31	9151.49
452.49	9067.24
452.68	9198.31
452.86	9245.12
453.05	9153.84
453.23	9261.50
453.42	9310.65
453.60	9441.72
453.78	9612.58
453.97	9343.42
454.15	9399.59
454.34	9322.35
454.52	9806.84
454.70	9533.00
454.89	9701.52
455.07	9767.06
455.26	9710.88
455.44	10003.45
455.62	9905.15
455.81	9958.98
455.99	9860.68
456.17	9755.35
456.36	10040.90
456.54	10054.94
456.73	10092.39
456.91	10284.31
457.09	10347.51
457.28	10698.59
457.46	10312.40
457.64	10347.51
457.83	10504.32
458.01	10417.72
458.19	10616.67
458.38	10485.60
458.56	10710.29
458.74	10541.77
458.93	10588.58
459.11	10754.76
459.29	10684.55
459.48	10726.68
459.66	10546.45
459.84	10817.96
460.03	11110.52
460.21	10881.15
460.39	10977.11
460.57	11026.26
460.76	10934.98
460.94	11082.44
461.12	11171.38
461.31	10946.69
461.49	11035.63
461.67	11213.51
461.85	11365.64
462.04	11227.55
462.22	11885.24
462.40	11494.37
462.59	11417.13
462.77	11400.75
462.95	11641.82
463.13	11389.05
463.32	11543.52
463.50	11896.94
463.68	11667.57
463.86	11693.32
464.05	11686.29
464.23	11555.22
464.41	11712.04
464.59	11681.61
464.78	11999.93
464.96	11932.05
465.14	11974.18
465.32	11903.96
465.50	11796.30
465.69	11964.82
465.87	12086.53
466.05	12173.13
466.23	11864.18
466.41	12191.85
466.60	12451.65
466.78	12009.29
466.96	12126.32
467.14	12191.85
467.32	12372.07
467.51	12418.88
467.69	11978.86
467.87	12365.05
468.05	12500.80
468.23	12472.71
468.41	12194.19
468.60	12545.27
468.78	12772.30
468.96	12538.25
469.14	12652.94
469.32	12943.16
469.50	12748.90
469.69	12800.39
469.87	13001.68
470.05	12945.50
470.23	13099.98
470.41	12842.52
470.59	13217.01
470.77	13207.64
470.95	13186.58
471.14	13654.69
471.32	13074.23
471.50	13284.88
471.68	13572.77
471.86	13687.45
472.04	13804.48
472.22	13687.45
472.40	13633.62
472.58	13811.50
472.77	14134.50
472.95	14204.71
473.13	14508.98
473.31	14218.75
473.49	13738.94
473.67	13982.36
473.85	14443.45
474.03	14321.74
474.21	14338.12
474.39	14525.36
474.57	14389.61
474.75	14827.29
474.93	14860.06
475.12	14740.69
475.30	15002.83
475.48	14796.87
475.66	14906.87
475.84	15110.50
476.02	15293.06
476.20	15199.44
476.38	15850.11
476.56	15700.31
476.74	15899.26
476.92	15962.45
477.10	15566.90
477.28	16119.27
477.46	16271.40
477.64	16173.10
477.82	16372.05
478.00	16489.07
478.18	16322.90
478.36	16807.39
478.54	16910.37
478.72	17015.69
478.90	17350.39
479.08	17427.63
479.26	17401.88
479.44	17561.04
479.62	17509.55
479.80	18047.87
479.98	17982.34
480.16	18214.05
480.34	18532.36
480.52	18412.99
480.70	18478.53
480.88	18216.39
481.06	18841.31
481.24	18693.86
481.41	18656.41
481.59	19410.06
481.77	19426.45
481.95	19601.99
482.13	19761.14
482.31	19749.44
482.49	20329.89
482.67	19990.52
482.85	20357.98
483.03	20463.30
483.21	20421.17
483.39	20758.21
483.57	20863.54
483.74	20751.19
483.92	20989.92
484.10	20898.64
484.28	21460.37
484.46	21750.60
484.64	22174.24
484.82	21788.05
485.00	22349.78
485.18	22649.36
485.35	22691.49
485.53	22831.93
485.71	22759.37
485.89	23260.24
486.07	23358.55
486.25	22869.37
486.43	23410.04
486.61	23611.32
486.78	23728.35
486.96	23948.36
487.14	24306.46
487.32	24411.79
487.50	24425.83
487.68	24807.34
487.85	25127.99
488.03	25359.70
488.21	25710.78
488.39	25675.68
488.57	25759.94
488.75	25769.30
488.92	26553.38
489.10	26562.74
489.28	26642.32
489.46	26532.31
489.64	26817.86
489.81	27304.69
489.99	27435.76
490.17	27861.74
490.35	27852.38
490.53	28070.04
490.70	28191.75
490.88	28112.17
491.06	28531.13
491.24	28666.88
491.41	28994.56
491.59	29252.02
491.77	29076.48
491.95	29551.60
492.13	29570.33
492.30	30033.75
492.48	29876.94
492.66	29909.71
492.84	29993.97
493.01	30494.84
493.19	30431.65
493.37	30885.71
493.54	30920.82
493.72	31241.47
493.90	31220.41
494.08	31323.39
494.25	31868.73
494.43	31866.39
494.61	31730.64
494.79	32217.47
494.96	31908.52
495.14	32875.16
495.32	32971.13
495.49	33001.55
495.67	32868.14
495.85	32875.16
496.02	33612.43
496.20	33748.18
496.38	33582.01
496.55	33942.45
496.73	34448.00
496.91	34342.68
497.09	34403.53
497.26	34866.96
497.44	34609.50
497.62	35075.27
497.79	35311.66
497.97	35089.31
498.14	35665.08
498.32	36058.29
498.50	35901.48
498.67	36526.40
498.85	36488.95
499.03	36488.95
499.20	36697.26
499.38	36636.41
499.56	36933.65
499.73	36547.47
499.91	36680.88
500.08	37214.52
500.26	37174.73
500.44	37195.79
500.61	37993.92
500.79	37670.92
500.97	37741.14
501.14	38230.31
501.32	38581.39
501.49	38328.61
501.67	38106.26
501.84	38911.41
502.02	38515.86
502.20	38803.74
502.37	38478.41
502.55	38792.04
502.72	38972.26
502.90	39552.71
503.07	39363.13
503.25	39517.60
503.43	39295.25
503.60	39601.86
503.78	39849.96
503.95	39625.27
504.13	40587.23
504.30	40327.43
504.48	40734.68
504.65	40624.68
504.83	40465.52
505.01	40884.48
505.18	40762.77
505.36	41095.13
505.53	41284.71
505.71	41486.00
505.88	41603.02
506.06	41116.19
506.23	42061.77
506.41	41453.23
506.58	42073.47
506.76	42127.30
506.93	41902.61
507.11	42052.41
507.28	42019.64
507.46	42410.51
507.63	42745.20
507.81	43016.71
507.98	43098.62
508.16	42937.13
508.33	43199.27
508.50	43199.27
508.68	43505.88
508.85	43817.17
509.03	43519.92
509.20	43503.54
509.38	43873.34
509.55	44194.00
509.73	44282.94
509.90	43938.88
510.08	44240.81
510.25	44215.06
510.42	44460.82
510.60	44781.47
510.77	44774.45
510.95	45244.90
511.12	44947.65
511.30	44758.06
511.47	45134.89
511.64	45186.38
511.82	45670.87
511.99	45228.51
512.17	46045.36
512.34	45467.25
512.51	46094.51
512.69	46117.92
512.86	45865.14
513.04	46712.41
513.21	46382.40
513.38	46281.75
513.56	46316.86
513.73	46174.09
513.90	46707.73
514.08	46562.62
514.25	46731.14
514.43	47281.16
514.60	46883.27
514.77	47220.31
514.95	47456.70
515.12	47271.80
515.29	47241.37
515.47	47480.11
515.64	47632.24
515.81	47899.06
515.99	47948.21
516.16	48121.41
516.33	48069.92
516.51	48526.33
516.68	48130.78
516.85	48224.40
517.03	48416.32
517.20	48416.32
517.37	48545.05
517.54	48772.08
517.72	48811.87
517.89	48928.90
518.06	48952.30
518.24	49059.97
518.41	48825.92
518.58	48905.49
518.75	48802.51
518.93	49490.63
519.10	49371.26
519.27	49537.44
519.45	49036.56
519.62	49523.40
519.79	49579.57
519.96	49993.84
520.14	49996.18
520.31	50059.38
520.48	50274.71
520.65	49638.08
520.83	50611.74
521.00	50564.93
521.17	50478.33
521.34	50518.12
521.52	50731.11
521.69	50632.81
521.86	50834.10
522.03	50934.74
522.20	51054.11
522.38	51119.64
522.55	51203.90
522.72	50904.31
522.89	51096.24
523.07	51377.10
523.24	51199.22
523.41	51531.57
523.58	50911.33
523.75	51686.05
523.92	51098.58
524.10	51536.26
524.27	51833.50
524.44	51732.86
524.61	51934.15
524.78	51976.28
524.96	52273.52
525.13	51903.72
525.30	52154.16
525.47	52095.64
525.64	51955.21
525.81	52322.68
525.98	52374.17
526.16	52622.26
526.33	52451.41
526.50	52610.56
526.67	52399.91
526.84	52603.54
527.01	52376.51
527.18	52811.85
527.36	52891.43
527.53	52959.30
527.70	53048.24
527.87	52879.72
528.04	52750.99
528.21	53148.88
528.38	53308.04
528.55	53301.02
528.72	53427.41
528.89	53153.57
529.07	53272.93
529.24	53371.24
529.41	53581.88
529.58	53352.51
529.75	53717.64
529.92	53598.27
530.09	53535.07
530.26	53638.06
530.43	53579.54
530.60	53616.99
530.77	53542.10
530.94	54017.22
531.11	53701.25
531.28	54073.40
531.46	54054.67
531.63	54021.90
531.80	54113.19
531.97	54452.56
532.14	54300.43
532.31	54164.68
532.48	54347.24
532.65	54461.93
532.82	54237.23
532.99	54417.46
533.16	54532.14
533.33	54773.22
533.50	54679.60
533.67	54459.58
533.84	54375.33
534.01	54677.25
534.18	54801.30
534.35	55166.43
534.52	54859.82
534.69	55051.74
534.86	55079.83
535.03	54869.18
535.20	55107.91
535.37	55133.66
535.54	55093.87
535.71	54993.23
535.88	55255.37
536.05	55292.82
536.22	55442.61
536.38	55547.93
536.55	55227.28
536.72	55222.60
536.89	55395.80
537.06	55327.92
537.23	55653.26
537.40	55592.40
537.57	55657.94
537.74	55716.45
537.91	55910.72
538.08	55887.31
538.25	55470.70
538.42	55639.22
538.59	55810.07
538.75	55664.96
538.92	55688.37
539.09	56004.34
539.26	55772.63
539.43	56023.06
539.60	55903.70
539.77	56088.60
539.94	56119.02
540.11	56137.75
540.28	56170.52
540.44	56133.07
540.61	56119.02
540.78	56214.99
540.95	56156.47
541.12	56275.84
541.29	56339.04
541.46	56453.72
541.62	56671.39
541.79	56484.15
541.96	56191.58
542.13	56317.97
542.30	56545.00
542.47	56692.46
542.63	56687.78
542.80	56458.40
542.97	56896.08
543.14	57045.88
543.31	57038.86
543.48	57085.67
543.64	57258.87
543.81	57031.83
543.98	57357.17
544.15	56996.73
544.32	57343.12
544.48	57233.12
544.65	57209.71
544.82	57420.36
544.99	57190.99
545.16	57315.04
545.32	57411.00
545.49	57378.23
545.66	57455.47
545.83	57661.44
546.00	57649.74
546.16	57528.03
546.33	57509.30
546.50	57488.24
546.67	57616.97
546.83	57319.72
547.00	57539.73
547.17	57654.42
547.34	57497.60
547.50	57900.17
547.67	57846.34
547.84	57705.91
548.00	57918.90
548.17	57951.66
548.34	57895.49
548.51	58031.24
548.67	58241.89
548.84	58042.95
549.01	57865.06
549.18	57930.60
549.34	58064.01
549.51	58176.36
549.68	58031.24
549.84	58227.85
550.01	58284.02
550.18	58066.35
550.34	58286.36
550.51	58312.11
550.68	58227.85
550.84	58031.24
551.01	58075.71
551.18	58274.66
551.34	58302.74
551.51	58590.63
551.68	58588.29
551.84	58599.99
552.01	58422.11
552.18	58391.68
552.34	58447.86
552.51	58466.58
552.68	58560.20
552.84	58539.14
553.01	58541.48
553.18	58639.78
553.34	58754.47
553.51	58438.50
553.67	58679.57
553.84	58951.07
554.01	58597.65
554.17	58728.72
554.34	58883.20
554.51	58604.67
554.67	58878.52
554.84	58784.90
555.00	58478.28
555.17	58899.58
555.33	58784.90
555.50	58710.00
555.67	58829.37
555.83	58885.54
556.00	58986.18
556.16	59194.49
556.33	59035.33
556.50	58878.52
556.66	59016.61
556.83	59098.53
556.99	59238.96
557.16	59379.39
557.32	59295.13
557.49	59458.97
557.65	59133.63
557.82	59262.36
557.98	59093.85
558.15	59231.94
558.32	59311.52
558.48	59337.26
558.65	59320.88
558.81	59386.41
558.98	59606.42
559.14	59536.21
559.31	59503.44
559.47	59522.16
559.64	59437.90
559.80	59650.89
559.97	59716.43
560.13	59414.50
560.30	59545.57
560.46	59421.52
560.63	59683.66
560.79	59480.03
560.96	59592.38
561.12	59550.25
561.29	59606.42
561.45	59819.41
561.61	59765.58
561.78	59653.23
561.94	59693.02
562.11	59650.89
562.27	59725.79
562.44	59877.93
562.60	59938.78
562.77	59971.55
562.93	59627.49
563.10	60055.81
563.26	59779.62
563.42	59863.88
563.59	59990.27
563.75	59849.84
563.92	59910.69
564.08	59875.58
564.24	59859.20
564.41	59896.65
564.57	60030.06
564.74	59625.15
564.90	59992.61
565.07	59950.48
565.23	59908.35
565.39	59952.82
565.56	59990.27
565.72	59810.05
565.88	60114.32
566.05	59894.31
566.21	60076.87
566.38	60069.85
566.54	60069.85
566.70	60161.13
566.87	60390.50
567.03	60016.02
567.19	60406.89
567.36	60123.68
567.52	60032.40
567.68	60341.35
567.85	60142.41
568.01	60367.10
568.17	60299.22
568.34	60165.81
568.50	60093.25
568.66	60219.64
568.83	60233.69
568.99	60306.24
569.15	60172.83
569.32	60434.97
569.48	60214.96
569.64	60430.29
569.81	60547.32
569.97	60182.19
570.13	60329.65
570.30	60308.58
570.46	60310.92
570.62	60507.53
570.78	60065.17
570.95	60233.69
571.11	60411.57
571.27	60301.56
571.43	60378.80
571.60	60570.72
571.76	60423.27
571.92	60374.12
572.09	60488.80
572.25	60238.37
572.41	60346.03
572.57	60383.48
572.74	60666.69
572.90	60374.12
573.06	60383.48
573.22	60362.42
573.38	60493.49
573.55	60591.79
573.71	60617.53
573.87	60566.04
574.03	60378.80
574.20	60383.48
574.36	60427.95
574.52	60610.51
574.68	60678.39
574.84	60631.58
575.01	60835.20
575.17	60495.83
575.33	60568.38
575.49	60568.38
575.65	60776.69
575.82	60598.81
575.98	60683.07
576.14	60823.50
576.30	60395.18
576.46	60519.23
576.62	60608.17
576.79	60687.75
576.95	60420.93
577.11	60598.81
577.27	60687.75
577.43	60636.26
577.59	60622.22
577.75	60577.75
577.92	60533.28
578.08	60523.91
578.24	60645.62
578.40	60825.84
578.56	60816.48
578.72	60643.28
578.88	60760.31
579.04	60818.82
579.21	60760.31
579.37	60727.54
579.53	60830.52
579.69	60568.38
579.85	60612.85
580.01	60633.92
580.17	60547.32
580.33	60926.49
580.49	60959.25
580.65	60924.14
580.82	60722.86
580.98	60617.53
581.14	60537.96
581.30	60956.91
581.46	60786.05
581.62	60977.98
581.78	60706.47
581.94	60795.42
582.10	60568.38
582.26	60825.84
582.42	60631.58
582.58	60781.37
582.74	60823.50
582.90	60952.23
583.06	60825.84
583.22	60601.15
583.38	60645.62
583.54	60917.12
583.70	60757.97
583.86	60856.27
584.02	60694.77
584.18	60952.23
584.34	60666.69
584.50	60750.94
584.66	60860.95
584.82	60624.56
584.98	61006.06
585.14	60786.05
585.30	60676.05
585.46	60797.76
585.62	60874.99
585.78	60961.59
585.94	60500.51
586.10	61013.08
586.26	60914.78
586.42	61038.83
586.58	61073.94
586.74	60874.99
586.90	60963.93
587.06	60910.10
587.22	60886.70
587.38	60781.37
587.54	61139.47
587.70	61078.62
587.86	61027.13
588.02	60821.16
588.18	61022.45
588.34	60898.40
588.49	60779.03
