SpectraSuite Data File
++++++++++++++++++++++++++++++++++++
Date: Fri Oct 25 11:22:51 EDT 2013
User: price-jones
Dark Spectrum Present: No
Reference Spectrum Present: No
Number of Sampled Component Spectra: 1
Spectrometers: USB2+H05261
Integration Time (usec): 100000 (USB2+H05261)
Spectra Averaged: 1 (USB2+H05261)
Boxcar Smoothing: 0 (USB2+H05261)
Correct for Electrical Dark: No (USB2+H05261)
Strobe/Lamp Enabled: No (USB2+H05261)
Correct for Detector Non-linearity: No (USB2+H05261)
Correct for Stray Light: No (USB2+H05261)
Number of Pixels in Processed Spectrum: 2048
>>>>>Begin Processed Spectral Data<<<<<
365.73	184.90
365.92	184.90
366.12	184.90
366.32	152.13
366.52	114.69
366.72	138.09
366.91	72.56
367.11	128.73
367.31	84.26
367.51	98.30
367.70	187.24
367.90	173.20
368.10	86.60
368.30	105.32
368.49	95.96
368.69	140.43
368.89	88.94
369.09	163.84
369.28	142.77
369.48	180.22
369.68	152.13
369.87	208.31
370.07	124.05
370.27	184.90
370.47	344.06
370.66	573.43
370.86	599.18
371.06	627.26
371.25	641.31
371.45	702.16
371.65	653.01
371.84	751.31
372.04	685.78
372.24	716.20
372.44	739.61
372.63	732.59
372.83	737.27
373.03	720.88
373.22	795.78
373.42	770.04
373.62	692.80
373.81	697.48
374.01	814.51
374.21	826.21
374.40	770.04
374.60	877.70
374.79	706.84
374.99	814.51
375.19	765.36
375.38	903.45
375.58	788.76
375.78	842.59
375.97	774.72
376.17	901.11
376.37	777.06
376.56	854.30
376.76	884.72
376.95	844.93
377.15	875.36
377.35	894.08
377.54	903.45
377.74	884.72
377.93	856.64
378.13	957.28
378.33	1004.09
378.52	966.64
378.72	933.87
378.91	931.53
379.11	873.02
379.31	910.47
379.50	936.21
379.70	945.58
379.89	936.21
380.09	1062.60
380.28	936.21
380.48	926.85
380.68	940.90
380.87	966.64
381.07	987.71
381.26	1034.52
381.46	987.71
381.65	1025.15
381.85	1020.47
382.04	1013.45
382.24	968.98
382.43	1020.47
382.63	1015.79
382.83	1139.84
383.02	1074.31
383.22	1121.12
383.41	1046.22
383.61	1076.65
383.80	1160.91
384.00	1114.10
384.19	1109.41
384.39	1078.99
384.58	1121.12
384.78	1228.78
384.97	1153.88
385.17	1228.78
385.36	1198.35
385.56	1198.35
385.75	1198.35
385.95	1104.73
386.14	1221.76
386.34	1184.31
386.53	1153.88
386.72	1081.33
386.92	1242.82
387.11	1277.93
387.31	1203.04
387.50	1217.08
387.70	1221.76
387.89	1235.80
388.09	1277.93
388.28	1252.19
388.48	1296.66
388.67	1345.81
388.86	1277.93
389.06	1373.89
389.25	1341.13
389.45	1373.89
389.64	1284.95
389.84	1458.15
390.03	1359.85
390.22	1406.66
390.42	1437.09
390.61	1387.94
390.81	1399.64
391.00	1392.62
391.19	1453.47
391.39	1455.81
391.58	1451.13
391.78	1401.98
391.97	1437.09
392.16	1481.56
392.36	1509.65
392.55	1516.67
392.75	1549.43
392.94	1530.71
393.13	1537.73
393.33	1488.58
393.52	1650.08
393.71	1593.90
393.91	1687.53
394.10	1579.86
394.29	1708.59
394.49	1593.90
394.68	1621.99
394.88	1586.88
395.07	1664.12
395.26	1643.06
395.46	1708.59
395.65	1706.25
395.84	1614.97
396.04	1734.34
396.23	1675.82
396.42	1715.61
396.62	1736.68
396.81	1760.08
397.00	1783.49
397.19	1912.22
397.39	1701.57
397.58	1846.68
397.77	1832.64
397.97	1870.09
398.16	1884.13
398.35	1919.24
398.55	1916.90
398.74	1895.83
398.93	1895.83
399.12	1856.04
399.32	1954.35
399.51	1968.39
399.70	1973.07
399.90	1994.14
400.09	2099.46
400.28	2008.18
400.47	2005.84
400.67	2069.03
400.86	2064.35
401.05	2076.06
401.24	2040.95
401.44	2181.38
401.63	2118.18
401.82	2010.52
402.01	2127.55
402.21	2129.89
402.40	2258.62
402.59	2202.44
402.78	2277.34
402.97	2282.02
403.17	2244.57
403.36	2265.64
403.55	2406.07
403.74	2389.69
403.93	2310.11
404.13	2483.31
404.32	2326.49
404.51	2345.22
404.70	2457.56
404.89	2317.13
405.09	2452.88
405.28	2392.03
405.47	2499.69
405.66	2502.03
405.85	2537.14
406.05	2546.50
406.24	2586.29
406.43	2523.10
406.62	2539.48
406.81	2768.85
407.00	2623.74
407.20	2677.57
407.39	2656.51
407.58	2696.30
407.77	2698.64
407.96	2743.11
408.15	2897.58
408.34	2782.90
408.54	2810.98
408.73	2700.98
408.92	2771.19
409.11	2918.65
409.30	2855.45
409.49	2963.12
409.68	2963.12
409.87	2986.52
410.07	2956.10
410.26	2878.86
410.45	2862.48
410.64	3213.56
410.83	3096.53
411.02	3162.06
411.21	3143.34
411.40	3089.51
411.59	3258.03
411.78	3337.60
411.98	3162.06
412.17	3236.96
412.36	3344.63
412.55	3393.78
412.74	3449.95
412.93	3478.04
413.12	3342.28
413.31	3499.10
413.50	3503.78
413.69	3576.34
413.88	3583.36
414.07	3571.66
414.26	3609.11
414.45	3531.87
414.64	3852.52
414.83	3693.37
415.02	3822.09
415.22	3749.54
415.41	3735.50
415.60	3789.33
415.79	3915.72
415.98	3868.91
416.17	4016.36
416.36	3726.13
416.55	4011.68
416.74	4007.00
416.93	3990.61
417.12	4044.45
417.31	4304.25
417.50	4219.99
417.69	4344.03
417.88	4215.30
418.07	4245.73
418.26	4287.86
418.45	4451.70
418.64	4503.19
418.83	4568.73
419.02	4435.32
419.21	4538.30
419.39	4664.69
419.58	4421.27
419.77	4430.63
419.96	4601.49
420.15	4568.73
420.34	4627.24
420.53	4615.54
420.72	4667.03
420.91	4557.02
421.10	4641.28
421.29	4772.35
421.48	4629.58
421.67	4819.16
421.86	4755.97
422.05	4809.80
422.24	4835.55
422.43	4837.89
422.61	4891.72
422.80	5043.85
422.99	4961.94
423.18	5018.11
423.37	5060.24
423.56	5015.77
423.75	4901.08
423.94	4844.91
424.13	4648.30
424.32	4865.97
424.50	4961.94
424.69	5081.30
424.88	4959.60
425.07	5013.43
425.26	4924.49
425.45	4933.85
425.64	4898.74
425.83	4943.21
426.01	5064.92
426.20	5137.48
426.39	4964.28
426.58	5090.67
426.77	5195.99
426.96	5247.48
427.15	5191.31
427.33	5226.42
427.52	5203.01
427.71	5289.61
427.90	5296.63
428.09	5380.89
428.28	5411.32
428.46	5547.07
428.65	5455.79
428.84	5397.28
429.03	5554.09
429.22	5416.00
429.40	5474.51
429.59	5511.96
429.78	5371.53
429.97	5263.86
430.16	5444.09
430.34	5647.71
430.53	5605.58
430.72	5701.54
430.91	5720.27
431.10	5743.67
431.28	5935.60
431.47	5860.70
431.66	5884.11
431.85	5703.89
432.03	5937.94
432.22	6125.18
432.41	5980.07
432.60	6029.22
432.79	6118.16
432.97	6183.70
433.16	5975.39
433.35	5942.62
433.54	5994.11
433.72	6101.78
433.91	6118.16
434.10	6143.91
434.28	6136.88
434.47	6169.65
434.66	6289.02
434.85	6375.62
435.03	6399.02
435.22	6270.30
435.41	6443.49
435.59	6473.92
435.78	6497.33
435.97	6595.63
436.16	6483.28
436.34	6293.70
436.53	6588.61
436.72	6705.63
436.90	6382.64
437.09	6712.66
437.28	6583.93
437.46	6768.83
437.65	6724.36
437.84	6850.75
438.02	6965.43
438.21	6754.79
438.40	6668.19
438.58	6918.62
438.77	6963.09
438.96	6925.65
439.14	7049.69
439.33	7248.64
439.52	7208.85
439.70	7318.86
439.89	7379.71
440.08	7372.69
440.26	7272.04
440.45	7365.67
440.63	7424.18
440.82	7616.10
441.01	7597.38
441.19	7585.68
441.38	7751.85
441.57	7737.81
441.75	7922.71
441.94	8109.96
442.12	7992.93
442.31	8124.00
442.50	8067.83
442.68	8049.10
442.87	8159.11
443.05	8093.57
443.24	8329.97
443.43	8177.83
443.61	8201.24
443.80	8374.44
443.98	8084.21
444.17	7948.46
444.35	8191.88
444.54	8374.44
444.73	8414.23
444.91	8376.78
445.10	8278.47
445.28	8395.50
445.47	8409.54
445.65	8348.69
445.84	8496.14
446.02	8402.52
446.21	8491.46
446.39	8346.35
446.58	8620.19
446.77	8554.66
446.95	8521.89
447.14	8425.93
447.32	8578.06
447.51	8496.14
447.69	8439.97
447.88	8674.03
448.06	8636.58
448.25	8699.77
448.43	8610.83
448.62	8650.62
448.80	8638.92
448.99	8622.53
449.17	8835.52
449.36	8678.71
449.54	8938.51
449.73	8982.98
449.91	9254.48
450.10	9043.83
450.28	9181.92
450.46	9195.96
450.65	9114.05
450.83	9100.00
451.02	9200.65
451.20	9275.54
451.39	9039.15
451.57	9212.35
451.76	9067.24
451.94	9334.06
452.13	9418.32
452.31	9341.08
452.49	9193.62
452.68	9401.93
452.86	9397.25
453.05	9490.87
453.23	9647.69
453.42	9486.19
453.60	9525.98
453.78	9570.45
453.97	9415.98
454.15	9591.52
454.34	9479.17
454.52	9771.74
454.70	9893.44
454.89	9731.95
455.07	9987.07
455.26	9961.32
455.44	10113.45
455.62	10040.90
455.81	9975.36
455.99	10045.58
456.17	10001.11
456.36	10024.51
456.54	10188.35
456.73	10387.30
456.91	10569.86
457.09	10389.64
457.28	10469.22
457.46	10403.68
457.64	10668.16
457.83	10530.07
458.01	10466.88
458.19	10862.43
458.38	10792.21
458.56	10892.85
458.74	10839.02
458.93	10782.85
459.11	10820.30
459.29	10661.14
459.48	10920.94
459.66	10710.29
459.84	10942.00
460.03	11047.33
460.21	10927.96
460.39	10995.84
460.57	10904.56
460.76	11194.78
460.94	11351.60
461.12	11126.91
461.31	11232.23
461.49	11375.00
461.67	11218.19
461.85	11459.26
462.04	11470.97
462.22	11808.00
462.40	11712.04
462.59	11709.70
462.77	11695.66
462.95	11620.76
463.13	11632.46
463.32	11587.99
463.50	11939.07
463.68	11838.43
463.86	11943.75
464.05	11681.61
464.23	11735.45
464.41	11992.90
464.59	11815.02
464.78	12233.98
464.96	11903.96
465.14	11955.46
465.32	11880.56
465.50	12133.34
465.69	12346.33
465.87	12194.19
466.05	12091.21
466.23	12180.15
466.41	12381.43
466.60	12716.13
466.78	12383.77
466.96	12437.61
467.14	12367.39
467.32	12472.71
467.51	12446.97
467.69	12409.52
467.87	12587.40
468.05	12645.91
468.23	12652.94
468.41	12346.33
468.60	12655.28
468.78	12961.89
468.96	12739.54
469.14	12884.65
469.32	13029.76
469.50	12706.77
469.69	12879.97
469.87	13319.99
470.05	13006.36
470.23	13273.18
470.41	13104.66
470.59	13362.12
470.77	13205.30
470.95	13404.25
471.14	13469.78
471.32	13277.86
471.50	13813.84
471.68	13731.92
471.86	13895.76
472.04	13813.84
472.22	14207.05
472.40	13916.83
472.58	14008.11
472.77	14045.55
472.95	14415.36
473.13	14499.62
473.31	14382.59
473.49	14331.10
473.67	14232.80
473.85	14565.15
474.03	14614.30
474.21	14663.46
474.39	14792.19
474.57	14761.76
474.75	15087.09
474.93	15103.48
475.12	14843.68
475.30	15183.06
475.48	15190.08
475.66	15468.60
475.84	15166.67
476.02	15517.75
476.20	15440.51
476.38	15569.24
476.56	16112.25
476.74	15873.51
476.92	15885.22
477.10	15964.79
477.28	16156.72
477.46	16437.58
477.64	16280.77
477.82	16872.92
478.00	16915.05
478.18	17165.49
478.36	17055.48
478.54	17462.74
478.72	17413.59
478.90	17420.61
479.08	17617.21
479.26	17785.73
479.44	17778.71
479.62	17874.67
479.80	18148.51
479.98	18221.07
480.16	18728.97
480.34	18661.09
480.52	18717.26
480.70	18834.29
480.88	18633.00
481.06	19192.39
481.24	18827.27
481.41	19295.38
481.59	19484.96
481.77	19482.62
481.95	19571.56
482.13	19974.13
482.31	19887.53
482.49	20269.04
482.67	20395.43
482.85	20680.97
483.03	20517.14
483.21	21006.31
483.39	21055.46
483.57	20973.54
483.74	21214.62
483.92	21546.97
484.10	21544.63
484.28	21968.27
484.46	21902.73
484.64	22780.43
484.82	22249.13
485.00	22588.51
485.18	22689.15
485.35	23211.09
485.53	23058.96
485.71	23197.05
485.89	23807.93
486.07	23620.69
486.25	23580.90
486.43	23604.30
486.61	24020.92
486.78	24135.60
486.96	24285.40
487.14	24882.24
487.32	25003.94
487.50	24879.89
487.68	24996.92
487.85	25553.97
488.03	25722.49
488.21	25898.03
488.39	26139.10
488.57	26050.16
488.75	26478.48
488.92	26607.21
489.10	26831.90
489.28	26698.49
489.46	27473.21
489.64	27536.40
489.81	27817.27
489.99	27854.72
490.17	27704.92
490.35	28201.11
490.53	28346.23
490.70	29013.28
490.88	28311.12
491.06	28950.09
491.24	28830.72
491.41	29291.80
491.59	29291.80
491.77	29418.19
491.95	29926.09
492.13	29942.47
492.30	30529.95
492.48	30284.19
492.66	30382.49
492.84	30726.55
493.01	30771.02
493.19	30979.33
493.37	31365.52
493.54	31438.08
493.72	31903.84
493.90	31637.02
494.08	31969.38
494.25	31990.44
494.43	31938.95
494.61	32439.82
494.79	32788.56
494.96	32987.51
495.14	33486.04
495.32	33263.69
495.49	33270.72
495.67	33481.36
495.85	33759.89
496.02	33928.41
496.20	34139.05
496.38	34117.99
496.55	34480.77
496.73	35211.02
496.91	34726.53
497.09	35075.27
497.26	35344.43
497.44	35489.54
497.62	35765.73
497.79	35943.61
497.97	35501.25
498.14	36072.34
498.32	36425.76
498.50	36622.36
498.67	37102.17
498.85	36746.41
499.03	36978.12
499.20	36935.99
499.38	37120.90
499.56	37366.65
499.73	37546.87
499.91	37392.40
500.08	38337.98
500.26	37785.61
500.44	37947.11
500.61	38679.69
500.79	37972.85
500.97	38249.03
501.14	38677.35
501.32	38902.04
501.49	38941.83
501.67	38941.83
501.84	39016.73
502.02	38895.02
502.20	39407.60
502.37	39304.62
502.55	39431.01
502.72	39868.69
502.90	39517.60
503.07	39763.36
503.25	40601.27
503.43	39927.20
503.60	40116.78
503.78	40952.35
503.95	40332.11
504.13	41188.75
504.30	40861.07
504.48	41076.40
504.65	41076.40
504.83	41144.28
505.01	41476.63
505.18	41497.70
505.36	41488.34
505.53	41404.08
505.71	42139.00
505.88	42464.34
506.06	41666.22
506.23	42094.53
506.41	42092.19
506.58	42349.65
506.76	42993.30
506.93	42667.97
507.11	42499.45
507.28	42586.05
507.46	43002.66
507.63	43335.02
507.81	43110.33
507.98	43229.69
508.16	43555.03
508.33	43658.01
508.50	43854.62
508.68	43873.34
508.85	44030.16
509.03	43990.37
509.20	44458.48
509.38	44701.89
509.55	44575.50
509.73	44748.70
509.90	44718.28
510.08	44849.35
510.25	45017.86
510.42	45237.87
510.60	45514.06
510.77	45223.83
510.95	46138.98
511.12	45394.69
511.30	45322.13
511.47	46293.46
511.64	45696.62
511.82	46256.01
511.99	46040.68
512.17	46642.20
512.34	46073.45
512.51	46887.95
512.69	46639.86
512.86	46904.34
513.04	46810.71
513.21	47192.22
513.38	47224.99
513.56	47269.46
513.73	47255.42
513.90	47377.12
514.08	47260.10
514.25	47753.95
514.43	47526.92
514.60	47866.30
514.77	47594.79
514.95	47852.25
515.12	47428.62
515.29	48126.10
515.47	48184.61
515.64	48666.76
515.81	48011.41
515.99	48727.61
516.16	48594.20
516.33	48837.62
516.51	49111.46
516.68	48559.09
516.85	48519.31
517.03	49078.69
517.20	49034.22
517.37	48882.09
517.54	48875.07
517.72	49174.66
517.89	49432.11
518.06	49872.14
518.24	49574.89
518.41	49474.24
518.58	49551.48
518.75	49947.03
518.93	49771.49
519.10	49441.48
519.27	50024.27
519.45	49769.15
519.62	50295.77
519.79	50244.28
519.96	50461.95
520.14	50494.72
520.31	50129.59
520.48	50726.43
520.65	50398.76
520.83	50798.99
521.00	50873.88
521.17	50962.82
521.34	50824.73
521.52	51203.90
521.69	50756.86
521.86	51409.87
522.03	51316.25
522.20	51796.06
522.38	51751.59
522.55	51824.14
522.72	51774.99
522.89	51789.03
523.07	52016.07
523.24	51803.08
523.41	51997.34
523.58	51849.89
523.75	52126.07
523.92	52097.98
524.10	52376.51
524.27	52163.52
524.44	52296.93
524.61	52222.03
524.78	52542.69
524.96	52460.77
525.13	52809.51
525.30	52652.69
525.47	52774.40
525.64	52734.61
525.81	53010.79
525.98	52769.72
526.16	52954.62
526.33	52830.57
526.50	53256.55
526.67	53083.35
526.84	53165.27
527.01	52917.17
527.18	52971.00
527.36	53301.02
527.53	53244.85
527.70	53607.63
527.87	53488.26
528.04	53380.60
528.21	53654.44
528.38	53551.46
528.55	53698.91
528.72	53532.73
528.89	53574.86
529.07	53624.01
529.24	53876.79
529.41	53790.19
529.58	53839.34
529.75	54054.67
529.92	54122.55
530.09	54237.23
530.26	54305.11
530.43	54260.64
530.60	53911.90
530.77	54129.57
530.94	54375.33
531.11	54218.51
531.28	54302.77
531.46	54164.68
531.63	54351.92
531.80	54578.95
531.97	54805.98
532.14	54798.96
532.31	54759.17
532.48	54576.61
532.65	54663.21
532.82	54789.60
532.99	54740.45
533.16	54766.20
533.33	55000.25
533.50	55150.04
533.67	55217.92
533.84	54958.12
534.01	55021.31
534.18	54981.52
534.35	55304.52
534.52	55210.90
534.69	55573.68
534.86	55398.14
535.03	55536.23
535.20	55517.51
535.37	55686.03
535.54	55611.13
535.71	55325.58
535.88	55709.43
536.05	55571.34
536.22	55597.09
536.38	55838.16
536.55	55870.93
536.72	55800.71
536.89	55765.60
537.06	55679.00
537.23	55943.48
537.40	56027.74
537.57	55781.99
537.74	56093.28
537.91	56196.26
538.08	55917.74
538.25	55997.32
538.42	56196.26
538.59	56212.65
538.75	55990.30
538.92	56149.45
539.09	56402.23
539.26	56411.59
539.43	56402.23
539.60	56516.92
539.77	56453.72
539.94	56720.54
540.11	56477.13
540.28	56486.49
540.44	56673.73
540.61	56612.88
540.78	56259.46
540.95	56491.17
541.12	56467.76
541.29	56697.14
541.46	56788.42
541.62	56886.72
541.79	56832.89
541.96	56589.47
542.13	56694.80
542.30	56947.57
542.47	57111.41
542.63	57095.03
542.80	57249.50
542.97	57254.18
543.14	57296.31
543.31	57319.72
543.48	57137.16
543.64	57766.76
543.81	57633.35
543.98	57549.09
544.15	57464.83
544.32	57638.03
544.48	57813.57
544.65	57392.28
544.82	57827.62
544.99	57483.56
545.16	57794.85
545.32	57425.04
545.49	57928.26
545.66	57848.68
545.83	57755.06
546.00	57886.13
546.16	57946.98
546.33	57818.25
546.50	57677.82
546.67	57923.58
546.83	57733.99
547.00	58047.63
547.17	57820.59
547.34	57972.73
547.50	58174.02
547.67	58213.80
547.84	58302.74
548.00	58293.38
548.17	58578.93
548.34	58094.44
548.51	58389.34
548.67	58478.28
548.84	58230.19
549.01	58176.36
549.18	58319.13
549.34	58534.46
549.51	58541.48
549.68	58543.82
549.84	58417.43
550.01	58553.18
550.18	58494.67
550.34	58595.31
550.51	58714.68
550.68	58611.70
550.84	58426.79
551.01	58693.61
551.18	58693.61
551.34	58728.72
551.51	58798.94
551.68	58747.45
551.84	58679.57
552.01	58621.06
552.18	59035.33
552.34	58883.20
552.51	58801.28
552.68	58768.51
552.84	58887.88
553.01	59075.12
553.18	59023.63
553.34	58922.99
553.51	58958.09
553.67	59100.87
553.84	59002.56
554.01	59260.02
554.17	59124.27
554.34	59119.59
554.51	58913.62
554.67	59409.82
554.84	59089.16
555.00	59058.74
555.17	59220.23
555.33	59143.00
555.50	59056.40
555.67	59138.32
555.83	59292.79
556.00	59330.24
556.16	59503.44
556.33	59468.33
556.50	59386.41
556.66	59634.51
556.83	59355.99
556.99	59683.66
557.16	59662.60
557.32	59552.59
557.49	59793.67
557.65	59533.87
557.82	59384.07
557.98	59571.32
558.15	59557.27
558.32	59627.49
558.48	59571.32
558.65	59704.73
558.81	59657.91
558.98	59702.38
559.14	59910.69
559.31	59742.17
559.47	60123.68
559.64	59793.67
559.80	59826.43
559.97	59917.71
560.13	59779.62
560.30	59990.27
560.46	60030.06
560.63	59987.93
560.79	60044.10
560.96	60205.60
561.12	59992.61
561.29	59969.21
561.45	60062.83
561.61	60219.64
561.78	60149.43
561.94	60044.10
562.11	59938.78
562.27	59952.82
562.44	59976.23
562.60	60060.49
562.77	60191.56
562.93	60018.36
563.10	60165.81
563.26	60037.08
563.42	60299.22
563.59	60142.41
563.75	60214.96
563.92	60221.98
564.08	60081.55
564.24	60355.39
564.41	60154.11
564.57	60296.88
564.74	60140.07
564.90	60364.76
565.07	60306.24
565.23	60252.41
565.39	60198.58
565.56	60376.46
565.72	60147.09
565.88	60605.83
566.05	60247.73
566.21	60310.92
566.38	60451.36
566.54	60451.36
566.70	60409.23
566.87	60704.13
567.03	60371.78
567.19	60601.15
567.36	60453.70
567.52	60324.97
567.68	60678.39
567.85	60629.24
568.01	60650.30
568.17	60399.86
568.34	60598.81
568.50	60449.02
568.66	60360.08
568.83	60526.25
568.99	60264.11
569.15	60580.09
569.32	60566.04
569.48	60697.11
569.64	60783.71
569.81	60662.00
569.97	60537.96
570.13	60594.13
570.30	60264.11
570.46	60676.05
570.62	60708.82
570.78	60715.84
570.95	60552.00
571.11	60638.60
571.27	60687.75
571.43	60774.35
571.60	60917.12
571.76	60769.67
571.92	60736.90
572.09	60673.71
572.25	60846.91
572.41	60566.04
572.57	60685.41
572.74	60905.42
572.90	60720.52
573.06	60650.30
573.22	60793.07
573.38	60706.47
573.55	60825.84
573.71	60882.02
573.87	60783.71
574.03	60746.26
574.20	60863.29
574.36	60802.44
574.52	60912.44
574.68	60942.87
574.84	60994.36
575.01	60839.89
575.17	60999.04
575.33	60928.83
575.49	60781.37
575.65	61116.07
575.82	60968.61
575.98	60980.32
576.14	61066.92
576.30	61043.51
576.46	61057.56
576.62	60886.70
576.79	60858.61
576.95	60755.63
577.11	61059.90
577.27	60928.83
577.43	60914.78
577.59	60977.98
577.75	60811.80
577.92	60896.06
578.08	60900.74
578.24	60926.49
578.40	61080.96
578.56	61066.92
578.72	61083.30
578.88	61008.40
579.04	61249.48
579.21	60977.98
579.37	61153.52
579.53	61216.71
579.69	60851.59
579.85	60968.61
580.01	60905.42
580.17	61003.72
580.33	60959.25
580.49	61193.31
580.65	61116.07
580.82	61041.17
580.98	61118.41
581.14	60970.96
581.30	61258.84
581.46	61240.12
581.62	61212.03
581.78	60879.67
581.94	61425.02
582.10	61001.38
582.26	61095.00
582.42	61085.64
582.58	61155.86
582.74	61099.68
582.90	61104.37
583.06	61090.32
583.22	60987.34
583.38	61151.18
583.54	61249.48
583.70	61104.37
583.86	61300.97
584.02	60947.55
584.18	61155.86
584.34	61275.22
584.50	61024.79
584.66	61010.74
584.82	61090.32
584.98	61209.69
585.14	61207.35
585.30	60952.23
585.46	61036.49
585.62	61244.80
585.78	61584.18
585.94	61188.63
586.10	61099.68
586.26	61251.82
586.42	61186.28
586.58	61219.05
586.74	61329.06
586.90	61045.85
587.06	61146.50
587.22	61399.27
587.38	61441.40
587.54	61221.39
587.70	61602.90
587.86	61176.92
588.02	61169.90
588.18	61310.33
588.34	61331.40
588.49	61106.71
