SpectraSuite Data File
++++++++++++++++++++++++++++++++++++
Date: Fri Oct 25 11:34:04 EDT 2013
User: price-jones
Dark Spectrum Present: No
Reference Spectrum Present: No
Number of Sampled Component Spectra: 1
Spectrometers: USB2+H05261
Integration Time (usec): 100000 (USB2+H05261)
Spectra Averaged: 1 (USB2+H05261)
Boxcar Smoothing: 0 (USB2+H05261)
Correct for Electrical Dark: No (USB2+H05261)
Strobe/Lamp Enabled: No (USB2+H05261)
Correct for Detector Non-linearity: No (USB2+H05261)
Correct for Stray Light: No (USB2+H05261)
Number of Pixels in Processed Spectrum: 2048
>>>>>Begin Processed Spectral Data<<<<<
365.73	297.25
365.92	297.25
366.12	297.25
366.32	140.43
366.52	135.75
366.72	231.71
366.91	182.56
367.11	205.97
367.31	173.20
367.51	210.65
367.70	133.41
367.90	145.11
368.10	166.18
368.30	220.01
368.49	238.73
368.69	210.65
368.89	208.31
369.09	159.16
369.28	201.29
369.48	203.63
369.68	203.63
369.87	259.80
370.07	194.26
370.27	327.68
370.47	348.74
370.66	526.62
370.86	482.15
371.06	449.38
371.25	578.11
371.45	521.94
371.65	496.19
371.84	423.64
372.04	538.32
372.24	540.66
372.44	568.75
372.63	510.24
372.83	603.86
373.03	587.47
373.22	585.13
373.42	636.63
373.62	575.77
373.81	622.58
374.01	582.79
374.21	629.60
374.40	638.97
374.60	650.67
374.79	634.29
374.99	629.60
375.19	674.07
375.38	702.16
375.58	624.92
375.78	608.54
375.97	704.50
376.17	648.33
376.37	627.26
376.56	706.84
376.76	653.01
376.95	699.82
377.15	660.03
377.35	702.16
377.54	657.69
377.74	629.60
377.93	671.73
378.13	748.97
378.33	737.27
378.52	636.63
378.72	795.78
378.91	732.59
379.11	716.20
379.31	667.05
379.50	678.76
379.70	648.33
379.89	791.10
380.09	741.95
380.28	737.27
380.48	758.33
380.68	678.76
380.87	746.63
381.07	755.99
381.26	807.48
381.46	746.63
381.65	751.31
381.85	755.99
382.04	725.57
382.24	779.40
382.43	755.99
382.63	746.63
382.83	770.04
383.02	786.42
383.22	814.51
383.41	746.63
383.61	819.19
383.80	873.02
384.00	882.38
384.19	814.51
384.39	753.65
384.58	784.08
384.78	788.76
384.97	744.29
385.17	795.78
385.36	828.55
385.56	840.25
385.75	903.45
385.95	807.48
386.14	840.25
386.34	835.57
386.53	833.23
386.72	809.83
386.92	863.66
387.11	840.25
387.31	875.36
387.50	819.19
387.70	851.96
387.89	880.04
388.09	830.89
388.28	943.24
388.48	880.04
388.67	971.32
388.86	840.25
389.06	961.96
389.25	968.98
389.45	861.32
389.64	915.15
389.84	924.51
390.03	980.68
390.22	973.66
390.42	968.98
390.61	910.47
390.81	973.66
391.00	983.02
391.19	976.00
391.39	1034.52
391.58	978.34
391.78	1011.11
391.97	968.98
392.16	1053.24
392.36	971.32
392.55	1055.58
392.75	1111.75
392.94	1081.33
393.13	1104.73
393.33	1015.79
393.52	1076.65
393.71	1039.20
393.91	1167.93
394.10	1027.50
394.29	1104.73
394.49	1020.47
394.68	1156.22
394.88	1093.03
395.07	1151.54
395.26	1165.59
395.46	1196.01
395.65	1137.50
395.84	1235.80
396.04	1270.91
396.23	1226.44
396.42	1144.52
396.62	1095.37
396.81	1184.31
397.00	1186.65
397.19	1144.52
397.39	1256.87
397.58	1240.48
397.77	1217.08
397.97	1310.70
398.16	1306.02
398.35	1294.32
398.55	1212.40
398.74	1256.87
398.93	1359.85
399.12	1249.85
399.32	1179.63
399.51	1308.36
399.70	1329.42
399.90	1289.64
400.09	1322.40
400.28	1378.58
400.47	1352.83
400.67	1413.68
400.86	1371.55
401.05	1430.07
401.24	1432.41
401.44	1387.94
401.63	1411.34
401.82	1432.41
402.01	1385.60
402.21	1453.47
402.40	1409.00
402.59	1378.58
402.78	1533.05
402.97	1462.83
403.17	1446.45
403.36	1495.60
403.55	1554.12
403.74	1537.73
403.93	1565.82
404.13	1671.14
404.32	1533.05
404.51	1652.42
404.70	1703.91
404.89	1619.65
405.09	1682.85
405.28	1584.54
405.47	1661.78
405.66	1666.46
405.85	1652.42
406.05	1668.80
406.24	1647.74
406.43	1722.63
406.62	1795.19
406.81	1820.94
407.00	1699.23
407.20	1626.67
407.39	1809.23
407.58	1746.04
407.77	1820.94
407.96	1865.41
408.15	1856.04
408.34	1867.75
408.54	1884.13
408.73	2005.84
408.92	1937.96
409.11	1949.67
409.30	1858.39
409.49	1930.94
409.68	1942.64
409.87	1959.03
410.07	2019.88
410.26	2031.58
410.45	1928.60
410.64	2017.54
410.83	2029.24
411.02	2062.01
411.21	2122.87
411.40	2176.70
411.59	2155.63
411.78	2143.93
411.98	2069.03
412.17	2101.80
412.36	2165.00
412.55	2296.07
412.74	2286.70
412.93	2237.55
413.12	2157.97
413.31	2445.86
413.50	2413.09
413.69	2326.49
413.88	2366.28
414.07	2387.35
414.26	2387.35
414.45	2523.10
414.64	2511.39
414.83	2693.96
415.02	2602.68
415.22	2586.29
415.41	2651.83
415.60	2574.59
415.79	2654.17
415.98	2698.64
416.17	2647.15
416.36	2633.10
416.55	2651.83
416.74	2684.59
416.93	2644.81
417.12	2780.56
417.31	2757.15
417.50	2855.45
417.69	2892.90
417.88	2928.01
418.07	2942.05
418.26	2906.95
418.45	2827.37
418.64	3023.97
418.83	2979.50
419.02	3054.40
419.21	3016.95
419.39	3089.51
419.58	2946.73
419.77	2960.78
419.96	3148.02
420.15	3150.36
420.34	3035.67
420.53	3035.67
420.72	3349.31
420.91	3180.79
421.10	3213.56
421.29	3262.71
421.48	3192.49
421.67	3192.49
421.86	3215.90
422.05	3243.98
422.24	3101.21
422.43	3236.96
422.61	3316.54
422.80	3396.12
422.99	3236.96
423.18	3332.92
423.37	3368.03
423.56	3377.39
423.75	3302.50
423.94	3400.80
424.13	3239.30
424.32	3265.05
424.50	3407.82
424.69	3473.36
424.88	3574.00
425.07	3454.63
425.26	3379.73
425.45	3269.73
425.64	3300.16
425.83	3377.39
426.01	3421.86
426.20	3442.93
426.39	3531.87
426.58	3431.23
426.77	3405.48
426.96	3405.48
427.15	3445.27
427.33	3548.25
427.52	3522.51
427.71	3676.98
427.90	3618.47
428.09	3613.79
428.28	3672.30
428.46	3630.17
428.65	3503.78
428.84	3817.41
429.03	3742.52
429.22	3592.72
429.40	3658.26
429.59	3770.60
429.78	3616.13
429.97	3552.93
430.16	3782.31
430.34	3758.90
430.53	3826.78
430.72	3894.65
430.91	3854.86
431.10	3840.82
431.28	3803.37
431.47	3845.50
431.66	4044.45
431.85	3974.23
432.03	3955.51
432.22	4077.21
432.41	3950.82
432.60	3946.14
432.79	4021.04
432.97	4016.36
433.16	4133.39
433.35	4046.79
433.54	4105.30
433.72	4273.82
433.91	4156.79
434.10	4250.41
434.28	4086.58
434.47	4056.15
434.66	4196.58
434.85	4215.30
435.03	4304.25
435.22	4222.33
435.41	4416.59
435.59	4271.48
435.78	4428.29
435.97	4411.91
436.16	4329.99
436.34	4512.55
436.53	4348.72
436.72	4381.48
436.90	4292.54
437.09	4519.57
437.28	4568.73
437.46	4456.38
437.65	4638.94
437.84	4533.62
438.02	4592.13
438.21	4641.28
438.40	4514.89
438.58	4540.64
438.77	4706.82
438.96	4720.86
439.14	4734.90
439.33	4854.27
439.52	4905.76
439.70	4861.29
439.89	4926.83
440.08	4774.69
440.26	4807.46
440.45	5004.07
440.63	5004.07
440.82	5130.45
441.01	5090.67
441.19	5083.64
441.38	5184.29
441.57	5252.16
441.75	5233.44
441.94	5343.44
442.12	5404.30
442.31	5254.50
442.50	5399.62
442.68	5181.95
442.87	5359.83
443.05	5430.04
443.24	5500.26
443.43	5364.51
443.61	5387.91
443.80	5530.69
443.98	5320.04
444.17	5233.44
444.35	5462.81
444.54	5636.01
444.73	5359.83
444.91	5624.31
445.10	5547.07
445.28	5526.00
445.47	5317.70
445.65	5547.07
445.84	5696.86
446.02	5706.23
446.21	5633.67
446.39	5626.65
446.58	5547.07
446.77	5607.92
446.95	5460.47
447.14	5671.12
447.32	5563.45
447.51	5816.23
447.69	5678.14
447.88	5628.99
448.06	5666.44
448.25	5710.91
448.43	5699.20
448.62	5586.86
448.80	5687.50
448.99	5790.49
449.17	5788.14
449.36	5678.14
449.54	5863.04
449.73	5966.03
449.91	6036.24
450.10	5909.85
450.28	6073.69
450.46	6052.63
450.65	5891.13
450.83	5942.62
451.02	5930.92
451.20	6190.72
451.39	6242.21
451.57	5968.37
451.76	5951.98
451.94	6026.88
452.13	6183.70
452.31	6258.59
452.49	6111.14
452.68	6099.44
452.86	6244.55
453.05	6387.32
453.23	6253.91
453.42	6193.06
453.60	6202.42
453.78	6331.15
453.97	6242.21
454.15	6113.48
454.34	6375.62
454.52	6349.87
454.70	6434.13
454.89	6389.66
455.07	6478.60
455.26	6537.12
455.44	6384.98
455.62	6661.16
455.81	6520.73
455.99	6612.01
456.17	6595.63
456.36	6684.57
456.54	6675.21
456.73	6745.42
456.91	7002.88
457.09	6874.15
457.28	7045.01
457.46	6951.39
457.64	6855.43
457.83	6984.16
458.01	6738.40
458.19	7103.53
458.38	6960.75
458.56	7150.34
458.74	7316.51
458.93	7152.68
459.11	7012.24
459.29	7000.54
459.48	7138.63
459.66	7077.78
459.84	7159.70
460.03	7463.97
460.21	7377.37
460.39	7190.13
460.57	7325.88
460.76	7335.24
460.94	7473.33
461.12	7363.33
461.31	7527.16
461.49	7349.28
461.67	7555.25
461.85	7683.98
462.04	7667.60
462.22	7868.88
462.40	7655.89
462.59	7637.17
462.77	7611.42
462.95	7667.60
463.13	7784.62
463.32	7728.45
463.50	7765.90
463.68	7749.51
463.86	7779.94
464.05	7655.89
464.23	7712.07
464.41	7859.52
464.59	7716.75
464.78	7857.18
464.96	7875.90
465.14	7707.38
465.32	7873.56
465.50	8006.97
465.69	7985.91
465.87	7985.91
466.05	7999.95
466.23	8006.97
466.41	7681.64
466.60	8215.28
466.78	8163.79
466.96	7798.66
467.14	8021.02
467.32	8184.85
467.51	8201.24
467.69	8037.40
467.87	8124.00
468.05	8147.40
468.23	8166.13
468.41	8329.97
468.60	8170.81
468.78	8276.13
468.96	8332.31
469.14	8393.16
469.32	8571.04
469.50	8154.43
469.69	8439.97
469.87	8674.03
470.05	8610.83
470.23	8636.58
470.41	8772.33
470.59	8837.86
470.77	8652.96
470.95	8706.79
471.14	9015.74
471.32	8669.34
471.50	8709.13
471.68	8681.05
471.86	8802.75
472.04	9088.30
472.22	9015.74
472.40	9034.47
472.58	9153.84
472.77	9025.11
472.95	9315.33
473.13	9500.23
473.31	9249.80
473.49	9343.42
473.67	9055.53
473.85	9427.68
474.03	9699.18
474.21	9479.17
474.39	9652.37
474.57	9717.90
474.75	9769.40
474.93	9603.22
475.12	9895.78
475.30	9937.91
475.48	9844.29
475.66	9942.60
475.84	10178.99
476.02	10204.74
476.20	10047.92
476.38	10312.40
476.56	10684.55
476.74	10251.55
476.92	10314.74
477.10	10307.72
477.28	10396.66
477.46	10401.34
477.64	10600.29
477.82	10705.61
478.00	11066.05
478.18	11014.56
478.36	10956.05
478.54	11147.97
478.72	11070.73
478.90	11234.57
479.08	11363.30
479.26	11389.05
479.44	11445.22
479.62	11882.90
479.80	11580.97
479.98	11712.04
480.16	12229.30
480.34	11939.07
480.52	11969.50
480.70	12152.06
480.88	11969.50
481.06	12072.48
481.24	12156.74
481.41	12414.20
481.59	12496.12
481.77	12507.82
481.95	12727.83
482.13	12636.55
482.31	12840.18
482.49	13172.54
482.67	12957.21
482.85	13071.89
483.03	13348.08
483.21	13392.55
483.39	13469.78
483.57	13582.13
483.74	13851.29
483.92	13989.38
484.10	13797.46
484.28	14036.19
484.46	14178.97
484.64	14291.31
484.82	14193.01
485.00	14644.73
485.18	14665.80
485.35	14764.10
485.53	14728.99
485.71	15026.24
485.89	15276.68
486.07	15105.82
486.25	14883.47
486.43	15288.38
486.61	15442.85
486.78	15356.25
486.96	15599.67
487.14	15922.66
487.32	15768.19
487.50	16145.02
487.68	16093.52
487.85	16149.70
488.03	16318.22
488.21	16582.70
488.39	16603.76
488.57	16652.91
488.75	16762.92
488.92	17153.79
489.10	17364.43
489.28	17462.74
489.46	17301.24
489.64	17530.61
489.81	17720.20
489.99	17549.34
490.17	18043.19
490.35	18263.20
490.53	18003.40
490.70	18338.10
490.88	18157.88
491.06	18501.93
491.24	18473.85
491.41	18827.27
491.59	18710.24
491.77	19047.28
491.95	19023.87
492.13	19269.63
492.30	19414.74
492.48	19136.22
492.66	19882.85
492.84	19454.53
493.01	19377.30
493.19	19826.68
493.37	20058.39
493.54	20051.37
493.72	20456.28
493.90	20299.47
494.08	20467.98
494.25	20711.40
494.43	20727.78
494.61	20891.62
494.79	20716.08
494.96	20570.97
495.14	21135.04
495.32	21116.31
495.49	21619.53
495.67	21467.39
495.85	21640.59
496.02	21589.10
496.20	21568.04
496.38	21891.03
496.55	21816.13
496.73	22443.40
496.91	22181.26
497.09	22235.09
497.26	22490.21
497.44	22267.86
497.62	22785.12
497.79	23138.54
497.97	22726.60
498.14	23002.78
498.32	22967.68
498.50	23405.36
498.67	23555.15
498.85	23171.30
499.03	23487.28
499.20	23805.59
499.38	23459.19
499.56	24072.41
499.73	24002.19
499.91	24081.77
500.08	24163.69
500.26	24114.54
500.44	24109.86
500.61	24292.42
500.79	24409.45
500.97	24889.26
501.14	24800.32
501.32	25116.29
501.49	24769.89
501.67	24915.00
501.84	25113.95
502.02	25120.97
502.20	25036.71
502.37	25261.40
502.55	25359.70
502.72	25401.83
502.90	25453.33
503.07	25525.88
503.25	25493.12
503.43	25553.97
503.60	25818.45
503.78	25930.80
503.95	25813.77
504.13	26230.38
504.30	26347.41
504.48	26012.71
504.65	26415.29
504.83	26546.36
505.01	26710.19
505.18	26675.09
505.36	26869.35
505.53	26705.51
505.71	27051.91
505.88	26813.18
506.06	26501.89
506.23	27119.79
506.41	26824.88
506.58	27225.11
506.76	27262.56
506.93	27880.46
507.11	27447.46
507.28	27665.13
507.46	27908.55
507.63	27693.22
507.81	27852.38
507.98	27929.61
508.16	27967.06
508.33	28388.36
508.50	28245.58
508.68	28226.86
508.85	28386.02
509.03	28451.55
509.20	28465.60
509.38	28582.62
509.55	28631.77
509.73	28926.68
509.90	28912.64
510.08	28973.49
510.25	29230.95
510.42	28826.04
510.60	29188.82
510.77	29273.08
510.95	29584.37
511.12	29528.20
511.30	29500.11
511.47	29465.00
511.64	29481.39
511.82	29607.78
511.99	29921.41
512.17	30267.81
512.34	29874.60
512.51	30335.68
512.69	30012.69
512.86	29834.81
513.04	30314.62
513.21	30611.87
513.38	30597.82
513.56	31049.55
513.73	30668.04
513.90	30462.07
514.08	30782.73
514.25	31054.23
514.43	31187.64
514.60	30801.45
514.77	30775.70
514.95	31206.36
515.12	31204.02
515.29	31145.51
515.47	31498.93
515.64	31679.15
515.81	31145.51
515.99	31360.84
516.16	31604.25
516.33	31974.06
516.51	31651.06
516.68	31934.27
516.85	31901.50
517.03	32245.56
517.20	32123.85
517.37	31838.31
517.54	32245.56
517.72	32563.87
517.89	32404.72
518.06	32477.27
518.24	32388.33
518.41	32488.98
518.58	32568.55
518.75	32568.55
518.93	32952.40
519.10	32568.55
519.27	33174.75
519.45	32868.14
519.62	33205.18
519.79	33207.52
519.96	33404.13
520.14	33137.30
520.31	33027.30
520.48	33312.84
520.65	33387.74
520.83	33806.70
521.00	34326.30
521.17	33727.12
521.34	33584.35
521.52	34349.70
521.69	33560.94
521.86	34199.91
522.03	33830.10
522.20	34497.16
522.38	34295.87
522.55	34494.82
522.72	34536.94
522.89	34462.05
523.07	34871.64
523.24	34366.09
523.41	34998.03
523.58	34625.89
523.75	34642.27
523.92	34888.03
524.10	34944.20
524.27	35189.95
524.44	35250.81
524.61	34829.51
524.78	35381.88
524.96	35480.18
525.13	35470.82
525.30	35295.28
525.47	35557.42
525.64	35281.24
525.81	35730.62
525.98	35601.89
526.16	35519.97
526.33	35402.94
526.50	35838.28
526.67	35363.15
526.84	35992.76
527.01	35803.17
527.18	35782.11
527.36	36479.59
527.53	35882.75
527.70	36463.21
527.87	36313.41
528.04	36247.88
528.21	36140.21
528.38	36453.84
528.55	36741.73
528.72	36767.48
528.89	36367.24
529.07	36657.47
529.24	36664.49
529.41	36835.35
529.58	37013.23
529.75	37191.11
529.92	36701.94
530.09	36898.55
530.26	36928.97
530.43	36877.48
530.60	36786.20
530.77	37057.70
530.94	37567.94
531.11	37031.96
531.28	37673.26
531.46	37188.77
531.63	37354.95
531.80	37441.55
531.97	37429.85
532.14	37907.32
532.31	37645.18
532.48	37766.88
532.65	38106.26
532.82	37603.05
532.99	37638.15
533.16	38036.05
533.33	37785.61
533.50	37727.10
533.67	38188.18
533.84	38082.86
534.01	37904.98
534.18	37977.53
534.35	38721.82
534.52	38396.49
534.69	38609.48
534.86	38307.55
535.03	38485.43
535.20	38831.83
535.37	38749.91
535.54	38792.04
535.71	38459.68
535.88	38508.83
536.05	39096.31
536.22	39267.17
536.38	39271.85
536.55	39222.70
536.72	38916.09
536.89	39040.14
537.06	39129.08
537.23	39477.82
537.40	39234.40
537.57	39590.16
537.74	39164.18
537.91	39278.87
538.08	39426.32
538.25	38831.83
538.42	39332.70
538.59	39840.60
538.75	39519.95
538.92	39533.99
539.09	40034.86
539.26	40154.23
539.43	40084.01
539.60	39924.86
539.77	40048.91
539.94	40002.10
540.11	39871.03
540.28	40332.11
540.44	40208.06
540.61	39681.44
540.78	39704.85
540.95	39934.22
541.12	40371.90
541.29	39800.81
541.46	39952.94
541.62	39983.37
541.79	40460.84
541.96	40631.70
542.13	40299.34
542.30	40182.32
542.47	40863.41
542.63	40999.16
542.80	40971.08
542.97	41064.70
543.14	41179.39
543.31	41062.36
543.48	40746.39
543.64	41357.27
543.81	41509.40
543.98	41401.74
544.15	40935.97
544.32	41439.18
544.48	41879.21
544.65	41280.03
544.82	41603.02
544.99	41277.69
545.16	41488.34
545.32	41359.61
545.49	41570.25
545.66	41755.16
545.83	41949.42
546.00	42120.28
546.16	41827.71
546.33	41881.55
546.50	41551.53
546.67	42122.62
546.83	41495.36
547.00	41942.40
547.17	42253.69
547.34	42293.48
547.50	41982.19
547.67	42305.18
547.84	42501.79
548.00	42405.83
548.17	42628.18
548.34	42249.01
548.51	42731.16
548.67	42752.23
548.84	42604.77
549.01	42169.43
549.18	42429.23
549.34	43063.52
549.51	42906.70
549.68	42511.15
549.84	42689.03
550.01	42941.81
550.18	42852.87
550.34	42911.38
550.51	42979.26
550.68	42312.20
550.84	42653.92
551.01	43002.66
551.18	43098.62
551.34	43077.56
551.51	43103.31
551.68	42916.06
551.84	43473.11
552.01	42796.70
552.18	43171.18
552.34	43253.10
552.51	43634.61
552.68	42934.79
552.84	43585.46
553.01	43461.41
553.18	42962.87
553.34	43688.44
553.51	43349.06
553.67	43749.29
553.84	43737.59
554.01	43487.15
554.17	43587.80
554.34	44013.77
554.51	43580.78
554.67	44172.93
554.84	43875.68
555.00	43917.81
555.17	43732.91
555.33	44009.09
555.50	43648.65
555.67	44186.97
555.83	44072.29
556.00	43978.67
556.16	44229.10
556.33	44371.88
556.50	43917.81
556.66	43707.16
556.83	43784.40
556.99	44645.72
557.16	44406.98
557.32	44051.22
557.49	44275.91
557.65	44563.80
557.82	44533.37
557.98	44105.06
558.15	44823.60
558.32	44554.44
558.48	43959.94
558.65	44304.00
558.81	44451.45
558.98	44268.89
559.14	44556.78
559.31	44313.36
559.47	44404.64
559.64	44753.38
559.80	44474.86
559.97	44561.46
560.13	44289.96
560.30	44671.46
560.46	44966.37
560.63	44872.75
560.79	45045.95
560.96	44575.50
561.12	44886.79
561.29	44739.34
561.45	45233.19
561.61	45181.70
561.78	44566.14
561.94	44903.18
562.11	45067.02
562.27	44694.87
562.44	44940.63
562.60	45130.21
562.77	45270.64
562.93	44978.07
563.10	45485.97
563.26	44882.11
563.42	45483.63
563.59	45177.02
563.75	44975.73
563.92	45305.75
564.08	45148.93
564.24	45490.65
564.41	45404.05
564.57	45165.32
564.74	45104.46
564.90	45139.57
565.07	45006.16
565.23	45324.47
565.39	45537.46
565.56	45502.35
565.72	45277.66
565.88	45762.15
566.05	45720.02
566.21	45717.68
566.38	45081.06
566.54	45223.83
566.70	45652.15
566.87	45443.84
567.03	44952.33
567.19	45731.73
567.36	45558.53
567.52	45717.68
567.68	45942.38
567.85	45970.46
568.01	45965.78
568.17	45741.09
568.34	45853.44
568.50	45876.84
568.66	45563.21
568.83	45373.63
568.99	45563.21
569.15	46007.91
569.32	45509.38
569.48	45338.52
569.64	45860.46
569.81	45783.22
569.97	46099.19
570.13	46167.07
570.30	45794.92
570.46	45832.37
570.62	45705.98
570.78	46026.63
570.95	45745.77
571.11	46195.15
571.27	46064.08
571.43	45434.48
571.60	46024.29
571.76	45680.24
571.92	45883.86
572.09	45787.90
572.25	45631.08
572.41	45881.52
572.57	45902.59
572.74	45993.87
572.90	45951.74
573.06	46234.94
573.22	46415.16
573.38	45975.14
573.55	46279.41
573.71	46391.76
573.87	45933.01
574.03	46263.03
574.20	46230.26
574.36	46157.70
574.52	46005.57
574.68	46188.13
574.84	46157.70
575.01	46113.23
575.17	46686.67
575.33	46274.73
575.49	46155.36
575.65	46534.53
575.82	46129.62
575.98	45951.74
576.14	46260.69
576.30	46810.71
576.46	46396.44
576.62	46300.48
576.79	46480.70
576.95	46031.32
577.11	46534.53
577.27	46241.96
577.43	46525.17
577.59	46171.75
577.75	46230.26
577.92	45954.08
578.08	46164.73
578.24	46267.71
578.40	46511.13
578.56	46602.41
578.72	46199.83
578.88	46621.13
579.04	46234.94
579.21	46436.23
579.37	46518.15
579.53	46471.34
579.69	46417.50
579.85	45846.41
580.01	46387.08
580.17	46330.90
580.33	46504.10
580.49	46241.96
580.65	46506.44
580.82	46417.50
580.98	46284.09
581.14	46085.15
581.30	46887.95
581.46	46319.20
581.62	46115.58
581.78	46120.26
581.94	46574.32
582.10	46478.36
582.26	46543.89
582.42	46499.42
582.58	46520.49
582.74	46326.22
582.90	46330.90
583.06	46525.17
583.22	46373.03
583.38	46293.46
583.54	46445.59
583.70	46644.54
583.86	46864.55
584.02	46672.62
584.18	46845.82
584.34	46899.65
584.50	46703.05
584.66	46211.54
584.82	46408.14
584.98	47297.55
585.14	46483.04
585.30	46344.95
585.46	46230.26
585.62	46291.12
585.78	46894.97
585.94	46546.23
586.10	46260.69
586.26	46237.28
586.42	46681.98
586.58	46834.12
586.74	46883.27
586.90	46347.29
587.06	46689.01
587.22	46864.55
587.38	46504.10
587.54	46436.23
587.70	47100.94
587.86	46794.33
588.02	46471.34
588.18	46492.40
588.34	46501.76
588.49	46707.73
588.65	46948.81
588.81	47154.77
588.97	46534.53
589.13	46916.04
589.29	46859.87
589.45	46410.48
589.61	47058.81
589.77	47014.34
589.93	46773.27
590.08	47014.34
