SpectraSuite Data File
++++++++++++++++++++++++++++++++++++
Date: Fri Oct 25 11:26:11 EDT 2013
User: price-jones
Dark Spectrum Present: No
Reference Spectrum Present: No
Number of Sampled Component Spectra: 1
Spectrometers: USB2+H05261
Integration Time (usec): 100000 (USB2+H05261)
Spectra Averaged: 1 (USB2+H05261)
Boxcar Smoothing: 0 (USB2+H05261)
Correct for Electrical Dark: No (USB2+H05261)
Strobe/Lamp Enabled: No (USB2+H05261)
Correct for Detector Non-linearity: No (USB2+H05261)
Correct for Stray Light: No (USB2+H05261)
Number of Pixels in Processed Spectrum: 2048
>>>>>Begin Processed Spectral Data<<<<<
365.73	332.36
365.92	332.36
366.12	332.36
366.32	198.95
366.52	110.01
366.72	245.76
366.91	145.11
367.11	128.73
367.31	119.37
367.51	112.35
367.70	102.98
367.90	149.79
368.10	147.45
368.30	93.62
368.49	100.64
368.69	110.01
368.89	170.86
369.09	194.26
369.28	166.18
369.48	168.52
369.68	194.26
369.87	210.65
370.07	194.26
370.27	205.97
370.47	313.63
370.66	585.13
370.86	685.78
371.06	681.10
371.25	671.73
371.45	664.71
371.65	692.80
371.84	681.10
372.04	716.20
372.24	690.46
372.44	704.50
372.63	716.20
372.83	730.25
373.03	763.01
373.22	739.61
373.42	770.04
373.62	786.42
373.81	805.14
374.01	847.27
374.21	765.36
374.40	809.83
374.60	851.96
374.79	816.85
374.99	837.91
375.19	891.74
375.38	807.48
375.58	887.06
375.78	816.85
375.97	926.85
376.17	868.34
376.37	830.89
376.56	851.96
376.76	917.49
376.95	826.21
377.15	891.74
377.35	943.24
377.54	861.32
377.74	917.49
377.93	830.89
378.13	926.85
378.33	952.60
378.52	957.28
378.72	894.08
378.91	940.90
379.11	973.66
379.31	964.30
379.50	922.17
379.70	1036.86
379.89	987.71
380.09	1013.45
380.28	901.11
380.48	1029.84
380.68	947.92
380.87	954.94
381.07	983.02
381.26	1025.15
381.46	1022.81
381.65	1034.52
381.85	999.41
382.04	1057.92
382.24	1078.99
382.43	1050.90
382.63	1076.65
382.83	1018.13
383.02	1027.50
383.22	1203.04
383.41	1158.57
383.61	1020.47
383.80	1088.35
384.00	1123.46
384.19	1093.03
384.39	1107.07
384.58	1083.67
384.78	1193.67
384.97	1153.88
385.17	1203.04
385.36	1074.31
385.56	1125.80
385.75	1203.04
385.95	1198.35
386.14	1217.08
386.34	1254.53
386.53	1273.25
386.72	1090.69
386.92	1174.95
387.11	1238.14
387.31	1205.38
387.50	1191.33
387.70	1207.72
387.89	1291.98
388.09	1261.55
388.28	1277.93
388.48	1287.29
388.67	1413.68
388.86	1441.77
389.06	1313.04
389.25	1336.45
389.45	1357.51
389.64	1369.21
389.84	1376.24
390.03	1385.60
390.22	1399.64
390.42	1387.94
390.61	1460.49
390.81	1404.32
391.00	1413.68
391.19	1472.20
391.39	1399.64
391.58	1420.71
391.78	1486.24
391.97	1390.28
392.16	1472.20
392.36	1547.09
392.55	1486.24
392.75	1481.56
392.94	1481.56
393.13	1511.99
393.33	1495.60
393.52	1633.69
393.71	1584.54
393.91	1572.84
394.10	1551.78
394.29	1577.52
394.49	1692.21
394.68	1598.59
394.88	1530.71
395.07	1689.87
395.26	1701.57
395.46	1703.91
395.65	1685.19
395.84	1757.74
396.04	1741.36
396.23	1792.85
396.42	1797.53
396.62	1827.96
396.81	1659.44
397.00	1771.79
397.19	1727.32
397.39	1820.94
397.58	1842.00
397.77	1790.51
397.97	1839.66
398.16	1907.54
398.35	1970.73
398.55	1905.20
398.74	1888.81
398.93	1952.01
399.12	1863.07
399.32	1874.77
399.51	1937.96
399.70	2017.54
399.90	1919.24
400.09	2029.24
400.28	2057.33
400.47	1982.43
400.67	2132.23
400.86	2045.63
401.05	2043.29
401.24	2012.86
401.44	2097.12
401.63	2052.65
401.82	2108.82
402.01	2059.67
402.21	2122.87
402.40	2139.25
402.59	2169.68
402.78	2169.68
402.97	2289.04
403.17	2286.70
403.36	2286.70
403.55	2300.75
403.74	2333.51
403.93	2459.90
404.13	2389.69
404.32	2228.19
404.51	2328.83
404.70	2469.27
404.89	2511.39
405.09	2438.84
405.28	2469.27
405.47	2370.96
405.66	2438.84
405.85	2455.22
406.05	2518.42
406.24	2499.69
406.43	2565.23
406.62	2647.15
406.81	2768.85
407.00	2623.74
407.20	2516.08
407.39	2656.51
407.58	2670.55
407.77	2818.00
407.96	2761.83
408.15	2686.94
408.34	2766.51
408.54	2754.81
408.73	2757.15
408.92	2890.56
409.11	2946.73
409.30	2857.79
409.49	2916.31
409.68	2843.75
409.87	2930.35
410.07	2935.03
410.26	2946.73
410.45	2881.20
410.64	2953.76
410.83	2995.89
411.02	3038.02
411.21	3061.42
411.40	3133.98
411.59	3258.03
411.78	3171.43
411.98	3251.00
412.17	3187.81
412.36	3241.64
412.55	3316.54
412.74	3288.45
412.93	3438.25
413.12	3281.43
413.31	3473.36
413.50	3323.56
413.69	3365.69
413.88	3641.87
414.07	3494.42
414.26	3524.85
414.45	3665.28
414.64	3581.02
414.83	3662.94
415.02	3695.71
415.22	3662.94
415.41	3901.67
415.60	3904.01
415.79	3936.78
415.98	4042.11
416.17	3880.61
416.36	4004.66
416.55	4046.79
416.74	4086.58
416.93	4004.66
417.12	4051.47
417.31	4152.11
417.50	4318.29
417.69	4276.16
417.88	4313.61
418.07	4236.37
418.26	4271.48
418.45	4126.36
418.64	4411.91
418.83	4428.29
419.02	4454.04
419.21	4437.66
419.39	4554.68
419.58	4528.94
419.77	4533.62
419.96	4585.11
420.15	4641.28
420.34	4725.54
420.53	4561.70
420.72	4510.21
420.91	4704.48
421.10	4692.77
421.29	4711.50
421.48	4437.66
421.67	4870.65
421.86	4748.95
422.05	4772.35
422.24	4535.96
422.43	4828.53
422.61	4868.31
422.80	5027.47
422.99	4901.08
423.18	4985.34
423.37	4917.47
423.56	4926.83
423.75	4964.28
423.94	4837.89
424.13	4557.02
424.32	4812.14
424.50	4952.57
424.69	5046.20
424.88	5090.67
425.07	5097.69
425.26	4952.57
425.45	4858.95
425.64	5153.86
425.83	5027.47
426.01	4983.00
426.20	5074.28
426.39	5027.47
426.58	5053.22
426.77	5085.98
426.96	5104.71
427.15	5025.13
427.33	5207.69
427.52	5210.03
427.71	5195.99
427.90	5336.42
428.09	5329.40
428.28	5231.10
428.46	5350.46
428.65	5294.29
428.84	5600.90
429.03	5490.90
429.22	5315.36
429.40	5448.77
429.59	5366.85
429.78	5301.31
429.97	5228.76
430.16	5469.83
430.34	5757.72
430.53	5753.04
430.72	5650.05
430.91	5678.14
431.10	5671.12
431.28	5675.80
431.47	5853.68
431.66	5858.36
431.85	5614.95
432.03	5928.58
432.22	5827.93
432.41	5708.57
432.60	5783.46
432.79	5919.21
432.97	5956.66
433.16	5895.81
433.35	5923.90
433.54	5994.11
433.72	6043.26
433.91	6029.22
434.10	6080.71
434.28	5984.75
434.47	6132.20
434.66	6239.87
434.85	6300.72
435.03	6200.08
435.22	6195.40
435.41	6387.32
435.59	6342.85
435.78	6504.35
435.97	6387.32
436.16	6396.68
436.34	6359.24
436.53	6548.82
436.72	6670.53
436.90	6342.85
437.09	6719.68
437.28	6413.07
437.46	6511.37
437.65	6609.67
437.84	6686.91
438.02	6607.33
438.21	6600.31
438.40	6857.77
438.58	7035.65
438.77	6927.99
438.96	6958.41
439.14	7164.38
439.33	7166.72
439.52	7138.63
439.70	7199.49
439.89	7384.39
440.08	7239.28
440.26	7419.50
440.45	7473.33
440.63	7597.38
440.82	7723.77
441.01	7461.63
441.19	7641.85
441.38	7485.03
441.57	7618.44
441.75	7641.85
441.94	7829.09
442.12	7882.92
442.31	8023.36
442.50	8004.63
442.68	7988.25
442.87	8004.63
443.05	8004.63
443.24	8311.24
443.43	8145.06
443.61	8182.51
443.80	8519.55
443.98	8182.51
444.17	8018.68
444.35	8163.79
444.54	8327.63
444.73	8210.60
444.91	8369.76
445.10	8318.26
445.28	8198.90
445.47	8102.93
445.65	8266.77
445.84	8603.81
446.02	8468.06
446.21	8304.22
446.39	8531.25
446.58	8432.95
446.77	8414.23
446.95	8327.63
447.14	8362.73
447.32	8482.10
447.51	8404.86
447.69	8414.23
447.88	8564.02
448.06	8418.91
448.25	8444.65
448.43	8517.21
448.62	8699.77
448.80	8711.47
448.99	8496.14
449.17	8648.28
449.36	8793.39
449.54	8769.99
449.73	8924.46
449.91	9090.64
450.10	8828.50
450.28	8971.27
450.46	9034.47
450.65	8912.76
450.83	9156.18
451.02	9036.81
451.20	9114.05
451.39	8994.68
451.57	9188.94
451.76	8999.36
451.94	9137.45
452.13	9305.97
452.31	9444.06
452.49	9064.89
452.68	9158.52
452.86	9137.45
453.05	9406.61
453.23	9540.02
453.42	9423.00
453.60	9317.67
453.78	9572.79
453.97	9385.55
454.15	9350.44
454.34	9568.11
454.52	9467.47
454.70	9788.12
454.89	9680.46
455.07	9865.36
455.26	9877.06
455.44	9942.60
455.62	9589.17
455.81	9891.10
455.99	9921.53
456.17	9804.50
456.36	9996.43
456.54	10085.37
456.73	10148.56
456.91	10600.29
457.09	10370.91
457.28	10520.71
457.46	10408.36
457.64	10480.92
457.83	10274.95
458.01	10471.56
458.19	10710.29
458.38	10626.03
458.56	10686.89
458.74	10843.70
458.93	10656.46
459.11	10792.21
459.29	10668.16
459.48	10654.12
459.66	10714.97
459.84	10771.15
460.03	11049.67
460.21	11056.69
460.39	10916.26
460.57	10988.82
460.76	11117.54
460.94	10981.79
461.12	11206.48
461.31	11199.46
461.49	10923.28
461.67	11035.63
461.85	11515.44
462.04	11260.32
462.22	11660.55
462.40	11510.75
462.59	11393.73
462.77	11445.22
462.95	11641.82
463.13	11520.12
463.32	11552.88
463.50	11861.84
463.68	11777.58
463.86	11913.33
464.05	11566.93
464.23	11712.04
464.41	11880.56
464.59	11808.00
464.78	11995.25
464.96	11602.04
465.14	11730.76
465.32	11899.28
465.50	12072.48
465.69	12170.79
465.87	12128.66
466.05	12360.37
466.23	12343.99
466.41	12215.26
466.60	12468.03
466.78	11960.14
466.96	12079.50
467.14	11939.07
467.32	12409.52
467.51	12430.59
467.69	12053.76
467.87	12507.82
468.05	12652.94
468.23	12379.09
468.41	12360.37
468.60	12540.59
468.78	12781.67
468.96	12589.74
469.14	12875.29
469.32	12833.16
469.50	12683.36
469.69	12938.48
469.87	13118.70
470.05	13043.81
470.23	13172.54
470.41	13076.57
470.59	13266.16
470.77	13158.49
470.95	12973.59
471.14	13357.44
471.32	13235.73
471.50	13575.11
471.68	13502.55
471.86	13558.72
472.04	13556.38
472.22	13547.02
472.40	13755.33
472.58	13598.51
472.77	14066.62
472.95	14157.90
473.13	14441.11
473.31	13935.55
473.49	14047.90
473.67	13937.89
473.85	14253.86
474.03	14640.05
474.21	14335.78
474.39	14600.26
474.57	14530.05
474.75	14530.05
474.93	15117.52
475.12	15051.99
475.30	15063.69
475.48	14740.69
475.66	15344.55
475.84	15236.89
476.02	15297.74
476.20	15084.75
476.38	15742.44
476.56	16128.63
476.74	15737.76
476.92	15859.47
477.10	15756.49
477.28	15962.45
477.46	16105.23
477.64	16123.95
477.82	16397.79
478.00	16692.70
478.18	16545.25
478.36	16982.93
478.54	17158.47
478.72	16922.07
478.90	17046.12
479.08	17689.77
479.26	17614.87
479.44	17675.73
479.62	17834.88
479.80	18080.64
479.98	17987.02
480.16	18530.02
480.34	18101.70
480.52	18525.34
480.70	18466.83
480.88	18312.35
481.06	18534.70
481.24	18525.34
481.41	19208.78
481.59	19463.90
481.77	19115.16
481.95	19304.74
482.13	19836.04
482.31	19573.90
482.49	20374.36
482.67	19953.07
482.85	20222.23
483.03	20610.76
483.21	20540.54
483.39	20856.51
483.57	20634.16
483.74	20915.03
483.92	21036.74
484.10	21090.57
484.28	21610.17
484.46	21778.68
484.64	22185.94
484.82	21788.05
485.00	22445.74
485.18	22771.07
485.35	22920.87
485.53	22705.54
485.71	23140.88
485.89	23487.28
486.07	23290.67
486.25	23264.92
486.43	23545.79
486.61	23751.76
486.78	23679.20
486.96	23948.36
487.14	24493.71
487.32	24620.10
487.50	24943.09
487.68	24762.87
487.85	25289.49
488.03	25350.34
488.21	25830.15
488.39	25652.27
488.57	25947.18
488.75	25940.16
488.92	26438.69
489.10	26281.88
489.28	26497.20
489.46	27138.51
489.64	26717.22
489.81	27552.79
489.99	27365.54
490.17	27562.15
490.35	27704.92
490.53	28224.52
490.70	28690.29
490.88	28196.43
491.06	28561.56
491.24	28912.64
491.41	28828.38
491.59	29268.40
491.77	29219.25
491.95	29254.36
492.13	29472.03
492.30	29923.75
492.48	29834.81
492.66	29975.24
492.84	30387.18
493.01	30705.49
493.19	30314.62
493.37	30960.61
493.54	31594.89
493.72	31529.36
493.90	31569.15
494.08	31342.11
494.25	31945.97
494.43	31985.76
494.61	32252.58
494.79	32678.56
494.96	32460.89
495.14	32830.69
495.32	33060.07
495.49	32938.36
495.67	33376.04
495.85	33015.60
496.02	33574.98
496.20	34307.57
496.38	34139.05
496.55	33771.59
496.73	34660.99
496.91	34630.57
497.09	34642.27
497.26	34806.11
497.44	34878.66
497.62	34958.24
497.79	35524.65
497.97	35304.64
498.14	35854.67
498.32	35885.09
498.50	36147.23
498.67	36531.08
498.85	36435.12
499.03	36418.74
499.20	36650.45
499.38	36498.31
499.56	36547.47
499.73	37156.00
499.91	37184.09
500.08	37546.87
500.26	37043.66
500.44	37397.08
500.61	37823.06
500.79	37481.34
500.97	37757.52
501.14	38176.48
501.32	38597.77
501.49	38600.12
501.67	38686.71
501.84	39098.65
502.02	38927.79
502.20	38850.55
502.37	39129.08
502.55	39164.18
502.72	39189.93
502.90	40020.82
503.07	39173.55
503.25	39337.38
503.43	39461.43
503.60	40002.10
503.78	40243.17
503.95	40062.95
504.13	40575.53
504.30	40596.59
504.48	39983.37
504.65	40629.36
504.83	40559.14
505.01	41216.83
505.18	41219.17
505.36	41303.43
505.53	41078.74
505.71	41448.55
505.88	41525.78
506.06	41591.32
506.23	41766.86
506.41	41724.73
506.58	41933.04
506.76	42234.97
506.93	42230.29
507.11	42047.72
507.28	42445.62
507.46	42417.53
507.63	42480.72
507.81	42789.67
507.98	42951.17
508.16	43000.32
508.33	42955.85
508.50	43264.80
508.68	43969.30
508.85	43683.76
509.03	43278.85
509.20	43852.28
509.38	43931.86
509.55	44320.38
509.73	44140.16
509.90	44435.07
510.08	44524.01
510.25	44474.86
510.42	44669.12
510.60	44875.09
510.77	45001.48
510.95	45631.08
511.12	44772.11
511.30	45289.37
511.47	45471.93
511.64	45298.73
511.82	46115.58
511.99	45394.69
512.17	45703.64
512.34	45633.42
512.51	46047.70
512.69	46305.16
512.86	46220.90
513.04	46204.52
513.21	46569.64
513.38	46887.95
513.56	46628.15
513.73	46726.46
513.90	46721.77
514.08	46794.33
514.25	46885.61
514.43	47295.21
514.60	47068.17
514.77	47412.23
514.95	47583.09
515.12	47391.17
515.29	47421.59
515.47	47613.52
515.64	47870.98
515.81	47690.76
515.99	48463.13
516.16	48339.08
516.33	48797.83
516.51	48409.30
516.68	48163.54
516.85	48177.59
517.03	48786.13
517.20	48727.61
517.37	48318.02
517.54	48528.67
517.72	48765.06
517.89	48884.43
518.06	48786.13
518.24	49013.16
518.41	49205.08
518.58	49106.78
518.75	49244.87
518.93	49167.63
519.10	49078.69
519.27	49532.76
519.45	49518.71
519.62	49631.06
519.79	49729.36
519.96	49745.75
520.14	49911.92
520.31	49785.54
520.48	50136.62
520.65	50225.56
520.83	50651.53
521.00	50684.30
521.17	50679.62
521.34	50436.20
521.52	50763.88
521.69	50623.45
521.86	50932.40
522.03	50756.86
522.20	50988.57
522.38	51283.48
522.55	51311.56
522.72	51206.24
522.89	51028.36
523.07	51334.97
523.24	51196.88
523.41	51704.77
523.58	51643.92
523.75	51716.48
523.92	51746.90
524.10	52245.44
524.27	51601.79
524.44	52041.81
524.61	51758.61
524.78	52002.02
524.96	52004.36
525.13	52013.73
525.30	52137.77
525.47	52495.88
525.64	52528.64
525.81	52470.13
525.98	52556.73
526.16	52406.94
526.33	52547.37
526.50	52797.80
526.67	52493.54
526.84	52938.24
527.01	52657.37
527.18	52849.30
527.36	52687.80
527.53	52949.94
527.70	53415.71
527.87	53090.37
528.04	52718.23
528.21	53289.32
528.38	53202.72
528.55	53502.31
528.72	53399.32
528.89	53158.25
529.07	53006.11
529.24	53221.44
529.41	53305.70
529.58	53642.74
529.75	53446.13
529.92	53558.48
530.09	53705.93
530.26	53982.12
530.43	54005.52
530.60	53757.42
530.77	53731.68
530.94	53844.02
531.11	53834.66
531.28	53862.75
531.46	54049.99
531.63	54162.34
531.80	54138.93
531.97	54358.94
532.14	54234.89
532.31	54260.64
532.48	54515.76
532.65	54766.20
532.82	54408.09
532.99	54635.13
533.16	54466.61
533.33	54948.76
533.50	54904.29
533.67	54740.45
533.84	54574.27
534.01	54951.10
534.18	54717.04
534.35	54857.48
534.52	55011.95
534.69	55194.51
534.86	55215.58
535.03	55047.06
535.20	54911.31
535.37	55201.53
535.54	55278.77
535.71	55187.49
535.88	55473.04
536.05	55290.48
536.22	55449.63
536.38	55374.73
536.55	55437.93
536.72	55423.89
536.89	55559.64
537.06	55416.86
537.23	55416.86
537.40	55327.92
537.57	55597.09
537.74	55735.18
537.91	55473.04
538.08	55597.09
538.25	55545.59
538.42	55657.94
538.59	56233.71
538.75	55805.39
538.92	55868.59
539.09	55899.01
539.26	55950.51
539.43	55962.21
539.60	55915.40
539.77	56074.55
539.94	56383.51
540.11	56275.84
540.28	56437.34
540.44	56219.67
540.61	56175.20
540.78	56486.49
540.95	56224.35
541.12	56182.22
541.29	56184.56
541.46	56399.89
541.62	56619.90
541.79	56439.68
541.96	56313.29
542.13	56479.47
542.30	56577.77
542.47	56844.59
542.63	56622.24
542.80	56633.94
542.97	56884.38
543.14	57286.95
543.31	57254.18
543.48	56949.92
543.64	57378.23
543.81	57495.26
543.98	57034.17
544.15	57247.16
544.32	57195.67
544.48	57528.03
544.65	57326.74
544.82	57553.77
544.99	57401.64
545.16	57502.28
545.32	57272.91
545.49	57586.54
545.66	57415.68
545.83	57394.62
546.00	57565.48
546.16	57375.89
546.33	57523.35
546.50	57315.04
546.67	57457.81
546.83	57308.02
547.00	57719.95
547.17	57570.16
547.34	57602.92
547.50	57696.55
547.67	57902.51
547.84	58059.33
548.00	58005.50
548.17	58274.66
548.34	58005.50
548.51	58071.03
548.67	58024.22
548.84	57984.43
549.01	57921.24
549.18	58000.82
549.34	57965.71
549.51	58197.42
549.68	58096.78
549.84	58298.06
550.01	58052.31
550.18	58014.86
550.34	58323.81
550.51	58281.68
550.68	58527.44
550.84	58277.00
551.01	58511.05
551.18	58305.09
551.34	58415.09
551.51	58454.88
551.68	58478.28
551.84	58401.05
552.01	58314.45
552.18	58585.95
552.34	58520.41
552.51	58375.30
552.68	58447.86
552.84	58436.16
553.01	58866.81
553.18	58700.64
553.34	58738.08
553.51	58539.14
553.67	58946.39
553.84	58869.15
554.01	58724.04
554.17	58939.37
554.34	58925.33
554.51	58976.82
554.67	59084.48
554.84	59051.72
555.00	58700.64
555.17	59051.72
555.33	59065.76
555.50	58726.38
555.67	59098.53
555.83	58927.67
556.00	58873.84
556.16	59147.68
556.33	59318.54
556.50	59023.63
556.66	59283.43
556.83	59054.06
556.99	59194.49
557.16	59451.95
557.32	59363.01
557.49	59522.16
557.65	59311.52
557.82	59318.54
557.98	59405.14
558.15	59250.66
558.32	59407.48
558.48	59302.15
558.65	59606.42
558.81	59250.66
558.98	59660.26
559.14	59461.31
559.31	59465.99
559.47	59557.27
559.64	59646.21
559.80	59587.70
559.97	59648.55
560.13	59496.42
560.30	59559.61
560.46	59641.53
560.63	59643.87
560.79	59784.30
560.96	59686.00
561.12	59641.53
561.29	59686.00
561.45	59854.52
561.61	59765.58
561.78	59856.86
561.94	59707.07
562.11	59592.38
562.27	59697.70
562.44	59952.82
562.60	59927.08
562.77	60004.31
562.93	59716.43
563.10	60027.72
563.26	59824.09
563.42	59959.84
563.59	60018.36
563.75	59882.61
563.92	59861.54
564.08	60018.36
564.24	60163.47
564.41	60023.04
564.57	60055.81
564.74	59931.76
564.90	60135.38
565.07	59711.75
565.23	60067.51
565.39	59952.82
565.56	60074.53
565.72	59952.82
565.88	60058.15
566.05	60186.88
566.21	60027.72
566.38	60095.60
566.54	60165.81
566.70	60378.80
566.87	60128.36
567.03	60046.44
567.19	60278.16
567.36	60310.92
567.52	60273.48
567.68	60512.21
567.85	60390.50
568.01	60306.24
568.17	60151.77
568.34	60313.26
568.50	60130.70
568.66	60168.15
568.83	60367.10
568.99	60165.81
569.15	60484.12
569.32	60388.16
569.48	60217.30
569.64	60470.08
569.81	60369.44
569.97	60287.52
570.13	60357.74
570.30	60371.78
570.46	60172.83
570.62	60544.98
570.78	60308.58
570.95	60404.55
571.11	60357.74
571.27	60409.23
571.43	60355.39
571.60	60486.46
571.76	60537.96
571.92	60626.90
572.09	60411.57
572.25	60477.10
572.41	60629.24
572.57	60619.88
572.74	60654.98
572.90	60339.01
573.06	60636.26
573.22	60617.53
573.38	60477.10
573.55	60563.70
573.71	60706.47
573.87	60896.06
574.03	60477.10
574.20	60622.22
574.36	60690.09
574.52	60711.16
574.68	60610.51
574.84	60610.51
575.01	60657.32
575.17	60734.56
575.33	60561.36
575.49	60535.62
575.65	60652.64
575.82	60722.86
575.98	60563.70
576.14	60760.31
576.30	60687.75
576.46	60512.21
576.62	60488.80
576.79	60753.29
576.95	60788.39
577.11	60872.65
577.27	60666.69
577.43	60676.05
577.59	60767.33
577.75	60720.52
577.92	60568.38
578.08	60877.33
578.24	60802.44
578.40	60743.92
578.56	60903.08
578.72	60636.26
578.88	60907.76
579.04	60870.31
579.21	60807.12
579.37	60952.23
579.53	60956.91
579.69	60544.98
579.85	60603.49
580.01	60699.45
580.17	60554.34
580.33	60816.48
580.49	60917.12
580.65	60924.14
580.82	60664.35
580.98	60542.64
581.14	60776.69
581.30	60996.70
581.46	60793.07
581.62	60893.72
581.78	60708.82
581.94	60860.95
582.10	60828.18
582.26	60835.20
582.42	60741.58
582.58	61083.30
582.74	60739.24
582.90	60858.61
583.06	60786.05
583.22	60559.02
583.38	60846.91
583.54	60874.99
583.70	60769.67
583.86	61029.47
584.02	60828.18
584.18	60931.17
584.34	60743.92
584.50	60975.64
584.66	60699.45
584.82	60671.37
584.98	61069.26
585.14	60945.21
585.30	60743.92
585.46	60954.57
585.62	60966.27
585.78	60999.04
585.94	60659.66
586.10	60842.23
586.26	60903.08
586.42	61118.41
586.58	61071.60
586.74	61062.24
586.90	60956.91
587.06	60992.02
587.22	61027.13
587.38	60823.50
587.54	61017.77
587.70	61120.75
587.86	60996.70
588.02	60956.91
588.18	60966.27
588.34	60807.12
588.49	61106.71
