SpectraSuite Data File
++++++++++++++++++++++++++++++++++++
Date: Fri Oct 25 11:23:54 EDT 2013
User: price-jones
Dark Spectrum Present: No
Reference Spectrum Present: No
Number of Sampled Component Spectra: 1
Spectrometers: USB2+H05261
Integration Time (usec): 100000 (USB2+H05261)
Spectra Averaged: 1 (USB2+H05261)
Boxcar Smoothing: 0 (USB2+H05261)
Correct for Electrical Dark: No (USB2+H05261)
Strobe/Lamp Enabled: No (USB2+H05261)
Correct for Detector Non-linearity: No (USB2+H05261)
Correct for Stray Light: No (USB2+H05261)
Number of Pixels in Processed Spectrum: 2048
>>>>>Begin Processed Spectral Data<<<<<
365.73	189.58
365.92	189.58
366.12	189.58
366.32	166.18
366.52	149.79
366.72	131.07
366.91	114.69
367.11	98.30
367.31	159.16
367.51	98.30
367.70	124.05
367.90	77.24
368.10	39.79
368.30	191.92
368.49	131.07
368.69	135.75
368.89	121.71
369.09	168.52
369.28	133.41
369.48	180.22
369.68	138.09
369.87	189.58
370.07	196.60
370.27	234.05
370.47	358.10
370.66	592.16
370.86	671.73
371.06	648.33
371.25	713.86
371.45	678.76
371.65	681.10
371.84	713.86
372.04	629.60
372.24	629.60
372.44	704.50
372.63	674.07
372.83	723.23
373.03	753.65
373.22	770.04
373.42	816.85
373.62	805.14
373.81	798.12
374.01	795.78
374.21	863.66
374.40	842.59
374.60	837.91
374.79	854.30
374.99	875.36
375.19	795.78
375.38	938.55
375.58	922.17
375.78	828.55
375.97	844.93
376.17	851.96
376.37	772.38
376.56	809.83
376.76	873.02
376.95	891.74
377.15	842.59
377.35	903.45
377.54	784.08
377.74	877.70
377.93	889.40
378.13	952.60
378.33	908.13
378.52	833.23
378.72	954.94
378.91	912.81
379.11	889.40
379.31	931.53
379.50	938.55
379.70	828.55
379.89	947.92
380.09	954.94
380.28	919.83
380.48	997.07
380.68	980.68
380.87	1008.77
381.07	999.41
381.26	1104.73
381.46	992.39
381.65	978.34
381.85	980.68
382.04	1074.31
382.24	1062.60
382.43	1071.97
382.63	1001.75
382.83	1151.54
383.02	1081.33
383.22	1102.39
383.41	1090.69
383.61	1102.39
383.80	1095.37
384.00	1132.82
384.19	1008.77
384.39	1062.60
384.58	1139.84
384.78	1170.27
384.97	1203.04
385.17	1095.37
385.36	1069.62
385.56	1151.54
385.75	1196.01
385.95	1102.39
386.14	1261.55
386.34	1228.78
386.53	1172.61
386.72	1228.78
386.92	1226.44
387.11	1228.78
387.31	1156.22
387.50	1254.53
387.70	1207.72
387.89	1296.66
388.09	1188.99
388.28	1270.91
388.48	1191.33
388.67	1334.11
388.86	1289.64
389.06	1338.79
389.25	1341.13
389.45	1233.46
389.64	1289.64
389.84	1474.54
390.03	1364.53
390.22	1437.09
390.42	1406.66
390.61	1394.96
390.81	1399.64
391.00	1472.20
391.19	1362.19
391.39	1561.14
391.58	1413.68
391.78	1425.39
391.97	1530.71
392.16	1502.62
392.36	1493.26
392.55	1430.07
392.75	1446.45
392.94	1530.71
393.13	1432.41
393.33	1577.52
393.52	1462.83
393.71	1568.16
393.91	1544.75
394.10	1643.06
394.29	1593.90
394.49	1708.59
394.68	1614.97
394.88	1596.25
395.07	1631.35
395.26	1722.63
395.46	1699.23
395.65	1741.36
395.84	1668.80
396.04	1687.53
396.23	1771.79
396.42	1767.10
396.62	1790.51
396.81	1891.15
397.00	1802.21
397.19	1795.19
397.39	1849.02
397.58	1886.47
397.77	1853.70
397.97	1825.62
398.16	1905.20
398.35	1902.86
398.55	1842.00
398.74	1886.47
398.93	1998.82
399.12	1879.45
399.32	1947.33
399.51	2031.58
399.70	1956.69
399.90	1849.02
400.09	2017.54
400.28	2017.54
400.47	1973.07
400.67	2064.35
400.86	2157.97
401.05	2064.35
401.24	2251.60
401.44	2139.25
401.63	2120.53
401.82	2134.57
402.01	2064.35
402.21	2125.21
402.40	2195.42
402.59	2195.42
402.78	2251.60
402.97	2186.06
403.17	2232.87
403.36	2160.31
403.55	2307.77
403.74	2368.62
403.93	2399.05
404.13	2307.77
404.32	2361.60
404.51	2363.94
404.70	2459.90
404.89	2359.26
405.09	2466.92
405.28	2525.44
405.47	2480.97
405.66	2516.08
405.85	2490.33
406.05	2516.08
406.24	2539.48
406.43	2541.82
406.62	2436.50
406.81	2644.81
407.00	2509.05
407.20	2534.80
407.39	2754.81
407.58	2654.17
407.77	2752.47
407.96	2878.86
408.15	2691.62
408.34	2839.07
408.54	2808.64
408.73	2820.35
408.92	2860.13
409.11	2981.84
409.30	2895.24
409.49	2843.75
409.68	3023.97
409.87	2836.73
410.07	2965.46
410.26	2939.71
410.45	3126.96
410.64	2988.86
410.83	3148.02
411.02	3014.61
411.21	3251.00
411.40	3150.36
411.59	3145.68
411.78	3213.56
411.98	3197.17
412.17	3295.47
412.36	3276.75
412.55	3356.33
412.74	3421.86
412.93	3480.38
413.12	3332.92
413.31	3564.64
413.50	3433.57
413.69	3454.63
413.88	3712.09
414.07	3606.77
414.26	3564.64
414.45	3637.19
414.64	3581.02
414.83	3761.24
415.02	3763.58
415.22	3866.56
415.41	3838.48
415.60	3824.44
415.79	3941.46
415.98	4100.62
416.17	4049.13
416.36	3960.19
416.55	3946.14
416.74	4124.02
416.93	4131.05
417.12	4065.51
417.31	4142.75
417.50	4339.35
417.69	4264.46
417.88	4374.46
418.07	4327.65
418.26	4290.20
418.45	4447.02
418.64	4435.32
418.83	4348.72
419.02	4484.47
419.21	4531.28
419.39	4477.44
419.58	4423.61
419.77	4432.97
419.96	4533.62
420.15	4571.07
420.34	4753.63
420.53	4524.26
420.72	4713.84
420.91	4718.52
421.10	4718.52
421.29	4819.16
421.48	4660.01
421.67	4641.28
421.86	4805.12
422.05	4765.33
422.24	4842.57
422.43	4767.67
422.61	4952.57
422.80	4957.25
422.99	5022.79
423.18	4936.19
423.37	4971.30
423.56	4992.36
423.75	4887.04
423.94	4791.08
424.13	4613.20
424.32	4863.63
424.50	4938.53
424.69	5207.69
424.88	5097.69
425.07	5088.32
425.26	4933.85
425.45	5064.92
425.64	5039.17
425.83	4947.89
426.01	5186.63
426.20	5048.54
426.39	5048.54
426.58	5114.07
426.77	5151.52
426.96	5224.08
427.15	5142.16
427.33	5100.03
427.52	5254.50
427.71	5266.21
427.90	5289.61
428.09	5298.97
428.28	5423.02
428.46	5355.15
428.65	5479.19
428.84	5444.09
429.03	5713.25
429.22	5563.45
429.40	5516.64
429.59	5572.82
429.78	5348.12
429.97	5219.39
430.16	5455.79
430.34	5593.88
430.53	5659.42
430.72	5668.78
430.91	5753.04
431.10	5474.51
431.28	5797.51
431.47	5865.38
431.66	5830.27
431.85	5849.00
432.03	5867.72
432.22	5949.64
432.41	5834.96
432.60	6036.24
432.79	5937.94
432.97	6017.52
433.16	6132.20
433.35	5996.45
433.54	6099.44
433.72	6244.55
433.91	6054.97
434.10	6197.74
434.28	6085.39
434.47	6139.23
434.66	6312.42
434.85	6216.46
435.03	6333.49
435.22	6228.17
435.41	6534.78
435.59	6370.94
435.78	6417.75
435.97	6345.19
436.16	6497.33
436.34	6530.09
436.53	6532.44
436.72	6707.98
436.90	6427.11
437.09	6544.14
437.28	6516.05
437.46	6757.13
437.65	6619.04
437.84	6743.08
438.02	6881.18
438.21	6822.66
438.40	6677.55
438.58	7094.16
438.77	7082.46
438.96	7023.95
439.14	7136.29
439.33	7166.72
439.52	7349.28
439.70	7283.75
439.89	7363.33
440.08	7442.90
440.26	7330.56
440.45	7503.76
440.63	7358.64
440.82	7625.47
441.01	7358.64
441.19	7447.58
441.38	7620.78
441.57	7779.94
441.75	7793.98
441.94	8077.19
442.12	7906.33
442.31	8116.98
442.50	8077.19
442.68	8091.23
442.87	8013.99
443.05	8231.66
443.24	8294.86
443.43	8203.58
443.61	8234.00
443.80	8510.19
443.98	7901.65
444.17	7948.46
444.35	8219.96
444.54	8383.80
444.73	8212.94
444.91	8273.79
445.10	8226.98
445.28	8168.47
445.47	8379.12
445.65	8402.52
445.84	8381.46
446.02	8554.66
446.21	8585.08
446.39	8362.73
446.58	8580.40
446.77	8624.87
446.95	8360.39
447.14	8397.84
447.32	8566.36
447.51	8669.34
447.69	8592.11
447.88	8559.34
448.06	8737.22
448.25	8601.47
448.43	8610.83
448.62	8753.60
448.80	8561.68
448.99	8753.60
449.17	8596.79
449.36	8709.13
449.54	8912.76
449.73	8784.03
449.91	9078.94
450.10	8926.80
450.28	9163.20
450.46	9071.92
450.65	9039.15
450.83	9064.89
451.02	8961.91
451.20	9231.07
451.39	9139.79
451.57	9074.26
451.76	9273.20
451.94	9224.05
452.13	9343.42
452.31	9097.66
452.49	9362.14
452.68	9444.06
452.86	9357.46
453.05	9530.66
453.23	9568.11
453.42	9462.79
453.60	9224.05
453.78	9762.37
453.97	9652.37
454.15	9596.20
454.34	9619.60
454.52	9558.75
454.70	9582.15
454.89	9785.78
455.07	9961.32
455.26	9944.94
455.44	9977.70
455.62	10003.45
455.81	9907.49
455.99	10017.49
456.17	10038.56
456.36	10113.45
456.54	10097.07
456.73	10307.72
456.91	10363.89
457.09	10384.96
457.28	10656.46
457.46	10413.04
457.64	10459.85
457.83	10565.18
458.01	10431.77
458.19	10747.74
458.38	10712.63
458.56	10906.90
458.74	10925.62
458.93	10860.09
459.11	10604.97
459.29	10609.65
459.48	10757.10
459.66	10871.79
459.84	10836.68
460.03	11103.50
460.21	10972.43
460.39	11028.60
460.57	11108.18
460.76	11304.79
460.94	11229.89
461.12	11180.74
461.31	11300.11
461.49	11220.53
461.67	11360.96
461.85	11613.74
462.04	11304.79
462.22	11726.08
462.40	11396.07
462.59	11506.07
462.77	11700.34
462.95	11609.06
463.13	11798.64
463.32	11686.29
463.50	11653.53
463.68	11658.21
463.86	11983.54
464.05	11559.91
464.23	11920.35
464.41	11810.34
464.59	11662.89
464.78	12119.29
464.96	12002.27
465.14	11798.64
465.32	12020.99
465.50	11920.35
465.69	12166.10
465.87	11992.90
466.05	12201.21
466.23	12248.02
466.41	12332.28
466.60	12397.82
466.78	12198.87
466.96	12187.17
467.14	12250.36
467.32	12404.84
467.51	12568.68
467.69	11861.84
467.87	12613.15
468.05	12769.96
468.23	12475.06
468.41	12542.93
468.60	12533.57
468.78	12863.58
468.96	12606.13
469.14	13041.46
469.32	13018.06
469.50	12695.07
469.69	13067.21
469.87	13132.75
470.05	13043.81
470.23	13298.92
470.41	13055.51
470.59	13200.62
470.77	13273.18
470.95	13256.79
471.14	13565.74
471.32	13205.30
471.50	13645.32
471.68	13563.40
471.86	13343.39
472.04	13790.44
472.22	13958.96
472.40	13799.80
472.58	14015.13
472.77	13907.46
472.95	14342.80
473.13	14644.73
473.31	14122.79
473.49	14115.77
473.67	14005.77
473.85	14469.19
474.03	14387.27
474.21	14473.87
474.39	14668.14
474.57	14754.74
474.75	14764.10
474.93	14904.53
475.12	14956.02
475.30	15225.18
475.48	15126.88
475.66	15314.13
475.84	15126.88
476.02	15517.75
476.20	15220.50
476.38	15484.98
476.56	15859.47
476.74	16051.39
476.92	15754.15
477.10	15735.42
477.28	16313.53
477.46	16203.53
477.64	16542.91
477.82	16507.80
478.00	16961.86
478.18	16908.03
478.36	16849.52
478.54	17132.72
478.72	17198.26
478.90	17287.20
479.08	17619.55
479.26	17659.34
479.44	17642.96
479.62	17748.28
479.80	18185.96
479.98	18064.25
480.16	18602.58
480.34	18181.28
480.52	18649.39
480.70	18764.07
480.88	18740.67
481.06	18567.47
481.24	18787.48
481.41	19297.72
481.59	19405.38
481.77	19714.33
481.95	19417.08
482.13	19672.20
482.31	19700.29
482.49	20236.27
482.67	20334.57
482.85	20470.33
483.03	20465.64
483.21	20891.62
483.39	21142.06
483.57	21158.44
483.74	21174.83
483.92	21233.34
484.10	21343.35
484.28	21905.07
484.46	21778.68
484.64	22286.58
484.82	21818.47
485.00	22534.68
485.18	22857.67
485.35	23035.55
485.53	22911.50
485.71	22970.02
485.89	23667.50
486.07	23522.38
486.25	23187.69
486.43	23496.64
486.61	24229.23
486.78	23995.17
486.96	24051.34
487.14	24690.31
487.32	24767.55
487.50	24929.05
487.68	24842.45
487.85	25333.96
488.03	25766.96
488.21	25993.99
488.39	25694.40
488.57	26181.23
488.75	26169.53
488.92	26008.03
489.10	26595.51
489.28	26431.67
489.46	27330.44
489.64	27122.13
489.81	27786.84
489.99	27819.61
490.17	27838.33
490.35	28355.59
490.53	28311.12
490.70	28610.71
490.88	28266.65
491.06	28762.84
491.24	29013.28
491.41	28989.88
491.59	29289.46
491.77	29202.86
491.95	29729.48
492.13	30064.18
492.30	29979.92
492.48	29935.45
492.66	29933.11
492.84	30579.10
493.01	30632.93
493.19	30546.33
493.37	31056.57
493.54	31435.74
493.72	31798.52
493.90	31505.95
494.08	32133.21
494.25	31967.04
494.43	32105.13
494.61	32091.09
494.79	32432.80
494.96	32762.82
495.14	32851.76
495.32	33249.65
495.49	33324.55
495.67	33333.91
495.85	33743.50
496.02	33855.85
496.20	33986.92
496.38	34176.50
496.55	34164.80
496.73	35005.05
496.91	34698.44
497.09	35152.51
497.26	35140.80
497.44	34838.87
497.62	35248.47
497.79	35737.64
497.97	35477.84
498.14	36067.66
498.32	36371.92
498.50	36596.62
498.67	36683.22
498.85	36355.54
499.03	36847.05
499.20	36889.18
499.38	37191.11
499.56	36964.08
499.73	37055.36
499.91	37663.90
500.08	38129.67
500.26	37462.61
500.44	37825.40
500.61	38043.07
500.79	37986.89
500.97	38562.67
501.14	38824.81
501.32	38602.46
501.49	38815.44
501.67	38422.23
501.84	39185.25
502.02	39058.86
502.20	38939.49
502.37	39363.13
502.55	39140.78
502.72	39901.45
502.90	39473.13
503.07	39552.71
503.25	39505.90
503.43	40182.32
503.60	40360.20
503.78	40123.80
503.95	40732.34
504.13	40694.89
504.30	40662.13
504.48	40486.59
504.65	41029.59
504.83	41167.68
505.01	41748.14
505.18	41610.04
505.36	41464.93
505.53	41528.13
505.71	42005.59
505.88	42202.20
506.06	41738.77
506.23	41954.10
506.41	42052.41
506.58	41979.85
506.76	42333.27
506.93	42705.41
507.11	43096.28
507.28	42609.45
507.46	42714.78
507.63	43164.16
507.81	43461.41
507.98	43239.06
508.16	43152.46
508.33	43349.06
508.50	43711.84
508.68	43571.41
508.85	44074.63
509.03	43817.17
509.20	44126.12
509.38	44486.56
509.55	44641.04
509.73	44535.71
509.90	45158.30
510.08	44608.27
510.25	44671.46
510.42	44486.56
510.60	45429.80
510.77	45268.30
510.95	45153.62
511.12	45102.12
511.30	45277.66
511.47	45277.66
511.64	45603.00
511.82	45567.89
511.99	46019.61
512.17	46190.47
512.34	46096.85
512.51	46216.22
512.69	46457.29
512.86	46581.34
513.04	46754.54
513.21	46803.69
513.38	47131.37
513.56	47143.07
513.73	46981.57
513.90	46897.31
514.08	47012.00
514.25	47187.54
514.43	47332.65
514.60	47922.47
514.77	47878.00
514.95	47819.49
515.12	47889.70
515.29	47161.79
515.47	48002.05
515.64	47878.00
515.81	48074.60
515.99	48406.96
516.16	48559.09
516.33	48463.13
516.51	48545.05
516.68	48825.92
516.85	48376.53
517.03	48917.20
517.20	48903.15
517.37	48830.60
517.54	48865.70
517.72	48942.94
517.89	49233.17
518.06	49155.93
518.24	49598.29
518.41	49188.70
518.58	49319.77
518.75	49574.89
518.93	49710.64
519.10	49888.52
519.27	50000.86
519.45	50225.56
519.62	49965.76
519.79	50071.08
519.96	50131.93
520.14	50267.69
520.31	50319.18
520.48	50593.02
520.65	50782.60
520.83	50691.32
521.00	50663.24
521.17	50625.79
521.34	50911.33
521.52	50798.99
521.69	50696.00
521.86	50962.82
522.03	51423.91
522.20	51554.98
522.38	51447.32
522.55	51613.49
522.72	51505.83
522.89	51253.05
523.07	51889.68
523.24	51620.52
523.41	51882.66
523.58	51714.14
523.75	52025.43
523.92	52011.38
524.10	52172.88
524.27	52046.49
524.44	52334.38
524.61	52397.57
524.78	52128.41
524.96	52456.09
525.13	52481.83
525.30	52512.26
525.47	52547.37
525.64	52514.60
525.81	52734.61
525.98	53090.37
526.16	52732.27
526.33	52692.48
526.50	53167.61
526.67	53001.43
526.84	53083.35
527.01	52968.66
527.18	52940.58
527.36	52844.62
527.53	53139.52
527.70	53616.99
527.87	53542.10
528.04	53551.46
528.21	53471.88
528.38	53392.30
528.55	53670.82
528.72	53544.44
528.89	53712.95
529.07	53553.80
529.24	53382.94
529.41	53499.97
529.58	53759.76
529.75	53865.09
529.92	53954.03
530.09	53841.68
530.26	54014.88
530.43	53925.94
530.60	53930.62
530.77	53780.83
530.94	54012.54
531.11	54124.89
531.28	54157.66
531.46	54410.43
531.63	54157.66
531.80	54298.09
531.97	54574.27
532.14	54873.86
532.31	54314.47
532.48	54901.95
532.65	54705.34
532.82	54705.34
532.99	54695.98
533.16	54904.29
533.33	54674.91
533.50	54930.03
533.67	55049.40
533.84	54887.90
534.01	54990.89
534.18	55054.08
534.35	55384.10
534.52	55327.92
534.69	55250.69
534.86	55227.28
535.03	55482.40
535.20	55206.22
535.37	55531.55
535.54	55781.99
535.71	54976.84
535.88	55559.64
536.05	55444.95
536.22	55468.36
536.38	55737.52
536.55	55592.40
536.72	55730.50
536.89	55580.70
537.06	55730.50
537.23	55657.94
537.40	55721.13
537.57	55636.87
537.74	55634.53
537.91	56076.90
538.08	56018.38
538.25	55770.28
538.42	56055.83
538.59	56273.50
538.75	56224.35
538.92	56158.81
539.09	56055.83
539.26	55931.78
539.43	56137.75
539.60	56409.25
539.77	56406.91
539.94	56463.08
540.11	56430.32
540.28	56542.66
540.44	56362.44
540.61	56427.98
540.78	56287.54
540.95	56355.42
541.12	56453.72
541.29	56324.99
541.46	56530.96
541.62	56818.84
541.79	56790.76
541.96	56374.14
542.13	56685.43
542.30	56652.67
542.47	56886.72
542.63	57048.22
542.80	57113.75
542.97	57036.51
543.14	57165.24
543.31	57050.56
543.48	57333.76
543.64	57532.71
543.81	57240.14
543.98	57162.90
544.15	57403.98
544.32	57607.61
544.48	57528.03
544.65	57411.00
544.82	57640.37
544.99	57532.71
545.16	57492.92
545.32	57343.12
545.49	57977.41
545.66	57722.29
545.83	57879.11
546.00	57757.40
546.16	57748.04
546.33	57609.95
546.50	57696.55
546.67	57848.68
546.83	57598.24
547.00	57855.70
547.17	57968.05
547.34	57893.15
547.50	57991.45
547.67	58206.78
547.84	58115.50
548.00	58169.33
548.17	58216.14
548.34	58248.91
548.51	58237.21
548.67	58253.59
548.84	58431.47
549.01	58122.52
549.18	58326.15
549.34	58309.77
549.51	58405.73
549.68	58347.21
549.84	58452.54
550.01	58604.67
550.18	58347.21
550.34	58525.10
550.51	58637.44
550.68	58501.69
550.84	58497.01
551.01	58621.06
551.18	58592.97
551.34	58646.80
551.51	58541.48
551.68	58614.04
551.84	58599.99
552.01	58717.02
552.18	58824.68
552.34	58733.40
552.51	58747.45
552.68	58808.30
552.84	58726.38
553.01	58876.18
553.18	58859.79
553.34	58962.78
553.51	58789.58
553.67	58869.15
553.84	59089.16
554.01	58827.02
554.17	58981.50
554.34	58953.41
554.51	59135.98
554.67	59222.58
554.84	59112.57
555.00	58993.20
555.17	59051.72
555.33	59203.85
555.50	59049.38
555.67	59185.13
555.83	59058.74
556.00	58927.67
556.16	59526.84
556.33	59302.15
556.50	59253.00
556.66	59545.57
556.83	59189.81
556.99	59395.77
557.16	59732.81
557.32	59540.89
557.49	59568.97
557.65	59564.29
557.82	59398.12
557.98	59561.95
558.15	59711.75
558.32	59536.21
558.48	59449.61
558.65	59524.50
558.81	59491.74
558.98	59566.63
559.14	59700.04
559.31	59779.62
559.47	59718.77
559.64	59810.05
559.80	59714.09
559.97	59826.43
560.13	59686.00
560.30	59714.09
560.46	59922.40
560.63	59962.18
560.79	59955.16
560.96	59976.23
561.12	60011.34
561.29	59723.45
561.45	59931.76
561.61	59941.12
561.78	59772.60
561.94	59751.54
562.11	59821.75
562.27	59800.69
562.44	60055.81
562.60	60156.45
562.77	60140.07
562.93	59760.90
563.10	59929.42
563.26	59943.46
563.42	60287.52
563.59	60158.79
563.75	60282.84
563.92	60041.76
564.08	60060.49
564.24	60308.58
564.41	60331.99
564.57	60011.34
564.74	60130.70
564.90	60149.43
565.07	60233.69
565.23	60404.55
565.39	60313.26
565.56	60388.16
565.72	60240.71
565.88	60137.72
566.05	60261.77
566.21	60231.35
566.38	60287.52
566.54	60420.93
566.70	60381.14
566.87	60633.92
567.03	60261.77
567.19	60542.64
567.36	60231.35
567.52	60360.08
567.68	60589.45
567.85	60554.34
568.01	60479.44
568.17	60250.07
568.34	60617.53
568.50	60449.02
568.66	60320.29
568.83	60547.32
568.99	60439.65
569.15	60465.40
569.32	60463.06
569.48	60563.70
569.64	60495.83
569.81	60413.91
569.97	60427.95
570.13	60647.96
570.30	60432.63
570.46	60664.35
570.62	60549.66
570.78	60584.77
570.95	60774.35
571.11	60622.22
571.27	60437.31
571.43	60711.16
571.60	60624.56
571.76	60608.17
571.92	60905.42
572.09	60523.91
572.25	60598.81
572.41	60654.98
572.57	60722.86
572.74	60779.03
572.90	60617.53
573.06	60626.90
573.22	60603.49
573.38	60556.68
573.55	60533.28
573.71	60839.89
573.87	60713.50
574.03	60645.62
574.20	60889.04
574.36	60561.36
574.52	60755.63
574.68	60793.07
574.84	60732.22
575.01	60832.86
575.17	60865.63
575.33	60893.72
575.49	60811.80
575.65	60851.59
575.82	60748.60
575.98	60970.96
576.14	60769.67
576.30	60882.02
576.46	60781.37
576.62	60945.21
576.79	60973.30
576.95	60486.46
577.11	60853.93
577.27	61008.40
577.43	60952.23
577.59	60949.89
577.75	60687.75
577.92	60769.67
578.08	60802.44
578.24	60654.98
578.40	60973.30
578.56	60987.34
578.72	60886.70
578.88	61003.72
579.04	60947.55
579.21	61130.11
579.37	60729.88
579.53	60996.70
579.69	60706.47
579.85	60954.57
580.01	60821.16
580.17	60893.72
580.33	61015.43
580.49	60860.95
580.65	61118.41
580.82	60842.23
580.98	60919.46
581.14	60886.70
581.30	60865.63
581.46	61038.83
581.62	61010.74
581.78	60783.71
581.94	61057.56
582.10	60989.68
582.26	60935.85
582.42	60896.06
582.58	61099.68
582.74	60842.23
582.90	61064.58
583.06	61013.08
583.22	61006.06
583.38	60970.96
583.54	61158.20
583.70	60933.51
583.86	61183.94
584.02	60975.64
584.18	61116.07
584.34	60982.66
584.50	61062.24
584.66	60807.12
584.82	60762.65
584.98	61197.99
585.14	61095.00
585.30	60912.44
585.46	61069.26
585.62	61202.67
585.78	61095.00
585.94	60973.30
586.10	61076.28
586.26	61003.72
586.42	61071.60
586.58	61169.90
586.74	61038.83
586.90	61095.00
587.06	61027.13
587.22	61298.63
587.38	61113.73
587.54	60992.02
587.70	61207.35
587.86	61265.86
588.02	61223.73
588.18	61202.67
588.34	61062.24
588.49	61064.58
