SpectraSuite Data File
++++++++++++++++++++++++++++++++++++
Date: Fri Oct 25 10:44:35 EDT 2013
User: price-jones
Dark Spectrum Present: No
Reference Spectrum Present: No
Number of Sampled Component Spectra: 1
Spectrometers: USB2+H05261
Integration Time (usec): 100000 (USB2+H05261)
Spectra Averaged: 1 (USB2+H05261)
Boxcar Smoothing: 0 (USB2+H05261)
Correct for Electrical Dark: No (USB2+H05261)
Strobe/Lamp Enabled: No (USB2+H05261)
Correct for Detector Non-linearity: No (USB2+H05261)
Correct for Stray Light: No (USB2+H05261)
Number of Pixels in Processed Spectrum: 2048
>>>>>Begin Processed Spectral Data<<<<<
365.73	159.16
365.92	159.16
366.12	159.16
366.32	67.88
366.52	16.38
366.72	74.90
366.91	0.00
367.11	0.00
367.31	0.00
367.51	0.00
367.70	37.45
367.90	44.47
368.10	63.19
368.30	49.15
368.49	58.51
368.69	32.77
368.89	70.22
369.09	58.51
369.28	39.79
369.48	98.30
369.68	142.77
369.87	72.56
370.07	142.77
370.27	128.73
370.47	184.90
370.66	358.10
370.86	301.93
371.06	489.17
371.25	510.24
371.45	423.64
371.65	451.72
371.84	388.53
372.04	437.68
372.24	465.77
372.44	421.30
372.63	519.60
372.83	510.24
373.03	442.36
373.22	477.47
373.42	472.79
373.62	496.19
373.81	519.60
374.01	592.16
374.21	521.94
374.40	538.32
374.60	601.52
374.79	566.41
374.99	566.41
375.19	547.69
375.38	580.45
375.58	503.22
375.78	617.90
375.97	568.75
376.17	676.41
376.37	627.26
376.56	545.34
376.76	547.69
376.95	503.22
377.15	603.86
377.35	631.94
377.54	589.82
377.74	568.75
377.93	699.82
378.13	648.33
378.33	575.77
378.52	669.39
378.72	631.94
378.91	606.20
379.11	582.79
379.31	650.67
379.50	636.63
379.70	702.16
379.89	610.88
380.09	681.10
380.28	610.88
380.48	678.76
380.68	554.71
380.87	699.82
381.07	695.14
381.26	688.12
381.46	624.92
381.65	657.69
381.85	697.48
382.04	669.39
382.24	667.05
382.43	634.29
382.63	603.86
382.83	713.86
383.02	734.93
383.22	711.52
383.41	683.44
383.61	718.54
383.80	695.14
384.00	723.23
384.19	779.40
384.39	798.12
384.58	723.23
384.78	739.61
384.97	816.85
385.17	763.01
385.36	730.25
385.56	692.80
385.75	791.10
385.95	734.93
386.14	772.38
386.34	809.83
386.53	781.74
386.72	763.01
386.92	758.33
387.11	802.80
387.31	807.48
387.50	880.04
387.70	788.76
387.89	809.83
388.09	875.36
388.28	837.91
388.48	823.87
388.67	891.74
388.86	954.94
389.06	851.96
389.25	905.79
389.45	851.96
389.64	922.17
389.84	910.47
390.03	875.36
390.22	952.60
390.42	858.98
390.61	882.38
390.81	896.43
391.00	819.19
391.19	1029.84
391.39	943.24
391.58	987.71
391.78	950.26
391.97	1020.47
392.16	985.37
392.36	957.28
392.55	990.05
392.75	908.13
392.94	1025.15
393.13	990.05
393.33	957.28
393.52	959.62
393.71	1067.28
393.91	945.58
394.10	992.39
394.29	1015.79
394.49	1088.35
394.68	1067.28
394.88	1074.31
395.07	1109.41
395.26	1071.97
395.46	1104.73
395.65	1039.20
395.84	1174.95
396.04	1181.97
396.23	1008.77
396.42	1086.01
396.62	1151.54
396.81	1210.06
397.00	1191.33
397.19	1217.08
397.39	1156.22
397.58	1231.12
397.77	1221.76
397.97	1387.94
398.16	1259.21
398.35	1231.12
398.55	1294.32
398.74	1336.45
398.93	1514.33
399.12	1343.47
399.32	1306.02
399.51	1273.25
399.70	1469.86
399.90	1366.87
400.09	1404.32
400.28	1397.30
400.47	1409.00
400.67	1526.03
400.86	1500.28
401.05	1465.18
401.24	1507.30
401.44	1514.33
401.63	1495.60
401.82	1467.52
402.01	1521.35
402.21	1514.33
402.40	1535.39
402.59	1551.78
402.78	1643.06
402.97	1516.67
403.17	1624.33
403.36	1643.06
403.55	1629.01
403.74	1717.95
403.93	1694.55
404.13	1827.96
404.32	1652.42
404.51	1612.63
404.70	1654.76
404.89	1680.50
405.09	1764.76
405.28	1771.79
405.47	1767.10
405.66	1795.19
405.85	1746.04
406.05	1750.72
406.24	1891.15
406.43	1785.83
406.62	1708.59
406.81	1935.62
407.00	1884.13
407.20	1839.66
407.39	1898.17
407.58	1914.56
407.77	1944.99
407.96	1921.58
408.15	2054.99
408.34	1998.82
408.54	1970.73
408.73	1900.52
408.92	1982.43
409.11	2188.40
409.30	2050.31
409.49	2085.42
409.68	2026.90
409.87	2113.50
410.07	2062.01
410.26	2097.12
410.45	2218.83
410.64	2181.38
410.83	2179.04
411.02	2237.55
411.21	2214.15
411.40	2303.09
411.59	2307.77
411.78	2415.43
411.98	2338.20
412.17	2310.11
412.36	2385.01
412.55	2436.50
412.74	2469.27
412.93	2511.39
413.12	2513.74
413.31	2581.61
413.50	2530.12
413.69	2609.70
413.88	2605.02
414.07	2612.04
414.26	2602.68
414.45	2693.96
414.64	2656.51
414.83	2686.94
415.02	2665.87
415.22	2757.15
415.41	2771.19
415.60	2766.51
415.79	2911.63
415.98	3030.99
416.17	3019.29
416.36	2967.80
416.55	2888.22
416.74	3033.33
416.93	2984.18
417.12	2881.20
417.31	2967.80
417.50	2930.35
417.69	3066.10
417.88	3073.12
418.07	3070.78
418.26	3087.17
418.45	3178.45
418.64	3173.77
418.83	3243.98
419.02	3164.40
419.21	3155.04
419.39	3330.58
419.58	3178.45
419.77	3033.33
419.96	3204.19
420.15	3332.92
420.34	3363.35
420.53	3330.58
420.72	3517.83
420.91	3496.76
421.10	3384.41
421.29	3510.80
421.48	3463.99
421.67	3487.40
421.86	3468.67
422.05	3485.06
422.24	3419.52
422.43	3452.29
422.61	3478.04
422.80	3492.08
422.99	3632.51
423.18	3599.74
423.37	3550.59
423.56	3576.34
423.75	3494.42
423.94	3550.59
424.13	3379.73
424.32	3459.31
424.50	3623.15
424.69	3735.50
424.88	3571.66
425.07	3555.27
425.26	3531.87
425.45	3555.27
425.64	3599.74
425.83	3691.02
426.01	3747.20
426.20	3749.54
426.39	3735.50
426.58	3714.43
426.77	3499.10
426.96	3716.77
427.15	3688.68
427.33	3702.73
427.52	3723.79
427.71	3859.54
427.90	3660.60
428.09	3817.41
428.28	3758.90
428.46	3896.99
428.65	3728.47
428.84	3925.08
429.03	3875.93
429.22	3810.39
429.40	3761.24
429.59	3782.31
429.78	3555.27
429.97	3688.68
430.16	3768.26
430.34	3859.54
430.53	3880.61
430.72	3864.22
430.91	3915.72
431.10	3995.29
431.28	4173.18
431.47	4280.84
431.66	4166.15
431.85	4053.81
432.03	4292.54
432.22	4325.31
432.41	4248.07
432.60	4187.22
432.79	4271.48
432.97	4278.50
433.16	4208.28
433.35	4208.28
433.54	4297.22
433.72	4344.03
433.91	4376.80
434.10	4304.25
434.28	4280.84
434.47	4386.16
434.66	4461.06
434.85	4461.06
435.03	4657.67
435.22	4428.29
435.41	4690.43
435.59	4566.39
435.78	4521.92
435.97	4648.30
436.16	4636.60
436.34	4613.20
436.53	4606.17
436.72	4685.75
436.90	4531.28
437.09	4762.99
437.28	4629.58
437.46	4713.84
437.65	4739.58
437.84	4830.87
438.02	4685.75
438.21	4861.29
438.40	4681.07
438.58	4842.57
438.77	5057.90
438.96	4868.31
439.14	5064.92
439.33	5263.86
439.52	5149.18
439.70	5083.64
439.89	5179.61
440.08	5238.12
440.26	5109.39
440.45	5273.23
440.63	5226.42
440.82	5434.72
441.01	5308.34
441.19	5425.36
441.38	5497.92
441.57	5526.00
441.75	5404.30
441.94	5764.74
442.12	5572.82
442.31	5753.04
442.50	5671.12
442.68	5706.23
442.87	5811.55
443.05	5605.58
443.24	5755.38
443.43	5884.11
443.61	5846.66
443.80	6017.52
443.98	5734.31
444.17	5659.42
444.35	5874.74
444.54	6104.12
444.73	5841.98
444.91	5809.21
445.10	5919.21
445.28	5959.00
445.47	5870.06
445.65	5804.53
445.84	5872.40
446.02	5837.30
446.21	6022.20
446.39	5874.74
446.58	5909.85
446.77	6010.50
446.95	6076.03
447.14	6157.95
447.32	6047.94
447.51	6019.86
447.69	6221.14
447.88	6155.61
448.06	6155.61
448.25	6216.46
448.43	6228.17
448.62	6003.47
448.80	6080.71
448.99	6162.63
449.17	6436.47
449.36	5994.11
449.54	6223.48
449.73	6303.06
449.91	6429.45
450.10	6506.69
450.28	6445.84
450.46	6415.41
450.65	6548.82
450.83	6452.86
451.02	6466.90
451.20	6707.98
451.39	6600.31
451.57	6471.58
451.76	6429.45
451.94	6441.15
452.13	6551.16
452.31	6420.09
452.49	6312.42
452.68	6544.14
452.86	6803.94
453.05	6771.17
453.23	6909.26
453.42	6518.39
453.60	6502.01
453.78	6785.21
453.97	6600.31
454.15	6806.28
454.34	6635.42
454.52	6757.13
454.70	6918.62
454.89	6970.12
455.07	6813.30
455.26	6672.87
455.44	7105.87
455.62	6747.76
455.81	7136.29
455.99	7105.87
456.17	7082.46
456.36	7108.21
456.54	7255.66
456.73	7171.40
456.91	7499.08
457.09	7295.45
457.28	7545.89
457.46	7197.15
457.64	7356.30
457.83	7353.96
458.01	7297.79
458.19	7641.85
458.38	7379.71
458.56	7716.75
458.74	7602.06
458.93	7569.29
459.11	7461.63
459.29	7503.76
459.48	7566.95
459.66	7686.32
459.84	7861.86
460.03	7632.49
460.21	7786.96
460.39	7672.28
460.57	7829.09
460.76	7857.18
460.94	7964.84
461.12	7770.58
461.31	7875.90
461.49	7805.69
461.67	7880.58
461.85	8093.57
462.04	7936.76
462.22	8215.28
462.40	7946.12
462.59	8025.70
462.77	8056.12
462.95	8234.00
463.13	8191.88
463.32	8070.17
463.50	8229.32
463.68	8177.83
463.86	8222.30
464.05	8088.89
464.23	8100.59
464.41	8107.62
464.59	8208.26
464.78	8428.27
464.96	8287.84
465.14	8245.71
465.32	8409.54
465.50	8339.33
465.69	8472.74
465.87	8465.72
466.05	8465.72
466.23	8367.42
466.41	8402.52
466.60	8547.64
466.78	8308.90
466.96	8603.81
467.14	8648.28
467.32	8512.53
467.51	8767.65
467.69	8468.06
467.87	8594.45
468.05	8809.78
468.23	8650.62
468.41	8723.18
468.60	8718.50
468.78	8713.81
468.96	8798.07
469.14	8835.52
469.32	9041.49
469.50	8744.24
469.69	9013.40
469.87	8945.53
470.05	8889.35
470.23	8952.55
470.41	9121.07
470.59	9114.05
470.77	8868.29
470.95	9240.44
471.14	9186.60
471.32	9109.36
471.50	9441.72
471.68	9254.48
471.86	9394.91
472.04	9472.15
472.22	9509.60
472.40	9469.81
472.58	9418.32
472.77	9408.95
472.95	9495.55
473.13	9982.38
473.31	9607.90
473.49	9591.52
473.67	9626.62
473.85	9715.56
474.03	9980.04
474.21	9991.75
474.39	10143.88
474.57	10078.35
474.75	10235.16
474.93	10127.50
475.12	10068.98
475.30	10342.83
475.48	10267.93
475.66	10277.29
475.84	10265.59
476.02	10534.75
476.20	10619.01
476.38	10600.29
476.56	10965.41
476.74	10862.43
476.92	10829.66
477.10	10967.75
477.28	10981.79
477.46	11126.91
477.64	11089.46
477.82	11199.46
478.00	11613.74
478.18	11414.79
478.36	11339.90
478.54	11805.66
478.72	11700.34
478.90	11962.48
479.08	11948.43
479.26	12016.31
479.44	12044.40
479.62	12159.08
479.80	12297.17
479.98	12306.54
480.16	12603.78
480.34	12608.47
480.52	12690.38
480.70	12704.43
480.88	12503.14
481.06	12601.44
481.24	12767.62
481.41	13069.55
481.59	13371.48
481.77	13177.22
481.95	13186.58
482.13	13209.98
482.31	13509.57
482.49	13767.03
482.67	13701.50
482.85	13628.94
483.03	13989.38
483.21	13973.00
483.39	14066.62
483.57	14216.41
483.74	14572.18
483.92	14457.49
484.10	14284.29
484.28	14633.03
484.46	14951.34
484.64	15264.97
484.82	14595.58
485.00	14960.70
485.18	15112.84
485.35	15154.97
485.53	15101.14
485.71	15220.50
485.89	15559.88
486.07	15272.00
486.25	15648.82
486.43	15484.98
486.61	15829.04
486.78	16187.14
486.96	16093.52
487.14	16306.51
487.32	16287.79
487.50	16570.99
487.68	16905.69
487.85	16936.12
488.03	17109.32
488.21	17249.75
488.39	17193.58
488.57	17392.52
488.75	17554.02
488.92	17628.92
489.10	17647.64
489.28	17935.53
489.46	18230.43
489.64	18232.77
489.81	18523.00
489.99	18108.72
490.17	18614.28
490.35	18319.37
490.53	18876.42
490.70	18838.97
490.88	18916.21
491.06	19253.25
491.24	19204.10
491.41	19070.68
491.59	19480.28
491.77	19449.85
491.95	19889.87
492.13	19861.79
492.30	20198.82
492.48	20123.93
492.66	20189.46
492.84	20252.66
493.01	20484.37
493.19	20088.82
493.37	20421.17
493.54	20641.18
493.72	20802.68
493.90	20512.46
494.08	21018.01
494.25	21376.11
494.43	21502.50
494.61	21626.55
494.79	21823.16
494.96	21715.49
495.14	21975.29
495.32	22153.17
495.49	22094.66
495.67	22204.66
495.85	22307.65
496.02	22644.68
496.20	22469.14
496.38	22272.54
496.55	22869.37
496.73	23124.49
496.91	22583.83
497.09	23129.17
497.26	23470.89
497.44	23103.43
497.62	23524.72
497.79	23564.51
497.97	23356.21
498.14	23215.77
498.32	23758.78
498.50	23648.77
498.67	24189.44
498.85	24318.17
499.03	24372.00
499.20	24219.86
499.38	24308.80
499.56	24409.45
499.73	24720.74
499.91	24741.80
500.08	24835.42
500.26	24360.30
500.44	25046.07
500.61	24748.82
500.79	24957.13
500.97	25025.01
501.14	25390.13
501.32	25350.34
501.49	25212.25
501.67	25326.94
501.84	25376.09
502.02	25607.80
502.20	25638.23
502.37	25876.96
502.55	25937.82
502.72	25972.92
502.90	26239.75
503.07	26476.14
503.25	26293.58
503.43	26321.66
503.60	26267.83
503.78	26567.42
503.95	26408.26
504.13	26419.97
504.30	26635.30
504.48	26848.29
504.65	27529.38
504.83	27470.87
505.01	26862.33
505.18	27173.62
505.36	27433.42
505.53	27517.68
505.71	27646.41
505.88	27789.18
506.06	27227.45
506.23	27632.36
506.41	27182.98
506.58	27723.65
506.76	27721.30
506.93	28053.66
507.11	27927.27
507.28	28048.98
507.46	28133.24
507.63	28229.20
507.81	28278.35
507.98	28098.13
508.16	28357.93
508.33	28521.77
508.50	28748.80
508.68	28807.31
508.85	29263.72
509.03	29053.07
509.20	28793.27
509.38	29230.95
509.55	29097.54
509.73	29247.33
509.90	29191.16
510.08	29282.44
510.25	29212.23
510.42	29682.67
510.60	29497.77
510.77	29848.85
510.95	29759.91
511.12	29757.57
511.30	29937.79
511.47	30387.18
511.64	30167.16
511.82	30291.21
511.99	30223.34
512.17	30206.95
512.34	30171.85
512.51	30298.23
512.69	30883.37
512.86	30176.53
513.04	31213.38
513.21	30834.22
513.38	30719.53
513.56	30953.58
513.73	31040.18
513.90	31381.90
514.08	30815.49
514.25	31157.21
514.43	31304.67
514.60	31061.25
514.77	31386.58
514.95	31557.44
515.12	31536.38
515.29	31552.76
515.47	31971.72
515.64	31737.66
515.81	31665.11
515.99	31538.72
516.16	31885.12
516.33	31775.11
516.51	31737.66
516.68	31433.39
516.85	31622.98
517.03	31945.97
517.20	32194.07
517.37	32055.98
517.54	32311.10
517.72	32184.71
517.89	32163.64
518.06	32257.26
518.24	32048.96
518.41	32643.45
518.58	32381.31
518.75	32568.55
518.93	32931.34
519.10	33057.73
519.27	32868.14
519.45	32959.42
519.62	33406.47
519.79	32851.76
519.96	32950.06
520.14	33385.40
520.31	33251.99
520.48	33359.66
520.65	33305.82
520.83	33928.41
521.00	33848.83
521.17	33720.10
521.34	33876.91
521.52	33970.54
521.69	33968.19
521.86	34178.84
522.03	34185.86
522.20	34075.86
522.38	34120.33
522.55	34417.58
522.72	34232.68
522.89	34391.83
523.07	34586.10
523.24	34080.54
523.41	34848.24
523.58	34705.46
523.75	35161.87
523.92	34763.98
524.10	35182.93
524.27	35019.10
524.44	35077.61
524.61	35007.39
524.78	35260.17
524.96	35573.80
525.13	35606.57
525.30	35669.76
525.47	36013.82
525.64	35648.70
525.81	35503.59
525.98	35613.59
526.16	35412.31
526.33	35496.56
526.50	35578.48
526.67	35377.20
526.84	35667.42
527.01	35276.55
527.18	35412.31
527.36	35873.39
527.53	36018.50
527.70	36435.12
527.87	36252.56
528.04	36343.84
528.21	36102.76
528.38	36568.53
528.55	36320.43
528.72	36603.64
528.89	36903.23
529.07	36514.70
529.24	36655.13
529.41	36903.23
529.58	36624.70
529.75	36865.78
529.92	36636.41
530.09	36877.48
530.26	37174.73
530.43	37069.40
530.60	36835.35
530.77	37008.55
530.94	37483.68
531.11	37127.92
531.28	37237.92
531.46	37518.79
531.63	37469.64
531.80	37574.96
531.97	37783.27
532.14	37371.33
532.31	36935.99
532.48	37654.54
532.65	37741.14
532.82	37750.50
532.99	37729.44
533.16	37549.21
533.33	37811.35
533.50	37605.39
533.67	37635.81
533.84	37574.96
534.01	37930.72
534.18	37963.49
534.35	38525.22
534.52	38040.73
534.69	38272.44
534.86	38162.43
535.03	38232.65
535.20	38565.01
535.37	38930.13
535.54	39119.71
535.71	38686.71
535.88	38384.79
536.05	38483.09
536.22	38864.60
536.38	38553.30
536.55	38820.13
536.72	38459.68
536.89	38295.85
537.06	38569.69
537.23	38988.64
537.40	38745.23
537.57	38721.82
537.74	39023.75
537.91	39241.42
538.08	39325.68
538.25	38937.15
538.42	38754.59
538.59	39533.99
538.75	38883.32
538.92	39330.36
539.09	39166.52
539.26	39487.18
539.43	39297.59
539.60	39519.95
539.77	39566.76
539.94	39166.52
540.11	39402.92
540.28	39323.34
540.44	39519.95
540.61	39587.82
540.78	39821.87
540.95	39278.87
541.12	39592.50
541.29	39611.23
541.46	39342.06
541.62	39952.94
541.79	39828.90
541.96	39707.19
542.13	40032.52
542.30	39871.03
542.47	39875.71
542.63	40247.85
542.80	40282.96
542.97	40275.94
543.14	40388.28
543.31	40847.03
543.48	40596.59
543.64	41022.57
543.81	40718.30
543.98	40914.90
544.15	40474.88
544.32	40783.83
544.48	41095.13
544.65	40739.36
544.82	40875.12
544.99	40835.33
545.16	41024.91
545.32	40641.06
545.49	41223.86
545.66	41235.56
545.83	41200.45
546.00	41509.40
546.16	41090.44
546.33	41207.47
546.50	41031.93
546.67	41045.97
546.83	41036.61
547.00	41139.60
547.17	41195.77
547.34	41223.86
547.50	41127.89
547.67	41734.09
547.84	41586.64
548.00	41867.50
548.17	42192.84
548.34	41893.25
548.51	42005.59
548.67	41478.97
548.84	41914.31
549.01	41619.41
549.18	41350.24
549.34	41600.68
549.51	41949.42
549.68	41673.24
549.84	41652.17
550.01	42059.43
550.18	42319.23
550.34	41902.61
550.51	42431.57
550.68	42225.60
550.84	42061.77
551.01	42241.99
551.18	42319.23
551.34	42223.26
551.51	42487.74
551.68	42433.91
551.84	42103.90
552.01	42384.76
552.18	42408.17
552.34	42220.92
552.51	42583.71
552.68	42136.66
552.84	42579.03
553.01	42925.42
553.18	42574.34
553.34	42616.47
553.51	42555.62
553.67	42281.78
553.84	42801.38
554.01	42555.62
554.17	43089.26
554.34	42845.85
554.51	42801.38
554.67	42941.81
554.84	42878.61
555.00	42946.49
555.17	42700.73
555.33	42873.93
555.50	42759.25
555.67	42686.69
555.83	42777.97
556.00	43138.41
556.16	43519.92
556.33	43217.99
556.50	42862.23
556.66	42782.65
556.83	42850.53
556.99	43393.53
557.16	43812.49
557.32	43182.88
557.49	43555.03
557.65	42787.33
557.82	43178.20
557.98	43246.08
558.15	43086.92
558.32	43353.74
558.48	43260.12
558.65	43129.05
558.81	42906.70
558.98	43288.21
559.14	43037.77
559.31	43386.51
559.47	43133.73
559.64	43484.81
559.80	43522.26
559.97	43267.14
560.13	43384.17
560.30	43166.50
560.46	43452.05
560.63	43175.86
560.79	43445.02
560.96	43807.81
561.12	43693.12
561.29	43751.63
561.45	43470.77
561.61	43461.41
561.78	43885.04
561.94	43615.88
562.11	43559.71
562.27	43997.39
562.44	43470.77
562.60	43871.00
562.77	43966.96
562.93	43737.59
563.10	43800.79
563.26	43529.28
563.42	43964.62
563.59	43578.43
563.75	43789.08
563.92	43966.96
564.08	43920.15
564.24	44135.48
564.41	43952.92
564.57	43629.93
564.74	43915.47
564.90	44018.46
565.07	44032.50
565.23	44053.56
565.39	43707.16
565.56	44191.65
565.72	43765.68
565.88	43641.63
566.05	43632.27
566.21	43938.88
566.38	43660.35
566.54	43927.17
566.70	43934.20
566.87	44505.29
567.03	44566.14
567.19	44034.84
567.36	44500.61
567.52	44308.68
567.68	44531.03
567.85	43959.94
568.01	44055.90
568.17	43861.64
568.34	44091.01
568.50	44203.36
568.66	44273.57
568.83	44336.77
568.99	43969.30
569.15	44219.74
569.32	44121.44
569.48	43990.37
569.64	44442.09
569.81	44172.93
569.97	44137.82
570.13	44041.86
570.30	43971.64
570.46	44023.14
570.62	44044.20
570.78	44158.89
570.95	44275.91
571.11	44432.73
571.27	43950.58
571.43	44350.81
571.60	44421.03
571.76	44196.34
571.92	44416.35
572.09	43885.04
572.25	44259.53
572.41	44170.59
572.57	44322.72
572.74	44493.58
572.90	44474.86
573.06	44144.84
573.22	44282.94
573.38	44596.57
573.55	44306.34
573.71	44240.81
573.87	44175.27
574.03	44034.84
574.20	44112.08
574.36	44364.85
574.52	44346.13
574.68	44456.14
574.84	44226.76
575.01	44561.46
575.17	44205.70
575.33	44357.83
575.49	44217.40
575.65	44023.14
575.82	44594.23
575.98	44142.50
576.14	44643.38
576.30	44477.20
576.46	44739.34
576.62	44634.02
576.79	44458.48
576.95	44453.79
577.11	43999.73
577.27	44531.03
577.43	44491.24
577.59	44683.17
577.75	44545.08
577.92	44201.02
578.08	43938.88
578.24	43999.73
578.40	45034.25
578.56	44575.50
578.72	44418.69
578.88	44891.48
579.04	45198.09
579.21	44280.60
579.37	44458.48
579.53	44767.43
579.69	44240.81
579.85	44694.87
580.01	44341.45
580.17	44722.96
580.33	44545.08
580.49	44945.31
580.65	44641.04
580.82	44608.27
580.98	44182.29
581.14	44039.52
581.30	45017.86
581.46	44734.66
581.62	44701.89
581.78	44865.73
581.94	44641.04
582.10	44336.77
582.26	44673.81
582.42	44626.99
582.58	44715.93
582.74	44390.60
582.90	44409.32
583.06	44964.03
583.22	44739.34
583.38	44790.83
583.54	44596.57
583.70	44680.83
583.86	44788.49
584.02	44603.59
584.18	44334.43
584.34	44542.74
584.50	44566.14
584.66	44098.03
584.82	44416.35
584.98	44945.31
585.14	44610.61
585.30	44322.72
585.46	44542.74
585.62	44083.99
585.78	44638.70
585.94	44456.14
586.10	44685.51
586.26	44666.78
586.42	44945.31
586.58	44582.52
586.74	44624.65
586.90	44699.55
587.06	44559.12
587.22	44577.84
587.38	44271.23
587.54	44488.90
587.70	44706.57
587.86	44755.72
588.02	44746.36
588.18	45022.54
588.34	43978.67
588.49	44458.48
588.65	43796.10
588.81	44446.77
588.97	44411.67
589.13	44460.82
589.29	44882.11
589.45	44720.62
589.61	44617.63
589.77	44912.54
589.93	44884.45
590.08	45130.21
590.24	44577.84
