SpectraSuite Data File
++++++++++++++++++++++++++++++++++++
Date: Fri Oct 25 10:43:37 EDT 2013
User: price-jones
Dark Spectrum Present: No
Reference Spectrum Present: No
Number of Sampled Component Spectra: 1
Spectrometers: USB2+H05261
Integration Time (usec): 100000 (USB2+H05261)
Spectra Averaged: 1 (USB2+H05261)
Boxcar Smoothing: 0 (USB2+H05261)
Correct for Electrical Dark: No (USB2+H05261)
Strobe/Lamp Enabled: No (USB2+H05261)
Correct for Detector Non-linearity: No (USB2+H05261)
Correct for Stray Light: No (USB2+H05261)
Number of Pixels in Processed Spectrum: 2048
>>>>>Begin Processed Spectral Data<<<<<
365.73	142.77
365.92	142.77
366.12	142.77
366.32	88.94
366.52	16.38
366.72	25.75
366.91	30.43
367.11	44.47
367.31	53.83
367.51	4.68
367.70	51.49
367.90	30.43
368.10	23.41
368.30	9.36
368.49	0.00
368.69	0.00
368.89	51.49
369.09	60.85
369.28	14.04
369.48	65.54
369.68	79.58
369.87	100.64
370.07	131.07
370.27	168.52
370.47	152.13
370.66	454.06
370.86	390.87
371.06	425.98
371.25	447.04
371.45	486.83
371.65	519.60
371.84	463.43
372.04	489.17
372.24	528.96
372.44	521.94
372.63	421.30
372.83	435.34
373.03	519.60
373.22	484.49
373.42	428.32
373.62	468.11
373.81	571.09
374.01	559.39
374.21	573.43
374.40	512.58
374.60	601.52
374.79	636.63
374.99	582.79
375.19	617.90
375.38	622.58
375.58	615.56
375.78	610.88
375.97	545.34
376.17	636.63
376.37	617.90
376.56	610.88
376.76	671.73
376.95	594.50
377.15	613.22
377.35	554.71
377.54	648.33
377.74	758.33
377.93	678.76
378.13	660.03
378.33	730.25
378.52	662.37
378.72	650.67
378.91	624.92
379.11	653.01
379.31	772.38
379.50	606.20
379.70	667.05
379.89	788.76
380.09	690.46
380.28	716.20
380.48	692.80
380.68	706.84
380.87	751.31
381.07	671.73
381.26	741.95
381.46	683.44
381.65	699.82
381.85	732.59
382.04	688.12
382.24	674.07
382.43	683.44
382.63	718.54
382.83	657.69
383.02	697.48
383.22	760.67
383.41	819.19
383.61	774.72
383.80	786.42
384.00	837.91
384.19	802.80
384.39	770.04
384.58	795.78
384.78	870.68
384.97	788.76
385.17	800.46
385.36	849.61
385.56	828.55
385.75	805.14
385.95	875.36
386.14	873.02
386.34	844.93
386.53	936.21
386.72	847.27
386.92	936.21
387.11	891.74
387.31	917.49
387.50	917.49
387.70	938.55
387.89	891.74
388.09	835.57
388.28	896.43
388.48	851.96
388.67	957.28
388.86	919.83
389.06	926.85
389.25	1036.86
389.45	1083.67
389.64	999.41
389.84	1008.77
390.03	1050.90
390.22	1029.84
390.42	1043.88
390.61	1032.18
390.81	1128.14
391.00	1142.18
391.19	1057.92
391.39	1046.22
391.58	1139.84
391.78	1114.10
391.97	1196.01
392.16	980.68
392.36	1053.24
392.55	1013.45
392.75	1100.05
392.94	1060.26
393.13	1081.33
393.33	947.92
393.52	1020.47
393.71	1121.12
393.91	1130.48
394.10	1142.18
394.29	1184.31
394.49	1198.35
394.68	1174.95
394.88	1303.68
395.07	1306.02
395.26	1303.68
395.46	1259.21
395.65	1277.93
395.84	1203.04
396.04	1238.14
396.23	1139.84
396.42	1179.63
396.62	1170.27
396.81	1191.33
397.00	1174.95
397.19	1313.04
397.39	1313.04
397.58	1385.60
397.77	1362.19
397.97	1383.26
398.16	1500.28
398.35	1441.77
398.55	1535.39
398.74	1416.02
398.93	1453.47
399.12	1610.29
399.32	1385.60
399.51	1568.16
399.70	1633.69
399.90	1549.43
400.09	1645.40
400.28	1687.53
400.47	1600.93
400.67	1654.76
400.86	1640.72
401.05	1633.69
401.24	1748.38
401.44	1736.68
401.63	1732.00
401.82	1706.25
402.01	1706.25
402.21	1799.87
402.40	1842.00
402.59	1736.68
402.78	1877.11
402.97	1741.36
403.17	1750.72
403.36	1781.15
403.55	1886.47
403.74	1947.33
403.93	1900.52
404.13	1902.86
404.32	1837.32
404.51	1856.04
404.70	1935.62
404.89	1872.43
405.09	2076.06
405.28	1900.52
405.47	1954.35
405.66	1996.48
405.85	1930.94
406.05	2005.84
406.24	2054.99
406.43	2029.24
406.62	2108.82
406.81	2167.34
407.00	2129.89
407.20	2113.50
407.39	2057.33
407.58	2228.19
407.77	2246.91
407.96	2225.85
408.15	2267.98
408.34	2293.72
408.54	2305.43
408.73	2270.32
408.92	2307.77
409.11	2345.22
409.30	2293.72
409.49	2258.62
409.68	2429.48
409.87	2399.05
410.07	2436.50
410.26	2527.78
410.45	2487.99
410.64	2466.92
410.83	2469.27
411.02	2532.46
411.21	2602.68
411.40	2527.78
411.59	2656.51
411.78	2738.43
411.98	2684.59
412.17	2782.90
412.36	2726.72
412.55	2810.98
412.74	2675.23
412.93	2768.85
413.12	2794.60
413.31	2874.18
413.50	2918.65
413.69	2906.95
413.88	2920.99
414.07	2967.80
414.26	2792.26
414.45	2892.90
414.64	2972.48
414.83	3038.02
415.02	3047.38
415.22	3129.30
415.41	3080.14
415.60	3290.79
415.79	3206.53
415.98	3215.90
416.17	3162.06
416.36	3283.77
416.55	3117.59
416.74	3276.75
416.93	3370.37
417.12	3393.78
417.31	3379.73
417.50	3356.33
417.69	3550.59
417.88	3571.66
418.07	3466.33
418.26	3634.85
418.45	3597.40
418.64	3595.06
418.83	3646.55
419.02	3548.25
419.21	3623.15
419.39	3695.71
419.58	3597.40
419.77	3503.78
419.96	3744.86
420.15	3672.30
420.34	3709.75
420.53	3880.61
420.72	3857.20
420.91	3833.80
421.10	3864.22
421.29	3936.78
421.48	3789.33
421.67	3955.51
421.86	3882.95
422.05	3829.12
422.24	3810.39
422.43	3901.67
422.61	3885.29
422.80	3985.93
422.99	3943.80
423.18	4011.68
423.37	4081.89
423.56	3943.80
423.75	3943.80
423.94	3943.80
424.13	3808.05
424.32	3964.87
424.50	3911.04
424.69	4217.65
424.88	3957.85
425.07	3990.61
425.26	3920.40
425.45	4030.40
425.64	4156.79
425.83	3957.85
426.01	4016.36
426.20	4088.92
426.39	4063.17
426.58	3969.55
426.77	4095.94
426.96	4112.32
427.15	3939.12
427.33	4067.85
427.52	4231.69
427.71	4105.30
427.90	4156.79
428.09	4231.69
428.28	4138.07
428.46	4189.56
428.65	4126.36
428.84	4175.52
429.03	4285.52
429.22	4077.21
429.40	4231.69
429.59	4187.22
429.78	4121.68
429.97	3971.89
430.16	4053.81
430.34	4095.94
430.53	4098.28
430.72	4194.24
430.91	4248.07
431.10	4315.95
431.28	4615.54
431.47	4603.83
431.66	4793.42
431.85	4690.43
432.03	4582.77
432.22	4891.72
432.41	4629.58
432.60	4835.55
432.79	4741.93
432.97	4912.78
433.16	4851.93
433.35	4725.54
433.54	4755.97
433.72	4812.14
433.91	4734.90
434.10	4784.06
434.28	4959.60
434.47	4861.29
434.66	4999.38
434.85	5046.20
435.03	5088.32
435.22	5048.54
435.41	5111.73
435.59	5135.14
435.78	5027.47
435.97	5186.63
436.16	5268.55
436.34	5242.80
436.53	5228.76
436.72	5322.38
436.90	5104.71
437.09	5387.91
437.28	5177.26
437.46	5273.23
437.65	5277.91
437.84	5313.02
438.02	5259.18
438.21	5277.91
438.40	5135.14
438.58	5317.70
438.77	5495.58
438.96	5558.77
439.14	5626.65
439.33	5860.70
439.52	5664.10
439.70	5636.01
439.89	5825.59
440.08	5731.97
440.26	5734.31
440.45	5755.38
440.63	5968.37
440.82	5994.11
441.01	6087.73
441.19	5991.77
441.38	6132.20
441.57	6054.97
441.75	6171.99
441.94	6300.72
442.12	6356.90
442.31	6377.96
442.50	6450.52
442.68	6408.39
442.87	6548.82
443.05	6317.11
443.24	6635.42
443.43	6593.29
443.61	6497.33
443.80	6633.08
443.98	6663.51
444.17	6171.99
444.35	6504.35
444.54	6586.27
444.73	6490.31
444.91	6658.82
445.10	6581.59
445.28	6544.14
445.47	6506.69
445.65	6373.28
445.84	6523.07
446.02	6792.23
446.21	6555.84
446.39	6586.27
446.58	6642.44
446.77	6705.63
446.95	6726.70
447.14	6682.23
447.32	7059.06
447.51	6679.89
447.69	6677.55
447.88	6569.88
448.06	6551.16
448.25	6764.15
448.43	6712.66
448.62	6768.83
448.80	6864.79
448.99	6979.48
449.17	6979.48
449.36	6836.70
449.54	6988.84
449.73	7084.80
449.91	7206.51
450.10	7239.28
450.28	7283.75
450.46	7286.09
450.65	7316.51
450.83	7424.18
451.02	7180.76
451.20	7253.32
451.39	7386.73
451.57	7358.64
451.76	7124.59
451.94	7323.54
452.13	7225.23
452.31	7403.11
452.49	7110.55
452.68	7222.89
452.86	7194.81
453.05	7452.27
453.23	7396.09
453.42	7375.03
453.60	7344.60
453.78	7627.81
453.97	7447.58
454.15	7538.87
454.34	7501.42
454.52	7698.02
454.70	7470.99
454.89	7527.16
455.07	7789.30
455.26	7819.73
455.44	8049.10
455.62	7911.01
455.81	7798.66
455.99	7824.41
456.17	7838.45
456.36	8009.31
456.54	8070.17
456.73	8219.96
456.91	8140.38
457.09	8187.19
457.28	8390.82
457.46	8102.93
457.64	8315.92
457.83	8262.09
458.01	8175.49
458.19	8285.50
458.38	8222.30
458.56	8470.40
458.74	8428.27
458.93	8212.94
459.11	8432.95
459.29	8353.37
459.48	8418.91
459.66	8353.37
459.84	8531.25
460.03	8793.39
460.21	8486.78
460.39	8652.96
460.57	8519.55
460.76	8615.51
460.94	8858.93
461.12	8746.58
461.31	8706.79
461.49	8933.82
461.67	8758.28
461.85	8950.21
462.04	8931.48
462.22	9275.54
462.40	9200.65
462.59	9064.89
462.77	8936.17
462.95	9160.86
463.13	8990.00
463.32	9071.92
463.50	9135.11
463.68	9104.68
463.86	9107.02
464.05	8985.32
464.23	9062.55
464.41	9053.19
464.59	8950.21
464.78	9137.45
464.96	9256.82
465.14	9226.39
465.32	9355.12
465.50	9289.59
465.69	9570.45
465.87	9458.10
466.05	9401.93
466.23	9453.42
466.41	9242.78
466.60	9504.92
466.78	9542.36
466.96	9259.16
467.14	9427.68
467.32	9565.77
467.51	9479.17
467.69	9359.80
467.87	9521.30
468.05	9582.15
468.23	9430.02
468.41	9556.41
468.60	9680.46
468.78	9659.39
468.96	9643.01
469.14	9783.44
469.32	10005.79
469.50	9509.60
469.69	9804.50
469.87	9891.10
470.05	10085.37
470.23	9802.16
470.41	10008.13
470.59	10188.35
470.77	10043.24
470.95	10143.88
471.14	10223.46
471.32	10043.24
471.50	10296.02
471.68	10509.01
471.86	10377.94
472.04	10600.29
472.22	10792.21
472.40	10583.90
472.58	10457.51
472.77	10459.85
472.95	10726.68
473.13	11009.88
473.31	10527.73
473.49	10509.01
473.67	10626.03
473.85	10766.46
474.03	11297.77
474.21	11227.55
474.39	11145.63
474.57	11206.48
474.75	11201.80
474.93	11382.03
475.12	11033.29
475.30	11604.38
475.48	11255.64
475.66	11339.90
475.84	11211.17
476.02	11433.52
476.20	11599.70
476.38	11726.08
476.56	12107.59
476.74	11999.93
476.92	11981.20
477.10	11889.92
477.28	12126.32
477.46	12198.87
477.64	12290.15
477.82	12629.53
478.00	12767.62
478.18	12901.03
478.36	12999.34
478.54	12830.82
478.72	12905.71
478.90	12999.34
479.08	13041.46
479.26	13287.22
479.44	13261.48
479.62	13327.01
479.80	13542.34
479.98	13568.09
480.16	13729.58
480.34	13785.76
480.52	13813.84
480.70	13797.46
480.88	13736.60
481.06	14026.83
481.24	14104.07
481.41	14471.53
481.59	14497.28
481.77	14408.34
481.95	14513.66
482.13	14593.24
482.31	14764.10
482.49	15049.64
482.67	15028.58
482.85	15253.27
483.03	15197.10
483.21	15470.94
483.39	15545.84
483.57	15470.94
483.74	15826.70
483.92	15740.10
484.10	15784.57
484.28	16123.95
484.46	16191.83
484.64	16617.80
484.82	16065.44
485.00	16631.85
485.18	16449.28
485.35	16538.23
485.53	16435.24
485.71	16456.31
485.89	16652.91
486.07	16641.21
486.25	16788.66
486.43	16924.41
486.61	16938.46
486.78	17132.72
486.96	17593.81
487.14	17724.88
487.32	18221.07
487.50	18188.30
487.68	18317.03
487.85	18499.59
488.03	18562.79
488.21	18628.32
488.39	18654.07
488.57	18876.42
488.75	19119.84
488.92	19152.60
489.10	19576.24
489.28	19438.15
489.46	19953.07
489.64	20023.28
489.81	20458.62
489.99	20437.56
490.17	20353.30
490.35	20379.04
490.53	20500.75
490.70	20952.48
490.88	20498.41
491.06	21186.53
491.24	20973.54
491.41	20798.00
491.59	21341.00
491.77	21111.63
491.95	21174.83
492.13	21383.13
492.30	22136.79
492.48	21788.05
492.66	21750.60
492.84	22167.21
493.01	22377.86
493.19	22263.18
493.37	22513.61
493.54	22398.93
493.72	22953.63
493.90	22780.43
494.08	23098.75
494.25	23405.36
494.43	23349.18
494.61	23807.93
494.79	23651.11
494.96	23559.83
495.14	23896.87
495.32	23770.48
495.49	24037.30
495.67	24322.85
495.85	24381.36
496.02	24484.34
496.20	24606.05
496.38	24624.78
496.55	24627.12
496.73	25631.21
496.91	25130.33
497.09	25223.95
497.26	25427.58
497.44	25422.90
497.62	25748.23
497.79	25663.97
497.97	25516.52
498.14	25516.52
498.32	25860.58
498.50	26082.93
498.67	26251.45
498.85	26134.42
499.03	26607.21
499.20	26403.58
499.38	26494.86
499.56	26684.45
499.73	26792.11
499.91	26869.35
500.08	27012.12
500.26	26583.80
500.44	26822.54
500.61	27248.52
500.79	27166.60
500.97	27653.43
501.14	26799.13
501.32	27239.15
501.49	27419.38
501.67	26998.08
501.84	27615.98
502.02	27770.46
502.20	28156.64
502.37	28151.96
502.55	28100.47
502.72	28608.37
502.90	28149.62
503.07	28030.26
503.25	28201.11
503.43	28591.98
503.60	28531.13
503.78	28187.07
503.95	28573.26
504.13	28687.95
504.30	29069.45
504.48	28912.64
504.65	29411.17
504.83	29319.89
505.01	29525.86
505.18	29116.26
505.36	29621.82
505.53	29811.40
505.71	30059.50
505.88	30040.78
506.06	30274.83
506.23	30127.38
506.41	30118.01
506.58	30309.94
506.76	30326.32
506.93	30265.47
507.11	30176.53
507.28	30356.75
507.46	30370.79
507.63	30417.60
507.81	30300.58
507.98	30431.65
508.16	30749.96
508.33	31087.00
508.50	31278.92
508.68	31473.18
508.85	31234.45
509.03	31620.64
509.20	31218.07
509.38	31924.91
509.55	31424.03
509.73	31536.38
509.90	31955.33
510.08	31583.19
510.25	31943.63
510.42	31880.44
510.60	32624.73
510.77	32051.30
510.95	32446.85
511.12	32290.03
511.30	32329.82
511.47	32573.24
511.64	32910.27
511.82	32741.75
511.99	32432.80
512.17	32697.28
512.34	32549.83
512.51	33219.22
512.69	32898.57
512.86	33109.22
513.04	32978.15
513.21	33116.24
513.38	33156.03
513.56	33446.26
513.73	33263.69
513.90	33514.13
514.08	33212.20
514.25	33483.70
514.43	33560.94
514.60	33502.43
514.77	33708.40
514.95	33982.24
515.12	33495.41
515.29	34195.23
515.47	34323.96
515.64	34649.29
515.81	34506.52
515.99	34293.53
516.16	33949.47
516.33	33961.17
516.51	33860.53
516.68	33450.94
516.85	33378.38
517.03	33825.42
517.20	34249.06
517.37	34284.17
517.54	34817.81
517.72	34820.15
517.89	34806.11
518.06	34438.64
518.24	34321.62
518.41	34506.52
518.58	34728.87
518.75	34995.69
518.93	34815.47
519.10	34794.40
519.27	35356.13
519.45	35674.45
519.62	35683.81
519.79	35435.71
519.96	35665.08
520.14	35690.83
520.31	35524.65
520.48	35562.10
520.65	35997.44
520.83	36175.32
521.00	36027.87
521.17	36084.04
521.34	36212.77
521.52	36355.54
521.69	36355.54
521.86	36772.16
522.03	36634.06
522.20	36928.97
522.38	37095.15
522.55	36795.56
522.72	36346.18
522.89	36940.68
523.07	36914.93
523.24	37078.77
523.41	37266.01
523.58	36741.73
523.75	37514.11
523.92	37401.76
524.10	37488.36
524.27	37631.13
524.44	37617.09
524.61	37589.00
524.78	37521.13
524.96	38089.88
525.13	37551.56
525.30	37893.27
525.47	38274.78
525.64	38440.96
525.81	37956.47
525.98	37928.38
526.16	37443.89
526.33	37352.61
526.50	37645.18
526.67	37706.03
526.84	38160.09
527.01	37509.43
527.18	37933.06
527.36	38621.18
527.53	38445.64
527.70	38885.66
527.87	38604.80
528.04	38225.63
528.21	38834.17
528.38	38700.76
528.55	39108.01
528.72	39063.54
528.89	39335.04
529.07	39405.26
529.24	39285.89
529.41	39061.20
529.58	39321.00
529.75	38986.30
529.92	39388.88
530.09	39433.35
530.26	39543.35
530.43	39791.45
530.60	39040.14
530.77	39629.95
530.94	40023.16
531.11	39667.40
531.28	39613.57
531.46	39922.52
531.63	40081.67
531.80	39618.25
531.97	39674.42
532.14	39505.90
532.31	39374.83
532.48	39758.68
532.65	40058.27
532.82	39817.19
532.99	39812.51
533.16	40231.47
533.33	40229.13
533.50	40282.96
533.67	40233.81
533.84	40322.75
534.01	40547.44
534.18	40524.04
534.35	40779.15
534.52	40102.74
534.69	40891.50
534.86	40638.72
535.03	40666.81
535.20	41158.32
535.37	41324.50
535.54	41329.18
535.71	40926.61
535.88	40601.27
536.05	40786.18
536.22	40992.14
536.38	41038.95
536.55	41170.02
536.72	40933.63
536.89	40643.40
537.06	41020.23
537.23	41450.89
537.40	40804.90
537.57	41614.72
537.74	41647.49
537.91	41823.03
538.08	41607.70
538.25	41167.68
538.42	41453.23
538.59	41476.63
538.75	41572.60
538.92	41539.83
539.09	41825.37
539.26	41827.71
539.43	41710.69
539.60	41579.62
539.77	41624.09
539.94	41443.87
540.11	41663.88
540.28	41727.07
540.44	41771.54
540.61	42026.66
540.78	41666.22
540.95	41366.63
541.12	41792.61
541.29	41881.55
541.46	41797.29
541.62	42082.83
541.79	42693.71
541.96	41989.21
542.13	42319.23
542.30	42340.29
542.47	42679.67
542.63	42335.61
542.80	42501.79
542.97	42801.38
543.14	42876.27
543.31	43206.29
543.48	42712.44
543.64	43363.11
543.81	43217.99
543.98	42979.26
544.15	43028.41
544.32	43370.13
544.48	43395.87
544.65	43187.56
544.82	43206.29
544.99	42838.83
545.16	43189.91
545.32	43260.12
545.49	43398.21
545.66	43782.06
545.83	43456.73
546.00	43377.15
546.16	43608.86
546.33	43501.20
546.50	43363.11
546.67	43646.31
546.83	43143.09
547.00	43288.21
547.17	43491.83
547.34	43442.68
547.50	43398.21
547.67	44130.80
547.84	43842.92
548.00	43744.61
548.17	44250.17
548.34	44072.29
548.51	44315.70
548.67	44191.65
548.84	43903.77
549.01	44177.61
549.18	44016.11
549.34	44275.91
549.51	43988.03
549.68	44126.12
549.84	43943.56
550.01	44219.74
550.18	44011.43
550.34	44137.82
550.51	44378.90
550.68	44147.18
550.84	44273.57
551.01	44280.60
551.18	44112.08
551.34	44055.90
551.51	44374.22
551.68	44596.57
551.84	44739.34
552.01	44498.26
552.18	44465.50
552.34	44521.67
552.51	44580.18
552.68	44369.54
552.84	44868.07
553.01	44765.09
553.18	44786.15
553.34	44802.53
553.51	44856.37
553.67	44720.62
553.84	45450.86
554.01	45207.45
554.17	44734.66
554.34	44994.46
554.51	44725.30
554.67	45003.82
554.84	45212.13
555.00	44610.61
555.17	44692.53
555.33	45167.66
555.50	45202.77
555.67	44442.09
555.83	44996.80
556.00	45317.45
556.16	45268.30
556.33	45560.87
556.50	45340.86
556.66	45427.46
556.83	44701.89
556.99	45062.33
557.16	45076.38
557.32	45008.50
557.49	45441.50
557.65	45113.83
557.82	44968.71
557.98	45167.66
558.15	45495.33
558.32	45113.83
558.48	45165.32
558.65	45289.37
558.81	44971.05
558.98	45146.59
559.14	45425.12
559.31	45340.86
559.47	45127.87
559.64	45272.98
559.80	45490.65
559.97	45523.42
560.13	45148.93
560.30	45258.94
560.46	45422.78
560.63	45823.01
560.79	46064.08
560.96	46246.65
561.12	45654.49
561.29	45397.03
561.45	45310.43
561.61	45312.77
561.78	45352.56
561.94	45614.70
562.11	45752.79
562.27	45565.55
562.44	45925.99
562.60	45659.17
562.77	45837.05
562.93	45682.58
563.10	46019.61
563.26	45310.43
563.42	46047.70
563.59	45640.45
563.75	45846.41
563.92	45902.59
564.08	45755.13
564.24	46080.47
564.41	45738.75
564.57	45911.95
564.74	45656.83
564.90	46036.00
565.07	45808.96
565.23	45628.74
565.39	46108.55
565.56	46078.13
565.72	45256.60
565.88	45818.33
566.05	45390.01
566.21	45855.78
566.38	45909.61
566.54	46071.10
566.70	46199.83
566.87	46246.65
567.03	46080.47
567.19	46424.53
567.36	46085.15
567.52	45940.04
567.68	46185.79
567.85	46197.49
568.01	46066.42
568.17	45963.44
568.34	46351.97
568.50	45998.55
568.66	46089.83
568.83	46019.61
568.99	46057.06
569.15	46057.06
569.32	45897.91
569.48	45867.48
569.64	46024.29
569.81	46211.54
569.97	46333.24
570.13	46351.97
570.30	45446.18
570.46	45586.61
570.62	45942.38
570.78	45626.40
570.95	45633.42
571.11	46061.74
571.27	45813.65
571.43	45790.24
571.60	46169.41
571.76	45947.06
571.92	46284.09
572.09	46052.38
572.25	46279.41
572.41	46258.35
572.57	46288.77
572.74	46614.11
572.90	46644.54
573.06	46337.93
573.22	46487.72
573.38	46028.98
573.55	46330.90
573.71	46614.11
573.87	46499.42
574.03	46078.13
574.20	46373.03
574.36	46094.51
574.52	45984.51
574.68	46260.69
574.84	46356.65
575.01	45977.48
575.17	46188.13
575.33	46021.95
575.49	46529.85
575.65	46178.77
575.82	46326.22
575.98	45940.04
576.14	46543.89
576.30	46117.92
576.46	46122.60
576.62	46136.64
576.79	46394.10
576.95	45916.63
577.11	46206.86
577.27	46230.26
577.43	46394.10
577.59	45937.69
577.75	46211.54
577.92	45947.06
578.08	45689.60
578.24	45860.46
578.40	46038.34
578.56	46328.56
578.72	46108.55
578.88	46260.69
579.04	46417.50
579.21	45874.50
579.37	45827.69
579.53	46466.66
579.69	46213.88
579.85	46557.94
580.01	46384.74
580.17	46202.18
580.33	46085.15
580.49	46361.33
580.65	46319.20
580.82	46333.24
580.98	46665.60
581.14	46190.47
581.30	46433.89
581.46	46590.70
581.62	46775.61
581.78	46464.32
581.94	46583.68
582.10	46850.50
582.26	46628.15
582.42	46164.73
582.58	45975.14
582.74	46363.67
582.90	46476.02
583.06	46698.37
583.22	46286.43
583.38	46326.22
583.54	46684.33
583.70	46246.65
583.86	46422.19
584.02	46644.54
584.18	46532.19
584.34	46375.37
584.50	46410.48
584.66	46323.88
584.82	46326.22
584.98	46410.48
585.14	46380.06
585.30	46438.57
585.46	46213.88
585.62	45755.13
585.78	46059.40
585.94	46429.21
586.10	46085.15
586.26	46305.16
586.42	46518.15
586.58	46459.63
586.74	46045.36
586.90	46274.73
587.06	46106.21
587.22	46464.32
587.38	46288.77
587.54	46576.66
587.70	46710.07
587.86	46368.35
588.02	46370.69
588.18	46389.42
588.34	45977.48
588.49	45579.59
588.65	45691.94
588.81	45916.63
588.97	45923.65
589.13	45902.59
589.29	45930.67
589.45	46068.76
589.61	46382.40
589.77	46241.96
589.93	46426.87
