SpectraSuite Data File
++++++++++++++++++++++++++++++++++++
Date: Fri Oct 25 11:25:33 EDT 2013
User: price-jones
Dark Spectrum Present: No
Reference Spectrum Present: No
Number of Sampled Component Spectra: 1
Spectrometers: USB2+H05261
Integration Time (usec): 100000 (USB2+H05261)
Spectra Averaged: 1 (USB2+H05261)
Boxcar Smoothing: 0 (USB2+H05261)
Correct for Electrical Dark: No (USB2+H05261)
Strobe/Lamp Enabled: No (USB2+H05261)
Correct for Detector Non-linearity: No (USB2+H05261)
Correct for Stray Light: No (USB2+H05261)
Number of Pixels in Processed Spectrum: 2048
>>>>>Begin Processed Spectral Data<<<<<
365.73	248.10
365.92	248.10
366.12	248.10
366.32	191.92
366.52	131.07
366.72	203.63
366.91	100.64
367.11	112.35
367.31	166.18
367.51	138.09
367.70	93.62
367.90	102.98
368.10	175.54
368.30	180.22
368.49	117.03
368.69	133.41
368.89	149.79
369.09	105.32
369.28	156.82
369.48	212.99
369.68	243.42
369.87	198.95
370.07	168.52
370.27	133.41
370.47	212.99
370.66	674.07
370.86	662.37
371.06	669.39
371.25	702.16
371.45	688.12
371.65	744.29
371.84	692.80
372.04	690.46
372.24	624.92
372.44	755.99
372.63	702.16
372.83	723.23
373.03	662.37
373.22	709.18
373.42	795.78
373.62	784.08
373.81	826.21
374.01	779.40
374.21	765.36
374.40	781.74
374.60	887.06
374.79	786.42
374.99	844.93
375.19	805.14
375.38	896.43
375.58	821.53
375.78	903.45
375.97	889.40
376.17	933.87
376.37	875.36
376.56	767.70
376.76	856.64
376.95	833.23
377.15	912.81
377.35	924.51
377.54	873.02
377.74	866.00
377.93	903.45
378.13	929.19
378.33	945.58
378.52	849.61
378.72	924.51
378.91	1004.09
379.11	947.92
379.31	915.15
379.50	894.08
379.70	966.64
379.89	985.37
380.09	1029.84
380.28	1034.52
380.48	961.96
380.68	978.34
380.87	950.26
381.07	1050.90
381.26	1046.22
381.46	924.51
381.65	999.41
381.85	966.64
382.04	1008.77
382.24	1107.07
382.43	1029.84
382.63	1078.99
382.83	1071.97
383.02	1128.14
383.22	1156.22
383.41	1081.33
383.61	1046.22
383.80	1053.24
384.00	1139.84
384.19	1039.20
384.39	1100.05
384.58	1036.86
384.78	1245.16
384.97	1172.61
385.17	1048.56
385.36	1071.97
385.56	1086.01
385.75	1144.52
385.95	1266.23
386.14	1287.29
386.34	1203.04
386.53	1231.12
386.72	1153.88
386.92	1191.33
387.11	1214.74
387.31	1308.36
387.50	1186.65
387.70	1191.33
387.89	1306.02
388.09	1256.87
388.28	1198.35
388.48	1186.65
388.67	1303.68
388.86	1315.38
389.06	1294.32
389.25	1322.40
389.45	1348.15
389.64	1373.89
389.84	1394.96
390.03	1275.59
390.22	1310.70
390.42	1413.68
390.61	1348.15
390.81	1348.15
391.00	1467.52
391.19	1418.36
391.39	1404.32
391.58	1329.42
391.78	1533.05
391.97	1439.43
392.16	1493.26
392.36	1472.20
392.55	1444.11
392.75	1570.50
392.94	1544.75
393.13	1626.67
393.33	1490.92
393.52	1537.73
393.71	1540.07
393.91	1497.94
394.10	1568.16
394.29	1626.67
394.49	1572.84
394.68	1561.14
394.88	1600.93
395.07	1682.85
395.26	1706.25
395.46	1694.55
395.65	1736.68
395.84	1757.74
396.04	1729.66
396.23	1755.40
396.42	1757.74
396.62	1732.00
396.81	1739.02
397.00	1811.57
397.19	1781.15
397.39	1776.47
397.58	1710.93
397.77	1792.85
397.97	1842.00
398.16	1795.19
398.35	1792.85
398.55	1898.17
398.74	1968.39
398.93	1959.03
399.12	1853.70
399.32	1842.00
399.51	1900.52
399.70	2029.24
399.90	1942.64
400.09	1933.28
400.28	1994.14
400.47	2040.95
400.67	2125.21
400.86	2064.35
401.05	2111.16
401.24	2111.16
401.44	2148.61
401.63	2232.87
401.82	2001.16
402.01	2162.66
402.21	2108.82
402.40	2216.49
402.59	2120.53
402.78	2237.55
402.97	2076.06
403.17	2303.09
403.36	2249.25
403.55	2321.81
403.74	2260.96
403.93	2338.20
404.13	2340.54
404.32	2282.02
404.51	2452.88
404.70	2349.90
404.89	2377.98
405.09	2548.84
405.28	2576.93
405.47	2562.89
405.66	2452.88
405.85	2572.25
406.05	2469.27
406.24	2525.44
406.43	2579.27
406.62	2506.71
406.81	2773.53
407.00	2555.86
407.20	2658.85
407.39	2579.27
407.58	2607.36
407.77	2630.76
407.96	2686.94
408.15	2796.94
408.34	2773.53
408.54	2799.28
408.73	2860.13
408.92	2789.92
409.11	2860.13
409.30	2860.13
409.49	2836.73
409.68	2953.76
409.87	2979.50
410.07	2984.18
410.26	3141.00
410.45	2911.63
410.64	3066.10
410.83	3180.79
411.02	2979.50
411.21	3166.74
411.40	3119.93
411.59	3138.66
411.78	3180.79
411.98	3239.30
412.17	3187.81
412.36	3194.83
412.55	3328.24
412.74	3344.63
412.93	3407.82
413.12	3447.61
413.31	3433.57
413.50	3524.85
413.69	3407.82
413.88	3585.70
414.07	3606.77
414.26	3602.08
414.45	3618.47
414.64	3712.09
414.83	3719.11
415.02	3882.95
415.22	3838.48
415.41	3871.25
415.60	3803.37
415.79	3901.67
415.98	3915.72
416.17	3981.25
416.36	3971.89
416.55	3894.65
416.74	4065.51
416.93	4067.85
417.12	3990.61
417.31	4182.54
417.50	4163.81
417.69	4301.90
417.88	4299.56
418.07	4311.27
418.26	4243.39
418.45	4276.16
418.64	4484.47
418.83	4440.00
419.02	4423.61
419.21	4542.98
419.39	4329.99
419.58	4489.15
419.77	4369.78
419.96	4667.03
420.15	4489.15
420.34	4479.79
420.53	4641.28
420.72	4587.45
420.91	4760.65
421.10	4669.37
421.29	4552.34
421.48	4669.37
421.67	4601.49
421.86	4627.24
422.05	4723.20
422.24	4837.89
422.43	4741.93
422.61	4784.06
422.80	5137.48
422.99	4964.28
423.18	4868.31
423.37	4971.30
423.56	4823.84
423.75	4814.48
423.94	4847.25
424.13	4601.49
424.32	4727.88
424.50	4943.21
424.69	4999.38
424.88	5001.72
425.07	5015.77
425.26	4779.37
425.45	4830.87
425.64	4837.89
425.83	4957.25
426.01	4999.38
426.20	4952.57
426.39	4943.21
426.58	4924.49
426.77	4931.51
426.96	5078.96
427.15	5219.39
427.33	5174.92
427.52	5149.18
427.71	5151.52
427.90	5085.98
428.09	5301.31
428.28	5317.70
428.46	5371.53
428.65	5188.97
428.84	5486.22
429.03	5387.91
429.22	5284.93
429.40	5486.22
429.59	5479.19
429.78	5277.91
429.97	5359.83
430.16	5551.75
430.34	5661.76
430.53	5628.99
430.72	5624.31
430.91	5448.77
431.10	5572.82
431.28	5582.18
431.47	5652.39
431.66	5935.60
431.85	5621.97
432.03	5729.63
432.22	5930.92
432.41	5811.55
432.60	5867.72
432.79	5846.66
432.97	6052.63
433.16	5863.04
433.35	6108.80
433.54	6197.74
433.72	6207.10
433.91	6054.97
434.10	6076.03
434.28	6022.20
434.47	6267.95
434.66	6293.70
434.85	6267.95
435.03	6401.37
435.22	6305.40
435.41	6525.41
435.59	6347.53
435.78	6415.41
435.97	6338.17
436.16	6492.65
436.34	6384.98
436.53	6511.37
436.72	6682.23
436.90	6544.14
437.09	6691.59
437.28	6593.29
437.46	6764.15
437.65	6635.42
437.84	6810.96
438.02	6633.08
438.21	6672.87
438.40	6604.99
438.58	6839.05
438.77	7049.69
438.96	6942.03
439.14	6977.14
439.33	7136.29
439.52	7162.04
439.70	7215.87
439.89	7330.56
440.08	7255.66
440.26	7524.82
440.45	7410.14
440.63	7438.22
440.82	7386.73
441.01	7559.93
441.19	7442.90
441.38	7611.42
441.57	7644.19
441.75	7871.22
441.94	7857.18
442.12	7983.57
442.31	8077.19
442.50	7981.23
442.68	8032.72
442.87	8013.99
443.05	7976.55
443.24	8081.87
443.43	7983.57
443.61	8311.24
443.80	8446.99
443.98	8088.89
444.17	7908.67
444.35	8175.49
444.54	8533.59
444.73	8255.07
444.91	8070.17
445.10	8238.69
445.28	8409.54
445.47	8257.41
445.65	8154.43
445.84	8444.65
446.02	8514.87
446.21	8315.92
446.39	8388.48
446.58	8510.19
446.77	8477.42
446.95	8170.81
447.14	8390.82
447.32	8498.49
447.51	8360.39
447.69	8498.49
447.88	8294.86
448.06	8472.74
448.25	8571.04
448.43	8578.06
448.62	8388.48
448.80	8458.70
448.99	8634.24
449.17	8760.63
449.36	8592.11
449.54	8688.07
449.73	8816.80
449.91	8718.50
450.10	8966.59
450.28	8978.30
450.46	9029.79
450.65	8971.27
450.83	8938.51
451.02	8908.08
451.20	9095.32
451.39	9067.24
451.57	9186.60
451.76	9025.11
451.94	9043.83
452.13	9254.48
452.31	9184.26
452.49	9158.52
452.68	9221.71
452.86	9394.91
453.05	9448.74
453.23	9509.60
453.42	9357.46
453.60	9202.99
453.78	9437.04
453.97	9544.70
454.15	9486.19
454.34	9533.00
454.52	9790.46
454.70	9631.30
454.89	9743.65
455.07	9795.14
455.26	9743.65
455.44	9891.10
455.62	9799.82
455.81	9989.41
455.99	9963.66
456.17	10167.29
456.36	9996.43
456.54	10026.86
456.73	10092.39
456.91	10317.08
457.09	10312.40
457.28	10555.82
457.46	10265.59
457.64	10431.77
457.83	10347.51
458.01	10359.21
458.19	10689.23
458.38	10354.53
458.56	10771.15
458.74	10752.42
458.93	10871.79
459.11	10752.42
459.29	10738.38
459.48	10993.50
459.66	10717.31
459.84	10731.36
460.03	11094.14
460.21	11000.52
460.39	10937.32
460.57	10803.91
460.76	10895.19
460.94	11150.31
461.12	11101.16
461.31	11190.10
461.49	11052.01
461.67	11089.46
461.85	11375.00
462.04	11164.36
462.22	11850.13
462.40	11672.25
462.59	11243.93
462.77	11405.43
462.95	11557.57
463.13	11393.73
463.32	11808.00
463.50	11761.19
463.68	11672.25
463.86	11995.25
464.05	11545.86
464.23	11716.72
464.41	11964.82
464.59	11730.76
464.78	11969.50
464.96	11976.52
465.14	11658.21
465.32	11850.13
465.50	11903.96
465.69	12133.34
465.87	12147.38
466.05	12077.16
466.23	12168.45
466.41	12133.34
466.60	12262.07
466.78	12072.48
466.96	12248.02
467.14	11894.60
467.32	12400.16
467.51	12437.61
467.69	12067.80
467.87	12496.12
468.05	12683.36
468.23	12400.16
468.41	12512.50
468.60	12594.42
468.78	12519.53
468.96	12170.79
469.14	12718.47
469.32	12688.04
469.50	12659.96
469.69	12784.01
469.87	12959.55
470.05	13055.51
470.23	13156.15
470.41	12938.48
470.59	13067.21
470.77	12938.48
470.95	13249.77
471.14	13530.64
471.32	12912.74
471.50	13362.12
471.68	13507.23
471.86	13600.85
472.04	13944.91
472.22	13947.25
472.40	13584.47
472.58	13664.05
472.77	13823.20
472.95	14134.50
473.13	14621.33
473.31	13973.00
473.49	14127.47
473.67	13951.93
473.85	14380.25
474.03	14338.12
474.21	14721.97
474.39	14403.66
474.57	14567.49
474.75	14661.12
474.93	14848.36
475.12	14740.69
475.30	15108.16
475.48	15026.24
475.66	15059.01
475.84	15119.86
476.02	15658.18
476.20	15356.25
476.38	15747.12
476.56	15950.75
476.74	15957.77
476.92	15733.08
477.10	15817.34
477.28	16212.89
477.46	16145.02
477.64	15988.20
477.82	16414.18
478.00	17109.32
478.18	16772.28
478.36	17121.02
478.54	17027.40
478.72	16936.12
478.90	17469.76
479.08	17783.39
479.26	17532.95
479.44	17584.44
479.62	17715.51
479.80	17844.24
479.98	18146.17
480.16	18373.21
480.34	18328.74
480.52	18380.23
480.70	18527.68
480.88	18286.61
481.06	18855.36
481.24	18504.28
481.41	18972.38
481.59	19332.82
481.77	19412.40
481.95	19468.58
482.13	19646.46
482.31	19440.49
482.49	20072.43
482.67	20304.15
482.85	20025.62
483.03	20458.62
483.21	20596.71
483.39	20931.41
483.57	20931.41
483.74	21167.80
483.92	21102.27
484.10	21036.74
484.28	21872.31
484.46	22073.59
484.64	22277.22
484.82	21645.27
485.00	22267.86
485.18	22698.52
485.35	22979.38
485.53	22551.06
485.71	22799.16
485.89	23428.76
486.07	23339.82
486.25	23098.75
486.43	23328.12
486.61	23922.62
486.78	24112.20
486.96	23838.36
487.14	24601.37
487.32	24395.40
487.50	25048.41
487.68	24973.52
487.85	24992.24
488.03	25568.01
488.21	25668.66
488.39	25722.49
488.57	25823.13
488.75	26164.85
488.92	26209.32
489.10	26665.72
489.28	26593.17
489.46	27087.02
489.64	26986.38
489.81	27353.84
489.99	27800.88
490.17	27405.33
490.35	28114.52
490.53	28023.23
490.70	28182.39
490.88	27819.61
491.06	28861.15
491.24	28500.70
491.41	29188.82
491.59	29397.13
491.77	29418.19
491.95	29364.36
492.13	29448.62
492.30	29855.87
492.48	29773.95
492.66	30213.98
492.84	29951.84
493.01	30471.43
493.19	30756.98
493.37	30707.83
493.54	30768.68
493.72	31182.96
493.90	31211.04
494.08	31693.19
494.25	31803.20
494.43	31931.93
494.61	32587.28
494.79	32128.53
494.96	32481.95
495.14	33076.45
495.32	32821.33
495.49	32744.09
495.67	32863.46
495.85	33574.98
496.02	33586.69
496.20	33792.65
496.38	33979.90
496.55	33504.77
496.73	34604.82
496.91	34347.36
497.09	34588.44
497.26	34866.96
497.44	34869.30
497.62	35297.62
497.79	35449.75
497.97	35229.74
498.14	35552.74
498.32	35896.80
498.50	36254.90
498.67	36093.40
498.85	36325.11
499.03	36320.43
499.20	36472.57
499.38	36547.47
499.56	36575.55
499.73	37069.40
499.91	37024.93
500.08	37207.50
500.26	37153.66
500.44	37535.17
500.61	37869.87
500.79	37713.05
500.97	37734.12
501.14	38515.86
501.32	38251.38
501.49	38277.12
501.67	38354.36
501.84	38536.92
502.02	38941.83
502.20	39051.84
502.37	39218.02
502.55	39210.99
502.72	39164.18
502.90	39063.54
503.07	39328.02
503.25	39557.39
503.43	39611.23
503.60	39569.10
503.78	40287.64
503.95	39871.03
504.13	40257.21
504.30	40332.11
504.48	40088.70
504.65	40598.93
504.83	40774.47
505.01	40872.78
505.18	41031.93
505.36	41528.13
505.53	41251.94
505.71	41537.49
505.88	41741.11
506.06	41064.70
506.23	41741.11
506.41	41359.61
506.58	41736.43
506.76	41961.12
506.93	42607.11
507.11	42190.50
507.28	42232.63
507.46	42691.37
507.63	42492.43
507.81	42817.76
507.98	42766.27
508.16	42382.42
508.33	43089.26
508.50	43533.96
508.68	43236.72
508.85	43775.04
509.03	43459.07
509.20	43742.27
509.38	44201.02
509.55	44039.52
509.73	44315.70
509.90	44346.13
510.08	44425.71
510.25	44327.41
510.42	44533.37
510.60	44854.03
510.77	44755.72
510.95	45064.67
511.12	44912.54
511.30	44348.47
511.47	45324.47
511.64	45455.54
511.82	45652.15
511.99	45642.79
512.17	45560.87
512.34	45516.40
512.51	46096.85
512.69	45996.21
512.86	45979.82
513.04	46878.59
513.21	46368.35
513.38	46237.28
513.56	46553.26
513.73	46478.36
513.90	46902.00
514.08	46735.82
514.25	47388.83
514.43	47201.58
514.60	47161.79
514.77	46824.76
514.95	47421.59
515.12	47154.77
515.29	47456.70
515.47	47667.35
515.64	47983.32
515.81	47370.10
515.99	47861.61
516.16	48114.39
516.33	48245.46
516.51	48186.95
516.68	48325.04
516.85	48374.19
517.03	48809.53
517.20	48580.16
517.37	48406.96
517.54	48568.46
517.72	48603.56
517.89	49062.31
518.06	48992.09
518.24	48629.31
518.41	49235.51
518.58	49062.31
518.75	49165.29
518.93	49118.48
519.10	49233.17
519.27	49429.77
519.45	49514.03
519.62	49612.34
519.79	49507.01
519.96	49663.83
520.14	50237.26
520.31	49731.70
520.48	49830.01
520.65	50213.85
520.83	50064.06
521.00	50485.36
521.17	50052.36
521.34	50326.20
521.52	50749.84
521.69	50611.74
521.86	50513.44
522.03	50817.71
522.20	51091.55
522.38	51175.81
522.55	51257.73
522.72	51206.24
522.89	51283.48
523.07	51554.98
523.24	51344.33
523.41	51648.60
523.58	51110.28
523.75	51812.44
523.92	51597.11
524.10	51725.84
524.27	51723.50
524.44	51753.93
524.61	52074.58
524.78	51826.48
524.96	51922.44
525.13	51920.10
525.30	52383.53
525.47	52556.73
525.64	52332.04
525.81	52215.01
525.98	52310.97
526.16	52184.58
526.33	52418.64
526.50	52837.59
526.67	52552.05
526.84	52671.42
527.01	52851.64
527.18	52575.45
527.36	52830.57
527.53	52865.68
527.70	53167.61
527.87	53174.63
528.04	52893.77
528.21	53268.25
528.38	53209.74
528.55	53481.24
528.72	53022.50
528.89	53422.73
529.07	53172.29
529.24	53284.64
529.41	53497.62
529.58	53343.15
529.75	53436.77
529.92	53387.62
530.09	53799.55
530.26	53808.92
530.43	53914.24
530.60	53649.76
530.77	53446.13
530.94	54117.87
531.11	53570.18
531.28	54152.97
531.46	54169.36
531.63	53951.69
531.80	54262.98
531.97	54195.10
532.14	54052.33
532.31	54160.00
532.48	54262.98
532.65	54286.39
532.82	54272.34
532.99	54443.20
533.16	54548.53
533.33	54576.61
533.50	54646.83
533.67	54625.76
533.84	54438.52
534.01	54684.28
534.18	54763.85
534.35	55044.72
534.52	54487.67
534.69	54988.55
534.86	55121.96
535.03	54667.89
535.20	54939.39
535.37	55112.59
535.54	55386.44
535.71	55208.56
535.88	55283.45
536.05	55269.41
536.22	55365.37
536.38	55515.17
536.55	55421.55
536.72	55341.97
536.89	55351.33
537.06	55351.33
537.23	55779.65
537.40	55323.24
537.57	55531.55
537.74	55819.44
537.91	55749.22
538.08	55669.64
538.25	55508.14
538.42	55746.88
538.59	56023.06
538.75	55861.57
538.92	55826.46
539.09	56238.39
539.26	55866.25
539.43	55920.08
539.60	55948.17
539.77	56301.59
539.94	56196.26
540.11	56236.05
540.28	56233.71
540.44	56526.28
540.61	56123.71
540.78	56343.72
540.95	56463.08
541.12	56278.18
541.29	56413.93
541.46	56573.09
541.62	56680.75
541.79	56554.36
541.96	56355.42
542.13	56493.51
542.30	56755.65
542.47	56577.77
542.63	56739.27
542.80	56680.75
542.97	57064.60
543.14	57034.17
543.31	57080.98
543.48	56985.02
543.64	57315.04
543.81	57216.74
543.98	57247.16
544.15	57343.12
544.32	57272.91
544.48	57317.38
544.65	57275.25
544.82	57279.93
544.99	57169.93
545.16	57244.82
545.32	57242.48
545.49	57586.54
545.66	57572.50
545.83	57448.45
546.00	57485.90
546.16	57623.99
546.33	57602.92
546.50	57279.93
546.67	57663.78
546.83	57265.89
547.00	57790.17
547.17	57640.37
547.34	57577.18
547.50	57911.88
547.67	58216.14
547.84	58056.99
548.00	57862.72
548.17	58162.31
548.34	57834.64
548.51	57902.51
548.67	58262.96
548.84	57900.17
549.01	57972.73
549.18	58049.97
549.34	58220.83
549.51	58040.60
549.68	58195.08
549.84	58211.46
550.01	58358.92
550.18	58319.13
550.34	58314.45
550.51	58061.67
550.68	58349.56
550.84	58066.35
551.01	58211.46
551.18	58248.91
551.34	58548.50
551.51	58284.02
551.68	58658.51
551.84	58560.20
552.01	58499.35
552.18	58461.90
552.34	58417.43
552.51	58621.06
552.68	58319.13
552.84	58597.65
553.01	58749.79
553.18	58728.72
553.34	58691.27
553.51	58527.44
553.67	58623.40
553.84	58707.66
554.01	59007.25
554.17	58887.88
554.34	58906.60
554.51	58714.68
554.67	58904.26
554.84	58824.68
555.00	58930.01
555.17	58878.52
555.33	58934.69
555.50	58787.24
555.67	58871.49
555.83	59171.08
556.00	59100.87
556.16	59215.55
556.33	59262.36
556.50	59339.60
556.66	59203.85
556.83	59025.97
556.99	59290.45
557.16	59236.62
557.32	59386.41
557.49	59423.86
557.65	59168.74
557.82	59143.00
557.98	59475.35
558.15	59161.72
558.32	59533.87
558.48	59224.92
558.65	59414.50
558.81	59178.10
558.98	59355.99
559.14	59463.65
559.31	59447.27
559.47	59461.31
559.64	59781.96
559.80	59334.92
559.97	59487.06
560.13	59304.49
560.30	59381.73
560.46	59576.00
560.63	59576.00
560.79	59613.44
560.96	59695.36
561.12	59688.34
561.29	59861.54
561.45	59737.49
561.61	59835.80
561.78	59618.13
561.94	59552.59
562.11	59882.61
562.27	59831.11
562.44	59805.37
562.60	60083.89
562.77	60102.62
562.93	59646.21
563.10	59934.10
563.26	59604.08
563.42	59952.82
563.59	59997.29
563.75	59737.49
563.92	60013.68
564.08	59924.74
564.24	60083.89
564.41	59922.40
564.57	60088.57
564.74	60095.60
564.90	59985.59
565.07	60144.75
565.23	59906.01
565.39	59821.75
565.56	60032.40
565.72	59950.48
565.88	60083.89
566.05	60020.70
566.21	60060.49
566.38	59943.46
566.54	59931.76
566.70	60243.05
566.87	60214.96
567.03	60020.70
567.19	60212.62
567.36	60243.05
567.52	60055.81
567.68	60434.97
567.85	60254.75
568.01	60453.70
568.17	60224.32
568.34	60303.90
568.50	60301.56
568.66	60200.92
568.83	60523.91
568.99	60207.94
569.15	60266.45
569.32	60329.65
569.48	60308.58
569.64	60552.00
569.81	60423.27
569.97	60149.43
570.13	60247.73
570.30	60301.56
570.46	60413.91
570.62	60285.18
570.78	60477.10
570.95	60252.41
571.11	60547.32
571.27	60292.20
571.43	60397.52
571.60	60456.04
571.76	60451.36
571.92	60477.10
572.09	60437.31
572.25	60432.63
572.41	60441.99
572.57	60563.70
572.74	60664.35
572.90	60432.63
573.06	60371.78
573.22	60552.00
573.38	60495.83
573.55	60432.63
573.71	60837.54
573.87	60622.22
574.03	60498.17
574.20	60530.93
574.36	60416.25
574.52	60706.47
574.68	60467.74
574.84	60697.11
575.01	60605.83
575.17	60760.31
575.33	60402.21
575.49	60399.86
575.65	60645.62
575.82	60842.23
575.98	60753.29
576.14	60870.31
576.30	60652.64
576.46	60659.66
576.62	60498.17
576.79	60573.06
576.95	60647.96
577.11	60722.86
577.27	60598.81
577.43	60544.98
577.59	60669.03
577.75	60519.23
577.92	60860.95
578.08	60734.56
578.24	60783.71
578.40	60788.39
578.56	60935.85
578.72	60788.39
578.88	60711.16
579.04	60907.76
579.21	60577.75
579.37	60828.18
579.53	60729.88
579.69	60573.06
579.85	60554.34
580.01	60662.00
580.17	60657.32
580.33	60718.18
580.49	61029.47
580.65	60863.29
580.82	60669.03
580.98	60851.59
581.14	60882.02
581.30	60832.86
581.46	60629.24
581.62	60893.72
581.78	60797.76
581.94	60954.57
582.10	60718.18
582.26	60622.22
582.42	60779.03
582.58	60942.87
582.74	60708.82
582.90	60818.82
583.06	60828.18
583.22	60680.73
583.38	60973.30
583.54	60900.74
583.70	60928.83
583.86	60914.78
584.02	60570.72
584.18	60893.72
584.34	60821.16
584.50	60956.91
584.66	60706.47
584.82	60561.36
584.98	61106.71
585.14	60874.99
585.30	60893.72
585.46	60942.87
585.62	60952.23
585.78	60935.85
585.94	60706.47
586.10	61050.53
586.26	60910.10
586.42	60800.10
586.58	60814.14
586.74	60903.08
586.90	60926.49
587.06	60830.52
587.22	61057.56
587.38	61013.08
587.54	61106.71
587.70	61010.74
587.86	61024.79
588.02	60692.43
588.18	61015.43
588.34	60879.67
588.49	60898.40
