SpectraSuite Data File
++++++++++++++++++++++++++++++++++++
Date: Fri Oct 25 11:23:49 EDT 2013
User: price-jones
Dark Spectrum Present: No
Reference Spectrum Present: No
Number of Sampled Component Spectra: 1
Spectrometers: USB2+H05261
Integration Time (usec): 100000 (USB2+H05261)
Spectra Averaged: 1 (USB2+H05261)
Boxcar Smoothing: 0 (USB2+H05261)
Correct for Electrical Dark: No (USB2+H05261)
Strobe/Lamp Enabled: No (USB2+H05261)
Correct for Detector Non-linearity: No (USB2+H05261)
Correct for Stray Light: No (USB2+H05261)
Number of Pixels in Processed Spectrum: 2048
>>>>>Begin Processed Spectral Data<<<<<
365.73	159.16
365.92	159.16
366.12	159.16
366.32	112.35
366.52	121.71
366.72	177.88
366.91	44.47
367.11	142.77
367.31	121.71
367.51	163.84
367.70	161.50
367.90	145.11
368.10	100.64
368.30	86.60
368.49	98.30
368.69	217.67
368.89	147.45
369.09	121.71
369.28	145.11
369.48	86.60
369.68	224.69
369.87	173.20
370.07	126.39
370.27	285.55
370.47	369.80
370.66	638.97
370.86	568.75
371.06	655.35
371.25	734.93
371.45	706.84
371.65	674.07
371.84	727.91
372.04	648.33
372.24	690.46
372.44	650.67
372.63	716.20
372.83	753.65
373.03	720.88
373.22	807.48
373.42	770.04
373.62	826.21
373.81	807.48
374.01	788.76
374.21	854.30
374.40	826.21
374.60	835.57
374.79	807.48
374.99	835.57
375.19	866.00
375.38	851.96
375.58	842.59
375.78	807.48
375.97	898.77
376.17	924.51
376.37	877.70
376.56	788.76
376.76	844.93
376.95	814.51
377.15	877.70
377.35	868.34
377.54	933.87
377.74	828.55
377.93	968.98
378.13	807.48
378.33	912.81
378.52	1004.09
378.72	947.92
378.91	964.30
379.11	880.04
379.31	891.74
379.50	957.28
379.70	966.64
379.89	976.00
380.09	943.24
380.28	992.39
380.48	943.24
380.68	1034.52
380.87	854.30
381.07	1107.07
381.26	1015.79
381.46	990.05
381.65	987.71
381.85	1022.81
382.04	1032.18
382.24	1139.84
382.43	1015.79
382.63	1102.39
382.83	1071.97
383.02	1093.03
383.22	1193.67
383.41	1064.94
383.61	1032.18
383.80	1088.35
384.00	1067.28
384.19	1144.52
384.39	1151.54
384.58	1160.91
384.78	1123.46
384.97	1203.04
385.17	1160.91
385.36	1217.08
385.56	1212.40
385.75	1212.40
385.95	1109.41
386.14	1186.65
386.34	1184.31
386.53	1219.42
386.72	1219.42
386.92	1310.70
387.11	1235.80
387.31	1277.93
387.50	1158.57
387.70	1294.32
387.89	1284.95
388.09	1277.93
388.28	1221.76
388.48	1242.82
388.67	1308.36
388.86	1373.89
389.06	1341.13
389.25	1331.76
389.45	1423.05
389.64	1331.76
389.84	1350.49
390.03	1434.75
390.22	1453.47
390.42	1352.83
390.61	1334.11
390.81	1371.55
391.00	1364.53
391.19	1451.13
391.39	1401.98
391.58	1490.92
391.78	1430.07
391.97	1479.22
392.16	1563.48
392.36	1579.86
392.55	1458.15
392.75	1504.96
392.94	1458.15
393.13	1516.67
393.33	1561.14
393.52	1472.20
393.71	1614.97
393.91	1565.82
394.10	1558.80
394.29	1661.78
394.49	1575.18
394.68	1633.69
394.88	1511.99
395.07	1724.97
395.26	1598.59
395.46	1720.29
395.65	1729.66
395.84	1771.79
396.04	1874.77
396.23	1694.55
396.42	1717.95
396.62	1764.76
396.81	1877.11
397.00	1851.36
397.19	1741.36
397.39	1795.19
397.58	1891.15
397.77	1823.28
397.97	1949.67
398.16	1827.96
398.35	1982.43
398.55	1884.13
398.74	1856.04
398.93	1944.99
399.12	1959.03
399.32	1874.77
399.51	1937.96
399.70	1942.64
399.90	1874.77
400.09	1935.62
400.28	2031.58
400.47	2008.18
400.67	2104.14
400.86	2040.95
401.05	2047.97
401.24	2136.91
401.44	2157.97
401.63	1991.80
401.82	2143.93
402.01	2188.40
402.21	2214.15
402.40	2218.83
402.59	2113.50
402.78	2188.40
402.97	2284.36
403.17	2300.75
403.36	2223.51
403.55	2237.55
403.74	2359.26
403.93	2312.45
404.13	2373.30
404.32	2359.26
404.51	2382.67
404.70	2434.16
404.89	2443.52
405.09	2492.67
405.28	2518.42
405.47	2539.48
405.66	2462.24
405.85	2567.57
406.05	2438.84
406.24	2495.01
406.43	2492.67
406.62	2597.99
406.81	2644.81
407.00	2574.59
407.20	2572.25
407.39	2621.40
407.58	2626.08
407.77	2794.60
407.96	2871.84
408.15	2747.79
408.34	2700.98
408.54	2916.31
408.73	2803.96
408.92	2899.92
409.11	2794.60
409.30	2841.41
409.49	2862.48
409.68	3052.06
409.87	2864.82
410.07	3035.67
410.26	3016.95
410.45	2953.76
410.64	3038.02
410.83	3180.79
411.02	3115.25
411.21	3269.73
411.40	3094.19
411.59	3234.62
411.78	3272.07
411.98	3133.98
412.17	3330.58
412.36	3389.10
412.55	3241.64
412.74	3379.73
412.93	3361.01
413.12	3213.56
413.31	3583.36
413.50	3506.12
413.69	3382.07
413.88	3590.38
414.07	3691.02
414.26	3669.96
414.45	3686.34
414.64	3644.21
414.83	3707.41
415.02	3660.60
415.22	3857.20
415.41	3836.14
415.60	3868.91
415.79	4072.53
415.98	4065.51
416.17	4014.02
416.36	3957.85
416.55	4032.74
416.74	4056.15
416.93	4086.58
417.12	4021.04
417.31	4266.80
417.50	4407.23
417.69	4344.03
417.88	4332.33
418.07	4257.43
418.26	4339.35
418.45	4325.31
418.64	4489.15
418.83	4386.16
419.02	4283.18
419.21	4519.57
419.39	4526.60
419.58	4470.42
419.77	4594.47
419.96	4578.09
420.15	4772.35
420.34	4758.31
420.53	4528.94
420.72	4688.09
420.91	4664.69
421.10	4772.35
421.29	4882.36
421.48	4739.58
421.67	4786.40
421.86	4685.75
422.05	4678.73
422.24	4816.82
422.43	4985.34
422.61	4823.84
422.80	4973.64
422.99	4903.42
423.18	4912.78
423.37	4917.47
423.56	5020.45
423.75	4954.91
423.94	4868.31
424.13	4788.74
424.32	4725.54
424.50	4903.42
424.69	5135.14
424.88	5137.48
425.07	5022.79
425.26	4952.57
425.45	5123.43
425.64	4931.51
425.83	5118.75
426.01	5011.09
426.20	5135.14
426.39	5224.08
426.58	4966.62
426.77	5093.01
426.96	5193.65
427.15	5088.32
427.33	5188.97
427.52	5060.24
427.71	5324.72
427.90	5205.35
428.09	5371.53
428.28	5359.83
428.46	5296.63
428.65	5366.85
428.84	5444.09
429.03	5596.22
429.22	5385.57
429.40	5453.45
429.59	5425.36
429.78	5181.95
429.97	5327.06
430.16	5446.43
430.34	5638.35
430.53	5664.10
430.72	5685.16
430.91	5579.84
431.10	5813.89
431.28	5933.26
431.47	5893.47
431.66	5909.85
431.85	5900.49
432.03	6076.03
432.22	5973.05
432.41	6040.92
432.60	6071.35
432.79	6085.39
432.97	5968.37
433.16	6216.46
433.35	5961.34
433.54	6232.85
433.72	6106.46
433.91	6057.31
434.10	6108.80
434.28	6115.82
434.47	6356.90
434.66	6260.93
434.85	6375.62
435.03	6181.35
435.22	6300.72
435.41	6628.40
435.59	6366.26
435.78	6396.68
435.97	6354.55
436.16	6497.33
436.34	6530.09
436.53	6534.78
436.72	6710.32
436.90	6586.27
437.09	6712.66
437.28	6562.86
437.46	6808.62
437.65	6612.01
437.84	6808.62
438.02	6789.89
438.21	6775.85
438.40	6841.39
438.58	6939.69
438.77	7096.50
438.96	6953.73
439.14	6988.84
439.33	7274.38
439.52	7311.83
439.70	7403.11
439.89	7370.35
440.08	7520.14
440.26	7456.95
440.45	7449.93
440.63	7412.48
440.82	7616.10
441.01	7576.31
441.19	7854.84
441.38	7632.49
441.57	7875.90
441.75	7866.54
441.94	7985.91
442.12	7960.16
442.31	8091.23
442.50	7969.52
442.68	8128.68
442.87	8154.43
443.05	8201.24
443.24	8194.22
443.43	8318.26
443.61	8116.98
443.80	8526.57
443.98	8100.59
444.17	7978.89
444.35	8390.82
444.54	8542.96
444.73	8320.60
444.91	8276.13
445.10	8491.46
445.28	8428.27
445.47	8224.64
445.65	8315.92
445.84	8641.26
446.02	8456.36
446.21	8416.57
446.39	8416.57
446.58	8510.19
446.77	8531.25
446.95	8194.22
447.14	8514.87
447.32	8313.58
447.51	8755.94
447.69	8521.89
447.88	8692.75
448.06	8379.12
448.25	8638.92
448.43	8688.07
448.62	8608.49
448.80	8671.68
448.99	8711.47
449.17	8950.21
449.36	8648.28
449.54	8924.46
449.73	9032.13
449.91	9057.87
450.10	9001.70
450.28	8917.44
450.46	9219.37
450.65	9212.35
450.83	9057.87
451.02	9001.70
451.20	9266.18
451.39	9298.95
451.57	9205.33
451.76	9001.70
451.94	9249.80
452.13	9390.23
452.31	9261.50
452.49	9291.93
452.68	9425.34
452.86	9268.52
453.05	9514.28
453.23	9476.83
453.42	9507.26
453.60	9343.42
453.78	9490.87
453.97	9455.76
454.15	9444.06
454.34	9467.47
454.52	9685.14
454.70	9802.16
454.89	9748.33
455.07	9846.63
455.26	9891.10
455.44	10148.56
455.62	9944.94
455.81	9879.40
455.99	9963.66
456.17	10143.88
456.36	10242.18
456.54	10026.86
456.73	10368.57
456.91	10597.95
457.09	10396.66
457.28	10656.46
457.46	10373.25
457.64	10757.10
457.83	10511.35
458.01	10586.24
458.19	10752.42
458.38	10560.50
458.56	10717.31
458.74	10733.70
458.93	10855.40
459.11	10890.51
459.29	10796.89
459.48	11105.84
459.66	10714.97
459.84	11026.26
460.03	11030.94
460.21	10862.43
460.39	10927.96
460.57	10892.85
460.76	11222.87
460.94	11033.29
461.12	11049.67
461.31	11435.86
461.49	11176.06
461.67	11194.78
461.85	11424.15
462.04	11297.77
462.22	11676.93
462.40	11679.27
462.59	11700.34
462.77	11800.98
462.95	11597.35
463.13	11843.11
463.32	11618.42
463.50	11990.56
463.68	11735.45
463.86	12077.16
464.05	11798.64
464.23	11634.80
464.41	11950.78
464.59	11742.47
464.78	12182.49
464.96	12280.79
465.14	11822.05
465.32	11999.93
465.50	12233.98
465.69	12184.83
465.87	12119.29
466.05	12189.51
466.23	12397.82
466.41	12451.65
466.60	12542.93
466.78	12327.60
466.96	12283.13
467.14	12491.44
467.32	12355.69
467.51	12601.44
467.69	12421.22
467.87	12662.30
468.05	12702.09
468.23	12596.76
468.41	12535.91
468.60	12685.70
468.78	12791.03
468.96	12624.85
469.14	13006.36
469.32	13078.91
469.50	12755.92
469.69	13319.99
469.87	13235.73
470.05	13107.00
470.23	13053.17
470.41	13209.98
470.59	13312.97
470.77	13242.75
470.95	13486.17
471.14	13460.42
471.32	13167.85
471.50	13645.32
471.68	13610.22
471.86	13792.78
472.04	13731.92
472.22	14272.59
472.40	13736.60
472.58	13902.78
472.77	14284.29
472.95	14349.82
473.13	14626.01
473.31	14223.44
473.49	14377.91
473.67	14295.99
473.85	14537.07
474.03	14834.32
474.21	14640.05
474.39	14656.43
474.57	14728.99
474.75	15026.24
474.93	14846.02
475.12	15077.73
475.30	15396.04
475.48	15042.62
475.66	15159.65
475.84	15391.36
476.02	15204.12
476.20	15428.81
476.38	15906.28
476.56	16212.89
476.74	16285.45
476.92	15824.36
477.10	15992.88
477.28	16404.81
477.46	16315.87
477.64	16369.71
477.82	16540.57
478.00	16908.03
478.18	16875.26
478.36	16695.04
478.54	17436.99
478.72	17444.01
478.90	17474.44
479.08	17635.94
479.26	17926.16
479.44	17757.64
479.62	17984.68
479.80	18317.03
479.98	18515.98
480.16	18904.51
480.34	18338.10
480.52	18647.05
480.70	18691.52
480.88	18628.32
481.06	18892.80
481.24	18834.29
481.41	19241.54
481.59	19220.48
481.77	19646.46
481.95	19850.08
482.13	19824.34
482.31	19805.61
482.49	20559.27
482.67	20191.80
482.85	20624.80
483.03	21003.97
483.21	20978.22
483.39	20889.28
483.57	20821.41
483.74	21280.15
483.92	21610.17
484.10	21633.57
484.28	21853.58
484.46	22202.32
484.64	22452.76
484.82	22183.60
485.00	22466.80
485.18	22815.54
485.35	23115.13
485.53	22881.08
485.71	23267.27
485.89	23424.08
486.07	23442.81
486.25	23606.64
486.43	23758.78
486.61	23534.09
486.78	24315.83
486.96	24135.60
487.14	24793.29
487.32	24905.64
487.50	25364.39
487.68	24994.58
487.85	25741.21
488.03	25759.94
488.21	26190.59
488.39	26022.08
488.57	26150.81
488.75	26394.22
488.92	26649.34
489.10	27290.65
489.28	27232.13
489.46	26995.74
489.64	27391.29
489.81	27754.07
489.99	27985.79
490.17	27784.50
490.35	28264.31
490.53	28189.41
490.70	28844.76
490.88	28428.15
491.06	28996.90
491.24	28854.12
491.41	29146.69
491.59	29558.63
491.77	29345.64
491.95	30080.56
492.13	30221.00
492.30	30321.64
492.48	30073.54
492.66	30199.93
492.84	30401.22
493.01	31204.02
493.19	30843.58
493.37	31269.56
493.54	31229.77
493.72	31622.98
493.90	31693.19
494.08	31847.67
494.25	31740.00
494.43	32163.64
494.61	32428.12
494.79	32657.49
494.96	32542.81
495.14	32924.32
495.32	33130.28
495.49	33284.76
495.67	33434.55
495.85	33947.13
496.02	34288.85
496.20	33916.70
496.38	34452.69
496.55	34504.18
496.73	35421.67
496.91	34780.36
497.09	34639.93
497.26	35143.14
497.44	35262.51
497.62	35323.36
497.79	35779.77
497.97	35470.82
498.14	36123.83
498.32	36453.84
498.50	36446.82
498.67	36938.33
498.85	36891.52
499.03	36933.65
499.20	37020.25
499.38	36933.65
499.56	37502.40
499.73	37652.20
499.91	37715.39
500.08	38064.13
500.26	37439.21
500.44	37904.98
500.61	37607.73
500.79	37965.83
500.97	38197.54
501.14	38621.18
501.32	38841.19
501.49	38941.83
501.67	38962.90
501.84	39267.17
502.02	39077.58
502.20	38391.81
502.37	39826.56
502.55	39693.15
502.72	39892.09
502.90	39840.60
503.07	39405.26
503.25	40062.95
503.43	40149.55
503.60	40687.87
503.78	40357.86
503.95	40472.54
504.13	40722.98
504.30	40863.41
504.48	40535.74
504.65	40856.39
504.83	41235.56
505.01	41378.33
505.18	41076.40
505.36	41956.44
505.53	41434.50
505.71	41621.75
505.88	42080.49
506.06	42370.72
506.23	42314.55
506.41	42113.26
506.58	42876.27
506.76	42415.19
506.93	42759.25
507.11	42625.84
507.28	42880.95
507.46	42693.71
507.63	43475.45
507.81	43489.49
507.98	42932.45
508.16	43679.08
508.33	44030.16
508.50	43421.62
508.68	43693.12
508.85	43962.28
509.03	44168.25
509.20	44418.69
509.38	44397.62
509.55	44741.68
509.73	44996.80
509.90	44573.16
510.08	44816.58
510.25	45233.19
510.42	44964.03
510.60	45343.20
510.77	45322.13
510.95	45691.94
511.12	45057.65
511.30	45797.26
511.47	46043.02
511.64	45895.56
511.82	46267.71
511.99	45900.25
512.17	46026.63
512.34	45968.12
512.51	46234.94
512.69	46897.31
512.86	46705.39
513.04	46925.40
513.21	46894.97
513.38	46909.02
513.56	47021.36
513.73	47253.08
513.90	47241.37
514.08	47054.13
514.25	47512.88
514.43	47789.06
514.60	47723.52
514.77	47669.69
514.95	48140.14
515.12	47585.43
515.29	47665.01
515.47	48004.39
515.64	48027.79
515.81	48226.74
515.99	48493.56
516.16	48364.83
516.33	48470.15
516.51	49139.55
516.68	48643.35
516.85	48713.57
517.03	48942.94
517.20	49338.49
517.37	48940.60
517.54	49088.06
517.72	49125.50
517.89	49258.91
518.06	49614.68
518.24	49507.01
518.41	49352.54
518.58	49401.69
518.75	49457.86
518.93	50068.74
519.10	49654.47
519.27	49942.35
519.45	50356.63
519.62	50033.63
519.79	50417.48
519.96	50396.42
520.14	50384.71
520.31	50099.17
520.48	50473.65
520.65	50347.26
520.83	51011.98
521.00	50487.70
521.17	50532.17
521.34	50810.69
521.52	50927.72
521.69	51019.00
521.86	51159.43
522.03	51213.26
522.20	51524.55
522.38	51840.53
522.55	51526.89
522.72	51470.72
522.89	51220.28
523.07	51845.21
523.24	51735.20
523.41	51896.70
523.58	51835.84
523.75	51945.85
523.92	51910.74
524.10	52264.16
524.27	52264.16
524.44	52294.59
524.61	52123.73
524.78	52222.03
524.96	52512.26
525.13	52491.19
525.30	52662.05
525.47	53020.16
525.64	52486.51
525.81	52952.28
525.98	52886.74
526.16	52685.46
526.33	52851.64
526.50	53237.83
526.67	52968.66
526.84	52975.69
527.01	52865.68
527.18	52978.03
527.36	53450.81
527.53	53237.83
527.70	53612.31
527.87	53495.28
528.04	53476.56
528.21	53434.43
528.38	53502.31
528.55	53677.85
528.72	53506.99
528.89	53752.74
529.07	53633.38
529.24	53343.15
529.41	53787.85
529.58	53755.08
529.75	53804.24
529.92	53811.26
530.09	54127.23
530.26	54026.59
530.43	54190.42
530.60	54040.63
530.77	53727.00
530.94	54387.03
531.11	54176.38
531.28	54344.90
531.46	54504.06
531.63	54408.09
531.80	54440.86
531.97	54602.36
532.14	54560.23
532.31	54515.76
532.48	54534.48
532.65	54623.42
532.82	54475.97
532.99	54974.50
533.16	54733.43
533.33	54908.97
533.50	55121.96
533.67	54880.88
533.84	54958.12
534.01	55178.13
534.18	55124.30
534.35	55407.50
534.52	55203.88
534.69	55271.75
534.86	55414.52
535.03	55065.78
535.20	55419.20
535.37	55695.39
535.54	55597.09
535.71	55278.77
535.88	55721.13
536.05	55793.69
536.22	55803.05
536.38	55667.30
536.55	55711.77
536.72	55859.23
536.89	55711.77
537.06	55777.31
537.23	55920.08
537.40	55622.83
537.57	55943.48
537.74	56116.68
537.91	56020.72
538.08	56025.40
538.25	55852.20
538.42	56133.07
538.59	56427.98
538.75	56240.73
538.92	56336.69
539.09	56332.01
539.26	56472.45
539.43	56292.22
539.60	56250.09
539.77	56224.35
539.94	56699.48
540.11	56463.08
540.28	56530.96
540.44	56537.98
540.61	56690.12
540.78	56580.11
540.95	56456.06
541.12	56484.15
541.29	56647.99
541.46	56647.99
541.62	56872.68
541.79	56889.06
541.96	56374.14
542.13	56601.18
542.30	56825.87
542.47	57013.11
542.63	56987.36
542.80	56886.72
542.97	57418.02
543.14	57467.17
543.31	57345.47
543.48	57490.58
543.64	57661.44
543.81	57546.75
543.98	57279.93
544.15	57453.13
544.32	57827.62
544.48	57483.56
544.65	57446.11
544.82	57661.44
544.99	57347.81
545.16	57673.14
545.32	57403.98
545.49	57813.57
545.66	57780.81
545.83	57801.87
546.00	57790.17
546.16	57883.79
546.33	57998.48
546.50	57598.24
546.67	57846.34
546.83	57532.71
547.00	58056.99
547.17	57851.02
547.34	58183.38
547.50	58183.38
547.67	58277.00
547.84	58251.25
548.00	58157.63
548.17	58482.97
548.34	58379.98
548.51	58239.55
548.67	58492.33
548.84	58211.46
549.01	58363.60
549.18	58459.56
549.34	58340.19
549.51	58319.13
549.68	58649.14
549.84	58628.08
550.01	58649.14
550.18	58405.73
550.34	58630.42
550.51	58534.46
550.68	58398.71
550.84	58501.69
551.01	58766.17
551.18	58836.39
551.34	58815.32
551.51	58653.82
551.68	58714.68
551.84	58852.77
552.01	58721.70
552.18	58876.18
552.34	58768.51
552.51	59061.08
552.68	58560.20
552.84	58953.41
553.01	59150.02
553.18	58948.73
553.34	59075.12
553.51	58976.82
553.67	58993.20
553.84	59175.76
554.01	59192.15
554.17	59339.60
554.34	59185.13
554.51	59035.33
554.67	59449.61
554.84	59030.65
555.00	58969.80
555.17	59135.98
555.33	59222.58
555.50	59117.25
555.67	59168.74
555.83	59110.23
556.00	59215.55
556.16	59669.62
556.33	59447.27
556.50	59601.74
556.66	59737.49
556.83	59337.26
556.99	59653.23
557.16	59590.04
557.32	59934.10
557.49	59831.11
557.65	59503.44
557.82	59611.10
557.98	59475.35
558.15	59585.36
558.32	59737.49
558.48	59564.29
558.65	59657.91
558.81	59739.83
558.98	59676.64
559.14	59721.11
559.31	59728.13
559.47	59697.70
559.64	59884.95
559.80	59877.93
559.97	59884.95
560.13	59901.33
560.30	59901.33
560.46	59854.52
560.63	60093.25
560.79	59945.80
560.96	59966.87
561.12	60111.98
561.29	60151.77
561.45	60039.42
561.61	59969.21
561.78	59847.50
561.94	59884.95
562.11	60001.97
562.27	60034.74
562.44	60055.81
562.60	60149.43
562.77	60189.22
562.93	59924.74
563.10	60107.30
563.26	60037.08
563.42	60388.16
563.59	59971.55
563.75	60067.51
563.92	60079.21
564.08	60411.57
564.24	60259.43
564.41	60271.14
564.57	60488.80
564.74	60186.88
564.90	60322.63
565.07	60196.24
565.23	60158.79
565.39	60308.58
565.56	60317.95
565.72	60165.81
565.88	60404.55
566.05	60224.32
566.21	60310.92
566.38	60617.53
566.54	60367.10
566.70	60577.75
566.87	60530.93
567.03	60310.92
567.19	60427.95
567.36	60598.81
567.52	60446.68
567.68	60706.47
567.85	60537.96
568.01	60612.85
568.17	60697.11
568.34	60514.55
568.50	60570.72
568.66	60645.62
568.83	60889.04
568.99	60467.74
569.15	60647.96
569.32	60434.97
569.48	60458.38
569.64	60633.92
569.81	60680.73
569.97	60566.04
570.13	60640.94
570.30	60842.23
570.46	60598.81
570.62	60706.47
570.78	60617.53
570.95	60884.36
571.11	60760.31
571.27	60636.26
571.43	60676.05
571.60	60748.60
571.76	60657.32
571.92	60879.67
572.09	60683.07
572.25	60865.63
572.41	60617.53
572.57	60671.37
572.74	61055.21
572.90	60776.69
573.06	60727.54
573.22	60804.78
573.38	60757.97
573.55	60879.67
573.71	60956.91
573.87	60713.50
574.03	60727.54
574.20	60762.65
574.36	60669.03
574.52	60912.44
574.68	60814.14
574.84	60896.06
575.01	60814.14
575.17	60835.20
575.33	60797.76
575.49	60762.65
575.65	60750.94
575.82	60874.99
575.98	61066.92
576.14	61109.05
576.30	61048.19
576.46	60802.44
576.62	61092.66
576.79	60676.05
576.95	60872.65
577.11	60952.23
577.27	61034.15
577.43	61073.94
577.59	60931.17
577.75	60959.25
577.92	60912.44
578.08	61022.45
578.24	60966.27
578.40	61190.97
578.56	60973.30
578.72	60903.08
578.88	61221.39
579.04	61172.24
579.21	60914.78
579.37	61137.13
579.53	61113.73
579.69	60879.67
579.85	60994.36
580.01	61186.28
580.17	61029.47
580.33	61034.15
580.49	61190.97
580.65	61258.84
580.82	61102.03
580.98	61052.87
581.14	60872.65
581.30	61169.90
581.46	61141.81
581.62	60994.36
581.78	61008.40
581.94	61247.14
582.10	61066.92
582.26	61202.67
582.42	61090.32
582.58	61137.13
582.74	61073.94
582.90	61029.47
583.06	61017.77
583.22	60996.70
583.38	61139.47
583.54	61162.88
583.70	61003.72
583.86	60959.25
584.02	61055.21
584.18	61176.92
584.34	61001.38
584.50	61078.62
584.66	60973.30
584.82	60842.23
584.98	61242.46
585.14	61186.28
585.30	60961.59
585.46	61134.79
585.62	61247.14
585.78	61102.03
585.94	61073.94
586.10	61137.13
586.26	61205.01
586.42	61279.91
586.58	61394.59
586.74	61186.28
586.90	61071.60
587.06	61265.86
587.22	61399.27
587.38	61055.21
587.54	61331.40
587.70	61399.27
587.86	61305.65
588.02	61179.26
588.18	61307.99
588.34	61254.16
588.49	61066.92
