SpectraSuite Data File
++++++++++++++++++++++++++++++++++++
Date: Fri Oct 25 10:47:58 EDT 2013
User: price-jones
Dark Spectrum Present: No
Reference Spectrum Present: No
Number of Sampled Component Spectra: 1
Spectrometers: USB2+H05261
Integration Time (usec): 100000 (USB2+H05261)
Spectra Averaged: 1 (USB2+H05261)
Boxcar Smoothing: 0 (USB2+H05261)
Correct for Electrical Dark: No (USB2+H05261)
Strobe/Lamp Enabled: No (USB2+H05261)
Correct for Detector Non-linearity: No (USB2+H05261)
Correct for Stray Light: No (USB2+H05261)
Number of Pixels in Processed Spectrum: 2048
>>>>>Begin Processed Spectral Data<<<<<
365.73	124.05
365.92	124.05
366.12	124.05
366.32	105.32
366.52	14.04
366.72	119.37
366.91	0.00
367.11	70.22
367.31	0.00
367.51	42.13
367.70	39.79
367.90	58.51
368.10	105.32
368.30	124.05
368.49	0.00
368.69	65.54
368.89	67.88
369.09	0.00
369.28	93.62
369.48	63.19
369.68	86.60
369.87	126.39
370.07	49.15
370.27	217.67
370.47	241.08
370.66	344.06
370.86	428.32
371.06	369.80
371.25	505.56
371.45	496.19
371.65	447.04
371.84	428.32
372.04	454.06
372.24	470.45
372.44	458.74
372.63	493.85
372.83	575.77
373.03	545.34
373.22	423.64
373.42	451.72
373.62	510.24
373.81	496.19
374.01	571.09
374.21	622.58
374.40	531.30
374.60	634.29
374.79	533.64
374.99	517.26
375.19	510.24
375.38	540.66
375.58	580.45
375.78	648.33
375.97	573.43
376.17	596.84
376.37	596.84
376.56	550.03
376.76	578.11
376.95	566.41
377.15	667.05
377.35	610.88
377.54	601.52
377.74	622.58
377.93	660.03
378.13	629.60
378.33	730.25
378.52	596.84
378.72	636.63
378.91	613.22
379.11	545.34
379.31	620.24
379.50	557.05
379.70	723.23
379.89	702.16
380.09	657.69
380.28	592.16
380.48	662.37
380.68	599.18
380.87	655.35
381.07	613.22
381.26	777.06
381.46	653.01
381.65	681.10
381.85	648.33
382.04	674.07
382.24	709.18
382.43	622.58
382.63	676.41
382.83	648.33
383.02	655.35
383.22	692.80
383.41	690.46
383.61	723.23
383.80	767.70
384.00	676.41
384.19	716.20
384.39	685.78
384.58	788.76
384.78	699.82
384.97	650.67
385.17	835.57
385.36	730.25
385.56	793.44
385.75	788.76
385.95	727.91
386.14	849.61
386.34	833.23
386.53	748.97
386.72	784.08
386.92	917.49
387.11	882.38
387.31	826.21
387.50	791.10
387.70	688.12
387.89	793.44
388.09	819.19
388.28	840.25
388.48	847.27
388.67	908.13
388.86	791.10
389.06	936.21
389.25	884.72
389.45	896.43
389.64	882.38
389.84	968.98
390.03	905.79
390.22	1013.45
390.42	929.19
390.61	919.83
390.81	887.06
391.00	929.19
391.19	901.11
391.39	919.83
391.58	1048.56
391.78	971.32
391.97	990.05
392.16	917.49
392.36	1041.54
392.55	1029.84
392.75	978.34
392.94	1013.45
393.13	891.74
393.33	929.19
393.52	957.28
393.71	987.71
393.91	1050.90
394.10	1025.15
394.29	1104.73
394.49	1055.58
394.68	1102.39
394.88	1071.97
395.07	1132.82
395.26	1057.92
395.46	1109.41
395.65	1104.73
395.84	1160.91
396.04	1228.78
396.23	1109.41
396.42	1128.14
396.62	1149.20
396.81	1160.91
397.00	1174.95
397.19	1123.46
397.39	1102.39
397.58	1329.42
397.77	1170.27
397.97	1256.87
398.16	1320.06
398.35	1235.80
398.55	1235.80
398.74	1135.16
398.93	1322.40
399.12	1315.38
399.32	1329.42
399.51	1315.38
399.70	1378.58
399.90	1394.96
400.09	1434.75
400.28	1416.02
400.47	1334.11
400.67	1385.60
400.86	1413.68
401.05	1409.00
401.24	1420.71
401.44	1469.86
401.63	1519.01
401.82	1479.22
402.01	1561.14
402.21	1523.69
402.40	1467.52
402.59	1481.56
402.78	1490.92
402.97	1516.67
403.17	1607.95
403.36	1460.49
403.55	1584.54
403.74	1598.59
403.93	1685.19
404.13	1636.03
404.32	1699.23
404.51	1568.16
404.70	1598.59
404.89	1621.99
405.09	1722.63
405.28	1771.79
405.47	1689.87
405.66	1736.68
405.85	1760.08
406.05	1661.78
406.24	1696.89
406.43	1790.51
406.62	1856.04
406.81	1816.26
407.00	1830.30
407.20	1872.43
407.39	1813.92
407.58	1827.96
407.77	1886.47
407.96	1858.39
408.15	1827.96
408.34	1886.47
408.54	1973.07
408.73	1928.60
408.92	1989.46
409.11	1860.73
409.30	1937.96
409.49	2008.18
409.68	2108.82
409.87	2062.01
410.07	2143.93
410.26	2040.95
410.45	2214.15
410.64	2036.27
410.83	2232.87
411.02	2200.10
411.21	2136.91
411.40	2232.87
411.59	2340.54
411.78	2253.94
411.98	2279.68
412.17	2307.77
412.36	2387.35
412.55	2401.39
412.74	2373.30
412.93	2401.39
413.12	2303.09
413.31	2590.97
413.50	2445.86
413.69	2537.14
413.88	2548.84
414.07	2539.48
414.26	2518.42
414.45	2621.40
414.64	2562.89
414.83	2544.16
415.02	2572.25
415.22	2649.49
415.41	2729.06
415.60	2698.64
415.79	2806.30
415.98	2764.17
416.17	2782.90
416.36	2860.13
416.55	2778.22
416.74	2920.99
416.93	2778.22
417.12	2897.58
417.31	3021.63
417.50	2970.14
417.69	2953.76
417.88	3082.49
418.07	3040.36
418.26	3098.87
418.45	3023.97
418.64	3218.24
418.83	3173.77
419.02	3183.13
419.21	3119.93
419.39	3133.98
419.58	3112.91
419.77	3148.02
419.96	3215.90
420.15	3297.81
420.34	3227.60
420.53	3307.18
420.72	3377.39
420.91	3325.90
421.10	3279.09
421.29	3349.31
421.48	3314.20
421.67	3475.70
421.86	3325.90
422.05	3438.25
422.24	3370.37
422.43	3344.63
422.61	3428.88
422.80	3562.30
422.99	3620.81
423.18	3562.30
423.37	3543.57
423.56	3435.91
423.75	3515.48
423.94	3384.41
424.13	3251.00
424.32	3407.82
424.50	3433.57
424.69	3569.32
424.88	3592.72
425.07	3637.19
425.26	3389.10
425.45	3520.17
425.64	3503.78
425.83	3574.00
426.01	3503.78
426.20	3646.55
426.39	3492.08
426.58	3517.83
426.77	3557.61
426.96	3592.72
427.15	3506.12
427.33	3660.60
427.52	3644.21
427.71	3658.26
427.90	3684.00
428.09	3698.05
428.28	3611.45
428.46	3770.60
428.65	3765.92
428.84	3852.52
429.03	3868.91
429.22	3775.28
429.40	3794.01
429.59	3772.94
429.78	3531.87
429.97	3501.44
430.16	3684.00
430.34	3747.20
430.53	3894.65
430.72	3829.12
430.91	3824.44
431.10	3822.09
431.28	4037.42
431.47	3971.89
431.66	4222.33
431.85	3985.93
432.03	4147.43
432.22	4152.11
432.41	4156.79
432.60	4180.20
432.79	4201.26
432.97	4203.60
433.16	4227.01
433.35	4161.47
433.54	4175.52
433.72	4187.22
433.91	4159.13
434.10	4191.90
434.28	4149.77
434.47	4245.73
434.66	4414.25
434.85	4390.84
435.03	4395.53
435.22	4402.55
435.41	4552.34
435.59	4294.88
435.78	4695.11
435.97	4449.36
436.16	4437.66
436.34	4571.07
436.53	4524.26
436.72	4526.60
436.90	4489.15
437.09	4678.73
437.28	4634.26
437.46	4599.15
437.65	4528.94
437.84	4732.56
438.02	4690.43
438.21	4660.01
438.40	4575.75
438.58	4746.61
438.77	4880.02
438.96	4770.01
439.14	4999.38
439.33	4887.04
439.52	5085.98
439.70	4990.02
439.89	4994.70
440.08	5198.33
440.26	5111.73
440.45	5015.77
440.63	5277.91
440.82	5256.84
441.01	5235.78
441.19	5334.08
441.38	5521.32
441.57	5362.17
441.75	5341.10
441.94	5668.78
442.12	5664.10
442.31	5509.62
442.50	5678.14
442.68	5533.03
442.87	5605.58
443.05	5619.63
443.24	5619.63
443.43	5687.50
443.61	5820.91
443.80	5771.76
443.98	5607.92
444.17	5500.26
444.35	5685.16
444.54	5858.36
444.73	5767.08
444.91	5832.62
445.10	5654.73
445.28	5706.23
445.47	5596.22
445.65	5666.44
445.84	5668.78
446.02	5867.72
446.21	5790.49
446.39	5846.66
446.58	5996.45
446.77	6026.88
446.95	5685.16
447.14	5720.27
447.32	6033.90
447.51	5764.74
447.69	5795.17
447.88	5750.70
448.06	5933.26
448.25	6127.52
448.43	5982.41
448.62	5928.58
448.80	5942.62
448.99	6052.63
449.17	5940.28
449.36	5788.14
449.54	5966.03
449.73	6181.35
449.91	6228.17
450.10	6134.54
450.28	6340.51
450.46	6349.87
450.65	6384.98
450.83	6164.97
451.02	6399.02
451.20	6392.00
451.39	6277.32
451.57	6289.02
451.76	6401.37
451.94	6546.48
452.13	6509.03
452.31	6576.91
452.49	6085.39
452.68	6403.71
452.86	6429.45
453.05	6651.80
453.23	6392.00
453.42	6537.12
453.60	6415.41
453.78	6586.27
453.97	6663.51
454.15	6602.65
454.34	6607.33
454.52	6647.12
454.70	6703.29
454.89	6602.65
455.07	6806.28
455.26	6839.05
455.44	7068.42
455.62	6911.60
455.81	6820.32
455.99	6864.79
456.17	6860.11
456.36	6923.30
456.54	7080.12
456.73	7145.66
456.91	7220.55
457.09	7126.93
457.28	7463.97
457.46	7173.74
457.64	7129.27
457.83	7211.19
458.01	7122.25
458.19	7356.30
458.38	7370.35
458.56	7309.49
458.74	7400.77
458.93	7405.46
459.11	7424.18
459.29	7262.68
459.48	7377.37
459.66	7363.33
459.84	7302.47
460.03	7634.83
460.21	7482.69
460.39	7569.29
460.57	7527.16
460.76	7501.42
460.94	7566.95
461.12	7578.65
461.31	7616.10
461.49	7599.72
461.67	7662.91
461.85	7903.99
462.04	7648.87
462.22	8423.59
462.40	8074.85
462.59	7953.14
462.77	7859.52
462.95	8159.11
463.13	7939.10
463.32	7943.78
463.50	7913.35
463.68	7985.91
463.86	7962.50
464.05	8030.38
464.23	7920.37
464.41	8112.30
464.59	8116.98
464.78	8163.79
464.96	8156.77
465.14	8065.49
465.32	8306.56
465.50	8358.05
465.69	8191.88
465.87	8339.33
466.05	8231.66
466.23	8161.45
466.41	8313.58
466.60	8573.38
466.78	8332.31
466.96	8393.16
467.14	8360.39
467.32	8210.60
467.51	8421.25
467.69	8533.59
467.87	8376.78
468.05	8587.43
468.23	8641.26
468.41	8507.85
468.60	8437.63
468.78	8807.44
468.96	8461.04
469.14	8535.93
469.32	8549.98
469.50	8566.36
469.69	8779.35
469.87	8828.50
470.05	8898.72
470.23	9022.77
470.41	8936.17
470.59	8842.54
470.77	8718.50
470.95	8975.95
471.14	9125.75
471.32	8884.67
471.50	9212.35
471.68	9200.65
471.86	9235.75
472.04	9273.20
472.22	9373.85
472.40	9111.71
472.58	9301.29
472.77	9249.80
472.95	9507.26
473.13	9619.60
473.31	9348.10
473.49	9376.19
473.67	9427.68
473.85	9661.73
474.03	9785.78
474.21	9900.47
474.39	10043.24
474.57	9776.42
474.75	10099.41
474.93	10132.18
475.12	10120.48
475.30	10094.73
475.48	10164.95
475.66	10319.42
475.84	10097.07
476.02	10244.52
476.20	10305.38
476.38	10630.71
476.56	11040.31
476.74	10509.01
476.92	10590.92
477.10	10607.31
477.28	10736.04
477.46	10633.05
477.64	10799.23
477.82	11066.05
478.00	11220.53
478.18	11201.80
478.36	11386.71
478.54	11211.17
478.72	11475.65
478.90	11531.82
479.08	11915.67
479.26	11632.46
479.44	12063.12
479.62	11946.09
479.80	12081.85
479.98	12149.72
480.16	12301.86
480.34	12248.02
480.52	12372.07
480.70	12475.06
480.88	11981.20
481.06	12500.80
481.24	12559.31
481.41	12713.79
481.59	12737.20
481.77	12891.67
481.95	12978.27
482.13	13067.21
482.31	13027.42
482.49	13444.04
482.67	13532.98
482.85	13612.56
483.03	13767.03
483.21	13687.45
483.39	13975.34
483.57	13633.62
483.74	13902.78
483.92	14181.31
484.10	14015.13
484.28	14476.21
484.46	14508.98
484.64	14792.19
484.82	14506.64
485.00	14747.72
485.18	15066.03
485.35	14930.28
485.53	14993.47
485.71	14714.95
485.89	15192.42
486.07	15133.90
486.25	15267.31
486.43	15704.99
486.61	15779.89
486.78	15721.38
486.96	15892.24
487.14	16091.18
487.32	16046.71
487.50	16304.17
487.68	16538.23
487.85	16453.97
488.03	16870.58
488.21	16922.07
488.39	16924.41
488.57	17404.22
488.75	17046.12
488.92	17294.22
489.10	17848.93
489.28	17598.49
489.46	17834.88
489.64	17703.81
489.81	18185.96
489.99	18244.48
490.17	18195.32
490.35	18504.28
490.53	18499.59
490.70	18410.65
490.88	18630.66
491.06	18934.93
491.24	18855.36
491.41	18862.38
491.59	19051.96
491.77	18965.36
491.95	19161.97
492.13	19646.46
492.30	19777.53
492.48	19609.01
492.66	19669.86
492.84	19559.86
493.01	19885.19
493.19	20016.26
493.37	20044.35
493.54	20465.64
493.72	20400.11
493.90	20685.65
494.08	20992.26
494.25	21015.67
494.43	21310.58
494.61	21048.44
494.79	21207.59
494.96	20985.24
495.14	21378.45
495.32	21991.67
495.49	21598.46
495.67	21392.50
495.85	21855.92
496.02	22244.45
496.20	22417.65
496.38	22223.39
496.55	22530.00
496.73	22768.73
496.91	22635.32
497.09	22747.67
497.26	22888.10
497.44	22892.78
497.62	22860.01
497.79	23307.05
497.97	22981.72
498.14	23049.60
498.32	23227.48
498.50	23477.91
498.67	23550.47
498.85	23838.36
499.03	23831.33
499.20	24285.40
499.38	24044.32
499.56	23887.51
499.73	24156.67
499.91	24521.79
500.08	24386.04
500.26	24079.43
500.44	24741.80
500.61	24442.21
500.79	24535.84
500.97	24655.20
501.14	25132.67
501.32	25179.48
501.49	24868.19
501.67	24917.34
501.84	25076.50
502.02	25228.63
502.20	25575.03
502.37	25671.00
502.55	25514.18
502.72	25766.96
502.90	25661.63
503.07	25713.13
503.25	26001.01
503.43	26071.23
503.60	25965.90
503.78	26246.77
503.95	26129.74
504.13	26352.09
504.30	26429.33
504.48	26185.91
504.65	26469.12
504.83	26808.50
505.01	26773.39
505.18	26628.27
505.36	27026.17
505.53	26817.86
505.71	27072.98
505.88	27204.05
506.06	26796.79
506.23	27019.14
506.41	27002.76
506.58	27505.98
506.76	27555.13
506.93	27524.70
507.11	27480.23
507.28	28091.11
507.46	27552.79
507.63	27700.24
507.81	28449.21
507.98	27850.03
508.16	27974.08
508.33	28292.40
508.50	28208.14
508.68	28315.80
508.85	28823.70
509.03	28807.31
509.20	28985.19
509.38	28687.95
509.55	28959.45
509.73	28739.44
509.90	28889.23
510.08	28673.90
510.25	29406.49
510.42	29261.38
510.60	29383.09
510.77	29724.80
510.95	29731.83
511.12	29673.31
511.30	29427.56
511.47	29722.46
511.64	29823.11
511.82	30206.95
511.99	29993.97
512.17	30174.19
512.34	29900.34
512.51	30251.42
512.69	30237.38
512.86	30099.29
513.04	30710.17
513.21	30590.80
513.38	30478.46
513.56	30429.30
513.73	30431.65
513.90	30595.48
514.08	30747.62
514.25	30445.69
514.43	30916.14
514.60	30611.87
514.77	31213.38
514.95	31077.63
515.12	31147.85
515.29	31400.63
515.47	31522.34
515.64	31487.23
515.81	31707.24
515.99	31622.98
516.16	31578.51
516.33	31782.13
516.51	31835.97
516.68	31445.10
516.85	31522.34
517.03	31358.50
517.20	31868.73
517.37	31962.36
517.54	32039.59
517.72	31929.59
517.89	32039.59
518.06	32315.78
518.24	31601.91
518.41	31737.66
518.58	32191.73
518.75	32158.96
518.93	32589.62
519.10	32563.87
519.27	32694.94
519.45	32465.57
519.62	32837.72
519.79	33134.96
519.96	33312.84
520.14	33123.26
520.31	32861.12
520.48	33163.05
520.65	32844.74
520.83	33448.60
521.00	33338.59
521.17	33240.29
521.34	33689.67
521.52	33614.77
521.69	33727.12
521.86	33912.02
522.03	34129.69
522.20	33947.13
522.38	34110.97
522.55	34169.48
522.72	34265.44
522.89	34103.95
523.07	34309.91
523.24	33684.99
523.41	34092.24
523.58	34052.45
523.75	34621.20
523.92	34314.59
524.10	34995.69
524.27	34726.53
524.44	34873.98
524.61	34913.77
524.78	35007.39
524.96	35124.42
525.13	35218.04
525.30	35180.59
525.47	35337.41
525.64	35381.88
525.81	35314.00
525.98	35571.46
526.16	35012.07
526.33	34955.90
526.50	35938.93
526.67	35033.14
526.84	34937.18
527.01	35150.17
527.18	35676.79
527.36	35763.39
527.53	35374.86
527.70	36329.80
527.87	35934.24
528.04	35929.56
528.21	36135.53
528.38	35873.39
528.55	36114.47
528.72	36404.69
528.89	36418.74
529.07	36290.01
529.24	36219.79
529.41	36006.80
529.58	36449.16
529.75	36114.47
529.92	36680.88
530.09	36858.76
530.26	36238.51
530.43	36924.29
530.60	36900.89
530.77	36898.55
530.94	36650.45
531.11	36818.97
531.28	36783.86
531.46	36788.54
531.63	36945.36
531.80	37099.83
531.97	37268.35
532.14	37315.16
532.31	37038.98
532.48	37160.69
532.65	37397.08
532.82	37418.14
532.99	37226.22
533.16	37212.18
533.33	37233.24
533.50	37820.72
533.67	37549.21
533.84	37483.68
534.01	38073.49
534.18	37453.25
534.35	38068.81
534.52	37771.57
534.69	38054.77
534.86	38279.46
535.03	37713.05
535.20	37797.31
535.37	38424.57
535.54	38761.61
535.71	38281.80
535.88	38220.95
536.05	38281.80
536.22	38253.72
536.38	38391.81
536.55	38415.21
536.72	38279.46
536.89	38258.40
537.06	38389.47
537.23	38548.62
537.40	38462.02
537.57	38529.90
537.74	38927.79
537.91	39112.69
538.08	38703.10
538.25	38693.74
538.42	38820.13
538.59	39091.63
538.75	38679.69
538.92	38902.04
539.09	39054.18
539.26	39185.25
539.43	39370.15
539.60	38745.23
539.77	38986.30
539.94	39248.44
540.11	39129.08
540.28	39145.46
540.44	38965.24
540.61	39218.02
540.78	39180.57
540.95	39562.08
541.12	39529.31
541.29	39166.52
541.46	39491.86
541.62	39814.85
541.79	40011.46
541.96	39800.81
542.13	39433.35
542.30	39615.91
542.47	40076.99
542.63	40093.38
542.80	39892.09
542.97	40250.19
543.14	40315.73
543.31	40238.49
543.48	40271.26
543.64	40673.83
543.81	40800.22
543.98	40065.29
544.15	40341.47
544.32	40772.13
544.48	40629.36
544.65	40425.73
544.82	40428.07
544.99	40456.16
545.16	40463.18
545.32	40383.60
545.49	40685.53
545.66	40996.82
545.83	40889.16
546.00	40868.09
546.16	40856.39
546.33	40844.69
546.50	40435.10
546.67	40793.20
546.83	40711.28
547.00	40933.63
547.17	40926.61
547.34	40718.30
547.50	41109.17
547.67	41347.90
547.84	41551.53
548.00	42176.45
548.17	41624.09
548.34	41294.07
548.51	41364.29
548.67	41212.15
548.84	41500.04
549.01	41670.90
549.18	41617.07
549.34	41350.24
549.51	41647.49
549.68	41914.31
549.84	41972.83
550.01	41942.40
550.18	41914.31
550.34	41780.90
550.51	41785.58
550.68	41139.60
550.84	41422.80
551.01	42103.90
551.18	41738.77
551.34	42003.25
551.51	41820.69
551.68	41764.52
551.84	42106.24
552.01	41614.72
552.18	42361.36
552.34	42167.09
552.51	42422.21
552.68	41883.89
552.84	42391.78
553.01	42309.86
553.18	42293.48
553.34	42281.78
553.51	42045.38
553.67	41841.76
553.84	42909.04
554.01	42667.97
554.17	42330.93
554.34	42904.36
554.51	42504.13
554.67	43016.71
554.84	42665.63
555.00	42515.83
555.17	42227.95
555.33	42761.59
555.50	42602.43
555.67	43023.73
555.83	42635.20
556.00	42782.65
556.16	42934.79
556.33	42532.22
556.50	42724.14
556.66	42766.27
556.83	43100.97
556.99	43086.92
557.16	42930.11
557.32	43005.00
557.49	43498.86
557.65	43047.13
557.82	42927.77
557.98	43016.71
558.15	43171.18
558.32	43000.32
558.48	43072.88
558.65	42934.79
558.81	43147.78
558.98	43323.32
559.14	43290.55
559.31	43264.80
559.47	43173.52
559.64	43400.55
559.80	43564.39
559.97	43047.13
560.13	43459.07
560.30	43419.28
560.46	43297.57
560.63	43325.66
560.79	43484.81
560.96	43510.56
561.12	43175.86
561.29	43112.67
561.45	43346.72
561.61	43489.49
561.78	43360.76
561.94	43054.15
562.11	43540.99
562.27	43344.38
562.44	43665.03
562.60	43805.47
562.77	43414.60
562.93	43885.04
563.10	44079.31
563.26	43587.80
563.42	43786.74
563.59	43941.22
563.75	43674.40
563.92	44032.50
564.08	43859.30
564.24	43861.64
564.41	44196.34
564.57	43681.42
564.74	43924.83
564.90	43449.70
565.07	44065.27
565.23	43763.34
565.39	43845.26
565.56	43730.57
565.72	43522.26
565.88	43796.10
566.05	43835.89
566.21	43854.62
566.38	43826.53
566.54	44158.89
566.70	44203.36
566.87	44484.22
567.03	43526.94
567.19	44470.18
567.36	44128.46
567.52	43746.95
567.68	44289.96
567.85	43721.21
568.01	43772.70
568.17	44016.11
568.34	44041.86
568.50	44041.86
568.66	44081.65
568.83	43770.36
568.99	44296.98
569.15	44320.38
569.32	44304.00
569.48	44023.14
569.64	44505.29
569.81	44275.91
569.97	44240.81
570.13	44170.59
570.30	43714.19
570.46	43812.49
570.62	43681.42
570.78	43634.61
570.95	44367.20
571.11	44414.01
571.27	44208.04
571.43	44002.07
571.60	44680.83
571.76	43969.30
571.92	44509.97
572.09	44282.94
572.25	44292.30
572.41	43941.22
572.57	44381.24
572.74	44463.16
572.90	44067.61
573.06	44865.73
573.22	44753.38
573.38	44240.81
573.55	44119.10
573.71	44449.11
573.87	44470.18
574.03	44406.98
574.20	44430.39
574.36	44397.62
574.52	44437.41
574.68	44432.73
574.84	44596.57
575.01	44540.39
575.17	44521.67
575.33	43370.13
575.49	44128.46
575.65	44474.86
575.82	44634.02
575.98	44133.14
576.14	44802.53
576.30	44168.25
576.46	43917.81
576.62	43927.17
576.79	44168.25
576.95	43988.03
577.11	44355.49
577.27	44451.45
577.43	44421.03
577.59	44528.69
577.75	44203.36
577.92	44376.56
578.08	44376.56
578.24	44217.40
578.40	44329.75
578.56	44268.89
578.72	44718.28
578.88	44741.68
579.04	44067.61
579.21	44425.71
579.37	44212.72
579.53	44006.75
579.69	44385.92
579.85	44807.22
580.01	44540.39
580.17	44149.53
580.33	44739.34
580.49	44467.84
580.65	44563.80
580.82	44800.19
580.98	44577.84
581.14	44432.73
581.30	44554.44
581.46	44720.62
581.62	44568.48
581.78	44226.76
581.94	44818.92
582.10	44924.24
582.26	44645.72
582.42	44531.03
582.58	44524.01
582.74	44753.38
582.90	44540.39
583.06	45015.52
583.22	44774.45
583.38	45177.02
583.54	44652.74
583.70	44734.66
583.86	44395.28
584.02	44046.54
584.18	44556.78
584.34	44598.91
584.50	44765.09
584.66	44308.68
584.82	44505.29
584.98	44809.56
585.14	44467.84
585.30	44598.91
585.46	44687.85
585.62	44343.79
585.78	44421.03
585.94	44315.70
586.10	44603.59
586.26	43959.94
586.42	44910.20
586.58	44421.03
586.74	44776.79
586.90	44320.38
587.06	44488.90
587.22	44776.79
587.38	44561.46
587.54	44542.74
587.70	44872.75
587.86	44430.39
588.02	44739.34
588.18	44931.26
588.34	44774.45
588.49	44299.32
588.65	44416.35
588.81	44423.37
588.97	44416.35
589.13	44643.38
589.29	44484.22
589.45	44662.10
589.61	44779.13
589.77	45160.64
589.93	44935.95
590.08	44954.67
590.24	45017.86
