SpectraSuite Data File
++++++++++++++++++++++++++++++++++++
Date: Fri Oct 25 10:48:24 EDT 2013
User: price-jones
Dark Spectrum Present: No
Reference Spectrum Present: No
Number of Sampled Component Spectra: 1
Spectrometers: USB2+H05261
Integration Time (usec): 100000 (USB2+H05261)
Spectra Averaged: 1 (USB2+H05261)
Boxcar Smoothing: 0 (USB2+H05261)
Correct for Electrical Dark: No (USB2+H05261)
Strobe/Lamp Enabled: No (USB2+H05261)
Correct for Detector Non-linearity: No (USB2+H05261)
Correct for Stray Light: No (USB2+H05261)
Number of Pixels in Processed Spectrum: 2048
>>>>>Begin Processed Spectral Data<<<<<
365.73	124.05
365.92	124.05
366.12	124.05
366.32	0.00
366.52	16.38
366.72	110.01
366.91	70.22
367.11	79.58
367.31	46.81
367.51	39.79
367.70	42.13
367.90	67.88
368.10	53.83
368.30	16.38
368.49	23.41
368.69	105.32
368.89	119.37
369.09	102.98
369.28	126.39
369.48	65.54
369.68	77.24
369.87	72.56
370.07	159.16
370.27	184.90
370.47	212.99
370.66	337.04
370.86	421.30
371.06	479.81
371.25	524.28
371.45	472.79
371.65	489.17
371.84	491.51
372.04	514.92
372.24	498.53
372.44	493.85
372.63	615.56
372.83	531.30
373.03	482.15
373.22	498.53
373.42	550.03
373.62	454.06
373.81	554.71
374.01	589.82
374.21	538.32
374.40	505.56
374.60	641.31
374.79	573.43
374.99	606.20
375.19	592.16
375.38	543.00
375.58	519.60
375.78	596.84
375.97	580.45
376.17	615.56
376.37	664.71
376.56	671.73
376.76	674.07
376.95	664.71
377.15	648.33
377.35	638.97
377.54	746.63
377.74	634.29
377.93	613.22
378.13	676.41
378.33	629.60
378.52	645.99
378.72	674.07
378.91	683.44
379.11	683.44
379.31	664.71
379.50	634.29
379.70	634.29
379.89	763.01
380.09	655.35
380.28	643.65
380.48	702.16
380.68	657.69
380.87	692.80
381.07	667.05
381.26	713.86
381.46	660.03
381.65	697.48
381.85	727.91
382.04	725.57
382.24	711.52
382.43	697.48
382.63	718.54
382.83	692.80
383.02	725.57
383.22	683.44
383.41	737.27
383.61	786.42
383.80	734.93
384.00	767.70
384.19	709.18
384.39	702.16
384.58	723.23
384.78	774.72
384.97	873.02
385.17	725.57
385.36	737.27
385.56	866.00
385.75	901.11
385.95	809.83
386.14	828.55
386.34	880.04
386.53	854.30
386.72	772.38
386.92	884.72
387.11	896.43
387.31	866.00
387.50	802.80
387.70	901.11
387.89	889.40
388.09	938.55
388.28	816.85
388.48	924.51
388.67	1006.43
388.86	842.59
389.06	945.58
389.25	866.00
389.45	933.87
389.64	976.00
389.84	992.39
390.03	940.90
390.22	961.96
390.42	1008.77
390.61	983.02
390.81	1034.52
391.00	1083.67
391.19	1104.73
391.39	1039.20
391.58	1128.14
391.78	1048.56
391.97	1057.92
392.16	1001.75
392.36	1086.01
392.55	1076.65
392.75	1067.28
392.94	1062.60
393.13	973.66
393.33	1034.52
393.52	1071.97
393.71	1039.20
393.91	1060.26
394.10	1069.62
394.29	1095.37
394.49	1158.57
394.68	1153.88
394.88	1125.80
395.07	1177.29
395.26	1186.65
395.46	1163.25
395.65	1268.57
395.84	1165.59
396.04	1238.14
396.23	1174.95
396.42	1095.37
396.62	1083.67
396.81	1259.21
397.00	1142.18
397.19	1132.82
397.39	1404.32
397.58	1348.15
397.77	1357.51
397.97	1453.47
398.16	1418.36
398.35	1451.13
398.55	1341.13
398.74	1406.66
398.93	1486.24
399.12	1490.92
399.32	1483.90
399.51	1472.20
399.70	1572.84
399.90	1441.77
400.09	1401.98
400.28	1610.29
400.47	1586.88
400.67	1598.59
400.86	1598.59
401.05	1598.59
401.24	1607.95
401.44	1675.82
401.63	1617.31
401.82	1762.42
402.01	1654.76
402.21	1643.06
402.40	1612.63
402.59	1582.20
402.78	1734.34
402.97	1638.38
403.17	1771.79
403.36	1827.96
403.55	1720.29
403.74	1774.13
403.93	1720.29
404.13	1830.30
404.32	1839.66
404.51	1858.39
404.70	1837.32
404.89	1781.15
405.09	1914.56
405.28	1886.47
405.47	1818.60
405.66	1952.01
405.85	1870.09
406.05	1888.81
406.24	1930.94
406.43	1921.58
406.62	2036.27
406.81	2010.52
407.00	2054.99
407.20	1893.49
407.39	1989.46
407.58	2062.01
407.77	2111.16
407.96	2146.27
408.15	2141.59
408.34	2125.21
408.54	2155.63
408.73	2188.40
408.92	2157.97
409.11	2162.66
409.30	2211.81
409.49	2221.17
409.68	2237.55
409.87	2195.42
410.07	2242.23
410.26	2314.79
410.45	2331.17
410.64	2340.54
410.83	2242.23
411.02	2424.80
411.21	2534.80
411.40	2307.77
411.59	2450.54
411.78	2438.84
411.98	2478.63
412.17	2530.12
412.36	2551.18
412.55	2602.68
412.74	2541.82
412.93	2565.23
413.12	2619.06
413.31	2766.51
413.50	2757.15
413.69	2679.91
413.88	2747.79
414.07	2766.51
414.26	2722.04
414.45	2916.31
414.64	2874.18
414.83	2986.52
415.02	2928.01
415.22	3038.02
415.41	2981.84
415.60	3005.25
415.79	2883.54
415.98	3035.67
416.17	3108.23
416.36	3119.93
416.55	3098.87
416.74	3269.73
416.93	3084.83
417.12	3194.83
417.31	3290.79
417.50	3363.35
417.69	3353.99
417.88	3183.13
418.07	3246.32
418.26	3337.60
418.45	3302.50
418.64	3431.23
418.83	3471.01
419.02	3482.72
419.21	3468.67
419.39	3459.31
419.58	3440.59
419.77	3311.86
419.96	3555.27
420.15	3590.38
420.34	3550.59
420.53	3590.38
420.72	3613.79
420.91	3559.95
421.10	3655.92
421.29	3758.90
421.48	3686.34
421.67	3634.85
421.86	3655.92
422.05	3702.73
422.24	3639.53
422.43	3620.81
422.61	3779.97
422.80	3831.46
422.99	3702.73
423.18	3665.28
423.37	3815.07
423.56	3721.45
423.75	3693.37
423.94	3801.03
424.13	3524.85
424.32	3674.64
424.50	3831.46
424.69	3936.78
424.88	3829.12
425.07	3861.88
425.26	3829.12
425.45	3836.14
425.64	3861.88
425.83	3794.01
426.01	3885.29
426.20	3880.61
426.39	3915.72
426.58	3737.84
426.77	3728.47
426.96	3829.12
427.15	3976.57
427.33	3882.95
427.52	3915.72
427.71	3925.08
427.90	4124.02
428.09	3934.44
428.28	3971.89
428.46	3915.72
428.65	4039.76
428.84	4187.22
429.03	4126.36
429.22	4056.15
429.40	4051.47
429.59	4070.19
429.78	3840.82
429.97	3786.99
430.16	3983.59
430.34	4009.34
430.53	4037.42
430.72	4124.02
430.91	3943.80
431.10	4231.69
431.28	4404.89
431.47	4442.34
431.66	4397.87
431.85	4308.93
432.03	4486.81
432.22	4528.94
432.41	4416.59
432.60	4667.03
432.79	4503.19
432.97	4599.15
433.16	4739.58
433.35	4395.53
433.54	4594.47
433.72	4521.92
433.91	4557.02
434.10	4592.13
434.28	4739.58
434.47	4678.73
434.66	4730.22
434.85	4652.98
435.03	4802.78
435.22	4765.33
435.41	4809.80
435.59	4968.96
435.78	4847.25
435.97	4793.42
436.16	4863.63
436.34	4938.53
436.53	5071.94
436.72	5004.07
436.90	4830.87
437.09	5076.62
437.28	4985.34
437.46	5062.58
437.65	4936.19
437.84	5235.78
438.02	4926.83
438.21	5121.09
438.40	5055.56
438.58	5083.64
438.77	5217.05
438.96	5036.83
439.14	5380.89
439.33	5439.40
439.52	5324.72
439.70	5364.51
439.89	5446.43
440.08	5486.22
440.26	5364.51
440.45	5521.32
440.63	5584.52
440.82	5753.04
441.01	5830.27
441.19	5802.19
441.38	5853.68
441.57	5743.67
441.75	5851.34
441.94	6050.28
442.12	6066.67
442.31	6108.80
442.50	6083.05
442.68	6059.65
442.87	6202.42
443.05	6050.28
443.24	6237.53
443.43	6455.20
443.61	6141.57
443.80	6382.64
443.98	6148.59
444.17	5902.83
444.35	6164.97
444.54	6401.37
444.73	6179.01
444.91	6289.02
445.10	6176.67
445.28	6377.96
445.47	6073.69
445.65	6059.65
445.84	6303.06
446.02	6326.47
446.21	6274.98
446.39	6427.11
446.58	6417.75
446.77	6307.74
446.95	6186.04
447.14	6298.38
447.32	6443.49
447.51	6565.20
447.69	6513.71
447.88	6511.37
448.06	6368.60
448.25	6340.51
448.43	6441.15
448.62	6520.73
448.80	6469.24
448.99	6551.16
449.17	6661.16
449.36	6544.14
449.54	6717.34
449.73	6841.39
449.91	6761.81
450.10	6670.53
450.28	6958.41
450.46	6850.75
450.65	6925.65
450.83	6822.66
451.02	6883.52
451.20	7166.72
451.39	6913.94
451.57	7089.48
451.76	6956.07
451.94	7070.76
452.13	6925.65
452.31	6918.62
452.49	6733.72
452.68	7047.35
452.86	6951.39
453.05	7035.65
453.23	7159.70
453.42	7042.67
453.60	7124.59
453.78	7239.28
453.97	7194.81
454.15	7098.84
454.34	7145.66
454.52	7363.33
454.70	7192.47
454.89	7309.49
455.07	7309.49
455.26	7185.44
455.44	7482.69
455.62	7616.10
455.81	7478.01
455.99	7440.56
456.17	7548.23
456.36	7541.21
456.54	7700.36
456.73	7742.49
456.91	7761.22
457.09	7950.80
457.28	7992.93
457.46	7868.88
457.64	7927.39
457.83	7763.56
458.01	7854.84
458.19	7939.10
458.38	7850.16
458.56	7957.82
458.74	7906.33
458.93	8011.65
459.11	7988.25
459.29	8107.62
459.48	7815.05
459.66	8124.00
459.84	8131.02
460.03	8121.66
460.21	8203.58
460.39	8231.66
460.57	8098.25
460.76	8376.78
460.94	8365.07
461.12	8304.22
461.31	8397.84
461.49	8262.09
461.67	8299.54
461.85	8557.00
462.04	8346.35
462.22	9043.83
462.40	8573.38
462.59	8610.83
462.77	8390.82
462.95	8482.10
463.13	8629.56
463.32	8741.90
463.50	8774.67
463.68	8774.67
463.86	8617.85
464.05	8615.51
464.23	8659.98
464.41	8667.00
464.59	8695.09
464.78	9025.11
464.96	8898.72
465.14	8622.53
465.32	8849.57
465.50	9081.28
465.69	8945.53
465.87	8882.33
466.05	8915.10
466.23	8952.55
466.41	8936.17
466.60	9015.74
466.78	8739.56
466.96	9125.75
467.14	8791.05
467.32	9165.54
467.51	9074.26
467.69	9022.77
467.87	9022.77
468.05	9177.24
468.23	8945.53
468.41	9205.33
468.60	9331.72
468.78	9441.72
468.96	9415.98
469.14	9252.14
469.32	9355.12
469.50	9291.93
469.69	9619.60
469.87	9806.84
470.05	9631.30
470.23	9387.89
470.41	9598.54
470.59	9561.09
470.77	9511.94
470.95	9631.30
471.14	9858.34
471.32	9619.60
471.50	9935.57
471.68	9872.38
471.86	10057.28
472.04	10015.15
472.22	9994.09
472.40	9888.76
472.58	10087.71
472.77	9989.41
472.95	10263.25
473.13	10478.58
473.31	10216.44
473.49	9905.15
473.67	10459.85
473.85	10464.54
474.03	10555.82
474.21	10459.85
474.39	10672.84
474.57	10623.69
474.75	10724.33
474.93	10843.70
475.12	10785.19
475.30	10920.94
475.48	10920.94
475.66	11009.88
475.84	10754.76
476.02	10958.39
476.20	11042.65
476.38	11232.23
476.56	11389.05
476.74	11513.10
476.92	11398.41
477.10	11461.60
477.28	11564.59
477.46	11461.60
477.64	11845.45
477.82	11978.86
478.00	12123.98
478.18	12140.36
478.36	12009.29
478.54	12294.83
478.72	12266.75
478.90	12538.25
479.08	12475.06
479.26	12699.75
479.44	12856.56
479.62	12833.16
479.80	12826.14
479.98	13097.64
480.16	13275.52
480.34	13004.02
480.52	13055.51
480.70	13226.37
480.88	13385.52
481.06	13184.24
481.24	13647.66
481.41	13832.57
481.59	13724.90
481.77	14087.68
481.95	13855.97
482.13	13984.70
482.31	14022.15
482.49	14417.70
482.67	14626.01
482.85	14583.88
483.03	14682.18
483.21	14714.95
483.39	14904.53
483.57	14988.79
483.74	15096.46
483.92	15260.29
484.10	14806.23
484.28	15176.03
484.46	15655.84
484.64	15845.43
484.82	15426.47
485.00	15707.34
485.18	16128.63
485.35	16098.20
485.53	15847.77
485.71	16020.97
485.89	16145.02
486.07	16100.55
486.25	16503.12
486.43	16540.57
486.61	16695.04
486.78	16901.01
486.96	16929.09
487.14	17371.46
487.32	17111.66
487.50	17378.48
487.68	17624.23
487.85	17720.20
488.03	17841.90
488.21	18356.82
488.39	18249.16
488.57	18171.92
488.75	18403.63
488.92	18485.55
489.10	18757.05
489.28	18810.89
489.46	19075.37
489.64	18735.99
489.81	19239.20
489.99	19365.59
490.17	19508.37
490.35	19791.57
490.53	19751.78
490.70	19976.47
490.88	19896.89
491.06	20414.15
491.24	20285.42
491.41	20212.87
491.59	20311.17
491.77	20498.41
491.95	20627.14
492.13	20737.15
492.30	20872.90
492.48	20943.11
492.66	21128.02
492.84	21301.22
493.01	21692.08
493.19	21132.70
493.37	21923.80
493.54	21764.64
493.72	22246.79
493.90	22106.36
494.08	22307.65
494.25	22691.49
494.43	22295.94
494.61	22963.00
494.79	22600.21
494.96	22693.83
495.14	22958.31
495.32	23103.43
495.49	23164.28
495.67	23197.05
495.85	23590.26
496.02	23800.91
496.20	23452.17
496.38	23646.43
496.55	23857.08
496.73	24393.06
496.91	24364.98
497.09	24636.48
497.26	24376.68
497.44	24559.24
497.62	24477.32
497.79	24615.41
497.97	24512.43
498.14	24833.08
498.32	25383.11
498.50	25174.80
498.67	25497.80
498.85	25628.87
499.03	25816.11
499.20	25949.52
499.38	25577.37
499.56	26010.37
499.73	25671.00
499.91	25769.30
500.08	25949.52
500.26	25986.97
500.44	26403.58
500.61	26377.84
500.79	25991.65
500.97	26483.16
501.14	26590.83
501.32	25958.88
501.49	26529.97
501.67	26771.05
501.84	26661.04
502.02	26452.73
502.20	27171.28
502.37	27168.94
502.55	27292.99
502.72	27112.77
502.90	27424.06
503.07	27735.35
503.25	27901.53
503.43	27215.75
503.60	27702.58
503.78	27522.36
503.95	27725.99
504.13	27873.44
504.30	28140.26
504.48	27913.23
504.65	28112.17
504.83	28322.82
505.01	28362.61
505.18	28528.79
505.36	28800.29
505.53	28680.92
505.71	28893.91
505.88	28978.17
506.06	28755.82
506.23	28957.11
506.41	28919.66
506.58	29120.95
506.76	29146.69
506.93	29137.33
507.11	29221.59
507.28	29287.12
507.46	29715.44
507.63	29476.71
507.81	29626.50
507.98	29366.70
508.16	29883.96
508.33	30019.71
508.50	29743.53
508.68	30073.54
508.85	30448.03
509.03	30249.08
509.20	30441.01
509.38	30668.04
509.55	30497.18
509.73	30689.10
509.90	30773.36
510.08	30754.64
510.25	30756.98
510.42	30651.66
510.60	30838.90
510.77	31386.58
510.95	31367.86
511.12	31159.55
511.30	31101.04
511.47	31477.86
511.64	31974.06
511.82	31819.58
511.99	31782.13
512.17	31861.71
512.34	31571.49
512.51	31992.78
512.69	32100.45
512.86	31957.67
513.04	32142.58
513.21	32355.57
513.38	32259.60
513.56	32720.69
513.73	31901.50
513.90	32341.52
514.08	32652.81
514.25	32872.82
514.43	32542.81
514.60	32311.10
514.77	32708.99
514.95	32961.76
515.12	32739.41
515.29	32966.45
515.47	33123.26
515.64	33500.09
515.81	33057.73
515.99	33104.54
516.16	33132.62
516.33	32830.69
516.51	32929.00
516.68	32732.39
516.85	32704.31
517.03	33205.18
517.20	33823.08
517.37	33354.97
517.54	33736.48
517.72	33858.19
517.89	33656.90
518.06	33603.07
518.24	33310.50
518.41	33795.00
518.58	33993.94
518.75	33886.28
518.93	34213.95
519.10	34129.69
519.27	34536.94
519.45	34356.72
519.62	34670.36
519.79	34756.96
519.96	35154.85
520.14	35119.74
520.31	35108.04
520.48	35171.23
520.65	34855.26
520.83	35370.18
521.00	35445.07
521.17	35346.77
521.34	35405.28
521.52	35393.58
521.69	35482.52
521.86	35758.70
522.03	35894.46
522.20	35702.53
522.38	35959.99
522.55	35744.66
522.72	36013.82
522.89	35803.17
523.07	35952.97
523.24	35749.34
523.41	36575.55
523.58	36247.88
523.75	36774.50
523.92	36751.09
524.10	36685.56
524.27	36697.26
524.44	36603.64
524.61	37034.30
524.78	36886.84
524.96	37153.66
525.13	37141.96
525.30	37179.41
525.47	37071.75
525.64	37179.41
525.81	37095.15
525.98	37099.83
526.16	36634.06
526.33	36751.09
526.50	37228.56
526.67	36776.84
526.84	36779.18
527.01	37249.63
527.18	36989.83
527.36	37411.12
527.53	37942.42
527.70	38139.03
527.87	37479.00
528.04	37827.74
528.21	38164.78
528.38	37734.12
528.55	38543.94
528.72	38094.56
528.89	38775.66
529.07	38157.75
529.24	38347.34
529.41	38469.04
529.58	38347.34
529.75	38106.26
529.92	38480.75
530.09	38534.58
530.26	38557.99
530.43	38710.12
530.60	38314.57
530.77	38246.69
530.94	38719.48
531.11	38852.89
531.28	39009.71
531.46	39185.25
531.63	39257.81
531.80	39138.44
531.97	38855.23
532.14	38775.66
532.31	38567.35
532.48	39498.88
532.65	39061.20
532.82	39229.72
532.99	39178.23
533.16	38995.67
533.33	39639.31
533.50	39365.47
533.67	39321.00
533.84	39423.98
534.01	39459.09
534.18	39454.41
534.35	39920.18
534.52	39613.57
534.69	39880.39
534.86	40151.89
535.03	39672.08
535.20	39892.09
535.37	39683.78
535.54	40154.23
535.71	39906.13
535.88	39983.37
536.05	40362.54
536.22	40308.71
536.38	40418.71
536.55	40114.44
536.72	40308.71
536.89	40053.59
537.06	40027.84
537.23	40135.51
537.40	40453.82
537.57	40418.71
537.74	40362.54
537.91	40950.01
538.08	40652.76
538.25	40517.01
538.42	40685.53
538.59	41097.47
538.75	40818.94
538.92	40753.41
539.09	41446.21
539.26	40753.41
539.43	40779.15
539.60	41127.89
539.77	40889.16
539.94	40903.20
540.11	40802.56
540.28	41055.34
540.44	40896.18
540.61	40978.10
540.78	40825.96
540.95	41153.64
541.12	41219.17
541.29	41338.54
541.46	41289.39
541.62	41546.85
541.79	41750.48
541.96	41280.03
542.13	41710.69
542.30	41897.93
542.47	41652.17
542.63	42068.79
542.80	41439.18
542.97	42045.38
543.14	42373.06
543.31	41984.53
543.48	42597.75
543.64	42534.56
543.81	42548.60
543.98	42263.05
544.15	42195.18
544.32	42632.86
544.48	42625.84
544.65	42108.58
544.82	42445.62
544.99	42017.30
545.16	42426.89
545.32	42361.36
545.49	42604.77
545.66	42937.13
545.83	42712.44
546.00	42796.70
546.16	42838.83
546.33	42792.01
546.50	42731.16
546.67	42976.92
546.83	42398.80
547.00	42916.06
547.17	42653.92
547.34	43124.37
547.50	42796.70
547.67	43178.20
547.84	43126.71
548.00	43281.19
548.17	43667.37
548.34	43274.16
548.51	43583.12
548.67	43590.14
548.84	43548.01
549.01	43332.68
549.18	43098.62
549.34	43660.35
549.51	43564.39
549.68	43367.79
549.84	43835.89
550.01	43454.39
550.18	43438.00
550.34	43566.73
550.51	43613.54
550.68	43585.46
550.84	43157.14
551.01	43641.63
551.18	43545.67
551.34	44016.11
551.51	43803.13
551.68	43695.46
551.84	44041.86
552.01	44006.75
552.18	43952.92
552.34	43913.13
552.51	43784.40
552.68	43950.58
552.84	43896.75
553.01	44399.96
553.18	44083.99
553.34	43901.43
553.51	43955.26
553.67	44023.14
553.84	44725.30
554.01	44559.12
554.17	44549.76
554.34	44287.62
554.51	44392.94
554.67	44369.54
554.84	44229.10
555.00	44191.65
555.17	44378.90
555.33	44388.26
555.50	44395.28
555.67	44041.86
555.83	44261.87
556.00	44449.11
556.16	45450.86
556.33	44610.61
556.50	44215.06
556.66	44964.03
556.83	44816.58
556.99	44708.91
557.16	45001.48
557.32	44856.37
557.49	44830.62
557.65	44540.39
557.82	44470.18
557.98	44797.85
558.15	44671.46
558.32	45261.28
558.48	45085.74
558.65	44570.82
558.81	44570.82
558.98	44809.56
559.14	44807.22
559.31	45067.02
559.47	45015.52
559.64	45162.98
559.80	45265.96
559.97	45240.21
560.13	45071.70
560.30	44643.38
560.46	45305.75
560.63	44804.88
560.79	44821.26
560.96	45174.68
561.12	45043.61
561.29	45221.49
561.45	45298.73
561.61	45343.20
561.78	45235.53
561.94	45020.20
562.11	45661.51
562.27	45539.80
562.44	45064.67
562.60	45598.32
562.77	45368.94
562.93	45298.73
563.10	45755.13
563.26	45340.86
563.42	45720.02
563.59	45301.07
563.75	45464.91
563.92	45324.47
564.08	45382.99
564.24	45668.53
564.41	45834.71
564.57	45661.51
564.74	45329.16
564.90	45654.49
565.07	45022.54
565.23	45214.47
565.39	45511.72
565.56	45497.67
565.72	45584.27
565.88	45727.05
566.05	45649.81
566.21	45593.64
566.38	45539.80
566.54	45804.28
566.70	45792.58
566.87	45703.64
567.03	45457.88
567.19	45820.67
567.36	45546.82
567.52	45738.75
567.68	45446.18
567.85	45469.59
568.01	45792.58
568.17	45284.68
568.34	45970.46
568.50	45883.86
568.66	45488.31
568.83	45394.69
568.99	45373.63
569.15	45804.28
569.32	45525.76
569.48	45160.64
569.64	45968.12
569.81	45914.29
569.97	45790.24
570.13	45759.81
570.30	45471.93
570.46	45727.05
570.62	45233.19
570.78	45338.52
570.95	45605.34
571.11	45563.21
571.27	45710.66
571.43	45865.14
571.60	45867.48
571.76	45544.48
571.92	46169.41
572.09	45907.27
572.25	46021.95
572.41	45769.18
572.57	46160.05
572.74	46326.22
572.90	45907.27
573.06	46073.45
573.22	46050.04
573.38	45893.22
573.55	45511.72
573.71	46017.27
573.87	45757.47
574.03	45654.49
574.20	45771.52
574.36	45947.06
574.52	45724.71
574.68	46122.60
574.84	45485.97
575.01	45947.06
575.17	46040.68
575.33	45605.34
575.49	45731.73
575.65	46637.51
575.82	46019.61
575.98	46054.72
576.14	46300.48
576.30	45794.92
576.46	46045.36
576.62	45792.58
576.79	45823.01
576.95	45450.86
577.11	45986.85
577.27	45841.73
577.43	45879.18
577.59	45722.37
577.75	45645.13
577.92	45638.11
578.08	45457.88
578.24	45343.20
578.40	46115.58
578.56	45837.05
578.72	46000.89
578.88	46377.72
579.04	46024.29
579.21	45848.75
579.37	45652.15
579.53	45986.85
579.69	45834.71
579.85	45956.42
580.01	45806.62
580.17	45911.95
580.33	46366.01
580.49	46394.10
580.65	46169.41
580.82	46227.92
580.98	45862.80
581.14	45858.12
581.30	45933.01
581.46	46134.30
581.62	46071.10
581.78	46188.13
581.94	46630.49
582.10	46012.59
582.26	46373.03
582.42	46330.90
582.58	46260.69
582.74	45675.55
582.90	46012.59
583.06	46340.27
583.22	45820.67
583.38	46045.36
583.54	46354.31
583.70	46237.28
583.86	46113.23
584.02	45860.46
584.18	46195.15
584.34	46314.52
584.50	46607.09
584.66	46050.04
584.82	45916.63
584.98	46335.59
585.14	46183.45
585.30	45965.78
585.46	46333.24
585.62	45869.82
585.78	45989.19
585.94	45310.43
586.10	46012.59
586.26	45734.07
586.42	46202.18
586.58	46396.44
586.74	46176.43
586.90	45806.62
587.06	45858.12
587.22	46508.79
587.38	46181.11
587.54	46333.24
587.70	46021.95
587.86	46335.59
588.02	46153.02
588.18	45886.20
588.34	46031.32
588.49	45757.47
588.65	45495.33
588.81	45801.94
588.97	45764.49
589.13	45511.72
589.29	45972.80
589.45	45853.44
589.61	45862.80
589.77	46595.38
589.93	46012.59
