SpectraSuite Data File
++++++++++++++++++++++++++++++++++++
Date: Fri Oct 25 10:48:10 EDT 2013
User: price-jones
Dark Spectrum Present: No
Reference Spectrum Present: No
Number of Sampled Component Spectra: 1
Spectrometers: USB2+H05261
Integration Time (usec): 100000 (USB2+H05261)
Spectra Averaged: 1 (USB2+H05261)
Boxcar Smoothing: 0 (USB2+H05261)
Correct for Electrical Dark: No (USB2+H05261)
Strobe/Lamp Enabled: No (USB2+H05261)
Correct for Detector Non-linearity: No (USB2+H05261)
Correct for Stray Light: No (USB2+H05261)
Number of Pixels in Processed Spectrum: 2048
>>>>>Begin Processed Spectral Data<<<<<
365.73	102.98
365.92	102.98
366.12	102.98
366.32	14.04
366.52	2.34
366.72	32.77
366.91	58.51
367.11	56.17
367.31	0.00
367.51	84.26
367.70	37.45
367.90	28.09
368.10	112.35
368.30	0.00
368.49	60.85
368.69	102.98
368.89	53.83
369.09	67.88
369.28	67.88
369.48	53.83
369.68	119.37
369.87	140.43
370.07	107.66
370.27	98.30
370.47	156.82
370.66	376.83
370.86	407.25
371.06	451.72
371.25	458.74
371.45	402.57
371.65	451.72
371.84	365.12
372.04	458.74
372.24	451.72
372.44	463.43
372.63	493.85
372.83	552.37
373.03	461.09
373.22	470.45
373.42	580.45
373.62	510.24
373.81	545.34
374.01	545.34
374.21	514.92
374.40	472.79
374.60	566.41
374.79	519.60
374.99	514.92
375.19	479.81
375.38	503.22
375.58	484.49
375.78	575.77
375.97	629.60
376.17	550.03
376.37	550.03
376.56	486.83
376.76	601.52
376.95	629.60
377.15	617.90
377.35	697.48
377.54	622.58
377.74	589.82
377.93	655.35
378.13	648.33
378.33	585.13
378.52	571.09
378.72	634.29
378.91	667.05
379.11	610.88
379.31	627.26
379.50	674.07
379.70	695.14
379.89	697.48
380.09	648.33
380.28	620.24
380.48	678.76
380.68	704.50
380.87	620.24
381.07	629.60
381.26	690.46
381.46	603.86
381.65	702.16
381.85	587.47
382.04	671.73
382.24	662.37
382.43	674.07
382.63	678.76
382.83	634.29
383.02	690.46
383.22	699.82
383.41	664.71
383.61	732.59
383.80	741.95
384.00	681.10
384.19	706.84
384.39	674.07
384.58	805.14
384.78	844.93
384.97	805.14
385.17	720.88
385.36	723.23
385.56	704.50
385.75	765.36
385.95	798.12
386.14	739.61
386.34	758.33
386.53	758.33
386.72	690.46
386.92	828.55
387.11	837.91
387.31	842.59
387.50	884.72
387.70	851.96
387.89	755.99
388.09	760.67
388.28	746.63
388.48	805.14
388.67	866.00
388.86	910.47
389.06	842.59
389.25	819.19
389.45	863.66
389.64	905.79
389.84	912.81
390.03	903.45
390.22	791.10
390.42	910.47
390.61	891.74
390.81	898.77
391.00	917.49
391.19	929.19
391.39	971.32
391.58	1039.20
391.78	931.53
391.97	889.40
392.16	915.15
392.36	917.49
392.55	1039.20
392.75	940.90
392.94	1020.47
393.13	980.68
393.33	933.87
393.52	1013.45
393.71	933.87
393.91	1018.13
394.10	992.39
394.29	1074.31
394.49	940.90
394.68	1069.62
394.88	1083.67
395.07	1093.03
395.26	1039.20
395.46	1114.10
395.65	1165.59
395.84	1114.10
396.04	1184.31
396.23	1144.52
396.42	1107.07
396.62	1123.46
396.81	1097.71
397.00	1116.44
397.19	1224.10
397.39	1221.76
397.58	1228.78
397.77	1165.59
397.97	1233.46
398.16	1289.64
398.35	1313.04
398.55	1238.14
398.74	1263.89
398.93	1284.95
399.12	1313.04
399.32	1224.10
399.51	1284.95
399.70	1341.13
399.90	1275.59
400.09	1280.27
400.28	1343.47
400.47	1430.07
400.67	1455.81
400.86	1479.22
401.05	1460.49
401.24	1474.54
401.44	1455.81
401.63	1458.15
401.82	1593.90
402.01	1434.75
402.21	1469.86
402.40	1533.05
402.59	1582.20
402.78	1575.18
402.97	1511.99
403.17	1558.80
403.36	1607.95
403.55	1596.25
403.74	1636.03
403.93	1528.37
404.13	1582.20
404.32	1535.39
404.51	1549.43
404.70	1612.63
404.89	1617.31
405.09	1863.07
405.28	1706.25
405.47	1664.12
405.66	1762.42
405.85	1732.00
406.05	1722.63
406.24	1813.92
406.43	1884.13
406.62	1844.34
406.81	1842.00
407.00	1734.34
407.20	1767.10
407.39	1732.00
407.58	1813.92
407.77	1872.43
407.96	1867.75
408.15	1963.71
408.34	1984.77
408.54	1914.56
408.73	2026.90
408.92	1980.09
409.11	2036.27
409.30	2129.89
409.49	2087.76
409.68	1984.77
409.87	2019.88
410.07	2031.58
410.26	2148.61
410.45	2155.63
410.64	2090.10
410.83	2190.74
411.02	2113.50
411.21	2132.23
411.40	2340.54
411.59	2270.32
411.78	2139.25
411.98	2237.55
412.17	2279.68
412.36	2279.68
412.55	2403.73
412.74	2328.83
412.93	2464.58
413.12	2417.77
413.31	2527.78
413.50	2525.44
413.69	2417.77
413.88	2581.61
414.07	2511.39
414.26	2560.55
414.45	2651.83
414.64	2731.41
414.83	2708.00
415.02	2668.21
415.22	2567.57
415.41	2766.51
415.60	2654.17
415.79	2682.25
415.98	2764.17
416.17	2834.39
416.36	2843.75
416.55	2848.43
416.74	2904.60
416.93	2928.01
417.12	2789.92
417.31	2895.24
417.50	2897.58
417.69	2963.12
417.88	2897.58
418.07	3007.59
418.26	3070.78
418.45	2963.12
418.64	3180.79
418.83	3136.32
419.02	3187.81
419.21	3302.50
419.39	3145.68
419.58	3166.74
419.77	3112.91
419.96	3316.54
420.15	3232.28
420.34	3267.39
420.53	3213.56
420.72	3368.03
420.91	3449.95
421.10	3414.84
421.29	3377.39
421.48	3243.98
421.67	3391.44
421.86	3248.66
422.05	3398.46
422.24	3391.44
422.43	3330.58
422.61	3581.02
422.80	3545.91
422.99	3353.99
423.18	3531.87
423.37	3538.89
423.56	3550.59
423.75	3531.87
423.94	3344.63
424.13	3173.77
424.32	3349.31
424.50	3574.00
424.69	3468.67
424.88	3499.10
425.07	3393.78
425.26	3337.60
425.45	3485.06
425.64	3272.07
425.83	3428.88
426.01	3508.46
426.20	3611.45
426.39	3555.27
426.58	3555.27
426.77	3545.91
426.96	3555.27
427.15	3604.42
427.33	3548.25
427.52	3618.47
427.71	3574.00
427.90	3669.96
428.09	3599.74
428.28	3648.90
428.46	3730.81
428.65	3555.27
428.84	3630.17
429.03	3906.35
429.22	3513.14
429.40	3829.12
429.59	3772.94
429.78	3606.77
429.97	3632.51
430.16	3754.22
430.34	3911.04
430.53	3754.22
430.72	3955.51
430.91	3885.29
431.10	3840.82
431.28	3962.53
431.47	3927.42
431.66	4152.11
431.85	3941.46
432.03	4224.67
432.22	4266.80
432.41	4135.73
432.60	4098.28
432.79	4072.53
432.97	4159.13
433.16	4149.77
433.35	4058.49
433.54	4154.45
433.72	4369.78
433.91	4325.31
434.10	4337.01
434.28	4241.05
434.47	4210.62
434.66	4250.41
434.85	4402.55
435.03	4313.61
435.22	4250.41
435.41	4552.34
435.59	4440.00
435.78	4472.76
435.97	4528.94
436.16	4430.63
436.34	4393.19
436.53	4461.06
436.72	4596.81
436.90	4550.00
437.09	4533.62
437.28	4440.00
437.46	4542.98
437.65	4592.13
437.84	4662.35
438.02	4568.73
438.21	4709.16
438.40	4585.11
438.58	4725.54
438.77	4788.74
438.96	4758.31
439.14	4971.30
439.33	4912.78
439.52	4990.02
439.70	5034.49
439.89	5109.39
440.08	5121.09
440.26	5109.39
440.45	5011.09
440.63	5107.05
440.82	5181.95
441.01	5221.74
441.19	5203.01
441.38	5462.81
441.57	5399.62
441.75	5308.34
441.94	5504.94
442.12	5493.24
442.31	5551.75
442.50	5591.54
442.68	5652.39
442.87	5645.37
443.05	5715.59
443.24	5778.78
443.43	5809.21
443.61	5596.22
443.80	5935.60
443.98	5518.98
444.17	5549.41
444.35	5617.29
444.54	5973.05
444.73	5769.42
444.91	5727.29
445.10	5708.57
445.28	5746.02
445.47	5746.02
445.65	5661.76
445.84	5818.57
446.02	5802.19
446.21	5795.17
446.39	5746.02
446.58	5703.89
446.77	5905.17
446.95	5879.43
447.14	5898.15
447.32	5928.58
447.51	5989.43
447.69	5968.37
447.88	6054.97
448.06	6040.92
448.25	5916.87
448.43	5870.06
448.62	5973.05
448.80	5951.98
448.99	6054.97
449.17	6085.39
449.36	6059.65
449.54	6115.82
449.73	6174.33
449.91	6246.89
450.10	6010.50
450.28	6408.39
450.46	6263.27
450.65	6333.49
450.83	6415.41
451.02	6289.02
451.20	6384.98
451.39	6314.77
451.57	6094.76
451.76	6237.53
451.94	6284.34
452.13	6539.46
452.31	6408.39
452.49	6434.13
452.68	6366.26
452.86	6272.64
453.05	6396.68
453.23	6647.12
453.42	6368.60
453.60	6497.33
453.78	6626.06
453.97	6574.56
454.15	6637.76
454.34	6560.52
454.52	6729.04
454.70	6562.86
454.89	6700.95
455.07	6733.72
455.26	6752.45
455.44	6775.85
455.62	6768.83
455.81	6775.85
455.99	6979.48
456.17	6925.65
456.36	6768.83
456.54	7014.59
456.73	7197.15
456.91	7187.79
457.09	7084.80
457.28	7400.77
457.46	7108.21
457.64	7337.58
457.83	7267.36
458.01	7101.19
458.19	7297.79
458.38	7140.97
458.56	7227.57
458.74	7328.22
458.93	7234.60
459.11	7307.15
459.29	7258.00
459.48	7449.93
459.66	7445.24
459.84	7478.01
460.03	7581.00
460.21	7466.31
460.39	7534.18
460.57	7742.49
460.76	7468.65
460.94	7742.49
461.12	7473.33
461.31	7674.62
461.49	7555.25
461.67	7531.84
461.85	7578.65
462.04	7611.42
462.22	8198.90
462.40	7953.14
462.59	8081.87
462.77	7749.51
462.95	7950.80
463.13	7962.50
463.32	7833.77
463.50	8091.23
463.68	8065.49
463.86	8016.33
464.05	7854.84
464.23	7810.37
464.41	8056.12
464.59	7709.72
464.78	8234.00
464.96	8105.28
465.14	8140.38
465.32	8320.60
465.50	8339.33
465.69	8203.58
465.87	8280.82
466.05	8360.39
466.23	8304.22
466.41	8280.82
466.60	8318.26
466.78	8205.92
466.96	8479.76
467.14	8432.95
467.32	8442.31
467.51	8386.14
467.69	8299.54
467.87	8304.22
468.05	8585.08
468.23	8339.33
468.41	8318.26
468.60	8678.71
468.78	8468.06
468.96	8482.10
469.14	8725.52
469.32	8585.08
469.50	8573.38
469.69	8622.53
469.87	8823.82
470.05	8812.12
470.23	8697.43
470.41	8711.47
470.59	8856.59
470.77	8858.93
470.95	8889.35
471.14	9116.39
471.32	8908.08
471.50	9280.22
471.68	9221.71
471.86	9118.73
472.04	9207.67
472.22	9390.23
472.40	9252.14
472.58	9437.04
472.77	9277.88
472.95	9521.30
473.13	9792.80
473.31	9516.62
473.49	9554.07
473.67	9420.66
473.85	9582.15
474.03	9741.31
474.21	9818.55
474.39	9930.89
474.57	9736.63
474.75	9778.76
474.93	9762.37
475.12	9832.59
475.30	10066.64
475.48	9783.44
475.66	10120.48
475.84	10024.51
476.02	10167.29
476.20	10319.42
476.38	10672.84
476.56	10750.08
476.74	10719.65
476.92	10380.28
477.10	10300.70
477.28	10810.93
477.46	10761.78
477.64	10951.37
477.82	10904.56
478.00	11335.21
478.18	11213.51
478.36	11414.79
478.54	11506.07
478.72	11325.85
478.90	11480.33
479.08	11597.35
479.26	11618.42
479.44	11796.30
479.62	11864.18
479.80	11854.81
479.98	12121.63
480.16	12343.99
480.34	12081.85
480.52	12093.55
480.70	12596.76
480.88	12243.34
481.06	12592.08
481.24	12470.37
481.41	12779.32
481.59	12837.84
481.77	13041.46
481.95	13156.15
482.13	12908.05
482.31	13158.49
482.49	13221.69
482.67	13352.76
482.85	13441.70
483.03	13706.18
483.21	13841.93
483.39	13839.59
483.57	13776.39
483.74	13832.57
483.92	14242.16
484.10	13745.97
484.28	14417.70
484.46	14534.73
484.64	14623.67
484.82	14469.19
485.00	14642.39
485.18	14972.41
485.35	14881.13
485.53	14679.84
485.71	15047.30
485.89	15332.85
486.07	15082.41
486.25	15023.90
486.43	15648.82
486.61	15812.66
486.78	15714.36
486.96	15798.62
487.14	15836.06
487.32	16299.49
487.50	16093.52
487.68	16512.48
487.85	16879.94
488.03	16753.55
488.21	17011.01
488.39	17177.19
488.57	17078.89
488.75	17109.32
488.92	17474.44
489.10	17469.76
489.28	17406.56
489.46	17867.65
489.64	17568.06
489.81	17862.97
489.99	18141.49
490.17	18445.76
490.35	18539.38
490.53	18356.82
490.70	18579.17
490.88	18565.13
491.06	19061.32
491.24	18656.41
491.41	18780.46
491.59	18820.25
491.77	19154.94
491.95	19330.48
492.13	19201.76
492.30	19452.19
492.48	19620.71
492.66	19719.01
492.84	19950.73
493.01	20013.92
493.19	20053.71
493.37	20500.75
493.54	20266.70
493.72	20360.32
493.90	20533.52
494.08	20608.42
494.25	20570.97
494.43	20830.77
494.61	21041.42
494.79	21193.55
494.96	21298.88
495.14	21448.67
495.32	21687.40
495.49	21713.15
495.67	21626.55
495.85	21671.02
496.02	22146.15
496.20	22022.10
496.38	22520.63
496.55	22192.96
496.73	22836.61
496.91	22387.22
497.09	22462.12
497.26	22808.52
497.44	22560.42
497.62	23030.87
497.79	23168.96
497.97	22948.95
498.14	23222.80
498.32	23639.41
498.50	23435.78
498.67	23707.29
498.85	23716.65
499.03	23880.49
499.20	23995.17
499.38	23850.06
499.56	23772.82
499.73	24393.06
499.91	24329.87
500.08	24437.53
500.26	24353.27
500.44	24545.20
500.61	24629.46
500.79	24254.97
500.97	24505.41
501.14	24882.24
501.32	25074.16
501.49	24929.05
501.67	25099.90
501.84	25315.23
502.02	24961.81
502.20	25376.09
502.37	25722.49
502.55	25305.87
502.72	25586.74
502.90	25689.72
503.07	25380.77
503.25	25612.48
503.43	25682.70
503.60	25977.61
503.78	25902.71
503.95	26190.59
504.13	26192.94
504.30	26192.94
504.48	26281.88
504.65	26349.75
504.83	26518.27
505.01	26359.11
505.18	26441.03
505.36	27023.83
505.53	26354.43
505.71	27175.96
505.88	26794.45
506.06	26859.99
506.23	26937.23
506.41	26965.31
506.58	27513.00
506.76	27260.22
506.93	27777.48
507.11	27702.58
507.28	27742.37
507.46	27878.12
507.63	27407.67
507.81	27740.03
507.98	27826.63
508.16	27992.81
508.33	27948.34
508.50	28503.04
508.68	28353.25
508.85	28467.94
509.03	28397.72
509.20	28601.35
509.38	28863.49
509.55	29043.71
509.73	28865.83
509.90	28985.19
510.08	28751.14
510.25	29425.22
510.42	29125.63
510.60	29149.03
510.77	29324.57
510.95	29156.05
511.12	29577.35
511.30	29408.83
511.47	29968.22
511.64	29736.51
511.82	30075.88
511.99	29537.56
512.17	29738.85
512.34	29570.33
512.51	30150.78
512.69	30019.71
512.86	30031.41
513.04	30707.83
513.21	30242.06
513.38	30419.94
513.56	30412.92
513.73	30419.94
513.90	30609.53
514.08	30450.37
514.25	30663.36
514.43	30637.61
514.60	30417.60
514.77	30719.53
514.95	31576.17
515.12	30998.06
515.29	31023.80
515.47	31424.03
515.64	31456.80
515.81	30998.06
515.99	30955.93
516.16	31147.85
516.33	31339.77
516.51	31646.38
516.68	31211.04
516.85	31541.06
517.03	31171.25
517.20	31622.98
517.37	31662.77
517.54	32500.68
517.72	31992.78
517.89	31934.27
518.06	31871.07
518.24	32067.68
518.41	31751.71
518.58	31964.70
518.75	32306.41
518.93	32409.40
519.10	32285.35
519.27	32624.73
519.45	32507.70
519.62	32655.15
519.79	32505.36
519.96	32821.33
520.14	33441.57
520.31	33031.98
520.48	33472.00
520.65	33289.44
520.83	33179.43
521.00	33441.57
521.17	33219.22
521.34	33160.71
521.52	33886.28
521.69	33392.42
521.86	33567.96
522.03	33975.22
522.20	33628.82
522.38	34094.58
522.55	34520.56
522.72	33979.90
522.89	34244.38
523.07	34265.44
523.24	33998.62
523.41	33919.04
523.58	33813.72
523.75	34391.83
523.92	34267.78
524.10	35030.80
524.27	34600.14
524.44	35009.73
524.61	34679.72
524.78	34934.84
524.96	34658.65
525.13	35068.25
525.30	35056.54
525.47	35131.44
525.64	35047.18
525.81	35222.72
525.98	35328.05
526.16	34824.83
526.33	34962.92
526.50	35564.44
526.67	34972.28
526.84	35225.06
527.01	35285.92
527.18	35519.97
527.36	35400.60
527.53	35491.88
527.70	36020.84
527.87	36322.77
528.04	35962.33
528.21	35749.34
528.38	35864.03
528.55	36198.73
528.72	36327.45
528.89	36287.67
529.07	36362.56
529.24	36093.40
529.41	36266.60
529.58	36020.84
529.75	36226.81
529.92	36835.35
530.09	36851.73
530.26	36559.17
530.43	36383.63
530.60	36500.65
530.77	37116.22
530.94	36559.17
531.11	36765.14
531.28	36634.06
531.46	37340.91
531.63	36872.80
531.80	37111.53
531.97	37214.52
532.14	37170.05
532.31	36882.16
532.48	36638.75
532.65	37511.77
532.82	37064.72
532.99	37813.70
533.16	37186.43
533.33	37420.48
533.50	37680.28
533.67	37734.12
533.84	37727.10
534.01	37476.66
534.18	37471.98
534.35	38195.20
534.52	37883.91
534.69	37762.20
534.86	37956.47
535.03	37717.73
535.20	38146.05
535.37	38204.56
535.54	38569.69
535.71	37663.90
535.88	37794.97
536.05	37827.74
536.22	38478.41
536.38	38431.60
536.55	38127.33
536.72	38466.70
536.89	37902.64
537.06	38527.56
537.23	38621.18
537.40	38370.74
537.57	38850.55
537.74	38749.91
537.91	38873.96
538.08	38508.83
538.25	38480.75
538.42	38462.02
538.59	38766.29
538.75	38738.21
538.92	38792.04
539.09	39309.30
539.26	39274.19
539.43	39082.27
539.60	39297.59
539.77	39061.20
539.94	39180.57
540.11	39173.55
540.28	39140.78
540.44	39377.17
540.61	39456.75
540.78	39201.63
540.95	38983.96
541.12	38834.17
541.29	39381.85
541.46	39129.08
541.62	39641.65
541.79	40079.33
541.96	39407.60
542.13	39257.81
542.30	39746.98
542.47	39812.51
542.63	39604.20
542.80	39835.92
542.97	40046.57
543.14	40343.81
543.31	40142.53
543.48	40229.13
543.64	40240.83
543.81	40311.05
543.98	40247.85
544.15	40332.11
544.32	40533.40
544.48	40509.99
544.65	40818.94
544.82	40765.11
544.99	40526.38
545.16	40722.98
545.32	40540.42
545.49	41043.63
545.66	40802.56
545.83	40928.95
546.00	40889.16
546.16	40676.17
546.33	40463.18
546.50	40570.85
546.67	40804.90
546.83	40488.93
547.00	40840.01
547.17	40594.25
547.34	41104.49
547.50	41076.40
547.67	41130.23
547.84	41593.66
548.00	41216.83
548.17	41729.41
548.34	41375.99
548.51	41436.84
548.67	41048.32
548.84	41460.25
549.01	41579.62
549.18	41095.13
549.34	41209.81
549.51	41125.55
549.68	41621.75
549.84	41455.57
550.01	41799.63
550.18	41343.22
550.34	41647.49
550.51	41837.08
550.68	41525.78
550.84	41560.89
551.01	41537.49
551.18	41785.58
551.34	41808.99
551.51	41720.05
551.68	42160.07
551.84	41846.44
552.01	41832.39
552.18	41949.42
552.34	42050.06
552.51	41860.48
552.68	42440.93
552.84	42192.84
553.01	42265.39
553.18	42157.73
553.34	42368.38
553.51	41780.90
553.67	42342.63
553.84	42487.74
554.01	42431.57
554.17	42618.81
554.34	42862.23
554.51	42291.14
554.67	43056.50
554.84	42408.17
555.00	42930.11
555.17	42391.78
555.33	42799.04
555.50	42394.12
555.67	42806.06
555.83	42796.70
556.00	43037.77
556.16	43306.93
556.33	42623.50
556.50	42944.15
556.66	42710.10
556.83	42490.09
556.99	43306.93
557.16	43058.84
557.32	43239.06
557.49	43262.46
557.65	42740.52
557.82	42796.70
557.98	42799.04
558.15	43026.07
558.32	43005.00
558.48	43047.13
558.65	42930.11
558.81	42637.54
558.98	43356.08
559.14	43210.97
559.31	43351.40
559.47	43325.66
559.64	43559.71
559.80	43585.46
559.97	43505.88
560.13	42941.81
560.30	43332.68
560.46	43320.98
560.63	43178.20
560.79	43253.10
560.96	43290.55
561.12	43681.42
561.29	43232.04
561.45	42838.83
561.61	43620.56
561.78	43398.21
561.94	43393.53
562.11	43065.86
562.27	43398.21
562.44	43278.85
562.60	43613.54
562.77	43784.40
562.93	43386.51
563.10	43784.40
563.26	43349.06
563.42	43056.50
563.59	43126.71
563.75	43522.26
563.92	43721.21
564.08	43426.30
564.24	43894.41
564.41	43735.25
564.57	43732.91
564.74	43903.77
564.90	43730.57
565.07	43629.93
565.23	43866.32
565.39	43447.36
565.56	44226.76
565.72	43494.18
565.88	44011.43
566.05	44093.35
566.21	43529.28
566.38	43505.88
566.54	44168.25
566.70	43835.89
566.87	44673.81
567.03	43835.89
567.19	43920.15
567.36	43908.45
567.52	43709.50
567.68	44201.02
567.85	43770.36
568.01	44046.54
568.17	43777.38
568.34	43882.70
568.50	43892.07
568.66	43899.09
568.83	44311.02
568.99	43791.42
569.15	44123.78
569.32	43786.74
569.48	43496.52
569.64	44011.43
569.81	43983.35
569.97	43683.76
570.13	44027.82
570.30	44076.97
570.46	43749.29
570.62	43826.53
570.78	44133.14
570.95	43545.67
571.11	44236.12
571.27	43976.33
571.43	43765.68
571.60	44364.85
571.76	44137.82
571.92	44168.25
572.09	44083.99
572.25	44079.31
572.41	44313.36
572.57	43999.73
572.74	44896.16
572.90	44034.84
573.06	44697.21
573.22	44339.11
573.38	44465.50
573.55	44128.46
573.71	44250.17
573.87	43899.09
574.03	43950.58
574.20	44236.12
574.36	44229.10
574.52	44507.63
574.68	44271.23
574.84	44631.68
575.01	44287.62
575.17	44432.73
575.33	44205.70
575.49	44158.89
575.65	44603.59
575.82	44442.09
575.98	44140.16
576.14	45003.82
576.30	44285.28
576.46	44067.61
576.62	44472.52
576.79	44390.60
576.95	43894.41
577.11	44266.55
577.27	44116.76
577.43	44507.63
577.59	44013.77
577.75	44669.12
577.92	44060.58
578.08	43966.96
578.24	43969.30
578.40	44048.88
578.56	44392.94
578.72	44701.89
578.88	44121.44
579.04	44538.05
579.21	44425.71
579.37	44325.07
579.53	44133.14
579.69	43973.98
579.85	44910.20
580.01	44325.07
580.17	44320.38
580.33	44727.64
580.49	44835.30
580.65	44385.92
580.82	44830.62
580.98	44313.36
581.14	44095.69
581.30	44699.55
581.46	44332.09
581.62	44634.02
581.78	44545.08
581.94	44697.21
582.10	44797.85
582.26	44744.02
582.42	44289.96
582.58	44849.35
582.74	44605.93
582.90	44278.25
583.06	44882.11
583.22	44505.29
583.38	44741.68
583.54	44769.77
583.70	44655.08
583.86	44421.03
584.02	44076.97
584.18	44507.63
584.34	44657.42
584.50	44423.37
584.66	44208.04
584.82	44502.95
584.98	44376.56
585.14	44573.16
585.30	44498.26
585.46	44669.12
585.62	44381.24
585.78	44741.68
585.94	43828.87
586.10	44182.29
586.26	43995.05
586.42	44566.14
586.58	44905.52
586.74	44732.32
586.90	44458.48
587.06	44526.35
587.22	44596.57
587.38	44734.66
587.54	44655.08
587.70	44713.59
587.86	44453.79
588.02	44509.97
588.18	44622.31
588.34	44594.23
588.49	44552.10
588.65	44062.93
588.81	44289.96
588.97	44098.03
589.13	44772.11
589.29	44622.31
589.45	44830.62
589.61	44566.14
589.77	44797.85
589.93	44601.25
590.08	44907.86
590.24	44547.42
