SpectraSuite Data File
++++++++++++++++++++++++++++++++++++
Date: Fri Oct 25 10:47:24 EDT 2013
User: price-jones
Dark Spectrum Present: No
Reference Spectrum Present: No
Number of Sampled Component Spectra: 1
Spectrometers: USB2+H05261
Integration Time (usec): 100000 (USB2+H05261)
Spectra Averaged: 1 (USB2+H05261)
Boxcar Smoothing: 0 (USB2+H05261)
Correct for Electrical Dark: No (USB2+H05261)
Strobe/Lamp Enabled: No (USB2+H05261)
Correct for Detector Non-linearity: No (USB2+H05261)
Correct for Stray Light: No (USB2+H05261)
Number of Pixels in Processed Spectrum: 2048
>>>>>Begin Processed Spectral Data<<<<<
365.73	159.16
365.92	159.16
366.12	159.16
366.32	49.15
366.52	2.34
366.72	63.19
366.91	0.00
367.11	91.28
367.31	42.13
367.51	53.83
367.70	11.70
367.90	53.83
368.10	25.75
368.30	25.75
368.49	0.00
368.69	7.02
368.89	35.11
369.09	70.22
369.28	128.73
369.48	0.00
369.68	51.49
369.87	112.35
370.07	112.35
370.27	102.98
370.47	196.60
370.66	369.80
370.86	437.68
371.06	437.68
371.25	468.11
371.45	454.06
371.65	477.47
371.84	454.06
372.04	458.74
372.24	592.16
372.44	496.19
372.63	512.58
372.83	545.34
373.03	531.30
373.22	552.37
373.42	566.41
373.62	552.37
373.81	524.28
374.01	552.37
374.21	535.98
374.40	519.60
374.60	531.30
374.79	521.94
374.99	617.90
375.19	547.69
375.38	575.77
375.58	550.03
375.78	578.11
375.97	554.71
376.17	613.22
376.37	578.11
376.56	552.37
376.76	566.41
376.95	521.94
377.15	648.33
377.35	641.31
377.54	566.41
377.74	582.79
377.93	594.50
378.13	655.35
378.33	669.39
378.52	606.20
378.72	629.60
378.91	608.54
379.11	599.18
379.31	557.05
379.50	554.71
379.70	629.60
379.89	709.18
380.09	657.69
380.28	643.65
380.48	667.05
380.68	660.03
380.87	657.69
381.07	741.95
381.26	695.14
381.46	716.20
381.65	648.33
381.85	669.39
382.04	683.44
382.24	678.76
382.43	667.05
382.63	603.86
382.83	713.86
383.02	716.20
383.22	678.76
383.41	725.57
383.61	755.99
383.80	727.91
384.00	748.97
384.19	770.04
384.39	741.95
384.58	732.59
384.78	784.08
384.97	671.73
385.17	709.18
385.36	744.29
385.56	791.10
385.75	730.25
385.95	770.04
386.14	774.72
386.34	758.33
386.53	802.80
386.72	760.67
386.92	784.08
387.11	823.87
387.31	844.93
387.50	767.70
387.70	800.46
387.89	866.00
388.09	849.61
388.28	882.38
388.48	887.06
388.67	861.32
388.86	854.30
389.06	866.00
389.25	891.74
389.45	936.21
389.64	957.28
389.84	873.02
390.03	915.15
390.22	905.79
390.42	908.13
390.61	877.70
390.81	929.19
391.00	1001.75
391.19	936.21
391.39	1018.13
391.58	926.85
391.78	929.19
391.97	987.71
392.16	931.53
392.36	905.79
392.55	985.37
392.75	994.73
392.94	997.07
393.13	1015.79
393.33	952.60
393.52	959.62
393.71	1029.84
393.91	1214.74
394.10	1048.56
394.29	1036.86
394.49	1095.37
394.68	1104.73
394.88	1170.27
395.07	1088.35
395.26	1172.61
395.46	1104.73
395.65	1179.63
395.84	1048.56
396.04	1174.95
396.23	1174.95
396.42	1139.84
396.62	1057.92
396.81	1179.63
397.00	1149.20
397.19	1179.63
397.39	1149.20
397.58	1284.95
397.77	1249.85
397.97	1196.01
398.16	1277.93
398.35	1263.89
398.55	1317.72
398.74	1345.81
398.93	1383.26
399.12	1362.19
399.32	1371.55
399.51	1380.92
399.70	1394.96
399.90	1359.85
400.09	1394.96
400.28	1439.43
400.47	1432.41
400.67	1460.49
400.86	1486.24
401.05	1465.18
401.24	1526.03
401.44	1577.52
401.63	1502.62
401.82	1561.14
402.01	1458.15
402.21	1504.96
402.40	1570.50
402.59	1526.03
402.78	1556.46
402.97	1540.07
403.17	1591.56
403.36	1629.01
403.55	1589.22
403.74	1717.95
403.93	1657.10
404.13	1668.80
404.32	1706.25
404.51	1654.76
404.70	1736.68
404.89	1612.63
405.09	1753.06
405.28	1760.08
405.47	1720.29
405.66	1724.97
405.85	1708.59
406.05	1764.76
406.24	1732.00
406.43	1760.08
406.62	1797.53
406.81	1952.01
407.00	1778.81
407.20	1769.44
407.39	1830.30
407.58	1940.30
407.77	1933.28
407.96	1944.99
408.15	1935.62
408.34	1900.52
408.54	2036.27
408.73	2115.84
408.92	2024.56
409.11	2003.50
409.30	1963.71
409.49	1975.41
409.68	2057.33
409.87	2005.84
410.07	2031.58
410.26	2019.88
410.45	2069.03
410.64	2228.19
410.83	2181.38
411.02	2260.96
411.21	2317.13
411.40	2200.10
411.59	2155.63
411.78	2303.09
411.98	2286.70
412.17	2349.90
412.36	2406.07
412.55	2438.84
412.74	2394.37
412.93	2394.37
413.12	2392.03
413.31	2509.05
413.50	2602.68
413.69	2523.10
413.88	2534.80
414.07	2612.04
414.26	2644.81
414.45	2717.36
414.64	2651.83
414.83	2691.62
415.02	2696.30
415.22	2780.56
415.41	2796.94
415.60	2761.83
415.79	2839.07
415.98	2862.48
416.17	2916.31
416.36	2958.44
416.55	2822.69
416.74	2946.73
416.93	2951.42
417.12	3084.83
417.31	3096.53
417.50	3082.49
417.69	3038.02
417.88	3033.33
418.07	3038.02
418.26	3042.70
418.45	3049.72
418.64	3255.69
418.83	3089.51
419.02	3225.26
419.21	3323.56
419.39	3117.59
419.58	3255.69
419.77	3169.09
419.96	3265.05
420.15	3421.86
420.34	3178.45
420.53	3405.48
420.72	3475.70
420.91	3473.36
421.10	3440.59
421.29	3489.74
421.48	3386.76
421.67	3529.53
421.86	3482.72
422.05	3592.72
422.24	3513.14
422.43	3482.72
422.61	3461.65
422.80	3466.33
422.99	3473.36
423.18	3503.78
423.37	3555.27
423.56	3557.61
423.75	3487.40
423.94	3428.88
424.13	3330.58
424.32	3400.80
424.50	3522.51
424.69	3452.29
424.88	3637.19
425.07	3700.39
425.26	3698.05
425.45	3534.21
425.64	3588.04
425.83	3548.25
426.01	3583.36
426.20	3471.01
426.39	3714.43
426.58	3571.66
426.77	3667.62
426.96	3611.45
427.15	3599.74
427.33	3817.41
427.52	3702.73
427.71	3655.92
427.90	3859.54
428.09	3852.52
428.28	3662.94
428.46	3742.52
428.65	3693.37
428.84	3899.33
429.03	3894.65
429.22	3831.46
429.40	3868.91
429.59	3794.01
429.78	3810.39
429.97	3613.79
430.16	3712.09
430.34	3920.40
430.53	3789.33
430.72	3939.12
430.91	3955.51
431.10	3896.99
431.28	4091.26
431.47	4074.87
431.66	4215.30
431.85	4126.36
432.03	4367.44
432.22	4210.62
432.41	4411.91
432.60	4173.18
432.79	4245.73
432.97	4353.40
433.16	4271.48
433.35	4252.75
433.54	4339.35
433.72	4170.83
433.91	4351.06
434.10	4514.89
434.28	4322.97
434.47	4376.80
434.66	4283.18
434.85	4514.89
435.03	4552.34
435.22	4599.15
435.41	4681.07
435.59	4528.94
435.78	4535.96
435.97	4550.00
436.16	4669.37
436.34	4643.62
436.53	4713.84
436.72	4690.43
436.90	4643.62
437.09	4685.75
437.28	4683.41
437.46	4695.11
437.65	4732.56
437.84	4823.84
438.02	4744.27
438.21	4716.18
438.40	4919.81
438.58	4753.63
438.77	4868.31
438.96	4994.70
439.14	4978.32
439.33	5095.35
439.52	5029.81
439.70	5006.41
439.89	5193.65
440.08	5144.50
440.26	5210.03
440.45	5261.52
440.63	5247.48
440.82	5287.27
441.01	5392.59
441.19	5460.47
441.38	5612.60
441.57	5621.97
441.75	5444.09
441.94	5689.84
442.12	5636.01
442.31	5827.93
442.50	5832.62
442.68	5886.45
442.87	5575.16
443.05	5579.84
443.24	5825.59
443.43	5746.02
443.61	5905.17
443.80	5959.00
443.98	5820.91
444.17	5476.85
444.35	5923.90
444.54	5970.71
444.73	5905.17
444.91	5989.43
445.10	5830.27
445.28	5778.78
445.47	5809.21
445.65	5879.43
445.84	5963.68
446.02	5956.66
446.21	5968.37
446.39	5994.11
446.58	5954.32
446.77	5944.96
446.95	5966.03
447.14	5963.68
447.32	6260.93
447.51	5989.43
447.69	6003.47
447.88	6080.71
448.06	6010.50
448.25	6015.18
448.43	6022.20
448.62	6029.22
448.80	6097.10
448.99	6223.48
449.17	6024.54
449.36	6045.60
449.54	6319.45
449.73	6354.55
449.91	6246.89
450.10	6359.24
450.28	6530.09
450.46	6424.77
450.65	6373.28
450.83	6300.72
451.02	6480.94
451.20	6406.05
451.39	6640.10
451.57	6483.28
451.76	6502.01
451.94	6626.06
452.13	6628.40
452.31	6551.16
452.49	6473.92
452.68	6516.05
452.86	6429.45
453.05	6590.95
453.23	6726.70
453.42	6431.79
453.60	6544.14
453.78	6815.64
453.97	6764.15
454.15	6794.58
454.34	6590.95
454.52	6841.39
454.70	7042.67
454.89	6888.20
455.07	6949.05
455.26	6829.68
455.44	7000.54
455.62	6991.18
455.81	7042.67
455.99	7075.44
456.17	7150.34
456.36	7150.34
456.54	7129.27
456.73	7194.81
456.91	7358.64
457.09	7208.85
457.28	7375.03
457.46	7428.86
457.64	7634.83
457.83	7241.62
458.01	7304.81
458.19	7478.01
458.38	7363.33
458.56	7606.74
458.74	7510.78
458.93	7431.20
459.11	7454.61
459.29	7721.43
459.48	7550.57
459.66	7482.69
459.84	7648.87
460.03	7740.15
460.21	7529.50
460.39	7754.19
460.57	7644.19
460.76	7744.83
460.94	7602.06
461.12	7845.48
461.31	7751.85
461.49	7793.98
461.67	7864.20
461.85	7953.14
462.04	7929.74
462.22	8620.19
462.40	8046.76
462.59	8077.19
462.77	8056.12
462.95	8100.59
463.13	7992.93
463.32	8023.36
463.50	8243.37
463.68	8287.84
463.86	8280.82
464.05	8095.91
464.23	8114.64
464.41	8205.92
464.59	8166.13
464.78	8582.74
464.96	8315.92
465.14	8255.07
465.32	8379.12
465.50	8542.96
465.69	8379.12
465.87	8372.10
466.05	8465.72
466.23	8430.61
466.41	8336.99
466.60	8669.34
466.78	8379.12
466.96	8475.08
467.14	8468.06
467.32	8741.90
467.51	8814.46
467.69	8496.14
467.87	8566.36
468.05	8645.94
468.23	8552.32
468.41	8865.95
468.60	8809.78
468.78	8837.86
468.96	8781.69
469.14	8887.01
469.32	8812.12
469.50	8671.68
469.69	8959.57
469.87	9076.60
470.05	9085.96
470.23	9027.45
470.41	9078.94
470.59	9282.56
470.77	9081.28
470.95	9118.73
471.14	9210.01
471.32	9212.35
471.50	9362.14
471.68	9427.68
471.86	9563.43
472.04	9568.11
472.22	9586.83
472.40	9444.06
472.58	9495.55
472.77	9633.64
472.95	9647.69
473.13	9942.60
473.31	9584.49
473.49	9645.35
473.67	9617.26
473.85	9912.17
474.03	10094.73
474.21	9926.21
474.39	10150.90
474.57	9980.04
474.75	10232.82
474.93	10085.37
475.12	10401.34
475.30	10246.87
475.48	10178.99
475.66	10134.52
475.84	10190.69
476.02	10539.43
476.20	10546.45
476.38	10876.47
476.56	10773.49
476.74	10796.89
476.92	10977.11
477.10	10794.55
477.28	10967.75
477.46	11131.59
477.64	11094.14
477.82	11318.83
478.00	11365.64
478.18	11456.92
478.36	11520.12
478.54	11580.97
478.72	11789.28
478.90	11798.64
479.08	12051.42
479.26	12084.19
479.44	11983.54
479.62	12098.23
479.80	12212.92
479.98	12369.73
480.16	12540.59
480.34	12063.12
480.52	12568.68
480.70	12486.76
480.88	12470.37
481.06	12659.96
481.24	12737.20
481.41	13022.74
481.59	13083.59
481.77	13254.45
481.95	13305.95
482.13	13404.25
482.31	13268.50
482.49	13750.65
482.67	13582.13
482.85	13701.50
483.03	14029.17
483.21	14230.46
483.39	13947.25
483.57	14043.21
483.74	14244.50
483.92	14469.19
484.10	14246.84
484.28	14459.83
484.46	14944.32
484.64	14888.15
484.82	14740.69
485.00	14658.78
485.18	14782.82
485.35	15386.68
485.53	15314.13
485.71	15037.94
485.89	15435.83
486.07	15454.56
486.25	15637.12
486.43	15531.80
486.61	15803.30
486.78	15843.09
486.96	15960.11
487.14	16451.63
487.32	16636.53
487.50	16496.10
487.68	16812.07
487.85	16978.25
488.03	17177.19
488.21	17158.47
488.39	16812.07
488.57	17436.99
488.75	17305.92
488.92	17834.88
489.10	17872.33
489.28	17762.33
489.46	18274.90
489.64	17834.88
489.81	18583.85
489.99	18583.85
490.17	18548.75
490.35	18789.82
490.53	18909.19
490.70	18817.91
490.88	18895.14
491.06	19201.76
491.24	19314.10
491.41	19131.54
491.59	19426.45
491.77	19204.10
491.95	19531.77
492.13	19765.82
492.30	19770.51
492.48	20219.89
492.66	20332.23
492.84	20201.16
493.01	20563.95
493.19	20388.41
493.37	20683.31
493.54	20716.08
493.72	21188.87
493.90	21132.70
494.08	21078.86
494.25	21544.63
494.43	21399.52
494.61	21722.51
494.79	21830.18
494.96	21785.71
495.14	21666.34
495.32	21654.64
495.49	22216.36
495.67	22015.08
495.85	22225.73
496.02	22183.60
496.20	22576.81
496.38	22808.52
496.55	22843.63
496.73	23190.03
496.91	23206.41
497.09	23283.65
497.26	23012.15
497.44	23246.20
497.62	23096.41
497.79	23620.69
497.97	23438.12
498.14	23639.41
498.32	23751.76
498.50	23616.01
498.67	23899.21
498.85	24383.70
499.03	24130.92
499.20	24294.76
499.38	24411.79
499.56	24472.64
499.73	24577.97
499.91	24709.04
500.08	24760.53
500.26	24861.17
500.44	24821.38
500.61	24486.68
500.79	24896.28
500.97	25287.15
501.14	25296.51
501.32	25450.99
501.49	25509.50
501.67	25628.87
501.84	25633.55
502.02	25378.43
502.20	25823.13
502.37	26106.34
502.55	26026.76
502.72	26214.00
502.90	26087.61
503.07	25949.52
503.25	26321.66
503.43	26036.12
503.60	26728.92
503.78	26654.02
503.95	26911.48
504.13	26492.52
504.30	26965.31
504.48	26738.28
504.65	27094.04
504.83	27260.22
505.01	27330.44
505.18	26998.08
505.36	27356.18
505.53	27407.67
505.71	27323.41
505.88	27875.78
506.06	27344.48
506.23	27601.94
506.41	27583.21
506.58	27749.39
506.76	27938.97
506.93	28238.56
507.11	28079.41
507.28	28119.20
507.46	27819.61
507.63	28376.66
507.81	28486.66
507.98	28304.10
508.16	28336.87
508.33	28837.74
508.50	28723.05
508.68	28694.97
508.85	28727.74
509.03	29429.90
509.20	29352.66
509.38	29404.15
509.55	29057.75
509.73	29600.76
509.90	29378.40
510.08	29378.40
510.25	29785.66
510.42	29500.11
510.60	29926.09
510.77	29731.83
510.95	30057.16
511.12	29504.79
511.30	29841.83
511.47	30656.34
511.64	30448.03
511.82	30340.36
511.99	30410.58
512.17	30335.68
512.34	30541.65
512.51	30733.57
512.69	30731.23
512.86	30588.46
513.04	30824.86
513.21	30841.24
513.38	30920.82
513.56	31030.82
513.73	30600.16
513.90	31213.38
514.08	31559.78
514.25	31044.87
514.43	31447.44
514.60	31393.61
514.77	31477.86
514.95	31859.37
515.12	31428.71
515.29	31398.29
515.47	31819.58
515.64	32093.43
515.81	32077.04
515.99	32112.15
516.16	31859.37
516.33	32381.31
516.51	32093.43
516.68	31625.32
516.85	31835.97
517.03	32147.26
517.20	32393.01
517.37	32306.41
517.54	32353.23
517.72	32355.57
517.89	32156.62
518.06	32378.97
518.24	32655.15
518.41	32346.20
518.58	32549.83
518.75	32498.34
518.93	33289.44
519.10	33083.47
519.27	33237.95
519.45	32968.79
519.62	32968.79
519.79	33071.77
519.96	33549.24
520.14	33380.72
520.31	33251.99
520.48	33605.41
520.65	33834.78
520.83	34064.16
521.00	33905.00
521.17	33605.41
521.34	33923.72
521.52	34478.43
521.69	34209.27
521.86	34506.52
522.03	34312.25
522.20	34522.90
522.38	34476.09
522.55	34300.55
522.72	34487.79
522.89	34361.40
523.07	34440.98
523.24	34787.38
523.41	34466.73
523.58	34747.59
523.75	34983.99
523.92	35351.45
524.10	34925.47
524.27	35030.80
524.44	35604.23
524.61	35358.47
524.78	35236.77
524.96	35608.91
525.13	35419.33
525.30	35512.95
525.47	36067.66
525.64	36093.40
525.81	35894.46
525.98	35367.84
526.16	35622.95
526.33	35447.41
526.50	35967.01
526.67	35426.35
526.84	35714.23
527.01	35852.33
527.18	35590.19
527.36	36198.73
527.53	36224.47
527.70	36470.23
527.87	36147.23
528.04	36137.87
528.21	36325.11
528.38	36266.60
528.55	36989.83
528.72	36858.76
528.89	37081.11
529.07	37003.87
529.24	36222.13
529.41	36809.61
529.58	36818.97
529.75	36624.70
529.92	36893.86
530.09	37251.97
530.26	37003.87
530.43	37436.87
530.60	36772.16
530.77	36917.27
530.94	37120.90
531.11	37731.78
531.28	37507.08
531.46	37755.18
531.63	37752.84
531.80	37413.46
531.97	37532.83
532.14	37605.39
532.31	37617.09
532.48	37975.19
532.65	37912.00
532.82	38024.34
532.99	38019.66
533.16	37904.98
533.33	38078.18
533.50	38036.05
533.67	38136.69
533.84	38073.49
534.01	38323.93
534.18	37919.02
534.35	38726.50
534.52	38792.04
534.69	38445.64
534.86	38305.21
535.03	38382.45
535.20	38796.72
535.37	38990.98
535.54	38799.06
535.71	38951.20
535.88	38667.99
536.05	38726.50
536.22	39304.62
536.38	38572.03
536.55	38799.06
536.72	38911.41
536.89	38567.35
537.06	38883.32
537.23	38869.28
537.40	38831.83
537.57	39075.24
537.74	38740.55
537.91	39704.85
538.08	39220.36
538.25	39100.99
538.42	39077.58
538.59	39580.80
538.75	39311.64
538.92	39234.40
539.09	39693.15
539.26	39632.29
539.43	39445.05
539.60	39496.54
539.77	39365.47
539.94	39290.57
540.11	39548.03
540.28	40027.84
540.44	39662.72
540.61	39885.07
540.78	39796.13
540.95	39826.56
541.12	40006.78
541.29	39983.37
541.46	39852.30
541.62	39901.45
541.79	40367.22
541.96	39856.98
542.13	39995.07
542.30	40224.45
542.47	40030.18
542.63	40360.20
542.80	40297.00
542.97	40694.89
543.14	41038.95
543.31	41015.55
543.48	41375.99
543.64	41275.35
543.81	40994.48
543.98	40783.83
544.15	40875.12
544.32	41027.25
544.48	41200.45
544.65	40790.86
544.82	40968.74
544.99	40928.95
545.16	41024.91
545.32	40652.76
545.49	41579.62
545.66	41542.17
545.83	41579.62
546.00	41649.83
546.16	41483.66
546.33	41029.59
546.50	40622.34
546.67	41275.35
546.83	41270.67
547.00	41137.26
547.17	41436.84
547.34	41326.84
547.50	41673.24
547.67	41991.55
547.84	41249.60
548.00	41839.42
548.17	41663.88
548.34	42092.19
548.51	41893.25
548.67	42075.81
548.84	42260.71
549.01	41989.21
549.18	42012.62
549.34	41979.85
549.51	41998.57
549.68	42087.51
549.84	41979.85
550.01	42265.39
550.18	41762.18
550.34	41921.34
550.51	42256.03
550.68	42185.82
550.84	41813.67
551.01	42583.71
551.18	42307.52
551.34	42562.64
551.51	42169.43
551.68	42920.74
551.84	42464.34
552.01	42375.40
552.18	42342.63
552.34	42092.19
552.51	42417.53
552.68	42873.93
552.84	42548.60
553.01	42658.60
553.18	42899.68
553.34	42761.59
553.51	42576.69
553.67	42747.54
553.84	43117.35
554.01	43416.94
554.17	42990.96
554.34	43026.07
554.51	42721.80
554.67	43051.81
554.84	42637.54
555.00	43356.08
555.17	42878.61
555.33	43318.64
555.50	43229.69
555.67	43473.11
555.83	43126.71
556.00	43592.48
556.16	43178.20
556.33	43239.06
556.50	43136.07
556.66	43435.66
556.83	43105.65
556.99	43229.69
557.16	43213.31
557.32	43578.43
557.49	43573.75
557.65	43407.58
557.82	43559.71
557.98	42904.36
558.15	43325.66
558.32	43798.44
558.48	43531.62
558.65	43281.19
558.81	43620.56
558.98	44142.50
559.14	43468.43
559.31	43718.87
559.47	43580.78
559.64	43945.90
559.80	43753.97
559.97	43775.04
560.13	44137.82
560.30	43737.59
560.46	43920.15
560.63	43679.08
560.79	43805.47
560.96	43739.93
561.12	43856.96
561.29	43924.83
561.45	43763.34
561.61	43761.00
561.78	43597.16
561.94	43845.26
562.11	43569.07
562.27	43814.83
562.44	44135.48
562.60	43856.96
562.77	44631.68
562.93	43730.57
563.10	44278.25
563.26	44135.48
563.42	43753.97
563.59	43650.99
563.75	43978.67
563.92	44250.17
564.08	44444.43
564.24	44275.91
564.41	44095.69
564.57	43983.35
564.74	44217.40
564.90	44142.50
565.07	44009.09
565.23	44154.21
565.39	44032.50
565.56	44294.64
565.72	44039.52
565.88	44282.94
566.05	44250.17
566.21	44245.49
566.38	44168.25
566.54	44472.52
566.70	44631.68
566.87	44610.61
567.03	44395.28
567.19	44547.42
567.36	44676.15
567.52	44411.67
567.68	44329.75
567.85	44346.13
568.01	44406.98
568.17	44662.10
568.34	44556.78
568.50	44304.00
568.66	44266.55
568.83	44521.67
568.99	44186.97
569.15	44652.74
569.32	44500.61
569.48	44392.94
569.64	44701.89
569.81	44425.71
569.97	44198.68
570.13	44238.47
570.30	44385.92
570.46	44346.13
570.62	44135.48
570.78	44027.82
570.95	44306.34
571.11	44744.02
571.27	44528.69
571.43	44748.70
571.60	44744.02
571.76	44516.99
571.92	44287.62
572.09	44519.33
572.25	44575.50
572.41	44163.57
572.57	44573.16
572.74	44807.22
572.90	44666.78
573.06	44877.43
573.22	44580.18
573.38	44381.24
573.55	44449.11
573.71	45010.84
573.87	44692.53
574.03	44502.95
574.20	44732.32
574.36	44514.65
574.52	44669.12
574.68	44488.90
574.84	45125.53
575.01	44416.35
575.17	44507.63
575.33	44898.50
575.49	44657.42
575.65	45120.85
575.82	45050.63
575.98	44479.54
576.14	45294.05
576.30	45003.82
576.46	44741.68
576.62	44589.55
576.79	44531.03
576.95	44402.30
577.11	44809.56
577.27	44971.05
577.43	44989.78
577.59	45013.18
577.75	44542.74
577.92	44271.23
578.08	44619.97
578.24	44619.97
578.40	44849.35
578.56	45027.23
578.72	45083.40
578.88	45008.50
579.04	44774.45
579.21	44776.79
579.37	44687.85
579.53	44685.51
579.69	44577.84
579.85	44722.96
580.01	44935.95
580.17	44669.12
580.33	44603.59
580.49	44650.40
580.65	44872.75
580.82	44875.09
580.98	44690.19
581.14	44245.49
581.30	45212.13
581.46	44538.05
581.62	45415.76
581.78	44643.38
581.94	45013.18
582.10	44975.73
582.26	45170.00
582.42	45151.27
582.58	45263.62
582.74	44683.17
582.90	44905.52
583.06	44968.71
583.22	44940.63
583.38	45205.11
583.54	44652.74
583.70	44865.73
583.86	44727.64
584.02	44865.73
584.18	44903.18
584.34	44580.18
584.50	45399.37
584.66	44872.75
584.82	44516.99
584.98	45254.26
585.14	44783.81
585.30	44807.22
585.46	44612.95
585.62	44896.16
585.78	45155.96
585.94	44549.76
586.10	44935.95
586.26	44847.00
586.42	44825.94
586.58	44987.44
586.74	44907.86
586.90	44980.42
587.06	44952.33
587.22	45038.93
587.38	44608.27
587.54	45006.16
587.70	44968.71
587.86	45343.20
588.02	45174.68
588.18	44863.39
588.34	45242.56
588.49	44694.87
588.65	44809.56
588.81	44662.10
588.97	44512.31
589.13	44655.08
589.29	45062.33
589.45	45041.27
589.61	45214.47
589.77	45247.24
589.93	44879.77
590.08	45600.66
590.24	45263.62
