SpectraSuite Data File
++++++++++++++++++++++++++++++++++++
Date: Fri Oct 25 10:44:33 EDT 2013
User: price-jones
Dark Spectrum Present: No
Reference Spectrum Present: No
Number of Sampled Component Spectra: 1
Spectrometers: USB2+H05261
Integration Time (usec): 100000 (USB2+H05261)
Spectra Averaged: 1 (USB2+H05261)
Boxcar Smoothing: 0 (USB2+H05261)
Correct for Electrical Dark: No (USB2+H05261)
Strobe/Lamp Enabled: No (USB2+H05261)
Correct for Detector Non-linearity: No (USB2+H05261)
Correct for Stray Light: No (USB2+H05261)
Number of Pixels in Processed Spectrum: 2048
>>>>>Begin Processed Spectral Data<<<<<
365.73	88.94
365.92	88.94
366.12	88.94
366.32	74.90
366.52	28.09
366.72	0.00
366.91	0.00
367.11	0.00
367.31	0.00
367.51	11.70
367.70	0.00
367.90	65.54
368.10	65.54
368.30	72.56
368.49	32.77
368.69	112.35
368.89	79.58
369.09	11.70
369.28	44.47
369.48	16.38
369.68	91.28
369.87	79.58
370.07	140.43
370.27	154.48
370.47	191.92
370.66	346.40
370.86	339.38
371.06	402.57
371.25	491.51
371.45	388.53
371.65	463.43
371.84	451.72
372.04	479.81
372.24	496.19
372.44	540.66
372.63	575.77
372.83	395.55
373.03	465.77
373.22	512.58
373.42	444.70
373.62	552.37
373.81	535.98
374.01	416.62
374.21	493.85
374.40	517.26
374.60	587.47
374.79	557.05
374.99	535.98
375.19	568.75
375.38	603.86
375.58	561.73
375.78	507.90
375.97	601.52
376.17	655.35
376.37	528.96
376.56	585.13
376.76	610.88
376.95	547.69
377.15	578.11
377.35	538.32
377.54	559.39
377.74	561.73
377.93	648.33
378.13	641.31
378.33	592.16
378.52	624.92
378.72	660.03
378.91	645.99
379.11	606.20
379.31	603.86
379.50	524.28
379.70	713.86
379.89	610.88
380.09	650.67
380.28	608.54
380.48	610.88
380.68	634.29
380.87	676.41
381.07	716.20
381.26	638.97
381.46	711.52
381.65	620.24
381.85	667.05
382.04	699.82
382.24	676.41
382.43	653.01
382.63	645.99
382.83	706.84
383.02	774.72
383.22	751.31
383.41	653.01
383.61	723.23
383.80	819.19
384.00	695.14
384.19	702.16
384.39	830.89
384.58	791.10
384.78	727.91
384.97	767.70
385.17	695.14
385.36	779.40
385.56	713.86
385.75	620.24
385.95	751.31
386.14	821.53
386.34	718.54
386.53	840.25
386.72	819.19
386.92	737.27
387.11	774.72
387.31	863.66
387.50	777.06
387.70	760.67
387.89	849.61
388.09	823.87
388.28	863.66
388.48	786.42
388.67	933.87
388.86	924.51
389.06	884.72
389.25	931.53
389.45	964.30
389.64	924.51
389.84	966.64
390.03	851.96
390.22	940.90
390.42	964.30
390.61	945.58
390.81	976.00
391.00	931.53
391.19	950.26
391.39	978.34
391.58	912.81
391.78	1048.56
391.97	971.32
392.16	964.30
392.36	1104.73
392.55	954.94
392.75	919.83
392.94	985.37
393.13	950.26
393.33	994.73
393.52	990.05
393.71	1004.09
393.91	1050.90
394.10	1062.60
394.29	1025.15
394.49	1104.73
394.68	1118.78
394.88	1069.62
395.07	1193.67
395.26	1146.86
395.46	1086.01
395.65	1151.54
395.84	1160.91
396.04	1212.40
396.23	1055.58
396.42	1074.31
396.62	1067.28
396.81	1142.18
397.00	1184.31
397.19	1153.88
397.39	1165.59
397.58	1214.74
397.77	1268.57
397.97	1275.59
398.16	1338.79
398.35	1373.89
398.55	1343.47
398.74	1336.45
398.93	1284.95
399.12	1291.98
399.32	1273.25
399.51	1308.36
399.70	1472.20
399.90	1413.68
400.09	1371.55
400.28	1350.49
400.47	1495.60
400.67	1551.78
400.86	1474.54
401.05	1500.28
401.24	1542.41
401.44	1533.05
401.63	1462.83
401.82	1533.05
402.01	1460.49
402.21	1516.67
402.40	1619.65
402.59	1511.99
402.78	1600.93
402.97	1586.88
403.17	1657.10
403.36	1687.53
403.55	1619.65
403.74	1717.95
403.93	1603.27
404.13	1612.63
404.32	1713.27
404.51	1708.59
404.70	1722.63
404.89	1771.79
405.09	1764.76
405.28	1703.91
405.47	1727.32
405.66	1860.73
405.85	1762.42
406.05	1762.42
406.24	1710.93
406.43	1797.53
406.62	1940.30
406.81	1898.17
407.00	1914.56
407.20	1839.66
407.39	1919.24
407.58	1867.75
407.77	1970.73
407.96	1963.71
408.15	2017.54
408.34	1830.30
408.54	2062.01
408.73	2071.37
408.92	2113.50
409.11	2143.93
409.30	2153.29
409.49	2054.99
409.68	2143.93
409.87	2176.70
410.07	2239.89
410.26	2139.25
410.45	2214.15
410.64	2289.04
410.83	2228.19
411.02	2361.60
411.21	2445.86
411.40	2263.30
411.59	2349.90
411.78	2305.43
411.98	2368.62
412.17	2314.79
412.36	2333.51
412.55	2399.05
412.74	2457.56
412.93	2572.25
413.12	2415.43
413.31	2630.76
413.50	2595.65
413.69	2621.40
413.88	2502.03
414.07	2630.76
414.26	2626.08
414.45	2729.06
414.64	2649.49
414.83	2818.00
415.02	2801.62
415.22	2841.41
415.41	2789.92
415.60	2895.24
415.79	2902.26
415.98	2993.55
416.17	2916.31
416.36	2902.26
416.55	2855.45
416.74	3059.08
416.93	2942.05
417.12	2981.84
417.31	3016.95
417.50	2937.37
417.69	3215.90
417.88	3112.91
418.07	3012.27
418.26	3185.47
418.45	3152.70
418.64	3356.33
418.83	3260.37
419.02	3323.56
419.21	3286.11
419.39	3243.98
419.58	3138.66
419.77	3164.40
419.96	3262.71
420.15	3440.59
420.34	3335.26
420.53	3293.13
420.72	3384.41
420.91	3398.46
421.10	3492.08
421.29	3646.55
421.48	3466.33
421.67	3531.87
421.86	3496.76
422.05	3494.42
422.24	3501.44
422.43	3466.33
422.61	3592.72
422.80	3447.61
422.99	3646.55
423.18	3604.42
423.37	3581.02
423.56	3637.19
423.75	3723.79
423.94	3613.79
424.13	3382.07
424.32	3421.86
424.50	3529.53
424.69	3618.47
424.88	3798.69
425.07	3684.00
425.26	3665.28
425.45	3487.40
425.64	3499.10
425.83	3630.17
426.01	3667.62
426.20	3803.37
426.39	3770.60
426.58	3702.73
426.77	3592.72
426.96	3775.28
427.15	3681.66
427.33	3817.41
427.52	3925.08
427.71	3843.16
427.90	3838.48
428.09	3885.29
428.28	3866.56
428.46	3756.56
428.65	3896.99
428.84	3983.59
429.03	3922.74
429.22	3756.56
429.40	3974.23
429.59	3925.08
429.78	3850.18
429.97	3723.79
430.16	3749.54
430.34	3782.31
430.53	3974.23
430.72	3920.40
430.91	3936.78
431.10	3997.64
431.28	4142.75
431.47	4287.86
431.66	4381.48
431.85	4128.70
432.03	4168.49
432.22	4332.33
432.41	4175.52
432.60	4318.29
432.79	4418.93
432.97	4423.61
433.16	4292.54
433.35	4170.83
433.54	4184.88
433.72	4442.34
433.91	4325.31
434.10	4379.14
434.28	4362.76
434.47	4337.01
434.66	4664.69
434.85	4552.34
435.03	4493.83
435.22	4517.23
435.41	4704.48
435.59	4596.81
435.78	4636.60
435.97	4652.98
436.16	4645.96
436.34	4774.69
436.53	4844.91
436.72	4718.52
436.90	4629.58
437.09	4891.72
437.28	4849.59
437.46	4784.06
437.65	4704.48
437.84	4648.30
438.02	4662.35
438.21	4713.84
438.40	4727.88
438.58	4943.21
438.77	4910.44
438.96	4908.10
439.14	5043.85
439.33	5247.48
439.52	5193.65
439.70	5198.33
439.89	5329.40
440.08	5195.99
440.26	5226.42
440.45	5249.82
440.63	5268.55
440.82	5528.35
441.01	5530.69
441.19	5495.58
441.38	5621.97
441.57	5521.32
441.75	5666.44
441.94	5673.46
442.12	5680.48
442.31	5617.29
442.50	5717.93
442.68	5806.87
442.87	5762.40
443.05	5933.26
443.24	5921.56
443.43	5930.92
443.61	5771.76
443.80	6176.67
443.98	5912.19
444.17	5811.55
444.35	5951.98
444.54	6033.90
444.73	5895.81
444.91	5895.81
445.10	5942.62
445.28	5937.94
445.47	5905.17
445.65	5935.60
445.84	6054.97
446.02	6052.63
446.21	5959.00
446.39	5837.30
446.58	6148.59
446.77	6094.76
446.95	5937.94
447.14	6150.93
447.32	6263.27
447.51	6129.86
447.69	6076.03
447.88	6267.95
448.06	6246.89
448.25	5996.45
448.43	6153.27
448.62	6090.07
448.80	6225.82
448.99	6251.57
449.17	6303.06
449.36	6260.93
449.54	6403.71
449.73	6509.03
449.91	6312.42
450.10	6445.84
450.28	6452.86
450.46	6403.71
450.65	6511.37
450.83	6408.39
451.02	6562.86
451.20	6595.63
451.39	6820.32
451.57	6689.25
451.76	6778.19
451.94	6642.44
452.13	6724.36
452.31	6626.06
452.49	6478.60
452.68	6724.36
452.86	6586.27
453.05	6712.66
453.23	6766.49
453.42	6663.51
453.60	6881.18
453.78	6918.62
453.97	6686.91
454.15	6876.49
454.34	6710.32
454.52	6815.64
454.70	6867.13
454.89	7063.74
455.07	7045.01
455.26	7082.46
455.44	7213.53
455.62	7066.08
455.81	7176.08
455.99	7131.61
456.17	7337.58
456.36	7075.44
456.54	7297.79
456.73	7288.43
456.91	7365.67
457.09	7344.60
457.28	7571.63
457.46	7414.82
457.64	7625.47
457.83	7274.38
458.01	7227.57
458.19	7379.71
458.38	7688.66
458.56	7611.42
458.74	7550.57
458.93	7501.42
459.11	7555.25
459.29	7508.44
459.48	7822.07
459.66	7634.83
459.84	7557.59
460.03	7833.77
460.21	7873.56
460.39	7927.39
460.57	7885.26
460.76	7843.14
460.94	7826.75
461.12	8051.44
461.31	7908.67
461.49	7960.16
461.67	8011.65
461.85	8058.46
462.04	8086.55
462.22	8107.62
462.40	8266.77
462.59	8002.29
462.77	8124.00
462.95	8217.62
463.13	8147.40
463.32	7990.59
463.50	8287.84
463.68	8397.84
463.86	8540.61
464.05	8336.99
464.23	8318.26
464.41	8390.82
464.59	8411.89
464.78	8571.04
464.96	8418.91
465.14	8463.38
465.32	8439.97
465.50	8540.61
465.69	8477.42
465.87	8575.72
466.05	8542.96
466.23	8372.10
466.41	8578.06
466.60	8772.33
466.78	8634.24
466.96	8571.04
467.14	8706.79
467.32	8627.21
467.51	8879.99
467.69	8463.38
467.87	8819.14
468.05	8807.44
468.23	8884.67
468.41	8596.79
468.60	8517.21
468.78	8784.03
468.96	8725.52
469.14	8966.59
469.32	9046.17
469.50	8732.54
469.69	8936.17
469.87	9294.27
470.05	9102.34
470.23	9165.54
470.41	9156.18
470.59	9181.92
470.77	9242.78
470.95	9151.49
471.14	9376.19
471.32	9291.93
471.50	9458.10
471.68	9373.85
471.86	9444.06
472.04	9542.36
472.22	9919.19
472.40	9430.02
472.58	9771.74
472.77	9692.16
472.95	9895.78
473.13	10073.67
473.31	9734.29
473.49	9839.61
473.67	9863.02
473.85	9865.36
474.03	10289.00
474.21	10040.90
474.39	10176.65
474.57	10265.59
474.75	10188.35
474.93	10408.36
475.12	10195.37
475.30	10349.85
475.48	10314.74
475.66	10448.15
475.84	10560.50
476.02	10602.63
476.20	10541.77
476.38	10799.23
476.56	11229.89
476.74	10930.30
476.92	10939.66
477.10	10970.09
477.28	11524.80
477.46	11164.36
477.64	11295.43
477.82	11323.51
478.00	11604.38
478.18	11557.57
478.36	11782.26
478.54	11618.42
478.72	11927.37
478.90	11957.80
479.08	12145.04
479.26	11962.48
479.44	12292.49
479.62	12325.26
479.80	12559.31
479.98	12428.24
480.16	12795.71
480.34	12554.63
480.52	12711.45
480.70	12882.31
480.88	12727.83
481.06	12971.25
481.24	12947.84
481.41	13469.78
481.59	13231.05
481.77	13427.65
481.95	13240.41
482.13	13418.29
482.31	13647.66
482.49	14097.05
482.67	13886.40
482.85	13937.89
483.03	13881.72
483.21	14085.34
483.39	14033.85
483.57	14216.41
483.74	14478.55
483.92	14251.52
484.10	14403.66
484.28	14806.23
484.46	14834.32
484.64	15129.22
484.82	14846.02
485.00	15250.93
485.18	15365.62
485.35	15370.30
485.53	15154.97
485.71	15321.15
485.89	15583.29
486.07	15262.63
486.25	15618.39
486.43	15807.98
486.61	15840.75
486.78	16332.26
486.96	16156.72
487.14	16475.03
487.32	16290.13
487.50	16638.87
487.68	16994.63
487.85	17137.40
488.03	17142.08
488.21	17472.10
488.39	17322.30
488.57	17591.47
488.75	17465.08
488.92	18064.25
489.10	17790.41
489.28	17844.24
489.46	18270.22
489.64	18228.09
489.81	18735.99
489.99	18782.80
490.17	18911.53
490.35	19035.58
490.53	18864.72
490.70	19019.19
490.88	18991.11
491.06	19185.37
491.24	19499.00
491.41	19255.59
491.59	19510.71
491.77	19211.12
491.95	19711.99
492.13	19831.36
492.30	20339.26
492.48	20147.33
492.66	20542.88
492.84	20386.07
493.01	20580.33
493.19	20826.09
493.37	21032.05
493.54	20992.26
493.72	20940.77
493.90	21057.80
494.08	21420.58
494.25	21448.67
494.43	21642.93
494.61	21696.77
494.79	21668.68
494.96	21781.03
495.14	22022.10
495.32	22134.45
495.49	22239.77
495.67	22583.83
495.85	22499.57
496.02	22389.56
496.20	22675.11
496.38	22632.98
496.55	22824.90
496.73	23234.50
496.91	23257.90
497.09	23101.09
497.26	23433.44
497.44	23438.12
497.62	23538.77
497.79	23747.08
497.97	23915.59
498.14	23672.18
498.32	23901.55
498.50	23669.84
498.67	24472.64
498.85	24194.12
499.03	24638.82
499.20	24264.33
499.38	24407.11
499.56	24526.47
499.73	24856.49
499.91	24800.32
500.08	24821.38
500.26	24615.41
500.44	25025.01
500.61	25095.22
500.79	25013.31
500.97	25195.87
501.14	25696.74
501.32	25441.62
501.49	25469.71
501.67	25680.36
501.84	25717.81
502.02	25965.90
502.20	25715.47
502.37	26092.29
502.55	26274.85
502.72	26342.73
502.90	26551.04
503.07	26132.08
503.25	26354.43
503.43	26157.83
503.60	26555.72
503.78	26742.96
503.95	26625.93
504.13	26590.83
504.30	26831.90
504.48	26810.84
504.65	27206.39
504.83	27271.92
505.01	27484.91
505.18	27494.27
505.36	27520.02
505.53	27349.16
505.71	27761.09
505.88	28156.64
506.06	27510.66
506.23	28034.94
506.41	27693.22
506.58	28151.96
506.76	28425.81
506.93	28318.14
507.11	28287.71
507.28	28016.21
507.46	28091.11
507.63	28327.50
507.81	28435.17
507.98	28217.50
508.16	28308.78
508.33	28453.89
508.50	28662.20
508.68	28978.17
508.85	29050.73
509.03	29048.39
509.20	28713.69
509.38	29530.54
509.55	29249.67
509.73	29577.35
509.90	29930.77
510.08	29228.61
510.25	29544.58
510.42	29771.61
510.60	30068.86
510.77	29841.83
510.95	30052.48
511.12	30272.49
511.30	30331.00
511.47	30333.34
511.64	30441.01
511.82	30651.66
511.99	30206.95
512.17	30375.47
512.34	30047.80
512.51	31143.17
512.69	30937.20
512.86	30836.56
513.04	31461.48
513.21	30663.36
513.38	30913.80
513.56	31330.41
513.73	30986.35
513.90	31353.82
514.08	31189.98
514.25	31716.60
514.43	31353.82
514.60	31234.45
514.77	31543.40
514.95	31379.56
515.12	31384.24
515.29	31721.28
515.47	32025.55
515.64	31887.46
515.81	32023.21
515.99	32135.56
516.16	31709.58
516.33	31754.05
516.51	32009.17
516.68	31810.22
516.85	31353.82
517.03	31718.94
517.20	31906.18
517.37	32294.71
517.54	32498.34
517.72	32706.65
517.89	32215.13
518.06	32547.49
518.24	32535.79
518.41	32437.48
518.58	32620.05
518.75	32758.14
518.93	33158.37
519.10	32931.34
519.27	33254.33
519.45	33483.70
519.62	33516.47
519.79	33146.67
519.96	33841.81
520.14	33546.90
520.31	33710.74
520.48	33596.05
520.65	33448.60
520.83	33668.61
521.00	33855.85
521.17	34316.93
521.34	34443.32
521.52	34220.97
521.69	34850.58
521.86	34401.19
522.03	34354.38
522.20	34630.57
522.38	34808.45
522.55	34747.59
522.72	34920.79
522.89	34590.78
523.07	35072.93
523.24	34515.88
523.41	35084.63
523.58	35304.64
523.75	35309.32
523.92	34642.27
524.10	35529.33
524.27	35482.52
524.44	34993.35
524.61	35491.88
524.78	35826.58
524.96	35524.65
525.13	35917.86
525.30	35915.52
525.47	36023.19
525.64	35519.97
525.81	35922.54
525.98	35597.21
526.16	35838.28
526.33	35688.49
526.50	35597.21
526.67	35639.34
526.84	35508.27
527.01	35278.89
527.18	36074.68
527.36	36505.34
527.53	36051.27
527.70	36503.00
527.87	36458.52
528.04	36205.75
528.21	36573.21
528.38	36563.85
528.55	36371.92
528.72	36905.57
528.89	37195.79
529.07	36327.45
529.24	36376.61
529.41	37060.04
529.58	36561.51
529.75	37104.51
529.92	37256.65
530.09	37137.28
530.26	37303.46
530.43	37184.09
530.60	37474.32
530.77	37387.72
530.94	37668.58
531.11	37591.34
531.28	37876.89
531.46	37703.69
531.63	37804.33
531.80	37560.92
531.97	37741.14
532.14	37399.42
532.31	37635.81
532.48	37621.77
532.65	37720.07
532.82	37553.90
532.99	38103.92
533.16	38054.77
533.33	37841.78
533.50	38148.39
533.67	38529.90
533.84	37933.06
534.01	38108.60
534.18	38347.34
534.35	38621.18
534.52	38337.98
534.69	38494.79
534.86	38401.17
535.03	38178.82
535.20	38440.96
535.37	38792.04
535.54	38834.17
535.71	38401.17
535.88	38733.53
536.05	38646.93
536.22	39199.29
536.38	39033.11
536.55	39002.69
536.72	38710.12
536.89	38789.70
537.06	38930.13
537.23	39288.23
537.40	38693.74
537.57	39379.51
537.74	38953.54
537.91	39412.28
538.08	39512.92
538.25	39253.12
538.42	39391.22
538.59	39182.91
538.75	39007.37
538.92	39435.69
539.09	39711.87
539.26	39714.21
539.43	38967.58
539.60	39878.05
539.77	39487.18
539.94	39489.52
540.11	39833.58
540.28	39943.58
540.44	39679.10
540.61	39803.15
540.78	39789.11
540.95	39709.53
541.12	39709.53
541.29	39665.06
541.46	39927.20
541.62	40294.66
541.79	40058.27
541.96	39875.71
542.13	40102.74
542.30	40109.76
542.47	40091.04
542.63	40374.24
542.80	40224.45
542.97	40605.95
543.14	40975.76
543.31	40570.85
543.48	40687.87
543.64	41406.42
543.81	41240.24
543.98	41034.27
544.15	40608.29
544.32	41179.39
544.48	41792.61
544.65	40832.99
544.82	41214.49
544.99	41071.72
545.16	41097.47
545.32	41263.64
545.49	41574.94
545.66	41443.87
545.83	41516.42
546.00	41563.23
546.16	41331.52
546.33	41200.45
546.50	40772.13
546.67	41729.41
546.83	40718.30
547.00	41453.23
547.17	41755.16
547.34	41490.68
547.50	41930.70
547.67	41860.48
547.84	41439.18
548.00	41741.11
548.17	41752.82
548.34	41757.50
548.51	42394.12
548.67	41783.24
548.84	42021.98
549.01	41457.91
549.18	41811.33
549.34	42230.29
549.51	42436.25
549.68	42417.53
549.84	42351.99
550.01	41940.06
550.18	42274.76
550.34	42251.35
550.51	42344.97
550.68	42227.95
550.84	42146.03
551.01	42234.97
551.18	42066.45
551.34	42337.95
551.51	42349.65
551.68	42396.46
551.84	42623.50
552.01	42801.38
552.18	42649.24
552.34	42099.22
552.51	42607.11
552.68	42534.56
552.84	42522.85
553.01	43063.52
553.18	43044.79
553.34	42777.97
553.51	42398.80
553.67	42674.99
553.84	43278.85
554.01	43164.16
554.17	43138.41
554.34	42651.58
554.51	43096.28
554.67	43072.88
554.84	43012.02
555.00	42710.10
555.17	43255.44
555.33	43023.73
555.50	43012.02
555.67	43435.66
555.83	43234.38
556.00	43168.84
556.16	43241.40
556.33	42965.21
556.50	43110.33
556.66	43154.80
556.83	42899.68
556.99	43508.22
557.16	43665.03
557.32	43384.17
557.49	43489.49
557.65	43185.22
557.82	43346.72
557.98	43817.17
558.15	43599.50
558.32	43545.67
558.48	43255.44
558.65	43026.07
558.81	43002.66
558.98	43187.56
559.14	43253.10
559.31	43335.02
559.47	43828.87
559.64	43615.88
559.80	43761.00
559.97	43548.01
560.13	42967.55
560.30	43416.94
560.46	43566.73
560.63	43927.17
560.79	44076.97
560.96	43791.42
561.12	43810.15
561.29	43913.13
561.45	43779.72
561.61	43625.25
561.78	43973.98
561.94	43634.61
562.11	43435.66
562.27	44100.37
562.44	43753.97
562.60	43871.00
562.77	43878.02
562.93	43786.74
563.10	43887.39
563.26	43861.64
563.42	43639.29
563.59	44039.52
563.75	43660.35
563.92	44603.59
564.08	44350.81
564.24	44659.76
564.41	43634.61
564.57	44114.42
564.74	44083.99
564.90	43709.50
565.07	43922.49
565.23	44570.82
565.39	43936.54
565.56	44025.48
565.72	44308.68
565.88	44135.48
566.05	44439.75
566.21	44238.47
566.38	44067.61
566.54	44678.49
566.70	44240.81
566.87	44334.43
567.03	44362.51
567.19	44758.06
567.36	44376.56
567.52	44142.50
567.68	44591.89
567.85	43957.60
568.01	44552.10
568.17	44072.29
568.34	44231.44
568.50	44196.34
568.66	44339.11
568.83	44463.16
568.99	43976.33
569.15	44095.69
569.32	44194.00
569.48	44126.12
569.64	44762.75
569.81	44421.03
569.97	44381.24
570.13	44446.77
570.30	44308.68
570.46	44360.17
570.62	44158.89
570.78	44229.10
570.95	44210.38
571.11	44645.72
571.27	44367.20
571.43	44002.07
571.60	44430.39
571.76	44411.67
571.92	44294.64
572.09	44409.32
572.25	44418.69
572.41	44481.88
572.57	44704.23
572.74	44828.28
572.90	44839.98
573.06	44727.64
573.22	44727.64
573.38	44507.63
573.55	44395.28
573.71	44669.12
573.87	44603.59
574.03	44034.84
574.20	45034.25
574.36	44776.79
574.52	44451.45
574.68	44659.76
574.84	45088.08
575.01	44790.83
575.17	44528.69
575.33	44568.48
575.49	44502.95
575.65	44629.34
575.82	45118.51
575.98	44465.50
576.14	44802.53
576.30	44545.08
576.46	44388.26
576.62	44849.35
576.79	44378.90
576.95	44509.97
577.11	44638.70
577.27	44680.83
577.43	44844.66
577.59	44533.37
577.75	44362.51
577.92	44186.97
578.08	44161.23
578.24	44437.41
578.40	44399.96
578.56	44278.25
578.72	44435.07
578.88	44940.63
579.04	44945.31
579.21	45010.84
579.37	44947.65
579.53	44713.59
579.69	44308.68
579.85	44732.32
580.01	44772.11
580.17	44615.29
580.33	44830.62
580.49	44781.47
580.65	44935.95
580.82	44765.09
580.98	44306.34
581.14	44568.48
581.30	45020.20
581.46	44779.13
581.62	44912.54
581.78	44746.36
581.94	45092.76
582.10	44552.10
582.26	44968.71
582.42	44898.50
582.58	44842.32
582.74	44591.89
582.90	44540.39
583.06	44788.49
583.22	45123.19
583.38	45305.75
583.54	44865.73
583.70	44987.44
583.86	44561.46
584.02	44708.91
584.18	44980.42
584.34	44725.30
584.50	44760.40
584.66	44505.29
584.82	44879.77
584.98	44935.95
585.14	44994.46
585.30	44575.50
585.46	44657.42
585.62	44392.94
585.78	45059.99
585.94	44589.55
586.10	44708.91
586.26	44982.76
586.42	44931.26
586.58	44720.62
586.74	44596.57
586.90	44406.98
587.06	44666.78
587.22	45167.66
587.38	44612.95
587.54	44973.39
587.70	45083.40
587.86	44786.15
588.02	45069.36
588.18	45123.19
588.34	44409.32
588.49	44559.12
588.65	44472.52
588.81	44491.24
588.97	44390.60
589.13	44477.20
589.29	44624.65
589.45	45069.36
589.61	44919.56
589.77	44978.07
589.93	44605.93
590.08	45059.99
590.24	45251.92
