SpectraSuite Data File
++++++++++++++++++++++++++++++++++++
Date: Fri Oct 25 11:25:01 EDT 2013
User: price-jones
Dark Spectrum Present: No
Reference Spectrum Present: No
Number of Sampled Component Spectra: 1
Spectrometers: USB2+H05261
Integration Time (usec): 100000 (USB2+H05261)
Spectra Averaged: 1 (USB2+H05261)
Boxcar Smoothing: 0 (USB2+H05261)
Correct for Electrical Dark: No (USB2+H05261)
Strobe/Lamp Enabled: No (USB2+H05261)
Correct for Detector Non-linearity: No (USB2+H05261)
Correct for Stray Light: No (USB2+H05261)
Number of Pixels in Processed Spectrum: 2048
>>>>>Begin Processed Spectral Data<<<<<
365.73	184.90
365.92	184.90
366.12	184.90
366.32	241.08
366.52	135.75
366.72	175.54
366.91	187.24
367.11	126.39
367.31	145.11
367.51	177.88
367.70	105.32
367.90	135.75
368.10	121.71
368.30	201.29
368.49	114.69
368.69	159.16
368.89	140.43
369.09	168.52
369.28	149.79
369.48	131.07
369.68	248.10
369.87	271.50
370.07	170.86
370.27	236.39
370.47	292.57
370.66	617.90
370.86	624.92
371.06	573.43
371.25	674.07
371.45	564.07
371.65	690.46
371.84	645.99
372.04	648.33
372.24	692.80
372.44	681.10
372.63	758.33
372.83	812.17
373.03	725.57
373.22	781.74
373.42	760.67
373.62	800.46
373.81	774.72
374.01	793.44
374.21	849.61
374.40	842.59
374.60	835.57
374.79	814.51
374.99	910.47
375.19	926.85
375.38	814.51
375.58	837.91
375.78	884.72
375.97	795.78
376.17	866.00
376.37	847.27
376.56	877.70
376.76	809.83
376.95	889.40
377.15	959.62
377.35	898.77
377.54	851.96
377.74	823.87
377.93	926.85
378.13	994.73
378.33	901.11
378.52	945.58
378.72	940.90
378.91	959.62
379.11	945.58
379.31	922.17
379.50	873.02
379.70	1006.43
379.89	936.21
380.09	945.58
380.28	950.26
380.48	964.30
380.68	978.34
380.87	1015.79
381.07	1013.45
381.26	1132.82
381.46	1022.81
381.65	1067.28
381.85	1046.22
382.04	1022.81
382.24	1022.81
382.43	1053.24
382.63	985.37
382.83	1046.22
383.02	1086.01
383.22	1156.22
383.41	1036.86
383.61	1123.46
383.80	1144.52
384.00	1170.27
384.19	1107.07
384.39	1186.65
384.58	1086.01
384.78	1067.28
384.97	1116.44
385.17	1151.54
385.36	1172.61
385.56	1130.48
385.75	1212.40
385.95	1137.50
386.14	1219.42
386.34	1144.52
386.53	1144.52
386.72	1097.71
386.92	1266.23
387.11	1299.00
387.31	1240.48
387.50	1294.32
387.70	1224.10
387.89	1191.33
388.09	1282.61
388.28	1282.61
388.48	1242.82
388.67	1348.15
388.86	1308.36
389.06	1401.98
389.25	1359.85
389.45	1448.79
389.64	1366.87
389.84	1362.19
390.03	1413.68
390.22	1401.98
390.42	1352.83
390.61	1366.87
390.81	1397.30
391.00	1420.71
391.19	1427.73
391.39	1423.05
391.58	1439.43
391.78	1488.58
391.97	1493.26
392.16	1444.11
392.36	1458.15
392.55	1481.56
392.75	1507.30
392.94	1528.37
393.13	1575.18
393.33	1561.14
393.52	1591.56
393.71	1629.01
393.91	1629.01
394.10	1591.56
394.29	1561.14
394.49	1612.63
394.68	1654.76
394.88	1593.90
395.07	1607.95
395.26	1575.18
395.46	1647.74
395.65	1724.97
395.84	1619.65
396.04	1769.44
396.23	1746.04
396.42	1706.25
396.62	1753.06
396.81	1799.87
397.00	1804.55
397.19	1863.07
397.39	1839.66
397.58	1764.76
397.77	1764.76
397.97	1799.87
398.16	1771.79
398.35	1912.22
398.55	1888.81
398.74	1935.62
398.93	1942.64
399.12	1846.68
399.32	1863.07
399.51	1961.37
399.70	1959.03
399.90	1952.01
400.09	2031.58
400.28	2069.03
400.47	2064.35
400.67	2125.21
400.86	2045.63
401.05	2076.06
401.24	2127.55
401.44	2019.88
401.63	2111.16
401.82	2113.50
402.01	2190.74
402.21	2092.44
402.40	2209.47
402.59	2242.23
402.78	2167.34
402.97	2260.96
403.17	2406.07
403.36	2139.25
403.55	2207.13
403.74	2272.66
403.93	2298.41
404.13	2218.83
404.32	2457.56
404.51	2305.43
404.70	2417.77
404.89	2403.73
405.09	2436.50
405.28	2476.29
405.47	2448.20
405.66	2497.35
405.85	2539.48
406.05	2511.39
406.24	2516.08
406.43	2544.16
406.62	2609.70
406.81	2647.15
407.00	2509.05
407.20	2647.15
407.39	2616.72
407.58	2822.69
407.77	2832.05
407.96	2726.72
408.15	2759.49
408.34	2794.60
408.54	2743.11
408.73	2839.07
408.92	2822.69
409.11	2878.86
409.30	3026.31
409.49	2869.50
409.68	2876.52
409.87	2857.79
410.07	2806.30
410.26	2974.82
410.45	2993.55
410.64	3126.96
410.83	3087.17
411.02	3129.30
411.21	3136.32
411.40	3164.40
411.59	3222.92
411.78	3173.77
411.98	3169.09
412.17	3220.58
412.36	3300.16
412.55	3375.05
412.74	3269.73
412.93	3365.69
413.12	3487.40
413.31	3501.44
413.50	3435.91
413.69	3414.84
413.88	3534.21
414.07	3555.27
414.26	3681.66
414.45	3712.09
414.64	3590.38
414.83	3700.39
415.02	3749.54
415.22	3684.00
415.41	3885.29
415.60	3906.35
415.79	3988.27
415.98	3962.53
416.17	4077.21
416.36	3999.98
416.55	4035.08
416.74	4004.66
416.93	4091.26
417.12	3997.64
417.31	4100.62
417.50	4140.41
417.69	4325.31
417.88	4271.48
418.07	4215.30
418.26	4269.14
418.45	4215.30
418.64	4461.06
418.83	4451.70
419.02	4477.44
419.21	4622.56
419.39	4472.76
419.58	4470.42
419.77	4458.72
419.96	4631.92
420.15	4631.92
420.34	4542.98
420.53	4554.68
420.72	4638.94
420.91	4699.80
421.10	4760.65
421.29	4842.57
421.48	4636.60
421.67	4847.25
421.86	4669.37
422.05	4685.75
422.24	4751.29
422.43	4830.87
422.61	4983.00
422.80	4933.85
422.99	4936.19
423.18	4755.97
423.37	5102.37
423.56	4880.02
423.75	4873.00
423.94	4821.50
424.13	4512.55
424.32	4770.01
424.50	5048.54
424.69	5071.94
424.88	4926.83
425.07	4929.17
425.26	4861.29
425.45	4929.17
425.64	4919.81
425.83	4915.12
426.01	5097.69
426.20	5013.43
426.39	5163.22
426.58	5078.96
426.77	5001.72
426.96	4880.02
427.15	5193.65
427.33	5238.12
427.52	5226.42
427.71	5256.84
427.90	5364.51
428.09	5460.47
428.28	5352.81
428.46	5238.12
428.65	5334.08
428.84	5453.45
429.03	5638.35
429.22	5383.23
429.40	5434.72
429.59	5493.24
429.78	5217.05
429.97	5355.15
430.16	5430.04
430.34	5462.81
430.53	5610.26
430.72	5666.44
430.91	5771.76
431.10	5542.39
431.28	5743.67
431.47	5884.11
431.66	5846.66
431.85	5619.63
432.03	5900.49
432.22	6190.72
432.41	5937.94
432.60	5881.77
432.79	5956.66
432.97	6085.39
433.16	5947.30
433.35	6001.13
433.54	6024.54
433.72	5982.41
433.91	6216.46
434.10	6232.85
434.28	5959.00
434.47	6190.72
434.66	6003.47
434.85	6361.58
435.03	6216.46
435.22	6317.11
435.41	6387.32
435.59	6277.32
435.78	6506.69
435.97	6237.53
436.16	6382.64
436.34	6267.95
436.53	6445.84
436.72	6733.72
436.90	6513.71
437.09	6558.18
437.28	6520.73
437.46	6633.08
437.65	6626.06
437.84	6857.77
438.02	6597.97
438.21	6700.95
438.40	6541.80
438.58	6979.48
438.77	7033.31
438.96	6743.08
439.14	7143.32
439.33	7047.35
439.52	7040.33
439.70	7328.22
439.89	7316.51
440.08	7213.53
440.26	7573.97
440.45	7356.30
440.63	7393.75
440.82	7597.38
441.01	7454.61
441.19	7403.11
441.38	7733.13
441.57	7829.09
441.75	7758.88
441.94	7775.26
442.12	7812.71
442.31	8088.89
442.50	7957.82
442.68	7946.12
442.87	8004.63
443.05	8049.10
443.24	8093.57
443.43	8067.83
443.61	8156.77
443.80	8339.33
443.98	7997.61
444.17	7822.07
444.35	8152.09
444.54	8299.54
444.73	8266.77
444.91	8355.71
445.10	8498.49
445.28	8194.22
445.47	8107.62
445.65	8292.52
445.84	8449.33
446.02	8325.29
446.21	8322.94
446.39	8191.88
446.58	8400.18
446.77	8538.27
446.95	8259.75
447.14	8610.83
447.32	8454.02
447.51	8482.10
447.69	8468.06
447.88	8636.58
448.06	8461.04
448.25	8510.19
448.43	8540.61
448.62	8573.38
448.80	8526.57
448.99	8720.84
449.17	8606.15
449.36	8725.52
449.54	8681.05
449.73	9022.77
449.91	8725.52
450.10	8865.95
450.28	9008.72
450.46	8931.48
450.65	9116.39
450.83	9013.40
451.02	9095.32
451.20	8997.02
451.39	8938.51
451.57	8968.93
451.76	9188.94
451.94	9177.24
452.13	9245.12
452.31	9273.20
452.49	9305.97
452.68	9303.63
452.86	9235.75
453.05	9341.08
453.23	9474.49
453.42	9242.78
453.60	9268.52
453.78	9556.41
453.97	9432.36
454.15	9359.80
454.34	9446.40
454.52	9865.36
454.70	9673.43
454.89	9540.02
455.07	9804.50
455.26	9774.08
455.44	10026.86
455.62	9930.89
455.81	9689.82
455.99	9940.26
456.17	10106.43
456.36	10235.16
456.54	10143.88
456.73	10040.90
456.91	10399.00
457.09	10265.59
457.28	10410.70
457.46	10143.88
457.64	10195.37
457.83	10448.15
458.01	10347.51
458.19	10789.87
458.38	10450.49
458.56	10714.97
458.74	10759.44
458.93	10649.44
459.11	10724.33
459.29	10719.65
459.48	10738.38
459.66	10729.02
459.84	10747.74
460.03	11075.42
460.21	10883.49
460.39	10979.45
460.57	10698.59
460.76	11019.24
460.94	11019.24
461.12	11185.42
461.31	11162.01
461.49	11220.53
461.67	11068.39
461.85	11634.80
462.04	11389.05
462.22	11918.01
462.40	11489.69
462.59	11569.27
462.77	11379.68
462.95	11386.71
463.13	11470.97
463.32	11686.29
463.50	11936.73
463.68	11777.58
463.86	11847.79
464.05	11632.46
464.23	11585.65
464.41	11763.53
464.59	11531.82
464.78	12070.14
464.96	12042.06
465.14	11976.52
465.32	11939.07
465.50	11997.59
465.69	12009.29
465.87	11953.12
466.05	12056.10
466.23	12269.09
466.41	12273.77
466.60	12432.93
466.78	12189.51
466.96	12269.09
467.14	12149.72
467.32	12056.10
467.51	12409.52
467.69	11950.78
467.87	12540.59
468.05	12734.85
468.23	12421.22
468.41	12496.12
468.60	12575.70
468.78	12549.95
468.96	12844.86
469.14	12828.48
469.32	12847.20
469.50	12753.58
469.69	12959.55
469.87	12950.18
470.05	13036.78
470.23	13034.44
470.41	12879.97
470.59	13308.29
470.77	13181.90
470.95	13128.06
471.14	13589.15
471.32	12891.67
471.50	13429.99
471.68	13589.15
471.86	13664.05
472.04	13654.69
472.22	13792.78
472.40	13715.54
472.58	13551.70
472.77	13912.14
472.95	13811.50
473.13	14298.33
473.31	13893.42
473.49	14169.60
473.67	13998.74
473.85	14279.61
474.03	14604.94
474.21	14455.15
474.39	14696.22
474.57	14714.95
474.75	14738.35
474.93	14906.87
475.12	15211.14
475.30	15089.43
475.48	14909.21
475.66	15290.72
475.84	15126.88
476.02	15330.51
476.20	15456.90
476.38	15716.70
476.56	15901.60
476.74	15796.28
476.92	15749.46
477.10	15613.71
477.28	15826.70
477.46	16332.26
477.64	16325.24
477.82	16664.61
478.00	16910.37
478.18	16428.22
478.36	17020.38
478.54	17090.59
478.72	17163.15
478.90	17465.08
479.08	17486.14
479.26	17577.42
479.44	17830.20
479.62	17869.99
479.80	18082.98
479.98	17991.70
480.16	18567.47
480.34	17991.70
480.52	18207.03
480.70	18714.92
480.88	18672.79
481.06	18576.83
481.24	18869.40
481.41	19253.25
481.59	19229.84
481.77	19665.18
481.95	19625.39
482.13	19817.32
482.31	19644.12
482.49	20407.13
482.67	20159.03
482.85	20262.02
483.03	20685.65
483.21	20580.33
483.39	20893.96
483.57	20779.28
483.74	20957.16
483.92	21242.70
484.10	21392.50
484.28	21530.59
484.46	22036.14
484.64	22029.12
484.82	21926.14
485.00	22424.67
485.18	22822.56
485.35	22850.65
485.53	22780.43
485.71	22841.29
485.89	23213.43
486.07	23225.14
486.25	23613.66
486.43	23365.57
486.61	24018.58
486.78	23988.15
486.96	24151.99
487.14	24451.58
487.32	24870.53
487.50	24734.78
487.68	24797.98
487.85	25106.93
488.03	25511.84
488.21	25495.46
488.39	25647.59
488.57	25869.94
488.75	26132.08
488.92	26712.53
489.10	26443.37
489.28	26529.97
489.46	26944.25
489.64	26899.78
489.81	27573.85
489.99	27674.49
490.17	27576.19
490.35	28034.94
490.53	27899.19
490.70	28610.71
490.88	28121.54
491.06	28676.24
491.24	28636.45
491.41	29153.71
491.59	29247.33
491.77	29174.78
491.95	29570.33
492.13	29340.96
492.30	29853.53
492.48	30061.84
492.66	29991.62
492.84	30218.66
493.01	30616.55
493.19	30726.55
493.37	30778.04
493.54	30965.29
493.72	31435.74
493.90	31325.73
494.08	31569.15
494.25	31894.48
494.43	32318.12
494.61	32325.14
494.79	32811.97
494.96	32285.35
495.14	32580.26
495.32	33083.47
495.49	33251.99
495.67	33160.71
495.85	33259.01
496.02	33525.83
496.20	34061.82
496.38	33780.95
496.55	33961.17
496.73	35037.82
496.91	34609.50
497.09	34593.12
497.26	34911.43
497.44	35124.42
497.62	35290.60
497.79	36013.82
497.97	35482.52
498.14	35758.70
498.32	36531.08
498.50	36259.58
498.67	36327.45
498.85	36425.76
499.03	36973.44
499.20	36526.40
499.38	37170.05
499.56	36748.75
499.73	36844.71
499.91	37123.24
500.08	37537.51
500.26	37670.92
500.44	37251.97
500.61	37413.46
500.79	37940.08
500.97	37921.36
501.14	38675.01
501.32	38342.66
501.49	38026.68
501.67	38780.34
501.84	39054.18
502.02	38773.31
502.20	38787.36
502.37	39292.91
502.55	39276.53
502.72	39512.92
502.90	39154.82
503.07	39370.15
503.25	39770.38
503.43	39618.25
503.60	39976.35
503.78	40215.08
503.95	40135.51
504.13	40226.79
504.30	40538.08
504.48	40156.57
504.65	40973.42
504.83	40781.49
505.01	41132.57
505.18	40975.76
505.36	41773.88
505.53	41172.36
505.71	41570.25
505.88	41748.14
506.06	41488.34
506.23	41909.63
506.41	41645.15
506.58	42216.24
506.76	41593.66
506.93	42183.48
507.11	42101.56
507.28	41867.50
507.46	42639.88
507.63	42852.87
507.81	42892.66
507.98	42976.92
508.16	43086.92
508.33	43508.22
508.50	43498.86
508.68	43585.46
508.85	43791.42
509.03	43805.47
509.20	44018.46
509.38	44112.08
509.55	44208.04
509.73	44163.57
509.90	44493.58
510.08	44339.11
510.25	44907.86
510.42	44458.48
510.60	44762.75
510.77	45113.83
510.95	45144.25
511.12	44940.63
511.30	45315.11
511.47	45394.69
511.64	45265.96
511.82	45783.22
511.99	45055.31
512.17	45799.60
512.34	45827.69
512.51	46335.59
512.69	46089.83
512.86	46038.34
513.04	46293.46
513.21	46445.59
513.38	46614.11
513.56	46576.66
513.73	46679.64
513.90	47037.75
514.08	46904.34
514.25	47365.42
514.43	47323.29
514.60	47068.17
514.77	47203.92
514.95	47402.87
515.12	47524.58
515.29	47824.17
515.47	47999.71
515.64	48163.54
515.81	47840.55
515.99	47875.66
516.16	48416.32
516.33	48105.03
516.51	48247.80
516.68	48456.11
516.85	48332.06
517.03	49146.57
517.20	48477.18
517.37	48523.99
517.54	48790.81
517.72	48996.77
517.89	48905.49
518.06	49008.48
518.24	49127.84
518.41	49298.70
518.58	49499.99
518.75	49331.47
518.93	49331.47
519.10	49148.91
519.27	49787.88
519.45	49584.25
519.62	49600.63
519.79	49888.52
519.96	50054.70
520.14	49869.79
520.31	49722.34
520.48	50209.17
520.65	50155.34
520.83	50550.89
521.00	50129.59
521.17	49949.37
521.34	50602.38
521.52	50925.38
521.69	50578.98
521.86	50770.90
522.03	51133.68
522.20	51210.92
522.38	51356.03
522.55	50981.55
522.72	51330.29
522.89	51281.14
523.07	51842.87
523.24	51482.42
523.41	51915.42
523.58	51414.55
523.75	51517.53
523.92	51667.33
524.10	51779.67
524.27	52009.04
524.44	51980.96
524.61	51838.18
524.78	51852.23
524.96	52079.26
525.13	52376.51
525.30	52236.08
525.47	52502.90
525.64	52540.35
525.81	52561.41
525.98	52406.94
526.16	52655.03
526.33	52339.06
526.50	52879.72
526.67	52495.88
526.84	52835.25
527.01	52619.92
527.18	52914.83
527.36	52753.33
527.53	52779.08
527.70	53078.67
527.87	53247.19
528.04	53382.94
528.21	53411.02
528.38	53661.46
528.55	53350.17
528.72	53352.51
528.89	53219.10
529.07	53357.19
529.24	53539.75
529.41	53727.00
529.58	53532.73
529.75	53535.07
529.92	53516.35
530.09	53773.81
530.26	53876.79
530.43	53757.42
530.60	53371.24
530.77	53666.14
530.94	54155.32
531.11	54145.95
531.28	54169.36
531.46	54138.93
531.63	54169.36
531.80	54141.27
531.97	54340.22
532.14	54380.01
532.31	54295.75
532.48	54389.37
532.65	54625.76
532.82	54223.19
532.99	54836.41
533.16	54485.33
533.33	54614.06
533.50	54703.00
533.67	55000.25
533.84	54768.54
534.01	54649.17
534.18	54918.33
534.35	54904.29
534.52	55016.63
534.69	54908.97
534.86	55025.99
535.03	55056.42
535.20	55079.83
535.37	55262.39
535.54	55377.08
535.71	55267.07
535.88	55496.44
536.05	55217.92
536.22	55281.11
536.38	55529.21
536.55	55309.20
536.72	55484.74
536.89	55334.95
537.06	55608.79
537.23	55737.52
537.40	55557.30
537.57	55503.46
537.74	55873.27
537.91	55814.76
538.08	55765.60
538.25	55622.83
538.42	56165.84
538.59	55875.61
538.75	55906.04
538.92	55866.25
539.09	56006.68
539.26	56149.45
539.43	55920.08
539.60	56189.24
539.77	56177.54
539.94	56390.53
540.11	56236.05
540.28	56376.48
540.44	56474.79
540.61	56811.82
540.78	56406.91
540.95	56514.58
541.12	56575.43
541.29	56308.61
541.46	56385.85
541.62	56460.74
541.79	56458.40
541.96	56156.47
542.13	56528.62
542.30	56655.01
542.47	56533.30
542.63	56774.37
542.80	56765.01
542.97	57001.41
543.14	56985.02
543.31	57076.30
543.48	57200.35
543.64	57293.97
543.81	57385.25
543.98	57268.23
544.15	57169.93
544.32	57399.30
544.48	57717.61
544.65	57303.34
544.82	57464.83
544.99	57127.80
545.16	57434.41
545.32	57350.15
545.49	57506.96
545.66	57593.56
545.83	57647.39
546.00	57586.54
546.16	57469.51
546.33	57574.84
546.50	57481.22
546.67	57670.80
546.83	57277.59
547.00	57820.59
547.17	57626.33
547.34	57986.77
547.50	57921.24
547.67	57968.05
547.84	57942.30
548.00	58223.17
548.17	58216.14
548.34	58056.99
548.51	58281.68
548.67	58122.52
548.84	58092.10
549.01	57932.94
549.18	57879.11
549.34	58183.38
549.51	58288.70
549.68	58307.43
549.84	58124.86
550.01	58258.27
550.18	58321.47
550.34	58164.65
550.51	58501.69
550.68	58328.49
550.84	58038.26
551.01	58379.98
551.18	58356.58
551.34	58363.60
551.51	58351.90
551.68	58532.12
551.84	58340.19
552.01	58382.32
552.18	58588.29
552.34	58450.20
552.51	58607.01
552.68	58461.90
552.84	58719.36
553.01	58808.30
553.18	58630.42
553.34	58656.17
553.51	58801.28
553.67	58660.85
553.84	59150.02
554.01	58857.45
554.17	59042.35
554.34	59082.14
554.51	59007.25
554.67	58745.11
554.84	59042.35
555.00	58820.00
555.17	59119.59
555.33	58972.14
555.50	58904.26
555.67	58972.14
555.83	58810.64
556.00	59187.47
556.16	59180.45
556.33	59089.16
556.50	59196.83
556.66	59461.31
556.83	59178.10
556.99	59393.43
557.16	59370.03
557.32	59395.77
557.49	59632.17
557.65	59442.59
557.82	59304.49
557.98	59416.84
558.15	59557.27
558.32	59526.84
558.48	59288.11
558.65	59131.29
558.81	59393.43
558.98	59257.68
559.14	59639.19
559.31	59594.72
559.47	59571.32
559.64	59442.59
559.80	59618.13
559.97	59711.75
560.13	59655.57
560.30	59545.57
560.46	59763.24
560.63	59744.51
560.79	59730.47
560.96	59690.68
561.12	59674.30
561.29	59852.18
561.45	59716.43
561.61	59646.21
561.78	59868.56
561.94	59786.64
562.11	59877.93
562.27	59592.38
562.44	59840.48
562.60	59866.22
562.77	59950.48
562.93	59917.71
563.10	59817.07
563.26	59840.48
563.42	60198.58
563.59	60006.65
563.75	60011.34
563.92	59950.48
564.08	59952.82
564.24	60165.81
564.41	59983.25
564.57	60060.49
564.74	59957.50
564.90	60191.56
565.07	60076.87
565.23	59964.52
565.39	60013.68
565.56	60088.57
565.72	60158.79
565.88	60268.79
566.05	59819.41
566.21	60161.13
566.38	60184.54
566.54	60083.89
566.70	60111.98
566.87	60247.73
567.03	60013.68
567.19	60570.72
567.36	60252.41
567.52	60093.25
567.68	60430.29
567.85	60388.16
568.01	60336.67
568.17	60301.56
568.34	60252.41
568.50	60327.31
568.66	60378.80
568.83	60310.92
568.99	60336.67
569.15	60348.37
569.32	60212.62
569.48	60149.43
569.64	60516.89
569.81	60402.21
569.97	60331.99
570.13	60381.14
570.30	60399.86
570.46	60329.65
570.62	60470.08
570.78	60596.47
570.95	60287.52
571.11	60542.64
571.27	60252.41
571.43	60381.14
571.60	60441.99
571.76	60437.31
571.92	60720.52
572.09	60638.60
572.25	60463.06
572.41	60336.67
572.57	60589.45
572.74	60589.45
572.90	60327.31
573.06	60523.91
573.22	60535.62
573.38	60397.52
573.55	60715.84
573.71	60624.56
573.87	60563.70
574.03	60413.91
574.20	60676.05
574.36	60378.80
574.52	60814.14
574.68	60762.65
574.84	60584.77
575.01	60619.88
575.17	60772.01
575.33	60456.04
575.49	60587.11
575.65	60781.37
575.82	60877.33
575.98	60788.39
576.14	60783.71
576.30	60690.09
576.46	60591.79
576.62	60638.60
576.79	60528.59
576.95	60657.32
577.11	60928.83
577.27	60760.31
577.43	60722.86
577.59	60713.50
577.75	60617.53
577.92	60825.84
578.08	60619.88
578.24	60867.97
578.40	60739.24
578.56	60722.86
578.72	60736.90
578.88	61001.38
579.04	60952.23
579.21	60874.99
579.37	60956.91
579.53	60935.85
579.69	60753.29
579.85	60816.48
580.01	60748.60
580.17	60706.47
580.33	60938.19
580.49	60788.39
580.65	60853.93
580.82	60776.69
580.98	60814.14
581.14	60989.68
581.30	61029.47
581.46	60816.48
581.62	60734.56
581.78	60928.83
581.94	61022.45
582.10	60996.70
582.26	60898.40
582.42	60772.01
582.58	60926.49
582.74	60832.86
582.90	61022.45
583.06	60779.03
583.22	60734.56
583.38	60917.12
583.54	60783.71
583.70	60947.55
583.86	60977.98
584.02	60903.08
584.18	60893.72
584.34	60989.68
584.50	60863.29
584.66	60753.29
584.82	60954.57
584.98	61062.24
585.14	60949.89
585.30	60851.59
585.46	60940.53
585.62	61083.30
585.78	61125.43
585.94	60772.01
586.10	60973.30
586.26	61076.28
586.42	60985.00
586.58	61031.81
586.74	60996.70
586.90	60980.32
587.06	60858.61
587.22	61109.05
587.38	61069.26
587.54	61106.71
587.70	61137.13
587.86	60959.25
588.02	60938.19
588.18	61162.88
588.34	61022.45
588.49	60994.36
