SpectraSuite Data File
++++++++++++++++++++++++++++++++++++
Date: Fri Oct 25 10:48:30 EDT 2013
User: price-jones
Dark Spectrum Present: No
Reference Spectrum Present: No
Number of Sampled Component Spectra: 1
Spectrometers: USB2+H05261
Integration Time (usec): 100000 (USB2+H05261)
Spectra Averaged: 1 (USB2+H05261)
Boxcar Smoothing: 0 (USB2+H05261)
Correct for Electrical Dark: No (USB2+H05261)
Strobe/Lamp Enabled: No (USB2+H05261)
Correct for Detector Non-linearity: No (USB2+H05261)
Correct for Stray Light: No (USB2+H05261)
Number of Pixels in Processed Spectrum: 2048
>>>>>Begin Processed Spectral Data<<<<<
365.73	163.84
365.92	163.84
366.12	163.84
366.32	72.56
366.52	30.43
366.72	121.71
366.91	0.00
367.11	53.83
367.31	81.92
367.51	28.09
367.70	18.72
367.90	81.92
368.10	21.06
368.30	65.54
368.49	79.58
368.69	65.54
368.89	7.02
369.09	93.62
369.28	107.66
369.48	25.75
369.68	107.66
369.87	142.77
370.07	100.64
370.27	124.05
370.47	191.92
370.66	423.64
370.86	425.98
371.06	461.09
371.25	493.85
371.45	416.62
371.65	566.41
371.84	514.92
372.04	496.19
372.24	519.60
372.44	550.03
372.63	486.83
372.83	552.37
373.03	472.79
373.22	528.96
373.42	564.07
373.62	500.87
373.81	601.52
374.01	573.43
374.21	620.24
374.40	571.09
374.60	526.62
374.79	592.16
374.99	667.05
375.19	599.18
375.38	587.47
375.58	582.79
375.78	514.92
375.97	638.97
376.17	624.92
376.37	587.47
376.56	660.03
376.76	573.43
376.95	645.99
377.15	671.73
377.35	606.20
377.54	655.35
377.74	648.33
377.93	629.60
378.13	660.03
378.33	662.37
378.52	617.90
378.72	734.93
378.91	634.29
379.11	634.29
379.31	622.58
379.50	678.76
379.70	695.14
379.89	727.91
380.09	678.76
380.28	739.61
380.48	727.91
380.68	763.01
380.87	702.16
381.07	681.10
381.26	763.01
381.46	774.72
381.65	601.52
381.85	683.44
382.04	734.93
382.24	713.86
382.43	737.27
382.63	779.40
382.83	753.65
383.02	847.27
383.22	877.70
383.41	856.64
383.61	744.29
383.80	889.40
384.00	763.01
384.19	760.67
384.39	840.25
384.58	737.27
384.78	898.77
384.97	868.34
385.17	873.02
385.36	858.98
385.56	844.93
385.75	812.17
385.95	870.68
386.14	880.04
386.34	786.42
386.53	917.49
386.72	877.70
386.92	924.51
387.11	957.28
387.31	912.81
387.50	912.81
387.70	847.27
387.89	931.53
388.09	926.85
388.28	933.87
388.48	884.72
388.67	1001.75
388.86	917.49
389.06	1004.09
389.25	1034.52
389.45	1039.20
389.64	1060.26
389.84	1032.18
390.03	1086.01
390.22	1027.50
390.42	1078.99
390.61	992.39
390.81	1001.75
391.00	1114.10
391.19	1158.57
391.39	1001.75
391.58	1107.07
391.78	1102.39
391.97	1114.10
392.16	1022.81
392.36	1018.13
392.55	1018.13
392.75	1111.75
392.94	1029.84
393.13	1053.24
393.33	1036.86
393.52	1114.10
393.71	1128.14
393.91	1088.35
394.10	1125.80
394.29	1132.82
394.49	1102.39
394.68	1160.91
394.88	1224.10
395.07	1331.76
395.26	1280.27
395.46	1301.34
395.65	1217.08
395.84	1352.83
396.04	1299.00
396.23	1273.25
396.42	1238.14
396.62	1118.78
396.81	1207.72
397.00	1268.57
397.19	1327.08
397.39	1345.81
397.58	1439.43
397.77	1455.81
397.97	1362.19
398.16	1448.79
398.35	1526.03
398.55	1427.73
398.74	1507.30
398.93	1458.15
399.12	1455.81
399.32	1551.78
399.51	1659.44
399.70	1701.57
399.90	1570.50
400.09	1645.40
400.28	1671.14
400.47	1675.82
400.67	1678.16
400.86	1708.59
401.05	1586.88
401.24	1783.49
401.44	1797.53
401.63	1762.42
401.82	1696.89
402.01	1729.66
402.21	1694.55
402.40	1781.15
402.59	1799.87
402.78	1708.59
402.97	1736.68
403.17	1673.48
403.36	1860.73
403.55	1874.77
403.74	1923.92
403.93	1891.15
404.13	1937.96
404.32	1949.67
404.51	2031.58
404.70	1994.14
404.89	1928.60
405.09	1984.77
405.28	2017.54
405.47	1963.71
405.66	2003.50
405.85	2015.20
406.05	2071.37
406.24	2069.03
406.43	2024.56
406.62	2176.70
406.81	2136.91
407.00	2080.74
407.20	2031.58
407.39	2087.76
407.58	2200.10
407.77	2129.89
407.96	2352.24
408.15	2186.06
408.34	2223.51
408.54	2406.07
408.73	2321.81
408.92	2347.56
409.11	2424.80
409.30	2359.26
409.49	2298.41
409.68	2216.49
409.87	2298.41
410.07	2349.90
410.26	2413.09
410.45	2485.65
410.64	2476.29
410.83	2567.57
411.02	2551.18
411.21	2651.83
411.40	2583.95
411.59	2616.72
411.78	2633.10
411.98	2818.00
412.17	2764.17
412.36	2581.61
412.55	2623.74
412.74	2715.02
412.93	2801.62
413.12	2836.73
413.31	2864.82
413.50	2899.92
413.69	2864.82
413.88	2967.80
414.07	2911.63
414.26	3028.65
414.45	2995.89
414.64	3028.65
414.83	2967.80
415.02	3068.44
415.22	3176.11
415.41	3206.53
415.60	3248.66
415.79	3330.58
415.98	3272.07
416.17	3262.71
416.36	3302.50
416.55	3297.81
416.74	3248.66
416.93	3236.96
417.12	3372.71
417.31	3358.67
417.50	3321.22
417.69	3534.21
417.88	3433.57
418.07	3435.91
418.26	3471.01
418.45	3583.36
418.64	3630.17
418.83	3676.98
419.02	3571.66
419.21	3686.34
419.39	3719.11
419.58	3597.40
419.77	3389.10
419.96	3588.04
420.15	3728.47
420.34	3751.88
420.53	3786.99
420.72	3901.67
420.91	3871.25
421.10	3756.56
421.29	3798.69
421.48	3868.91
421.67	3826.78
421.86	3885.29
422.05	3829.12
422.24	3822.09
422.43	3805.71
422.61	3861.88
422.80	3871.25
422.99	3861.88
423.18	4016.36
423.37	4025.72
423.56	3969.55
423.75	4009.34
423.94	3882.95
424.13	3815.07
424.32	3676.98
424.50	3896.99
424.69	4126.36
424.88	3985.93
425.07	4018.70
425.26	3955.51
425.45	3988.27
425.64	4025.72
425.83	4079.55
426.01	4140.41
426.20	4152.11
426.39	4138.07
426.58	4007.00
426.77	3920.40
426.96	3932.10
427.15	4007.00
427.33	3999.98
427.52	4112.32
427.71	4117.00
427.90	4152.11
428.09	4243.39
428.28	4131.05
428.46	4264.46
428.65	4170.83
428.84	4208.28
429.03	4269.14
429.22	4163.81
429.40	4227.01
429.59	4198.92
429.78	4119.34
429.97	3978.91
430.16	3992.95
430.34	4098.28
430.53	4152.11
430.72	4369.78
430.91	4285.52
431.10	4365.10
431.28	4641.28
431.47	4606.17
431.66	4807.46
431.85	4601.49
432.03	4692.77
432.22	4657.67
432.41	4718.52
432.60	4685.75
432.79	4648.30
432.97	4744.27
433.16	4664.69
433.35	4655.33
433.54	4631.92
433.72	4636.60
433.91	4758.31
434.10	4837.89
434.28	4851.93
434.47	4889.38
434.66	5064.92
434.85	4915.12
435.03	4964.28
435.22	4894.06
435.41	5036.83
435.59	5217.05
435.78	5142.16
435.97	5259.18
436.16	5186.63
436.34	5114.07
436.53	5128.11
436.72	5167.90
436.90	5055.56
437.09	5324.72
437.28	5289.61
437.46	5249.82
437.65	5242.80
437.84	5259.18
438.02	5289.61
438.21	5219.39
438.40	5163.22
438.58	5224.08
438.77	5427.70
438.96	5378.55
439.14	5521.32
439.33	5626.65
439.52	5640.69
439.70	5706.23
439.89	5685.16
440.08	5652.39
440.26	5809.21
440.45	5877.09
440.63	6008.16
440.82	6167.31
441.01	6052.63
441.19	6090.07
441.38	6104.12
441.57	6043.26
441.75	6354.55
441.94	6328.81
442.12	6375.62
442.31	6373.28
442.50	6244.55
442.68	6223.48
442.87	6284.34
443.05	6410.73
443.24	6534.78
443.43	6499.67
443.61	6466.90
443.80	6600.31
443.98	6604.99
444.17	6310.08
444.35	6593.29
444.54	6712.66
444.73	6537.12
444.91	6569.88
445.10	6616.69
445.28	6349.87
445.47	6410.73
445.65	6654.14
445.84	6448.18
446.02	6595.63
446.21	6558.18
446.39	6677.55
446.58	6785.21
446.77	6693.93
446.95	6539.46
447.14	6832.02
447.32	6682.23
447.51	6635.42
447.69	6771.17
447.88	6703.29
448.06	6712.66
448.25	6675.21
448.43	6974.80
448.62	6841.39
448.80	6736.06
448.99	6963.09
449.17	6874.15
449.36	6925.65
449.54	7208.85
449.73	7129.27
449.91	7136.29
450.10	7094.16
450.28	7351.62
450.46	7344.60
450.65	7433.54
450.83	7211.19
451.02	7145.66
451.20	7365.67
451.39	7351.62
451.57	7110.55
451.76	7375.03
451.94	7349.28
452.13	7424.18
452.31	7162.04
452.49	7222.89
452.68	7227.57
452.86	7201.83
453.05	7391.41
453.23	7499.08
453.42	7370.35
453.60	7197.15
453.78	7424.18
453.97	7452.27
454.15	7375.03
454.34	7405.46
454.52	7620.78
454.70	7499.08
454.89	7702.70
455.07	7733.13
455.26	7740.15
455.44	7889.95
455.62	7789.30
455.81	7679.30
455.99	7887.61
456.17	7836.11
456.36	7950.80
456.54	7953.14
456.73	7925.05
456.91	8212.94
457.09	8255.07
457.28	8100.59
457.46	8023.36
457.64	8091.23
457.83	8329.97
458.01	8173.15
458.19	8102.93
458.38	8196.56
458.56	8177.83
458.74	8255.07
458.93	8397.84
459.11	8191.88
459.29	8376.78
459.48	8334.65
459.66	8196.56
459.84	8519.55
460.03	8507.85
460.21	8624.87
460.39	8627.21
460.57	8360.39
460.76	8610.83
460.94	8592.11
461.12	8702.11
461.31	8753.60
461.49	8713.81
461.67	8681.05
461.85	8901.06
462.04	8959.57
462.22	9301.29
462.40	8828.50
462.59	8997.02
462.77	9125.75
462.95	8964.25
463.13	8882.33
463.32	8879.99
463.50	9128.09
463.68	9291.93
463.86	9163.20
464.05	9006.38
464.23	8884.67
464.41	9069.58
464.59	8950.21
464.78	9247.46
464.96	9118.73
465.14	9212.35
465.32	9207.67
465.50	9345.76
465.69	9483.85
465.87	9151.49
466.05	9315.33
466.23	9177.24
466.41	9228.73
466.60	9521.30
466.78	9500.23
466.96	9305.97
467.14	9479.17
467.32	9451.08
467.51	9451.08
467.69	9249.80
467.87	9514.28
468.05	9631.30
468.23	9572.79
468.41	9502.58
468.60	9547.05
468.78	9748.33
468.96	9640.67
469.14	9778.76
469.32	9949.62
469.50	9736.63
469.69	9858.34
469.87	9841.95
470.05	9624.28
470.23	9933.23
470.41	9762.37
470.59	10143.88
470.77	9830.25
470.95	10043.24
471.14	10345.17
471.32	9916.85
471.50	10291.34
471.68	10356.87
471.86	10513.69
472.04	10422.41
472.22	10806.25
472.40	10354.53
472.58	10422.41
472.77	10607.31
472.95	10764.12
473.13	10759.44
473.31	10775.83
473.49	10693.91
473.67	10668.16
473.85	10970.09
474.03	10993.50
474.21	10995.84
474.39	10848.38
474.57	11070.73
474.75	11461.60
474.93	11382.03
475.12	11239.25
475.30	11281.38
475.48	11262.66
475.66	11204.14
475.84	11276.70
476.02	11658.21
476.20	11562.25
476.38	11761.19
476.56	12044.40
476.74	11946.09
476.92	11796.30
477.10	12142.70
477.28	12067.80
477.46	12379.09
477.64	12313.56
477.82	12262.07
478.00	12542.93
478.18	12468.03
478.36	12613.15
478.54	12634.21
478.72	12950.18
478.90	13060.19
479.08	13217.01
479.26	13341.05
479.44	13165.51
479.62	13191.26
479.80	13341.05
479.98	13598.51
480.16	13582.13
480.34	13554.04
480.52	13937.89
480.70	13905.12
480.88	13968.32
481.06	14073.64
481.24	14406.00
481.41	14195.35
481.59	14546.43
481.77	14651.75
481.95	14527.71
482.13	14817.93
482.31	14750.06
482.49	15274.34
482.67	15005.17
482.85	14937.30
483.03	15473.28
483.21	15452.22
483.39	15599.67
483.57	15513.07
483.74	15744.78
483.92	15917.98
484.10	15784.57
484.28	15955.43
484.46	16037.35
484.64	16266.72
484.82	16381.41
485.00	16269.06
485.18	16280.77
485.35	16423.54
485.53	16395.45
485.71	16121.61
485.89	16535.88
486.07	16924.41
486.25	16896.33
486.43	16992.29
486.61	17144.42
486.78	17750.62
486.96	17736.58
487.14	17771.69
487.32	18040.85
487.50	18050.21
487.68	18352.14
487.85	18766.42
488.03	18771.10
488.21	18759.39
488.39	18944.30
488.57	19080.05
488.75	19049.62
488.92	19028.56
489.10	19325.80
489.28	19618.37
489.46	19782.21
489.64	20023.28
489.81	20149.67
489.99	20236.27
490.17	20713.74
490.35	20753.53
490.53	20500.75
490.70	20439.90
490.88	20720.76
491.06	20905.66
491.24	20889.28
491.41	20910.35
491.59	21095.25
491.77	20945.45
491.95	21123.33
492.13	21530.59
492.30	21888.69
492.48	21565.70
492.66	21937.84
492.84	21935.50
493.01	22391.91
493.19	22333.39
493.37	22288.92
493.54	22618.94
493.72	22710.22
493.90	23140.88
494.08	22995.76
494.25	23470.89
494.43	23358.55
494.61	23676.86
494.79	23826.65
494.96	23445.15
495.14	23686.22
495.32	24269.01
495.49	23817.29
495.67	24198.80
495.85	24533.50
496.02	24514.77
496.20	24521.79
496.38	24996.92
496.55	24805.00
496.73	25443.96
496.91	24879.89
497.09	25326.94
497.26	25509.50
497.44	25266.08
497.62	25516.52
497.79	25593.76
497.97	25671.00
498.14	25762.28
498.32	25895.69
498.50	25802.07
498.67	26375.50
498.85	26146.12
499.03	26546.36
499.20	26405.92
499.38	26567.42
499.56	26326.35
499.73	26792.11
499.91	27030.85
500.08	26803.82
500.26	26841.26
500.44	27133.83
500.61	27147.87
500.79	26911.48
500.97	27276.60
501.14	27339.80
501.32	27477.89
501.49	27459.16
501.67	27559.81
501.84	27620.66
502.02	27496.61
502.20	28023.23
502.37	28393.04
502.55	28240.90
502.72	28189.41
502.90	28446.87
503.07	28423.47
503.25	28484.32
503.43	28786.25
503.60	28758.16
503.78	28477.30
503.95	28823.70
504.13	29083.50
504.30	29123.29
504.48	29127.97
504.65	29263.72
504.83	29457.98
505.01	29780.98
505.18	29624.16
505.36	29745.87
505.53	29603.10
505.71	30075.88
505.88	29837.15
506.06	29586.71
506.23	30005.67
506.41	30106.31
506.58	29977.58
506.76	30043.12
506.93	30452.71
507.11	30382.49
507.28	30045.46
507.46	30558.03
507.63	30326.32
507.81	30562.72
507.98	30611.87
508.16	30925.50
508.33	30689.10
508.50	30881.03
508.68	31138.49
508.85	31438.08
509.03	31407.65
509.20	31243.81
509.38	31618.30
509.55	31669.79
509.73	31798.52
509.90	31482.55
510.08	31573.83
510.25	32151.94
510.42	31995.12
510.60	32163.64
510.77	32041.93
510.95	32657.49
511.12	32151.94
511.30	32119.17
511.47	32811.97
511.64	32671.54
511.82	32383.65
511.99	32706.65
512.17	33074.11
512.34	32510.04
512.51	33013.26
512.69	32987.51
512.86	32940.70
513.04	33078.79
513.21	32804.95
513.38	33308.16
513.56	33156.03
513.73	33090.49
513.90	33291.78
514.08	33500.09
514.25	33860.53
514.43	33724.78
514.60	33560.94
514.77	33680.31
514.95	34265.44
515.12	33986.92
515.29	34082.88
515.47	34555.67
515.64	34305.23
515.81	34185.86
515.99	34473.75
516.16	33996.28
516.33	33766.91
516.51	34471.41
516.68	33310.50
516.85	33937.77
517.03	34094.58
517.20	34607.16
517.37	34153.10
517.54	34721.85
517.72	34773.34
517.89	34216.29
518.06	34689.08
518.24	34478.43
518.41	34541.63
518.58	34562.69
518.75	34890.37
518.93	35433.37
519.10	34969.94
519.27	35482.52
519.45	35178.25
519.62	35597.21
519.79	35665.08
519.96	36215.11
520.14	35927.22
520.31	35775.09
520.48	35847.64
520.65	36182.34
520.83	36278.30
521.00	36521.72
521.17	36264.26
521.34	36446.82
521.52	36584.91
521.69	36711.30
521.86	37062.38
522.03	37062.38
522.20	36685.56
522.38	36868.12
522.55	36992.17
522.72	36715.98
522.89	36905.57
523.07	37296.44
523.24	37167.71
523.41	37495.38
523.58	37015.57
523.75	37989.24
523.92	37509.43
524.10	37762.20
524.27	37619.43
524.44	37813.70
524.61	37937.74
524.78	38012.64
524.96	37982.21
525.13	38071.15
525.30	38396.49
525.47	38309.89
525.64	38244.35
525.81	38117.96
525.98	38160.09
526.16	37593.68
526.33	37504.74
526.50	38607.14
526.67	37691.99
526.84	37839.44
527.01	37769.22
527.18	38174.14
527.36	38733.53
527.53	38892.68
527.70	39096.31
527.87	39180.57
528.04	38920.77
528.21	39124.40
528.38	39096.31
528.55	39372.49
528.72	39189.93
528.89	39393.56
529.07	39456.75
529.24	39431.01
529.41	39108.01
529.58	39021.41
529.75	39337.38
529.92	39931.88
530.09	39627.61
530.26	39297.59
530.43	39660.38
530.60	39384.19
530.77	39578.46
530.94	40416.37
531.11	40219.77
531.28	40119.12
531.46	39962.31
531.63	40095.72
531.80	40271.26
531.97	40041.88
532.14	39812.51
532.31	39868.69
532.48	39927.20
532.65	40156.57
532.82	40016.14
532.99	40432.75
533.16	40126.14
533.33	40252.53
533.50	40832.99
533.67	40711.28
533.84	40364.88
534.01	40816.60
534.18	40643.40
534.35	40842.35
534.52	40348.50
534.69	40697.24
534.86	41111.51
535.03	40498.29
535.20	41123.21
535.37	41319.82
535.54	41406.42
535.71	41617.07
535.88	41228.54
536.05	40957.03
536.22	41319.82
536.38	41399.40
536.55	41104.49
536.72	41474.29
536.89	41289.39
537.06	41397.06
537.23	41675.58
537.40	41277.69
537.57	41757.50
537.74	41528.13
537.91	42134.32
538.08	42021.98
538.25	41057.68
538.42	41874.52
538.59	42052.41
538.75	41017.89
538.92	41689.62
539.09	42122.62
539.26	41940.06
539.43	42312.20
539.60	42139.00
539.77	41801.97
539.94	42497.11
540.11	41677.92
540.28	41727.07
540.44	41710.69
540.61	42073.47
540.78	41961.12
540.95	42117.94
541.12	42373.06
541.29	42319.23
541.46	42351.99
541.62	42389.44
541.79	42522.85
541.96	42335.61
542.13	42787.33
542.30	42761.59
542.47	42824.78
542.63	42742.86
542.80	42770.95
542.97	43072.88
543.14	43161.82
543.31	43206.29
543.48	43072.88
543.64	43833.55
543.81	43749.29
543.98	43325.66
544.15	43421.62
544.32	43765.68
544.48	44083.99
544.65	43587.80
544.82	43306.93
544.99	42873.93
545.16	43480.13
545.32	43491.83
545.49	43646.31
545.66	43955.26
545.83	43995.05
546.00	44027.82
546.16	43772.70
546.33	43840.57
546.50	43124.37
546.67	43777.38
546.83	43510.56
547.00	43430.98
547.17	43676.74
547.34	43791.42
547.50	43831.21
547.67	44428.05
547.84	43660.35
548.00	44224.42
548.17	44378.90
548.34	43924.83
548.51	44545.08
548.67	44594.23
548.84	44208.04
549.01	44069.95
549.18	44341.45
549.34	44355.49
549.51	44612.95
549.68	44472.52
549.84	44392.94
550.01	44332.09
550.18	44472.52
550.34	44802.53
550.51	44542.74
550.68	44369.54
550.84	44292.30
551.01	44631.68
551.18	44081.65
551.34	44722.96
551.51	44971.05
551.68	45287.03
551.84	45127.87
552.01	44795.51
552.18	45235.53
552.34	44423.37
552.51	44697.21
552.68	44505.29
552.84	44893.82
553.01	45387.67
553.18	45333.84
553.34	44968.71
553.51	44807.22
553.67	45006.16
553.84	45179.36
554.01	45518.74
554.17	45268.30
554.34	45102.12
554.51	45614.70
554.67	45415.76
554.84	45251.92
555.00	45340.86
555.17	45151.27
555.33	44999.14
555.50	45649.81
555.67	45694.28
555.83	45656.83
556.00	45684.92
556.16	45584.27
556.33	45563.21
556.50	45591.30
556.66	45476.61
556.83	44896.16
556.99	45528.10
557.16	45794.92
557.32	45701.30
557.49	45715.34
557.65	45502.35
557.82	45624.06
557.98	45890.88
558.15	45399.37
558.32	45713.00
558.48	45593.64
558.65	45570.23
558.81	45455.54
558.98	45869.82
559.14	45670.87
559.31	45787.90
559.47	45837.05
559.64	46085.15
559.80	45982.16
559.97	46373.03
560.13	45925.99
560.30	46174.09
560.46	45989.19
560.63	45853.44
560.79	46424.53
560.96	46241.96
561.12	46300.48
561.29	45741.09
561.45	45923.65
561.61	45933.01
561.78	46026.63
561.94	45979.82
562.11	45949.40
562.27	46024.29
562.44	46202.18
562.60	46497.08
562.77	46738.16
562.93	46138.98
563.10	46541.55
563.26	46141.32
563.42	46492.40
563.59	46284.09
563.75	45998.55
563.92	46471.34
564.08	46759.22
564.24	46087.49
564.41	46398.78
564.57	46178.77
564.74	46623.47
564.90	46527.51
565.07	46082.81
565.23	46094.51
565.39	46202.18
565.56	46366.01
565.72	46211.54
565.88	46192.81
566.05	46176.43
566.21	45830.03
566.38	46408.14
566.54	46670.28
566.70	46389.42
566.87	46595.38
567.03	46586.02
567.19	47114.98
567.36	46562.62
567.52	46681.98
567.68	46377.72
567.85	45869.82
568.01	46368.35
568.17	46223.24
568.34	46717.09
568.50	46110.89
568.66	46082.81
568.83	46436.23
568.99	46333.24
569.15	46506.44
569.32	46405.80
569.48	46155.36
569.64	46920.72
569.81	46855.18
569.97	46141.32
570.13	46445.59
570.30	46515.81
570.46	46492.40
570.62	46153.02
570.78	45844.07
570.95	46473.68
571.11	46834.12
571.27	46230.26
571.43	46625.81
571.60	46684.33
571.76	46780.29
571.92	46506.44
572.09	46616.45
572.25	46623.47
572.41	46927.74
572.57	46815.40
572.74	47224.99
572.90	46721.77
573.06	46658.58
573.22	47063.49
573.38	46948.81
573.55	46628.15
573.71	46944.12
573.87	46852.84
574.03	46557.94
574.20	46384.74
574.36	46696.03
574.52	47028.38
574.68	46796.67
574.84	47028.38
575.01	46562.62
575.17	46880.93
575.33	46902.00
575.49	46857.52
575.65	46993.28
575.82	46871.57
575.98	46850.50
576.14	46593.04
576.30	46906.68
576.46	46546.23
576.62	46918.38
576.79	46859.87
576.95	46195.15
577.11	46700.71
577.27	47051.79
577.43	46848.16
577.59	46831.78
577.75	46567.30
577.92	46419.84
578.08	46110.89
578.24	46241.96
578.40	46595.38
578.56	47033.07
578.72	46438.57
578.88	46944.12
579.04	46447.93
579.21	46806.03
579.37	46841.14
579.53	46653.90
579.69	46389.42
579.85	47129.03
580.01	47030.72
580.17	47215.63
580.33	47276.48
580.49	47206.26
580.65	46667.94
580.82	46609.43
580.98	46731.14
581.14	46436.23
581.30	47297.55
581.46	47075.19
581.62	46801.35
581.78	46686.67
581.94	47632.24
582.10	47096.26
582.26	46747.52
582.42	47002.64
582.58	46724.11
582.74	47000.30
582.90	46761.56
583.06	46808.37
583.22	46892.63
583.38	46946.47
583.54	46681.98
583.70	46927.74
583.86	46862.21
584.02	46700.71
584.18	46988.60
584.34	46934.76
584.50	46953.49
584.66	46419.84
584.82	46541.55
584.98	47042.43
585.14	46972.21
585.30	46618.79
585.46	46951.15
585.62	47161.79
585.78	46480.70
585.94	46295.80
586.10	46719.43
586.26	46600.07
586.42	46958.17
586.58	46852.84
586.74	47236.69
586.90	46576.66
587.06	46876.25
587.22	47154.77
587.38	46515.81
587.54	47224.99
587.70	47072.85
587.86	47014.34
588.02	46754.54
588.18	46885.61
588.34	46768.58
588.49	46298.14
588.65	46099.19
588.81	46305.16
588.97	46930.08
589.13	46387.08
589.29	46426.87
589.45	46553.26
589.61	46579.00
589.77	46738.16
