SpectraSuite Data File
++++++++++++++++++++++++++++++++++++
Date: Fri Oct 25 11:23:13 EDT 2013
User: price-jones
Dark Spectrum Present: No
Reference Spectrum Present: No
Number of Sampled Component Spectra: 1
Spectrometers: USB2+H05261
Integration Time (usec): 100000 (USB2+H05261)
Spectra Averaged: 1 (USB2+H05261)
Boxcar Smoothing: 0 (USB2+H05261)
Correct for Electrical Dark: No (USB2+H05261)
Strobe/Lamp Enabled: No (USB2+H05261)
Correct for Detector Non-linearity: No (USB2+H05261)
Correct for Stray Light: No (USB2+H05261)
Number of Pixels in Processed Spectrum: 2048
>>>>>Begin Processed Spectral Data<<<<<
365.73	170.86
365.92	170.86
366.12	170.86
366.32	170.86
366.52	117.03
366.72	180.22
366.91	149.79
367.11	152.13
367.31	107.66
367.51	170.86
367.70	88.94
367.90	140.43
368.10	112.35
368.30	91.28
368.49	60.85
368.69	117.03
368.89	128.73
369.09	152.13
369.28	93.62
369.48	147.45
369.68	135.75
369.87	194.26
370.07	194.26
370.27	238.73
370.47	304.27
370.66	627.26
370.86	603.86
371.06	645.99
371.25	664.71
371.45	709.18
371.65	706.84
371.84	671.73
372.04	674.07
372.24	667.05
372.44	697.48
372.63	758.33
372.83	730.25
373.03	704.50
373.22	746.63
373.42	781.74
373.62	779.40
373.81	793.44
374.01	835.57
374.21	816.85
374.40	840.25
374.60	807.48
374.79	772.38
374.99	858.98
375.19	875.36
375.38	905.79
375.58	816.85
375.78	854.30
375.97	908.13
376.17	905.79
376.37	882.38
376.56	842.59
376.76	901.11
376.95	905.79
377.15	891.74
377.35	835.57
377.54	910.47
377.74	910.47
377.93	898.77
378.13	945.58
378.33	966.64
378.52	816.85
378.72	978.34
378.91	950.26
379.11	957.28
379.31	971.32
379.50	910.47
379.70	1029.84
379.89	961.96
380.09	919.83
380.28	976.00
380.48	985.37
380.68	966.64
380.87	1053.24
381.07	959.62
381.26	997.07
381.46	987.71
381.65	1128.14
381.85	1090.69
382.04	1057.92
382.24	1076.65
382.43	1020.47
382.63	1048.56
382.83	1086.01
383.02	1118.78
383.22	1128.14
383.41	1102.39
383.61	1076.65
383.80	1151.54
384.00	1184.31
384.19	1093.03
384.39	1114.10
384.58	1104.73
384.78	1086.01
384.97	1109.41
385.17	1107.07
385.36	1174.95
385.56	1062.60
385.75	1240.48
385.95	1212.40
386.14	1184.31
386.34	1291.98
386.53	1268.57
386.72	1128.14
386.92	1214.74
387.11	1217.08
387.31	1203.04
387.50	1242.82
387.70	1212.40
387.89	1235.80
388.09	1224.10
388.28	1282.61
388.48	1238.14
388.67	1254.53
388.86	1266.23
389.06	1294.32
389.25	1313.04
389.45	1289.64
389.64	1348.15
389.84	1387.94
390.03	1350.49
390.22	1322.40
390.42	1409.00
390.61	1352.83
390.81	1392.62
391.00	1418.36
391.19	1460.49
391.39	1455.81
391.58	1490.92
391.78	1497.94
391.97	1563.48
392.16	1483.90
392.36	1474.54
392.55	1572.84
392.75	1561.14
392.94	1500.28
393.13	1528.37
393.33	1497.94
393.52	1554.12
393.71	1617.31
393.91	1533.05
394.10	1579.86
394.29	1626.67
394.49	1551.78
394.68	1600.93
394.88	1638.38
395.07	1708.59
395.26	1685.19
395.46	1673.48
395.65	1706.25
395.84	1781.15
396.04	1837.32
396.23	1687.53
396.42	1699.23
396.62	1820.94
396.81	1790.51
397.00	1692.21
397.19	1797.53
397.39	1865.41
397.58	1905.20
397.77	1970.73
397.97	1909.88
398.16	1834.98
398.35	1802.21
398.55	1902.86
398.74	1959.03
398.93	1832.64
399.12	1933.28
399.32	1907.54
399.51	1912.22
399.70	1989.46
399.90	1930.94
400.09	2008.18
400.28	1989.46
400.47	2029.24
400.67	2111.16
400.86	2115.84
401.05	2157.97
401.24	2052.65
401.44	2253.94
401.63	2099.46
401.82	2132.23
402.01	2090.10
402.21	2221.17
402.40	2319.47
402.59	2197.76
402.78	2179.04
402.97	2172.02
403.17	2216.49
403.36	2270.32
403.55	2319.47
403.74	2396.71
403.93	2377.98
404.13	2471.61
404.32	2380.32
404.51	2356.92
404.70	2403.73
404.89	2345.22
405.09	2523.10
405.28	2525.44
405.47	2492.67
405.66	2560.55
405.85	2593.31
406.05	2497.35
406.24	2555.86
406.43	2654.17
406.62	2647.15
406.81	2665.87
407.00	2520.76
407.20	2630.76
407.39	2616.72
407.58	2703.32
407.77	2761.83
407.96	2848.43
408.15	2801.62
408.34	2715.02
408.54	2789.92
408.73	2759.49
408.92	2832.05
409.11	2904.60
409.30	2857.79
409.49	2808.64
409.68	3026.31
409.87	3016.95
410.07	3054.40
410.26	3087.17
410.45	3105.89
410.64	2986.52
410.83	2970.14
411.02	3054.40
411.21	3138.66
411.40	3157.38
411.59	3183.13
411.78	3283.77
411.98	3258.03
412.17	3232.28
412.36	3267.39
412.55	3466.33
412.74	3389.10
412.93	3316.54
413.12	3351.65
413.31	3419.52
413.50	3386.76
413.69	3499.10
413.88	3637.19
414.07	3646.55
414.26	3557.61
414.45	3651.24
414.64	3723.79
414.83	3716.77
415.02	3751.88
415.22	3866.56
415.41	4037.42
415.60	3878.27
415.79	3840.82
415.98	4028.06
416.17	4002.32
416.36	3950.82
416.55	4114.66
416.74	4201.26
416.93	4107.64
417.12	4128.70
417.31	4241.05
417.50	4124.02
417.69	4379.14
417.88	4344.03
418.07	4322.97
418.26	4269.14
418.45	4383.82
418.64	4521.92
418.83	4461.06
419.02	4526.60
419.21	4608.51
419.39	4613.20
419.58	4334.67
419.77	4458.72
419.96	4533.62
420.15	4622.56
420.34	4538.30
420.53	4638.94
420.72	4720.86
420.91	4809.80
421.10	4870.65
421.29	4781.71
421.48	4697.46
421.67	4758.31
421.86	4889.38
422.05	4950.23
422.24	4826.18
422.43	4990.02
422.61	5022.79
422.80	5013.43
422.99	4926.83
423.18	4851.93
423.37	5013.43
423.56	5013.43
423.75	4975.98
423.94	5006.41
424.13	4777.03
424.32	4723.20
424.50	4926.83
424.69	5172.58
424.88	5093.01
425.07	5041.51
425.26	4926.83
425.45	4994.70
425.64	4847.25
425.83	5050.88
426.01	5083.64
426.20	5107.05
426.39	5219.39
426.58	5174.92
426.77	5013.43
426.96	5125.77
427.15	5179.61
427.33	5135.14
427.52	5153.86
427.71	5301.31
427.90	5252.16
428.09	5584.52
428.28	5465.15
428.46	5392.59
428.65	5430.04
428.84	5474.51
429.03	5596.22
429.22	5348.12
429.40	5479.19
429.59	5577.50
429.78	5231.10
429.97	5301.31
430.16	5490.90
430.34	5708.57
430.53	5593.88
430.72	5584.52
430.91	5731.97
431.10	5661.76
431.28	5762.40
431.47	5858.36
431.66	5816.23
431.85	5827.93
432.03	6083.05
432.22	6015.18
432.41	5977.73
432.60	5844.32
432.79	6059.65
432.97	6083.05
433.16	6071.35
433.35	6139.23
433.54	6064.33
433.72	6167.31
433.91	6183.70
434.10	6296.04
434.28	6080.71
434.47	6242.21
434.66	6265.61
434.85	6370.94
435.03	6478.60
435.22	6300.72
435.41	6558.18
435.59	6331.15
435.78	6569.88
435.97	6527.75
436.16	6534.78
436.34	6445.84
436.53	6576.91
436.72	6810.96
436.90	6324.13
437.09	6698.61
437.28	6455.20
437.46	6668.19
437.65	6682.23
437.84	6925.65
438.02	6736.06
438.21	6913.94
438.40	6590.95
438.58	6927.99
438.77	7178.42
438.96	7059.06
439.14	7176.08
439.33	7246.30
439.52	7206.51
439.70	7201.83
439.89	7370.35
440.08	7421.84
440.26	7478.01
440.45	7391.41
440.63	7508.44
440.82	7513.12
441.01	7461.63
441.19	7815.05
441.38	7655.89
441.57	7810.37
441.75	7948.46
441.94	8006.97
442.12	7829.09
442.31	8184.85
442.50	8252.73
442.68	8203.58
442.87	8152.09
443.05	8257.41
443.24	8386.14
443.43	8524.23
443.61	8182.51
443.80	8493.80
443.98	8205.92
444.17	7861.86
444.35	8210.60
444.54	8454.02
444.73	8369.76
444.91	8437.63
445.10	8379.12
445.28	8224.64
445.47	8315.92
445.65	8472.74
445.84	8472.74
446.02	8491.46
446.21	8552.32
446.39	8468.06
446.58	8486.78
446.77	8690.41
446.95	8496.14
447.14	8535.93
447.32	8587.43
447.51	8425.93
447.69	8638.92
447.88	8805.10
448.06	8458.70
448.25	8727.86
448.43	8634.24
448.62	8652.96
448.80	8643.60
448.99	8917.44
449.17	8826.16
449.36	8856.59
449.54	8968.93
449.73	8854.25
449.91	9107.02
450.10	9020.42
450.28	9270.86
450.46	9114.05
450.65	8833.18
450.83	9268.52
451.02	9057.87
451.20	9305.97
451.39	9362.14
451.57	9121.07
451.76	9188.94
451.94	9472.15
452.13	9605.56
452.31	9486.19
452.49	9383.21
452.68	9343.42
452.86	9497.89
453.05	9565.77
453.23	9652.37
453.42	9521.30
453.60	9565.77
453.78	9612.58
453.97	9490.87
454.15	9598.54
454.34	9544.70
454.52	9745.99
454.70	9738.97
454.89	9717.90
455.07	9710.88
455.26	9860.68
455.44	9970.68
455.62	10031.54
455.81	10043.24
455.99	10012.81
456.17	10263.25
456.36	10174.31
456.54	9914.51
456.73	10279.63
456.91	10565.18
457.09	10499.64
457.28	10752.42
457.46	10455.17
457.64	10443.47
457.83	10649.44
458.01	10511.35
458.19	10782.85
458.38	10403.68
458.56	10881.15
458.74	10862.43
458.93	10593.26
459.11	10909.24
459.29	10991.16
459.48	10981.79
459.66	10686.89
459.84	10867.11
460.03	11225.21
460.21	11014.56
460.39	11087.12
460.57	11262.66
460.76	11412.45
460.94	11166.70
461.12	11522.46
461.31	11307.13
461.49	11351.60
461.67	11274.36
461.85	11604.38
462.04	11431.18
462.22	11482.67
462.40	11723.74
462.59	11712.04
462.77	11838.43
462.95	11915.67
463.13	11913.33
463.32	11896.94
463.50	11763.53
463.68	11941.41
463.86	11868.86
464.05	11700.34
464.23	11646.51
464.41	11941.41
464.59	11698.00
464.78	12463.35
464.96	12138.02
465.14	12086.53
465.32	12217.60
465.50	12037.38
465.69	12177.81
465.87	12222.28
466.05	12367.39
466.23	12322.92
466.41	12470.37
466.60	12374.41
466.78	12285.47
466.96	12517.18
467.14	12301.86
467.32	12531.23
467.51	12943.16
467.69	12503.14
467.87	12821.45
468.05	12776.98
468.23	12491.44
468.41	12767.62
468.60	12830.82
468.78	12769.96
468.96	12819.11
469.14	12812.09
469.32	12929.12
469.50	13107.00
469.69	13254.45
469.87	13247.43
470.05	13186.58
470.23	13135.09
470.41	13249.77
470.59	13460.42
470.77	13544.68
470.95	13401.91
471.14	13771.71
471.32	13294.24
471.50	13736.60
471.68	13762.35
471.86	13809.16
472.04	13916.83
472.22	13961.30
472.40	13841.93
472.58	13951.93
472.77	14038.53
472.95	14176.62
473.13	14668.14
473.31	14164.92
473.49	14317.06
473.67	14171.94
473.85	14487.92
474.03	14668.14
474.21	14881.13
474.39	14916.23
474.57	14876.44
474.75	15243.91
474.93	15187.74
475.12	15005.17
475.30	15218.16
475.48	15037.94
475.66	15161.99
475.84	15131.56
476.02	15604.35
476.20	15337.53
476.38	16086.50
476.56	16126.29
476.74	16472.69
476.92	16168.42
477.10	16025.65
477.28	16367.37
477.46	16334.60
477.64	16524.18
477.82	16931.44
478.00	16915.05
478.18	16709.08
478.36	17041.44
478.54	17635.94
478.72	17467.42
478.90	17530.61
479.08	17956.59
479.26	17928.50
479.44	17923.82
479.62	17874.67
479.80	18333.42
479.98	18338.10
480.16	18857.70
480.34	18354.48
480.52	18761.73
480.70	18911.53
480.88	18588.53
481.06	19051.96
481.24	18970.04
481.41	19119.84
481.59	19786.89
481.77	19592.62
481.95	19957.75
482.13	19786.89
482.31	20147.33
482.49	20423.51
482.67	20285.42
482.85	20526.50
483.03	20585.01
483.21	21088.23
483.39	21266.11
483.57	20830.77
483.74	21493.14
483.92	21415.90
484.10	21764.64
484.28	21577.40
484.46	22181.26
484.64	22640.00
484.82	22403.61
485.00	22658.73
485.18	23035.55
485.35	23150.24
485.53	23115.13
485.71	23435.78
485.89	23761.12
486.07	23641.75
486.25	23889.85
486.43	23878.15
486.61	24294.76
486.78	24212.84
486.96	24233.91
487.14	25034.37
487.32	24678.61
487.50	25212.25
487.68	25174.80
487.85	25411.20
488.03	25656.95
488.21	26237.41
488.39	26293.58
488.57	26387.20
488.75	26693.81
488.92	26796.79
489.10	27138.51
489.28	27096.38
489.46	27391.29
489.64	27482.57
489.81	28126.22
489.99	28088.77
490.17	27618.32
490.35	28718.37
490.53	28718.37
490.70	28781.57
490.88	28545.17
491.06	29039.03
491.24	28959.45
491.41	29160.73
491.59	29366.70
491.77	29813.74
491.95	29921.41
492.13	29792.68
492.30	29947.15
492.48	30359.09
492.66	30319.30
492.84	30792.09
493.01	31061.25
493.19	30698.47
493.37	31061.25
493.54	31782.13
493.72	32048.96
493.90	32254.92
494.08	32212.79
494.25	32308.76
494.43	32339.18
494.61	32627.07
494.79	32966.45
494.96	33006.23
495.14	33233.27
495.32	33137.30
495.49	33202.84
495.67	33741.16
495.85	34007.98
496.02	34043.09
496.20	34012.66
496.38	34319.28
496.55	34553.33
496.73	35129.10
496.91	34878.66
497.09	34864.62
497.26	35283.58
497.44	35180.59
497.62	35651.04
497.79	36158.94
497.97	35798.49
498.14	36416.40
498.32	36446.82
498.50	36409.37
498.67	37205.16
498.85	36964.08
499.03	36889.18
499.20	37317.50
499.38	37605.39
499.56	37263.67
499.73	37488.36
499.91	37766.88
500.08	37738.80
500.26	37949.45
500.44	38258.40
500.61	38272.44
500.79	38637.56
500.97	38586.07
501.14	39100.99
501.32	38581.39
501.49	39007.37
501.67	39035.45
501.84	39470.79
502.02	39480.16
502.20	39262.49
502.37	39838.26
502.55	39330.36
502.72	40334.45
502.90	39976.35
503.07	39957.63
503.25	40100.40
503.43	40343.81
503.60	40512.33
503.78	40636.38
503.95	40453.82
504.13	40999.16
504.30	40933.63
504.48	40608.29
504.65	41172.36
504.83	40999.16
505.01	41968.15
505.18	41481.31
505.36	42197.52
505.53	41298.75
505.71	41830.05
505.88	42085.17
506.06	41783.24
506.23	42417.53
506.41	42721.80
506.58	42740.52
506.76	42696.05
506.93	42518.17
507.11	43107.99
507.28	43028.41
507.46	43124.37
507.63	43232.04
507.81	43393.53
507.98	43650.99
508.16	43887.39
508.33	43777.38
508.50	43662.69
508.68	44004.41
508.85	44041.86
509.03	44477.20
509.20	44526.35
509.38	44690.19
509.55	44587.21
509.73	44959.35
509.90	45277.66
510.08	44807.22
510.25	44701.89
510.42	45361.92
510.60	45003.82
510.77	45521.08
510.95	45827.69
511.12	45303.41
511.30	45483.63
511.47	46052.38
511.64	45689.60
511.82	46623.47
511.99	46092.17
512.17	46216.22
512.34	46113.23
512.51	46813.05
512.69	46843.48
512.86	46887.95
513.04	46937.10
513.21	47489.47
513.38	47126.69
513.56	46967.53
513.73	47445.00
513.90	47491.81
514.08	47196.90
514.25	47627.56
514.43	47969.28
514.60	47920.13
514.77	47772.67
514.95	48149.50
515.12	47737.57
515.29	47990.34
515.47	48406.96
515.64	48690.16
515.81	48231.42
515.99	48830.60
516.16	49151.25
516.33	48633.99
516.51	48968.69
516.68	49045.93
516.85	48875.07
517.03	49169.97
517.20	49191.04
517.37	49034.22
517.54	49228.49
517.72	49333.81
517.89	49469.56
518.06	49539.78
518.24	49352.54
518.41	49682.55
518.58	49949.37
518.75	49485.95
518.93	50064.06
519.10	49563.18
519.27	49958.73
519.45	50153.00
519.62	50293.43
519.79	50232.58
519.96	50419.82
520.14	50625.79
520.31	50532.17
520.48	50880.91
520.65	50892.61
520.83	51271.78
521.00	51285.82
521.17	50698.34
521.34	51295.18
521.52	51042.40
521.69	51253.05
521.86	51171.13
522.03	51899.04
522.20	51746.90
522.38	52074.58
522.55	51744.56
522.72	51906.06
522.89	51615.83
523.07	52112.03
523.24	51767.97
523.41	52105.01
523.58	51849.89
523.75	52376.51
523.92	52109.69
524.10	52329.70
524.27	52528.64
524.44	52177.56
524.61	52432.68
524.78	52729.93
524.96	52357.78
525.13	52692.48
525.30	52783.76
525.47	52804.83
525.64	52765.04
525.81	52673.76
525.98	52949.94
526.16	52900.79
526.33	53015.47
526.50	53167.61
526.67	52816.53
526.84	53169.95
527.01	53174.63
527.18	53090.37
527.36	53209.74
527.53	53418.05
527.70	53750.40
527.87	53607.63
528.04	53448.47
528.21	53654.44
528.38	53467.20
528.55	53951.69
528.72	53457.84
528.89	53815.94
529.07	53724.66
529.24	53815.94
529.41	53961.05
529.58	53914.24
529.75	54047.65
529.92	54262.98
530.09	54202.13
530.26	53986.80
530.43	54286.39
530.60	54073.40
530.77	54129.57
530.94	54419.80
531.11	54244.26
531.28	54735.77
531.46	54426.82
531.63	54712.36
531.80	54841.09
531.97	54878.54
532.14	54759.17
532.31	54787.26
532.48	54705.34
532.65	55075.15
532.82	54859.82
532.99	54810.67
533.16	54761.51
533.33	55145.36
533.50	55147.70
533.67	54941.74
533.84	54810.67
534.01	55047.06
534.18	55201.53
534.35	55494.10
534.52	55508.14
534.69	55592.40
534.86	55789.01
535.03	55398.14
535.20	55470.70
535.37	55437.93
535.54	55622.83
535.71	55533.89
535.88	55629.85
536.05	55772.63
536.22	55948.17
536.38	56053.49
536.55	55934.12
536.72	56004.34
536.89	55796.03
537.06	55758.58
537.23	56074.55
537.40	55707.09
537.57	55798.37
537.74	56247.75
537.91	56250.09
538.08	56334.35
538.25	56123.71
538.42	56090.94
538.59	56427.98
538.75	56294.56
538.92	56062.85
539.09	56680.75
539.26	56198.60
539.43	56402.23
539.60	56566.07
539.77	56470.11
539.94	56725.22
540.11	56526.28
540.28	56722.88
540.44	56615.22
540.61	56640.96
540.78	56633.94
540.95	56521.60
541.12	56575.43
541.29	56446.70
541.46	56814.16
541.62	56741.61
541.79	56985.02
541.96	56678.41
542.13	56708.84
542.30	56713.52
542.47	57022.47
542.63	57183.97
542.80	57151.20
542.97	57385.25
543.14	57490.58
543.31	57425.04
543.48	57392.28
543.64	57654.42
543.81	57602.92
543.98	57551.43
544.15	57785.49
544.32	57717.61
544.48	57808.89
544.65	57516.32
544.82	57715.27
544.99	57584.20
545.16	57570.16
545.32	57673.14
545.49	57801.87
545.66	57855.70
545.83	58143.59
546.00	58000.82
546.16	57710.59
546.33	57827.62
546.50	57762.08
546.67	57921.24
546.83	57738.68
547.00	57923.58
547.17	57991.45
547.34	58042.95
547.50	58129.54
547.67	58396.37
547.84	58113.16
548.00	58356.58
548.17	58394.03
548.34	58162.31
548.51	58480.63
548.67	58387.00
548.84	58340.19
549.01	58447.86
549.18	58344.87
549.34	58567.23
549.51	58417.43
549.68	58597.65
549.84	58475.94
550.01	58773.19
550.18	58389.34
550.34	58663.19
550.51	58857.45
550.68	58754.47
550.84	58497.01
551.01	58803.62
551.18	58726.38
551.34	58841.07
551.51	58822.34
551.68	58515.73
551.84	58726.38
552.01	58714.68
552.18	58958.09
552.34	58777.87
552.51	59058.74
552.68	58693.61
552.84	58805.96
553.01	59171.08
553.18	58965.12
553.34	59091.51
553.51	58927.67
553.67	59093.85
553.84	59049.38
554.01	59035.33
554.17	59168.74
554.34	59297.47
554.51	59189.81
554.67	59271.73
554.84	59238.96
555.00	59161.72
555.17	59199.17
555.33	59189.81
555.50	59302.15
555.67	59402.80
555.83	59348.96
556.00	59430.88
556.16	59674.30
556.33	59496.42
556.50	59653.23
556.66	59580.68
556.83	59451.95
556.99	59557.27
557.16	59758.56
557.32	59433.22
557.49	59896.65
557.65	59606.42
557.82	59695.36
557.98	59594.72
558.15	59678.98
558.32	59636.85
558.48	59648.55
558.65	59526.84
558.81	59913.03
558.98	59758.56
559.14	59924.74
559.31	59828.77
559.47	60158.79
559.64	60252.41
559.80	59866.22
559.97	59945.80
560.13	59540.89
560.30	59877.93
560.46	59812.39
560.63	60093.25
560.79	59807.71
560.96	60341.35
561.12	60100.28
561.29	60172.83
561.45	60079.21
561.61	60229.01
561.78	60236.03
561.94	60142.41
562.11	59950.48
562.27	60301.56
562.44	60048.78
562.60	60170.49
562.77	60287.52
562.93	59924.74
563.10	60219.64
563.26	60303.90
563.42	60329.65
563.59	60289.86
563.75	60009.00
563.92	60509.87
564.08	60193.90
564.24	60306.24
564.41	60226.66
564.57	60294.54
564.74	60453.70
564.90	60486.46
565.07	60189.22
565.23	60315.61
565.39	60254.75
565.56	60299.22
565.72	60544.98
565.88	60587.11
566.05	60278.16
566.21	60439.65
566.38	60378.80
566.54	60495.83
566.70	60460.72
566.87	60718.18
567.03	60374.12
567.19	60633.92
567.36	60509.87
567.52	60561.36
567.68	60725.20
567.85	60544.98
568.01	60537.96
568.17	60608.17
568.34	60535.62
568.50	60486.46
568.66	60470.08
568.83	60722.86
568.99	60631.58
569.15	60697.11
569.32	60598.81
569.48	60692.43
569.64	60610.51
569.81	60807.12
569.97	60664.35
570.13	60764.99
570.30	60650.30
570.46	60722.86
570.62	60720.52
570.78	60692.43
570.95	60818.82
571.11	60928.83
571.27	60711.16
571.43	60804.78
571.60	60821.16
571.76	60762.65
571.92	60846.91
572.09	60825.84
572.25	60825.84
572.41	60795.42
572.57	60793.07
572.74	60975.64
572.90	60647.96
573.06	60793.07
573.22	60837.54
573.38	60741.58
573.55	60741.58
573.71	61015.43
573.87	60903.08
574.03	60741.58
574.20	60708.82
574.36	60898.40
574.52	61003.72
574.68	61130.11
574.84	61064.58
575.01	60977.98
575.17	60907.76
575.33	60825.84
575.49	60804.78
575.65	60910.10
575.82	60952.23
575.98	60947.55
576.14	61291.61
576.30	61263.52
576.46	60973.30
576.62	60867.97
576.79	60996.70
576.95	60886.70
577.11	61043.51
577.27	61172.24
577.43	61083.30
577.59	60956.91
577.75	60935.85
577.92	61113.73
578.08	60928.83
578.24	61006.06
578.40	61385.23
578.56	61190.97
578.72	61118.41
578.88	61373.53
579.04	61188.63
579.21	61017.77
579.37	61223.73
579.53	61263.52
579.69	60982.66
579.85	60999.04
580.01	61008.40
580.17	60931.17
580.33	61284.59
580.49	61251.82
580.65	61169.90
580.82	61071.60
580.98	60914.78
581.14	61003.72
581.30	61109.05
581.46	61216.71
581.62	61169.90
581.78	61146.50
581.94	61158.20
582.10	61183.94
582.26	61200.33
582.42	61223.73
582.58	61200.33
582.74	61242.46
582.90	61130.11
583.06	61251.82
583.22	61057.56
583.38	61165.22
583.54	61146.50
583.70	61038.83
583.86	61216.71
584.02	60994.36
584.18	61279.91
584.34	61071.60
584.50	61181.60
584.66	61223.73
584.82	60975.64
584.98	61413.32
585.14	61169.90
585.30	60963.93
585.46	61205.01
585.62	61190.97
585.78	61359.48
585.94	61003.72
586.10	61228.41
586.26	61205.01
586.42	61167.56
586.58	61352.46
586.74	61373.53
586.90	61275.22
587.06	61137.13
587.22	61148.84
587.38	61235.44
587.54	61310.33
587.70	61504.60
587.86	61307.99
588.02	61207.35
588.18	61324.38
588.34	61144.16
588.49	61296.29
