SpectraSuite Data File
++++++++++++++++++++++++++++++++++++
Date: Fri Oct 25 11:22:45 EDT 2013
User: price-jones
Dark Spectrum Present: No
Reference Spectrum Present: No
Number of Sampled Component Spectra: 1
Spectrometers: USB2+H05261
Integration Time (usec): 100000 (USB2+H05261)
Spectra Averaged: 1 (USB2+H05261)
Boxcar Smoothing: 0 (USB2+H05261)
Correct for Electrical Dark: No (USB2+H05261)
Strobe/Lamp Enabled: No (USB2+H05261)
Correct for Detector Non-linearity: No (USB2+H05261)
Correct for Stray Light: No (USB2+H05261)
Number of Pixels in Processed Spectrum: 2048
>>>>>Begin Processed Spectral Data<<<<<
365.73	203.63
365.92	203.63
366.12	203.63
366.32	114.69
366.52	145.11
366.72	191.92
366.91	74.90
367.11	154.48
367.31	86.60
367.51	126.39
367.70	107.66
367.90	53.83
368.10	70.22
368.30	112.35
368.49	84.26
368.69	161.50
368.89	98.30
369.09	145.11
369.28	105.32
369.48	119.37
369.68	126.39
369.87	168.52
370.07	156.82
370.27	201.29
370.47	250.44
370.66	503.22
370.86	643.65
371.06	690.46
371.25	681.10
371.45	601.52
371.65	648.33
371.84	706.84
372.04	636.63
372.24	683.44
372.44	650.67
372.63	671.73
372.83	746.63
373.03	741.95
373.22	763.01
373.42	730.25
373.62	720.88
373.81	777.06
374.01	793.44
374.21	816.85
374.40	866.00
374.60	816.85
374.79	791.10
374.99	826.21
375.19	873.02
375.38	833.23
375.58	903.45
375.78	819.19
375.97	884.72
376.17	891.74
376.37	835.57
376.56	901.11
376.76	894.08
376.95	835.57
377.15	898.77
377.35	896.43
377.54	887.06
377.74	894.08
377.93	887.06
378.13	901.11
378.33	887.06
378.52	861.32
378.72	931.53
378.91	978.34
379.11	964.30
379.31	959.62
379.50	844.93
379.70	940.90
379.89	1057.92
380.09	1060.26
380.28	978.34
380.48	1006.43
380.68	1041.54
380.87	961.96
381.07	933.87
381.26	1069.62
381.46	1053.24
381.65	1071.97
381.85	1088.35
382.04	1025.15
382.24	1027.50
382.43	1100.05
382.63	1008.77
382.83	1067.28
383.02	1078.99
383.22	1086.01
383.41	1097.71
383.61	1132.82
383.80	1064.94
384.00	1165.59
384.19	1093.03
384.39	1111.75
384.58	1181.97
384.78	1135.16
384.97	1193.67
385.17	1067.28
385.36	1025.15
385.56	1144.52
385.75	1205.38
385.95	1135.16
386.14	1170.27
386.34	1186.65
386.53	1221.76
386.72	1107.07
386.92	1306.02
387.11	1256.87
387.31	1177.29
387.50	1291.98
387.70	1263.89
387.89	1235.80
388.09	1191.33
388.28	1254.53
388.48	1273.25
388.67	1320.06
388.86	1409.00
389.06	1345.81
389.25	1380.92
389.45	1289.64
389.64	1315.38
389.84	1479.22
390.03	1366.87
390.22	1289.64
390.42	1322.40
390.61	1399.64
390.81	1320.06
391.00	1432.41
391.19	1523.69
391.39	1416.02
391.58	1364.53
391.78	1399.64
391.97	1495.60
392.16	1507.30
392.36	1427.73
392.55	1490.92
392.75	1568.16
392.94	1549.43
393.13	1427.73
393.33	1519.01
393.52	1535.39
393.71	1549.43
393.91	1500.28
394.10	1577.52
394.29	1549.43
394.49	1549.43
394.68	1617.31
394.88	1540.07
395.07	1673.48
395.26	1650.08
395.46	1636.03
395.65	1781.15
395.84	1664.12
396.04	1757.74
396.23	1734.34
396.42	1741.36
396.62	1727.32
396.81	1799.87
397.00	1694.55
397.19	1746.04
397.39	1748.38
397.58	1792.85
397.77	1785.83
397.97	1820.94
398.16	1820.94
398.35	1919.24
398.55	1844.34
398.74	1916.90
398.93	1956.69
399.12	1980.09
399.32	1891.15
399.51	1905.20
399.70	2022.22
399.90	1977.75
400.09	1984.77
400.28	2057.33
400.47	2064.35
400.67	2129.89
400.86	2069.03
401.05	2118.18
401.24	2097.12
401.44	2146.27
401.63	2160.31
401.82	2204.78
402.01	2106.48
402.21	2186.06
402.40	2162.66
402.59	2162.66
402.78	2174.36
402.97	2319.47
403.17	2202.44
403.36	2246.91
403.55	2202.44
403.74	2314.79
403.93	2363.94
404.13	2399.05
404.32	2366.28
404.51	2354.58
404.70	2455.22
404.89	2382.67
405.09	2403.73
405.28	2434.16
405.47	2480.97
405.66	2551.18
405.85	2555.86
406.05	2553.52
406.24	2539.48
406.43	2600.34
406.62	2654.17
406.81	2747.79
407.00	2588.63
407.20	2637.78
407.39	2745.45
407.58	2684.59
407.77	2745.45
407.96	2691.62
408.15	2719.70
408.34	2724.38
408.54	2768.85
408.73	2850.77
408.92	2726.72
409.11	2871.84
409.30	2832.05
409.49	3026.31
409.68	2923.33
409.87	2953.76
410.07	3126.96
410.26	3068.44
410.45	2881.20
410.64	3096.53
410.83	3080.14
411.02	3192.49
411.21	3173.77
411.40	3117.59
411.59	3201.85
411.78	3126.96
411.98	3197.17
412.17	3269.73
412.36	3344.63
412.55	3375.05
412.74	3520.17
412.93	3480.38
413.12	3405.48
413.31	3520.17
413.50	3510.80
413.69	3426.54
413.88	3482.72
414.07	3637.19
414.26	3639.53
414.45	3639.53
414.64	3686.34
414.83	3646.55
415.02	3819.75
415.22	3871.25
415.41	3997.64
415.60	3943.80
415.79	3885.29
415.98	3843.16
416.17	3981.25
416.36	4032.74
416.55	4021.04
416.74	4100.62
416.93	4142.75
417.12	4028.06
417.31	4194.24
417.50	4198.92
417.69	4379.14
417.88	4208.28
418.07	4180.20
418.26	4290.20
418.45	4365.10
418.64	4512.55
418.83	4418.93
419.02	4297.22
419.21	4491.49
419.39	4603.83
419.58	4423.61
419.77	4482.13
419.96	4599.15
420.15	4662.35
420.34	4697.46
420.53	4603.83
420.72	4720.86
420.91	4444.68
421.10	4777.03
421.29	4875.34
421.48	4709.16
421.67	4877.68
421.86	4938.53
422.05	4842.57
422.24	4947.89
422.43	5020.45
422.61	4823.84
422.80	5015.77
422.99	4990.02
423.18	4706.82
423.37	4933.85
423.56	5034.49
423.75	4880.02
423.94	4975.98
424.13	4791.08
424.32	4676.39
424.50	4901.08
424.69	5200.67
424.88	5095.35
425.07	5025.13
425.26	4912.78
425.45	5006.41
425.64	5043.85
425.83	5039.17
426.01	5048.54
426.20	5069.60
426.39	5041.51
426.58	4912.78
426.77	5095.35
426.96	5242.80
427.15	5142.16
427.33	5214.71
427.52	5013.43
427.71	5167.90
427.90	5217.05
428.09	5413.66
428.28	5359.83
428.46	5418.34
428.65	5144.50
428.84	5516.64
429.03	5521.32
429.22	5350.46
429.40	5488.56
429.59	5518.98
429.78	5369.19
429.97	5380.89
430.16	5472.17
430.34	5584.52
430.53	5678.14
430.72	5675.80
430.91	5605.58
431.10	5631.33
431.28	5888.79
431.47	5863.04
431.66	5820.91
431.85	5771.76
432.03	5980.07
432.22	6155.61
432.41	6017.52
432.60	6038.58
432.79	6047.94
432.97	5963.68
433.16	6171.99
433.35	6115.82
433.54	6141.57
433.72	6090.07
433.91	6228.17
434.10	6169.65
434.28	6092.41
434.47	6249.23
434.66	6190.72
434.85	6324.13
435.03	6413.07
435.22	6253.91
435.41	6499.67
435.59	6459.88
435.78	6258.59
435.97	6499.67
436.16	6413.07
436.34	6532.44
436.53	6544.14
436.72	6712.66
436.90	6581.59
437.09	6422.43
437.28	6487.96
437.46	6679.89
437.65	6696.27
437.84	6827.34
438.02	6682.23
438.21	7035.65
438.40	6651.80
438.58	7082.46
438.77	7089.48
438.96	6965.43
439.14	7220.55
439.33	7309.49
439.52	7180.76
439.70	7190.13
439.89	7363.33
440.08	7419.50
440.26	7412.48
440.45	7440.56
440.63	7588.02
440.82	7641.85
441.01	7400.77
441.19	7688.66
441.38	7658.23
441.57	7815.05
441.75	7808.03
441.94	7850.16
442.12	7941.44
442.31	7988.25
442.50	8102.93
442.68	7887.61
442.87	7829.09
443.05	8243.37
443.24	8430.61
443.43	8191.88
443.61	8332.31
443.80	8517.21
443.98	8264.43
444.17	8018.68
444.35	8105.28
444.54	8365.07
444.73	8346.35
444.91	8439.97
445.10	8423.59
445.28	8430.61
445.47	8355.71
445.65	8374.44
445.84	8461.04
446.02	8503.17
446.21	8564.02
446.39	8479.76
446.58	8578.06
446.77	8512.53
446.95	8196.56
447.14	8496.14
447.32	8636.58
447.51	8362.73
447.69	8411.89
447.88	8620.19
448.06	8720.84
448.25	8432.95
448.43	8568.70
448.62	8681.05
448.80	8528.91
448.99	8800.41
449.17	8746.58
449.36	8725.52
449.54	9015.74
449.73	8950.21
449.91	9097.66
450.10	8964.25
450.28	8954.89
450.46	9032.13
450.65	9153.84
450.83	9207.67
451.02	9081.28
451.20	9207.67
451.39	9207.67
451.57	9128.09
451.76	9193.62
451.94	9303.63
452.13	9369.16
452.31	9430.02
452.49	9282.56
452.68	9217.03
452.86	9373.85
453.05	9394.91
453.23	9514.28
453.42	9329.38
453.60	9425.34
453.78	9760.03
453.97	9696.84
454.15	9568.11
454.34	9565.77
454.52	9724.93
454.70	9671.09
454.89	9657.05
455.07	9863.02
455.26	9844.29
455.44	9872.38
455.62	9839.61
455.81	10043.24
455.99	10146.22
456.17	10108.77
456.36	10125.16
456.54	10153.24
456.73	10183.67
456.91	10417.72
457.09	10518.37
457.28	10775.83
457.46	10167.29
457.64	10408.36
457.83	10534.75
458.01	10628.37
458.19	10635.39
458.38	10710.29
458.56	10843.70
458.74	10841.36
458.93	10745.40
459.11	10712.63
459.29	10792.21
459.48	11009.88
459.66	10560.50
459.84	10939.66
460.03	11194.78
460.21	11131.59
460.39	10942.00
460.57	11124.57
460.76	10995.84
460.94	11176.06
461.12	11049.67
461.31	10956.05
461.49	11122.23
461.67	11300.11
461.85	11400.75
462.04	11330.53
462.22	11810.34
462.40	11587.99
462.59	11796.30
462.77	11585.65
462.95	11620.76
463.13	11810.34
463.32	11641.82
463.50	11964.82
463.68	11768.21
463.86	11892.26
464.05	11644.17
464.23	11789.28
464.41	11974.18
464.59	11789.28
464.78	12393.14
464.96	12180.15
465.14	11850.13
465.32	12189.51
465.50	12238.66
465.69	12067.80
465.87	12051.42
466.05	12257.39
466.23	12500.80
466.41	12383.77
466.60	12629.53
466.78	12226.96
466.96	12187.17
467.14	12512.50
467.32	12322.92
467.51	12479.74
467.69	12404.84
467.87	12470.37
468.05	12730.17
468.23	12486.76
468.41	12615.49
468.60	12603.78
468.78	12849.54
468.96	12741.88
469.14	12891.67
469.32	12814.43
469.50	12741.88
469.69	13090.62
469.87	13219.35
470.05	13118.70
470.23	13261.48
470.41	13364.46
470.59	13441.70
470.77	13156.15
470.95	13191.26
471.14	13703.84
471.32	13170.19
471.50	13324.67
471.68	13741.29
471.86	13790.44
472.04	13867.67
472.22	14295.99
472.40	13886.40
472.58	13748.31
472.77	14113.43
472.95	14333.44
473.13	14923.26
473.31	14127.47
473.49	14115.77
473.67	14108.75
473.85	14174.28
474.03	14829.63
474.21	14691.54
474.39	14949.00
474.57	14967.73
474.75	15091.77
474.93	14909.21
475.12	15049.64
475.30	15030.92
475.48	15276.68
475.66	15206.46
475.84	15496.69
476.02	15363.28
476.20	15468.60
476.38	15829.04
476.56	16145.02
476.74	16215.23
476.92	15906.28
477.10	15681.59
477.28	16037.35
477.46	16248.00
477.64	16400.13
477.82	16725.47
478.00	17013.35
478.18	16884.62
478.36	17174.85
478.54	17121.02
478.72	17118.68
478.90	17619.55
479.08	17713.17
479.26	17818.50
479.44	18141.49
479.62	17853.61
479.80	18150.85
479.98	17996.38
480.16	18548.75
480.34	18281.92
480.52	18450.44
480.70	18752.37
480.88	18380.23
481.06	18637.69
481.24	18817.91
481.41	19400.70
481.59	19491.98
481.77	19737.74
481.95	19440.49
482.13	19742.42
482.31	19913.28
482.49	20601.40
482.67	20397.77
482.85	20430.54
483.03	20800.34
483.21	20882.26
483.39	21233.34
483.57	21149.08
483.74	21586.76
483.92	21322.28
484.10	21312.92
484.28	21696.77
484.46	21888.69
484.64	22375.52
484.82	21893.37
485.00	22377.86
485.18	22595.53
485.35	23307.05
485.53	23044.91
485.71	23269.61
485.89	23363.23
486.07	23484.94
486.25	23784.52
486.43	23826.65
486.61	23747.08
486.78	24173.05
486.96	24198.80
487.14	24755.85
487.32	24687.97
487.50	25032.03
487.68	24968.84
487.85	25106.93
488.03	25708.44
488.21	26059.52
488.39	25839.51
488.57	26204.64
488.75	26185.91
488.92	26602.53
489.10	27030.85
489.28	26918.50
489.46	27133.83
489.64	27342.14
489.81	27913.23
489.99	27566.83
490.17	27723.65
490.35	28088.77
490.53	28526.45
490.70	28804.97
490.88	28535.81
491.06	28985.19
491.24	28924.34
491.41	29104.56
491.59	29200.52
491.77	29579.69
491.95	30113.33
492.13	29926.09
492.30	30185.89
492.48	30237.38
492.66	30066.52
492.84	30436.33
493.01	30890.39
493.19	30766.34
493.37	31140.83
493.54	31379.56
493.72	31943.63
493.90	31936.61
494.08	31756.39
494.25	32156.62
494.43	32130.87
494.61	32758.14
494.79	32929.00
494.96	32481.95
495.14	32917.29
495.32	33509.45
495.49	33067.09
495.67	33390.08
495.85	33462.64
496.02	33879.25
496.20	34216.29
496.38	34036.07
496.55	34197.57
496.73	35159.53
496.91	34946.54
497.09	35152.51
497.26	35119.74
497.44	35152.51
497.62	35384.22
497.79	35969.35
497.97	35667.42
498.14	35981.06
498.32	36315.75
498.50	36177.66
498.67	36809.61
498.85	36320.43
499.03	36788.54
499.20	37081.11
499.38	37195.79
499.56	37347.93
499.73	37773.91
499.91	37862.85
500.08	37598.37
500.26	37359.63
500.44	37762.20
500.61	38209.25
500.79	37930.72
500.97	38096.90
501.14	38990.98
501.32	38763.95
501.49	38754.59
501.67	38684.37
501.84	39323.34
502.02	39084.61
502.20	38899.70
502.37	39634.63
502.55	39676.76
502.72	39466.11
502.90	39431.01
503.07	39859.32
503.25	40072.31
503.43	40102.74
503.60	40425.73
503.78	40385.94
503.95	40507.65
504.13	40844.69
504.30	40940.65
504.48	41148.96
504.65	40893.84
504.83	41127.89
505.01	41521.10
505.18	41373.65
505.36	41961.12
505.53	41383.01
505.71	41780.90
505.88	41869.84
506.06	41605.36
506.23	41933.04
506.41	41830.05
506.58	42410.51
506.76	42637.54
506.93	42574.34
507.11	42784.99
507.28	43269.48
507.46	42719.46
507.63	43096.28
507.81	43599.50
507.98	43201.61
508.16	43342.04
508.33	43758.66
508.50	43957.60
508.68	43749.29
508.85	43714.19
509.03	43835.89
509.20	44289.96
509.38	44367.20
509.55	44847.00
509.73	44739.34
509.90	44814.24
510.08	44790.83
510.25	44978.07
510.42	44978.07
510.60	45256.60
510.77	45521.08
510.95	45509.38
511.12	45174.68
511.30	45514.06
511.47	45673.21
511.64	45834.71
511.82	45708.32
511.99	45954.08
512.17	46033.66
512.34	46131.96
512.51	46314.52
512.69	46291.12
512.86	46759.22
513.04	46782.63
513.21	46937.10
513.38	46890.29
513.56	46831.78
513.73	46644.54
513.90	47229.67
514.08	47206.26
514.25	47529.26
514.43	47531.60
514.60	47639.26
514.77	47503.51
514.95	48083.97
515.12	47662.67
515.29	48182.27
515.47	48041.84
515.64	48409.30
515.81	48217.38
515.99	48516.96
516.16	48683.14
516.33	48411.64
516.51	48856.34
516.68	48641.01
516.85	48765.06
517.03	49003.80
517.20	48912.52
517.37	49127.84
517.54	49326.79
517.72	49338.49
517.89	49294.02
518.06	49572.55
518.24	49567.87
518.41	49610.00
518.58	49359.56
518.75	49570.21
518.93	49780.85
519.10	49158.27
519.27	49797.24
519.45	50211.51
519.62	50010.23
519.79	50174.06
519.96	50506.42
520.14	50195.13
520.31	50021.93
520.48	50445.57
520.65	50546.21
520.83	50862.18
521.00	51000.27
521.17	50876.22
521.34	50848.14
521.52	51126.66
521.69	51021.34
521.86	51133.68
522.03	51405.19
522.20	51686.05
522.38	51510.51
522.55	51920.10
522.72	51643.92
522.89	51426.25
523.07	51973.94
523.24	51672.01
523.41	51697.75
523.58	51803.08
523.75	51924.78
523.92	51863.93
524.10	52172.88
524.27	52292.25
524.44	52413.96
524.61	51995.00
524.78	52397.57
524.96	52191.61
525.13	52528.64
525.30	52811.85
525.47	52718.23
525.64	52680.78
525.81	52849.30
525.98	53111.44
526.16	52980.37
526.33	52814.19
526.50	52933.56
526.67	53027.18
526.84	53113.78
527.01	53076.33
527.18	52788.44
527.36	52865.68
527.53	53132.50
527.70	53577.20
527.87	53574.86
528.04	53209.74
528.21	53837.00
528.38	53448.47
528.55	53612.31
528.72	53336.13
528.89	53385.28
529.07	53712.95
529.24	53769.13
529.41	53848.71
529.58	53691.89
529.75	53837.00
529.92	53937.65
530.09	54262.98
530.26	54288.73
530.43	54003.18
530.60	54101.48
530.77	54157.66
530.94	54148.29
531.11	54092.12
531.28	54574.27
531.46	54501.71
531.63	54192.76
531.80	54335.54
531.97	54630.44
532.14	54667.89
532.31	54646.83
532.48	54710.02
532.65	54944.08
532.82	54663.21
532.99	54937.05
533.16	54667.89
533.33	54946.42
533.50	55105.57
533.67	54951.10
533.84	54934.71
534.01	54965.14
534.18	55248.35
534.35	55138.34
534.52	55222.60
534.69	55599.43
534.86	55346.65
535.03	55370.05
535.20	55171.11
535.37	55475.38
535.54	55674.32
535.71	55363.03
535.88	55601.77
536.05	55573.68
536.22	55814.76
536.38	55767.94
536.55	55498.78
536.72	55779.65
536.89	55585.38
537.06	55777.31
537.23	55924.76
537.40	55889.65
537.57	55599.43
537.74	56116.68
537.91	56222.01
538.08	56048.81
538.25	55667.30
538.42	56114.34
538.59	56540.32
538.75	56114.34
538.92	56191.58
539.09	56367.12
539.26	56392.87
539.43	56322.65
539.60	56418.61
539.77	56650.33
539.94	56779.06
540.11	56500.53
540.28	56460.74
540.44	56643.30
540.61	56591.81
540.78	56657.35
540.95	56708.84
541.12	56540.32
541.29	56739.27
541.46	56643.30
541.62	56720.54
541.79	56722.88
541.96	56748.63
542.13	56842.25
542.30	56947.57
542.47	57015.45
542.63	56863.32
542.80	57045.88
542.97	57425.04
543.14	57357.17
543.31	57228.44
543.48	57195.67
543.64	57338.44
543.81	57701.23
543.98	57530.37
544.15	57504.62
544.32	57745.70
544.48	57827.62
544.65	57392.28
544.82	57602.92
544.99	57162.90
545.16	57577.18
545.32	57570.16
545.49	57738.68
545.66	57579.52
545.83	57883.79
546.00	57844.00
546.16	57808.89
546.33	57703.57
546.50	57724.63
546.67	57949.32
546.83	57755.06
547.00	58085.07
547.17	57726.97
547.34	58073.37
547.50	57982.09
547.67	58583.61
547.84	58337.85
548.00	58300.40
548.17	58417.43
548.34	58302.74
548.51	58089.76
548.67	58597.65
548.84	58358.92
549.01	58349.56
549.18	58363.60
549.34	58501.69
549.51	58387.00
549.68	58358.92
549.84	58677.23
550.01	58686.59
550.18	58328.49
550.34	58625.74
550.51	58770.85
550.68	58536.80
550.84	58480.63
551.01	58590.63
551.18	58681.91
551.34	58812.98
551.51	58782.55
551.68	58738.08
551.84	58532.12
552.01	58532.12
552.18	58834.05
552.34	58543.82
552.51	58803.62
552.68	58642.12
552.84	58768.51
553.01	58960.44
553.18	59054.06
553.34	59000.22
553.51	58897.24
553.67	58808.30
553.84	59316.20
554.01	59014.27
554.17	58993.20
554.34	59152.36
554.51	59096.19
554.67	59201.51
554.84	59093.85
555.00	59168.74
555.17	59175.76
555.33	59290.45
555.50	58944.05
555.67	59049.38
555.83	59077.46
556.00	59250.66
556.16	59564.29
556.33	59437.90
556.50	59201.51
556.66	59580.68
556.83	59227.26
556.99	59573.66
557.16	59468.33
557.32	59585.36
557.49	59646.21
557.65	59379.39
557.82	59454.29
557.98	59494.08
558.15	59655.57
558.32	59576.00
558.48	59423.86
558.65	59597.06
558.81	59650.89
558.98	59632.17
559.14	59714.09
559.31	59913.03
559.47	59852.18
559.64	59887.29
559.80	59796.01
559.97	59842.82
560.13	59749.20
560.30	59866.22
560.46	59936.44
560.63	59875.58
560.79	59810.05
560.96	59990.27
561.12	59994.95
561.29	59798.35
561.45	60177.51
561.61	59908.35
561.78	59943.46
561.94	59945.80
562.11	59936.44
562.27	60147.09
562.44	59966.87
562.60	60135.38
562.77	60137.72
562.93	59985.59
563.10	60341.35
563.26	59990.27
563.42	60458.38
563.59	60182.19
563.75	60093.25
563.92	60385.82
564.08	60004.31
564.24	60250.07
564.41	60266.45
564.57	60355.39
564.74	60184.54
564.90	60343.69
565.07	60381.14
565.23	60229.01
565.39	60247.73
565.56	60378.80
565.72	60104.96
565.88	60402.21
566.05	60369.44
566.21	60151.77
566.38	60320.29
566.54	60484.12
566.70	60439.65
566.87	60678.39
567.03	60210.28
567.19	60622.22
567.36	60519.23
567.52	60278.16
567.68	60659.66
567.85	60439.65
568.01	60437.31
568.17	60369.44
568.34	60552.00
568.50	60444.33
568.66	60388.16
568.83	60388.16
568.99	60355.39
569.15	60477.10
569.32	60523.91
569.48	60533.28
569.64	60617.53
569.81	60547.32
569.97	60456.04
570.13	60594.13
570.30	60636.26
570.46	60736.90
570.62	60647.96
570.78	60587.11
570.95	60528.59
571.11	60713.50
571.27	60577.75
571.43	60928.83
571.60	61090.32
571.76	60818.82
571.92	60739.24
572.09	60844.57
572.25	60788.39
572.41	60591.79
572.57	60699.45
572.74	60938.19
572.90	60753.29
573.06	60725.20
573.22	60694.77
573.38	60879.67
573.55	60706.47
573.71	60987.34
573.87	60694.77
574.03	60704.13
574.20	61031.81
574.36	60739.24
574.52	60874.99
574.68	60678.39
574.84	60996.70
575.01	60959.25
575.17	60743.92
575.33	61064.58
575.49	60994.36
575.65	61013.08
575.82	60907.76
575.98	61015.43
576.14	61317.35
576.30	60952.23
576.46	60907.76
576.62	61080.96
576.79	60832.86
576.95	60851.59
577.11	60977.98
577.27	61001.38
577.43	60825.84
577.59	60966.27
577.75	60828.18
577.92	61013.08
578.08	61090.32
578.24	61085.64
578.40	60924.14
578.56	61099.68
578.72	60800.10
578.88	61165.22
579.04	61343.10
579.21	61109.05
579.37	61162.88
579.53	61024.79
579.69	60933.51
579.85	60914.78
580.01	60926.49
580.17	60982.66
580.33	60994.36
580.49	61097.34
580.65	61113.73
580.82	60982.66
580.98	60837.54
581.14	60982.66
581.30	61181.60
581.46	61102.03
581.62	61141.81
581.78	60999.04
581.94	61097.34
582.10	61188.63
582.26	61045.85
582.42	61024.79
582.58	60949.89
582.74	61020.11
582.90	61020.11
583.06	61080.96
583.22	61064.58
583.38	61041.17
583.54	61179.26
583.70	61254.16
583.86	61120.75
584.02	61087.98
584.18	61242.46
584.34	61095.00
584.50	61144.16
584.66	60952.23
584.82	61076.28
584.98	61181.60
585.14	61291.61
585.30	61127.77
585.46	61219.05
585.62	61338.42
585.78	61284.59
585.94	61109.05
586.10	61202.67
586.26	61055.21
586.42	61205.01
586.58	61258.84
586.74	61193.31
586.90	61116.07
587.06	60980.32
587.22	61291.61
587.38	61286.93
587.54	61565.45
587.70	61310.33
587.86	61036.49
588.02	61441.40
588.18	61169.90
588.34	61066.92
588.49	61125.43
