SpectraSuite Data File
++++++++++++++++++++++++++++++++++++
Date: Fri Oct 25 11:26:00 EDT 2013
User: price-jones
Dark Spectrum Present: No
Reference Spectrum Present: No
Number of Sampled Component Spectra: 1
Spectrometers: USB2+H05261
Integration Time (usec): 100000 (USB2+H05261)
Spectra Averaged: 1 (USB2+H05261)
Boxcar Smoothing: 0 (USB2+H05261)
Correct for Electrical Dark: No (USB2+H05261)
Strobe/Lamp Enabled: No (USB2+H05261)
Correct for Detector Non-linearity: No (USB2+H05261)
Correct for Stray Light: No (USB2+H05261)
Number of Pixels in Processed Spectrum: 2048
>>>>>Begin Processed Spectral Data<<<<<
365.73	245.76
365.92	245.76
366.12	245.76
366.32	159.16
366.52	112.35
366.72	105.32
366.91	152.13
367.11	91.28
367.31	102.98
367.51	198.95
367.70	166.18
367.90	133.41
368.10	91.28
368.30	79.58
368.49	98.30
368.69	133.41
368.89	107.66
369.09	184.90
369.28	147.45
369.48	102.98
369.68	140.43
369.87	222.35
370.07	217.67
370.27	252.78
370.47	353.42
370.66	603.86
370.86	580.45
371.06	638.97
371.25	692.80
371.45	610.88
371.65	706.84
371.84	643.65
372.04	751.31
372.24	725.57
372.44	716.20
372.63	746.63
372.83	664.71
373.03	746.63
373.22	774.72
373.42	732.59
373.62	748.97
373.81	753.65
374.01	716.20
374.21	812.17
374.40	821.53
374.60	800.46
374.79	826.21
374.99	840.25
375.19	809.83
375.38	866.00
375.58	809.83
375.78	922.17
375.97	896.43
376.17	999.41
376.37	858.98
376.56	966.64
376.76	823.87
376.95	910.47
377.15	915.15
377.35	938.55
377.54	847.27
377.74	828.55
377.93	915.15
378.13	891.74
378.33	861.32
378.52	987.71
378.72	903.45
378.91	938.55
379.11	898.77
379.31	985.37
379.50	905.79
379.70	1043.88
379.89	1029.84
380.09	1048.56
380.28	943.24
380.48	985.37
380.68	912.81
380.87	1039.20
381.07	961.96
381.26	947.92
381.46	1043.88
381.65	1069.62
381.85	1036.86
382.04	1027.50
382.24	1090.69
382.43	987.71
382.63	1067.28
382.83	1102.39
383.02	1179.63
383.22	1067.28
383.41	1062.60
383.61	1053.24
383.80	1111.75
384.00	1078.99
384.19	1149.20
384.39	1200.69
384.58	1174.95
384.78	1200.69
384.97	1151.54
385.17	1118.78
385.36	1156.22
385.56	1102.39
385.75	1198.35
385.95	1200.69
386.14	1231.12
386.34	1165.59
386.53	1083.67
386.72	1205.38
386.92	1259.21
387.11	1275.59
387.31	1228.78
387.50	1191.33
387.70	1240.48
387.89	1362.19
388.09	1270.91
388.28	1245.16
388.48	1245.16
388.67	1348.15
388.86	1350.49
389.06	1315.38
389.25	1284.95
389.45	1357.51
389.64	1401.98
389.84	1301.34
390.03	1345.81
390.22	1437.09
390.42	1418.36
390.61	1432.41
390.81	1409.00
391.00	1404.32
391.19	1448.79
391.39	1455.81
391.58	1336.45
391.78	1401.98
391.97	1444.11
392.16	1493.26
392.36	1607.95
392.55	1488.58
392.75	1472.20
392.94	1474.54
393.13	1593.90
393.33	1551.78
393.52	1586.88
393.71	1586.88
393.91	1593.90
394.10	1558.80
394.29	1792.85
394.49	1598.59
394.68	1619.65
394.88	1596.25
395.07	1710.93
395.26	1577.52
395.46	1633.69
395.65	1661.78
395.84	1680.50
396.04	1675.82
396.23	1837.32
396.42	1790.51
396.62	1926.26
396.81	1741.36
397.00	1844.34
397.19	1860.73
397.39	1832.64
397.58	1748.38
397.77	1734.34
397.97	1867.75
398.16	1771.79
398.35	1881.79
398.55	1865.41
398.74	1755.40
398.93	1940.30
399.12	1926.26
399.32	1947.33
399.51	1923.92
399.70	2036.27
399.90	2005.84
400.09	2186.06
400.28	2141.59
400.47	2052.65
400.67	2104.14
400.86	2022.22
401.05	1968.39
401.24	2047.97
401.44	2165.00
401.63	2172.02
401.82	2190.74
402.01	2134.57
402.21	2113.50
402.40	2211.81
402.59	2265.64
402.78	2251.60
402.97	2218.83
403.17	2242.23
403.36	2230.53
403.55	2321.81
403.74	2354.58
403.93	2403.73
404.13	2363.94
404.32	2282.02
404.51	2420.11
404.70	2431.82
404.89	2370.96
405.09	2431.82
405.28	2389.69
405.47	2452.88
405.66	2495.01
405.85	2605.02
406.05	2605.02
406.24	2555.86
406.43	2562.89
406.62	2649.49
406.81	2698.64
407.00	2574.59
407.20	2642.46
407.39	2602.68
407.58	2686.94
407.77	2637.78
407.96	2759.49
408.15	2710.34
408.34	2759.49
408.54	2743.11
408.73	2698.64
408.92	2708.00
409.11	2899.92
409.30	2782.90
409.49	2853.11
409.68	2904.60
409.87	2759.49
410.07	2902.26
410.26	3038.02
410.45	3047.38
410.64	3035.67
410.83	3030.99
411.02	3098.87
411.21	3101.21
411.40	3110.57
411.59	3239.30
411.78	3272.07
411.98	3145.68
412.17	3281.43
412.36	3337.60
412.55	3405.48
412.74	3379.73
412.93	3438.25
413.12	3300.16
413.31	3419.52
413.50	3524.85
413.69	3527.19
413.88	3604.42
414.07	3625.49
414.26	3592.72
414.45	3639.53
414.64	3644.21
414.83	3686.34
415.02	3674.64
415.22	3836.14
415.41	3908.69
415.60	3896.99
415.79	3878.27
415.98	3850.18
416.17	3936.78
416.36	3920.40
416.55	3955.51
416.74	4002.32
416.93	3934.44
417.12	4098.28
417.31	4147.43
417.50	4205.94
417.69	4222.33
417.88	4404.89
418.07	4248.07
418.26	4175.52
418.45	4280.84
418.64	4451.70
418.83	4498.51
419.02	4489.15
419.21	4458.72
419.39	4535.96
419.58	4524.26
419.77	4489.15
419.96	4440.00
420.15	4587.45
420.34	4662.35
420.53	4578.09
420.72	4762.99
420.91	4571.07
421.10	4692.77
421.29	4830.87
421.48	4573.41
421.67	4758.31
421.86	4779.37
422.05	4889.38
422.24	4863.63
422.43	4964.28
422.61	4940.87
422.80	4952.57
422.99	4943.21
423.18	4835.55
423.37	4903.42
423.56	4978.32
423.75	5011.09
423.94	4826.18
424.13	4730.22
424.32	4784.06
424.50	4922.15
424.69	5149.18
424.88	5093.01
425.07	4978.32
425.26	4894.06
425.45	4786.40
425.64	5055.56
425.83	5020.45
426.01	5123.43
426.20	5025.13
426.39	5085.98
426.58	5081.30
426.77	5123.43
426.96	5034.49
427.15	5004.07
427.33	5186.63
427.52	5102.37
427.71	5186.63
427.90	5242.80
428.09	5364.51
428.28	5390.25
428.46	5303.65
428.65	5362.17
428.84	5348.12
429.03	5448.77
429.22	5383.23
429.40	5418.34
429.59	5549.41
429.78	5296.63
429.97	5287.27
430.16	5486.22
430.34	5612.60
430.53	5743.67
430.72	5729.63
430.91	5570.48
431.10	5755.38
431.28	5717.93
431.47	5675.80
431.66	5872.40
431.85	5764.74
432.03	5633.67
432.22	6090.07
432.41	5860.70
432.60	5771.76
432.79	5905.17
432.97	5912.19
433.16	5919.21
433.35	6174.33
433.54	5856.02
433.72	5984.75
433.91	6061.99
434.10	6141.57
434.28	6010.50
434.47	6267.95
434.66	6235.19
434.85	6153.27
435.03	6415.41
435.22	6359.24
435.41	6373.28
435.59	6471.58
435.78	6361.58
435.97	6375.62
436.16	6490.31
436.34	6370.94
436.53	6366.26
436.72	6492.65
436.90	6473.92
437.09	6661.16
437.28	6541.80
437.46	6621.38
437.65	6656.48
437.84	6773.51
438.02	6834.36
438.21	6817.98
438.40	6628.40
438.58	6857.77
438.77	6942.03
438.96	6927.99
439.14	7115.23
439.33	7220.55
439.52	7248.64
439.70	7164.38
439.89	7440.56
440.08	7489.71
440.26	7269.70
440.45	7375.03
440.63	7454.61
440.82	7578.65
441.01	7442.90
441.19	7627.81
441.38	7721.43
441.57	7786.96
441.75	7740.15
441.94	7957.82
442.12	7988.25
442.31	8025.70
442.50	7953.14
442.68	7810.37
442.87	8016.33
443.05	8304.22
443.24	8252.73
443.43	8189.53
443.61	8079.53
443.80	8191.88
443.98	8067.83
444.17	7786.96
444.35	8140.38
444.54	8266.77
444.73	8390.82
444.91	8283.16
445.10	8243.37
445.28	8224.64
445.47	8278.47
445.65	8336.99
445.84	8533.59
446.02	8250.39
446.21	8414.23
446.39	8201.24
446.58	8355.71
446.77	8344.01
446.95	8194.22
447.14	8259.75
447.32	8500.83
447.51	8479.76
447.69	8538.27
447.88	8472.74
448.06	8636.58
448.25	8496.14
448.43	8353.37
448.62	8624.87
448.80	8585.08
448.99	8521.89
449.17	8753.60
449.36	8589.77
449.54	8903.40
449.73	8830.84
449.91	8795.73
450.10	8718.50
450.28	8901.06
450.46	8971.27
450.65	8779.35
450.83	8975.95
451.02	8985.32
451.20	9102.34
451.39	8905.74
451.57	9249.80
451.76	9158.52
451.94	9088.30
452.13	9195.96
452.31	9397.25
452.49	8997.02
452.68	9233.41
452.86	9341.08
453.05	9320.01
453.23	9561.09
453.42	9191.28
453.60	9238.09
453.78	9460.45
453.97	9226.39
454.15	9467.47
454.34	9582.15
454.52	9568.11
454.70	9724.93
454.89	9563.43
455.07	9853.66
455.26	9834.93
455.44	9898.13
455.62	9809.19
455.81	9973.02
455.99	9919.19
456.17	10033.88
456.36	9825.57
456.54	10331.12
456.73	10204.74
456.91	10406.02
457.09	10312.40
457.28	10670.50
457.46	10228.14
457.64	10361.55
457.83	10567.52
458.01	10445.81
458.19	10476.24
458.38	10408.36
458.56	10541.77
458.74	10733.70
458.93	10689.23
459.11	10960.73
459.29	10579.22
459.48	10501.98
459.66	10944.34
459.84	10782.85
460.03	11152.65
460.21	11019.24
460.39	10970.09
460.57	10829.66
460.76	11040.31
460.94	11108.18
461.12	11229.89
461.31	11037.97
461.49	11087.12
461.67	10958.39
461.85	11456.92
462.04	11419.47
462.22	11768.21
462.40	11419.47
462.59	11279.04
462.77	11459.26
462.95	11489.69
463.13	11602.04
463.32	11531.82
463.50	11803.32
463.68	11676.93
463.86	11915.67
464.05	11576.29
464.23	11683.95
464.41	11735.45
464.59	11571.61
464.78	12269.09
464.96	11969.50
465.14	11793.96
465.32	11936.73
465.50	12063.12
465.69	12074.82
465.87	12093.55
466.05	12058.44
466.23	12194.19
466.41	12264.41
466.60	12311.22
466.78	11995.25
466.96	12119.29
467.14	12079.50
467.32	12423.56
467.51	12716.13
467.69	12238.66
467.87	12503.14
468.05	12603.78
468.23	12343.99
468.41	12575.70
468.60	12713.79
468.78	12578.04
468.96	12437.61
469.14	12856.56
469.32	12847.20
469.50	12503.14
469.69	13062.53
469.87	13151.47
470.05	13011.04
470.23	13282.54
470.41	13315.31
470.59	13135.09
470.77	13275.52
470.95	12865.92
471.14	13451.06
471.32	13238.07
471.50	13432.33
471.68	13652.34
471.86	13540.00
472.04	13809.16
472.22	14092.37
472.40	13575.11
472.58	13720.22
472.77	14108.75
472.95	14115.77
473.13	14616.65
473.31	13980.02
473.49	14045.55
473.67	14232.80
473.85	14066.62
474.03	14824.95
474.21	14651.75
474.39	14925.60
474.57	14778.14
474.75	14991.13
474.93	14918.57
475.12	15035.60
475.30	15016.88
475.48	15044.96
475.66	15082.41
475.84	15185.40
476.02	15494.35
476.20	15152.63
476.38	15632.44
476.56	15988.20
476.74	15782.23
476.92	15749.46
477.10	15793.94
477.28	16100.55
477.46	16154.38
477.64	16257.36
477.82	16596.74
478.00	17046.12
478.18	16886.97
478.36	17130.38
478.54	17118.68
478.72	16964.20
478.90	17404.22
479.08	17532.95
479.26	17619.55
479.44	17429.97
479.62	18071.28
479.80	17855.95
479.98	18068.94
480.16	18176.60
480.34	18045.53
480.52	18466.83
480.70	18717.26
480.88	18452.78
481.06	18600.24
481.24	18492.57
481.41	18768.76
481.59	18956.00
481.77	19728.38
481.95	19215.80
482.13	19424.11
482.31	19899.23
482.49	20112.22
482.67	19913.28
482.85	20016.26
483.03	20444.58
483.21	20566.29
483.39	20514.80
483.57	20800.34
483.74	21214.62
483.92	21476.76
484.10	21020.35
484.28	21678.04
484.46	21898.05
484.64	22574.47
484.82	21813.79
485.00	22298.28
485.18	22441.06
485.35	23213.43
485.53	22796.82
485.71	22841.29
485.89	23068.32
486.07	23391.31
486.25	23318.76
486.43	23847.72
486.61	23440.47
486.78	23660.48
486.96	23824.31
487.14	24437.53
487.32	24411.79
487.50	24615.41
487.68	24706.70
487.85	25266.08
488.03	25378.43
488.21	25804.41
488.39	25830.15
488.57	25909.73
488.75	26031.44
488.92	26324.01
489.10	26614.23
489.28	26590.83
489.46	26930.20
489.64	26939.57
489.81	27545.76
489.99	27363.20
490.17	27775.14
490.35	27779.82
490.53	28058.34
490.70	27983.44
490.88	28189.41
491.06	29034.35
491.24	28596.67
491.41	28627.09
491.59	29055.41
491.77	28896.25
491.95	29158.39
492.13	29766.93
492.30	29612.46
492.48	29401.81
492.66	30036.09
492.84	30209.29
493.01	30497.18
493.19	30473.78
493.37	30614.21
493.54	30859.96
493.72	31896.82
493.90	31555.10
494.08	31882.78
494.25	31871.07
494.43	31906.18
494.61	31866.39
494.79	32524.08
494.96	32694.94
495.14	32699.62
495.32	33359.66
495.49	32865.80
495.67	32966.45
495.85	33298.80
496.02	33366.68
496.20	34405.88
496.38	33848.83
496.55	34153.10
496.73	34904.41
496.91	34817.81
497.09	34698.44
497.26	34876.32
497.44	34593.12
497.62	35007.39
497.79	35192.30
497.97	35372.52
498.14	35962.33
498.32	36004.46
498.50	36093.40
498.67	36404.69
498.85	36240.86
499.03	36187.02
499.20	36744.07
499.38	36650.45
499.56	36797.90
499.73	37031.96
499.91	37186.43
500.08	37546.87
500.26	37563.26
500.44	37345.59
500.61	37563.26
500.79	37919.02
500.97	37738.80
501.14	38452.66
501.32	38211.59
501.49	38457.34
501.67	38342.66
501.84	38778.00
502.02	38864.60
502.20	38958.22
502.37	39201.63
502.55	39203.97
502.72	39360.79
502.90	39510.58
503.07	39487.18
503.25	39548.03
503.43	39576.12
503.60	39959.97
503.78	40172.96
503.95	40332.11
504.13	40116.78
504.30	40563.82
504.48	40158.91
504.65	40957.03
504.83	41092.79
505.01	40854.05
505.18	41289.39
505.36	41488.34
505.53	41109.17
505.71	41340.88
505.88	41947.08
506.06	41462.59
506.23	41525.78
506.41	41975.17
506.58	41640.47
506.76	41839.42
506.93	42003.25
507.11	41984.53
507.28	42609.45
507.46	42852.87
507.63	42600.09
507.81	42799.04
507.98	43051.81
508.16	43164.16
508.33	43234.38
508.50	43548.01
508.68	43749.29
508.85	43732.91
509.03	43840.57
509.20	43658.01
509.38	44416.35
509.55	43889.73
509.73	44612.95
509.90	44182.29
510.08	44140.16
510.25	44217.40
510.42	44442.09
510.60	45174.68
510.77	44971.05
510.95	45329.16
511.12	44919.56
511.30	45055.31
511.47	45500.01
511.64	45556.19
511.82	45331.50
511.99	45219.15
512.17	45949.40
512.34	45626.40
512.51	46117.92
512.69	46674.96
512.86	46656.24
513.04	46665.60
513.21	46246.65
513.38	46934.76
513.56	46866.89
513.73	46714.75
513.90	46890.29
514.08	46801.35
514.25	47253.08
514.43	46885.61
514.60	47203.92
514.77	47269.46
514.95	47660.33
515.12	47026.04
515.29	47215.63
515.47	47756.29
515.64	47964.60
515.81	47779.70
515.99	48521.65
516.16	48128.44
516.33	48081.63
516.51	48624.63
516.68	48423.34
516.85	48217.38
517.03	49003.80
517.20	48708.89
517.37	48645.69
517.54	48591.86
517.72	48949.96
517.89	49198.06
518.06	49137.21
518.24	49380.62
518.41	48612.93
518.58	49247.21
518.75	49361.90
518.93	49680.21
519.10	49268.28
519.27	49389.98
519.45	49762.13
519.62	50026.61
519.79	50099.17
519.96	50124.91
520.14	49841.71
520.31	49949.37
520.48	50401.10
520.65	50270.03
520.83	50286.41
521.00	50656.21
521.17	50513.44
521.34	50752.18
521.52	50855.16
521.69	50663.24
521.86	50876.22
522.03	50894.95
522.20	51358.38
522.38	51423.91
522.55	51070.49
522.72	51468.38
522.89	51433.27
523.07	51625.20
523.24	51648.60
523.41	51604.13
523.58	51306.88
523.75	51697.75
523.92	51641.58
524.10	51498.81
524.27	51676.69
524.44	52058.20
524.61	51700.09
524.78	52027.77
524.96	52034.79
525.13	52357.78
525.30	52210.33
525.47	52868.02
525.64	52580.13
525.81	52622.26
525.98	52617.58
526.16	52399.91
526.33	52481.83
526.50	52928.87
526.67	52765.04
526.84	52849.30
527.01	52678.44
527.18	52765.04
527.36	53038.88
527.53	52952.28
527.70	53324.43
527.87	53429.75
528.04	53113.78
528.21	53284.64
528.38	53396.98
528.55	53621.67
528.72	53083.35
528.89	53521.03
529.07	53279.96
529.24	53237.83
529.41	53654.44
529.58	53628.69
529.75	53429.75
529.92	53652.10
530.09	53949.35
530.26	53680.19
530.43	54134.25
530.60	53680.19
530.77	53565.50
530.94	53979.78
531.11	54117.87
531.28	53668.48
531.46	53965.73
531.63	54085.10
531.80	53837.00
531.97	54377.67
532.14	54520.44
532.31	54307.45
532.48	54251.28
532.65	54344.90
532.82	54309.79
532.99	54562.57
533.16	54576.61
533.33	54623.42
533.50	54644.49
533.67	54878.54
533.84	54815.35
534.01	54827.05
534.18	54890.24
534.35	55093.87
534.52	54787.26
534.69	55042.38
534.86	55077.49
535.03	55182.81
535.20	55288.13
535.37	55009.61
535.54	55075.15
535.71	55234.30
535.88	55316.22
536.05	55332.60
536.22	55395.80
536.38	55679.00
536.55	55234.30
536.72	55554.96
536.89	55299.84
537.06	55781.99
537.23	55704.75
537.40	55620.49
537.57	55585.38
537.74	55749.22
537.91	55838.16
538.08	55901.36
538.25	55749.22
538.42	55704.75
538.59	55997.32
538.75	55599.43
538.92	55814.76
539.09	55999.66
539.26	56121.37
539.43	56119.02
539.60	56158.81
539.77	56128.39
539.94	56446.70
540.11	56320.31
540.28	56388.19
540.44	56554.36
540.61	56404.57
540.78	56287.54
540.95	56329.67
541.12	56500.53
541.29	56313.29
541.46	56507.55
541.62	56568.41
541.79	56521.60
541.96	56411.59
542.13	56493.51
542.30	56615.22
542.47	57015.45
542.63	56783.74
542.80	56743.95
542.97	56924.17
543.14	57059.92
543.31	57099.71
543.48	57228.44
543.64	57186.31
543.81	57312.70
543.98	57331.42
544.15	57251.84
544.32	57298.65
544.48	57799.53
544.65	57176.95
544.82	57378.23
544.99	57331.42
545.16	57558.45
545.32	57485.90
545.49	57642.71
545.66	57731.65
545.83	57565.48
546.00	57579.52
546.16	57649.74
546.33	57558.45
546.50	57209.71
546.67	57616.97
546.83	57155.88
547.00	57659.10
547.17	57490.58
547.34	57715.27
547.50	57970.39
547.67	57808.89
547.84	57883.79
548.00	57897.83
548.17	58288.70
548.34	58000.82
548.51	57991.45
548.67	58164.65
548.84	58028.90
549.01	58059.33
549.18	58190.40
549.34	58305.09
549.51	58024.22
549.68	58279.34
549.84	58223.17
550.01	58251.25
550.18	58080.39
550.34	58295.72
550.51	58295.72
550.68	58405.73
550.84	58288.70
551.01	58609.35
551.18	58269.98
551.34	58277.00
551.51	58358.92
551.68	58389.34
551.84	58295.72
552.01	58382.32
552.18	58522.76
552.34	58255.93
552.51	58377.64
552.68	58419.77
552.84	58756.81
553.01	58817.66
553.18	58831.71
553.34	58667.87
553.51	58450.20
553.67	58756.81
553.84	58878.52
554.01	58941.71
554.17	59032.99
554.34	58927.67
554.51	59028.31
554.67	58770.85
554.84	58789.58
555.00	59051.72
555.17	58997.88
555.33	59065.76
555.50	58831.71
555.67	58827.02
555.83	58946.39
556.00	59112.57
556.16	59468.33
556.33	59245.98
556.50	59327.90
556.66	59276.41
556.83	58993.20
556.99	59276.41
557.16	59592.38
557.32	59264.70
557.49	59515.14
557.65	59206.19
557.82	59367.69
557.98	59384.07
558.15	59444.93
558.32	59498.76
558.48	59112.57
558.65	59271.73
558.81	59402.80
558.98	59489.40
559.14	59351.30
559.31	59592.38
559.47	59576.00
559.64	59887.29
559.80	59686.00
559.97	59585.36
560.13	59494.08
560.30	59653.23
560.46	59702.38
560.63	59604.08
560.79	59817.07
560.96	59793.67
561.12	59707.07
561.29	59826.43
561.45	59873.24
561.61	59730.47
561.78	59798.35
561.94	59882.61
562.11	59849.84
562.27	59859.20
562.44	59845.16
562.60	59976.23
562.77	59927.08
562.93	59798.35
563.10	59891.97
563.26	59716.43
563.42	59943.46
563.59	59781.96
563.75	59791.33
563.92	59838.14
564.08	59901.33
564.24	59987.93
564.41	60214.96
564.57	60046.44
564.74	59971.55
564.90	59994.95
565.07	60217.30
565.23	60030.06
565.39	60018.36
565.56	60254.75
565.72	59992.61
565.88	59945.80
566.05	60065.17
566.21	60102.62
566.38	60151.77
566.54	60236.03
566.70	60425.61
566.87	60278.16
567.03	60072.19
567.19	60362.42
567.36	60032.40
567.52	60322.63
567.68	60519.23
567.85	60067.51
568.01	60175.17
568.17	60273.48
568.34	60287.52
568.50	60231.35
568.66	60182.19
568.83	60409.23
568.99	60142.41
569.15	60240.71
569.32	60505.19
569.48	60252.41
569.64	60544.98
569.81	60411.57
569.97	60114.32
570.13	60322.63
570.30	60229.01
570.46	60411.57
570.62	60577.75
570.78	60374.12
570.95	60453.70
571.11	60615.19
571.27	60495.83
571.43	60542.64
571.60	60570.72
571.76	60519.23
571.92	60594.13
572.09	60364.76
572.25	60507.53
572.41	60416.25
572.57	60458.38
572.74	60647.96
572.90	60460.72
573.06	60418.59
573.22	60622.22
573.38	60671.37
573.55	60383.48
573.71	60764.99
573.87	60605.83
574.03	60533.28
574.20	60673.71
574.36	60509.87
574.52	60797.76
574.68	60657.32
574.84	60556.68
575.01	60884.36
575.17	60519.23
575.33	60654.98
575.49	60467.74
575.65	60786.05
575.82	60720.52
575.98	60818.82
576.14	60863.29
576.30	60568.38
576.46	60694.77
576.62	60411.57
576.79	60760.31
576.95	60505.19
577.11	60699.45
577.27	60825.84
577.43	60917.12
577.59	60711.16
577.75	60662.00
577.92	60516.89
578.08	60704.13
578.24	60699.45
578.40	60926.49
578.56	60825.84
578.72	60662.00
578.88	60970.96
579.04	60898.40
579.21	60949.89
579.37	60846.91
579.53	60769.67
579.69	60671.37
579.85	60603.49
580.01	60690.09
580.17	60753.29
580.33	60889.04
580.49	60896.06
580.65	60835.20
580.82	60905.42
580.98	60832.86
581.14	60647.96
581.30	60774.35
581.46	60825.84
581.62	60896.06
581.78	60715.84
581.94	60748.60
582.10	60729.88
582.26	60821.16
582.42	60687.75
582.58	60872.65
582.74	60870.31
582.90	60891.38
583.06	60828.18
583.22	60582.43
583.38	60985.00
583.54	60914.78
583.70	61022.45
583.86	60905.42
584.02	60811.80
584.18	61027.13
584.34	60818.82
584.50	60903.08
584.66	61041.17
584.82	60652.64
584.98	60945.21
585.14	60977.98
585.30	60769.67
585.46	61050.53
585.62	61017.77
585.78	61059.90
585.94	60767.33
586.10	60959.25
586.26	60800.10
586.42	61080.96
586.58	61013.08
586.74	60905.42
586.90	60811.80
587.06	60917.12
587.22	60959.25
587.38	61120.75
587.54	61275.22
587.70	61080.96
587.86	60996.70
588.02	60999.04
588.18	60942.87
588.34	61048.19
588.49	61092.66
