SpectraSuite Data File
++++++++++++++++++++++++++++++++++++
Date: Fri Oct 25 11:24:03 EDT 2013
User: price-jones
Dark Spectrum Present: No
Reference Spectrum Present: No
Number of Sampled Component Spectra: 1
Spectrometers: USB2+H05261
Integration Time (usec): 100000 (USB2+H05261)
Spectra Averaged: 1 (USB2+H05261)
Boxcar Smoothing: 0 (USB2+H05261)
Correct for Electrical Dark: No (USB2+H05261)
Strobe/Lamp Enabled: No (USB2+H05261)
Correct for Detector Non-linearity: No (USB2+H05261)
Correct for Stray Light: No (USB2+H05261)
Number of Pixels in Processed Spectrum: 2048
>>>>>Begin Processed Spectral Data<<<<<
365.73	245.76
365.92	245.76
366.12	245.76
366.32	98.30
366.52	147.45
366.72	119.37
366.91	147.45
367.11	98.30
367.31	100.64
367.51	119.37
367.70	100.64
367.90	147.45
368.10	140.43
368.30	67.88
368.49	102.98
368.69	180.22
368.89	117.03
369.09	152.13
369.28	145.11
369.48	154.48
369.68	159.16
369.87	175.54
370.07	84.26
370.27	217.67
370.47	332.36
370.66	552.37
370.86	599.18
371.06	606.20
371.25	678.76
371.45	585.13
371.65	580.45
371.84	678.76
372.04	678.76
372.24	669.39
372.44	734.93
372.63	683.44
372.83	699.82
373.03	763.01
373.22	704.50
373.42	793.44
373.62	835.57
373.81	805.14
374.01	819.19
374.21	816.85
374.40	779.40
374.60	809.83
374.79	791.10
374.99	828.55
375.19	826.21
375.38	887.06
375.58	791.10
375.78	830.89
375.97	840.25
376.17	901.11
376.37	915.15
376.56	898.77
376.76	901.11
376.95	933.87
377.15	894.08
377.35	938.55
377.54	823.87
377.74	833.23
377.93	840.25
378.13	833.23
378.33	933.87
378.52	950.26
378.72	985.37
378.91	1032.18
379.11	910.47
379.31	936.21
379.50	997.07
379.70	1053.24
379.89	1018.13
380.09	954.94
380.28	992.39
380.48	917.49
380.68	1032.18
380.87	971.32
381.07	1011.11
381.26	1067.28
381.46	980.68
381.65	1034.52
381.85	1020.47
382.04	1022.81
382.24	1132.82
382.43	1076.65
382.63	1060.26
382.83	1032.18
383.02	1170.27
383.22	1174.95
383.41	1121.12
383.61	1083.67
383.80	1203.04
384.00	1039.20
384.19	1177.29
384.39	1139.84
384.58	1160.91
384.78	1090.69
384.97	1224.10
385.17	1149.20
385.36	1212.40
385.56	1228.78
385.75	1156.22
385.95	1163.25
386.14	1186.65
386.34	1104.73
386.53	1205.38
386.72	1259.21
386.92	1170.27
387.11	1172.61
387.31	1273.25
387.50	1203.04
387.70	1263.89
387.89	1247.51
388.09	1263.89
388.28	1270.91
388.48	1263.89
388.67	1301.34
388.86	1380.92
389.06	1275.59
389.25	1287.29
389.45	1254.53
389.64	1399.64
389.84	1387.94
390.03	1336.45
390.22	1348.15
390.42	1399.64
390.61	1401.98
390.81	1275.59
391.00	1427.73
391.19	1404.32
391.39	1378.58
391.58	1399.64
391.78	1467.52
391.97	1465.18
392.16	1423.05
392.36	1474.54
392.55	1474.54
392.75	1579.86
392.94	1444.11
393.13	1523.69
393.33	1600.93
393.52	1591.56
393.71	1582.20
393.91	1549.43
394.10	1547.09
394.29	1614.97
394.49	1607.95
394.68	1633.69
394.88	1643.06
395.07	1645.40
395.26	1645.40
395.46	1729.66
395.65	1624.33
395.84	1675.82
396.04	1727.32
396.23	1739.02
396.42	1851.36
396.62	1743.70
396.81	1802.21
397.00	1713.27
397.19	1849.02
397.39	1872.43
397.58	1788.17
397.77	1832.64
397.97	1919.24
398.16	1818.60
398.35	1970.73
398.55	1884.13
398.74	1963.71
398.93	2010.52
399.12	1919.24
399.32	1905.20
399.51	1977.75
399.70	2040.95
399.90	1959.03
400.09	1959.03
400.28	2026.90
400.47	2057.33
400.67	2134.57
400.86	2087.76
401.05	2146.27
401.24	2101.80
401.44	2097.12
401.63	2052.65
401.82	2113.50
402.01	2155.63
402.21	2083.08
402.40	2148.61
402.59	2108.82
402.78	2235.21
402.97	2277.34
403.17	2363.94
403.36	2204.78
403.55	2321.81
403.74	2356.92
403.93	2237.55
404.13	2338.20
404.32	2506.71
404.51	2389.69
404.70	2459.90
404.89	2450.54
405.09	2445.86
405.28	2499.69
405.47	2490.33
405.66	2413.09
405.85	2450.54
406.05	2546.50
406.24	2506.71
406.43	2567.57
406.62	2630.76
406.81	2670.55
407.00	2546.50
407.20	2569.91
407.39	2532.46
407.58	2532.46
407.77	2827.37
407.96	2808.64
408.15	2745.45
408.34	2715.02
408.54	2867.16
408.73	2731.41
408.92	2843.75
409.11	2829.71
409.30	2967.80
409.49	2923.33
409.68	2843.75
409.87	2906.95
410.07	3077.80
410.26	3080.14
410.45	2972.48
410.64	3059.08
410.83	3094.19
411.02	3028.65
411.21	3157.38
411.40	3143.34
411.59	3269.73
411.78	3290.79
411.98	3143.34
412.17	3302.50
412.36	3251.00
412.55	3190.15
412.74	3475.70
412.93	3412.50
413.12	3276.75
413.31	3604.42
413.50	3396.12
413.69	3534.21
413.88	3644.21
414.07	3672.30
414.26	3676.98
414.45	3611.45
414.64	3660.60
414.83	3831.46
415.02	3721.45
415.22	3751.88
415.41	3936.78
415.60	3765.92
415.79	3901.67
415.98	4030.40
416.17	3988.27
416.36	4093.60
416.55	4086.58
416.74	4023.38
416.93	4095.94
417.12	4084.23
417.31	4243.39
417.50	4283.18
417.69	4255.09
417.88	4339.35
418.07	4432.97
418.26	4322.97
418.45	4126.36
418.64	4601.49
418.83	4414.25
419.02	4465.74
419.21	4620.22
419.39	4381.48
419.58	4557.02
419.77	4381.48
419.96	4514.89
420.15	4667.03
420.34	4531.28
420.53	4674.05
420.72	4755.97
420.91	4723.20
421.10	4798.10
421.29	4723.20
421.48	4557.02
421.67	4784.06
421.86	4641.28
422.05	4784.06
422.24	4655.33
422.43	4840.23
422.61	4833.21
422.80	4983.00
422.99	5022.79
423.18	4975.98
423.37	4926.83
423.56	5090.67
423.75	4954.91
423.94	4887.04
424.13	4526.60
424.32	4807.46
424.50	5135.14
424.69	5132.79
424.88	5093.01
425.07	5048.54
425.26	4919.81
425.45	4926.83
425.64	4975.98
425.83	4957.25
426.01	5029.81
426.20	5109.39
426.39	5043.85
426.58	5118.75
426.77	5071.94
426.96	5170.24
427.15	5195.99
427.33	5078.96
427.52	5184.29
427.71	5406.64
427.90	5132.79
428.09	5275.57
428.28	5462.81
428.46	5331.74
428.65	5371.53
428.84	5654.73
429.03	5547.07
429.22	5296.63
429.40	5645.37
429.59	5518.98
429.78	5315.36
429.97	5336.42
430.16	5476.85
430.34	5659.42
430.53	5516.64
430.72	5626.65
430.91	5643.03
431.10	5500.26
431.28	5724.95
431.47	5783.46
431.66	5942.62
431.85	5731.97
432.03	5909.85
432.22	5886.45
432.41	5879.43
432.60	5858.36
432.79	5806.87
432.97	6092.41
433.16	6069.01
433.35	6036.24
433.54	6045.60
433.72	6005.81
433.91	6050.28
434.10	6003.47
434.28	6148.59
434.47	6101.78
434.66	6375.62
434.85	6303.06
435.03	6291.36
435.22	6214.12
435.41	6494.99
435.59	6506.69
435.78	6525.41
435.97	6464.56
436.16	6394.34
436.34	6384.98
436.53	6628.40
436.72	6726.70
436.90	6696.27
437.09	6658.82
437.28	6443.49
437.46	6705.63
437.65	6586.27
437.84	6820.32
438.02	6707.98
438.21	6787.55
438.40	6705.63
438.58	7012.24
438.77	7070.76
438.96	6972.46
439.14	7056.72
439.33	7084.80
439.52	7349.28
439.70	7414.82
439.89	7325.88
440.08	7384.39
440.26	7281.41
440.45	7222.89
440.63	7449.93
440.82	7536.52
441.01	7454.61
441.19	7768.24
441.38	7763.56
441.57	7681.64
441.75	7740.15
441.94	8102.93
442.12	7723.77
442.31	7918.03
442.50	7999.95
442.68	7901.65
442.87	8088.89
443.05	8091.23
443.24	8243.37
443.43	8060.80
443.61	8091.23
443.80	8325.29
443.98	8056.12
444.17	7894.63
444.35	8093.57
444.54	8491.46
444.73	8421.25
444.91	8374.44
445.10	8489.12
445.28	8414.23
445.47	8386.14
445.65	8503.17
445.84	8484.44
446.02	8432.95
446.21	8311.24
446.39	8369.76
446.58	8383.80
446.77	8362.73
446.95	8306.56
447.14	8344.01
447.32	8276.13
447.51	8493.80
447.69	8479.76
447.88	8638.92
448.06	8601.47
448.25	8573.38
448.43	8812.12
448.62	8524.23
448.80	8744.24
448.99	8798.07
449.17	8716.16
449.36	8779.35
449.54	9004.04
449.73	8980.64
449.91	9004.04
450.10	8910.42
450.28	8966.59
450.46	9170.22
450.65	9057.87
450.83	9043.83
451.02	9137.45
451.20	9261.50
451.39	9114.05
451.57	9095.32
451.76	9151.49
451.94	9095.32
452.13	9383.21
452.31	9320.01
452.49	9270.86
452.68	9294.27
452.86	9366.82
453.05	9380.87
453.23	9626.62
453.42	9486.19
453.60	9291.93
453.78	9591.52
453.97	9607.90
454.15	9568.11
454.34	9523.64
454.52	9767.06
454.70	9554.07
454.89	9921.53
455.07	9811.53
455.26	9914.51
455.44	9898.13
455.62	9841.95
455.81	9958.98
455.99	10209.42
456.17	10052.60
456.36	9919.19
456.54	9956.64
456.73	10164.95
456.91	10303.04
457.09	10516.03
457.28	10703.27
457.46	10413.04
457.64	10565.18
457.83	10401.34
458.01	10406.02
458.19	10698.59
458.38	10684.55
458.56	10773.49
458.74	10623.69
458.93	10724.33
459.11	10724.33
459.29	10714.97
459.48	10806.25
459.66	10829.66
459.84	10949.03
460.03	11040.31
460.21	11005.20
460.39	11164.36
460.57	11150.31
460.76	11052.01
460.94	11129.25
461.12	11122.23
461.31	11379.68
461.49	11103.50
461.67	11283.72
461.85	11660.55
462.04	11344.58
462.22	11463.94
462.40	11445.22
462.59	11609.06
462.77	11482.67
462.95	11627.78
463.13	11700.34
463.32	11616.08
463.50	11868.86
463.68	11630.12
463.86	11927.37
464.05	11658.21
464.23	11688.64
464.41	11698.00
464.59	11599.70
464.78	12035.03
464.96	11990.56
465.14	11908.65
465.32	11995.25
465.50	12086.53
465.69	12201.21
465.87	12065.46
466.05	12196.53
466.23	12222.28
466.41	12360.37
466.60	12531.23
466.78	12428.24
466.96	12269.09
467.14	12461.01
467.32	12407.18
467.51	12744.22
467.69	12409.52
467.87	12313.56
468.05	12533.57
468.23	12353.35
468.41	12512.50
468.60	12566.34
468.78	12720.81
468.96	12564.00
469.14	12840.18
469.32	12954.87
469.50	12727.83
469.69	12758.26
469.87	13128.06
470.05	13202.96
470.23	12975.93
470.41	13151.47
470.59	13504.89
470.77	13186.58
470.95	13362.12
471.14	13343.39
471.32	13088.28
471.50	13596.17
471.68	13694.47
471.86	13570.43
472.04	13832.57
472.22	14024.49
472.40	13701.50
472.58	13844.27
472.77	13961.30
472.95	14197.69
473.13	14314.72
473.31	14099.39
473.49	14520.68
473.67	14150.88
473.85	14319.40
474.03	14717.29
474.21	14429.40
474.39	14726.65
474.57	14347.48
474.75	14979.43
474.93	14878.79
475.12	15073.05
475.30	15178.37
475.48	15035.60
475.66	15199.44
475.84	15119.86
476.02	15321.15
476.20	15339.87
476.38	15784.57
476.56	16091.18
476.74	15887.56
476.92	15988.20
477.10	15784.57
477.28	16156.72
477.46	16187.14
477.64	16301.83
477.82	16692.70
478.00	16872.92
478.18	16711.42
478.36	16989.95
478.54	17228.68
478.72	17558.70
478.90	17202.94
479.08	17558.70
479.26	17593.81
479.44	17743.60
479.62	18232.77
479.80	17827.86
479.98	18221.07
480.16	18773.44
480.34	18225.75
480.52	18743.01
480.70	18548.75
480.88	18576.83
481.06	19056.64
481.24	18789.82
481.41	19250.91
481.59	19372.61
481.77	19536.45
481.95	19714.33
482.13	20060.73
482.31	19763.48
482.49	20046.69
482.67	20175.42
482.85	20521.82
483.03	20418.83
483.21	20528.84
483.39	21172.49
483.57	20933.75
483.74	21596.12
483.92	21745.92
484.10	21399.52
484.28	21647.61
484.46	21886.35
484.64	22333.39
484.82	22195.30
485.00	22384.88
485.18	22806.18
485.35	22967.68
485.53	22869.37
485.71	23201.73
485.89	23428.76
486.07	23606.64
486.25	23374.93
486.43	23517.70
486.61	23733.03
486.78	23997.51
486.96	24636.48
487.14	24732.44
487.32	24879.89
487.50	24945.43
487.68	24858.83
487.85	25537.59
488.03	25659.29
488.21	25701.42
488.39	25661.63
488.57	26286.56
488.75	26408.26
488.92	26565.08
489.10	26726.58
489.28	26710.19
489.46	27180.64
489.64	26986.38
489.81	27417.04
489.99	27835.99
490.17	27889.82
490.35	28088.77
490.53	27899.19
490.70	28776.89
490.88	28180.05
491.06	28643.48
491.24	29139.67
491.41	28959.45
491.59	29385.43
491.77	29282.44
491.95	29596.07
492.13	29806.72
492.30	30087.59
492.48	29928.43
492.66	30225.68
492.84	30558.03
493.01	30639.95
493.19	30684.42
493.37	30941.88
493.54	31365.52
493.72	31676.81
493.90	31597.23
494.08	31887.46
494.25	32151.94
494.43	32229.18
494.61	32648.13
494.79	32727.71
494.96	32765.16
495.14	32999.21
495.32	33144.33
495.49	33263.69
495.67	33832.44
495.85	33317.53
496.02	33603.07
496.20	34099.26
496.38	34316.93
496.55	34199.91
496.73	34871.64
496.91	34651.63
497.09	34742.91
497.26	35091.65
497.44	34895.05
497.62	35433.37
497.79	35775.09
497.97	35615.93
498.14	36053.61
498.32	36236.17
498.50	36301.71
498.67	36392.99
498.85	36465.55
499.03	36563.85
499.20	36715.98
499.38	37280.05
499.56	37275.37
499.73	37287.07
499.91	37003.87
500.08	37567.94
500.26	37284.73
500.44	37326.86
500.61	37916.68
500.79	38075.84
500.97	38117.96
501.14	38731.18
501.32	38717.14
501.49	38995.67
501.67	38726.50
501.84	38951.20
502.02	38759.27
502.20	39304.62
502.37	39377.17
502.55	39288.23
502.72	39873.37
502.90	39690.80
503.07	39854.64
503.25	39803.15
503.43	39824.22
503.60	40123.80
503.78	40425.73
503.95	40755.75
504.13	40271.26
504.30	40591.91
504.48	40472.54
504.65	40837.67
504.83	41139.60
505.01	41507.06
505.18	41254.28
505.36	41928.36
505.53	41165.34
505.71	41642.81
505.88	41799.63
506.06	41715.37
506.23	41963.46
506.41	41820.69
506.58	42040.70
506.76	42012.62
506.93	42408.17
507.11	42005.59
507.28	42665.63
507.46	42672.65
507.63	43065.86
507.81	43253.10
507.98	42773.29
508.16	43257.78
508.33	43824.19
508.50	43281.19
508.68	43950.58
508.85	44191.65
509.03	44215.06
509.20	44203.36
509.38	44095.69
509.55	44275.91
509.73	44559.12
509.90	44935.95
510.08	44678.49
510.25	45102.12
510.42	44683.17
510.60	44910.20
510.77	45764.49
510.95	45436.82
511.12	45226.17
511.30	45212.13
511.47	45734.07
511.64	45619.38
511.82	45909.61
511.99	45621.72
512.17	46183.45
512.34	46092.17
512.51	46396.44
512.69	46824.76
512.86	46681.98
513.04	46892.63
513.21	46595.38
513.38	46784.97
513.56	47295.21
513.73	46761.56
513.90	47423.93
514.08	46976.89
514.25	47405.21
514.43	47292.86
514.60	47810.12
514.77	47421.59
514.95	47936.51
515.12	48020.77
515.29	47711.82
515.47	48081.63
515.64	48364.83
515.81	47894.38
515.99	48425.68
516.16	48509.94
516.33	48437.39
516.51	48844.64
516.68	48418.66
516.85	48357.81
517.03	48760.38
517.20	49317.43
517.37	48683.14
517.54	48846.98
517.72	49078.69
517.89	49043.59
518.06	49055.29
518.24	49155.93
518.41	49301.04
518.58	49476.58
518.75	49118.48
518.93	49612.34
519.10	49762.13
519.27	49804.26
519.45	49954.05
519.62	49638.08
519.79	50492.38
519.96	50052.36
520.14	50241.94
520.31	50302.79
520.48	50878.57
520.65	50571.96
520.83	50925.38
521.00	50656.21
521.17	50782.60
521.34	50478.33
521.52	50906.65
521.69	51021.34
521.86	51119.64
522.03	51365.40
522.20	51241.35
522.38	51412.21
522.55	51564.34
522.72	51227.31
522.89	51100.92
523.07	51704.77
523.24	51473.06
523.41	51880.31
523.58	51365.40
523.75	51938.83
523.92	51812.44
524.10	52079.26
524.27	52039.47
524.44	51840.53
524.61	52144.80
524.78	52428.00
524.96	52212.67
525.13	52493.54
525.30	52587.16
525.47	52350.76
525.64	52669.08
525.81	52931.22
525.98	52999.09
526.16	52615.24
526.33	52900.79
526.50	53029.52
526.67	52795.46
526.84	53116.12
527.01	52617.58
527.18	53001.43
527.36	52790.78
527.53	53284.64
527.70	53616.99
527.87	53240.17
528.04	53364.21
528.21	53462.52
528.38	53350.17
528.55	53570.18
528.72	53584.22
528.89	53616.99
529.07	53457.84
529.24	53528.05
529.41	53993.82
529.58	53490.60
529.75	53565.50
529.92	53951.69
530.09	53954.03
530.26	53951.69
530.43	54059.35
530.60	53579.54
530.77	54028.93
530.94	54136.59
531.11	54082.76
531.28	54344.90
531.46	54497.03
531.63	54443.20
531.80	54213.83
531.97	54506.40
532.14	54653.85
532.31	54681.94
532.48	54787.26
532.65	54522.78
532.82	54480.65
532.99	54918.33
533.16	54691.30
533.33	54871.52
533.50	54937.05
533.67	54794.28
533.84	54660.87
534.01	54822.37
534.18	54939.39
534.35	55327.92
534.52	55100.89
534.69	55231.96
534.86	55391.12
535.03	54983.86
535.20	55330.26
535.37	55512.83
535.54	55407.50
535.71	55306.86
535.88	55510.49
536.05	55484.74
536.22	55601.77
536.38	55753.90
536.55	55660.28
536.72	55592.40
536.89	55650.92
537.06	55571.34
537.23	55976.25
537.40	55571.34
537.57	55594.74
537.74	55688.37
537.91	55882.63
538.08	56168.18
538.25	55805.39
538.42	56086.26
538.59	56381.16
538.75	56243.07
538.92	55955.19
539.09	56280.52
539.26	56369.46
539.43	56072.21
539.60	56376.48
539.77	56243.07
539.94	56589.47
540.11	56453.72
540.28	56636.28
540.44	56584.79
540.61	56425.64
540.78	56451.38
540.95	56439.68
541.12	56591.81
541.29	56601.18
541.46	56465.42
541.62	56554.36
541.79	56722.88
541.96	56442.02
542.13	56608.20
542.30	56687.78
542.47	56989.70
542.63	56989.70
542.80	57052.90
542.97	57291.63
543.14	57027.15
543.31	57176.95
543.48	57490.58
543.64	57443.77
543.81	57467.17
543.98	57291.63
544.15	57577.18
544.32	57708.25
544.48	57689.52
544.65	57511.64
544.82	57572.50
544.99	57476.54
545.16	57413.34
545.32	57368.87
545.49	57682.50
545.66	57797.19
545.83	57619.31
546.00	58017.20
546.16	57663.78
546.33	57488.24
546.50	57689.52
546.67	57982.09
546.83	57565.48
547.00	57818.25
547.17	58071.03
547.34	57799.53
547.50	57881.45
547.67	57965.71
547.84	57986.77
548.00	58274.66
548.17	58120.18
548.34	58110.82
548.51	58267.64
548.67	58024.22
548.84	58199.76
549.01	58253.59
549.18	58234.87
549.34	58508.71
549.51	58199.76
549.68	58583.61
549.84	58553.18
550.01	58670.21
550.18	58358.92
550.34	58607.01
550.51	58581.27
550.68	58288.70
550.84	58464.24
551.01	58632.76
551.18	58742.77
551.34	58543.82
551.51	58674.89
551.68	58726.38
551.84	58574.25
552.01	58588.29
552.18	58763.83
552.34	58667.87
552.51	58735.74
552.68	58511.05
552.84	58850.43
553.01	59168.74
553.18	58838.73
553.34	58969.80
553.51	58773.19
553.67	58955.75
553.84	58948.73
554.01	58925.33
554.17	59107.89
554.34	59124.27
554.51	58918.31
554.67	59058.74
554.84	59002.56
555.00	59145.34
555.17	58965.12
555.33	59173.42
555.50	58958.09
555.67	58958.09
555.83	59054.06
556.00	59236.62
556.16	59442.59
556.33	59355.99
556.50	59267.05
556.66	59524.50
556.83	59224.92
556.99	59451.95
557.16	59470.67
557.32	59613.44
557.49	59746.86
557.65	59540.89
557.82	59463.65
557.98	59416.84
558.15	59620.47
558.32	59561.95
558.48	59468.33
558.65	59503.44
558.81	59281.09
558.98	59599.40
559.14	59606.42
559.31	59678.98
559.47	59845.16
559.64	59798.35
559.80	59693.02
559.97	59660.26
560.13	59695.36
560.30	59798.35
560.46	59793.67
560.63	59765.58
560.79	60027.72
560.96	59903.67
561.12	59929.42
561.29	59901.33
561.45	60032.40
561.61	59744.51
561.78	59821.75
561.94	59950.48
562.11	59924.74
562.27	59819.41
562.44	60090.91
562.60	59847.50
562.77	60034.74
562.93	59709.41
563.10	59922.40
563.26	60046.44
563.42	60420.93
563.59	60023.04
563.75	59980.91
563.92	60116.66
564.08	60083.89
564.24	60336.67
564.41	60203.26
564.57	60231.35
564.74	60261.77
564.90	60179.85
565.07	60177.51
565.23	60121.34
565.39	60236.03
565.56	60303.90
565.72	60165.81
565.88	60212.62
566.05	60189.22
566.21	60184.54
566.38	60205.60
566.54	60327.31
566.70	60369.44
566.87	60467.74
567.03	60308.58
567.19	60507.53
567.36	60463.06
567.52	60320.29
567.68	60580.09
567.85	60390.50
568.01	60374.12
568.17	60191.56
568.34	60512.21
568.50	60467.74
568.66	60498.17
568.83	60437.31
568.99	60514.55
569.15	60308.58
569.32	60502.85
569.48	60500.51
569.64	60484.12
569.81	60493.49
569.97	60355.39
570.13	60687.75
570.30	60430.29
570.46	60502.85
570.62	60809.46
570.78	60570.72
570.95	60570.72
571.11	60640.94
571.27	60500.51
571.43	60402.21
571.60	60891.38
571.76	60561.36
571.92	60715.84
572.09	60540.30
572.25	60488.80
572.41	60528.59
572.57	60598.81
572.74	61057.56
572.90	60835.20
573.06	60720.52
573.22	60807.12
573.38	60982.66
573.55	60753.29
573.71	60828.18
573.87	60722.86
574.03	60456.04
574.20	60729.88
574.36	60835.20
574.52	60835.20
574.68	60800.10
574.84	61066.92
575.01	60917.12
575.17	60802.44
575.33	60786.05
575.49	60764.99
575.65	60811.80
575.82	61055.21
575.98	60856.27
576.14	61078.62
576.30	60750.94
576.46	60832.86
576.62	60968.61
576.79	60790.73
576.95	60760.31
577.11	60851.59
577.27	60828.18
577.43	60755.63
577.59	60797.76
577.75	60697.11
577.92	60837.54
578.08	60678.39
578.24	61076.28
578.40	61116.07
578.56	60954.57
578.72	60905.42
578.88	60889.04
579.04	61017.77
579.21	60949.89
579.37	61034.15
579.53	61132.45
579.69	60790.73
579.85	60921.80
580.01	60973.30
580.17	60762.65
580.33	60989.68
580.49	61066.92
580.65	61078.62
580.82	60835.20
580.98	60762.65
581.14	60865.63
581.30	61148.84
581.46	60889.04
581.62	61172.24
581.78	60739.24
581.94	60949.89
582.10	61134.79
582.26	60889.04
582.42	60837.54
582.58	61144.16
582.74	60907.76
582.90	61132.45
583.06	60954.57
583.22	60849.25
583.38	61008.40
583.54	61240.12
583.70	61106.71
583.86	61160.54
584.02	60877.33
584.18	60776.69
584.34	61085.64
584.50	60807.12
584.66	60940.53
584.82	60732.22
584.98	61097.34
585.14	61315.01
585.30	61027.13
585.46	61106.71
585.62	61022.45
585.78	61139.47
585.94	61020.11
586.10	60956.91
586.26	61183.94
586.42	61326.72
586.58	61254.16
586.74	60968.61
586.90	61106.71
587.06	61127.77
587.22	60975.64
587.38	61144.16
587.54	61221.39
587.70	61195.65
587.86	61076.28
588.02	61169.90
588.18	61336.08
588.34	61190.97
588.49	61118.41
