SpectraSuite Data File
++++++++++++++++++++++++++++++++++++
Date: Fri Oct 25 11:26:41 EDT 2013
User: price-jones
Dark Spectrum Present: No
Reference Spectrum Present: No
Number of Sampled Component Spectra: 1
Spectrometers: USB2+H05261
Integration Time (usec): 100000 (USB2+H05261)
Spectra Averaged: 1 (USB2+H05261)
Boxcar Smoothing: 0 (USB2+H05261)
Correct for Electrical Dark: No (USB2+H05261)
Strobe/Lamp Enabled: No (USB2+H05261)
Correct for Detector Non-linearity: No (USB2+H05261)
Correct for Stray Light: No (USB2+H05261)
Number of Pixels in Processed Spectrum: 2048
>>>>>Begin Processed Spectral Data<<<<<
365.73	224.69
365.92	224.69
366.12	224.69
366.32	131.07
366.52	117.03
366.72	182.56
366.91	77.24
367.11	53.83
367.31	117.03
367.51	198.95
367.70	140.43
367.90	147.45
368.10	147.45
368.30	126.39
368.49	74.90
368.69	175.54
368.89	208.31
369.09	241.08
369.28	180.22
369.48	264.48
369.68	177.88
369.87	205.97
370.07	215.33
370.27	222.35
370.47	346.40
370.66	603.86
370.86	645.99
371.06	725.57
371.25	725.57
371.45	695.14
371.65	723.23
371.84	763.01
372.04	624.92
372.24	709.18
372.44	711.52
372.63	683.44
372.83	880.04
373.03	718.54
373.22	744.29
373.42	737.27
373.62	802.80
373.81	833.23
374.01	748.97
374.21	826.21
374.40	809.83
374.60	844.93
374.79	798.12
374.99	851.96
375.19	786.42
375.38	837.91
375.58	833.23
375.78	938.55
375.97	828.55
376.17	957.28
376.37	816.85
376.56	898.77
376.76	863.66
376.95	896.43
377.15	926.85
377.35	880.04
377.54	954.94
377.74	933.87
377.93	917.49
378.13	908.13
378.33	1011.11
378.52	966.64
378.72	938.55
378.91	945.58
379.11	957.28
379.31	926.85
379.50	973.66
379.70	1043.88
379.89	990.05
380.09	952.60
380.28	926.85
380.48	1025.15
380.68	1053.24
380.87	952.60
381.07	1064.94
381.26	938.55
381.46	1022.81
381.65	964.30
381.85	1074.31
382.04	1057.92
382.24	1039.20
382.43	1114.10
382.63	1081.33
382.83	1090.69
383.02	1060.26
383.22	1102.39
383.41	1104.73
383.61	1263.89
383.80	1177.29
384.00	1193.67
384.19	1118.78
384.39	1172.61
384.58	1224.10
384.78	1181.97
384.97	1144.52
385.17	1142.18
385.36	1121.12
385.56	1200.69
385.75	1203.04
385.95	1277.93
386.14	1188.99
386.34	1191.33
386.53	1217.08
386.72	1144.52
386.92	1275.59
387.11	1153.88
387.31	1240.48
387.50	1235.80
387.70	1275.59
387.89	1191.33
388.09	1320.06
388.28	1240.48
388.48	1212.40
388.67	1277.93
388.86	1362.19
389.06	1362.19
389.25	1355.17
389.45	1259.21
389.64	1380.92
389.84	1416.02
390.03	1364.53
390.22	1432.41
390.42	1366.87
390.61	1387.94
390.81	1427.73
391.00	1383.26
391.19	1516.67
391.39	1568.16
391.58	1472.20
391.78	1439.43
391.97	1486.24
392.16	1514.33
392.36	1530.71
392.55	1476.88
392.75	1439.43
392.94	1495.60
393.13	1528.37
393.33	1544.75
393.52	1624.33
393.71	1598.59
393.91	1570.50
394.10	1610.29
394.29	1619.65
394.49	1610.29
394.68	1537.73
394.88	1827.96
395.07	1638.38
395.26	1692.21
395.46	1689.87
395.65	1675.82
395.84	1757.74
396.04	1809.23
396.23	1832.64
396.42	1781.15
396.62	1764.76
396.81	1874.77
397.00	1741.36
397.19	1811.57
397.39	1802.21
397.58	1853.70
397.77	1930.94
397.97	1867.75
398.16	1834.98
398.35	1914.56
398.55	1802.21
398.74	1923.92
398.93	1919.24
399.12	1968.39
399.32	1914.56
399.51	1919.24
399.70	1935.62
399.90	1944.99
400.09	2101.80
400.28	2031.58
400.47	2017.54
400.67	2218.83
400.86	2153.29
401.05	2092.44
401.24	2120.53
401.44	2167.34
401.63	2139.25
401.82	2146.27
402.01	2225.85
402.21	2172.02
402.40	2157.97
402.59	2242.23
402.78	2193.08
402.97	2228.19
403.17	2272.66
403.36	2258.62
403.55	2165.00
403.74	2347.56
403.93	2291.38
404.13	2326.49
404.32	2324.15
404.51	2377.98
404.70	2396.71
404.89	2366.28
405.09	2548.84
405.28	2497.35
405.47	2600.34
405.66	2616.72
405.85	2597.99
406.05	2485.65
406.24	2609.70
406.43	2548.84
406.62	2801.62
406.81	2689.28
407.00	2619.06
407.20	2679.91
407.39	2647.15
407.58	2719.70
407.77	2766.51
407.96	2651.83
408.15	2827.37
408.34	2813.32
408.54	2855.45
408.73	2867.16
408.92	2822.69
409.11	2857.79
409.30	2906.95
409.49	2918.65
409.68	3030.99
409.87	2930.35
410.07	2991.20
410.26	3052.06
410.45	3042.70
410.64	3049.72
410.83	3145.68
411.02	3091.85
411.21	3098.87
411.40	3178.45
411.59	3190.15
411.78	3164.40
411.98	3145.68
412.17	3281.43
412.36	3328.24
412.55	3318.88
412.74	3456.97
412.93	3363.35
413.12	3337.60
413.31	3412.50
413.50	3339.94
413.69	3466.33
413.88	3669.96
414.07	3597.40
414.26	3667.62
414.45	3609.11
414.64	3721.45
414.83	3737.84
415.02	3871.25
415.22	3878.27
415.41	3943.80
415.60	3819.75
415.79	3885.29
415.98	4049.13
416.17	3978.91
416.36	3950.82
416.55	3983.59
416.74	4095.94
416.93	4156.79
417.12	4203.60
417.31	4196.58
417.50	4264.46
417.69	4376.80
417.88	4407.23
418.07	4339.35
418.26	4337.01
418.45	4381.48
418.64	4575.75
418.83	4456.38
419.02	4437.66
419.21	4526.60
419.39	4477.44
419.58	4528.94
419.77	4498.51
419.96	4582.77
420.15	4709.16
420.34	4547.66
420.53	4793.42
420.72	4716.18
420.91	4681.07
421.10	4758.31
421.29	4812.14
421.48	4746.61
421.67	4924.49
421.86	4781.71
422.05	4727.88
422.24	4786.40
422.43	4926.83
422.61	4968.96
422.80	4957.25
422.99	4938.53
423.18	4968.96
423.37	5240.46
423.56	5062.58
423.75	5022.79
423.94	4896.40
424.13	4631.92
424.32	4781.71
424.50	5083.64
424.69	5160.88
424.88	5067.26
425.07	5118.75
425.26	4985.34
425.45	4992.36
425.64	4980.66
425.83	5025.13
426.01	5046.20
426.20	5158.54
426.39	5039.17
426.58	5102.37
426.77	5097.69
426.96	5048.54
427.15	5167.90
427.33	5219.39
427.52	5200.67
427.71	5451.11
427.90	5359.83
428.09	5528.35
428.28	5378.55
428.46	5462.81
428.65	5336.42
428.84	5481.53
429.03	5713.25
429.22	5352.81
429.40	5490.90
429.59	5568.13
429.78	5383.23
429.97	5296.63
430.16	5465.15
430.34	5720.27
430.53	5720.27
430.72	5671.12
430.91	5689.84
431.10	5785.80
431.28	5727.29
431.47	5687.50
431.66	5846.66
431.85	5928.58
432.03	5916.87
432.22	5989.43
432.41	5886.45
432.60	6043.26
432.79	5977.73
432.97	6057.31
433.16	6005.81
433.35	5951.98
433.54	6171.99
433.72	6150.93
433.91	6183.70
434.10	6328.81
434.28	6167.31
434.47	6202.42
434.66	6406.05
434.85	6380.30
435.03	6356.90
435.22	6455.20
435.41	6546.48
435.59	6401.37
435.78	6399.02
435.97	6663.51
436.16	6590.95
436.34	6665.85
436.53	6626.06
436.72	6682.23
436.90	6509.03
437.09	6775.85
437.28	6499.67
437.46	6651.80
437.65	6754.79
437.84	6876.49
438.02	6782.87
438.21	6860.11
438.40	6569.88
438.58	7166.72
438.77	7066.08
438.96	7089.48
439.14	7119.91
439.33	7372.69
439.52	7220.55
439.70	7248.64
439.89	7473.33
440.08	7358.64
440.26	7346.94
440.45	7403.11
440.63	7702.70
440.82	7700.36
441.01	7463.97
441.19	7527.16
441.38	7681.64
441.57	7744.83
441.75	7878.24
441.94	8060.80
442.12	7878.24
442.31	8049.10
442.50	8114.64
442.68	7911.01
442.87	8121.66
443.05	8283.16
443.24	8360.39
443.43	8297.20
443.61	8039.74
443.80	8512.53
443.98	8067.83
444.17	8016.33
444.35	8397.84
444.54	8390.82
444.73	8182.51
444.91	8599.13
445.10	8439.97
445.28	8173.15
445.47	8344.01
445.65	8545.30
445.84	8468.06
446.02	8533.59
446.21	8498.49
446.39	8594.45
446.58	8538.27
446.77	8564.02
446.95	8184.85
447.14	8566.36
447.32	8564.02
447.51	8624.87
447.69	8557.00
447.88	8667.00
448.06	8568.70
448.25	8760.63
448.43	8662.32
448.62	8648.28
448.80	8695.09
448.99	8741.90
449.17	8919.78
449.36	8659.98
449.54	9018.08
449.73	9212.35
449.91	8978.30
450.10	8952.55
450.28	9174.90
450.46	9205.33
450.65	9263.84
450.83	9153.84
451.02	9004.04
451.20	9350.44
451.39	9151.49
451.57	9165.54
451.76	9254.48
451.94	9282.56
452.13	9563.43
452.31	9451.08
452.49	9287.25
452.68	9451.08
452.86	9254.48
453.05	9467.47
453.23	9380.87
453.42	9614.92
453.60	9153.84
453.78	9554.07
453.97	9521.30
454.15	9661.73
454.34	9511.94
454.52	9886.42
454.70	9741.31
454.89	9558.75
455.07	9863.02
455.26	9832.59
455.44	9996.43
455.62	10101.75
455.81	9928.55
455.99	10200.05
456.17	10207.08
456.36	10214.10
456.54	10104.09
456.73	10221.12
456.91	10555.82
457.09	10377.94
457.28	10590.92
457.46	10441.13
457.64	10747.74
457.83	10532.41
458.01	10434.11
458.19	10778.17
458.38	10644.76
458.56	10883.49
458.74	10794.55
458.93	10604.97
459.11	10630.71
459.29	10956.05
459.48	11052.01
459.66	10951.37
459.84	10927.96
460.03	11136.27
460.21	11028.60
460.39	10913.92
460.57	11122.23
460.76	10944.34
460.94	11080.10
461.12	11400.75
461.31	11042.65
461.49	11206.48
461.67	11365.64
461.85	11559.91
462.04	11494.37
462.22	11571.61
462.40	11529.48
462.59	11808.00
462.77	11499.05
462.95	11772.89
463.13	11716.72
463.32	11543.52
463.50	11896.94
463.68	11824.39
463.86	12009.29
464.05	11735.45
464.23	11735.45
464.41	11948.43
464.59	11948.43
464.78	12362.71
464.96	11953.12
465.14	11950.78
465.32	12233.98
465.50	12259.73
465.69	12074.82
465.87	12098.23
466.05	12051.42
466.23	12166.10
466.41	12362.71
466.60	12573.36
466.78	12409.52
466.96	12184.83
467.14	12381.43
467.32	12564.00
467.51	12655.28
467.69	12138.02
467.87	12507.82
468.05	12695.07
468.23	12554.63
468.41	12512.50
468.60	12814.43
468.78	12898.69
468.96	12531.23
469.14	13032.10
469.32	12966.57
469.50	12695.07
469.69	13160.83
469.87	13177.22
470.05	13399.57
470.23	13364.46
470.41	13032.10
470.59	13448.72
470.77	13273.18
470.95	13444.04
471.14	13687.45
471.32	13341.05
471.50	13827.88
471.68	13628.94
471.86	13769.37
472.04	13755.33
472.22	14209.39
472.40	13741.29
472.58	13877.04
472.77	14136.84
472.95	14260.88
473.13	14668.14
473.31	14033.85
473.49	14410.68
473.67	14174.28
473.85	14380.25
474.03	14890.49
474.21	14724.31
474.39	14951.34
474.57	14913.89
474.75	14890.49
474.93	15073.05
475.12	15276.68
475.30	15461.58
475.48	14960.70
475.66	15267.31
475.84	15414.77
476.02	15747.12
476.20	15459.24
476.38	15508.39
476.56	16112.25
476.74	16444.60
476.92	15712.02
477.10	16027.99
477.28	16498.44
477.46	16439.92
477.64	16243.32
477.82	16659.93
478.00	16828.45
478.18	16734.83
478.36	17153.79
478.54	17341.03
478.72	17238.05
478.90	17481.46
479.08	17619.55
479.26	17788.07
479.44	18148.51
479.62	18122.77
479.80	18221.07
479.98	18434.06
480.16	18782.80
480.34	18452.78
480.52	18829.61
480.70	18771.10
480.88	18824.93
481.06	19047.28
481.24	19066.00
481.41	19133.88
481.59	19468.58
481.77	19777.53
481.95	19606.67
482.13	19747.10
482.31	19763.48
482.49	20343.94
482.67	20631.82
482.85	20627.14
483.03	20659.91
483.21	21170.15
483.39	20964.18
483.57	20790.98
483.74	21350.37
483.92	21553.99
484.10	21446.33
484.28	22075.93
484.46	22146.15
484.64	22508.93
484.82	22111.04
485.00	22504.25
485.18	22986.40
485.35	23096.41
485.53	23054.28
485.71	23229.82
485.89	23775.16
486.07	23225.14
486.25	23461.53
486.43	23857.08
486.61	23784.52
486.78	24582.65
486.96	24432.85
487.14	24762.87
487.32	24482.00
487.50	24868.19
487.68	24865.85
487.85	25542.27
488.03	25511.84
488.21	25607.80
488.39	26153.15
488.57	26033.78
488.75	26305.28
488.92	26426.99
489.10	26534.65
489.28	27030.85
489.46	26923.18
489.64	26995.74
489.81	27613.64
489.99	28046.64
490.17	27721.30
490.35	28315.80
490.53	28545.17
490.70	28844.76
490.88	28460.91
491.06	29032.00
491.24	29064.77
491.41	29666.29
491.59	29621.82
491.77	29422.87
491.95	29652.25
492.13	29766.93
492.30	30551.01
492.48	30352.07
492.66	30522.93
492.84	30675.06
493.01	31204.02
493.19	30876.35
493.37	31079.97
493.54	31402.97
493.72	31438.08
493.90	31948.31
494.08	32336.84
494.25	32332.16
494.43	32058.32
494.61	32336.84
494.79	33074.11
494.96	32615.37
495.14	33083.47
495.32	33764.57
495.49	33523.49
495.67	33577.33
495.85	33731.80
496.02	33996.28
496.20	34106.29
496.38	34380.13
496.55	34450.35
496.73	35531.67
496.91	35306.98
497.09	35328.05
497.26	34993.35
497.44	35480.18
497.62	35431.03
497.79	35885.09
497.97	35590.19
498.14	36212.77
498.32	36514.70
498.50	36411.71
498.67	36891.52
498.85	36971.10
499.03	36800.24
499.20	36704.28
499.38	37057.70
499.56	37275.37
499.73	37462.61
499.91	37553.90
500.08	37677.94
500.26	37773.91
500.44	38075.84
500.61	37979.87
500.79	37783.27
500.97	37825.40
501.14	38808.42
501.32	38906.73
501.49	38506.49
501.67	38515.86
501.84	39044.82
502.02	38763.95
502.20	39239.08
502.37	39412.28
502.55	39735.27
502.72	39831.24
502.90	39906.13
503.07	39873.37
503.25	39409.94
503.43	40505.31
503.60	39941.24
503.78	40601.27
503.95	40767.45
504.13	40488.93
504.30	40940.65
504.48	40830.65
504.65	41043.63
504.83	41125.55
505.01	41284.71
505.18	41095.13
505.36	41783.24
505.53	41614.72
505.71	41715.37
505.88	41846.44
506.06	41888.57
506.23	42284.12
506.41	41741.11
506.58	42389.44
506.76	42363.70
506.93	42759.25
507.11	42679.67
507.28	43002.66
507.46	42913.72
507.63	43260.12
507.81	43552.69
507.98	42817.76
508.16	43072.88
508.33	43604.18
508.50	43606.52
508.68	43798.44
508.85	44168.25
509.03	44299.32
509.20	44119.10
509.38	44561.46
509.55	45113.83
509.73	44774.45
509.90	44832.96
510.08	44470.18
510.25	45308.09
510.42	45076.38
510.60	45673.21
510.77	45291.71
510.95	45455.54
511.12	45631.08
511.30	45663.85
511.47	45436.82
511.64	45794.92
511.82	46099.19
511.99	45792.58
512.17	45895.56
512.34	46167.07
512.51	46574.32
512.69	47159.45
512.86	47030.72
513.04	46955.83
513.21	46557.94
513.38	47276.48
513.56	47381.80
513.73	46981.57
513.90	47217.97
514.08	47152.43
514.25	47547.98
514.43	47358.40
514.60	47688.42
514.77	47723.52
514.95	48100.35
515.12	48142.48
515.29	47723.52
515.47	48067.58
515.64	48126.10
515.81	48062.90
515.99	48275.89
516.16	48790.81
516.33	48301.64
516.51	48760.38
516.68	48945.28
516.85	48559.09
517.03	48999.12
517.20	49167.63
517.37	49099.76
517.54	49013.16
517.72	49214.44
517.89	49343.17
518.06	49607.65
518.24	49481.27
518.41	49312.75
518.58	49673.19
518.75	49478.92
518.93	50005.55
519.10	49411.05
519.27	50176.40
519.45	49897.88
519.62	50342.58
519.79	50204.49
519.96	50284.07
520.14	50593.02
520.31	50120.23
520.48	50667.92
520.65	50431.52
520.83	50705.37
521.00	50976.87
521.17	50665.58
521.34	50714.73
521.52	50688.98
521.69	50747.50
521.86	50995.59
522.03	51166.45
522.20	51379.44
522.38	51725.84
522.55	51674.35
522.72	51810.10
522.89	51688.39
523.07	51805.42
523.24	51901.38
523.41	52086.28
523.58	51569.02
523.75	52044.15
523.92	52081.60
524.10	51796.06
524.27	51995.00
524.44	52219.69
524.61	52315.65
524.78	52474.81
524.96	52561.41
525.13	52587.16
525.30	52547.37
525.47	52671.42
525.64	52839.93
525.81	52973.34
525.98	52844.62
526.16	53010.79
526.33	53104.41
526.50	53310.38
526.67	52828.23
526.84	53230.80
527.01	53003.77
527.18	53130.16
527.36	53256.55
527.53	52996.75
527.70	53677.85
527.87	53600.61
528.04	53172.29
528.21	53528.05
528.38	53666.14
528.55	53822.96
528.72	53354.85
528.89	53647.42
529.07	53389.96
529.24	53551.46
529.41	53787.85
529.58	53722.32
529.75	53647.42
529.92	53813.60
530.09	54108.50
530.26	54169.36
530.43	54178.72
530.60	53778.49
530.77	53989.14
530.94	54314.47
531.11	54124.89
531.28	54319.15
531.46	54305.11
531.63	54389.37
531.80	54574.27
531.97	54754.49
532.14	54714.70
532.31	54632.78
532.48	54946.42
532.65	54532.14
532.82	54595.34
532.99	54852.80
533.16	54925.35
533.33	54890.24
533.50	54789.60
533.67	54906.63
533.84	54691.30
534.01	54937.05
534.18	55192.17
534.35	55604.11
534.52	55054.08
534.69	55152.38
534.86	55437.93
535.03	55206.22
535.20	55419.20
535.37	55456.65
535.54	55601.77
535.71	55604.11
535.88	55538.57
536.05	55475.38
536.22	55856.88
536.38	55561.98
536.55	55751.56
536.72	55838.16
536.89	55749.22
537.06	55756.24
537.23	55803.05
537.40	55657.94
537.57	55983.27
537.74	55856.88
537.91	56273.50
538.08	56184.56
538.25	56065.19
538.42	55987.95
538.59	56310.95
538.75	56041.79
538.92	56163.50
539.09	56233.71
539.26	56463.08
539.43	56282.86
539.60	56465.42
539.77	56659.69
539.94	56385.85
540.11	56603.52
540.28	56491.17
540.44	56594.15
540.61	56493.51
540.78	56671.39
540.95	56591.81
541.12	56427.98
541.29	56596.49
541.46	56727.56
541.62	56671.39
541.79	56603.52
541.96	56577.77
542.13	56690.12
542.30	56954.60
542.47	56933.53
542.63	57055.24
542.80	57237.80
542.97	57340.78
543.14	57588.88
543.31	57509.30
543.48	57373.55
543.64	57403.98
543.81	57415.68
543.98	57403.98
544.15	57434.41
544.32	57638.03
544.48	57860.38
544.65	57600.58
544.82	57539.73
544.99	57427.38
545.16	57595.90
545.32	57359.51
545.49	57904.85
545.66	57977.41
545.83	57623.99
546.00	58019.54
546.16	57907.19
546.33	57853.36
546.50	57623.99
546.67	57813.57
546.83	57588.88
547.00	57841.66
547.17	57783.15
547.34	58033.58
547.50	57937.62
547.67	58279.34
547.84	58124.86
548.00	58141.25
548.17	58330.83
548.34	58092.10
548.51	58272.32
548.67	58370.62
548.84	58403.39
549.01	58319.13
549.18	58234.87
549.34	58499.35
549.51	58286.36
549.68	58562.54
549.84	58454.88
550.01	58567.23
550.18	58457.22
550.34	58665.53
550.51	58679.57
550.68	58567.23
550.84	58506.37
551.01	58702.98
551.18	58707.66
551.34	58712.34
551.51	58904.26
551.68	58607.01
551.84	58635.10
552.01	58618.72
552.18	58796.60
552.34	58705.32
552.51	58913.62
552.68	58602.33
552.84	58958.09
553.01	59152.36
553.18	58679.57
553.34	58993.20
553.51	58798.94
553.67	59138.32
553.84	59086.82
554.01	59260.02
554.17	59306.83
554.34	59299.81
554.51	59283.43
554.67	59171.08
554.84	59147.68
555.00	59037.67
555.17	59330.24
555.33	59159.38
555.50	59021.29
555.67	59121.93
555.83	59213.21
556.00	59217.89
556.16	59313.86
556.33	59334.92
556.50	59276.41
556.66	59262.36
556.83	59442.59
556.99	59583.02
557.16	59573.66
557.32	59650.89
557.49	59540.89
557.65	59526.84
557.82	59405.14
557.98	59508.12
558.15	59739.83
558.32	59690.68
558.48	59667.28
558.65	59639.19
558.81	59618.13
558.98	59765.58
559.14	59781.96
559.31	59653.23
559.47	59728.13
559.64	59786.64
559.80	59856.86
559.97	59938.78
560.13	59749.20
560.30	59882.61
560.46	59978.57
560.63	59859.20
560.79	59903.67
560.96	60018.36
561.12	59767.92
561.29	60044.10
561.45	60090.91
561.61	59983.25
561.78	60044.10
561.94	59938.78
562.11	59873.24
562.27	60123.68
562.44	60189.22
562.60	60296.88
562.77	60114.32
562.93	59859.20
563.10	60200.92
563.26	59962.18
563.42	60250.07
563.59	60343.69
563.75	60079.21
563.92	60219.64
564.08	59842.82
564.24	60261.77
564.41	60212.62
564.57	60397.52
564.74	60095.60
564.90	60224.32
565.07	60287.52
565.23	60247.73
565.39	60322.63
565.56	60371.78
565.72	60285.18
565.88	60250.07
566.05	60126.02
566.21	60434.97
566.38	60315.61
566.54	60427.95
566.70	60552.00
566.87	60367.10
567.03	60238.37
567.19	60624.56
567.36	60449.02
567.52	60528.59
567.68	60671.37
567.85	60666.69
568.01	60519.23
568.17	60537.96
568.34	60329.65
568.50	60465.40
568.66	60434.97
568.83	60456.04
568.99	60575.40
569.15	60378.80
569.32	60619.88
569.48	60692.43
569.64	60814.14
569.81	60484.12
569.97	60481.78
570.13	60519.23
570.30	60296.88
570.46	60308.58
570.62	60601.15
570.78	60580.09
570.95	60650.30
571.11	60757.97
571.27	60444.33
571.43	60659.66
571.60	60699.45
571.76	60764.99
571.92	60767.33
572.09	60664.35
572.25	60704.13
572.41	60622.22
572.57	60884.36
572.74	60945.21
572.90	60704.13
573.06	60797.76
573.22	60809.46
573.38	60849.25
573.55	60748.60
573.71	61052.87
573.87	60832.86
574.03	60692.43
574.20	60790.73
574.36	60594.13
574.52	61041.17
574.68	60884.36
574.84	60750.94
575.01	60938.19
575.17	60814.14
575.33	60898.40
575.49	60750.94
575.65	60949.89
575.82	60757.97
575.98	60757.97
576.14	61022.45
576.30	61006.06
576.46	60889.04
576.62	60961.59
576.79	60858.61
576.95	60619.88
577.11	60954.57
577.27	60942.87
577.43	60940.53
577.59	60980.32
577.75	61125.43
577.92	60877.33
578.08	60877.33
578.24	60917.12
578.40	61167.56
578.56	61197.99
578.72	61095.00
578.88	61235.44
579.04	61052.87
579.21	61111.39
579.37	61146.50
579.53	61193.31
579.69	61027.13
579.85	60914.78
580.01	60823.50
580.17	60882.02
580.33	60832.86
580.49	61116.07
580.65	61188.63
580.82	60952.23
580.98	61022.45
581.14	60963.93
581.30	60905.42
581.46	61090.32
581.62	61179.26
581.78	60989.68
581.94	60989.68
582.10	60945.21
582.26	60961.59
582.42	60994.36
582.58	61212.03
582.74	61038.83
582.90	61048.19
583.06	60949.89
583.22	60935.85
583.38	61066.92
583.54	61132.45
583.70	60999.04
583.86	61036.49
584.02	61233.10
584.18	61195.65
584.34	61132.45
584.50	61010.74
584.66	60928.83
584.82	60945.21
584.98	61382.89
585.14	61123.09
585.30	60889.04
585.46	61123.09
585.62	61062.24
585.78	61242.46
585.94	60959.25
586.10	61069.26
586.26	61181.60
586.42	61078.62
586.58	61095.00
586.74	61284.59
586.90	61148.84
587.06	61155.86
587.22	61057.56
587.38	61139.47
587.54	61251.82
587.70	61387.57
587.86	61167.56
588.02	61392.25
588.18	61340.76
588.34	61001.38
588.49	61261.18
