SpectraSuite Data File
++++++++++++++++++++++++++++++++++++
Date: Fri Oct 25 10:47:16 EDT 2013
User: price-jones
Dark Spectrum Present: No
Reference Spectrum Present: No
Number of Sampled Component Spectra: 1
Spectrometers: USB2+H05261
Integration Time (usec): 100000 (USB2+H05261)
Spectra Averaged: 1 (USB2+H05261)
Boxcar Smoothing: 0 (USB2+H05261)
Correct for Electrical Dark: No (USB2+H05261)
Strobe/Lamp Enabled: No (USB2+H05261)
Correct for Detector Non-linearity: No (USB2+H05261)
Correct for Stray Light: No (USB2+H05261)
Number of Pixels in Processed Spectrum: 2048
>>>>>Begin Processed Spectral Data<<<<<
365.73	98.30
365.92	98.30
366.12	98.30
366.32	35.11
366.52	70.22
366.72	14.04
366.91	67.88
367.11	112.35
367.31	95.96
367.51	112.35
367.70	46.81
367.90	46.81
368.10	42.13
368.30	32.77
368.49	28.09
368.69	93.62
368.89	72.56
369.09	32.77
369.28	117.03
369.48	102.98
369.68	121.71
369.87	91.28
370.07	112.35
370.27	117.03
370.47	189.58
370.66	372.15
370.86	407.25
371.06	416.62
371.25	442.36
371.45	454.06
371.65	500.87
371.84	407.25
372.04	454.06
372.24	479.81
372.44	393.21
372.63	482.15
372.83	437.68
373.03	451.72
373.22	503.22
373.42	470.45
373.62	554.71
373.81	482.15
374.01	575.77
374.21	461.09
374.40	510.24
374.60	669.39
374.79	535.98
374.99	521.94
375.19	528.96
375.38	638.97
375.58	554.71
375.78	580.45
375.97	538.32
376.17	641.31
376.37	585.13
376.56	571.09
376.76	484.49
376.95	545.34
377.15	587.47
377.35	585.13
377.54	578.11
377.74	550.03
377.93	620.24
378.13	613.22
378.33	667.05
378.52	568.75
378.72	638.97
378.91	702.16
379.11	650.67
379.31	554.71
379.50	524.28
379.70	634.29
379.89	676.41
380.09	648.33
380.28	613.22
380.48	578.11
380.68	585.13
380.87	587.47
381.07	645.99
381.26	683.44
381.46	585.13
381.65	603.86
381.85	645.99
382.04	709.18
382.24	660.03
382.43	692.80
382.63	697.48
382.83	741.95
383.02	713.86
383.22	636.63
383.41	624.92
383.61	718.54
383.80	667.05
384.00	685.78
384.19	711.52
384.39	772.38
384.58	795.78
384.78	746.63
384.97	713.86
385.17	716.20
385.36	718.54
385.56	767.70
385.75	690.46
385.95	744.29
386.14	741.95
386.34	788.76
386.53	765.36
386.72	744.29
386.92	765.36
387.11	856.64
387.31	812.17
387.50	770.04
387.70	763.01
387.89	758.33
388.09	746.63
388.28	835.57
388.48	784.08
388.67	910.47
388.86	784.08
389.06	842.59
389.25	863.66
389.45	861.32
389.64	826.21
389.84	833.23
390.03	940.90
390.22	926.85
390.42	861.32
390.61	861.32
390.81	784.08
391.00	919.83
391.19	880.04
391.39	912.81
391.58	1008.77
391.78	924.51
391.97	950.26
392.16	957.28
392.36	938.55
392.55	952.60
392.75	1020.47
392.94	922.17
393.13	940.90
393.33	980.68
393.52	990.05
393.71	1008.77
393.91	990.05
394.10	964.30
394.29	952.60
394.49	952.60
394.68	1001.75
394.88	1071.97
395.07	1050.90
395.26	1081.33
395.46	1109.41
395.65	1149.20
395.84	1069.62
396.04	1160.91
396.23	1104.73
396.42	1093.03
396.62	1142.18
396.81	1130.48
397.00	1139.84
397.19	1071.97
397.39	1139.84
397.58	1270.91
397.77	1221.76
397.97	1249.85
398.16	1170.27
398.35	1263.89
398.55	1181.97
398.74	1299.00
398.93	1284.95
399.12	1235.80
399.32	1224.10
399.51	1266.23
399.70	1352.83
399.90	1287.29
400.09	1322.40
400.28	1397.30
400.47	1362.19
400.67	1303.68
400.86	1320.06
401.05	1359.85
401.24	1420.71
401.44	1390.28
401.63	1357.51
401.82	1488.58
402.01	1390.28
402.21	1427.73
402.40	1441.77
402.59	1521.35
402.78	1504.96
402.97	1540.07
403.17	1493.26
403.36	1413.68
403.55	1490.92
403.74	1629.01
403.93	1437.09
404.13	1537.73
404.32	1500.28
404.51	1554.12
404.70	1502.62
404.89	1425.39
405.09	1706.25
405.28	1633.69
405.47	1643.06
405.66	1605.61
405.85	1790.51
406.05	1706.25
406.24	1703.91
406.43	1631.35
406.62	1717.95
406.81	1788.17
407.00	1734.34
407.20	1729.66
407.39	1755.40
407.58	1802.21
407.77	1771.79
407.96	1846.68
408.15	1806.89
408.34	1865.41
408.54	1907.54
408.73	1963.71
408.92	1870.09
409.11	2024.56
409.30	1961.37
409.49	1968.39
409.68	2026.90
409.87	1959.03
410.07	1977.75
410.26	1952.01
410.45	2038.61
410.64	2143.93
410.83	2094.78
411.02	2122.87
411.21	2165.00
411.40	2057.33
411.59	2176.70
411.78	2085.42
411.98	2155.63
412.17	2218.83
412.36	2258.62
412.55	2228.19
412.74	2340.54
412.93	2298.41
413.12	2228.19
413.31	2427.14
413.50	2328.83
413.69	2382.67
413.88	2497.35
414.07	2422.45
414.26	2509.05
414.45	2466.92
414.64	2668.21
414.83	2612.04
415.02	2541.82
415.22	2600.34
415.41	2733.75
415.60	2682.25
415.79	2698.64
415.98	2743.11
416.17	2782.90
416.36	2637.78
416.55	2761.83
416.74	2726.72
416.93	2731.41
417.12	2771.19
417.31	2822.69
417.50	2834.39
417.69	2874.18
417.88	2944.39
418.07	2949.08
418.26	2916.31
418.45	2958.44
418.64	2923.33
418.83	3075.46
419.02	2951.42
419.21	3063.76
419.39	3084.83
419.58	2956.10
419.77	2981.84
419.96	3162.06
420.15	3155.04
420.34	3129.30
420.53	3176.11
420.72	3302.50
420.91	3152.70
421.10	3337.60
421.29	3281.43
421.48	3201.85
421.67	3396.12
421.86	3162.06
422.05	3253.34
422.24	3265.05
422.43	3386.76
422.61	3293.13
422.80	3356.33
422.99	3258.03
423.18	3445.27
423.37	3344.63
423.56	3445.27
423.75	3356.33
423.94	3332.92
424.13	3194.83
424.32	3241.64
424.50	3300.16
424.69	3447.61
424.88	3482.72
425.07	3241.64
425.26	3463.99
425.45	3396.12
425.64	3384.41
425.83	3480.38
426.01	3419.52
426.20	3356.33
426.39	3419.52
426.58	3534.21
426.77	3330.58
426.96	3520.17
427.15	3412.50
427.33	3534.21
427.52	3478.04
427.71	3461.65
427.90	3452.29
428.09	3599.74
428.28	3571.66
428.46	3552.93
428.65	3637.19
428.84	3639.53
429.03	3604.42
429.22	3524.85
429.40	3588.04
429.59	3681.66
429.78	3538.89
429.97	3522.51
430.16	3613.79
430.34	3658.26
430.53	3801.03
430.72	3719.11
430.91	3791.67
431.10	3744.86
431.28	3765.92
431.47	3934.44
431.66	3864.22
431.85	3948.48
432.03	4018.70
432.22	3936.78
432.41	4007.00
432.60	3936.78
432.79	3908.69
432.97	3946.14
433.16	4063.17
433.35	4107.64
433.54	4053.81
433.72	4156.79
433.91	4102.96
434.10	4039.76
434.28	4128.70
434.47	4229.35
434.66	4198.92
434.85	4126.36
435.03	4341.69
435.22	4306.59
435.41	4334.67
435.59	4329.99
435.78	4379.14
435.97	4294.88
436.16	4428.29
436.34	4404.89
436.53	4339.35
436.72	4411.91
436.90	4573.41
437.09	4559.36
437.28	4355.74
437.46	4397.87
437.65	4671.71
437.84	4568.73
438.02	4524.26
438.21	4599.15
438.40	4601.49
438.58	4685.75
438.77	4734.90
438.96	4767.67
439.14	4844.91
439.33	4910.44
439.52	4877.68
439.70	4882.36
439.89	4758.31
440.08	4940.87
440.26	4828.53
440.45	4964.28
440.63	5116.41
440.82	5261.52
441.01	5200.67
441.19	5118.75
441.38	5184.29
441.57	5149.18
441.75	5296.63
441.94	5404.30
442.12	5303.65
442.31	5481.53
442.50	5535.37
442.68	5383.23
442.87	5387.91
443.05	5432.38
443.24	5378.55
443.43	5467.49
443.61	5628.99
443.80	5617.29
443.98	5509.62
444.17	5268.55
444.35	5657.07
444.54	5654.73
444.73	5579.84
444.91	5753.04
445.10	5568.13
445.28	5696.86
445.47	5460.47
445.65	5631.33
445.84	5558.77
446.02	5755.38
446.21	5743.67
446.39	5748.36
446.58	5523.66
446.77	5720.27
446.95	5764.74
447.14	5699.20
447.32	5755.38
447.51	5645.37
447.69	5734.31
447.88	5633.67
448.06	5727.29
448.25	5703.89
448.43	6008.16
448.62	5891.13
448.80	5638.35
448.99	5905.17
449.17	5923.90
449.36	5783.46
449.54	5790.49
449.73	6066.67
449.91	6022.20
450.10	6155.61
450.28	6160.29
450.46	6101.78
450.65	6160.29
450.83	6167.31
451.02	6080.71
451.20	6190.72
451.39	6282.00
451.57	6169.65
451.76	6054.97
451.94	6134.54
452.13	6127.52
452.31	6155.61
452.49	6127.52
452.68	6239.87
452.86	6342.85
453.05	6431.79
453.23	6251.57
453.42	6251.57
453.60	6230.51
453.78	6530.09
453.97	6422.43
454.15	6305.40
454.34	6296.04
454.52	6431.79
454.70	6483.28
454.89	6415.41
455.07	6476.26
455.26	6448.18
455.44	6642.44
455.62	6576.91
455.81	6633.08
455.99	6747.76
456.17	6558.18
456.36	6736.06
456.54	6750.10
456.73	6874.15
456.91	6935.01
457.09	6927.99
457.28	6967.77
457.46	6883.52
457.64	7119.91
457.83	7112.89
458.01	6806.28
458.19	7021.61
458.38	7150.34
458.56	7281.41
458.74	7133.95
458.93	7124.59
459.11	7353.96
459.29	7084.80
459.48	7197.15
459.66	7094.16
459.84	7440.56
460.03	7389.07
460.21	7229.91
460.39	7480.35
460.57	7419.50
460.76	7428.86
460.94	7454.61
461.12	7377.37
461.31	7576.31
461.49	7538.87
461.67	7534.18
461.85	7520.14
462.04	7606.74
462.22	7962.50
462.40	7686.32
462.59	7712.07
462.77	7588.02
462.95	7679.30
463.13	7630.15
463.32	7658.23
463.50	7824.41
463.68	7730.79
463.86	7892.29
464.05	7733.13
464.23	7613.76
464.41	7932.08
464.59	7920.37
464.78	8042.08
464.96	7901.65
465.14	7857.18
465.32	8098.25
465.50	8147.40
465.69	7971.86
465.87	8013.99
466.05	8215.28
466.23	8236.35
466.41	7964.84
466.60	8184.85
466.78	7861.86
466.96	8182.51
467.14	8322.94
467.32	8222.30
467.51	8119.32
467.69	8166.13
467.87	8124.00
468.05	8430.61
468.23	8311.24
468.41	8219.96
468.60	8266.77
468.78	8224.64
468.96	8355.71
469.14	8552.32
469.32	8638.92
469.50	8383.80
469.69	8545.30
469.87	8643.60
470.05	8645.94
470.23	8795.73
470.41	8545.30
470.59	8489.12
470.77	8704.45
470.95	8887.01
471.14	8898.72
471.32	8777.01
471.50	8992.34
471.68	8856.59
471.86	8887.01
472.04	9097.66
472.22	9301.29
472.40	8767.65
472.58	8919.78
472.77	9013.40
472.95	9242.78
473.13	9537.68
473.31	9296.61
473.49	9221.71
473.67	9329.38
473.85	9549.39
474.03	9605.56
474.21	9547.05
474.39	9671.09
474.57	9626.62
474.75	9652.37
474.93	9750.67
475.12	9848.97
475.30	9788.12
475.48	9895.78
475.66	9832.59
475.84	10033.88
476.02	10328.78
476.20	10026.86
476.38	10143.88
476.56	10394.32
476.74	10354.53
476.92	10314.74
477.10	10331.12
477.28	10406.02
477.46	10672.84
477.64	10686.89
477.82	10778.17
478.00	10740.72
478.18	10881.15
478.36	11112.86
478.54	11206.48
478.72	11297.77
478.90	11384.37
479.08	11314.15
479.26	11424.15
479.44	11651.19
479.62	11513.10
479.80	11485.01
479.98	11730.76
480.16	11941.41
480.34	11936.73
480.52	11964.82
480.70	11843.11
480.88	11889.92
481.06	12084.19
481.24	12393.14
481.41	12411.86
481.59	12535.91
481.77	12613.15
481.95	12641.23
482.13	12987.63
482.31	12720.81
482.49	12870.61
482.67	13298.92
482.85	13039.12
483.03	13322.33
483.21	13582.13
483.39	13420.63
483.57	13327.01
483.74	13589.15
483.92	13755.33
484.10	13687.45
484.28	13973.00
484.46	14394.29
484.64	14574.52
484.82	14211.73
485.00	14406.00
485.18	14574.52
485.35	15152.63
485.53	14574.52
485.71	14595.58
485.89	15190.08
486.07	14892.83
486.25	14944.32
486.43	15016.88
486.61	15421.79
486.78	15403.07
486.96	15344.55
487.14	15606.69
487.32	15824.36
487.50	15747.12
487.68	15836.06
487.85	16196.51
488.03	16205.87
488.21	16889.31
488.39	16510.14
488.57	16760.58
488.75	16624.83
488.92	16933.78
489.10	17275.49
489.28	17268.47
489.46	17252.09
489.64	17448.69
489.81	17710.83
489.99	17860.63
490.17	18260.86
490.35	17891.06
490.53	18169.58
490.70	18380.23
490.88	18090.00
491.06	18623.64
491.24	18434.06
491.41	18277.24
491.59	18340.44
491.77	18480.87
491.95	18930.25
492.13	19061.32
492.30	19187.71
492.48	18953.66
492.66	19288.35
492.84	19321.12
493.01	19590.28
493.19	19866.47
493.37	19707.31
493.54	19896.89
493.72	19978.81
493.90	19857.10
494.08	20168.40
494.25	20306.49
494.43	20657.57
494.61	20779.28
494.79	21092.91
494.96	20734.81
495.14	20940.77
495.32	20865.88
495.49	20938.43
495.67	21495.48
495.85	21383.13
496.02	21577.40
496.20	21612.51
496.38	21907.41
496.55	21558.67
496.73	22249.13
496.91	22232.75
497.09	22085.30
497.26	22389.56
497.44	22174.24
497.62	22981.72
497.79	22574.47
497.97	22754.69
498.14	22904.48
498.32	23166.62
498.50	23187.69
498.67	23147.90
498.85	23185.35
499.03	23377.27
499.20	23573.88
499.38	23234.50
499.56	23515.36
499.73	23852.40
499.91	23431.10
500.08	23833.68
500.26	23793.89
500.44	23824.31
500.61	23941.34
500.79	24182.42
500.97	23936.66
501.14	24704.35
501.32	24580.31
501.49	24374.34
501.67	24400.08
501.84	24676.27
502.02	24608.39
502.20	25095.22
502.37	25025.01
502.55	24910.32
502.72	25099.90
502.90	25216.93
503.07	25181.82
503.25	25619.50
503.43	25326.94
503.60	25617.16
503.78	25937.82
503.95	25647.59
504.13	25909.73
504.30	25975.27
504.48	25902.71
504.65	26010.37
504.83	26099.31
505.01	26298.26
505.18	26092.29
505.36	26544.02
505.53	26429.33
505.71	26639.98
505.88	26764.03
506.06	26822.54
506.23	26789.77
506.41	26742.96
506.58	26773.39
506.76	26869.35
506.93	26979.36
507.11	27323.41
507.28	27101.06
507.46	27529.38
507.63	27393.63
507.81	27517.68
507.98	27157.24
508.16	27112.77
508.33	27981.10
508.50	27548.11
508.68	27669.81
508.85	28105.15
509.03	28011.53
509.20	27716.62
509.38	27821.95
509.55	28210.48
509.73	28222.18
509.90	28432.83
510.08	28271.33
510.25	28428.15
510.42	28505.38
510.60	28863.49
510.77	28811.99
510.95	29254.36
511.12	29198.18
511.30	29216.91
511.47	29247.33
511.64	29406.49
511.82	29195.84
511.99	29376.06
512.17	29387.77
512.34	29371.38
512.51	29495.43
512.69	29926.09
512.86	29788.00
513.04	29865.24
513.21	29771.61
513.38	29970.56
513.56	30293.55
513.73	29525.86
513.90	30445.69
514.08	30242.06
514.25	30543.99
514.43	30316.96
514.60	30225.68
514.77	29696.72
514.95	30749.96
515.12	30511.22
515.29	30824.86
515.47	30588.46
515.64	30661.02
515.81	30785.07
515.99	30972.31
516.16	30604.84
516.33	31124.44
516.51	31042.53
516.68	31108.06
516.85	30930.18
517.03	31229.77
517.20	31255.51
517.37	31660.43
517.54	31517.65
517.72	31543.40
517.89	31379.56
518.06	31669.79
518.24	31374.88
518.41	31798.52
518.58	31442.76
518.75	31871.07
518.93	32088.74
519.10	32086.40
519.27	31960.02
519.45	31934.27
519.62	32664.52
519.79	32425.78
519.96	32250.24
520.14	33043.68
520.31	32444.51
520.48	32545.15
520.65	32966.45
520.83	32957.08
521.00	33043.68
521.17	32793.25
521.34	32826.01
521.52	32945.38
521.69	33141.99
521.86	33336.25
522.03	33254.33
522.20	33317.53
522.38	33242.63
522.55	33593.71
522.72	33350.29
522.89	33837.12
523.07	33993.94
523.24	33359.66
523.41	33635.84
523.58	33294.12
523.75	34382.47
523.92	33876.91
524.10	33902.66
524.27	34157.78
524.44	34085.22
524.61	34183.52
524.78	34529.92
524.96	34668.02
525.13	34733.55
525.30	34965.26
525.47	34742.91
525.64	34499.50
525.81	34190.55
525.98	34426.94
526.16	34986.33
526.33	34328.64
526.50	35089.31
526.67	34698.44
526.84	34356.72
527.01	34803.77
527.18	34719.51
527.36	35166.55
527.53	34735.89
527.70	35629.98
527.87	35536.35
528.04	35723.60
528.21	35248.47
528.38	35131.44
528.55	35739.98
528.72	35793.81
528.89	35761.05
529.07	35512.95
529.24	35510.61
529.41	36252.56
529.58	35370.18
529.75	35945.95
529.92	35969.35
530.09	36259.58
530.26	35826.58
530.43	36133.19
530.60	36219.79
530.77	35959.99
530.94	36587.25
531.11	36304.05
531.28	36739.39
531.46	36484.27
531.63	36641.09
531.80	36629.38
531.97	36161.28
532.14	36397.67
532.31	36561.51
532.48	36634.06
532.65	36524.06
532.82	36680.88
532.99	36903.23
533.16	36741.73
533.33	36989.83
533.50	37191.11
533.67	36811.95
533.84	36521.72
534.01	37455.59
534.18	36645.77
534.35	37755.18
534.52	37502.40
534.69	36823.65
534.86	37511.77
535.03	37209.84
535.20	37467.30
535.37	37935.40
535.54	37902.64
535.71	37631.13
535.88	37432.19
536.05	37607.73
536.22	37909.66
536.38	37825.40
536.55	37895.61
536.72	37935.40
536.89	37364.31
537.06	37823.06
537.23	37628.79
537.40	37745.82
537.57	38242.01
537.74	38508.83
537.91	38143.71
538.08	38143.71
538.25	37986.89
538.42	38410.53
538.59	38382.45
538.75	38258.40
538.92	38363.72
539.09	38820.13
539.26	38579.05
539.43	38726.50
539.60	38345.00
539.77	38621.18
539.94	38391.81
540.11	38532.24
540.28	38607.14
540.44	38602.46
540.61	38316.91
540.78	38518.20
540.95	38447.98
541.12	38686.71
541.29	38857.57
541.46	38813.10
541.62	39000.35
541.79	39524.63
541.96	38850.55
542.13	38904.38
542.30	39328.02
542.47	38724.16
542.63	39150.14
542.80	39423.98
542.97	39768.04
543.14	39955.29
543.31	39709.53
543.48	39864.00
543.64	40313.39
543.81	39845.28
543.98	40133.17
544.15	39681.44
544.32	39473.13
544.48	40301.68
544.65	39721.23
544.82	39948.26
544.99	39981.03
545.16	40107.42
545.32	39508.24
545.49	40397.65
545.66	39920.18
545.83	40334.45
546.00	40697.24
546.16	40236.15
546.33	40343.81
546.50	40390.62
546.67	40191.68
546.83	39871.03
547.00	40589.57
547.17	40411.69
547.34	40257.21
547.50	40685.53
547.67	40528.72
547.84	40737.02
548.00	40968.74
548.17	41207.47
548.34	40823.62
548.51	40533.40
548.67	41158.32
548.84	40795.54
549.01	40776.81
549.18	40954.69
549.34	41034.27
549.51	41139.60
549.68	41375.99
549.84	40919.59
550.01	41397.06
550.18	40765.11
550.34	41357.27
550.51	40683.19
550.68	40751.07
550.84	40783.83
551.01	41109.17
551.18	41289.39
551.34	41347.90
551.51	41497.70
551.68	41619.41
551.84	41359.61
552.01	41450.89
552.18	41624.09
552.34	41591.32
552.51	41378.33
552.68	41584.30
552.84	41542.17
553.01	41668.56
553.18	41322.16
553.34	41460.25
553.51	41687.28
553.67	41626.43
553.84	41841.76
554.01	42185.82
554.17	41844.10
554.34	42085.17
554.51	41968.15
554.67	42527.53
554.84	42038.36
555.00	42160.07
555.17	41530.47
555.33	42232.63
555.50	41893.25
555.67	41752.82
555.83	42225.60
556.00	42099.22
556.16	42806.06
556.33	42258.37
556.50	42043.04
556.66	42387.10
556.83	42265.39
556.99	42541.58
557.16	42326.25
557.32	42504.13
557.49	42288.80
557.65	42230.29
557.82	42581.37
557.98	42157.73
558.15	42579.03
558.32	42452.64
558.48	42284.12
558.65	42581.37
558.81	42916.06
558.98	42988.62
559.14	42520.51
559.31	42731.16
559.47	42962.87
559.64	42747.54
559.80	42948.83
559.97	42965.21
560.13	42562.64
560.30	42501.79
560.46	43051.81
560.63	43292.89
560.79	42799.04
560.96	43201.61
561.12	43019.05
561.29	43264.80
561.45	43086.92
561.61	43019.05
561.78	43159.48
561.94	42728.82
562.11	43082.24
562.27	42962.87
562.44	42810.74
562.60	43194.59
562.77	43686.10
562.93	42775.63
563.10	43140.75
563.26	42445.62
563.42	43250.76
563.59	43370.13
563.75	43253.10
563.92	43346.72
564.08	42981.60
564.24	43393.53
564.41	43201.61
564.57	43393.53
564.74	43019.05
564.90	43625.25
565.07	43409.92
565.23	43393.53
565.39	42937.13
565.56	43402.89
565.72	43550.35
565.88	43000.32
566.05	43246.08
566.21	43667.37
566.38	43243.74
566.54	43545.67
566.70	43393.53
566.87	43707.16
567.03	43182.88
567.19	44100.37
567.36	43814.83
567.52	43246.08
567.68	44177.61
567.85	43768.02
568.01	43599.50
568.17	43522.26
568.34	43711.84
568.50	43438.00
568.66	43604.18
568.83	43115.01
568.99	43037.77
569.15	43384.17
569.32	42892.66
569.48	43285.87
569.64	43859.30
569.81	43849.94
569.97	43573.75
570.13	43538.65
570.30	43512.90
570.46	43042.45
570.62	43150.12
570.78	43695.46
570.95	43693.12
571.11	43962.28
571.27	43496.52
571.43	43751.63
571.60	43739.93
571.76	43716.53
571.92	43849.94
572.09	43943.56
572.25	43791.42
572.41	43873.34
572.57	43480.13
572.74	44088.67
572.90	43641.63
573.06	44222.08
573.22	44027.82
573.38	43449.70
573.55	43456.73
573.71	43875.68
573.87	43342.04
574.03	43320.98
574.20	43564.39
574.36	43737.59
574.52	44116.76
574.68	43861.64
574.84	44318.04
575.01	43552.69
575.17	43819.51
575.33	43629.93
575.49	43571.41
575.65	44208.04
575.82	44205.70
575.98	43948.24
576.14	44287.62
576.30	43660.35
576.46	43648.65
576.62	43461.41
576.79	44032.50
576.95	43440.34
577.11	44112.08
577.27	44369.54
577.43	43931.86
577.59	44034.84
577.75	43775.04
577.92	43859.30
578.08	43744.61
578.24	43772.70
578.40	43936.54
578.56	43988.03
578.72	43763.34
578.88	44535.71
579.04	43643.97
579.21	43964.62
579.37	43384.17
579.53	43650.99
579.69	43540.99
579.85	43866.32
580.01	44327.41
580.17	43772.70
580.33	43557.37
580.49	44182.29
580.65	43737.59
580.82	44201.02
580.98	43990.37
581.14	43772.70
581.30	44165.91
581.46	43981.01
581.62	43578.43
581.78	43917.81
581.94	44313.36
582.10	43985.69
582.26	44273.57
582.42	44233.78
582.58	44041.86
582.74	43634.61
582.90	43985.69
583.06	44264.21
583.22	44304.00
583.38	44509.97
583.54	44147.18
583.70	44034.84
583.86	44016.11
584.02	43779.72
584.18	44020.80
584.34	44252.51
584.50	44381.24
584.66	44161.23
584.82	43988.03
584.98	44095.69
585.14	44411.67
585.30	43690.78
585.46	43910.79
585.62	43690.78
585.78	44348.47
585.94	43435.66
586.10	44329.75
586.26	44261.87
586.42	44289.96
586.58	43903.77
586.74	44502.95
586.90	44271.23
587.06	44011.43
587.22	44208.04
587.38	43737.59
587.54	44582.52
587.70	44519.33
587.86	44329.75
588.02	44170.59
588.18	44325.07
588.34	44348.47
588.49	43758.66
588.65	43622.90
588.81	43793.76
588.97	44058.24
589.13	43772.70
589.29	44210.38
589.45	44231.44
589.61	44502.95
589.77	44376.56
589.93	44847.00
590.08	44535.71
590.24	44561.46
590.40	44154.21
