SpectraSuite Data File
++++++++++++++++++++++++++++++++++++
Date: Fri Oct 25 11:25:08 EDT 2013
User: price-jones
Dark Spectrum Present: No
Reference Spectrum Present: No
Number of Sampled Component Spectra: 1
Spectrometers: USB2+H05261
Integration Time (usec): 100000 (USB2+H05261)
Spectra Averaged: 1 (USB2+H05261)
Boxcar Smoothing: 0 (USB2+H05261)
Correct for Electrical Dark: No (USB2+H05261)
Strobe/Lamp Enabled: No (USB2+H05261)
Correct for Detector Non-linearity: No (USB2+H05261)
Correct for Stray Light: No (USB2+H05261)
Number of Pixels in Processed Spectrum: 2048
>>>>>Begin Processed Spectral Data<<<<<
365.73	187.24
365.92	187.24
366.12	187.24
366.32	147.45
366.52	147.45
366.72	208.31
366.91	110.01
367.11	135.75
367.31	126.39
367.51	140.43
367.70	250.44
367.90	173.20
368.10	95.96
368.30	126.39
368.49	156.82
368.69	152.13
368.89	126.39
369.09	163.84
369.28	168.52
369.48	217.67
369.68	168.52
369.87	220.01
370.07	215.33
370.27	217.67
370.47	360.44
370.66	526.62
370.86	643.65
371.06	657.69
371.25	641.31
371.45	674.07
371.65	720.88
371.84	706.84
372.04	643.65
372.24	713.86
372.44	746.63
372.63	739.61
372.83	772.38
373.03	730.25
373.22	706.84
373.42	821.53
373.62	826.21
373.81	772.38
374.01	795.78
374.21	835.57
374.40	819.19
374.60	800.46
374.79	823.87
374.99	772.38
375.19	828.55
375.38	807.48
375.58	835.57
375.78	861.32
375.97	847.27
376.17	805.14
376.37	812.17
376.56	814.51
376.76	884.72
376.95	809.83
377.15	858.98
377.35	875.36
377.54	866.00
377.74	844.93
377.93	910.47
378.13	898.77
378.33	917.49
378.52	910.47
378.72	945.58
378.91	1004.09
379.11	912.81
379.31	861.32
379.50	933.87
379.70	868.34
379.89	992.39
380.09	924.51
380.28	964.30
380.48	1013.45
380.68	957.28
380.87	1008.77
381.07	1004.09
381.26	1069.62
381.46	1018.13
381.65	1018.13
381.85	1107.07
382.04	980.68
382.24	1013.45
382.43	1095.37
382.63	1081.33
382.83	1102.39
383.02	1118.78
383.22	1104.73
383.41	1074.31
383.61	1153.88
383.80	1212.40
384.00	1004.09
384.19	1083.67
384.39	1151.54
384.58	1076.65
384.78	1102.39
384.97	1090.69
385.17	1233.46
385.36	1167.93
385.56	1097.71
385.75	1121.12
385.95	1235.80
386.14	1188.99
386.34	1226.44
386.53	1263.89
386.72	1242.82
386.92	1217.08
387.11	1275.59
387.31	1224.10
387.50	1200.69
387.70	1275.59
387.89	1313.04
388.09	1362.19
388.28	1284.95
388.48	1308.36
388.67	1387.94
388.86	1266.23
389.06	1315.38
389.25	1254.53
389.45	1289.64
389.64	1409.00
389.84	1284.95
390.03	1378.58
390.22	1357.51
390.42	1427.73
390.61	1369.21
390.81	1299.00
391.00	1366.87
391.19	1437.09
391.39	1483.90
391.58	1380.92
391.78	1467.52
391.97	1444.11
392.16	1425.39
392.36	1481.56
392.55	1495.60
392.75	1568.16
392.94	1448.79
393.13	1432.41
393.33	1502.62
393.52	1521.35
393.71	1565.82
393.91	1547.09
394.10	1614.97
394.29	1563.48
394.49	1605.61
394.68	1640.72
394.88	1654.76
395.07	1638.38
395.26	1579.86
395.46	1603.27
395.65	1757.74
395.84	1795.19
396.04	1657.10
396.23	1724.97
396.42	1636.03
396.62	1764.76
396.81	1760.08
397.00	1753.06
397.19	1717.95
397.39	1741.36
397.58	1741.36
397.77	1797.53
397.97	1914.56
398.16	1900.52
398.35	1973.07
398.55	1919.24
398.74	1942.64
398.93	1970.73
399.12	1916.90
399.32	1891.15
399.51	1926.26
399.70	1975.41
399.90	1935.62
400.09	1956.69
400.28	2031.58
400.47	2008.18
400.67	2179.04
400.86	2036.27
401.05	1970.73
401.24	2050.31
401.44	2129.89
401.63	2120.53
401.82	2150.95
402.01	2186.06
402.21	2076.06
402.40	2193.08
402.59	2216.49
402.78	2272.66
402.97	2157.97
403.17	2275.00
403.36	2321.81
403.55	2293.72
403.74	2321.81
403.93	2326.49
404.13	2338.20
404.32	2352.24
404.51	2373.30
404.70	2370.96
404.89	2282.02
405.09	2569.91
405.28	2361.60
405.47	2483.31
405.66	2466.92
405.85	2520.76
406.05	2539.48
406.24	2497.35
406.43	2581.61
406.62	2679.91
406.81	2710.34
407.00	2607.36
407.20	2462.24
407.39	2574.59
407.58	2602.68
407.77	2731.41
407.96	2703.32
408.15	2827.37
408.34	2825.03
408.54	2731.41
408.73	2792.26
408.92	2949.08
409.11	2724.38
409.30	2899.92
409.49	2836.73
409.68	2885.88
409.87	2916.31
410.07	3016.95
410.26	3073.12
410.45	3021.63
410.64	3105.89
410.83	3080.14
411.02	3040.36
411.21	3180.79
411.40	3197.17
411.59	3173.77
411.78	3159.72
411.98	3124.62
412.17	3251.00
412.36	3248.66
412.55	3398.46
412.74	3346.97
412.93	3379.73
413.12	3386.76
413.31	3487.40
413.50	3344.63
413.69	3534.21
413.88	3531.87
414.07	3449.95
414.26	3756.56
414.45	3590.38
414.64	3728.47
414.83	3653.58
415.02	3772.94
415.22	3775.28
415.41	3833.80
415.60	3915.72
415.79	3939.12
415.98	3840.82
416.17	3908.69
416.36	4002.32
416.55	3885.29
416.74	4058.49
416.93	4077.21
417.12	3995.29
417.31	4152.11
417.50	4140.41
417.69	4142.75
417.88	4306.59
418.07	4227.01
418.26	4383.82
418.45	4334.67
418.64	4395.53
418.83	4329.99
419.02	4383.82
419.21	4599.15
419.39	4521.92
419.58	4503.19
419.77	4454.04
419.96	4550.00
420.15	4629.58
420.34	4477.44
420.53	4533.62
420.72	4514.89
420.91	4606.17
421.10	4662.35
421.29	4596.81
421.48	4678.73
421.67	4610.86
421.86	4772.35
422.05	4627.24
422.24	4660.01
422.43	4816.82
422.61	4748.95
422.80	4891.72
422.99	4854.27
423.18	4901.08
423.37	4978.32
423.56	4961.94
423.75	4945.55
423.94	4947.89
424.13	4510.21
424.32	4882.36
424.50	4910.44
424.69	5013.43
424.88	5006.41
425.07	4978.32
425.26	4849.59
425.45	4947.89
425.64	4915.12
425.83	4901.08
426.01	5158.54
426.20	5093.01
426.39	4990.02
426.58	5041.51
426.77	4910.44
426.96	5074.28
427.15	5160.88
427.33	5128.11
427.52	5102.37
427.71	5291.95
427.90	5188.97
428.09	5289.61
428.28	5357.49
428.46	5401.96
428.65	5310.68
428.84	5479.19
429.03	5392.59
429.22	5310.68
429.40	5439.40
429.59	5310.68
429.78	5188.97
429.97	5217.05
430.16	5434.72
430.34	5451.11
430.53	5455.79
430.72	5558.77
430.91	5628.99
431.10	5617.29
431.28	5844.32
431.47	5816.23
431.66	5844.32
431.85	5755.38
432.03	5877.09
432.22	5905.17
432.41	5790.49
432.60	5874.74
432.79	6118.16
432.97	5949.64
433.16	5998.79
433.35	5874.74
433.54	5930.92
433.72	5989.43
433.91	6054.97
434.10	6113.48
434.28	6033.90
434.47	6031.56
434.66	6186.04
434.85	6022.20
435.03	6272.64
435.22	6331.15
435.41	6394.34
435.59	6335.83
435.78	6265.61
435.97	6384.98
436.16	6590.95
436.34	6399.02
436.53	6410.73
436.72	6567.54
436.90	6478.60
437.09	6576.91
437.28	6450.52
437.46	6497.33
437.65	6572.22
437.84	6675.21
438.02	6707.98
438.21	6736.06
438.40	6607.33
438.58	6820.32
438.77	6970.12
438.96	6846.07
439.14	7136.29
439.33	7164.38
439.52	7309.49
439.70	7377.37
439.89	7382.05
440.08	7185.44
440.26	7234.60
440.45	7386.73
440.63	7339.92
440.82	7489.71
441.01	7435.88
441.19	7679.30
441.38	7644.19
441.57	7779.94
441.75	7686.32
441.94	7791.64
442.12	7911.01
442.31	7932.08
442.50	8011.65
442.68	7953.14
442.87	7899.31
443.05	8217.62
443.24	8074.85
443.43	8030.38
443.61	8231.66
443.80	8259.75
443.98	8016.33
444.17	7913.35
444.35	8077.19
444.54	8304.22
444.73	8234.00
444.91	8154.43
445.10	8479.76
445.28	8379.12
445.47	8173.15
445.65	8212.94
445.84	8397.84
446.02	8348.69
446.21	8248.05
446.39	8329.97
446.58	8564.02
446.77	8379.12
446.95	8234.00
447.14	8290.18
447.32	8322.94
447.51	8671.68
447.69	8313.58
447.88	8451.67
448.06	8624.87
448.25	8510.19
448.43	8327.63
448.62	8514.87
448.80	8414.23
448.99	8507.85
449.17	8587.43
449.36	8692.75
449.54	8678.71
449.73	9043.83
449.91	9048.51
450.10	8842.54
450.28	8767.65
450.46	8772.33
450.65	9006.38
450.83	8877.65
451.02	8840.20
451.20	9156.18
451.39	9163.20
451.57	8889.35
451.76	8980.64
451.94	9132.77
452.13	9231.07
452.31	9214.69
452.49	9111.71
452.68	9245.12
452.86	9081.28
453.05	9310.65
453.23	9371.50
453.42	9266.18
453.60	9287.25
453.78	9383.21
453.97	9572.79
454.15	9289.59
454.34	9432.36
454.52	9687.48
454.70	9603.22
454.89	9734.29
455.07	9809.19
455.26	9748.33
455.44	10005.79
455.62	9624.28
455.81	9867.70
455.99	9757.69
456.17	9891.10
456.36	10115.80
456.54	9900.47
456.73	10169.63
456.91	10527.73
457.09	10141.54
457.28	10581.56
457.46	10178.99
457.64	10347.51
457.83	10471.56
458.01	10335.81
458.19	10593.26
458.38	10263.25
458.56	10724.33
458.74	10558.16
458.93	10572.20
459.11	10635.39
459.29	10750.08
459.48	10663.48
459.66	10602.63
459.84	10759.44
460.03	10951.37
460.21	10736.04
460.39	10855.40
460.57	10906.90
460.76	11122.23
460.94	11276.70
461.12	11019.24
461.31	11023.92
461.49	11194.78
461.67	11131.59
461.85	11538.84
462.04	11087.12
462.22	11716.72
462.40	11496.71
462.59	11192.44
462.77	11208.83
462.95	11634.80
463.13	11571.61
463.32	11492.03
463.50	11517.78
463.68	11564.59
463.86	11824.39
464.05	11508.41
464.23	11592.67
464.41	11840.77
464.59	11597.35
464.78	11913.33
464.96	11868.86
465.14	11910.99
465.32	11953.12
465.50	11985.88
465.69	11892.26
465.87	12018.65
466.05	11964.82
466.23	11927.37
466.41	12257.39
466.60	12397.82
466.78	12095.89
466.96	12095.89
467.14	12196.53
467.32	12226.96
467.51	12446.97
467.69	12271.43
467.87	12430.59
468.05	12437.61
468.23	12374.41
468.41	12599.10
468.60	12582.72
468.78	13032.10
468.96	12332.28
469.14	12968.91
469.32	12945.50
469.50	12449.31
469.69	12802.73
469.87	13137.43
470.05	12912.74
470.23	13099.98
470.41	12891.67
470.59	13160.83
470.77	12901.03
470.95	13317.65
471.14	13540.00
471.32	13179.56
471.50	13568.09
471.68	13404.25
471.86	13486.17
472.04	13701.50
472.22	13858.31
472.40	13647.66
472.58	13619.58
472.77	13944.91
472.95	13907.46
473.13	14415.36
473.31	13942.57
473.49	13877.04
473.67	13940.23
473.85	14139.18
474.03	14595.58
474.21	14408.34
474.39	14544.09
474.57	14478.55
474.75	14689.20
474.93	15124.54
475.12	14747.72
475.30	14834.32
475.48	14916.23
475.66	15164.33
475.84	15040.28
476.02	15094.11
476.20	15161.99
476.38	15566.90
476.56	15735.42
476.74	15632.44
476.92	15700.31
477.10	15356.25
477.28	16042.03
477.46	16109.91
477.64	16173.10
477.82	16521.84
478.00	16896.33
478.18	16594.40
478.36	16833.13
478.54	17088.25
478.72	16802.71
478.90	17245.07
479.08	17308.26
479.26	17572.74
479.44	17678.07
479.62	17792.75
479.80	17919.14
479.98	18160.22
480.16	18354.48
480.34	17944.89
480.52	18349.80
480.70	18497.25
480.88	18466.83
481.06	18370.86
481.24	18728.97
481.41	19047.28
481.59	19236.86
481.77	19543.47
481.95	19426.45
482.13	19623.05
482.31	19630.07
482.49	20166.06
482.67	20107.54
482.85	20355.64
483.03	20760.55
483.21	20475.01
483.39	20819.07
483.57	20500.75
483.74	20978.22
483.92	21383.13
484.10	21223.98
484.28	21743.58
484.46	21738.90
484.64	22249.13
484.82	21752.94
485.00	21998.70
485.18	22560.42
485.35	22719.58
485.53	23021.51
485.71	22775.75
485.89	23154.92
486.07	22963.00
486.25	23403.02
486.43	23623.03
486.61	23587.92
486.78	23934.32
486.96	24163.69
487.14	24130.92
487.32	24629.46
487.50	24699.67
487.68	25013.31
487.85	25029.69
488.03	25273.10
488.21	25685.04
488.39	25710.78
488.57	25755.26
488.75	26024.42
488.92	26382.52
489.10	26178.89
489.28	26309.96
489.46	26792.11
489.64	26696.15
489.81	27410.01
489.99	27433.42
490.17	27414.69
490.35	27615.98
490.53	27983.44
490.70	28264.31
490.88	28371.97
491.06	28325.16
491.24	28840.08
491.41	28992.22
491.59	28748.80
491.77	29390.11
491.95	29240.31
492.13	29486.07
492.30	29825.45
492.48	29603.10
492.66	29879.28
492.84	29963.54
493.01	30698.47
493.19	30073.54
493.37	30768.68
493.54	31030.82
493.72	31157.21
493.90	31536.38
494.08	31386.58
494.25	31840.65
494.43	31468.50
494.61	31782.13
494.79	32201.09
494.96	32077.04
495.14	32687.92
495.32	33039.00
495.49	32804.95
495.67	33312.84
495.85	33118.58
496.02	34026.71
496.20	33479.02
496.38	33703.71
496.55	34085.22
496.73	34497.16
496.91	34326.30
497.09	34375.45
497.26	35014.41
497.44	34319.28
497.62	35110.38
497.79	35742.32
497.97	35096.33
498.14	35304.64
498.32	35777.43
498.50	35864.03
498.67	36414.05
498.85	36194.04
499.03	36070.00
499.20	36215.11
499.38	36046.59
499.56	36765.14
499.73	36952.38
499.91	37261.33
500.08	37181.75
500.26	37097.49
500.44	37535.17
500.61	37991.58
500.79	37687.31
500.97	37476.66
501.14	38120.31
501.32	38536.92
501.49	38096.90
501.67	38518.20
501.84	38955.88
502.02	38665.65
502.20	38623.52
502.37	38880.98
502.55	38958.22
502.72	39077.58
502.90	39192.27
503.07	39414.62
503.25	39388.88
503.43	39262.49
503.60	39522.29
503.78	39784.43
503.95	40287.64
504.13	40795.54
504.30	40411.69
504.48	39966.99
504.65	40472.54
504.83	40844.69
505.01	41134.92
505.18	40854.05
505.36	41647.49
505.53	40886.82
505.71	41146.62
505.88	41563.23
506.06	41240.24
506.23	41727.07
506.41	42057.09
506.58	42124.96
506.76	42260.71
506.93	42064.11
507.11	41638.13
507.28	42075.81
507.46	42349.65
507.63	42593.07
507.81	43005.00
507.98	42349.65
508.16	43000.32
508.33	42955.85
508.50	43042.45
508.68	43232.04
508.85	43814.83
509.03	43686.10
509.20	43889.73
509.38	44374.22
509.55	44238.47
509.73	43941.22
509.90	44009.09
510.08	44596.57
510.25	44505.29
510.42	44727.64
510.60	44549.76
510.77	44795.51
510.95	45120.85
511.12	44683.17
511.30	44968.71
511.47	45010.84
511.64	45436.82
511.82	45778.54
511.99	45172.34
512.17	45975.14
512.34	45151.27
512.51	46103.87
512.69	46033.66
512.86	46370.69
513.04	46213.88
513.21	46260.69
513.38	46227.92
513.56	46340.27
513.73	46499.42
513.90	46653.90
514.08	46424.53
514.25	46958.17
514.43	46920.72
514.60	47187.54
514.77	47093.92
514.95	47524.58
515.12	46815.40
515.29	47185.20
515.47	47587.77
515.64	48439.73
515.81	47522.24
515.99	47744.59
516.16	48083.97
516.33	48105.03
516.51	48278.23
516.68	48311.00
516.85	48259.51
517.03	48765.06
517.20	48308.66
517.37	48362.49
517.54	48729.95
517.72	48657.40
517.89	48959.33
518.06	48727.61
518.24	48430.36
518.41	48996.77
518.58	49354.88
518.75	49038.90
518.93	49132.53
519.10	49029.54
519.27	49579.57
519.45	49542.12
519.62	49425.09
519.79	49830.01
519.96	49865.11
520.14	49745.75
520.31	50141.30
520.48	50316.84
520.65	50003.20
520.83	50452.59
521.00	50532.17
521.17	50595.36
521.34	50834.10
521.52	50696.00
521.69	50555.57
521.86	50810.69
522.03	50937.08
522.20	51068.15
522.38	51152.41
522.55	50899.63
522.72	51016.66
522.89	51391.14
523.07	51554.98
523.24	51332.63
523.41	51522.21
523.58	51215.60
523.75	51796.06
523.92	51739.88
524.10	51819.46
524.27	51887.34
524.44	51664.99
524.61	51819.46
524.78	51985.64
524.96	51702.43
525.13	52292.25
525.30	52428.00
525.47	52147.14
525.64	52177.56
525.81	52238.42
525.98	52404.59
526.16	52456.09
526.33	52516.94
526.50	53001.43
526.67	52669.08
526.84	52577.79
527.01	52828.23
527.18	52381.19
527.36	52577.79
527.53	52528.64
527.70	52992.07
527.87	53254.21
528.04	53050.58
528.21	53172.29
528.38	53078.67
528.55	53514.01
528.72	52903.13
528.89	53298.68
529.07	53235.48
529.24	53155.91
529.41	53476.56
529.58	53478.90
529.75	53289.32
529.92	53448.47
530.09	53860.41
530.26	53691.89
530.43	53822.96
530.60	53324.43
530.77	53701.25
530.94	53942.33
531.11	53684.87
531.28	53867.43
531.46	53773.81
531.63	54071.06
531.80	53834.66
531.97	54160.00
532.14	54148.29
532.31	54288.73
532.48	54333.20
532.65	54323.83
532.82	54272.34
532.99	54293.41
533.16	54600.02
533.33	54944.08
533.50	54777.90
533.67	54759.17
533.84	54459.58
534.01	54798.96
534.18	54681.94
534.35	54932.37
534.52	54979.18
534.69	55063.44
534.86	55147.70
535.03	54759.17
535.20	55044.72
535.37	55021.31
535.54	55360.69
535.71	55173.45
535.88	55370.05
536.05	55040.04
536.22	55302.18
536.38	55466.02
536.55	55363.03
536.72	55627.51
536.89	55128.98
537.06	55276.43
537.23	55480.06
537.40	55313.88
537.57	55604.11
537.74	55814.76
537.91	55856.88
538.08	55547.93
538.25	55505.80
538.42	55559.64
538.59	55753.90
538.75	55987.95
538.92	55941.14
539.09	56226.69
539.26	55938.80
539.43	55980.93
539.60	56301.59
539.77	56002.00
539.94	56224.35
540.11	56067.53
540.28	56182.22
540.44	56341.38
540.61	56011.36
540.78	56175.20
540.95	56418.61
541.12	56074.55
541.29	56198.60
541.46	56327.33
541.62	56474.79
541.79	56168.18
541.96	56163.50
542.13	56348.40
542.30	56591.81
542.47	56739.27
542.63	56662.03
542.80	56765.01
542.97	56935.87
543.14	57092.69
543.31	57230.78
543.48	56886.72
543.64	57443.77
543.81	57057.58
543.98	57240.14
544.15	57071.62
544.32	57352.49
544.48	57312.70
544.65	57076.30
544.82	57296.31
544.99	57066.94
545.16	57221.42
545.32	57366.53
545.49	57190.99
545.66	57670.80
545.83	57286.95
546.00	57626.33
546.16	57401.64
546.33	57336.10
546.50	57205.03
546.67	57668.46
546.83	57411.00
547.00	57296.31
547.17	57530.37
547.34	57483.56
547.50	57577.18
547.67	58031.24
547.84	57822.93
548.00	57689.52
548.17	57900.17
548.34	57939.96
548.51	57986.77
548.67	58195.08
548.84	58026.56
549.01	57982.09
549.18	57799.53
549.34	58033.58
549.51	58117.84
549.68	58262.96
549.84	58188.06
550.01	58309.77
550.18	58092.10
550.34	58157.63
550.51	58211.46
550.68	58195.08
550.84	58150.61
551.01	58344.87
551.18	58291.04
551.34	58255.93
551.51	58312.11
551.68	58365.94
551.84	58487.65
552.01	58300.40
552.18	58700.64
552.34	58232.53
552.51	58515.73
552.68	58515.73
552.84	58450.20
553.01	58834.05
553.18	58513.39
553.34	58710.00
553.51	58592.97
553.67	58618.72
553.84	58766.17
554.01	58623.40
554.17	58918.31
554.34	58901.92
554.51	59075.12
554.67	58850.43
554.84	58934.69
555.00	58808.30
555.17	59000.22
555.33	58913.62
555.50	58958.09
555.67	58763.83
555.83	59035.33
556.00	59021.29
556.16	59171.08
556.33	58927.67
556.50	59011.93
556.66	59000.22
556.83	58937.03
556.99	59203.85
557.16	59332.58
557.32	59358.33
557.49	59363.01
557.65	59145.34
557.82	59196.83
557.98	59042.35
558.15	59292.79
558.32	59299.81
558.48	59079.80
558.65	59344.28
558.81	59421.52
558.98	59323.22
559.14	59416.84
559.31	59426.20
559.47	59545.57
559.64	59583.02
559.80	59522.16
559.97	59568.97
560.13	59337.26
560.30	59592.38
560.46	59671.96
560.63	59625.15
560.79	59573.66
560.96	59714.09
561.12	59774.94
561.29	59814.73
561.45	59863.88
561.61	59353.65
561.78	59650.89
561.94	59742.17
562.11	59831.11
562.27	59604.08
562.44	59737.49
562.60	59903.67
562.77	59793.67
562.93	59653.23
563.10	60102.62
563.26	59765.58
563.42	60004.31
563.59	59842.82
563.75	59732.81
563.92	59866.22
564.08	60011.34
564.24	60018.36
564.41	59992.61
564.57	59880.27
564.74	60004.31
564.90	59948.14
565.07	60013.68
565.23	59938.78
565.39	59906.01
565.56	60133.04
565.72	60053.47
565.88	59906.01
566.05	59941.12
566.21	60168.15
566.38	59994.95
566.54	60060.49
566.70	60186.88
566.87	60238.37
567.03	60114.32
567.19	60287.52
567.36	60250.07
567.52	60072.19
567.68	60392.84
567.85	60172.83
568.01	60285.18
568.17	60093.25
568.34	60144.75
568.50	60250.07
568.66	60044.10
568.83	60175.17
568.99	60441.99
569.15	60214.96
569.32	60395.18
569.48	60254.75
569.64	60507.53
569.81	60161.13
569.97	60238.37
570.13	60189.22
570.30	60275.82
570.46	60336.67
570.62	60488.80
570.78	60519.23
570.95	60383.48
571.11	60413.91
571.27	60278.16
571.43	60516.89
571.60	60449.02
571.76	60451.36
571.92	60495.83
572.09	60474.76
572.25	60385.82
572.41	60287.52
572.57	60334.33
572.74	60547.32
572.90	60484.12
573.06	60423.27
573.22	60420.93
573.38	60512.21
573.55	60367.10
573.71	60725.20
573.87	60505.19
574.03	60498.17
574.20	60718.18
574.36	60669.03
574.52	60514.55
574.68	60596.47
574.84	60685.41
575.01	60617.53
575.17	60456.04
575.33	60406.89
575.49	60481.78
575.65	60598.81
575.82	60664.35
575.98	60816.48
576.14	60814.14
576.30	60977.98
576.46	60633.92
576.62	60577.75
576.79	60488.80
576.95	60647.96
577.11	60598.81
577.27	60832.86
577.43	60776.69
577.59	60640.94
577.75	60722.86
577.92	60507.53
578.08	60725.20
578.24	60741.58
578.40	60739.24
578.56	60699.45
578.72	60821.16
578.88	60772.01
579.04	60858.61
579.21	60802.44
579.37	60870.31
579.53	60825.84
579.69	60474.76
579.85	60722.86
580.01	60816.48
580.17	60425.61
580.33	60823.50
580.49	60853.93
580.65	60858.61
580.82	60736.90
580.98	60699.45
581.14	60795.42
581.30	60882.02
581.46	60711.16
581.62	60711.16
581.78	60619.88
581.94	60818.82
582.10	60767.33
582.26	60786.05
582.42	60764.99
582.58	60626.90
582.74	60701.79
582.90	60837.54
583.06	60865.63
583.22	60713.50
583.38	60947.55
583.54	60626.90
583.70	60865.63
583.86	60952.23
584.02	60795.42
584.18	60903.08
584.34	60884.36
584.50	60853.93
584.66	60804.78
584.82	60802.44
584.98	61029.47
585.14	60889.04
585.30	60893.72
585.46	61116.07
585.62	60926.49
585.78	60968.61
585.94	60755.63
586.10	60828.18
586.26	60882.02
586.42	61050.53
586.58	60903.08
586.74	60774.35
586.90	60961.59
587.06	60832.86
587.22	61139.47
587.38	60624.56
587.54	60961.59
587.70	61193.31
587.86	60823.50
588.02	60772.01
588.18	61099.68
588.34	60863.29
588.49	60942.87
