SpectraSuite Data File
++++++++++++++++++++++++++++++++++++
Date: Fri Oct 25 11:25:11 EDT 2013
User: price-jones
Dark Spectrum Present: No
Reference Spectrum Present: No
Number of Sampled Component Spectra: 1
Spectrometers: USB2+H05261
Integration Time (usec): 100000 (USB2+H05261)
Spectra Averaged: 1 (USB2+H05261)
Boxcar Smoothing: 0 (USB2+H05261)
Correct for Electrical Dark: No (USB2+H05261)
Strobe/Lamp Enabled: No (USB2+H05261)
Correct for Detector Non-linearity: No (USB2+H05261)
Correct for Stray Light: No (USB2+H05261)
Number of Pixels in Processed Spectrum: 2048
>>>>>Begin Processed Spectral Data<<<<<
365.73	220.01
365.92	220.01
366.12	220.01
366.32	198.95
366.52	142.77
366.72	124.05
366.91	194.26
367.11	105.32
367.31	124.05
367.51	147.45
367.70	180.22
367.90	147.45
368.10	189.58
368.30	147.45
368.49	79.58
368.69	170.86
368.89	173.20
369.09	156.82
369.28	203.63
369.48	173.20
369.68	168.52
369.87	224.69
370.07	257.46
370.27	222.35
370.47	313.63
370.66	535.98
370.86	608.54
371.06	627.26
371.25	587.47
371.45	683.44
371.65	720.88
371.84	746.63
372.04	660.03
372.24	706.84
372.44	753.65
372.63	800.46
372.83	755.99
373.03	770.04
373.22	688.12
373.42	734.93
373.62	767.70
373.81	699.82
374.01	812.17
374.21	837.91
374.40	755.99
374.60	805.14
374.79	835.57
374.99	821.53
375.19	702.16
375.38	809.83
375.58	847.27
375.78	856.64
375.97	875.36
376.17	884.72
376.37	791.10
376.56	863.66
376.76	854.30
376.95	924.51
377.15	830.89
377.35	1025.15
377.54	835.57
377.74	889.40
377.93	861.32
378.13	997.07
378.33	964.30
378.52	954.94
378.72	922.17
378.91	1027.50
379.11	898.77
379.31	884.72
379.50	1020.47
379.70	1006.43
379.89	959.62
380.09	926.85
380.28	1004.09
380.48	1011.11
380.68	1001.75
380.87	1011.11
381.07	971.32
381.26	1071.97
381.46	959.62
381.65	1020.47
381.85	1006.43
382.04	959.62
382.24	1043.88
382.43	1128.14
382.63	1039.20
382.83	1036.86
383.02	1109.41
383.22	1184.31
383.41	1025.15
383.61	1118.78
383.80	1109.41
384.00	1114.10
384.19	1029.84
384.39	1135.16
384.58	1221.76
384.78	1067.28
384.97	1151.54
385.17	1076.65
385.36	1142.18
385.56	1086.01
385.75	1198.35
385.95	1212.40
386.14	1217.08
386.34	1238.14
386.53	1261.55
386.72	1282.61
386.92	1226.44
387.11	1261.55
387.31	1212.40
387.50	1128.14
387.70	1205.38
387.89	1224.10
388.09	1226.44
388.28	1228.78
388.48	1252.19
388.67	1336.45
388.86	1317.72
389.06	1294.32
389.25	1425.39
389.45	1359.85
389.64	1277.93
389.84	1387.94
390.03	1378.58
390.22	1359.85
390.42	1322.40
390.61	1331.76
390.81	1299.00
391.00	1383.26
391.19	1460.49
391.39	1362.19
391.58	1441.77
391.78	1418.36
391.97	1530.71
392.16	1406.66
392.36	1479.22
392.55	1474.54
392.75	1500.28
392.94	1547.09
393.13	1526.03
393.33	1598.59
393.52	1556.46
393.71	1636.03
393.91	1629.01
394.10	1497.94
394.29	1584.54
394.49	1563.48
394.68	1617.31
394.88	1631.35
395.07	1626.67
395.26	1561.14
395.46	1624.33
395.65	1682.85
395.84	1624.33
396.04	1703.91
396.23	1717.95
396.42	1790.51
396.62	1687.53
396.81	1849.02
397.00	1748.38
397.19	1727.32
397.39	1739.02
397.58	1755.40
397.77	1760.08
397.97	1874.77
398.16	1813.92
398.35	1888.81
398.55	1853.70
398.74	1877.11
398.93	1942.64
399.12	1914.56
399.32	1888.81
399.51	1860.73
399.70	1839.66
399.90	1872.43
400.09	1926.26
400.28	1944.99
400.47	2024.56
400.67	1994.14
400.86	1989.46
401.05	2010.52
401.24	1944.99
401.44	2115.84
401.63	2120.53
401.82	2258.62
402.01	2155.63
402.21	2104.14
402.40	2155.63
402.59	2181.38
402.78	2157.97
402.97	2188.40
403.17	2279.68
403.36	2338.20
403.55	2282.02
403.74	2361.60
403.93	2300.75
404.13	2260.96
404.32	2349.90
404.51	2298.41
404.70	2445.86
404.89	2527.78
405.09	2368.62
405.28	2455.22
405.47	2375.64
405.66	2579.27
405.85	2476.29
406.05	2385.01
406.24	2546.50
406.43	2523.10
406.62	2583.95
406.81	2588.63
407.00	2649.49
407.20	2537.14
407.39	2567.57
407.58	2710.34
407.77	2693.96
407.96	2682.25
408.15	2775.88
408.34	2642.46
408.54	2829.71
408.73	2726.72
408.92	2768.85
409.11	2799.28
409.30	2794.60
409.49	2874.18
409.68	2853.11
409.87	2827.37
410.07	2892.90
410.26	2972.48
410.45	3000.57
410.64	3052.06
410.83	3016.95
411.02	3141.00
411.21	3098.87
411.40	3201.85
411.59	3014.61
411.78	3185.47
411.98	3169.09
412.17	3201.85
412.36	3335.26
412.55	3295.47
412.74	3370.37
412.93	3438.25
413.12	3218.24
413.31	3625.49
413.50	3396.12
413.69	3424.20
413.88	3618.47
414.07	3602.08
414.26	3595.06
414.45	3779.97
414.64	3637.19
414.83	3728.47
415.02	3765.92
415.22	3733.15
415.41	3789.33
415.60	3868.91
415.79	3838.48
415.98	4009.34
416.17	3829.12
416.36	3943.80
416.55	3861.88
416.74	3948.48
416.93	4070.19
417.12	4105.30
417.31	4231.69
417.50	4030.40
417.69	4266.80
417.88	4217.65
418.07	4203.60
418.26	4344.03
418.45	4297.22
418.64	4451.70
418.83	4372.12
419.02	4442.34
419.21	4428.29
419.39	4470.42
419.58	4491.49
419.77	4407.23
419.96	4547.66
420.15	4709.16
420.34	4512.55
420.53	4599.15
420.72	4713.84
420.91	4575.75
421.10	4692.77
421.29	4662.35
421.48	4669.37
421.67	4835.55
421.86	4784.06
422.05	4720.86
422.24	4760.65
422.43	4840.23
422.61	4770.01
422.80	4952.57
422.99	4957.25
423.18	5022.79
423.37	4950.23
423.56	4922.15
423.75	4844.91
423.94	4718.52
424.13	4542.98
424.32	4793.42
424.50	4795.76
424.69	5123.43
424.88	5116.41
425.07	4826.18
425.26	4880.02
425.45	4762.99
425.64	4884.70
425.83	4926.83
426.01	5046.20
426.20	5043.85
426.39	5015.77
426.58	5036.83
426.77	5055.56
426.96	4994.70
427.15	5004.07
427.33	5071.94
427.52	5135.14
427.71	5158.54
427.90	5128.11
428.09	5366.85
428.28	5331.74
428.46	5378.55
428.65	5362.17
428.84	5483.88
429.03	5348.12
429.22	5259.18
429.40	5619.63
429.59	5455.79
429.78	5397.28
429.97	5163.22
430.16	5275.57
430.34	5570.48
430.53	5458.13
430.72	5657.07
430.91	5598.56
431.10	5542.39
431.28	5572.82
431.47	5750.70
431.66	5926.24
431.85	5710.91
432.03	5846.66
432.22	5846.66
432.41	5856.02
432.60	5806.87
432.79	5797.51
432.97	5966.03
433.16	6026.88
433.35	5893.47
433.54	5963.68
433.72	6090.07
433.91	6022.20
434.10	6066.67
434.28	6071.35
434.47	6153.27
434.66	6239.87
434.85	6162.63
435.03	6356.90
435.22	6174.33
435.41	6406.05
435.59	6490.31
435.78	6328.81
435.97	6286.68
436.16	6527.75
436.34	6326.47
436.53	6513.71
436.72	6612.01
436.90	6340.51
437.09	6558.18
437.28	6509.03
437.46	6593.29
437.65	6539.46
437.84	6616.69
438.02	6513.71
438.21	6595.63
438.40	6668.19
438.58	6923.30
438.77	6946.71
438.96	6885.86
439.14	7187.79
439.33	7178.42
439.52	7068.42
439.70	7194.81
439.89	7346.94
440.08	7459.29
440.26	7190.13
440.45	7288.43
440.63	7583.34
440.82	7407.80
441.01	7470.99
441.19	7545.89
441.38	7634.83
441.57	7625.47
441.75	7793.98
441.94	8006.97
442.12	7779.94
442.31	7981.23
442.50	7957.82
442.68	7922.71
442.87	7962.50
443.05	7997.61
443.24	8212.94
443.43	7995.27
443.61	8168.47
443.80	8259.75
443.98	8084.21
444.17	7695.68
444.35	8102.93
444.54	8044.42
444.73	8025.70
444.91	8269.11
445.10	8351.03
445.28	8135.70
445.47	8182.51
445.65	8175.49
445.84	8400.18
446.02	8215.28
446.21	8414.23
446.39	8196.56
446.58	8336.99
446.77	8339.33
446.95	8285.50
447.14	8255.07
447.32	8407.20
447.51	8297.20
447.69	8301.88
447.88	8454.02
448.06	8678.71
448.25	8472.74
448.43	8538.27
448.62	8446.99
448.80	8559.34
448.99	8484.44
449.17	8765.31
449.36	8388.48
449.54	8685.73
449.73	8741.90
449.91	8889.35
450.10	8875.31
450.28	9107.02
450.46	8830.84
450.65	8800.41
450.83	9160.86
451.02	9034.47
451.20	9132.77
451.39	9273.20
451.57	9020.42
451.76	9034.47
451.94	9018.08
452.13	9324.69
452.31	9249.80
452.49	9135.11
452.68	9076.60
452.86	9385.55
453.05	9238.09
453.23	9165.54
453.42	9441.72
453.60	9287.25
453.78	9322.35
453.97	9420.66
454.15	9233.41
454.34	9385.55
454.52	9635.99
454.70	9549.39
454.89	9713.22
455.07	9591.52
455.26	9596.20
455.44	9839.61
455.62	9891.10
455.81	9743.65
455.99	9853.66
456.17	9923.87
456.36	9825.57
456.54	9942.60
456.73	9914.51
456.91	10286.65
457.09	10296.02
457.28	10455.17
457.46	10225.80
457.64	10473.90
457.83	10321.76
458.01	10218.78
458.19	10747.74
458.38	10314.74
458.56	10628.37
458.74	10509.01
458.93	10698.59
459.11	10628.37
459.29	10544.11
459.48	10707.95
459.66	10724.33
459.84	10799.23
460.03	10700.93
460.21	10799.23
460.39	11019.24
460.57	10672.84
460.76	10918.60
460.94	10895.19
461.12	11023.92
461.31	11070.73
461.49	10956.05
461.67	10993.50
461.85	11239.25
462.04	11112.86
462.22	11618.42
462.40	11255.64
462.59	11449.90
462.77	11538.84
462.95	11246.27
463.13	11363.30
463.32	11339.90
463.50	11737.79
463.68	11737.79
463.86	11838.43
464.05	11609.06
464.23	11562.25
464.41	11906.31
464.59	11564.59
464.78	12224.62
464.96	11936.73
465.14	11695.66
465.32	11829.07
465.50	12091.21
465.69	12138.02
465.87	12187.17
466.05	12084.19
466.23	11915.67
466.41	12156.74
466.60	12149.72
466.78	11997.59
466.96	11922.69
467.14	12313.56
467.32	12397.82
467.51	12400.16
467.69	12009.29
467.87	12280.79
468.05	12496.12
468.23	12161.42
468.41	12217.60
468.60	12559.31
468.78	12650.60
468.96	12636.55
469.14	12800.39
469.32	12940.82
469.50	12449.31
469.69	12917.42
469.87	12919.76
470.05	12910.40
470.23	13107.00
470.41	13205.30
470.59	13263.82
470.77	13200.62
470.95	13284.88
471.14	13359.78
471.32	13015.72
471.50	13289.56
471.68	13254.45
471.86	13540.00
472.04	13757.67
472.22	14005.77
472.40	13493.19
472.58	13750.65
472.77	13933.21
472.95	14083.00
473.13	14274.93
473.31	13970.66
473.49	13973.00
473.67	14064.28
473.85	14122.79
474.03	14516.00
474.21	14712.61
474.39	14551.11
474.57	14483.24
474.75	14471.53
474.93	14920.92
475.12	14808.57
475.30	14918.57
475.48	14799.21
475.66	14979.43
475.84	15007.52
476.02	15089.43
476.20	15372.64
476.38	15342.21
476.56	15798.62
476.74	15786.91
476.92	15789.25
477.10	15522.43
477.28	15983.52
477.46	15978.84
477.64	16042.03
477.82	16273.74
478.00	16711.42
478.18	16620.14
478.36	16681.00
478.54	17018.04
478.72	17212.30
478.90	17036.76
479.08	17188.89
479.26	17408.90
479.44	17713.17
479.62	17731.90
479.80	17736.58
479.98	17860.63
480.16	18340.44
480.34	18155.54
480.52	18319.37
480.70	18434.06
480.88	17987.02
481.06	18328.74
481.24	18607.26
481.41	18972.38
481.59	18951.32
481.77	19494.32
481.95	19597.31
482.13	19800.93
482.31	19534.11
482.49	20098.18
482.67	19948.39
482.85	19983.49
483.03	20535.86
483.21	20416.49
483.39	20723.10
483.57	20603.74
483.74	20627.14
483.92	21305.90
484.10	21294.19
484.28	21598.46
484.46	21806.77
484.64	22153.17
484.82	21839.54
485.00	21930.82
485.18	22534.68
485.35	22824.90
485.53	22434.03
485.71	22934.91
485.89	23157.26
486.07	23110.45
486.25	23236.84
486.43	23641.75
486.61	23597.28
486.78	23749.42
486.96	23955.38
487.14	24547.54
487.32	24444.56
487.50	24884.58
487.68	24734.78
487.85	25570.35
488.03	25270.76
488.21	25422.90
488.39	25642.91
488.57	26008.03
488.75	25678.02
488.92	26349.75
489.10	26328.69
489.28	26520.61
489.46	26654.02
489.64	26747.64
489.81	27545.76
489.99	27175.96
490.17	27630.02
490.35	27964.72
490.53	27985.79
490.70	28116.86
490.88	27920.25
491.06	28285.37
491.24	28383.68
491.41	28854.12
491.59	28863.49
491.77	29223.93
491.95	29607.78
492.13	29345.64
492.30	29692.04
492.48	30015.03
492.66	29797.36
492.84	29809.06
493.01	30391.86
493.19	30611.87
493.37	30852.94
493.54	30756.98
493.72	31215.72
493.90	31033.16
494.08	31360.84
494.25	31793.84
494.43	31725.96
494.61	31899.16
494.79	32247.90
494.96	32060.66
495.14	32460.89
495.32	32907.93
495.49	32741.75
495.67	32966.45
495.85	32912.61
496.02	33556.26
496.20	33565.62
496.38	33647.54
496.55	33783.29
496.73	34462.05
496.91	34026.71
497.09	34487.79
497.26	34684.40
497.44	34771.00
497.62	34553.33
497.79	35658.06
497.97	35072.93
498.14	35222.72
498.32	35831.26
498.50	35800.83
498.67	36264.26
498.85	36470.23
499.03	36051.27
499.20	36275.96
499.38	35981.06
499.56	36650.45
499.73	36694.92
499.91	37069.40
500.08	37163.03
500.26	36837.69
500.44	37333.89
500.61	37357.29
500.79	37500.06
500.97	37982.21
501.14	38227.97
501.32	38160.09
501.49	38408.19
501.67	38410.53
501.84	38838.85
502.02	38511.17
502.20	38995.67
502.37	38555.64
502.55	39143.12
502.72	39213.34
502.90	39330.36
503.07	39129.08
503.25	39260.15
503.43	39363.13
503.60	39625.27
503.78	39854.64
503.95	39426.32
504.13	39985.71
504.30	40187.00
504.48	40472.54
504.65	40498.29
504.83	40617.66
505.01	40804.90
505.18	40664.47
505.36	40849.37
505.53	40722.98
505.71	40882.14
505.88	41500.04
506.06	41265.99
506.23	41731.75
506.41	41553.87
506.58	41483.66
506.76	41708.35
506.93	42050.06
507.11	42057.09
507.28	42167.09
507.46	42515.83
507.63	42850.53
507.81	42719.46
507.98	42506.47
508.16	42256.03
508.33	42883.30
508.50	43168.84
508.68	43147.78
508.85	43768.02
509.03	43328.00
509.20	44039.52
509.38	44105.06
509.55	44404.64
509.73	43732.91
509.90	44414.01
510.08	43693.12
510.25	44170.59
510.42	44612.95
510.60	44563.80
510.77	44694.87
510.95	45022.54
511.12	44758.06
511.30	45055.31
511.47	45111.49
511.64	45036.59
511.82	45170.00
511.99	45382.99
512.17	45514.06
512.34	45373.63
512.51	46148.34
512.69	46005.57
512.86	45806.62
513.04	46564.96
513.21	46274.73
513.38	46232.60
513.56	46712.41
513.73	46160.05
513.90	47012.00
514.08	46424.53
514.25	46820.08
514.43	46841.14
514.60	46986.25
514.77	47164.14
514.95	47529.26
515.12	47384.15
515.29	47161.79
515.47	47325.63
515.64	47597.13
515.81	47449.68
515.99	47573.73
516.16	47667.35
516.33	48238.44
516.51	48327.38
516.68	48004.39
516.85	48140.14
517.03	48348.45
517.20	48638.67
517.37	48383.55
517.54	48198.65
517.72	48587.18
517.89	48594.20
518.06	48706.55
518.24	48781.45
518.41	49031.88
518.58	49301.04
518.75	48886.77
518.93	48966.35
519.10	48877.41
519.27	48896.13
519.45	49151.25
519.62	49453.18
519.79	49443.82
519.96	49778.51
520.14	49804.26
520.31	49888.52
520.48	49879.16
520.65	49694.25
520.83	50347.26
521.00	50377.69
521.17	50092.15
521.34	50403.44
521.52	50220.87
521.69	50665.58
521.86	50183.43
522.03	50883.25
522.20	50979.21
522.38	51133.68
522.55	51105.60
522.72	50930.06
522.89	51023.68
523.07	51463.70
523.24	51047.08
523.41	51700.09
523.58	51044.74
523.75	51414.55
523.92	51344.33
524.10	51906.06
524.27	51835.84
524.44	51379.44
524.61	51835.84
524.78	51971.60
524.96	51983.30
525.13	51564.34
525.30	51779.67
525.47	52254.80
525.64	52140.11
525.81	52313.31
525.98	52250.12
526.16	52437.36
526.33	52341.40
526.50	52643.33
526.67	52575.45
526.84	52420.98
527.01	52479.49
527.18	52584.82
527.36	52406.94
527.53	52669.08
527.70	53310.38
527.87	53036.54
528.04	52666.73
528.21	53181.65
528.38	53301.02
528.55	53389.96
528.72	53123.14
528.89	52940.58
529.07	53240.17
529.24	53343.15
529.41	53315.06
529.58	53598.27
529.75	53352.51
529.92	53296.34
530.09	53389.96
530.26	53600.61
530.43	53879.13
530.60	53373.58
530.77	53748.06
530.94	53799.55
531.11	53364.21
531.28	53895.52
531.46	53708.27
531.63	54066.38
531.80	53862.75
531.97	54260.64
532.14	54113.19
532.31	54188.08
532.48	54487.67
532.65	54284.04
532.82	54176.38
532.99	54382.35
533.16	54152.97
533.33	54394.05
533.50	54525.12
533.67	54202.13
533.84	54412.77
534.01	54658.53
534.18	54567.25
534.35	55150.04
534.52	54876.20
534.69	54953.44
534.86	54948.76
535.03	54822.37
535.20	54824.71
535.37	55140.68
535.54	55084.51
535.71	55054.08
535.88	55119.62
536.05	55248.35
536.22	55463.67
536.38	55182.81
536.55	55124.30
536.72	55285.79
536.89	55231.96
537.06	55255.37
537.23	55576.02
537.40	55447.29
537.57	55723.47
537.74	55559.64
537.91	55756.24
538.08	55554.96
538.25	55536.23
538.42	55636.87
538.59	55994.98
538.75	55646.24
538.92	56004.34
539.09	56011.36
539.26	55856.88
539.43	55884.97
539.60	56039.45
539.77	55934.12
539.94	56203.28
540.11	56069.87
540.28	56261.80
540.44	56062.85
540.61	56156.47
540.78	56240.73
540.95	56231.37
541.12	56217.33
541.29	56058.17
541.46	56212.65
541.62	56353.08
541.79	56540.32
541.96	56271.16
542.13	56460.74
542.30	56418.61
542.47	56488.83
542.63	56603.52
542.80	56891.40
542.97	56814.16
543.14	57076.30
543.31	56917.15
543.48	56978.00
543.64	57207.37
543.81	57045.88
543.98	57162.90
544.15	56924.17
544.32	57144.18
544.48	57272.91
544.65	56886.72
544.82	57251.84
544.99	56938.21
545.16	57406.32
545.32	57158.22
545.49	57406.32
545.66	57574.84
545.83	57425.04
546.00	57322.06
546.16	57488.24
546.33	57396.96
546.50	57130.14
546.67	57551.43
546.83	57057.58
547.00	57469.51
547.17	57432.07
547.34	57710.59
547.50	57626.33
547.67	58127.20
547.84	57932.94
548.00	57815.91
548.17	58014.86
548.34	57951.66
548.51	58117.84
548.67	58042.95
548.84	57963.37
549.01	57993.79
549.18	57881.45
549.34	58049.97
549.51	58134.23
549.68	58239.55
549.84	58269.98
550.01	58269.98
550.18	57897.83
550.34	58166.99
550.51	58164.65
550.68	58344.87
550.84	58155.29
551.01	58337.85
551.18	58185.72
551.34	58197.42
551.51	58461.90
551.68	58419.77
551.84	58457.22
552.01	58206.78
552.18	58459.56
552.34	58347.21
552.51	58583.61
552.68	58347.21
552.84	58391.68
553.01	58777.87
553.18	58506.37
553.34	58431.47
553.51	58550.84
553.67	58644.46
553.84	58674.89
554.01	58628.08
554.17	58710.00
554.34	58768.51
554.51	58707.66
554.67	58944.05
554.84	58873.84
555.00	58812.98
555.17	58677.23
555.33	58609.35
555.50	59007.25
555.67	58731.06
555.83	58815.32
556.00	58876.18
556.16	59185.13
556.33	59306.83
556.50	59021.29
556.66	59164.06
556.83	58745.11
556.99	59105.55
557.16	59281.09
557.32	59379.39
557.49	59423.86
557.65	59016.61
557.82	59332.58
557.98	59002.56
558.15	59393.43
558.32	59112.57
558.48	59051.72
558.65	59171.08
558.81	59386.41
558.98	59154.70
559.14	59257.68
559.31	59484.72
559.47	59423.86
559.64	59475.35
559.80	59473.01
559.97	59599.40
560.13	59449.61
560.30	59442.59
560.46	59379.39
560.63	59625.15
560.79	59456.63
560.96	59772.60
561.12	59564.29
561.29	59470.67
561.45	59480.03
561.61	59643.87
561.78	59576.00
561.94	59688.34
562.11	59552.59
562.27	59798.35
562.44	59924.74
562.60	60053.47
562.77	59681.32
562.93	59674.30
563.10	59934.10
563.26	59634.51
563.42	60168.15
563.59	59819.41
563.75	59788.98
563.92	59917.71
564.08	59770.26
564.24	59994.95
564.41	59791.33
564.57	59894.31
564.74	59870.90
564.90	59870.90
565.07	59898.99
565.23	60079.21
565.39	59985.59
565.56	59950.48
565.72	59922.40
565.88	60011.34
566.05	59819.41
566.21	59796.01
566.38	60158.79
566.54	60048.78
566.70	60011.34
566.87	60095.60
567.03	60046.44
567.19	60196.24
567.36	60137.72
567.52	60170.49
567.68	60301.56
567.85	60104.96
568.01	60226.66
568.17	60278.16
568.34	60261.77
568.50	60210.28
568.66	60104.96
568.83	60317.95
568.99	60296.88
569.15	60203.26
569.32	60149.43
569.48	60126.02
569.64	60402.21
569.81	60236.03
569.97	60280.50
570.13	60240.71
570.30	60149.43
570.46	60109.64
570.62	60484.12
570.78	60395.18
570.95	60376.46
571.11	60109.64
571.27	60542.64
571.43	60364.76
571.60	60406.89
571.76	60229.01
571.92	60411.57
572.09	60093.25
572.25	60282.84
572.41	60383.48
572.57	60456.04
572.74	60481.78
572.90	60336.67
573.06	60383.48
573.22	60561.36
573.38	60322.63
573.55	60409.23
573.71	60587.11
573.87	60594.13
574.03	60397.52
574.20	60413.91
574.36	60306.24
574.52	60678.39
574.68	60734.56
574.84	60568.38
575.01	60633.92
575.17	60580.09
575.33	60470.08
575.49	60488.80
575.65	60512.21
575.82	60598.81
575.98	60549.66
576.14	60739.24
576.30	60544.98
576.46	60495.83
576.62	60563.70
576.79	60582.43
576.95	60350.71
577.11	60530.93
577.27	60671.37
577.43	60601.15
577.59	60561.36
577.75	60584.77
577.92	60654.98
578.08	60479.44
578.24	60552.00
578.40	60858.61
578.56	60713.50
578.72	60736.90
578.88	60638.60
579.04	60631.58
579.21	60687.75
579.37	60718.18
579.53	60907.76
579.69	60523.91
579.85	60659.66
580.01	60612.85
580.17	60477.10
580.33	60711.16
580.49	60917.12
580.65	60893.72
580.82	60687.75
580.98	60856.27
581.14	60570.72
581.30	60846.91
581.46	60530.93
581.62	60587.11
581.78	60514.55
581.94	60491.15
582.10	60547.32
582.26	60776.69
582.42	60619.88
582.58	60809.46
582.74	60734.56
582.90	60779.03
583.06	60657.32
583.22	60772.01
583.38	60739.24
583.54	60793.07
583.70	60631.58
583.86	60589.45
584.02	60786.05
584.18	61073.94
584.34	60977.98
584.50	60940.53
584.66	60760.31
584.82	60839.89
584.98	61038.83
585.14	60924.14
585.30	60561.36
585.46	60816.48
585.62	60692.43
585.78	60912.44
585.94	60652.64
586.10	60757.97
586.26	60795.42
586.42	60783.71
586.58	60743.92
586.74	60970.96
586.90	60893.72
587.06	60708.82
587.22	60846.91
587.38	60935.85
587.54	60924.14
587.70	60926.49
587.86	61008.40
588.02	60889.04
588.18	60924.14
588.34	61104.37
588.49	61139.47
