SpectraSuite Data File
++++++++++++++++++++++++++++++++++++
Date: Fri Oct 25 10:47:38 EDT 2013
User: price-jones
Dark Spectrum Present: No
Reference Spectrum Present: No
Number of Sampled Component Spectra: 1
Spectrometers: USB2+H05261
Integration Time (usec): 100000 (USB2+H05261)
Spectra Averaged: 1 (USB2+H05261)
Boxcar Smoothing: 0 (USB2+H05261)
Correct for Electrical Dark: No (USB2+H05261)
Strobe/Lamp Enabled: No (USB2+H05261)
Correct for Detector Non-linearity: No (USB2+H05261)
Correct for Stray Light: No (USB2+H05261)
Number of Pixels in Processed Spectrum: 2048
>>>>>Begin Processed Spectral Data<<<<<
365.73	121.71
365.92	121.71
366.12	121.71
366.32	44.47
366.52	88.94
366.72	21.06
366.91	56.17
367.11	25.75
367.31	119.37
367.51	114.69
367.70	0.00
367.90	42.13
368.10	58.51
368.30	49.15
368.49	4.68
368.69	51.49
368.89	51.49
369.09	70.22
369.28	79.58
369.48	131.07
369.68	74.90
369.87	93.62
370.07	98.30
370.27	126.39
370.47	156.82
370.66	365.12
370.86	404.91
371.06	353.42
371.25	568.75
371.45	451.72
371.65	547.69
371.84	468.11
372.04	421.30
372.24	519.60
372.44	479.81
372.63	458.74
372.83	489.17
373.03	484.49
373.22	559.39
373.42	383.85
373.62	538.32
373.81	557.05
374.01	491.51
374.21	552.37
374.40	545.34
374.60	519.60
374.79	596.84
374.99	620.24
375.19	589.82
375.38	603.86
375.58	557.05
375.78	587.47
375.97	503.22
376.17	603.86
376.37	608.54
376.56	575.77
376.76	587.47
376.95	585.13
377.15	606.20
377.35	554.71
377.54	653.01
377.74	610.88
377.93	603.86
378.13	620.24
378.33	669.39
378.52	660.03
378.72	641.31
378.91	662.37
379.11	559.39
379.31	575.77
379.50	638.97
379.70	662.37
379.89	685.78
380.09	550.03
380.28	657.69
380.48	669.39
380.68	669.39
380.87	657.69
381.07	660.03
381.26	702.16
381.46	622.58
381.65	713.86
381.85	755.99
382.04	755.99
382.24	657.69
382.43	676.41
382.63	695.14
382.83	779.40
383.02	737.27
383.22	748.97
383.41	748.97
383.61	667.05
383.80	657.69
384.00	627.26
384.19	702.16
384.39	788.76
384.58	781.74
384.78	763.01
384.97	791.10
385.17	681.10
385.36	690.46
385.56	779.40
385.75	760.67
385.95	791.10
386.14	847.27
386.34	772.38
386.53	826.21
386.72	809.83
386.92	849.61
387.11	837.91
387.31	837.91
387.50	837.91
387.70	800.46
387.89	851.96
388.09	898.77
388.28	814.51
388.48	847.27
388.67	830.89
388.86	880.04
389.06	809.83
389.25	882.38
389.45	875.36
389.64	905.79
389.84	898.77
390.03	1004.09
390.22	933.87
390.42	894.08
390.61	936.21
390.81	898.77
391.00	954.94
391.19	1006.43
391.39	940.90
391.58	1102.39
391.78	936.21
391.97	983.02
392.16	1046.22
392.36	978.34
392.55	1022.81
392.75	1055.58
392.94	917.49
393.13	987.71
393.33	936.21
393.52	1015.79
393.71	1032.18
393.91	1048.56
394.10	1039.20
394.29	1107.07
394.49	1006.43
394.68	1074.31
394.88	1071.97
395.07	1057.92
395.26	1088.35
395.46	1217.08
395.65	1142.18
395.84	1149.20
396.04	1174.95
396.23	1102.39
396.42	1137.50
396.62	1156.22
396.81	1263.89
397.00	1121.12
397.19	1167.93
397.39	1156.22
397.58	1205.38
397.77	1217.08
397.97	1320.06
398.16	1228.78
398.35	1404.32
398.55	1315.38
398.74	1427.73
398.93	1533.05
399.12	1425.39
399.32	1397.30
399.51	1371.55
399.70	1418.36
399.90	1423.05
400.09	1315.38
400.28	1486.24
400.47	1488.58
400.67	1481.56
400.86	1425.39
401.05	1418.36
401.24	1437.09
401.44	1500.28
401.63	1542.41
401.82	1446.45
402.01	1549.43
402.21	1542.41
402.40	1556.46
402.59	1533.05
402.78	1551.78
402.97	1575.18
403.17	1589.22
403.36	1514.33
403.55	1570.50
403.74	1675.82
403.93	1650.08
404.13	1746.04
404.32	1713.27
404.51	1607.95
404.70	1717.95
404.89	1762.42
405.09	1713.27
405.28	1710.93
405.47	1757.74
405.66	1799.87
405.85	1760.08
406.05	1846.68
406.24	1802.21
406.43	1792.85
406.62	1884.13
406.81	1820.94
407.00	1877.11
407.20	1783.49
407.39	1919.24
407.58	1888.81
407.77	2001.16
407.96	1984.77
408.15	1991.80
408.34	2090.10
408.54	2045.63
408.73	1975.41
408.92	1937.96
409.11	2001.16
409.30	2038.61
409.49	2136.91
409.68	2031.58
409.87	2153.29
410.07	2188.40
410.26	2134.57
410.45	2162.66
410.64	2188.40
410.83	2256.28
411.02	2214.15
411.21	2333.51
411.40	2354.58
411.59	2303.09
411.78	2272.66
411.98	2352.24
412.17	2256.28
412.36	2373.30
412.55	2359.26
412.74	2431.82
412.93	2396.71
413.12	2399.05
413.31	2516.08
413.50	2504.37
413.69	2408.41
413.88	2651.83
414.07	2677.57
414.26	2572.25
414.45	2782.90
414.64	2731.41
414.83	2597.99
415.02	2658.85
415.22	2651.83
415.41	2757.15
415.60	2855.45
415.79	2839.07
415.98	2998.23
416.17	2897.58
416.36	2902.26
416.55	2825.03
416.74	3002.91
416.93	2918.65
417.12	3061.42
417.31	3019.29
417.50	3052.06
417.69	3141.00
417.88	3143.34
418.07	3063.76
418.26	3038.02
418.45	3183.13
418.64	3265.05
418.83	3337.60
419.02	3101.21
419.21	3215.90
419.39	3279.09
419.58	3084.83
419.77	3222.92
419.96	3410.16
420.15	3361.01
420.34	3337.60
420.53	3400.80
420.72	3323.56
420.91	3389.10
421.10	3424.20
421.29	3510.80
421.48	3473.36
421.67	3463.99
421.86	3332.92
422.05	3522.51
422.24	3438.25
422.43	3389.10
422.61	3463.99
422.80	3562.30
422.99	3555.27
423.18	3557.61
423.37	3737.84
423.56	3578.68
423.75	3548.25
423.94	3541.23
424.13	3403.14
424.32	3461.65
424.50	3503.78
424.69	3545.91
424.88	3576.34
425.07	3672.30
425.26	3478.04
425.45	3541.23
425.64	3566.98
425.83	3574.00
426.01	3723.79
426.20	3571.66
426.39	3702.73
426.58	3555.27
426.77	3555.27
426.96	3667.62
427.15	3667.62
427.33	3756.56
427.52	3538.89
427.71	3735.50
427.90	3768.26
428.09	3740.18
428.28	3861.88
428.46	3803.37
428.65	3719.11
428.84	3929.76
429.03	3880.61
429.22	3810.39
429.40	3882.95
429.59	3789.33
429.78	3765.92
429.97	3658.26
430.16	3779.97
430.34	3822.09
430.53	3861.88
430.72	3864.22
430.91	3857.20
431.10	3925.08
431.28	3997.64
431.47	4201.26
431.66	4262.12
431.85	4269.14
432.03	4182.54
432.22	4402.55
432.41	4128.70
432.60	4257.43
432.79	4304.25
432.97	4444.68
433.16	4135.73
433.35	4421.27
433.54	4175.52
433.72	4337.01
433.91	4243.39
434.10	4294.88
434.28	4304.25
434.47	4432.97
434.66	4451.70
434.85	4440.00
435.03	4507.87
435.22	4580.43
435.41	4669.37
435.59	4697.46
435.78	4657.67
435.97	4622.56
436.16	4732.56
436.34	4594.47
436.53	4784.06
436.72	4837.89
436.90	4524.26
437.09	4725.54
437.28	4521.92
437.46	4706.82
437.65	4739.58
437.84	4802.78
438.02	4737.24
438.21	4882.36
438.40	4582.77
438.58	4938.53
438.77	4940.87
438.96	4903.42
439.14	5085.98
439.33	5153.86
439.52	5181.95
439.70	5060.24
439.89	5245.14
440.08	5247.48
440.26	5198.33
440.45	5280.25
440.63	5310.68
440.82	5256.84
441.01	5294.29
441.19	5411.32
441.38	5483.88
441.57	5497.92
441.75	5507.28
441.94	5687.50
442.12	5790.49
442.31	5919.21
442.50	5907.51
442.68	5664.10
442.87	5713.25
443.05	5664.10
443.24	5846.66
443.43	5696.86
443.61	5853.68
443.80	6080.71
443.98	5853.68
444.17	5699.20
444.35	5907.51
444.54	5923.90
444.73	6043.26
444.91	5884.11
445.10	6033.90
445.28	5827.93
445.47	5809.21
445.65	5942.62
445.84	5853.68
446.02	6010.50
446.21	6087.73
446.39	5942.62
446.58	6033.90
446.77	6174.33
446.95	5900.49
447.14	6054.97
447.32	6129.86
447.51	6090.07
447.69	6031.56
447.88	6010.50
448.06	5961.34
448.25	6162.63
448.43	6188.38
448.62	6129.86
448.80	6045.60
448.99	6118.16
449.17	6188.38
449.36	6162.63
449.54	6310.08
449.73	6394.34
449.91	6473.92
450.10	6417.75
450.28	6492.65
450.46	6340.51
450.65	6462.22
450.83	6532.44
451.02	6518.39
451.20	6455.20
451.39	6579.25
451.57	6619.04
451.76	6553.50
451.94	6476.26
452.13	6775.85
452.31	6548.82
452.49	6373.28
452.68	6633.08
452.86	6565.20
453.05	6604.99
453.23	6775.85
453.42	6541.80
453.60	6857.77
453.78	6808.62
453.97	6658.82
454.15	6810.96
454.34	6586.27
454.52	6909.26
454.70	6764.15
454.89	6815.64
455.07	6925.65
455.26	6977.14
455.44	7110.55
455.62	7047.35
455.81	7012.24
455.99	6970.12
456.17	7211.19
456.36	6993.52
456.54	7061.40
456.73	7419.50
456.91	7295.45
457.09	7489.71
457.28	7435.88
457.46	7124.59
457.64	7321.20
457.83	7407.80
458.01	7426.52
458.19	7426.52
458.38	7393.75
458.56	7564.61
458.74	7510.78
458.93	7478.01
459.11	7681.64
459.29	7524.82
459.48	7641.85
459.66	7646.53
459.84	7667.60
460.03	7906.33
460.21	7744.83
460.39	7578.65
460.57	7765.90
460.76	7679.30
460.94	7873.56
461.12	7955.48
461.31	7796.32
461.49	7880.58
461.67	7782.28
461.85	8088.89
462.04	8145.06
462.22	8376.78
462.40	8273.79
462.59	8102.93
462.77	8248.05
462.95	8269.11
463.13	8161.45
463.32	8355.71
463.50	8329.97
463.68	8159.11
463.86	8203.58
464.05	8278.47
464.23	8091.23
464.41	8386.14
464.59	8173.15
464.78	8423.59
464.96	8388.48
465.14	8234.00
465.32	8451.67
465.50	8369.76
465.69	8575.72
465.87	8336.99
466.05	8311.24
466.23	8456.36
466.41	8404.86
466.60	8688.07
466.78	8517.21
466.96	8325.29
467.14	8521.89
467.32	8517.21
467.51	8805.10
467.69	8430.61
467.87	8592.11
468.05	8594.45
468.23	8641.26
468.41	8582.74
468.60	8968.93
468.78	8814.46
468.96	8882.33
469.14	8643.60
469.32	9039.15
469.50	8814.46
469.69	8952.55
469.87	9142.13
470.05	9165.54
470.23	9043.83
470.41	8973.61
470.59	9228.73
470.77	9043.83
470.95	9053.19
471.14	9200.65
471.32	9320.01
471.50	9415.98
471.68	9406.61
471.86	9521.30
472.04	9500.23
472.22	9848.97
472.40	9528.32
472.58	9500.23
472.77	9530.66
472.95	9809.19
473.13	10136.86
473.31	9533.00
473.49	9605.56
473.67	9589.17
473.85	9685.14
474.03	10174.31
474.21	10066.64
474.39	10104.09
474.57	10291.34
474.75	10178.99
474.93	10270.27
475.12	10209.42
475.30	10272.61
475.48	10401.34
475.66	10424.75
475.84	10373.25
476.02	10633.05
476.20	10389.64
476.38	10654.12
476.56	10839.02
476.74	10953.71
476.92	10810.93
477.10	11021.58
477.28	11028.60
477.46	11035.63
477.64	11248.61
477.82	11407.77
478.00	11592.67
478.18	11557.57
478.36	11529.48
478.54	11908.65
478.72	11705.02
478.90	11927.37
479.08	12252.70
479.26	11964.82
479.44	12121.63
479.62	12198.87
479.80	12138.02
479.98	12168.45
480.16	12465.69
480.34	12676.34
480.52	12793.37
480.70	12606.13
480.88	12355.69
481.06	12844.86
481.24	12786.35
481.41	13111.68
481.59	13462.76
481.77	13170.19
481.95	13280.20
482.13	13394.89
482.31	13406.59
482.49	13284.88
482.67	13666.39
482.85	13682.77
483.03	13818.52
483.21	14087.68
483.39	13984.70
483.57	14012.79
483.74	14445.79
483.92	14155.56
484.10	14251.52
484.28	14462.17
484.46	14869.42
484.64	15295.40
484.82	14998.15
485.00	15295.40
485.18	15693.29
485.35	15499.03
485.53	15110.50
485.71	15136.24
485.89	15569.24
486.07	15314.13
486.25	15529.45
486.43	15683.93
486.61	15941.39
486.78	15831.38
486.96	16327.58
487.14	16458.65
487.32	16659.93
487.50	16648.23
487.68	16774.62
487.85	17057.82
488.03	16968.88
488.21	17256.77
488.39	16814.41
488.57	17252.09
488.75	17397.20
488.92	17940.21
489.10	17757.64
489.28	18082.98
489.46	18214.05
489.64	18082.98
489.81	18466.83
489.99	18686.84
490.17	18677.48
490.35	19037.92
490.53	18977.06
490.70	19147.92
490.88	19108.13
491.06	19208.78
491.24	19330.48
491.41	19438.15
491.59	19358.57
491.77	19379.64
491.95	19257.93
492.13	19871.15
492.30	20102.86
492.48	20233.93
492.66	20224.57
492.84	20154.35
493.01	20645.87
493.19	20601.40
493.37	20929.07
493.54	20741.83
493.72	20975.88
493.90	21008.65
494.08	20931.41
494.25	21376.11
494.43	21612.51
494.61	21542.29
494.79	21516.54
494.96	21582.08
495.14	21781.03
495.32	22125.08
495.49	21909.75
495.67	22249.13
495.85	22427.01
496.02	22345.09
496.20	22562.76
496.38	22878.74
496.55	22632.98
496.73	23175.98
496.91	23065.98
497.09	22937.25
497.26	23391.31
497.44	22871.72
497.62	23580.90
497.79	23768.14
497.97	23651.11
498.14	23793.89
498.32	23742.39
498.50	23924.96
498.67	24159.01
498.85	24098.16
499.03	24425.83
499.20	24449.24
499.38	24840.11
499.56	24690.31
499.73	24631.80
499.91	24627.12
500.08	25275.45
500.26	24554.56
500.44	24844.79
500.61	25055.43
500.79	24940.75
500.97	25242.68
501.14	25734.19
501.32	25476.73
501.49	25357.36
501.67	25935.48
501.84	25687.38
502.02	25858.24
502.20	25806.75
502.37	26146.12
502.55	25881.64
502.72	26228.04
502.90	26155.49
503.07	26092.29
503.25	26445.71
503.43	26253.79
503.60	26544.02
503.78	26286.56
503.95	26527.63
504.13	26895.10
504.30	26838.92
504.48	26930.20
504.65	26977.01
504.83	26883.39
505.01	27182.98
505.18	27468.53
505.36	27620.66
505.53	27725.99
505.71	27747.05
505.88	27690.88
506.06	27520.02
506.23	27662.79
506.41	27803.22
506.58	27812.59
506.76	27969.40
506.93	28053.66
507.11	28025.57
507.28	28034.94
507.46	28177.71
507.63	28332.18
507.81	28563.90
507.98	28250.27
508.16	28519.43
508.33	28870.51
508.50	28561.56
508.68	29081.16
508.85	29275.42
509.03	28823.70
509.20	29329.25
509.38	29158.39
509.55	29666.29
509.73	29488.41
509.90	29202.86
510.08	29467.34
510.25	29612.46
510.42	29642.88
510.60	29919.07
510.77	30113.33
510.95	29748.21
511.12	29933.11
511.30	30127.38
511.47	30323.98
511.64	30492.50
511.82	30438.67
511.99	30543.99
512.17	30497.18
512.34	30335.68
512.51	30639.95
512.69	30497.18
512.86	30848.26
513.04	31351.48
513.21	30953.58
513.38	30972.31
513.56	30871.67
513.73	30541.65
513.90	30920.82
514.08	31204.02
514.25	31302.32
514.43	31555.10
514.60	31328.07
514.77	31379.56
514.95	31487.23
515.12	31358.50
515.29	31821.92
515.47	32126.19
515.64	32240.88
515.81	31732.98
515.99	31779.79
516.16	32105.13
516.33	31885.12
516.51	32313.44
516.68	31620.64
516.85	31725.96
517.03	31749.37
517.20	31740.00
517.37	32645.79
517.54	32163.64
517.72	32830.69
517.89	32421.10
518.06	32322.80
518.24	32327.48
518.41	32601.32
518.58	32720.69
518.75	32449.19
518.93	32931.34
519.10	32854.10
519.27	33031.98
519.45	33083.47
519.62	33167.73
519.79	33759.89
519.96	33624.14
520.14	33504.77
520.31	33865.21
520.48	33460.30
520.65	33715.42
520.83	34300.55
521.00	33865.21
521.17	34057.14
521.34	34015.01
521.52	33610.09
521.69	33830.10
521.86	34490.13
522.03	34375.45
522.20	34382.47
522.38	34843.56
522.55	34445.66
522.72	34735.89
522.89	34450.35
523.07	34871.64
523.24	34555.67
523.41	35028.46
523.58	34408.22
523.75	35189.95
523.92	35189.95
524.10	35192.30
524.27	35637.00
524.44	35379.54
524.61	35405.28
524.78	35206.34
524.96	35302.30
525.13	35800.83
525.30	35765.73
525.47	35688.49
525.64	35868.71
525.81	35681.47
525.98	35662.74
526.16	35379.54
526.33	35227.40
526.50	35967.01
526.67	35634.66
526.84	35508.27
527.01	35285.92
527.18	36091.06
527.36	36336.82
527.53	35945.95
527.70	36512.36
527.87	36655.13
528.04	36350.86
528.21	36304.05
528.38	36177.66
528.55	36825.99
528.72	36636.41
528.89	36779.18
529.07	36957.06
529.24	36978.12
529.41	37247.29
529.58	37064.72
529.75	36690.24
529.92	37125.58
530.09	36947.70
530.26	37223.88
530.43	37434.53
530.60	37312.82
530.77	37064.72
530.94	37488.36
531.11	37230.90
531.28	37574.96
531.46	37614.75
531.63	37504.74
531.80	37474.32
531.97	36994.51
532.14	37617.09
532.31	37397.08
532.48	37324.52
532.65	37961.15
532.82	37869.87
532.99	37998.60
533.16	37837.10
533.33	37867.53
533.50	38094.56
533.67	37783.27
533.84	37993.92
534.01	38139.03
534.18	38024.34
534.35	38525.22
534.52	38396.49
534.69	38108.60
534.86	38204.56
535.03	38548.62
535.20	38424.57
535.37	39075.24
535.54	38923.11
535.71	38778.00
535.88	39005.03
536.05	38443.30
536.22	38941.83
536.38	39173.55
536.55	38712.46
536.72	38845.87
536.89	38574.37
537.06	38923.11
537.23	39105.67
537.40	38981.62
537.57	39175.89
537.74	38752.25
537.91	39255.46
538.08	39466.11
538.25	38892.68
538.42	39091.63
538.59	39608.89
538.75	39440.37
538.92	39667.40
539.09	39199.29
539.26	39386.54
539.43	39756.34
539.60	39651.02
539.77	39402.92
539.94	39847.62
540.11	39093.97
540.28	39618.25
540.44	39725.91
540.61	39739.96
540.78	39468.45
540.95	39833.58
541.12	40032.52
541.29	39304.62
541.46	39966.99
541.62	39950.60
541.79	40236.15
541.96	39562.08
542.13	40069.97
542.30	40100.40
542.47	40367.22
542.63	40388.28
542.80	40273.60
542.97	40713.62
543.14	40924.27
543.31	40793.20
543.48	41048.32
543.64	41294.07
543.81	41116.19
543.98	41106.83
544.15	40947.67
544.32	41134.92
544.48	41745.80
544.65	41233.22
544.82	41137.26
544.99	40722.98
545.16	40816.60
545.32	41158.32
545.49	41027.25
545.66	41233.22
545.83	41347.90
546.00	41088.10
546.16	41071.72
546.33	41698.98
546.50	40926.61
546.67	41486.00
546.83	40818.94
547.00	41446.21
547.17	41261.30
547.34	41720.05
547.50	41729.41
547.67	41933.04
547.84	41799.63
548.00	41745.80
548.17	41647.49
548.34	41879.21
548.51	41811.33
548.67	42064.11
548.84	41902.61
549.01	42047.72
549.18	41890.91
549.34	41773.88
549.51	42260.71
549.68	41797.29
549.84	42012.62
550.01	42754.57
550.18	42075.81
550.34	42012.62
550.51	42007.94
550.68	41942.40
550.84	41495.36
551.01	42043.04
551.18	42234.97
551.34	42213.90
551.51	42216.24
551.68	42726.48
551.84	42700.73
552.01	42803.72
552.18	42164.75
552.34	42637.54
552.51	42831.80
552.68	42658.60
552.84	42911.38
553.01	43164.16
553.18	42934.79
553.34	42326.25
553.51	42518.17
553.67	42651.58
553.84	42960.53
554.01	43049.47
554.17	43005.00
554.34	42712.44
554.51	43091.60
554.67	43185.22
554.84	43182.88
555.00	43463.75
555.17	42808.40
555.33	42953.51
555.50	43131.39
555.67	43379.49
555.83	43077.56
556.00	43323.32
556.16	43643.97
556.33	43264.80
556.50	43276.51
556.66	43529.28
556.83	42515.83
556.99	43381.83
557.16	43695.46
557.32	43955.26
557.49	43564.39
557.65	42948.83
557.82	43147.78
557.98	43426.30
558.15	43456.73
558.32	43552.69
558.48	43730.57
558.65	43594.82
558.81	43428.64
558.98	43817.17
559.14	43592.48
559.31	43428.64
559.47	43875.68
559.64	43751.63
559.80	44048.88
559.97	43765.68
560.13	43768.02
560.30	43746.95
560.46	44257.19
560.63	43681.42
560.79	43571.41
560.96	44062.93
561.12	44030.16
561.29	44236.12
561.45	43707.16
561.61	44112.08
561.78	43718.87
561.94	43704.82
562.11	43978.67
562.27	44133.14
562.44	43903.77
562.60	44296.98
562.77	44315.70
562.93	44203.36
563.10	44123.78
563.26	43796.10
563.42	44186.97
563.59	43945.90
563.75	43718.87
563.92	44388.26
564.08	44156.55
564.24	44102.71
564.41	44622.31
564.57	44311.02
564.74	43831.21
564.90	44252.51
565.07	44481.88
565.23	44229.10
565.39	44196.34
565.56	44622.31
565.72	43885.04
565.88	44282.94
566.05	44184.63
566.21	44304.00
566.38	44128.46
566.54	44046.54
566.70	44032.50
566.87	44802.53
567.03	44294.64
567.19	44905.52
567.36	44727.64
567.52	44130.80
567.68	45081.06
567.85	44177.61
568.01	44456.14
568.17	44149.53
568.34	44554.44
568.50	44418.69
568.66	44786.15
568.83	44315.70
568.99	44519.33
569.15	44573.16
569.32	44404.64
569.48	44165.91
569.64	44521.67
569.81	44659.76
569.97	44212.72
570.13	44856.37
570.30	44470.18
570.46	44109.74
570.62	44126.12
570.78	44247.83
570.95	44109.74
571.11	44418.69
571.27	44034.84
571.43	44374.22
571.60	44355.49
571.76	44617.63
571.92	44437.41
572.09	44662.10
572.25	44772.11
572.41	44547.42
572.57	44751.04
572.74	45354.90
572.90	45043.61
573.06	44587.21
573.22	44336.77
573.38	44849.35
573.55	44341.45
573.71	44573.16
573.87	44748.70
574.03	44280.60
574.20	44961.69
574.36	44430.39
574.52	44889.13
574.68	44701.89
574.84	44842.32
575.01	44261.87
575.17	44512.31
575.33	44643.38
575.49	44514.65
575.65	45188.72
575.82	44886.79
575.98	44589.55
576.14	44954.67
576.30	44680.83
576.46	44793.17
576.62	44109.74
576.79	44418.69
576.95	44168.25
577.11	44119.10
577.27	44811.90
577.43	44917.22
577.59	45031.91
577.75	44992.12
577.92	44793.17
578.08	44348.47
578.24	44673.81
578.40	44818.92
578.56	44767.43
578.72	44804.88
578.88	45148.93
579.04	45074.04
579.21	44495.92
579.37	45017.86
579.53	44573.16
579.69	44135.48
579.85	44751.04
580.01	44839.98
580.17	44844.66
580.33	44851.69
580.49	45162.98
580.65	44832.96
580.82	45120.85
580.98	44685.51
581.14	44615.29
581.30	44996.80
581.46	45235.53
581.62	44905.52
581.78	45067.02
581.94	45488.31
582.10	45158.30
582.26	45139.57
582.42	44720.62
582.58	45067.02
582.74	44271.23
582.90	45048.29
583.06	45319.79
583.22	44964.03
583.38	44905.52
583.54	45057.65
583.70	44608.27
583.86	45181.70
584.02	44463.16
584.18	45155.96
584.34	44781.47
584.50	45090.42
584.66	44692.53
584.82	44926.58
584.98	45172.34
585.14	44652.74
585.30	44900.84
585.46	44968.71
585.62	44144.84
585.78	44891.48
585.94	44926.58
586.10	44779.13
586.26	44762.75
586.42	44947.65
586.58	45380.65
586.74	45116.17
586.90	44982.76
587.06	44465.50
587.22	45057.65
587.38	44388.26
587.54	45228.51
587.70	44907.86
587.86	45165.32
588.02	44935.95
588.18	45125.53
588.34	45113.83
588.49	44917.22
588.65	44671.46
588.81	44701.89
588.97	44987.44
589.13	44430.39
589.29	44886.79
589.45	44975.73
589.61	45045.95
589.77	45628.74
589.93	45172.34
590.08	45364.26
590.24	45240.21
