SpectraSuite Data File
++++++++++++++++++++++++++++++++++++
Date: Fri Oct 25 11:22:37 EDT 2013
User: price-jones
Dark Spectrum Present: No
Reference Spectrum Present: No
Number of Sampled Component Spectra: 1
Spectrometers: USB2+H05261
Integration Time (usec): 100000 (USB2+H05261)
Spectra Averaged: 1 (USB2+H05261)
Boxcar Smoothing: 0 (USB2+H05261)
Correct for Electrical Dark: No (USB2+H05261)
Strobe/Lamp Enabled: No (USB2+H05261)
Correct for Detector Non-linearity: No (USB2+H05261)
Correct for Stray Light: No (USB2+H05261)
Number of Pixels in Processed Spectrum: 2048
>>>>>Begin Processed Spectral Data<<<<<
365.73	180.22
365.92	180.22
366.12	180.22
366.32	166.18
366.52	51.49
366.72	145.11
366.91	138.09
367.11	128.73
367.31	142.77
367.51	67.88
367.70	117.03
367.90	131.07
368.10	138.09
368.30	147.45
368.49	145.11
368.69	147.45
368.89	159.16
369.09	208.31
369.28	173.20
369.48	147.45
369.68	126.39
369.87	201.29
370.07	173.20
370.27	299.59
370.47	325.33
370.66	526.62
370.86	571.09
371.06	641.31
371.25	655.35
371.45	608.54
371.65	758.33
371.84	660.03
372.04	631.94
372.24	720.88
372.44	685.78
372.63	716.20
372.83	730.25
373.03	739.61
373.22	720.88
373.42	697.48
373.62	814.51
373.81	793.44
374.01	849.61
374.21	763.01
374.40	779.40
374.60	788.76
374.79	826.21
374.99	858.98
375.19	870.68
375.38	835.57
375.58	823.87
375.78	889.40
375.97	908.13
376.17	891.74
376.37	861.32
376.56	959.62
376.76	887.06
376.95	945.58
377.15	887.06
377.35	884.72
377.54	905.79
377.74	830.89
377.93	887.06
378.13	875.36
378.33	905.79
378.52	880.04
378.72	971.32
378.91	1008.77
379.11	999.41
379.31	938.55
379.50	940.90
379.70	964.30
379.89	936.21
380.09	959.62
380.28	1041.54
380.48	1039.20
380.68	952.60
380.87	976.00
381.07	980.68
381.26	931.53
381.46	999.41
381.65	1086.01
381.85	966.64
382.04	1043.88
382.24	1090.69
382.43	1083.67
382.63	1074.31
382.83	1025.15
383.02	1165.59
383.22	1146.86
383.41	1097.71
383.61	1074.31
383.80	1111.75
384.00	1109.41
384.19	1109.41
384.39	1165.59
384.58	1100.05
384.78	1071.97
384.97	1177.29
385.17	1217.08
385.36	1245.16
385.56	1165.59
385.75	1125.80
385.95	1186.65
386.14	1259.21
386.34	1156.22
386.53	1214.74
386.72	1135.16
386.92	1238.14
387.11	1261.55
387.31	1109.41
387.50	1231.12
387.70	1296.66
387.89	1149.20
388.09	1270.91
388.28	1263.89
388.48	1310.70
388.67	1401.98
388.86	1277.93
389.06	1310.70
389.25	1364.53
389.45	1306.02
389.64	1329.42
389.84	1345.81
390.03	1397.30
390.22	1394.96
390.42	1474.54
390.61	1497.94
390.81	1369.21
391.00	1329.42
391.19	1455.81
391.39	1481.56
391.58	1481.56
391.78	1490.92
391.97	1511.99
392.16	1511.99
392.36	1561.14
392.55	1586.88
392.75	1495.60
392.94	1568.16
393.13	1537.73
393.33	1612.63
393.52	1521.35
393.71	1582.20
393.91	1565.82
394.10	1661.78
394.29	1572.84
394.49	1607.95
394.68	1589.22
394.88	1645.40
395.07	1624.33
395.26	1659.44
395.46	1657.10
395.65	1804.55
395.84	1767.10
396.04	1830.30
396.23	1792.85
396.42	1832.64
396.62	1849.02
396.81	1818.60
397.00	1708.59
397.19	1753.06
397.39	1813.92
397.58	1827.96
397.77	1851.36
397.97	1802.21
398.16	1825.62
398.35	1842.00
398.55	1839.66
398.74	1998.82
398.93	1982.43
399.12	1842.00
399.32	1921.58
399.51	1970.73
399.70	2001.16
399.90	1926.26
400.09	2036.27
400.28	2085.42
400.47	2090.10
400.67	2062.01
400.86	2064.35
401.05	2069.03
401.24	1968.39
401.44	2165.00
401.63	2160.31
401.82	2160.31
402.01	2108.82
402.21	2275.00
402.40	2197.76
402.59	2186.06
402.78	2221.17
402.97	2232.87
403.17	2303.09
403.36	2179.04
403.55	2319.47
403.74	2370.96
403.93	2401.39
404.13	2455.22
404.32	2473.95
404.51	2392.03
404.70	2459.90
404.89	2469.27
405.09	2492.67
405.28	2473.95
405.47	2509.05
405.66	2560.55
405.85	2586.29
406.05	2478.63
406.24	2558.21
406.43	2597.99
406.62	2626.08
406.81	2738.43
407.00	2616.72
407.20	2647.15
407.39	2626.08
407.58	2555.86
407.77	2644.81
407.96	2752.47
408.15	2738.43
408.34	2722.04
408.54	2796.94
408.73	2839.07
408.92	2818.00
409.11	2810.98
409.30	2958.44
409.49	3052.06
409.68	3000.57
409.87	2846.09
410.07	3084.83
410.26	3005.25
410.45	2972.48
410.64	3075.46
410.83	3192.49
411.02	3155.04
411.21	3302.50
411.40	3084.83
411.59	3353.99
411.78	3286.11
411.98	3133.98
412.17	3283.77
412.36	3243.98
412.55	3384.41
412.74	3410.16
412.93	3421.86
413.12	3431.23
413.31	3536.55
413.50	3426.54
413.69	3578.68
413.88	3700.39
414.07	3632.51
414.26	3492.08
414.45	3772.94
414.64	3702.73
414.83	3660.60
415.02	3761.24
415.22	3918.06
415.41	3847.84
415.60	3861.88
415.79	3920.40
415.98	3941.46
416.17	4028.06
416.36	3974.23
416.55	4011.68
416.74	4182.54
416.93	4032.74
417.12	4035.08
417.31	4311.27
417.50	4250.41
417.69	4362.76
417.88	4407.23
418.07	4325.31
418.26	4313.61
418.45	4479.79
418.64	4510.21
418.83	4498.51
419.02	4290.20
419.21	4423.61
419.39	4524.26
419.58	4524.26
419.77	4561.70
419.96	4669.37
420.15	4533.62
420.34	4507.87
420.53	4674.05
420.72	4753.63
420.91	4741.93
421.10	4795.76
421.29	4910.44
421.48	4697.46
421.67	4854.27
421.86	4744.27
422.05	4858.95
422.24	4851.93
422.43	4990.02
422.61	4849.59
422.80	5013.43
422.99	4945.55
423.18	4959.60
423.37	5107.05
423.56	4994.70
423.75	5109.39
423.94	4898.74
424.13	4610.86
424.32	4655.33
424.50	5064.92
424.69	4994.70
424.88	5085.98
425.07	4924.49
425.26	5125.77
425.45	4896.40
425.64	5121.09
425.83	5032.15
426.01	5013.43
426.20	5100.03
426.39	5177.26
426.58	5064.92
426.77	5006.41
426.96	5259.18
427.15	5156.20
427.33	5177.26
427.52	5167.90
427.71	5287.27
427.90	5207.69
428.09	5301.31
428.28	5423.02
428.46	5427.70
428.65	5437.06
428.84	5500.26
429.03	5577.50
429.22	5275.57
429.40	5504.94
429.59	5638.35
429.78	5275.57
429.97	5240.46
430.16	5451.11
430.34	5661.76
430.53	5774.10
430.72	5593.88
430.91	5696.86
431.10	5785.80
431.28	5713.25
431.47	5877.09
431.66	5832.62
431.85	5736.65
432.03	5966.03
432.22	6047.94
432.41	5970.71
432.60	5982.41
432.79	6071.35
432.97	6101.78
433.16	6083.05
433.35	6099.44
433.54	6052.63
433.72	6099.44
433.91	6373.28
434.10	6120.50
434.28	6043.26
434.47	6244.55
434.66	6218.80
434.85	6263.27
435.03	6326.47
435.22	6232.85
435.41	6532.44
435.59	6438.81
435.78	6539.46
435.97	6438.81
436.16	6345.19
436.34	6597.97
436.53	6443.49
436.72	6754.79
436.90	6677.55
437.09	6792.23
437.28	6523.07
437.46	6731.38
437.65	6668.19
437.84	6808.62
438.02	6869.47
438.21	6855.43
438.40	6743.08
438.58	7061.40
438.77	7082.46
438.96	7049.69
439.14	7314.17
439.33	7148.00
439.52	7253.32
439.70	7281.41
439.89	7461.63
440.08	7506.10
440.26	7545.89
440.45	7431.20
440.63	7559.93
440.82	7508.44
441.01	7630.15
441.19	7620.78
441.38	7662.91
441.57	7709.72
441.75	7803.35
441.94	7871.22
442.12	7817.39
442.31	8196.56
442.50	8074.85
442.68	7843.14
442.87	7969.52
443.05	8168.47
443.24	8229.32
443.43	8287.84
443.61	8269.11
443.80	8379.12
443.98	8149.75
444.17	7955.48
444.35	8432.95
444.54	8236.35
444.73	8423.59
444.91	8234.00
445.10	8468.06
445.28	8526.57
445.47	8257.41
445.65	8465.72
445.84	8524.23
446.02	8496.14
446.21	8580.40
446.39	8327.63
446.58	8566.36
446.77	8557.00
446.95	8105.28
447.14	8528.91
447.32	8678.71
447.51	8308.90
447.69	8400.18
447.88	8606.15
448.06	8362.73
448.25	8561.68
448.43	8587.43
448.62	8435.29
448.80	8615.51
448.99	8692.75
449.17	8704.45
449.36	8816.80
449.54	8695.09
449.73	8908.08
449.91	9128.09
450.10	9039.15
450.28	9118.73
450.46	9083.62
450.65	9034.47
450.83	9165.54
451.02	9034.47
451.20	9104.68
451.39	9345.76
451.57	9156.18
451.76	9025.11
451.94	9224.05
452.13	9446.40
452.31	9568.11
452.49	9312.99
452.68	9525.98
452.86	9308.31
453.05	9357.46
453.23	9586.83
453.42	9291.93
453.60	9467.47
453.78	9781.10
453.97	9425.34
454.15	9692.16
454.34	9530.66
454.52	9628.96
454.70	9790.46
454.89	9804.50
455.07	9631.30
455.26	10045.58
455.44	9937.91
455.62	10078.35
455.81	10043.24
455.99	10005.79
456.17	9991.75
456.36	10162.61
456.54	10176.65
456.73	10342.83
456.91	10455.17
457.09	10319.42
457.28	10729.02
457.46	10223.46
457.64	10658.80
457.83	10609.65
458.01	10375.59
458.19	11044.99
458.38	10684.55
458.56	10843.70
458.74	10768.80
458.93	10752.42
459.11	10700.93
459.29	10792.21
459.48	10822.64
459.66	10932.64
459.84	10958.39
460.03	11021.58
460.21	10876.47
460.39	11117.54
460.57	11094.14
460.76	11026.26
460.94	11456.92
461.12	11302.45
461.31	11136.27
461.49	11241.59
461.67	11257.98
461.85	11536.50
462.04	11627.78
462.22	12025.67
462.40	11899.28
462.59	11754.17
462.77	11655.87
462.95	11815.02
463.13	11864.18
463.32	11597.35
463.50	11791.62
463.68	12168.45
463.86	12046.74
464.05	11747.15
464.23	11676.93
464.41	11985.88
464.59	11843.11
464.78	12205.89
464.96	12035.03
465.14	12037.38
465.32	11992.90
465.50	12212.92
465.69	12168.45
465.87	12250.36
466.05	12276.11
466.23	12250.36
466.41	12334.62
466.60	12585.06
466.78	12142.70
466.96	12205.89
467.14	12411.86
467.32	12503.14
467.51	12688.04
467.69	12418.88
467.87	12606.13
468.05	12564.00
468.23	12451.65
468.41	12446.97
468.60	12896.35
468.78	12879.97
468.96	12638.89
469.14	12985.29
469.32	13069.55
469.50	12826.14
469.69	13174.88
469.87	12964.23
470.05	13254.45
470.23	13181.90
470.41	13411.27
470.59	13418.29
470.77	13130.41
470.95	13563.40
471.14	13638.30
471.32	13441.70
471.50	13664.05
471.68	13977.68
471.86	13652.34
472.04	13898.10
472.22	14225.78
472.40	13713.20
472.58	13982.36
472.77	14106.41
472.95	14347.48
473.13	14834.32
473.31	14295.99
473.49	14537.07
473.67	14244.50
473.85	14527.71
474.03	14843.68
474.21	14703.25
474.39	14993.47
474.57	14876.44
474.75	14892.83
474.93	15119.86
475.12	15126.88
475.30	15243.91
475.48	15344.55
475.66	15314.13
475.84	15587.97
476.02	15529.45
476.20	15735.42
476.38	15845.43
476.56	16004.58
476.74	15992.88
476.92	15978.84
477.10	15960.11
477.28	16332.26
477.46	16149.70
477.64	16561.63
477.82	16608.44
478.00	17130.38
478.18	16936.12
478.36	17116.34
478.54	17371.46
478.72	17116.34
478.90	17577.42
479.08	17708.49
479.26	17694.45
479.44	17865.31
479.62	18082.98
479.80	18104.04
479.98	18270.22
480.16	18721.95
480.34	18499.59
480.52	18635.35
480.70	18960.68
480.88	18600.24
481.06	18927.91
481.24	18979.40
481.41	19080.05
481.59	19676.88
481.77	19730.72
481.95	19587.94
482.13	19850.08
482.31	19974.13
482.49	20437.56
482.67	20170.74
482.85	20561.61
483.03	20924.39
483.21	21149.08
483.39	21198.23
483.57	20985.24
483.74	21689.74
483.92	21331.64
484.10	21387.82
484.28	21717.83
484.46	22197.64
484.64	22567.45
484.82	22125.08
485.00	22602.55
485.18	22963.00
485.35	23337.48
485.53	23515.36
485.71	23068.32
485.89	23681.54
486.07	23515.36
486.25	23868.78
486.43	23913.25
486.61	24112.20
486.78	24088.79
486.96	24568.60
487.14	24521.79
487.32	24945.43
487.50	25380.77
487.68	25322.26
487.85	25436.94
488.03	25511.84
488.21	25891.01
488.39	26153.15
488.57	26607.21
488.75	26590.83
488.92	26712.53
489.10	26969.99
489.28	26841.26
489.46	27243.84
489.64	27304.69
489.81	28006.85
489.99	27791.52
490.17	27910.89
490.35	28308.78
490.53	28577.94
490.70	29125.63
490.88	28662.20
491.06	29308.19
491.24	29326.91
491.41	29120.95
491.59	29628.84
491.77	29893.32
491.95	29766.93
492.13	29923.75
492.30	30609.53
492.48	30497.18
492.66	30728.89
492.84	30656.34
493.01	31323.39
493.19	30862.30
493.37	31777.45
493.54	31438.08
493.72	32079.38
493.90	31498.93
494.08	31758.73
494.25	32261.94
494.43	32680.90
494.61	32872.82
494.79	32730.05
494.96	33046.02
495.14	33027.30
495.32	33340.93
495.49	33385.40
495.67	33284.76
495.85	33546.90
496.02	33937.77
496.20	34139.05
496.38	34349.70
496.55	34490.13
496.73	35075.27
496.91	34848.24
497.09	35311.66
497.26	35122.08
497.44	35473.16
497.62	35229.74
497.79	35688.49
497.97	36229.15
498.14	36027.87
498.32	37029.62
498.50	36493.63
498.67	37057.70
498.85	36692.58
499.03	37324.52
499.20	37209.84
499.38	37003.87
499.56	37479.00
499.73	37212.18
499.91	38010.30
500.08	38066.47
500.26	37294.10
500.44	38174.14
500.61	38181.16
500.79	37860.51
500.97	38583.73
501.14	38707.78
501.32	38810.76
501.49	39079.92
501.67	39056.52
501.84	39405.26
502.02	39260.15
502.20	39447.39
502.37	39885.07
502.55	39412.28
502.72	39974.01
502.90	40102.74
503.07	40151.89
503.25	40751.07
503.43	40381.26
503.60	40467.86
503.78	40741.71
503.95	40793.20
504.13	40987.46
504.30	41097.47
504.48	40634.04
504.65	41284.71
504.83	41397.06
505.01	41720.05
505.18	41420.46
505.36	41783.24
505.53	42103.90
505.71	41706.01
505.88	42131.98
506.06	41818.35
506.23	42490.09
506.41	42478.38
506.58	42630.52
506.76	42572.00
506.93	43119.69
507.11	42756.91
507.28	42911.38
507.46	43061.18
507.63	43384.17
507.81	43920.15
507.98	43070.54
508.16	43665.03
508.33	43772.70
508.50	44055.90
508.68	43929.51
508.85	44107.40
509.03	44126.12
509.20	44364.85
509.38	45090.42
509.55	44444.43
509.73	45305.75
509.90	44828.28
510.08	44734.66
510.25	45111.49
510.42	44900.84
510.60	44933.60
510.77	45523.42
510.95	46024.29
511.12	45476.61
511.30	45558.53
511.47	45886.20
511.64	45867.48
511.82	46513.47
511.99	46146.00
512.17	46527.51
512.34	46431.55
512.51	46644.54
512.69	46887.95
512.86	46387.08
513.04	47000.30
513.21	47126.69
513.38	46960.51
513.56	47061.15
513.73	47426.28
513.90	47381.80
514.08	47358.40
514.25	47428.62
514.43	47585.43
514.60	47859.27
514.77	47934.17
514.95	48053.54
515.12	48060.56
515.29	48076.94
515.47	48339.08
515.64	48268.87
515.81	48460.79
515.99	48406.96
516.16	48739.32
516.33	49036.56
516.51	48985.07
516.68	48861.02
516.85	48774.42
517.03	49389.98
517.20	49511.69
517.37	49523.40
517.54	49343.17
517.72	49310.41
517.89	49415.73
518.06	49581.91
518.24	49521.05
518.41	49139.55
518.58	49588.93
518.75	49528.08
518.93	49928.31
519.10	49464.88
519.27	50225.56
519.45	50033.63
519.62	50309.82
519.79	50667.92
519.96	50260.66
520.14	50564.93
520.31	50560.25
520.48	50852.82
520.65	50637.49
520.83	50972.19
521.00	50953.46
521.17	50791.97
521.34	51100.92
521.52	51206.24
521.69	51147.73
521.86	51356.03
522.03	51503.49
522.20	51597.11
522.38	51973.94
522.55	51870.95
522.72	51311.56
522.89	51641.58
523.07	52032.45
523.24	51870.95
523.41	52287.57
523.58	51845.21
523.75	52196.29
523.92	52229.05
524.10	52051.17
524.27	52680.78
524.44	52109.69
524.61	52493.54
524.78	52547.37
524.96	52582.48
525.13	52755.68
525.30	52582.48
525.47	52619.92
525.64	52706.52
525.81	52910.15
525.98	52949.94
526.16	52870.36
526.33	53130.16
526.50	53172.29
526.67	53169.95
526.84	53183.99
527.01	53062.29
527.18	53340.81
527.36	53254.21
527.53	53820.62
527.70	53944.67
527.87	53392.30
528.04	53258.89
528.21	53511.67
528.38	53977.43
528.55	54092.12
528.72	53331.45
528.89	53715.29
529.07	53446.13
529.24	53804.24
529.41	54014.88
529.58	53794.87
529.75	53853.39
529.92	54176.38
530.09	53982.12
530.26	54216.17
530.43	54398.73
530.60	54014.88
530.77	54291.07
530.94	54459.58
531.11	54167.02
531.28	54546.18
531.46	54380.01
531.63	54733.43
531.80	54710.02
531.97	54754.49
532.14	54852.80
532.31	54822.37
532.48	54972.16
532.65	55157.06
532.82	54705.34
532.99	54543.84
533.16	54948.76
533.33	55040.04
533.50	55416.86
533.67	55159.41
533.84	55231.96
534.01	55299.84
534.18	55276.43
534.35	55718.79
534.52	55126.64
534.69	55643.90
534.86	55540.91
535.03	55517.51
535.20	55629.85
535.37	55657.94
535.54	55807.73
535.71	55433.25
535.88	55807.73
536.05	55760.92
536.22	56034.77
536.38	55941.14
536.55	55901.36
536.72	55992.64
536.89	55852.20
537.06	55992.64
537.23	56060.51
537.40	55973.91
537.57	55924.76
537.74	55931.78
537.91	56292.22
538.08	56002.00
538.25	56051.15
538.42	56055.83
538.59	56479.47
538.75	56156.47
538.92	56224.35
539.09	56341.38
539.26	56439.68
539.43	56437.34
539.60	56453.72
539.77	56404.57
539.94	56872.68
540.11	56643.30
540.28	56619.90
540.44	56818.84
540.61	56580.11
540.78	56514.58
540.95	56598.83
541.12	56671.39
541.29	56828.21
541.46	56608.20
541.62	56669.05
541.79	56760.33
541.96	56846.93
542.13	56910.13
542.30	57080.98
542.47	57240.14
542.63	57148.86
542.80	57312.70
542.97	57469.51
543.14	57471.85
543.31	57331.42
543.48	57502.28
543.64	57542.07
543.81	57682.50
543.98	57741.02
544.15	57724.63
544.32	57607.61
544.48	57839.32
544.65	57532.71
544.82	57591.22
544.99	57322.06
545.16	57797.19
545.32	57764.42
545.49	57839.32
545.66	58117.84
545.83	57771.44
546.00	57827.62
546.16	57942.30
546.33	57914.22
546.50	57895.49
546.67	57965.71
546.83	57626.33
547.00	58108.48
547.17	57602.92
547.34	58089.76
547.50	58244.23
547.67	58363.60
547.84	58054.65
548.00	58295.72
548.17	58513.39
548.34	58251.25
548.51	58422.11
548.67	58403.39
548.84	58489.99
549.01	58607.01
549.18	58377.64
549.34	58644.46
549.51	58639.78
549.68	58869.15
549.84	58482.97
550.01	58810.64
550.18	58363.60
550.34	58632.76
550.51	58656.17
550.68	58801.28
550.84	58368.28
551.01	58742.77
551.18	58817.66
551.34	58780.21
551.51	59021.29
551.68	58670.21
551.84	58780.21
552.01	58752.13
552.18	58759.15
552.34	58728.72
552.51	59014.27
552.68	58990.86
552.84	58841.07
553.01	59114.91
553.18	59018.95
553.34	59007.25
553.51	58941.71
553.67	58913.62
553.84	59257.68
554.01	59075.12
554.17	59236.62
554.34	59128.95
554.51	59182.79
554.67	59461.31
554.84	59384.07
555.00	59255.34
555.17	59077.46
555.33	59234.28
555.50	58986.18
555.67	59028.31
555.83	59096.19
556.00	59430.88
556.16	59678.98
556.33	59641.53
556.50	59473.01
556.66	59859.20
556.83	59330.24
556.99	59613.44
557.16	59606.42
557.32	59744.51
557.49	59924.74
557.65	59615.79
557.82	59662.60
557.98	59662.60
558.15	59487.06
558.32	59786.64
558.48	59632.17
558.65	59655.57
558.81	59690.68
558.98	59648.55
559.14	59985.59
559.31	60055.81
559.47	60048.78
559.64	60006.65
559.80	59896.65
559.97	60039.42
560.13	59840.48
560.30	59950.48
560.46	59978.57
560.63	60074.53
560.79	60097.94
560.96	60289.86
561.12	60095.60
561.29	60065.17
561.45	60313.26
561.61	60037.08
561.78	59980.91
561.94	60177.51
562.11	60051.12
562.27	60111.98
562.44	60294.54
562.60	60423.27
562.77	60074.53
562.93	60039.42
563.10	60322.63
563.26	60214.96
563.42	60238.37
563.59	60198.58
563.75	60245.39
563.92	60453.70
564.08	60147.09
564.24	60470.08
564.41	60528.59
564.57	60479.44
564.74	60418.59
564.90	60505.19
565.07	60257.09
565.23	60498.17
565.39	60416.25
565.56	60406.89
565.72	60287.52
565.88	60449.02
566.05	60505.19
566.21	60547.32
566.38	60336.67
566.54	60404.55
566.70	60573.06
566.87	60669.03
567.03	60477.10
567.19	60750.94
567.36	60699.45
567.52	60530.93
567.68	60816.48
567.85	60608.17
568.01	60664.35
568.17	60381.14
568.34	60704.13
568.50	60544.98
568.66	60521.57
568.83	60516.89
568.99	60509.87
569.15	60535.62
569.32	60530.93
569.48	60617.53
569.64	60631.58
569.81	60708.82
569.97	60685.41
570.13	60772.01
570.30	60650.30
570.46	60577.75
570.62	60872.65
570.78	60683.07
570.95	60825.84
571.11	60779.03
571.27	60657.32
571.43	60851.59
571.60	60938.19
571.76	60860.95
571.92	60746.26
572.09	60722.86
572.25	60711.16
572.41	60776.69
572.57	60753.29
572.74	60931.17
572.90	60821.16
573.06	60760.31
573.22	60860.95
573.38	60776.69
573.55	60963.93
573.71	61038.83
573.87	60856.27
574.03	60893.72
574.20	60853.93
574.36	60757.97
574.52	61080.96
574.68	61052.87
574.84	60994.36
575.01	61029.47
575.17	61076.28
575.33	60849.25
575.49	60874.99
575.65	60928.83
575.82	61036.49
575.98	61083.30
576.14	61256.50
576.30	61055.21
576.46	60931.17
576.62	61073.94
576.79	60905.42
576.95	60872.65
577.11	61155.86
577.27	61172.24
577.43	61066.92
577.59	60828.18
577.75	61048.19
577.92	60931.17
578.08	60977.98
578.24	61015.43
578.40	61132.45
578.56	61272.88
578.72	61275.22
578.88	61296.29
579.04	61214.37
579.21	61247.14
579.37	61279.91
579.53	61111.39
579.69	61141.81
579.85	61109.05
580.01	61169.90
580.17	61022.45
580.33	61254.16
580.49	61160.54
580.65	61268.20
580.82	60999.04
580.98	61174.58
581.14	61064.58
581.30	61109.05
581.46	61144.16
581.62	61214.37
581.78	61104.37
581.94	61195.65
582.10	61240.12
582.26	61155.86
582.42	61076.28
582.58	61254.16
582.74	61001.38
582.90	61031.81
583.06	61045.85
583.22	61155.86
583.38	61228.41
583.54	61408.64
583.70	61300.97
583.86	61263.52
584.02	61160.54
584.18	61188.63
584.34	61350.12
584.50	61319.70
584.66	61013.08
584.82	61057.56
584.98	61226.07
585.14	61202.67
585.30	61289.27
585.46	61265.86
585.62	61399.27
585.78	61506.94
585.94	61125.43
586.10	61153.52
586.26	61197.99
586.42	61385.23
586.58	61427.36
586.74	61233.10
586.90	61394.59
587.06	61279.91
587.22	61359.48
587.38	61125.43
587.54	61331.40
587.70	61457.79
587.86	61237.78
588.02	61200.33
588.18	61450.77
588.34	61371.19
588.49	61240.12
